Cycle,Area(mm^2),PeakDynamic(W),SubthresholdLeakage(W),GateLeakage(W),RunTimeDynamic(W)
3000000,0.0324,0.013523,0.002678,0.000431,0.723033
3001000,0.0324,0.013523,0.002678,0.000431,0.645582
3002000,0.0324,0.013523,0.002678,0.000431,0.576241
3003000,0.0324,0.013523,0.002678,0.000431,0.610676
3004000,0.0324,0.013523,0.002678,0.000431,0.542393
3005000,0.0324,0.013523,0.002678,0.000431,0.607268
3006000,0.0324,0.013523,0.002678,0.000431,0.661684
3007000,0.0324,0.013523,0.002678,0.000431,0.650048
3008000,0.0324,0.013523,0.002678,0.000431,0.566603
3009000,0.0324,0.013523,0.002678,0.000431,0.578356
3010000,0.0324,0.013523,0.002678,0.000431,0.663799
3011000,0.0324,0.013523,0.002678,0.000431,0.599159
3012000,0.0324,0.013523,0.002678,0.000431,0.610206
3013000,0.0324,0.013523,0.002678,0.000431,0.598806
3014000,0.0324,0.013523,0.002678,0.000431,0.535811
3015000,0.0324,0.013523,0.002678,0.000431,0.536281
3016000,0.0324,0.013523,0.002678,0.000431,0.643114
3017000,0.0324,0.013523,0.002678,0.000431,0.737607
3018000,0.0324,0.013523,0.002678,0.000431,0.760290
3019000,0.0324,0.013523,0.002678,0.000431,0.695532
3020000,0.0324,0.013523,0.002678,0.000431,0.717980
3021000,0.0324,0.013523,0.002678,0.000431,0.835743
3022000,0.0324,0.013523,0.002678,0.000431,0.787674
3023000,0.0324,0.013523,0.002678,0.000431,0.706344
3024000,0.0324,0.013523,0.002678,0.000431,0.759115
3025000,0.0324,0.013523,0.002678,0.000431,0.773806
3026000,0.0324,0.013523,0.002678,0.000431,0.736549
3027000,0.0324,0.013523,0.002678,0.000431,0.672614
3028000,0.0324,0.013523,0.002678,0.000431,0.635710
3029000,0.0324,0.013523,0.002678,0.000431,0.581294
3030000,0.0324,0.013523,0.002678,0.000431,0.523353
3031000,0.0324,0.013523,0.002678,0.000431,0.473639
3032000,0.0324,0.013523,0.002678,0.000431,0.440966
3033000,0.0324,0.013523,0.002678,0.000431,0.441788
3034000,0.0324,0.013523,0.002678,0.000431,0.419105
3035000,0.0324,0.013523,0.002678,0.000431,0.461768
3036000,0.0324,0.013523,0.002678,0.000431,0.436735
3037000,0.0324,0.013523,0.002678,0.000431,0.398303
3038000,0.0324,0.013523,0.002678,0.000431,0.424512
3039000,0.0324,0.013523,0.002678,0.000431,0.491855
3040000,0.0324,0.013523,0.002678,0.000431,0.420751
3041000,0.0324,0.013523,0.002678,0.000431,0.412877
3042000,0.0324,0.013523,0.002678,0.000431,0.549092
3043000,0.0324,0.013523,0.002678,0.000431,0.635240
3044000,0.0324,0.013523,0.002678,0.000431,0.530170
3045000,0.0324,0.013523,0.002678,0.000431,0.621254
3046000,0.0324,0.013523,0.002678,0.000431,0.702231
3047000,0.0324,0.013523,0.002678,0.000431,0.656042
3048000,0.0324,0.013523,0.002678,0.000431,0.648285
3049000,0.0324,0.013523,0.002678,0.000431,0.609384
3050000,0.0324,0.013523,0.002678,0.000431,0.646875
3051000,0.0324,0.013523,0.002678,0.000431,0.840562
3052000,0.0324,0.013523,0.002678,0.000431,0.799427
3053000,0.0324,0.013523,0.002678,0.000431,0.820112
3054000,0.0324,0.013523,0.002678,0.000431,0.855488
3055000,0.0324,0.013523,0.002678,0.000431,0.807301
3056000,0.0324,0.013523,0.002678,0.000431,0.832570
3057000,0.0324,0.013523,0.002678,0.000431,0.783560
3058000,0.0324,0.013523,0.002678,0.000431,0.760877
3059000,0.0324,0.013523,0.002678,0.000431,0.705052
3060000,0.0324,0.013523,0.002678,0.000431,0.697647
3061000,0.0324,0.013523,0.002678,0.000431,0.721741
3062000,0.0324,0.013523,0.002678,0.000431,0.631949
3063000,0.0324,0.013523,0.002678,0.000431,0.654397
3064000,0.0324,0.013523,0.002678,0.000431,0.646287
3065000,0.0324,0.013523,0.002678,0.000431,0.572950
3066000,0.0324,0.013523,0.002678,0.000431,0.523823
3067000,0.0324,0.013523,0.002678,0.000431,0.547564
3068000,0.0324,0.013523,0.002678,0.000431,0.517477
3069000,0.0324,0.013523,0.002678,0.000431,0.520180
3070000,0.0324,0.013523,0.002678,0.000431,0.591637
3071000,0.0324,0.013523,0.002678,0.000431,0.639118
3072000,0.0324,0.013523,0.002678,0.000431,0.592577
3073000,0.0324,0.013523,0.002678,0.000431,0.600687
3074000,0.0324,0.013523,0.002678,0.000431,0.647698
3075000,0.0324,0.013523,0.002678,0.000431,0.685542
3076000,0.0324,0.013523,0.002678,0.000431,0.730320
3077000,0.0324,0.013523,0.002678,0.000431,0.861834
3078000,0.0324,0.013523,0.002678,0.000431,0.755001
3079000,0.0324,0.013523,0.002678,0.000431,0.748067
3080000,0.0324,0.013523,0.002678,0.000431,0.829161
3081000,0.0324,0.013523,0.002678,0.000431,0.770045
3082000,0.0324,0.013523,0.002678,0.000431,0.779447
3083000,0.0324,0.013523,0.002678,0.000431,0.770867
3084000,0.0324,0.013523,0.002678,0.000431,0.781210
3085000,0.0324,0.013523,0.002678,0.000431,0.837741
3086000,0.0324,0.013523,0.002678,0.000431,0.800955
3087000,0.0324,0.013523,0.002678,0.000431,0.738900
3088000,0.0324,0.013523,0.002678,0.000431,0.800484
3089000,0.0324,0.013523,0.002678,0.000431,0.728205
3090000,0.0324,0.013523,0.002678,0.000431,0.754648
3091000,0.0324,0.013523,0.002678,0.000431,0.752533
3092000,0.0324,0.013523,0.002678,0.000431,0.718920
3093000,0.0324,0.013523,0.002678,0.000431,0.700468
3094000,0.0324,0.013523,0.002678,0.000431,0.681193
3095000,0.0324,0.013523,0.002678,0.000431,0.619491
3096000,0.0324,0.013523,0.002678,0.000431,0.662154
3097000,0.0324,0.013523,0.002678,0.000431,0.656865
3098000,0.0324,0.013523,0.002678,0.000431,0.634182
3099000,0.0324,0.013523,0.002678,0.000431,0.676257
3100000,0.0324,0.013523,0.002678,0.000431,0.670498
3101000,0.0324,0.013523,0.002678,0.000431,0.613967
3102000,0.0324,0.013523,0.002678,0.000431,0.582822
3103000,0.0324,0.013523,0.002678,0.000431,0.521355
3104000,0.0324,0.013523,0.002678,0.000431,0.574948
3105000,0.0324,0.013523,0.002678,0.000431,0.616553
3106000,0.0324,0.013523,0.002678,0.000431,0.536516
3107000,0.0324,0.013523,0.002678,0.000431,0.509955
3108000,0.0324,0.013523,0.002678,0.000431,0.522060
3109000,0.0324,0.013523,0.002678,0.000431,0.489857
3110000,0.0324,0.013523,0.002678,0.000431,0.425452
3111000,0.0324,0.013523,0.002678,0.000431,0.433797
3112000,0.0324,0.013523,0.002678,0.000431,0.461181
3113000,0.0324,0.013523,0.002678,0.000431,0.379499
3114000,0.0324,0.013523,0.002678,0.000431,0.424042
3115000,0.0324,0.013523,0.002678,0.000431,0.478340
3116000,0.0324,0.013523,0.002678,0.000431,0.451073
3117000,0.0324,0.013523,0.002678,0.000431,0.475166
3118000,0.0324,0.013523,0.002678,0.000431,0.454246
3119000,0.0324,0.013523,0.002678,0.000431,0.408645
3120000,0.0324,0.013523,0.002678,0.000431,0.523588
3121000,0.0324,0.013523,0.002678,0.000431,0.752180
3122000,0.0324,0.013523,0.002678,0.000431,0.732906
3123000,0.0324,0.013523,0.002678,0.000431,0.860424
3124000,0.0324,0.013523,0.002678,0.000431,0.927650
3125000,0.0324,0.013523,0.002678,0.000431,0.877936
3126000,0.0324,0.013523,0.002678,0.000431,0.874292
3127000,0.0324,0.013523,0.002678,0.000431,0.999342
3128000,0.0324,0.013523,0.002678,0.000431,0.951273
3129000,0.0324,0.013523,0.002678,0.000431,0.840209
3130000,0.0324,0.013523,0.002678,0.000431,0.789672
3131000,0.0324,0.013523,0.002678,0.000431,0.791552
3132000,0.0324,0.013523,0.002678,0.000431,0.723386
3133000,0.0324,0.013523,0.002678,0.000431,0.613497
3134000,0.0324,0.013523,0.002678,0.000431,0.672026
3135000,0.0324,0.013523,0.002678,0.000431,0.744424
3136000,0.0324,0.013523,0.002678,0.000431,0.624780
3137000,0.0324,0.013523,0.002678,0.000431,0.659686
3138000,0.0324,0.013523,0.002678,0.000431,0.689420
3139000,0.0324,0.013523,0.002678,0.000431,0.618198
3140000,0.0324,0.013523,0.002678,0.000431,0.612557
3141000,0.0324,0.013523,0.002678,0.000431,0.659451
3142000,0.0324,0.013523,0.002678,0.000431,0.617258
3143000,0.0324,0.013523,0.002678,0.000431,0.657335
3144000,0.0324,0.013523,0.002678,0.000431,0.674259
3145000,0.0324,0.013523,0.002678,0.000431,0.620666
3146000,0.0324,0.013523,0.002678,0.000431,0.612204
3147000,0.0324,0.013523,0.002678,0.000431,0.597161
3148000,0.0324,0.013523,0.002678,0.000431,0.623017
3149000,0.0324,0.013523,0.002678,0.000431,0.508662
3150000,0.0324,0.013523,0.002678,0.000431,0.513833
3151000,0.0324,0.013523,0.002678,0.000431,0.590579
3152000,0.0324,0.013523,0.002678,0.000431,0.497614
3153000,0.0324,0.013523,0.002678,0.000431,0.497144
3154000,0.0324,0.013523,0.002678,0.000431,0.538749
3155000,0.0324,0.013523,0.002678,0.000431,0.533343
3156000,0.0324,0.013523,0.002678,0.000431,0.602802
3157000,0.0324,0.013523,0.002678,0.000431,0.652399
3158000,0.0324,0.013523,0.002678,0.000431,0.561315
3159000,0.0324,0.013523,0.002678,0.000431,0.545801
3160000,0.0324,0.013523,0.002678,0.000431,0.550267
3161000,0.0324,0.013523,0.002678,0.000431,0.524176
3162000,0.0324,0.013523,0.002678,0.000431,0.450956
3163000,0.0324,0.013523,0.002678,0.000431,0.434267
3164000,0.0324,0.013523,0.002678,0.000431,0.476812
3165000,0.0324,0.013523,0.002678,0.000431,0.527584
3166000,0.0324,0.013523,0.002678,0.000431,0.490328
3167000,0.0324,0.013523,0.002678,0.000431,0.423924
3168000,0.0324,0.013523,0.002678,0.000431,0.454246
3169000,0.0324,0.013523,0.002678,0.000431,0.471406
3170000,0.0324,0.013523,0.002678,0.000431,0.572127
3171000,0.0324,0.013523,0.002678,0.000431,0.567896
3172000,0.0324,0.013523,0.002678,0.000431,0.706814
3173000,0.0324,0.013523,0.002678,0.000431,0.747832
3174000,0.0324,0.013523,0.002678,0.000431,0.780387
3175000,0.0324,0.013523,0.002678,0.000431,0.796959
3176000,0.0324,0.013523,0.002678,0.000431,0.830689
3177000,0.0324,0.013523,0.002678,0.000431,0.960088
3178000,0.0324,0.013523,0.002678,0.000431,0.855958
3179000,0.0324,0.013523,0.002678,0.000431,0.886985
3180000,0.0324,0.013523,0.002678,0.000431,0.896387
3181000,0.0324,0.013523,0.002678,0.000431,0.840209
3182000,0.0324,0.013523,0.002678,0.000431,0.773100
3183000,0.0324,0.013523,0.002678,0.000431,0.838211
3184000,0.0324,0.013523,0.002678,0.000431,0.893567
3185000,0.0324,0.013523,0.002678,0.000431,0.742426
3186000,0.0324,0.013523,0.002678,0.000431,0.784148
3187000,0.0324,0.013523,0.002678,0.000431,0.839269
3188000,0.0324,0.013523,0.002678,0.000431,0.849494
3189000,0.0324,0.013523,0.002678,0.000431,0.689420
3190000,0.0324,0.013523,0.002678,0.000431,0.686600
3191000,0.0324,0.013523,0.002678,0.000431,0.651459
3192000,0.0324,0.013523,0.002678,0.000431,0.650166
3193000,0.0324,0.013523,0.002678,0.000431,0.641116
3194000,0.0324,0.013523,0.002678,0.000431,0.596573
3195000,0.0324,0.013523,0.002678,0.000431,0.561550
3196000,0.0324,0.013523,0.002678,0.000431,0.604565
3197000,0.0324,0.013523,0.002678,0.000431,0.523471
3198000,0.0324,0.013523,0.002678,0.000431,0.571540
3199000,0.0324,0.013523,0.002678,0.000431,0.589169
3200000,0.0324,0.013523,0.002678,0.000431,0.496204
3201000,0.0324,0.013523,0.002678,0.000431,0.514068
3202000,0.0324,0.013523,0.002678,0.000431,0.587876
3203000,0.0324,0.013523,0.002678,0.000431,0.631949
3204000,0.0324,0.013523,0.002678,0.000431,0.637708
3205000,0.0324,0.013523,0.002678,0.000431,0.652634
3206000,0.0324,0.013523,0.002678,0.000431,0.695884
3207000,0.0324,0.013523,0.002678,0.000431,0.827633
3208000,0.0324,0.013523,0.002678,0.000431,0.782503
3209000,0.0324,0.013523,0.002678,0.000431,0.713749
3210000,0.0324,0.013523,0.002678,0.000431,0.764991
3211000,0.0324,0.013523,0.002678,0.000431,0.778624
3212000,0.0324,0.013523,0.002678,0.000431,0.739605
3213000,0.0324,0.013523,0.002678,0.000431,0.730320
3214000,0.0324,0.013523,0.002678,0.000431,0.778272
3215000,0.0324,0.013523,0.002678,0.000431,0.706697
3216000,0.0324,0.013523,0.002678,0.000431,0.658275
3217000,0.0324,0.013523,0.002678,0.000431,0.614790
3218000,0.0324,0.013523,0.002678,0.000431,0.622429
3219000,0.0324,0.013523,0.002678,0.000431,0.585408
3220000,0.0324,0.013523,0.002678,0.000431,0.558729
3221000,0.0324,0.013523,0.002678,0.000431,0.509485
3222000,0.0324,0.013523,0.002678,0.000431,0.555908
3223000,0.0324,0.013523,0.002678,0.000431,0.660861
3224000,0.0324,0.013523,0.002678,0.000431,0.592577
3225000,0.0324,0.013523,0.002678,0.000431,0.585408
3226000,0.0324,0.013523,0.002678,0.000431,0.582352
3227000,0.0324,0.013523,0.002678,0.000431,0.586818
3228000,0.0324,0.013523,0.002678,0.000431,0.597161
3229000,0.0324,0.013523,0.002678,0.000431,0.546153
3230000,0.0324,0.013523,0.002678,0.000431,0.473991
3231000,0.0324,0.013523,0.002678,0.000431,0.492561
3232000,0.0324,0.013523,0.002678,0.000431,0.410761
3233000,0.0324,0.013523,0.002678,0.000431,0.437205
3234000,0.0324,0.013523,0.002678,0.000431,0.501493
3235000,0.0324,0.013523,0.002678,0.000431,0.571304
3236000,0.0324,0.013523,0.002678,0.000431,0.586466
3237000,0.0324,0.013523,0.002678,0.000431,0.639471
3238000,0.0324,0.013523,0.002678,0.000431,0.651224
3239000,0.0324,0.013523,0.002678,0.000431,0.652399
3240000,0.0324,0.013523,0.002678,0.000431,0.726207
3241000,0.0324,0.013523,0.002678,0.000431,0.845028
3242000,0.0324,0.013523,0.002678,0.000431,0.855723
3243000,0.0324,0.013523,0.002678,0.000431,0.819171
3244000,0.0324,0.013523,0.002678,0.000431,0.789672
3245000,0.0324,0.013523,0.002678,0.000431,0.884517
3246000,0.0324,0.013523,0.002678,0.000431,0.937052
3247000,0.0324,0.013523,0.002678,0.000431,0.937405
3248000,0.0324,0.013523,0.002678,0.000431,0.910726
3249000,0.0324,0.013523,0.002678,0.000431,0.919070
3250000,0.0324,0.013523,0.002678,0.000431,0.882989
3251000,0.0324,0.013523,0.002678,0.000431,0.871354
3252000,0.0324,0.013523,0.002678,0.000431,0.883224
3253000,0.0324,0.013523,0.002678,0.000431,0.745951
3254000,0.0324,0.013523,0.002678,0.000431,0.770750
3255000,0.0324,0.013523,0.002678,0.000431,0.813648
3256000,0.0324,0.013523,0.002678,0.000431,0.767812
3257000,0.0324,0.013523,0.002678,0.000431,0.748890
3258000,0.0324,0.013523,0.002678,0.000431,0.741015
3259000,0.0324,0.013523,0.002678,0.000431,0.762405
3260000,0.0324,0.013523,0.002678,0.000431,0.723856
3261000,0.0324,0.013523,0.002678,0.000431,0.735726
3262000,0.0324,0.013523,0.002678,0.000431,0.733963
3263000,0.0324,0.013523,0.002678,0.000431,0.749830
3264000,0.0324,0.013523,0.002678,0.000431,0.773335
3265000,0.0324,0.013523,0.002678,0.000431,0.693651
3266000,0.0324,0.013523,0.002678,0.000431,0.651341
3267000,0.0324,0.013523,0.002678,0.000431,0.658393
3268000,0.0324,0.013523,0.002678,0.000431,0.786851
3269000,0.0324,0.013523,0.002678,0.000431,0.772983
3270000,0.0324,0.013523,0.002678,0.000431,0.705874
3271000,0.0324,0.013523,0.002678,0.000431,0.796606
3272000,0.0324,0.013523,0.002678,0.000431,0.830807
3273000,0.0324,0.013523,0.002678,0.000431,0.658275
3274000,0.0324,0.013523,0.002678,0.000431,0.660861
3275000,0.0324,0.013523,0.002678,0.000431,0.664974
3276000,0.0324,0.013523,0.002678,0.000431,0.672731
3277000,0.0324,0.013523,0.002678,0.000431,0.660743
3278000,0.0324,0.013523,0.002678,0.000431,0.529582
3279000,0.0324,0.013523,0.002678,0.000431,0.541217
3280000,0.0324,0.013523,0.002678,0.000431,0.517359
3281000,0.0324,0.013523,0.002678,0.000431,0.486919
3282000,0.0324,0.013523,0.002678,0.000431,0.503843
3283000,0.0324,0.013523,0.002678,0.000431,0.555791
3284000,0.0324,0.013523,0.002678,0.000431,0.514186
3285000,0.0324,0.013523,0.002678,0.000431,0.652634
3286000,0.0324,0.013523,0.002678,0.000431,0.660391
3287000,0.0324,0.013523,0.002678,0.000431,0.679548
3288000,0.0324,0.013523,0.002678,0.000431,0.880404
3289000,0.0324,0.013523,0.002678,0.000431,0.819642
3290000,0.0324,0.013523,0.002678,0.000431,0.741250
3291000,0.0324,0.013523,0.002678,0.000431,0.827398
3292000,0.0324,0.013523,0.002678,0.000431,0.945044
3293000,0.0324,0.013523,0.002678,0.000431,0.806596
3294000,0.0324,0.013523,0.002678,0.000431,0.831982
3295000,0.0324,0.013523,0.002678,0.000431,0.800955
3296000,0.0324,0.013523,0.002678,0.000431,0.847261
3297000,0.0324,0.013523,0.002678,0.000431,0.812707
3298000,0.0324,0.013523,0.002678,0.000431,0.787674
3299000,0.0324,0.013523,0.002678,0.000431,0.736197
3300000,0.0324,0.013523,0.002678,0.000431,0.704111
3301000,0.0324,0.013523,0.002678,0.000431,0.685072
3302000,0.0324,0.013523,0.002678,0.000431,0.658040
3303000,0.0324,0.013523,0.002678,0.000431,0.599981
3304000,0.0324,0.013523,0.002678,0.000431,0.599041
3305000,0.0324,0.013523,0.002678,0.000431,0.621842
3306000,0.0324,0.013523,0.002678,0.000431,0.536751
3307000,0.0324,0.013523,0.002678,0.000431,0.508192
3308000,0.0324,0.013523,0.002678,0.000431,0.484804
3309000,0.0324,0.013523,0.002678,0.000431,0.514068
3310000,0.0324,0.013523,0.002678,0.000431,0.554498
3311000,0.0324,0.013523,0.002678,0.000431,0.489622
3312000,0.0324,0.013523,0.002678,0.000431,0.553910
3313000,0.0324,0.013523,0.002678,0.000431,0.546624
3314000,0.0324,0.013523,0.002678,0.000431,0.520650
3315000,0.0324,0.013523,0.002678,0.000431,0.573655
3316000,0.0324,0.013523,0.002678,0.000431,0.571304
3317000,0.0324,0.013523,0.002678,0.000431,0.544508
3318000,0.0324,0.013523,0.002678,0.000431,0.534401
3319000,0.0324,0.013523,0.002678,0.000431,0.482218
3320000,0.0324,0.013523,0.002678,0.000431,0.468115
3321000,0.0324,0.013523,0.002678,0.000431,0.435559
3322000,0.0324,0.013523,0.002678,0.000431,0.409351
3323000,0.0324,0.013523,0.002678,0.000431,0.406883
3324000,0.0324,0.013523,0.002678,0.000431,0.402769
3325000,0.0324,0.013523,0.002678,0.000431,0.408998
3326000,0.0324,0.013523,0.002678,0.000431,0.522883
3327000,0.0324,0.013523,0.002678,0.000431,0.538984
3328000,0.0324,0.013523,0.002678,0.000431,0.557201
3329000,0.0324,0.013523,0.002678,0.000431,0.517359
3330000,0.0324,0.013523,0.002678,0.000431,0.543803
3331000,0.0324,0.013523,0.002678,0.000431,0.550149
3332000,0.0324,0.013523,0.002678,0.000431,0.551090
3333000,0.0324,0.013523,0.002678,0.000431,0.589756
3334000,0.0324,0.013523,0.002678,0.000431,0.537926
3335000,0.0324,0.013523,0.002678,0.000431,0.607973
3336000,0.0324,0.013523,0.002678,0.000431,0.581412
3337000,0.0324,0.013523,0.002678,0.000431,0.639588
3338000,0.0324,0.013523,0.002678,0.000431,0.696119
3339000,0.0324,0.013523,0.002678,0.000431,0.624192
3340000,0.0324,0.013523,0.002678,0.000431,0.635240
3341000,0.0324,0.013523,0.002678,0.000431,0.719155
3342000,0.0324,0.013523,0.002678,0.000431,0.792257
3343000,0.0324,0.013523,0.002678,0.000431,0.772983
3344000,0.0324,0.013523,0.002678,0.000431,0.770867
3345000,0.0324,0.013523,0.002678,0.000431,0.736079
3346000,0.0324,0.013523,0.002678,0.000431,0.723151
3347000,0.0324,0.013523,0.002678,0.000431,0.733493
3348000,0.0324,0.013523,0.002678,0.000431,0.608443
3349000,0.0324,0.013523,0.002678,0.000431,0.642174
3350000,0.0324,0.013523,0.002678,0.000431,0.595398
3351000,0.0324,0.013523,0.002678,0.000431,0.539689
3352000,0.0324,0.013523,0.002678,0.000431,0.498907
3353000,0.0324,0.013523,0.002678,0.000431,0.525939
3354000,0.0324,0.013523,0.002678,0.000431,0.551207
3355000,0.0324,0.013523,0.002678,0.000431,0.591519
3356000,0.0324,0.013523,0.002678,0.000431,0.560609
3357000,0.0324,0.013523,0.002678,0.000431,0.530522
3358000,0.0324,0.013523,0.002678,0.000431,0.600334
3359000,0.0324,0.013523,0.002678,0.000431,0.553440
3360000,0.0324,0.013523,0.002678,0.000431,0.499730
3361000,0.0324,0.013523,0.002678,0.000431,0.555321
3362000,0.0324,0.013523,0.002678,0.000431,0.644407
3363000,0.0324,0.013523,0.002678,0.000431,0.612204
3364000,0.0324,0.013523,0.002678,0.000431,0.676727
3365000,0.0324,0.013523,0.002678,0.000431,0.693534
3366000,0.0324,0.013523,0.002678,0.000431,0.724561
3367000,0.0324,0.013523,0.002678,0.000431,0.860894
3368000,0.0324,0.013523,0.002678,0.000431,0.872412
3369000,0.0324,0.013523,0.002678,0.000431,0.834568
3370000,0.0324,0.013523,0.002678,0.000431,0.769575
3371000,0.0324,0.013523,0.002678,0.000431,0.809182
3372000,0.0324,0.013523,0.002678,0.000431,0.782150
3373000,0.0324,0.013523,0.002678,0.000431,0.691183
3374000,0.0324,0.013523,0.002678,0.000431,0.625485
3375000,0.0324,0.013523,0.002678,0.000431,0.584820
3376000,0.0324,0.013523,0.002678,0.000431,0.550267
3377000,0.0324,0.013523,0.002678,0.000431,0.477164
3378000,0.0324,0.013523,0.002678,0.000431,0.443669
3379000,0.0324,0.013523,0.002678,0.000431,0.400654
3380000,0.0324,0.013523,0.002678,0.000431,0.375032
3381000,0.0324,0.013523,0.002678,0.000431,0.356581
3382000,0.0324,0.013523,0.002678,0.000431,0.319677
3383000,0.0324,0.013523,0.002678,0.000431,0.311802
3384000,0.0324,0.013523,0.002678,0.000431,0.287239
3385000,0.0324,0.013523,0.002678,0.000431,0.277719
3386000,0.0324,0.013523,0.002678,0.000431,0.260913
3387000,0.0324,0.013523,0.002678,0.000431,0.257034
3388000,0.0324,0.013523,0.002678,0.000431,0.246809
3389000,0.0324,0.013523,0.002678,0.000431,0.235879
3390000,0.0324,0.013523,0.002678,0.000431,0.218720
3391000,0.0324,0.013523,0.002678,0.000431,0.210258
3392000,0.0324,0.013523,0.002678,0.000431,0.207320
3393000,0.0324,0.013523,0.002678,0.000431,0.201796
3394000,0.0324,0.013523,0.002678,0.000431,0.195919
3395000,0.0324,0.013523,0.002678,0.000431,0.188868
3396000,0.0324,0.013523,0.002678,0.000431,0.182169
3397000,0.0324,0.013523,0.002678,0.000431,0.175587
3398000,0.0324,0.013523,0.002678,0.000431,0.172884
3399000,0.0324,0.013523,0.002678,0.000431,0.168653
3400000,0.0324,0.013523,0.002678,0.000431,0.162071
3401000,0.0324,0.013523,0.002678,0.000431,0.156430
3402000,0.0324,0.013523,0.002678,0.000431,0.158663
3403000,0.0324,0.013523,0.002678,0.000431,0.154667
3404000,0.0324,0.013523,0.002678,0.000431,0.149026
3405000,0.0324,0.013523,0.002678,0.000431,0.145500
3406000,0.0324,0.013523,0.002678,0.000431,0.141857
3407000,0.0324,0.013523,0.002678,0.000431,0.141034
3408000,0.0324,0.013523,0.002678,0.000431,0.143032
3409000,0.0324,0.013523,0.002678,0.000431,0.135628
3410000,0.0324,0.013523,0.002678,0.000431,0.137861
3411000,0.0324,0.013523,0.002678,0.000431,0.130691
3412000,0.0324,0.013523,0.002678,0.000431,0.124697
3413000,0.0324,0.013523,0.002678,0.000431,0.122817
3414000,0.0324,0.013523,0.002678,0.000431,0.119761
3415000,0.0324,0.013523,0.002678,0.000431,0.122464
3416000,0.0324,0.013523,0.002678,0.000431,0.116353
3417000,0.0324,0.013523,0.002678,0.000431,0.117881
3418000,0.0324,0.013523,0.002678,0.000431,0.112357
3419000,0.0324,0.013523,0.002678,0.000431,0.112122
3420000,0.0324,0.013523,0.002678,0.000431,0.111534
3421000,0.0324,0.013523,0.002678,0.000431,0.107068
3422000,0.0324,0.013523,0.002678,0.000431,0.109301
3423000,0.0324,0.013523,0.002678,0.000431,0.106128
3424000,0.0324,0.013523,0.002678,0.000431,0.104600
3425000,0.0324,0.013523,0.002678,0.000431,0.099546
3426000,0.0324,0.013523,0.002678,0.000431,0.103190
3427000,0.0324,0.013523,0.002678,0.000431,0.094963
3428000,0.0324,0.013523,0.002678,0.000431,0.094023
3429000,0.0324,0.013523,0.002678,0.000431,0.091319
3430000,0.0324,0.013523,0.002678,0.000431,0.094023
3431000,0.0324,0.013523,0.002678,0.000431,0.091672
3432000,0.0324,0.013523,0.002678,0.000431,0.090379
3433000,0.0324,0.013523,0.002678,0.000431,0.088851
3434000,0.0324,0.013523,0.002678,0.000431,0.087911
3435000,0.0324,0.013523,0.002678,0.000431,0.082975
3436000,0.0324,0.013523,0.002678,0.000431,0.084855
3437000,0.0324,0.013523,0.002678,0.000431,0.083092
3438000,0.0324,0.013523,0.002678,0.000431,0.084738
3439000,0.0324,0.013523,0.002678,0.000431,0.083680
3440000,0.0324,0.013523,0.002678,0.000431,0.081330
3441000,0.0324,0.013523,0.002678,0.000431,0.081094
3442000,0.0324,0.013523,0.002678,0.000431,0.080154
3443000,0.0324,0.013523,0.002678,0.000431,0.078979
3444000,0.0324,0.013523,0.002678,0.000431,0.075453
3445000,0.0324,0.013523,0.002678,0.000431,0.080272
3446000,0.0324,0.013523,0.002678,0.000431,0.076041
3447000,0.0324,0.013523,0.002678,0.000431,0.076746
3448000,0.0324,0.013523,0.002678,0.000431,0.074983
3449000,0.0324,0.013523,0.002678,0.000431,0.077804
3450000,0.0324,0.013523,0.002678,0.000431,0.074513
3451000,0.0324,0.013523,0.002678,0.000431,0.071222
3452000,0.0324,0.013523,0.002678,0.000431,0.071105
3453000,0.0324,0.013523,0.002678,0.000431,0.070399
3454000,0.0324,0.013523,0.002678,0.000431,0.070399
3455000,0.0324,0.013523,0.002678,0.000431,0.068989
3456000,0.0324,0.013523,0.002678,0.000431,0.067461
3457000,0.0324,0.013523,0.002678,0.000431,0.065933
3458000,0.0324,0.013523,0.002678,0.000431,0.065463
3459000,0.0324,0.013523,0.002678,0.000431,0.067109
3460000,0.0324,0.013523,0.002678,0.000431,0.063230
3461000,0.0324,0.013523,0.002678,0.000431,0.064523
3462000,0.0324,0.013523,0.002678,0.000431,0.065816
3463000,0.0324,0.013523,0.002678,0.000431,0.063348
3464000,0.0324,0.013523,0.002678,0.000431,0.064876
3465000,0.0324,0.013523,0.002678,0.000431,0.060997
3466000,0.0324,0.013523,0.002678,0.000431,0.063230
3467000,0.0324,0.013523,0.002678,0.000431,0.062055
3468000,0.0324,0.013523,0.002678,0.000431,0.061937
3469000,0.0324,0.013523,0.002678,0.000431,0.059469
3470000,0.0324,0.013523,0.002678,0.000431,0.059704
3471000,0.0324,0.013523,0.002678,0.000431,0.059352
3472000,0.0324,0.013523,0.002678,0.000431,0.060997
3473000,0.0324,0.013523,0.002678,0.000431,0.058412
3474000,0.0324,0.013523,0.002678,0.000431,0.060057
3475000,0.0324,0.013523,0.002678,0.000431,0.057589
3476000,0.0324,0.013523,0.002678,0.000431,0.057824
3477000,0.0324,0.013523,0.002678,0.000431,0.056884
3478000,0.0324,0.013523,0.002678,0.000431,0.056766
3479000,0.0324,0.013523,0.002678,0.000431,0.058764
3480000,0.0324,0.013523,0.002678,0.000431,0.055473
3481000,0.0324,0.013523,0.002678,0.000431,0.055591
3482000,0.0324,0.013523,0.002678,0.000431,0.054298
3483000,0.0324,0.013523,0.002678,0.000431,0.054063
3484000,0.0324,0.013523,0.002678,0.000431,0.053593
3485000,0.0324,0.013523,0.002678,0.000431,0.052888
3486000,0.0324,0.013523,0.002678,0.000431,0.051830
3487000,0.0324,0.013523,0.002678,0.000431,0.051947
3488000,0.0324,0.013523,0.002678,0.000431,0.051360
3489000,0.0324,0.013523,0.002678,0.000431,0.053005
3490000,0.0324,0.013523,0.002678,0.000431,0.049949
3491000,0.0324,0.013523,0.002678,0.000431,0.052065
3492000,0.0324,0.013523,0.002678,0.000431,0.048657
3493000,0.0324,0.013523,0.002678,0.000431,0.048422
3494000,0.0324,0.013523,0.002678,0.000431,0.049597
3495000,0.0324,0.013523,0.002678,0.000431,0.046541
3496000,0.0324,0.013523,0.002678,0.000431,0.047951
3497000,0.0324,0.013523,0.002678,0.000431,0.046776
3498000,0.0324,0.013523,0.002678,0.000431,0.046894
3499000,0.0324,0.013523,0.002678,0.000431,0.047011
3500000,0.0324,0.013523,0.002678,0.000431,0.044073
3501000,0.0324,0.013523,0.002678,0.000431,0.043838
3502000,0.0324,0.013523,0.002678,0.000431,0.042898
3503000,0.0324,0.013523,0.002678,0.000431,0.042898
3504000,0.0324,0.013523,0.002678,0.000431,0.043250
3505000,0.0324,0.013523,0.002678,0.000431,0.045366
3506000,0.0324,0.013523,0.002678,0.000431,0.042780
3507000,0.0324,0.013523,0.002678,0.000431,0.043368
3508000,0.0324,0.013523,0.002678,0.000431,0.042663
3509000,0.0324,0.013523,0.002678,0.000431,0.041252
3510000,0.0324,0.013523,0.002678,0.000431,0.042545
3511000,0.0324,0.013523,0.002678,0.000431,0.043368
3512000,0.0324,0.013523,0.002678,0.000431,0.040547
3513000,0.0324,0.013523,0.002678,0.000431,0.041017
3514000,0.0324,0.013523,0.002678,0.000431,0.041958
3515000,0.0324,0.013523,0.002678,0.000431,0.043250
3516000,0.0324,0.013523,0.002678,0.000431,0.041252
3517000,0.0324,0.013523,0.002678,0.000431,0.041958
3518000,0.0324,0.013523,0.002678,0.000431,0.043015
3519000,0.0324,0.013523,0.002678,0.000431,0.040547
3520000,0.0324,0.013523,0.002678,0.000431,0.042310
3521000,0.0324,0.013523,0.002678,0.000431,0.041135
3522000,0.0324,0.013523,0.002678,0.000431,0.041017
3523000,0.0324,0.013523,0.002678,0.000431,0.041958
3524000,0.0324,0.013523,0.002678,0.000431,0.041370
3525000,0.0324,0.013523,0.002678,0.000431,0.040312
3526000,0.0324,0.013523,0.002678,0.000431,0.042310
3527000,0.0324,0.013523,0.002678,0.000431,0.041017
3528000,0.0324,0.013523,0.002678,0.000431,0.039725
3529000,0.0324,0.013523,0.002678,0.000431,0.039137
3530000,0.0324,0.013523,0.002678,0.000431,0.039607
3531000,0.0324,0.013523,0.002678,0.000431,0.038549
3532000,0.0324,0.013523,0.002678,0.000431,0.038197
3533000,0.0324,0.013523,0.002678,0.000431,0.039607
3534000,0.0324,0.013523,0.002678,0.000431,0.037139
3535000,0.0324,0.013523,0.002678,0.000431,0.036904
3536000,0.0324,0.013523,0.002678,0.000431,0.038784
3537000,0.0324,0.013523,0.002678,0.000431,0.038667
3538000,0.0324,0.013523,0.002678,0.000431,0.037021
3539000,0.0324,0.013523,0.002678,0.000431,0.037727
3540000,0.0324,0.013523,0.002678,0.000431,0.037491
3541000,0.0324,0.013523,0.002678,0.000431,0.037256
3542000,0.0324,0.013523,0.002678,0.000431,0.037021
3543000,0.0324,0.013523,0.002678,0.000431,0.037609
3544000,0.0324,0.013523,0.002678,0.000431,0.036904
3545000,0.0324,0.013523,0.002678,0.000431,0.036081
3546000,0.0324,0.013523,0.002678,0.000431,0.035611
3547000,0.0324,0.013523,0.002678,0.000431,0.033848
3548000,0.0324,0.013523,0.002678,0.000431,0.035494
3549000,0.0324,0.013523,0.002678,0.000431,0.035023
3550000,0.0324,0.013523,0.002678,0.000431,0.033143
3551000,0.0324,0.013523,0.002678,0.000431,0.034201
3552000,0.0324,0.013523,0.002678,0.000431,0.032908
3553000,0.0324,0.013523,0.002678,0.000431,0.035141
3554000,0.0324,0.013523,0.002678,0.000431,0.033613
3555000,0.0324,0.013523,0.002678,0.000431,0.035494
3556000,0.0324,0.013523,0.002678,0.000431,0.033966
3557000,0.0324,0.013523,0.002678,0.000431,0.032085
3558000,0.0324,0.013523,0.002678,0.000431,0.033848
3559000,0.0324,0.013523,0.002678,0.000431,0.033378
3560000,0.0324,0.013523,0.002678,0.000431,0.033613
3561000,0.0324,0.013523,0.002678,0.000431,0.033966
3562000,0.0324,0.013523,0.002678,0.000431,0.033966
3563000,0.0324,0.013523,0.002678,0.000431,0.033025
3564000,0.0324,0.013523,0.002678,0.000431,0.033496
3565000,0.0324,0.013523,0.002678,0.000431,0.032790
3566000,0.0324,0.013523,0.002678,0.000431,0.032790
3567000,0.0324,0.013523,0.002678,0.000431,0.033378
3568000,0.0324,0.013523,0.002678,0.000431,0.033731
3569000,0.0324,0.013523,0.002678,0.000431,0.032555
3570000,0.0324,0.013523,0.002678,0.000431,0.033496
3571000,0.0324,0.013523,0.002678,0.000431,0.034671
3572000,0.0324,0.013523,0.002678,0.000431,0.034318
3573000,0.0324,0.013523,0.002678,0.000431,0.033378
3574000,0.0324,0.013523,0.002678,0.000431,0.033025
3575000,0.0324,0.013523,0.002678,0.000431,0.032203
3576000,0.0324,0.013523,0.002678,0.000431,0.033378
3577000,0.0324,0.013523,0.002678,0.000431,0.032555
3578000,0.0324,0.013523,0.002678,0.000431,0.033143
3579000,0.0324,0.013523,0.002678,0.000431,0.033143
3580000,0.0324,0.013523,0.002678,0.000431,0.032908
3581000,0.0324,0.013523,0.002678,0.000431,0.031968
3582000,0.0324,0.013523,0.002678,0.000431,0.033260
3583000,0.0324,0.013523,0.002678,0.000431,0.032790
3584000,0.0324,0.013523,0.002678,0.000431,0.033025
3585000,0.0324,0.013523,0.002678,0.000431,0.032085
3586000,0.0324,0.013523,0.002678,0.000431,0.031262
3587000,0.0324,0.013523,0.002678,0.000431,0.032085
3588000,0.0324,0.013523,0.002678,0.000431,0.032320
3589000,0.0324,0.013523,0.002678,0.000431,0.031968
3590000,0.0324,0.013523,0.002678,0.000431,0.031498
3591000,0.0324,0.013523,0.002678,0.000431,0.032320
3592000,0.0324,0.013523,0.002678,0.000431,0.032085
3593000,0.0324,0.013523,0.002678,0.000431,0.032203
3594000,0.0324,0.013523,0.002678,0.000431,0.032555
3595000,0.0324,0.013523,0.002678,0.000431,0.031968
3596000,0.0324,0.013523,0.002678,0.000431,0.032555
3597000,0.0324,0.013523,0.002678,0.000431,0.031733
3598000,0.0324,0.013523,0.002678,0.000431,0.031733
3599000,0.0324,0.013523,0.002678,0.000431,0.031498
3600000,0.0324,0.013523,0.002678,0.000431,0.030910
3601000,0.0324,0.013523,0.002678,0.000431,0.030440
3602000,0.0324,0.013523,0.002678,0.000431,0.030675
3603000,0.0324,0.013523,0.002678,0.000431,0.029735
3604000,0.0324,0.013523,0.002678,0.000431,0.029147
3605000,0.0324,0.013523,0.002678,0.000431,0.028089
3606000,0.0324,0.013523,0.002678,0.000431,0.029735
3607000,0.0324,0.013523,0.002678,0.000431,0.029382
3608000,0.0324,0.013523,0.002678,0.000431,0.028559
3609000,0.0324,0.013523,0.002678,0.000431,0.028207
3610000,0.0324,0.013523,0.002678,0.000431,0.028324
3611000,0.0324,0.013523,0.002678,0.000431,0.027972
3612000,0.0324,0.013523,0.002678,0.000431,0.028207
3613000,0.0324,0.013523,0.002678,0.000431,0.027972
3614000,0.0324,0.013523,0.002678,0.000431,0.027972
3615000,0.0324,0.013523,0.002678,0.000431,0.028089
3616000,0.0324,0.013523,0.002678,0.000431,0.028559
3617000,0.0324,0.013523,0.002678,0.000431,0.027972
3618000,0.0324,0.013523,0.002678,0.000431,0.029029
3619000,0.0324,0.013523,0.002678,0.000431,0.027737
3620000,0.0324,0.013523,0.002678,0.000431,0.028089
3621000,0.0324,0.013523,0.002678,0.000431,0.026914
3622000,0.0324,0.013523,0.002678,0.000431,0.027031
3623000,0.0324,0.013523,0.002678,0.000431,0.028324
3624000,0.0324,0.013523,0.002678,0.000431,0.027502
3625000,0.0324,0.013523,0.002678,0.000431,0.026914
3626000,0.0324,0.013523,0.002678,0.000431,0.027149
3627000,0.0324,0.013523,0.002678,0.000431,0.027031
3628000,0.0324,0.013523,0.002678,0.000431,0.026679
3629000,0.0324,0.013523,0.002678,0.000431,0.027149
3630000,0.0324,0.013523,0.002678,0.000431,0.026796
3631000,0.0324,0.013523,0.002678,0.000431,0.027737
3632000,0.0324,0.013523,0.002678,0.000431,0.025974
3633000,0.0324,0.013523,0.002678,0.000431,0.025856
3634000,0.0324,0.013523,0.002678,0.000431,0.027149
3635000,0.0324,0.013523,0.002678,0.000431,0.025504
3636000,0.0324,0.013523,0.002678,0.000431,0.025504
3637000,0.0324,0.013523,0.002678,0.000431,0.024916
3638000,0.0324,0.013523,0.002678,0.000431,0.025504
3639000,0.0324,0.013523,0.002678,0.000431,0.024916
3640000,0.0324,0.013523,0.002678,0.000431,0.025269
3641000,0.0324,0.013523,0.002678,0.000431,0.025504
3642000,0.0324,0.013523,0.002678,0.000431,0.022800
3643000,0.0324,0.013523,0.002678,0.000431,0.023271
3644000,0.0324,0.013523,0.002678,0.000431,0.023506
3645000,0.0324,0.013523,0.002678,0.000431,0.023271
3646000,0.0324,0.013523,0.002678,0.000431,0.024093
3647000,0.0324,0.013523,0.002678,0.000431,0.023388
3648000,0.0324,0.013523,0.002678,0.000431,0.023271
3649000,0.0324,0.013523,0.002678,0.000431,0.023976
3650000,0.0324,0.013523,0.002678,0.000431,0.024211
3651000,0.0324,0.013523,0.002678,0.000431,0.022800
3652000,0.0324,0.013523,0.002678,0.000431,0.024211
3653000,0.0324,0.013523,0.002678,0.000431,0.023623
3654000,0.0324,0.013523,0.002678,0.000431,0.023506
3655000,0.0324,0.013523,0.002678,0.000431,0.023858
3656000,0.0324,0.013523,0.002678,0.000431,0.023153
3657000,0.0324,0.013523,0.002678,0.000431,0.024563
3658000,0.0324,0.013523,0.002678,0.000431,0.022683
3659000,0.0324,0.013523,0.002678,0.000431,0.023623
3660000,0.0324,0.013523,0.002678,0.000431,0.023976
3661000,0.0324,0.013523,0.002678,0.000431,0.023271
3662000,0.0324,0.013523,0.002678,0.000431,0.023036
3663000,0.0324,0.013523,0.002678,0.000431,0.022565
3664000,0.0324,0.013523,0.002678,0.000431,0.023153
3665000,0.0324,0.013523,0.002678,0.000431,0.023153
3666000,0.0324,0.013523,0.002678,0.000431,0.023623
3667000,0.0324,0.013523,0.002678,0.000431,0.023506
3668000,0.0324,0.013523,0.002678,0.000431,0.023388
3669000,0.0324,0.013523,0.002678,0.000431,0.022918
3670000,0.0324,0.013523,0.002678,0.000431,0.023153
3671000,0.0324,0.013523,0.002678,0.000431,0.022683
3672000,0.0324,0.013523,0.002678,0.000431,0.022683
3673000,0.0324,0.013523,0.002678,0.000431,0.023036
3674000,0.0324,0.013523,0.002678,0.000431,0.023623
3675000,0.0324,0.013523,0.002678,0.000431,0.023506
3676000,0.0324,0.013523,0.002678,0.000431,0.022565
3677000,0.0324,0.013523,0.002678,0.000431,0.023271
3678000,0.0324,0.013523,0.002678,0.000431,0.023036
3679000,0.0324,0.013523,0.002678,0.000431,0.023506
3680000,0.0324,0.013523,0.002678,0.000431,0.022800
3681000,0.0324,0.013523,0.002678,0.000431,0.023153
3682000,0.0324,0.013523,0.002678,0.000431,0.023036
3683000,0.0324,0.013523,0.002678,0.000431,0.022565
3684000,0.0324,0.013523,0.002678,0.000431,0.022095
3685000,0.0324,0.013523,0.002678,0.000431,0.022213
3686000,0.0324,0.013523,0.002678,0.000431,0.021860
3687000,0.0324,0.013523,0.002678,0.000431,0.021860
3688000,0.0324,0.013523,0.002678,0.000431,0.022095
3689000,0.0324,0.013523,0.002678,0.000431,0.021860
3690000,0.0324,0.013523,0.002678,0.000431,0.021978
3691000,0.0324,0.013523,0.002678,0.000431,0.022330
3692000,0.0324,0.013523,0.002678,0.000431,0.021155
3693000,0.0324,0.013523,0.002678,0.000431,0.022448
3694000,0.0324,0.013523,0.002678,0.000431,0.021155
3695000,0.0324,0.013523,0.002678,0.000431,0.021625
3696000,0.0324,0.013523,0.002678,0.000431,0.022330
3697000,0.0324,0.013523,0.002678,0.000431,0.021508
3698000,0.0324,0.013523,0.002678,0.000431,0.022095
3699000,0.0324,0.013523,0.002678,0.000431,0.022095
3700000,0.0324,0.013523,0.002678,0.000431,0.022095
3701000,0.0324,0.013523,0.002678,0.000431,0.021390
3702000,0.0324,0.013523,0.002678,0.000431,0.022448
3703000,0.0324,0.013523,0.002678,0.000431,0.022213
3704000,0.0324,0.013523,0.002678,0.000431,0.022683
3705000,0.0324,0.013523,0.002678,0.000431,0.021390
3706000,0.0324,0.013523,0.002678,0.000431,0.021743
3707000,0.0324,0.013523,0.002678,0.000431,0.022565
3708000,0.0324,0.013523,0.002678,0.000431,0.021625
3709000,0.0324,0.013523,0.002678,0.000431,0.021978
3710000,0.0324,0.013523,0.002678,0.000431,0.022330
3711000,0.0324,0.013523,0.002678,0.000431,0.021978
3712000,0.0324,0.013523,0.002678,0.000431,0.021978
3713000,0.0324,0.013523,0.002678,0.000431,0.021508
3714000,0.0324,0.013523,0.002678,0.000431,0.020567
3715000,0.0324,0.013523,0.002678,0.000431,0.021038
3716000,0.0324,0.013523,0.002678,0.000431,0.021743
3717000,0.0324,0.013523,0.002678,0.000431,0.021390
3718000,0.0324,0.013523,0.002678,0.000431,0.021508
3719000,0.0324,0.013523,0.002678,0.000431,0.022095
3720000,0.0324,0.013523,0.002678,0.000431,0.021155
3721000,0.0324,0.013523,0.002678,0.000431,0.021155
3722000,0.0324,0.013523,0.002678,0.000431,0.020920
3723000,0.0324,0.013523,0.002678,0.000431,0.019862
3724000,0.0324,0.013523,0.002678,0.000431,0.020450
3725000,0.0324,0.013523,0.002678,0.000431,0.019040
3726000,0.0324,0.013523,0.002678,0.000431,0.018452
3727000,0.0324,0.013523,0.002678,0.000431,0.018687
3728000,0.0324,0.013523,0.002678,0.000431,0.019040
3729000,0.0324,0.013523,0.002678,0.000431,0.018099
3730000,0.0324,0.013523,0.002678,0.000431,0.018452
3731000,0.0324,0.013523,0.002678,0.000431,0.018805
3732000,0.0324,0.013523,0.002678,0.000431,0.018805
3733000,0.0324,0.013523,0.002678,0.000431,0.018217
3734000,0.0324,0.013523,0.002678,0.000431,0.018687
3735000,0.0324,0.013523,0.002678,0.000431,0.018805
3736000,0.0324,0.013523,0.002678,0.000431,0.018805
3737000,0.0324,0.013523,0.002678,0.000431,0.019275
3738000,0.0324,0.013523,0.002678,0.000431,0.018099
3739000,0.0324,0.013523,0.002678,0.000431,0.018569
3740000,0.0324,0.013523,0.002678,0.000431,0.018452
3741000,0.0324,0.013523,0.002678,0.000431,0.018569
3742000,0.0324,0.013523,0.002678,0.000431,0.018452
3743000,0.0324,0.013523,0.002678,0.000431,0.018452
3744000,0.0324,0.013523,0.002678,0.000431,0.018687
3745000,0.0324,0.013523,0.002678,0.000431,0.018922
3746000,0.0324,0.013523,0.002678,0.000431,0.018569
3747000,0.0324,0.013523,0.002678,0.000431,0.018099
3748000,0.0324,0.013523,0.002678,0.000431,0.019157
3749000,0.0324,0.013523,0.002678,0.000431,0.018687
3750000,0.0324,0.013523,0.002678,0.000431,0.018805
3751000,0.0324,0.013523,0.002678,0.000431,0.017747
3752000,0.0324,0.013523,0.002678,0.000431,0.017982
3753000,0.0324,0.013523,0.002678,0.000431,0.017864
3754000,0.0324,0.013523,0.002678,0.000431,0.017394
3755000,0.0324,0.013523,0.002678,0.000431,0.017629
3756000,0.0324,0.013523,0.002678,0.000431,0.017982
3757000,0.0324,0.013523,0.002678,0.000431,0.018452
3758000,0.0324,0.013523,0.002678,0.000431,0.017394
3759000,0.0324,0.013523,0.002678,0.000431,0.016807
3760000,0.0324,0.013523,0.002678,0.000431,0.016924
3761000,0.0324,0.013523,0.002678,0.000431,0.017864
3762000,0.0324,0.013523,0.002678,0.000431,0.017512
3763000,0.0324,0.013523,0.002678,0.000431,0.016807
3764000,0.0324,0.013523,0.002678,0.000431,0.017042
3765000,0.0324,0.013523,0.002678,0.000431,0.017394
3766000,0.0324,0.013523,0.002678,0.000431,0.015279
3767000,0.0324,0.013523,0.002678,0.000431,0.015749
3768000,0.0324,0.013523,0.002678,0.000431,0.016336
3769000,0.0324,0.013523,0.002678,0.000431,0.015514
3770000,0.0324,0.013523,0.002678,0.000431,0.016101
3771000,0.0324,0.013523,0.002678,0.000431,0.015396
3772000,0.0324,0.013523,0.002678,0.000431,0.015631
3773000,0.0324,0.013523,0.002678,0.000431,0.016101
3774000,0.0324,0.013523,0.002678,0.000431,0.016336
3775000,0.0324,0.013523,0.002678,0.000431,0.015396
3776000,0.0324,0.013523,0.002678,0.000431,0.016219
3777000,0.0324,0.013523,0.002678,0.000431,0.015749
3778000,0.0324,0.013523,0.002678,0.000431,0.016101
3779000,0.0324,0.013523,0.002678,0.000431,0.015279
3780000,0.0324,0.013523,0.002678,0.000431,0.015984
3781000,0.0324,0.013523,0.002678,0.000431,0.016101
3782000,0.0324,0.013523,0.002678,0.000431,0.015984
3783000,0.0324,0.013523,0.002678,0.000431,0.015514
3784000,0.0324,0.013523,0.002678,0.000431,0.016219
3785000,0.0324,0.013523,0.002678,0.000431,0.015984
3786000,0.0324,0.013523,0.002678,0.000431,0.015161
3787000,0.0324,0.013523,0.002678,0.000431,0.016219
3788000,0.0324,0.013523,0.002678,0.000431,0.015749
3789000,0.0324,0.013523,0.002678,0.000431,0.015866
3790000,0.0324,0.013523,0.002678,0.000431,0.015279
3791000,0.0324,0.013523,0.002678,0.000431,0.015866
3792000,0.0324,0.013523,0.002678,0.000431,0.016219
3793000,0.0324,0.013523,0.002678,0.000431,0.016571
3794000,0.0324,0.013523,0.002678,0.000431,0.015866
3795000,0.0324,0.013523,0.002678,0.000431,0.013751
3796000,0.0324,0.013523,0.002678,0.000431,0.014926
3797000,0.0324,0.013523,0.002678,0.000431,0.015279
3798000,0.0324,0.013523,0.002678,0.000431,0.015161
3799000,0.0324,0.013523,0.002678,0.000431,0.014221
3800000,0.0324,0.013523,0.002678,0.000431,0.015044
3801000,0.0324,0.013523,0.002678,0.000431,0.015396
3802000,0.0324,0.013523,0.002678,0.000431,0.013868
3803000,0.0324,0.013523,0.002678,0.000431,0.014456
3804000,0.0324,0.013523,0.002678,0.000431,0.014456
3805000,0.0324,0.013523,0.002678,0.000431,0.014338
3806000,0.0324,0.013523,0.002678,0.000431,0.014103
3807000,0.0324,0.013523,0.002678,0.000431,0.013751
3808000,0.0324,0.013523,0.002678,0.000431,0.014573
3809000,0.0324,0.013523,0.002678,0.000431,0.014103
3810000,0.0324,0.013523,0.002678,0.000431,0.013516
3811000,0.0324,0.013523,0.002678,0.000431,0.014338
3812000,0.0324,0.013523,0.002678,0.000431,0.013516
3813000,0.0324,0.013523,0.002678,0.000431,0.014809
3814000,0.0324,0.013523,0.002678,0.000431,0.014691
3815000,0.0324,0.013523,0.002678,0.000431,0.014221
3816000,0.0324,0.013523,0.002678,0.000431,0.014573
3817000,0.0324,0.013523,0.002678,0.000431,0.013986
3818000,0.0324,0.013523,0.002678,0.000431,0.014456
3819000,0.0324,0.013523,0.002678,0.000431,0.014456
3820000,0.0324,0.013523,0.002678,0.000431,0.014221
3821000,0.0324,0.013523,0.002678,0.000431,0.014221
3822000,0.0324,0.013523,0.002678,0.000431,0.014926
3823000,0.0324,0.013523,0.002678,0.000431,0.014338
3824000,0.0324,0.013523,0.002678,0.000431,0.014103
3825000,0.0324,0.013523,0.002678,0.000431,0.014809
3826000,0.0324,0.013523,0.002678,0.000431,0.013868
3827000,0.0324,0.013523,0.002678,0.000431,0.013986
3828000,0.0324,0.013523,0.002678,0.000431,0.014573
3829000,0.0324,0.013523,0.002678,0.000431,0.013398
3830000,0.0324,0.013523,0.002678,0.000431,0.014221
3831000,0.0324,0.013523,0.002678,0.000431,0.014338
3832000,0.0324,0.013523,0.002678,0.000431,0.013986
3833000,0.0324,0.013523,0.002678,0.000431,0.014338
3834000,0.0324,0.013523,0.002678,0.000431,0.014221
3835000,0.0324,0.013523,0.002678,0.000431,0.014809
3836000,0.0324,0.013523,0.002678,0.000431,0.014691
3837000,0.0324,0.013523,0.002678,0.000431,0.013751
3838000,0.0324,0.013523,0.002678,0.000431,0.014691
3839000,0.0324,0.013523,0.002678,0.000431,0.014456
3840000,0.0324,0.013523,0.002678,0.000431,0.014338
3841000,0.0324,0.013523,0.002678,0.000431,0.013751
3842000,0.0324,0.013523,0.002678,0.000431,0.014338
3843000,0.0324,0.013523,0.002678,0.000431,0.014691
3844000,0.0324,0.013523,0.002678,0.000431,0.013868
3845000,0.0324,0.013523,0.002678,0.000431,0.014338
3846000,0.0324,0.013523,0.002678,0.000431,0.013281
3847000,0.0324,0.013523,0.002678,0.000431,0.014691
3848000,0.0324,0.013523,0.002678,0.000431,0.013163
3849000,0.0324,0.013523,0.002678,0.000431,0.014221
3850000,0.0324,0.013523,0.002678,0.000431,0.013751
3851000,0.0324,0.013523,0.002678,0.000431,0.013398
3852000,0.0324,0.013523,0.002678,0.000431,0.013281
3853000,0.0324,0.013523,0.002678,0.000431,0.013751
3854000,0.0324,0.013523,0.002678,0.000431,0.013281
3855000,0.0324,0.013523,0.002678,0.000431,0.013751
3856000,0.0324,0.013523,0.002678,0.000431,0.013633
3857000,0.0324,0.013523,0.002678,0.000431,0.013633
3858000,0.0324,0.013523,0.002678,0.000431,0.013633
3859000,0.0324,0.013523,0.002678,0.000431,0.013398
3860000,0.0324,0.013523,0.002678,0.000431,0.014456
3861000,0.0324,0.013523,0.002678,0.000431,0.013516
3862000,0.0324,0.013523,0.002678,0.000431,0.014103
3863000,0.0324,0.013523,0.002678,0.000431,0.013751
3864000,0.0324,0.013523,0.002678,0.000431,0.013163
3865000,0.0324,0.013523,0.002678,0.000431,0.014103
3866000,0.0324,0.013523,0.002678,0.000431,0.012928
3867000,0.0324,0.013523,0.002678,0.000431,0.013751
3868000,0.0324,0.013523,0.002678,0.000431,0.012576
3869000,0.0324,0.013523,0.002678,0.000431,0.012576
3870000,0.0324,0.013523,0.002678,0.000431,0.013398
3871000,0.0324,0.013523,0.002678,0.000431,0.012693
3872000,0.0324,0.013523,0.002678,0.000431,0.013281
3873000,0.0324,0.013523,0.002678,0.000431,0.012576
3874000,0.0324,0.013523,0.002678,0.000431,0.012811
3875000,0.0324,0.013523,0.002678,0.000431,0.013633
3876000,0.0324,0.013523,0.002678,0.000431,0.012576
3877000,0.0324,0.013523,0.002678,0.000431,0.012693
3878000,0.0324,0.013523,0.002678,0.000431,0.013516
3879000,0.0324,0.013523,0.002678,0.000431,0.012693
3880000,0.0324,0.013523,0.002678,0.000431,0.012223
3881000,0.0324,0.013523,0.002678,0.000431,0.012223
3882000,0.0324,0.013523,0.002678,0.000431,0.012223
3883000,0.0324,0.013523,0.002678,0.000431,0.012576
3884000,0.0324,0.013523,0.002678,0.000431,0.012340
3885000,0.0324,0.013523,0.002678,0.000431,0.012458
3886000,0.0324,0.013523,0.002678,0.000431,0.012223
3887000,0.0324,0.013523,0.002678,0.000431,0.011753
3888000,0.0324,0.013523,0.002678,0.000431,0.012458
3889000,0.0324,0.013523,0.002678,0.000431,0.011635
3890000,0.0324,0.013523,0.002678,0.000431,0.011753
3891000,0.0324,0.013523,0.002678,0.000431,0.012693
3892000,0.0324,0.013523,0.002678,0.000431,0.012458
3893000,0.0324,0.013523,0.002678,0.000431,0.011870
3894000,0.0324,0.013523,0.002678,0.000431,0.012928
3895000,0.0324,0.013523,0.002678,0.000431,0.012340
3896000,0.0324,0.013523,0.002678,0.000431,0.012693
3897000,0.0324,0.013523,0.002678,0.000431,0.011518
3898000,0.0324,0.013523,0.002678,0.000431,0.012340
3899000,0.0324,0.013523,0.002678,0.000431,0.012693
3900000,0.0324,0.013523,0.002678,0.000431,0.012223
3901000,0.0324,0.013523,0.002678,0.000431,0.011753
3902000,0.0324,0.013523,0.002678,0.000431,0.011870
3903000,0.0324,0.013523,0.002678,0.000431,0.011400
3904000,0.0324,0.013523,0.002678,0.000431,0.011988
3905000,0.0324,0.013523,0.002678,0.000431,0.011753
3906000,0.0324,0.013523,0.002678,0.000431,0.011988
3907000,0.0324,0.013523,0.002678,0.000431,0.011753
3908000,0.0324,0.013523,0.002678,0.000431,0.011283
3909000,0.0324,0.013523,0.002678,0.000431,0.011635
3910000,0.0324,0.013523,0.002678,0.000431,0.011518
3911000,0.0324,0.013523,0.002678,0.000431,0.011988
3912000,0.0324,0.013523,0.002678,0.000431,0.010813
3913000,0.0324,0.013523,0.002678,0.000431,0.011048
3914000,0.0324,0.013523,0.002678,0.000431,0.010930
3915000,0.0324,0.013523,0.002678,0.000431,0.010930
3916000,0.0324,0.013523,0.002678,0.000431,0.010930
3917000,0.0324,0.013523,0.002678,0.000431,0.010695
3918000,0.0324,0.013523,0.002678,0.000431,0.011165
3919000,0.0324,0.013523,0.002678,0.000431,0.011283
3920000,0.0324,0.013523,0.002678,0.000431,0.010460
3921000,0.0324,0.013523,0.002678,0.000431,0.010342
3922000,0.0324,0.013523,0.002678,0.000431,0.010813
3923000,0.0324,0.013523,0.002678,0.000431,0.010930
3924000,0.0324,0.013523,0.002678,0.000431,0.011753
3925000,0.0324,0.013523,0.002678,0.000431,0.010930
3926000,0.0324,0.013523,0.002678,0.000431,0.010460
3927000,0.0324,0.013523,0.002678,0.000431,0.011283
3928000,0.0324,0.013523,0.002678,0.000431,0.011048
3929000,0.0324,0.013523,0.002678,0.000431,0.010695
3930000,0.0324,0.013523,0.002678,0.000431,0.011283
3931000,0.0324,0.013523,0.002678,0.000431,0.010695
3932000,0.0324,0.013523,0.002678,0.000431,0.011518
3933000,0.0324,0.013523,0.002678,0.000431,0.011283
3934000,0.0324,0.013523,0.002678,0.000431,0.010813
3935000,0.0324,0.013523,0.002678,0.000431,0.011048
3936000,0.0324,0.013523,0.002678,0.000431,0.011753
3937000,0.0324,0.013523,0.002678,0.000431,0.010930
3938000,0.0324,0.013523,0.002678,0.000431,0.010813
3939000,0.0324,0.013523,0.002678,0.000431,0.011283
3940000,0.0324,0.013523,0.002678,0.000431,0.010695
3941000,0.0324,0.013523,0.002678,0.000431,0.010695
3942000,0.0324,0.013523,0.002678,0.000431,0.010695
3943000,0.0324,0.013523,0.002678,0.000431,0.011283
3944000,0.0324,0.013523,0.002678,0.000431,0.010578
3945000,0.0324,0.013523,0.002678,0.000431,0.011283
3946000,0.0324,0.013523,0.002678,0.000431,0.011165
3947000,0.0324,0.013523,0.002678,0.000431,0.011165
3948000,0.0324,0.013523,0.002678,0.000431,0.010695
3949000,0.0324,0.013523,0.002678,0.000431,0.010813
3950000,0.0324,0.013523,0.002678,0.000431,0.011048
3951000,0.0324,0.013523,0.002678,0.000431,0.010342
3952000,0.0324,0.013523,0.002678,0.000431,0.011048
3953000,0.0324,0.013523,0.002678,0.000431,0.010930
3954000,0.0324,0.013523,0.002678,0.000431,0.010930
3955000,0.0324,0.013523,0.002678,0.000431,0.011753
3956000,0.0324,0.013523,0.002678,0.000431,0.011165
3957000,0.0324,0.013523,0.002678,0.000431,0.011165
3958000,0.0324,0.013523,0.002678,0.000431,0.011753
3959000,0.0324,0.013523,0.002678,0.000431,0.010813
3960000,0.0324,0.013523,0.002678,0.000431,0.011165
3961000,0.0324,0.013523,0.002678,0.000431,0.010107
3962000,0.0324,0.013523,0.002678,0.000431,0.011048
3963000,0.0324,0.013523,0.002678,0.000431,0.011283
3964000,0.0324,0.013523,0.002678,0.000431,0.011165
3965000,0.0324,0.013523,0.002678,0.000431,0.011283
3966000,0.0324,0.013523,0.002678,0.000431,0.010460
3967000,0.0324,0.013523,0.002678,0.000431,0.011165
3968000,0.0324,0.013523,0.002678,0.000431,0.011283
3969000,0.0324,0.013523,0.002678,0.000431,0.010930
3970000,0.0324,0.013523,0.002678,0.000431,0.010460
3971000,0.0324,0.013523,0.002678,0.000431,0.009520
3972000,0.0324,0.013523,0.002678,0.000431,0.009990
3973000,0.0324,0.013523,0.002678,0.000431,0.009167
3974000,0.0324,0.013523,0.002678,0.000431,0.009520
3975000,0.0324,0.013523,0.002678,0.000431,0.009755
3976000,0.0324,0.013523,0.002678,0.000431,0.009990
3977000,0.0324,0.013523,0.002678,0.000431,0.009050
3978000,0.0324,0.013523,0.002678,0.000431,0.009637
3979000,0.0324,0.013523,0.002678,0.000431,0.009990
3980000,0.0324,0.013523,0.002678,0.000431,0.008815
3981000,0.0324,0.013523,0.002678,0.000431,0.008462
3982000,0.0324,0.013523,0.002678,0.000431,0.009050
3983000,0.0324,0.013523,0.002678,0.000431,0.008815
3984000,0.0324,0.013523,0.002678,0.000431,0.009285
3985000,0.0324,0.013523,0.002678,0.000431,0.008815
3986000,0.0324,0.013523,0.002678,0.000431,0.008932
3987000,0.0324,0.013523,0.002678,0.000431,0.008697
3988000,0.0324,0.013523,0.002678,0.000431,0.008815
3989000,0.0324,0.013523,0.002678,0.000431,0.008697
3990000,0.0324,0.013523,0.002678,0.000431,0.009167
3991000,0.0324,0.013523,0.002678,0.000431,0.008580
3992000,0.0324,0.013523,0.002678,0.000431,0.008227
3993000,0.0324,0.013523,0.002678,0.000431,0.007639
3994000,0.0324,0.013523,0.002678,0.000431,0.008580
3995000,0.0324,0.013523,0.002678,0.000431,0.008109
3996000,0.0324,0.013523,0.002678,0.000431,0.008227
3997000,0.0324,0.013523,0.002678,0.000431,0.007874
3998000,0.0324,0.013523,0.002678,0.000431,0.008580
3999000,0.0324,0.013523,0.002678,0.000431,0.007522
