Cycle,Area(mm^2),PeakDynamic(W),SubthresholdLeakage(W),GateLeakage(W),RunTimeDynamic(W)
1000,0.0324,0.013523,0.002678,0.000431,0.000000
2000,0.0324,0.013523,0.002678,0.000431,0.000000
3000,0.0324,0.013523,0.002678,0.000431,0.000000
4000,0.0324,0.013523,0.002678,0.000431,0.000000
5000,0.0324,0.013523,0.002678,0.000431,0.000000
6000,0.0324,0.013523,0.002678,0.000431,1.731190
7000,0.0324,0.013523,0.002678,0.000431,1.312085
8000,0.0324,0.013523,0.002678,0.000431,2.235269
9000,0.0324,0.013523,0.002678,0.000431,1.262370
10000,0.0324,0.013523,0.002678,0.000431,1.048939
11000,0.0324,0.013523,0.002678,0.000431,1.006981
12000,0.0324,0.013523,0.002678,0.000431,0.727852
13000,0.0324,0.013523,0.002678,0.000431,0.708107
14000,0.0324,0.013523,0.002678,0.000431,0.603272
15000,0.0324,0.013523,0.002678,0.000431,0.592577
16000,0.0324,0.013523,0.002678,0.000431,0.570952
17000,0.0324,0.013523,0.002678,0.000431,0.471876
18000,0.0324,0.013523,0.002678,0.000431,0.426392
19000,0.0324,0.013523,0.002678,0.000431,0.430623
20000,0.0324,0.013523,0.002678,0.000431,0.465999
21000,0.0324,0.013523,0.002678,0.000431,0.545096
22000,0.0324,0.013523,0.002678,0.000431,0.525116
23000,0.0324,0.013523,0.002678,0.000431,0.430388
24000,0.0324,0.013523,0.002678,0.000431,0.428273
25000,0.0324,0.013523,0.002678,0.000431,0.413229
26000,0.0324,0.013523,0.002678,0.000431,0.367393
27000,0.0324,0.013523,0.002678,0.000431,0.385022
28000,0.0324,0.013523,0.002678,0.000431,0.372212
29000,0.0324,0.013523,0.002678,0.000431,0.379969
30000,0.0324,0.013523,0.002678,0.000431,0.329431
31000,0.0324,0.013523,0.002678,0.000431,0.404297
32000,0.0324,0.013523,0.002678,0.000431,0.406883
33000,0.0324,0.013523,0.002678,0.000431,0.377383
34000,0.0324,0.013523,0.002678,0.000431,0.395482
35000,0.0324,0.013523,0.002678,0.000431,0.463179
36000,0.0324,0.013523,0.002678,0.000431,0.379616
37000,0.0324,0.013523,0.002678,0.000431,0.342712
38000,0.0324,0.013523,0.002678,0.000431,0.421691
39000,0.0324,0.013523,0.002678,0.000431,0.380204
40000,0.0324,0.013523,0.002678,0.000431,0.339774
41000,0.0324,0.013523,0.002678,0.000431,0.393367
42000,0.0324,0.013523,0.002678,0.000431,0.449428
43000,0.0324,0.013523,0.002678,0.000431,0.353055
44000,0.0324,0.013523,0.002678,0.000431,0.285123
45000,0.0324,0.013523,0.002678,0.000431,0.315798
46000,0.0324,0.013523,0.002678,0.000431,0.283713
47000,0.0324,0.013523,0.002678,0.000431,0.358814
48000,0.0324,0.013523,0.002678,0.000431,0.373622
49000,0.0324,0.013523,0.002678,0.000431,0.386433
50000,0.0324,0.013523,0.002678,0.000431,0.433797
51000,0.0324,0.013523,0.002678,0.000431,0.342712
52000,0.0324,0.013523,0.002678,0.000431,0.320617
53000,0.0324,0.013523,0.002678,0.000431,0.384905
54000,0.0324,0.013523,0.002678,0.000431,0.440613
55000,0.0324,0.013523,0.002678,0.000431,0.409586
56000,0.0324,0.013523,0.002678,0.000431,0.429918
57000,0.0324,0.013523,0.002678,0.000431,0.385257
58000,0.0324,0.013523,0.002678,0.000431,0.294643
59000,0.0324,0.013523,0.002678,0.000431,0.272900
60000,0.0324,0.013523,0.002678,0.000431,0.326141
61000,0.0324,0.013523,0.002678,0.000431,0.436970
62000,0.0324,0.013523,0.002678,0.000431,0.631126
63000,0.0324,0.013523,0.002678,0.000431,0.576593
64000,0.0324,0.013523,0.002678,0.000431,0.521943
65000,0.0324,0.013523,0.002678,0.000431,0.543098
66000,0.0324,0.013523,0.002678,0.000431,0.615025
67000,0.0324,0.013523,0.002678,0.000431,0.432386
68000,0.0324,0.013523,0.002678,0.000431,0.473286
69000,0.0324,0.013523,0.002678,0.000431,0.418870
70000,0.0324,0.013523,0.002678,0.000431,0.474931
71000,0.0324,0.013523,0.002678,0.000431,0.554028
72000,0.0324,0.013523,0.002678,0.000431,0.604682
73000,0.0324,0.013523,0.002678,0.000431,0.477399
74000,0.0324,0.013523,0.002678,0.000431,0.608561
75000,0.0324,0.013523,0.002678,0.000431,0.585525
76000,0.0324,0.013523,0.002678,0.000431,0.593165
77000,0.0324,0.013523,0.002678,0.000431,0.542275
78000,0.0324,0.013523,0.002678,0.000431,0.666972
79000,0.0324,0.013523,0.002678,0.000431,0.652634
80000,0.0324,0.013523,0.002678,0.000431,0.756294
81000,0.0324,0.013523,0.002678,0.000431,0.592460
82000,0.0324,0.013523,0.002678,0.000431,0.646758
83000,0.0324,0.013523,0.002678,0.000431,0.784266
84000,0.0324,0.013523,0.002678,0.000431,0.802247
85000,0.0324,0.013523,0.002678,0.000431,0.777919
86000,0.0324,0.013523,0.002678,0.000431,0.885692
87000,0.0324,0.013523,0.002678,0.000431,0.796018
88000,0.0324,0.013523,0.002678,0.000431,0.970313
89000,0.0324,0.013523,0.002678,0.000431,0.910256
90000,0.0324,0.013523,0.002678,0.000431,0.950450
91000,0.0324,0.013523,0.002678,0.000431,0.945162
92000,0.0324,0.013523,0.002678,0.000431,1.005219
93000,0.0324,0.013523,0.002678,0.000431,1.007569
94000,0.0324,0.013523,0.002678,0.000431,1.070917
95000,0.0324,0.013523,0.002678,0.000431,1.128388
96000,0.0324,0.013523,0.002678,0.000431,1.144019
97000,0.0324,0.013523,0.002678,0.000431,1.121807
98000,0.0324,0.013523,0.002678,0.000431,1.107351
99000,0.0324,0.013523,0.002678,0.000431,1.117458
100000,0.0324,0.013523,0.002678,0.000431,1.050349
101000,0.0324,0.013523,0.002678,0.000431,1.265661
102000,0.0324,0.013523,0.002678,0.000431,1.054345
103000,0.0324,0.013523,0.002678,0.000431,1.130151
104000,0.0324,0.013523,0.002678,0.000431,1.234751
105000,0.0324,0.013523,0.002678,0.000431,1.147428
106000,0.0324,0.013523,0.002678,0.000431,1.354395
107000,0.0324,0.013523,0.002678,0.000431,1.226407
108000,0.0324,0.013523,0.002678,0.000431,1.345228
109000,0.0324,0.013523,0.002678,0.000431,1.262370
110000,0.0324,0.013523,0.002678,0.000431,1.296923
111000,0.0324,0.013523,0.002678,0.000431,1.333240
112000,0.0324,0.013523,0.002678,0.000431,1.345933
113000,0.0324,0.013523,0.002678,0.000431,1.371554
114000,0.0324,0.013523,0.002678,0.000431,1.393414
115000,0.0324,0.013523,0.002678,0.000431,1.330419
116000,0.0324,0.013523,0.002678,0.000431,1.429260
117000,0.0324,0.013523,0.002678,0.000431,1.210188
118000,0.0324,0.013523,0.002678,0.000431,1.632466
119000,0.0324,0.013523,0.002678,0.000431,1.248267
120000,0.0324,0.013523,0.002678,0.000431,0.212608
121000,0.0324,0.013523,0.002678,0.000431,0.025504
122000,0.0324,0.013523,0.002678,0.000431,0.017747
123000,0.0324,0.013523,0.002678,0.000431,0.017982
124000,0.0324,0.013523,0.002678,0.000431,0.018687
125000,0.0324,0.013523,0.002678,0.000431,0.016807
126000,0.0324,0.013523,0.002678,0.000431,0.015749
127000,0.0324,0.013523,0.002678,0.000431,0.018687
128000,0.0324,0.013523,0.002678,0.000431,0.015279
129000,0.0324,0.013523,0.002678,0.000431,0.014103
130000,0.0324,0.013523,0.002678,0.000431,0.014103
131000,0.0324,0.013523,0.002678,0.000431,0.013281
132000,0.0324,0.013523,0.002678,0.000431,0.012811
133000,0.0324,0.013523,0.002678,0.000431,0.012928
134000,0.0324,0.013523,0.002678,0.000431,0.010107
135000,0.0324,0.013523,0.002678,0.000431,0.012576
136000,0.0324,0.013523,0.002678,0.000431,0.013046
137000,0.0324,0.013523,0.002678,0.000431,0.011988
138000,0.0324,0.013523,0.002678,0.000431,0.010460
139000,0.0324,0.013523,0.002678,0.000431,0.012576
140000,0.0324,0.013523,0.002678,0.000431,0.011870
141000,0.0324,0.013523,0.002678,0.000431,0.011518
142000,0.0324,0.013523,0.002678,0.000431,0.010578
143000,0.0324,0.013523,0.002678,0.000431,0.012223
144000,0.0324,0.013523,0.002678,0.000431,0.010578
145000,0.0324,0.013523,0.002678,0.000431,0.011400
146000,0.0324,0.013523,0.002678,0.000431,0.010930
147000,0.0324,0.013523,0.002678,0.000431,0.010930
148000,0.0324,0.013523,0.002678,0.000431,0.010225
149000,0.0324,0.013523,0.002678,0.000431,0.010813
150000,0.0324,0.013523,0.002678,0.000431,0.010930
151000,0.0324,0.013523,0.002678,0.000431,0.010107
152000,0.0324,0.013523,0.002678,0.000431,0.010460
153000,0.0324,0.013523,0.002678,0.000431,0.009990
154000,0.0324,0.013523,0.002678,0.000431,0.011988
155000,0.0324,0.013523,0.002678,0.000431,0.008932
156000,0.0324,0.013523,0.002678,0.000431,0.010578
157000,0.0324,0.013523,0.002678,0.000431,0.010107
158000,0.0324,0.013523,0.002678,0.000431,0.009637
159000,0.0324,0.013523,0.002678,0.000431,0.009402
160000,0.0324,0.013523,0.002678,0.000431,0.010107
161000,0.0324,0.013523,0.002678,0.000431,0.008109
162000,0.0324,0.013523,0.002678,0.000431,0.006817
163000,0.0324,0.013523,0.002678,0.000431,0.007404
164000,0.0324,0.013523,0.002678,0.000431,0.008462
165000,0.0324,0.013523,0.002678,0.000431,0.007287
166000,0.0324,0.013523,0.002678,0.000431,0.008580
167000,0.0324,0.013523,0.002678,0.000431,0.006464
168000,0.0324,0.013523,0.002678,0.000431,0.007874
169000,0.0324,0.013523,0.002678,0.000431,0.005171
170000,0.0324,0.013523,0.002678,0.000431,0.005994
171000,0.0324,0.013523,0.002678,0.000431,0.006347
172000,0.0324,0.013523,0.002678,0.000431,0.006111
173000,0.0324,0.013523,0.002678,0.000431,0.005406
174000,0.0324,0.013523,0.002678,0.000431,0.006347
175000,0.0324,0.013523,0.002678,0.000431,0.005876
176000,0.0324,0.013523,0.002678,0.000431,0.005759
177000,0.0324,0.013523,0.002678,0.000431,0.005406
178000,0.0324,0.013523,0.002678,0.000431,0.007052
179000,0.0324,0.013523,0.002678,0.000431,0.005641
180000,0.0324,0.013523,0.002678,0.000431,0.005759
181000,0.0324,0.013523,0.002678,0.000431,0.006699
182000,0.0324,0.013523,0.002678,0.000431,0.005171
183000,0.0324,0.013523,0.002678,0.000431,0.005524
184000,0.0324,0.013523,0.002678,0.000431,0.005406
185000,0.0324,0.013523,0.002678,0.000431,0.004584
186000,0.0324,0.013523,0.002678,0.000431,0.004349
187000,0.0324,0.013523,0.002678,0.000431,0.004231
188000,0.0324,0.013523,0.002678,0.000431,0.005524
189000,0.0324,0.013523,0.002678,0.000431,0.003996
190000,0.0324,0.013523,0.002678,0.000431,0.004819
191000,0.0324,0.013523,0.002678,0.000431,0.005289
192000,0.0324,0.013523,0.002678,0.000431,0.004584
193000,0.0324,0.013523,0.002678,0.000431,0.003996
194000,0.0324,0.013523,0.002678,0.000431,0.004819
195000,0.0324,0.013523,0.002678,0.000431,0.003878
196000,0.0324,0.013523,0.002678,0.000431,0.004349
197000,0.0324,0.013523,0.002678,0.000431,0.003761
198000,0.0324,0.013523,0.002678,0.000431,0.004466
199000,0.0324,0.013523,0.002678,0.000431,0.003643
200000,0.0324,0.013523,0.002678,0.000431,0.004584
201000,0.0324,0.013523,0.002678,0.000431,0.003996
202000,0.0324,0.013523,0.002678,0.000431,0.004819
203000,0.0324,0.013523,0.002678,0.000431,0.003643
204000,0.0324,0.013523,0.002678,0.000431,0.004231
205000,0.0324,0.013523,0.002678,0.000431,0.004584
206000,0.0324,0.013523,0.002678,0.000431,0.004113
207000,0.0324,0.013523,0.002678,0.000431,0.003878
208000,0.0324,0.013523,0.002678,0.000431,0.003996
209000,0.0324,0.013523,0.002678,0.000431,0.003643
210000,0.0324,0.013523,0.002678,0.000431,0.003996
211000,0.0324,0.013523,0.002678,0.000431,0.003643
212000,0.0324,0.013523,0.002678,0.000431,0.004113
213000,0.0324,0.013523,0.002678,0.000431,0.003643
214000,0.0324,0.013523,0.002678,0.000431,0.003996
215000,0.0324,0.013523,0.002678,0.000431,0.003761
216000,0.0324,0.013523,0.002678,0.000431,0.003878
217000,0.0324,0.013523,0.002678,0.000431,0.003761
218000,0.0324,0.013523,0.002678,0.000431,0.003761
219000,0.0324,0.013523,0.002678,0.000431,0.004349
220000,0.0324,0.013523,0.002678,0.000431,0.003408
221000,0.0324,0.013523,0.002678,0.000431,0.003878
222000,0.0324,0.013523,0.002678,0.000431,0.003878
223000,0.0324,0.013523,0.002678,0.000431,0.004231
224000,0.0324,0.013523,0.002678,0.000431,0.003643
225000,0.0324,0.013523,0.002678,0.000431,0.003761
226000,0.0324,0.013523,0.002678,0.000431,0.004113
227000,0.0324,0.013523,0.002678,0.000431,0.003761
228000,0.0324,0.013523,0.002678,0.000431,0.003408
229000,0.0324,0.013523,0.002678,0.000431,0.004466
230000,0.0324,0.013523,0.002678,0.000431,0.003643
231000,0.0324,0.013523,0.002678,0.000431,0.003878
232000,0.0324,0.013523,0.002678,0.000431,0.003408
233000,0.0324,0.013523,0.002678,0.000431,0.003643
234000,0.0324,0.013523,0.002678,0.000431,0.003291
235000,0.0324,0.013523,0.002678,0.000431,0.003408
236000,0.0324,0.013523,0.002678,0.000431,0.003526
237000,0.0324,0.013523,0.002678,0.000431,0.003643
238000,0.0324,0.013523,0.002678,0.000431,0.002821
239000,0.0324,0.013523,0.002678,0.000431,0.003878
240000,0.0324,0.013523,0.002678,0.000431,0.003526
241000,0.0324,0.013523,0.002678,0.000431,0.003643
242000,0.0324,0.013523,0.002678,0.000431,0.003173
243000,0.0324,0.013523,0.002678,0.000431,0.003761
244000,0.0324,0.013523,0.002678,0.000431,0.003173
245000,0.0324,0.013523,0.002678,0.000431,0.003291
246000,0.0324,0.013523,0.002678,0.000431,0.003408
247000,0.0324,0.013523,0.002678,0.000431,0.003761
248000,0.0324,0.013523,0.002678,0.000431,0.003056
249000,0.0324,0.013523,0.002678,0.000431,0.003173
250000,0.0324,0.013523,0.002678,0.000431,0.003761
251000,0.0324,0.013523,0.002678,0.000431,0.003056
252000,0.0324,0.013523,0.002678,0.000431,0.003173
253000,0.0324,0.013523,0.002678,0.000431,0.003526
254000,0.0324,0.013523,0.002678,0.000431,0.003526
255000,0.0324,0.013523,0.002678,0.000431,0.002938
256000,0.0324,0.013523,0.002678,0.000431,0.003291
257000,0.0324,0.013523,0.002678,0.000431,0.003761
258000,0.0324,0.013523,0.002678,0.000431,0.002938
259000,0.0324,0.013523,0.002678,0.000431,0.003291
260000,0.0324,0.013523,0.002678,0.000431,0.003643
261000,0.0324,0.013523,0.002678,0.000431,0.003643
262000,0.0324,0.013523,0.002678,0.000431,0.002821
263000,0.0324,0.013523,0.002678,0.000431,0.003291
264000,0.0324,0.013523,0.002678,0.000431,0.003408
265000,0.0324,0.013523,0.002678,0.000431,0.003173
266000,0.0324,0.013523,0.002678,0.000431,0.003408
267000,0.0324,0.013523,0.002678,0.000431,0.003761
268000,0.0324,0.013523,0.002678,0.000431,0.003173
269000,0.0324,0.013523,0.002678,0.000431,0.002821
270000,0.0324,0.013523,0.002678,0.000431,0.003526
271000,0.0324,0.013523,0.002678,0.000431,0.003526
272000,0.0324,0.013523,0.002678,0.000431,0.003173
273000,0.0324,0.013523,0.002678,0.000431,0.003408
274000,0.0324,0.013523,0.002678,0.000431,0.003643
275000,0.0324,0.013523,0.002678,0.000431,0.002821
276000,0.0324,0.013523,0.002678,0.000431,0.003291
277000,0.0324,0.013523,0.002678,0.000431,0.003643
278000,0.0324,0.013523,0.002678,0.000431,0.003408
279000,0.0324,0.013523,0.002678,0.000431,0.002938
280000,0.0324,0.013523,0.002678,0.000431,0.003643
281000,0.0324,0.013523,0.002678,0.000431,0.003291
282000,0.0324,0.013523,0.002678,0.000431,0.003173
283000,0.0324,0.013523,0.002678,0.000431,0.003408
284000,0.0324,0.013523,0.002678,0.000431,0.003408
285000,0.0324,0.013523,0.002678,0.000431,0.003291
286000,0.0324,0.013523,0.002678,0.000431,0.003173
287000,0.0324,0.013523,0.002678,0.000431,0.003408
288000,0.0324,0.013523,0.002678,0.000431,0.003408
289000,0.0324,0.013523,0.002678,0.000431,0.003173
290000,0.0324,0.013523,0.002678,0.000431,0.003408
291000,0.0324,0.013523,0.002678,0.000431,0.003526
292000,0.0324,0.013523,0.002678,0.000431,0.003173
293000,0.0324,0.013523,0.002678,0.000431,0.003056
294000,0.0324,0.013523,0.002678,0.000431,0.003408
295000,0.0324,0.013523,0.002678,0.000431,0.003761
296000,0.0324,0.013523,0.002678,0.000431,0.003643
297000,0.0324,0.013523,0.002678,0.000431,0.003761
298000,0.0324,0.013523,0.002678,0.000431,0.003761
299000,0.0324,0.013523,0.002678,0.000431,0.001998
300000,0.0324,0.013523,0.002678,0.000431,0.002116
301000,0.0324,0.013523,0.002678,0.000431,0.002468
302000,0.0324,0.013523,0.002678,0.000431,0.002351
303000,0.0324,0.013523,0.002678,0.000431,0.002468
304000,0.0324,0.013523,0.002678,0.000431,0.002351
305000,0.0324,0.013523,0.002678,0.000431,0.002233
306000,0.0324,0.013523,0.002678,0.000431,0.002938
307000,0.0324,0.013523,0.002678,0.000431,0.002116
308000,0.0324,0.013523,0.002678,0.000431,0.002116
309000,0.0324,0.013523,0.002678,0.000431,0.002938
310000,0.0324,0.013523,0.002678,0.000431,0.001645
311000,0.0324,0.013523,0.002678,0.000431,0.001410
312000,0.0324,0.013523,0.002678,0.000431,0.001763
313000,0.0324,0.013523,0.002678,0.000431,0.001645
314000,0.0324,0.013523,0.002678,0.000431,0.001645
315000,0.0324,0.013523,0.002678,0.000431,0.001763
316000,0.0324,0.013523,0.002678,0.000431,0.001880
317000,0.0324,0.013523,0.002678,0.000431,0.001410
318000,0.0324,0.013523,0.002678,0.000431,0.001528
319000,0.0324,0.013523,0.002678,0.000431,0.001763
320000,0.0324,0.013523,0.002678,0.000431,0.001763
321000,0.0324,0.013523,0.002678,0.000431,0.001645
322000,0.0324,0.013523,0.002678,0.000431,0.001763
323000,0.0324,0.013523,0.002678,0.000431,0.001763
324000,0.0324,0.013523,0.002678,0.000431,0.001410
325000,0.0324,0.013523,0.002678,0.000431,0.001528
326000,0.0324,0.013523,0.002678,0.000431,0.001880
327000,0.0324,0.013523,0.002678,0.000431,0.001763
328000,0.0324,0.013523,0.002678,0.000431,0.001528
329000,0.0324,0.013523,0.002678,0.000431,0.002351
330000,0.0324,0.013523,0.002678,0.000431,0.001528
331000,0.0324,0.013523,0.002678,0.000431,0.001175
332000,0.0324,0.013523,0.002678,0.000431,0.001175
333000,0.0324,0.013523,0.002678,0.000431,0.001645
334000,0.0324,0.013523,0.002678,0.000431,0.001410
335000,0.0324,0.013523,0.002678,0.000431,0.001058
336000,0.0324,0.013523,0.002678,0.000431,0.001293
337000,0.0324,0.013523,0.002678,0.000431,0.001528
338000,0.0324,0.013523,0.002678,0.000431,0.001175
339000,0.0324,0.013523,0.002678,0.000431,0.001293
340000,0.0324,0.013523,0.002678,0.000431,0.001645
341000,0.0324,0.013523,0.002678,0.000431,0.001175
342000,0.0324,0.013523,0.002678,0.000431,0.001175
343000,0.0324,0.013523,0.002678,0.000431,0.001410
344000,0.0324,0.013523,0.002678,0.000431,0.001528
345000,0.0324,0.013523,0.002678,0.000431,0.001175
346000,0.0324,0.013523,0.002678,0.000431,0.001293
347000,0.0324,0.013523,0.002678,0.000431,0.001528
348000,0.0324,0.013523,0.002678,0.000431,0.001293
349000,0.0324,0.013523,0.002678,0.000431,0.001175
350000,0.0324,0.013523,0.002678,0.000431,0.001410
351000,0.0324,0.013523,0.002678,0.000431,0.001410
352000,0.0324,0.013523,0.002678,0.000431,0.001645
353000,0.0324,0.013523,0.002678,0.000431,0.001293
354000,0.0324,0.013523,0.002678,0.000431,0.001410
355000,0.0324,0.013523,0.002678,0.000431,0.001058
356000,0.0324,0.013523,0.002678,0.000431,0.000705
357000,0.0324,0.013523,0.002678,0.000431,0.001058
358000,0.0324,0.013523,0.002678,0.000431,0.001175
359000,0.0324,0.013523,0.002678,0.000431,0.000705
360000,0.0324,0.013523,0.002678,0.000431,0.000940
361000,0.0324,0.013523,0.002678,0.000431,0.001410
362000,0.0324,0.013523,0.002678,0.000431,0.001058
363000,0.0324,0.013523,0.002678,0.000431,0.000588
364000,0.0324,0.013523,0.002678,0.000431,0.001175
365000,0.0324,0.013523,0.002678,0.000431,0.001175
366000,0.0324,0.013523,0.002678,0.000431,0.000588
367000,0.0324,0.013523,0.002678,0.000431,0.001058
368000,0.0324,0.013523,0.002678,0.000431,0.001410
369000,0.0324,0.013523,0.002678,0.000431,0.000823
370000,0.0324,0.013523,0.002678,0.000431,0.000705
371000,0.0324,0.013523,0.002678,0.000431,0.001293
372000,0.0324,0.013523,0.002678,0.000431,0.001058
373000,0.0324,0.013523,0.002678,0.000431,0.000705
374000,0.0324,0.013523,0.002678,0.000431,0.001058
375000,0.0324,0.013523,0.002678,0.000431,0.001410
376000,0.0324,0.013523,0.002678,0.000431,0.000823
377000,0.0324,0.013523,0.002678,0.000431,0.000588
378000,0.0324,0.013523,0.002678,0.000431,0.001410
379000,0.0324,0.013523,0.002678,0.000431,0.001058
380000,0.0324,0.013523,0.002678,0.000431,0.000705
381000,0.0324,0.013523,0.002678,0.000431,0.001058
382000,0.0324,0.013523,0.002678,0.000431,0.001410
383000,0.0324,0.013523,0.002678,0.000431,0.000588
384000,0.0324,0.013523,0.002678,0.000431,0.000823
385000,0.0324,0.013523,0.002678,0.000431,0.001410
386000,0.0324,0.013523,0.002678,0.000431,0.001058
387000,0.0324,0.013523,0.002678,0.000431,0.000705
388000,0.0324,0.013523,0.002678,0.000431,0.001058
389000,0.0324,0.013523,0.002678,0.000431,0.001293
390000,0.0324,0.013523,0.002678,0.000431,0.000470
391000,0.0324,0.013523,0.002678,0.000431,0.001058
392000,0.0324,0.013523,0.002678,0.000431,0.001410
393000,0.0324,0.013523,0.002678,0.000431,0.001058
394000,0.0324,0.013523,0.002678,0.000431,0.000705
395000,0.0324,0.013523,0.002678,0.000431,0.001058
396000,0.0324,0.013523,0.002678,0.000431,0.001175
397000,0.0324,0.013523,0.002678,0.000431,0.000588
398000,0.0324,0.013523,0.002678,0.000431,0.001058
399000,0.0324,0.013523,0.002678,0.000431,0.001410
400000,0.0324,0.013523,0.002678,0.000431,0.001058
401000,0.0324,0.013523,0.002678,0.000431,0.000588
402000,0.0324,0.013523,0.002678,0.000431,0.001175
403000,0.0324,0.013523,0.002678,0.000431,0.001058
404000,0.0324,0.013523,0.002678,0.000431,0.000705
405000,0.0324,0.013523,0.002678,0.000431,0.001058
406000,0.0324,0.013523,0.002678,0.000431,0.001410
407000,0.0324,0.013523,0.002678,0.000431,0.000940
408000,0.0324,0.013523,0.002678,0.000431,0.000705
409000,0.0324,0.013523,0.002678,0.000431,0.001175
410000,0.0324,0.013523,0.002678,0.000431,0.001058
411000,0.0324,0.013523,0.002678,0.000431,0.000705
412000,0.0324,0.013523,0.002678,0.000431,0.001058
413000,0.0324,0.013523,0.002678,0.000431,0.001293
414000,0.0324,0.013523,0.002678,0.000431,0.000940
415000,0.0324,0.013523,0.002678,0.000431,0.000823
416000,0.0324,0.013523,0.002678,0.000431,0.001175
417000,0.0324,0.013523,0.002678,0.000431,0.001058
418000,0.0324,0.013523,0.002678,0.000431,0.000705
419000,0.0324,0.013523,0.002678,0.000431,0.001058
420000,0.0324,0.013523,0.002678,0.000431,0.001293
421000,0.0324,0.013523,0.002678,0.000431,0.000940
422000,0.0324,0.013523,0.002678,0.000431,0.000705
423000,0.0324,0.013523,0.002678,0.000431,0.001293
424000,0.0324,0.013523,0.002678,0.000431,0.001058
425000,0.0324,0.013523,0.002678,0.000431,0.000705
426000,0.0324,0.013523,0.002678,0.000431,0.001058
427000,0.0324,0.013523,0.002678,0.000431,0.001293
428000,0.0324,0.013523,0.002678,0.000431,0.000823
429000,0.0324,0.013523,0.002678,0.000431,0.000823
430000,0.0324,0.013523,0.002678,0.000431,0.001293
431000,0.0324,0.013523,0.002678,0.000431,0.001058
432000,0.0324,0.013523,0.002678,0.000431,0.000588
433000,0.0324,0.013523,0.002678,0.000431,0.001175
434000,0.0324,0.013523,0.002678,0.000431,0.001293
435000,0.0324,0.013523,0.002678,0.000431,0.000823
436000,0.0324,0.013523,0.002678,0.000431,0.000705
437000,0.0324,0.013523,0.002678,0.000431,0.001410
438000,0.0324,0.013523,0.002678,0.000431,0.000940
439000,0.0324,0.013523,0.002678,0.000431,0.000705
440000,0.0324,0.013523,0.002678,0.000431,0.001175
441000,0.0324,0.013523,0.002678,0.000431,0.001293
442000,0.0324,0.013523,0.002678,0.000431,0.000823
443000,0.0324,0.013523,0.002678,0.000431,0.000705
444000,0.0324,0.013523,0.002678,0.000431,0.001410
445000,0.0324,0.013523,0.002678,0.000431,0.000940
446000,0.0324,0.013523,0.002678,0.000431,0.000705
447000,0.0324,0.013523,0.002678,0.000431,0.001175
448000,0.0324,0.013523,0.002678,0.000431,0.001293
449000,0.0324,0.013523,0.002678,0.000431,0.000588
450000,0.0324,0.013523,0.002678,0.000431,0.000940
451000,0.0324,0.013523,0.002678,0.000431,0.001410
452000,0.0324,0.013523,0.002678,0.000431,0.000823
453000,0.0324,0.013523,0.002678,0.000431,0.000823
454000,0.0324,0.013523,0.002678,0.000431,0.001175
455000,0.0324,0.013523,0.002678,0.000431,0.001175
456000,0.0324,0.013523,0.002678,0.000431,0.000705
457000,0.0324,0.013523,0.002678,0.000431,0.000940
458000,0.0324,0.013523,0.002678,0.000431,0.001410
459000,0.0324,0.013523,0.002678,0.000431,0.000823
460000,0.0324,0.013523,0.002678,0.000431,0.000823
461000,0.0324,0.013523,0.002678,0.000431,0.001175
462000,0.0324,0.013523,0.002678,0.000431,0.001175
463000,0.0324,0.013523,0.002678,0.000431,0.000705
464000,0.0324,0.013523,0.002678,0.000431,0.000940
465000,0.0324,0.013523,0.002678,0.000431,0.001293
466000,0.0324,0.013523,0.002678,0.000431,0.000940
467000,0.0324,0.013523,0.002678,0.000431,0.000823
468000,0.0324,0.013523,0.002678,0.000431,0.001175
469000,0.0324,0.013523,0.002678,0.000431,0.001175
470000,0.0324,0.013523,0.002678,0.000431,0.000705
471000,0.0324,0.013523,0.002678,0.000431,0.000940
472000,0.0324,0.013523,0.002678,0.000431,0.001293
473000,0.0324,0.013523,0.002678,0.000431,0.000940
474000,0.0324,0.013523,0.002678,0.000431,0.000823
475000,0.0324,0.013523,0.002678,0.000431,0.001175
476000,0.0324,0.013523,0.002678,0.000431,0.001175
477000,0.0324,0.013523,0.002678,0.000431,0.000588
478000,0.0324,0.013523,0.002678,0.000431,0.001058
479000,0.0324,0.013523,0.002678,0.000431,0.001293
480000,0.0324,0.013523,0.002678,0.000431,0.000940
481000,0.0324,0.013523,0.002678,0.000431,0.000705
482000,0.0324,0.013523,0.002678,0.000431,0.001763
483000,0.0324,0.013523,0.002678,0.000431,0.001293
484000,0.0324,0.013523,0.002678,0.000431,0.000353
485000,0.0324,0.013523,0.002678,0.000431,0.000705
486000,0.0324,0.013523,0.002678,0.000431,0.000823
487000,0.0324,0.013523,0.002678,0.000431,0.000588
488000,0.0324,0.013523,0.002678,0.000431,0.000588
489000,0.0324,0.013523,0.002678,0.000431,0.000823
490000,0.0324,0.013523,0.002678,0.000431,0.000705
491000,0.0324,0.013523,0.002678,0.000431,0.000470
492000,0.0324,0.013523,0.002678,0.000431,0.000705
493000,0.0324,0.013523,0.002678,0.000431,0.000823
494000,0.0324,0.013523,0.002678,0.000431,0.000588
495000,0.0324,0.013523,0.002678,0.000431,0.000588
496000,0.0324,0.013523,0.002678,0.000431,0.000823
497000,0.0324,0.013523,0.002678,0.000431,0.000705
498000,0.0324,0.013523,0.002678,0.000431,0.000470
499000,0.0324,0.013523,0.002678,0.000431,0.000705
500000,0.0324,0.013523,0.002678,0.000431,0.000823
501000,0.0324,0.013523,0.002678,0.000431,0.000588
502000,0.0324,0.013523,0.002678,0.000431,0.000588
503000,0.0324,0.013523,0.002678,0.000431,0.000823
504000,0.0324,0.013523,0.002678,0.000431,0.000705
505000,0.0324,0.013523,0.002678,0.000431,0.000470
506000,0.0324,0.013523,0.002678,0.000431,0.000705
507000,0.0324,0.013523,0.002678,0.000431,0.000823
508000,0.0324,0.013523,0.002678,0.000431,0.000588
509000,0.0324,0.013523,0.002678,0.000431,0.000588
510000,0.0324,0.013523,0.002678,0.000431,0.000823
511000,0.0324,0.013523,0.002678,0.000431,0.000705
512000,0.0324,0.013523,0.002678,0.000431,0.000353
513000,0.0324,0.013523,0.002678,0.000431,0.000823
514000,0.0324,0.013523,0.002678,0.000431,0.000823
515000,0.0324,0.013523,0.002678,0.000431,0.000588
516000,0.0324,0.013523,0.002678,0.000431,0.000588
517000,0.0324,0.013523,0.002678,0.000431,0.000823
518000,0.0324,0.013523,0.002678,0.000431,0.000705
519000,0.0324,0.013523,0.002678,0.000431,0.000353
520000,0.0324,0.013523,0.002678,0.000431,0.000823
521000,0.0324,0.013523,0.002678,0.000431,0.000823
522000,0.0324,0.013523,0.002678,0.000431,0.000588
523000,0.0324,0.013523,0.002678,0.000431,0.000470
524000,0.0324,0.013523,0.002678,0.000431,0.000940
525000,0.0324,0.013523,0.002678,0.000431,0.000705
526000,0.0324,0.013523,0.002678,0.000431,0.000353
527000,0.0324,0.013523,0.002678,0.000431,0.000823
528000,0.0324,0.013523,0.002678,0.000431,0.000823
529000,0.0324,0.013523,0.002678,0.000431,0.000588
530000,0.0324,0.013523,0.002678,0.000431,0.000470
531000,0.0324,0.013523,0.002678,0.000431,0.000940
532000,0.0324,0.013523,0.002678,0.000431,0.000705
533000,0.0324,0.013523,0.002678,0.000431,0.000353
534000,0.0324,0.013523,0.002678,0.000431,0.000823
535000,0.0324,0.013523,0.002678,0.000431,0.000823
536000,0.0324,0.013523,0.002678,0.000431,0.000470
537000,0.0324,0.013523,0.002678,0.000431,0.000588
538000,0.0324,0.013523,0.002678,0.000431,0.000940
539000,0.0324,0.013523,0.002678,0.000431,0.000588
540000,0.0324,0.013523,0.002678,0.000431,0.000470
541000,0.0324,0.013523,0.002678,0.000431,0.000823
542000,0.0324,0.013523,0.002678,0.000431,0.000823
543000,0.0324,0.013523,0.002678,0.000431,0.000470
544000,0.0324,0.013523,0.002678,0.000431,0.000588
545000,0.0324,0.013523,0.002678,0.000431,0.000940
546000,0.0324,0.013523,0.002678,0.000431,0.000588
547000,0.0324,0.013523,0.002678,0.000431,0.000470
548000,0.0324,0.013523,0.002678,0.000431,0.000823
549000,0.0324,0.013523,0.002678,0.000431,0.000823
550000,0.0324,0.013523,0.002678,0.000431,0.000470
551000,0.0324,0.013523,0.002678,0.000431,0.000588
552000,0.0324,0.013523,0.002678,0.000431,0.000940
553000,0.0324,0.013523,0.002678,0.000431,0.000588
554000,0.0324,0.013523,0.002678,0.000431,0.000470
555000,0.0324,0.013523,0.002678,0.000431,0.000823
556000,0.0324,0.013523,0.002678,0.000431,0.000823
557000,0.0324,0.013523,0.002678,0.000431,0.000470
558000,0.0324,0.013523,0.002678,0.000431,0.000588
559000,0.0324,0.013523,0.002678,0.000431,0.000940
560000,0.0324,0.013523,0.002678,0.000431,0.000588
561000,0.0324,0.013523,0.002678,0.000431,0.000470
562000,0.0324,0.013523,0.002678,0.000431,0.000823
563000,0.0324,0.013523,0.002678,0.000431,0.000823
564000,0.0324,0.013523,0.002678,0.000431,0.000470
565000,0.0324,0.013523,0.002678,0.000431,0.000588
566000,0.0324,0.013523,0.002678,0.000431,0.000940
567000,0.0324,0.013523,0.002678,0.000431,0.000588
568000,0.0324,0.013523,0.002678,0.000431,0.000470
569000,0.0324,0.013523,0.002678,0.000431,0.000823
570000,0.0324,0.013523,0.002678,0.000431,0.000823
571000,0.0324,0.013523,0.002678,0.000431,0.000470
572000,0.0324,0.013523,0.002678,0.000431,0.000588
573000,0.0324,0.013523,0.002678,0.000431,0.000940
574000,0.0324,0.013523,0.002678,0.000431,0.000588
575000,0.0324,0.013523,0.002678,0.000431,0.000470
576000,0.0324,0.013523,0.002678,0.000431,0.000823
577000,0.0324,0.013523,0.002678,0.000431,0.000823
578000,0.0324,0.013523,0.002678,0.000431,0.000353
579000,0.0324,0.013523,0.002678,0.000431,0.000705
580000,0.0324,0.013523,0.002678,0.000431,0.000940
581000,0.0324,0.013523,0.002678,0.000431,0.000470
582000,0.0324,0.013523,0.002678,0.000431,0.000588
583000,0.0324,0.013523,0.002678,0.000431,0.000823
584000,0.0324,0.013523,0.002678,0.000431,0.000823
585000,0.0324,0.013523,0.002678,0.000431,0.000353
586000,0.0324,0.013523,0.002678,0.000431,0.000705
587000,0.0324,0.013523,0.002678,0.000431,0.000940
588000,0.0324,0.013523,0.002678,0.000431,0.000470
589000,0.0324,0.013523,0.002678,0.000431,0.000588
590000,0.0324,0.013523,0.002678,0.000431,0.000823
591000,0.0324,0.013523,0.002678,0.000431,0.000823
592000,0.0324,0.013523,0.002678,0.000431,0.000353
593000,0.0324,0.013523,0.002678,0.000431,0.000705
594000,0.0324,0.013523,0.002678,0.000431,0.000940
595000,0.0324,0.013523,0.002678,0.000431,0.000470
596000,0.0324,0.013523,0.002678,0.000431,0.000588
597000,0.0324,0.013523,0.002678,0.000431,0.000823
598000,0.0324,0.013523,0.002678,0.000431,0.000705
599000,0.0324,0.013523,0.002678,0.000431,0.000470
600000,0.0324,0.013523,0.002678,0.000431,0.000705
601000,0.0324,0.013523,0.002678,0.000431,0.000823
602000,0.0324,0.013523,0.002678,0.000431,0.000588
603000,0.0324,0.013523,0.002678,0.000431,0.000588
604000,0.0324,0.013523,0.002678,0.000431,0.000823
605000,0.0324,0.013523,0.002678,0.000431,0.000705
606000,0.0324,0.013523,0.002678,0.000431,0.000470
607000,0.0324,0.013523,0.002678,0.000431,0.000705
608000,0.0324,0.013523,0.002678,0.000431,0.000823
609000,0.0324,0.013523,0.002678,0.000431,0.000588
610000,0.0324,0.013523,0.002678,0.000431,0.000588
611000,0.0324,0.013523,0.002678,0.000431,0.000823
612000,0.0324,0.013523,0.002678,0.000431,0.000705
613000,0.0324,0.013523,0.002678,0.000431,0.000470
614000,0.0324,0.013523,0.002678,0.000431,0.000705
615000,0.0324,0.013523,0.002678,0.000431,0.000823
616000,0.0324,0.013523,0.002678,0.000431,0.000588
617000,0.0324,0.013523,0.002678,0.000431,0.000588
618000,0.0324,0.013523,0.002678,0.000431,0.000823
619000,0.0324,0.013523,0.002678,0.000431,0.000705
620000,0.0324,0.013523,0.002678,0.000431,0.000470
621000,0.0324,0.013523,0.002678,0.000431,0.000705
622000,0.0324,0.013523,0.002678,0.000431,0.000823
623000,0.0324,0.013523,0.002678,0.000431,0.000588
624000,0.0324,0.013523,0.002678,0.000431,0.000588
625000,0.0324,0.013523,0.002678,0.000431,0.000823
626000,0.0324,0.013523,0.002678,0.000431,0.000705
627000,0.0324,0.013523,0.002678,0.000431,0.000470
628000,0.0324,0.013523,0.002678,0.000431,0.000705
629000,0.0324,0.013523,0.002678,0.000431,0.000823
630000,0.0324,0.013523,0.002678,0.000431,0.000588
631000,0.0324,0.013523,0.002678,0.000431,0.000588
632000,0.0324,0.013523,0.002678,0.000431,0.000823
633000,0.0324,0.013523,0.002678,0.000431,0.000705
634000,0.0324,0.013523,0.002678,0.000431,0.000470
635000,0.0324,0.013523,0.002678,0.000431,0.000705
636000,0.0324,0.013523,0.002678,0.000431,0.000823
637000,0.0324,0.013523,0.002678,0.000431,0.000588
638000,0.0324,0.013523,0.002678,0.000431,0.000588
639000,0.0324,0.013523,0.002678,0.000431,0.000823
640000,0.0324,0.013523,0.002678,0.000431,0.000705
641000,0.0324,0.013523,0.002678,0.000431,0.000470
642000,0.0324,0.013523,0.002678,0.000431,0.000705
643000,0.0324,0.013523,0.002678,0.000431,0.000823
644000,0.0324,0.013523,0.002678,0.000431,0.000588
645000,0.0324,0.013523,0.002678,0.000431,0.000588
646000,0.0324,0.013523,0.002678,0.000431,0.000823
647000,0.0324,0.013523,0.002678,0.000431,0.000705
648000,0.0324,0.013523,0.002678,0.000431,0.000470
649000,0.0324,0.013523,0.002678,0.000431,0.000705
650000,0.0324,0.013523,0.002678,0.000431,0.000823
651000,0.0324,0.013523,0.002678,0.000431,0.000588
652000,0.0324,0.013523,0.002678,0.000431,0.000470
653000,0.0324,0.013523,0.002678,0.000431,0.000940
654000,0.0324,0.013523,0.002678,0.000431,0.000705
655000,0.0324,0.013523,0.002678,0.000431,0.000353
656000,0.0324,0.013523,0.002678,0.000431,0.000823
657000,0.0324,0.013523,0.002678,0.000431,0.000823
658000,0.0324,0.013523,0.002678,0.000431,0.000470
659000,0.0324,0.013523,0.002678,0.000431,0.000588
660000,0.0324,0.013523,0.002678,0.000431,0.000940
661000,0.0324,0.013523,0.002678,0.000431,0.000705
662000,0.0324,0.013523,0.002678,0.000431,0.000353
663000,0.0324,0.013523,0.002678,0.000431,0.000823
664000,0.0324,0.013523,0.002678,0.000431,0.000823
665000,0.0324,0.013523,0.002678,0.000431,0.000470
666000,0.0324,0.013523,0.002678,0.000431,0.000588
667000,0.0324,0.013523,0.002678,0.000431,0.000940
668000,0.0324,0.013523,0.002678,0.000431,0.000705
669000,0.0324,0.013523,0.002678,0.000431,0.000353
670000,0.0324,0.013523,0.002678,0.000431,0.000823
671000,0.0324,0.013523,0.002678,0.000431,0.000823
672000,0.0324,0.013523,0.002678,0.000431,0.000470
673000,0.0324,0.013523,0.002678,0.000431,0.000588
674000,0.0324,0.013523,0.002678,0.000431,0.000940
675000,0.0324,0.013523,0.002678,0.000431,0.000588
676000,0.0324,0.013523,0.002678,0.000431,0.000470
677000,0.0324,0.013523,0.002678,0.000431,0.000823
678000,0.0324,0.013523,0.002678,0.000431,0.000823
679000,0.0324,0.013523,0.002678,0.000431,0.000470
680000,0.0324,0.013523,0.002678,0.000431,0.000588
681000,0.0324,0.013523,0.002678,0.000431,0.000940
682000,0.0324,0.013523,0.002678,0.000431,0.000588
683000,0.0324,0.013523,0.002678,0.000431,0.000470
684000,0.0324,0.013523,0.002678,0.000431,0.000823
685000,0.0324,0.013523,0.002678,0.000431,0.000823
686000,0.0324,0.013523,0.002678,0.000431,0.000470
687000,0.0324,0.013523,0.002678,0.000431,0.000588
688000,0.0324,0.013523,0.002678,0.000431,0.000940
689000,0.0324,0.013523,0.002678,0.000431,0.000588
690000,0.0324,0.013523,0.002678,0.000431,0.000470
691000,0.0324,0.013523,0.002678,0.000431,0.000823
692000,0.0324,0.013523,0.002678,0.000431,0.000823
693000,0.0324,0.013523,0.002678,0.000431,0.000470
694000,0.0324,0.013523,0.002678,0.000431,0.000588
695000,0.0324,0.013523,0.002678,0.000431,0.000940
696000,0.0324,0.013523,0.002678,0.000431,0.000588
697000,0.0324,0.013523,0.002678,0.000431,0.000470
698000,0.0324,0.013523,0.002678,0.000431,0.000823
699000,0.0324,0.013523,0.002678,0.000431,0.000823
700000,0.0324,0.013523,0.002678,0.000431,0.000353
701000,0.0324,0.013523,0.002678,0.000431,0.000705
702000,0.0324,0.013523,0.002678,0.000431,0.000940
703000,0.0324,0.013523,0.002678,0.000431,0.000588
704000,0.0324,0.013523,0.002678,0.000431,0.000470
705000,0.0324,0.013523,0.002678,0.000431,0.000823
706000,0.0324,0.013523,0.002678,0.000431,0.000823
707000,0.0324,0.013523,0.002678,0.000431,0.000353
708000,0.0324,0.013523,0.002678,0.000431,0.000705
709000,0.0324,0.013523,0.002678,0.000431,0.000940
710000,0.0324,0.013523,0.002678,0.000431,0.000588
711000,0.0324,0.013523,0.002678,0.000431,0.000470
712000,0.0324,0.013523,0.002678,0.000431,0.000823
713000,0.0324,0.013523,0.002678,0.000431,0.000823
714000,0.0324,0.013523,0.002678,0.000431,0.000353
715000,0.0324,0.013523,0.002678,0.000431,0.000705
716000,0.0324,0.013523,0.002678,0.000431,0.000940
717000,0.0324,0.013523,0.002678,0.000431,0.000470
718000,0.0324,0.013523,0.002678,0.000431,0.000588
719000,0.0324,0.013523,0.002678,0.000431,0.000823
720000,0.0324,0.013523,0.002678,0.000431,0.000823
721000,0.0324,0.013523,0.002678,0.000431,0.000353
722000,0.0324,0.013523,0.002678,0.000431,0.000705
723000,0.0324,0.013523,0.002678,0.000431,0.000940
724000,0.0324,0.013523,0.002678,0.000431,0.000470
725000,0.0324,0.013523,0.002678,0.000431,0.000588
726000,0.0324,0.013523,0.002678,0.000431,0.000823
727000,0.0324,0.013523,0.002678,0.000431,0.000705
728000,0.0324,0.013523,0.002678,0.000431,0.000470
729000,0.0324,0.013523,0.002678,0.000431,0.000705
730000,0.0324,0.013523,0.002678,0.000431,0.000940
731000,0.0324,0.013523,0.002678,0.000431,0.000470
732000,0.0324,0.013523,0.002678,0.000431,0.000588
733000,0.0324,0.013523,0.002678,0.000431,0.000823
734000,0.0324,0.013523,0.002678,0.000431,0.000705
735000,0.0324,0.013523,0.002678,0.000431,0.000470
736000,0.0324,0.013523,0.002678,0.000431,0.000705
737000,0.0324,0.013523,0.002678,0.000431,0.000940
738000,0.0324,0.013523,0.002678,0.000431,0.000470
739000,0.0324,0.013523,0.002678,0.000431,0.000588
740000,0.0324,0.013523,0.002678,0.000431,0.001763
741000,0.0324,0.013523,0.002678,0.000431,0.000353
742000,0.0324,0.013523,0.002678,0.000431,0.000235
743000,0.0324,0.013523,0.002678,0.000431,0.000353
744000,0.0324,0.013523,0.002678,0.000431,0.000353
745000,0.0324,0.013523,0.002678,0.000431,0.000235
746000,0.0324,0.013523,0.002678,0.000431,0.000353
747000,0.0324,0.013523,0.002678,0.000431,0.000470
748000,0.0324,0.013523,0.002678,0.000431,0.000353
749000,0.0324,0.013523,0.002678,0.000431,0.000235
750000,0.0324,0.013523,0.002678,0.000431,0.000353
751000,0.0324,0.013523,0.002678,0.000431,0.000353
752000,0.0324,0.013523,0.002678,0.000431,0.000235
753000,0.0324,0.013523,0.002678,0.000431,0.000353
754000,0.0324,0.013523,0.002678,0.000431,0.000470
755000,0.0324,0.013523,0.002678,0.000431,0.000353
756000,0.0324,0.013523,0.002678,0.000431,0.000235
757000,0.0324,0.013523,0.002678,0.000431,0.000353
758000,0.0324,0.013523,0.002678,0.000431,0.000353
759000,0.0324,0.013523,0.002678,0.000431,0.000235
760000,0.0324,0.013523,0.002678,0.000431,0.000353
761000,0.0324,0.013523,0.002678,0.000431,0.000470
762000,0.0324,0.013523,0.002678,0.000431,0.000353
763000,0.0324,0.013523,0.002678,0.000431,0.000235
764000,0.0324,0.013523,0.002678,0.000431,0.000353
765000,0.0324,0.013523,0.002678,0.000431,0.000353
766000,0.0324,0.013523,0.002678,0.000431,0.000235
767000,0.0324,0.013523,0.002678,0.000431,0.000353
768000,0.0324,0.013523,0.002678,0.000431,0.000470
769000,0.0324,0.013523,0.002678,0.000431,0.000353
770000,0.0324,0.013523,0.002678,0.000431,0.000235
771000,0.0324,0.013523,0.002678,0.000431,0.000353
772000,0.0324,0.013523,0.002678,0.000431,0.000353
773000,0.0324,0.013523,0.002678,0.000431,0.000235
774000,0.0324,0.013523,0.002678,0.000431,0.000353
775000,0.0324,0.013523,0.002678,0.000431,0.000470
776000,0.0324,0.013523,0.002678,0.000431,0.000353
777000,0.0324,0.013523,0.002678,0.000431,0.000235
778000,0.0324,0.013523,0.002678,0.000431,0.000353
779000,0.0324,0.013523,0.002678,0.000431,0.000353
780000,0.0324,0.013523,0.002678,0.000431,0.000235
781000,0.0324,0.013523,0.002678,0.000431,0.000353
782000,0.0324,0.013523,0.002678,0.000431,0.000470
783000,0.0324,0.013523,0.002678,0.000431,0.000353
784000,0.0324,0.013523,0.002678,0.000431,0.000235
785000,0.0324,0.013523,0.002678,0.000431,0.000353
786000,0.0324,0.013523,0.002678,0.000431,0.000353
787000,0.0324,0.013523,0.002678,0.000431,0.000235
788000,0.0324,0.013523,0.002678,0.000431,0.000353
789000,0.0324,0.013523,0.002678,0.000431,0.000470
790000,0.0324,0.013523,0.002678,0.000431,0.000353
791000,0.0324,0.013523,0.002678,0.000431,0.000118
792000,0.0324,0.013523,0.002678,0.000431,0.000470
793000,0.0324,0.013523,0.002678,0.000431,0.000353
794000,0.0324,0.013523,0.002678,0.000431,0.000235
795000,0.0324,0.013523,0.002678,0.000431,0.000353
796000,0.0324,0.013523,0.002678,0.000431,0.000470
797000,0.0324,0.013523,0.002678,0.000431,0.000353
798000,0.0324,0.013523,0.002678,0.000431,0.000118
799000,0.0324,0.013523,0.002678,0.000431,0.000470
800000,0.0324,0.013523,0.002678,0.000431,0.000353
801000,0.0324,0.013523,0.002678,0.000431,0.000235
802000,0.0324,0.013523,0.002678,0.000431,0.000353
803000,0.0324,0.013523,0.002678,0.000431,0.000470
804000,0.0324,0.013523,0.002678,0.000431,0.000353
805000,0.0324,0.013523,0.002678,0.000431,0.000118
806000,0.0324,0.013523,0.002678,0.000431,0.000470
807000,0.0324,0.013523,0.002678,0.000431,0.000353
808000,0.0324,0.013523,0.002678,0.000431,0.000235
809000,0.0324,0.013523,0.002678,0.000431,0.000353
810000,0.0324,0.013523,0.002678,0.000431,0.000470
811000,0.0324,0.013523,0.002678,0.000431,0.000353
812000,0.0324,0.013523,0.002678,0.000431,0.000118
813000,0.0324,0.013523,0.002678,0.000431,0.000470
814000,0.0324,0.013523,0.002678,0.000431,0.000353
815000,0.0324,0.013523,0.002678,0.000431,0.000235
816000,0.0324,0.013523,0.002678,0.000431,0.000353
817000,0.0324,0.013523,0.002678,0.000431,0.000470
818000,0.0324,0.013523,0.002678,0.000431,0.000235
819000,0.0324,0.013523,0.002678,0.000431,0.000235
820000,0.0324,0.013523,0.002678,0.000431,0.000470
821000,0.0324,0.013523,0.002678,0.000431,0.000353
822000,0.0324,0.013523,0.002678,0.000431,0.000235
823000,0.0324,0.013523,0.002678,0.000431,0.000353
824000,0.0324,0.013523,0.002678,0.000431,0.000470
825000,0.0324,0.013523,0.002678,0.000431,0.000235
826000,0.0324,0.013523,0.002678,0.000431,0.000235
827000,0.0324,0.013523,0.002678,0.000431,0.000470
828000,0.0324,0.013523,0.002678,0.000431,0.000353
829000,0.0324,0.013523,0.002678,0.000431,0.000235
830000,0.0324,0.013523,0.002678,0.000431,0.000353
831000,0.0324,0.013523,0.002678,0.000431,0.000470
832000,0.0324,0.013523,0.002678,0.000431,0.000235
833000,0.0324,0.013523,0.002678,0.000431,0.000235
834000,0.0324,0.013523,0.002678,0.000431,0.000470
835000,0.0324,0.013523,0.002678,0.000431,0.000353
836000,0.0324,0.013523,0.002678,0.000431,0.000235
837000,0.0324,0.013523,0.002678,0.000431,0.000353
838000,0.0324,0.013523,0.002678,0.000431,0.000470
839000,0.0324,0.013523,0.002678,0.000431,0.000235
840000,0.0324,0.013523,0.002678,0.000431,0.000235
841000,0.0324,0.013523,0.002678,0.000431,0.000470
842000,0.0324,0.013523,0.002678,0.000431,0.000353
843000,0.0324,0.013523,0.002678,0.000431,0.000235
844000,0.0324,0.013523,0.002678,0.000431,0.000353
845000,0.0324,0.013523,0.002678,0.000431,0.000470
846000,0.0324,0.013523,0.002678,0.000431,0.000235
847000,0.0324,0.013523,0.002678,0.000431,0.000235
848000,0.0324,0.013523,0.002678,0.000431,0.000470
849000,0.0324,0.013523,0.002678,0.000431,0.000353
850000,0.0324,0.013523,0.002678,0.000431,0.000235
851000,0.0324,0.013523,0.002678,0.000431,0.000353
852000,0.0324,0.013523,0.002678,0.000431,0.000470
853000,0.0324,0.013523,0.002678,0.000431,0.000235
854000,0.0324,0.013523,0.002678,0.000431,0.000235
855000,0.0324,0.013523,0.002678,0.000431,0.000470
856000,0.0324,0.013523,0.002678,0.000431,0.000353
857000,0.0324,0.013523,0.002678,0.000431,0.000235
858000,0.0324,0.013523,0.002678,0.000431,0.000353
859000,0.0324,0.013523,0.002678,0.000431,0.000470
860000,0.0324,0.013523,0.002678,0.000431,0.000118
861000,0.0324,0.013523,0.002678,0.000431,0.000353
862000,0.0324,0.013523,0.002678,0.000431,0.000470
863000,0.0324,0.013523,0.002678,0.000431,0.000353
864000,0.0324,0.013523,0.002678,0.000431,0.000235
865000,0.0324,0.013523,0.002678,0.000431,0.000353
866000,0.0324,0.013523,0.002678,0.000431,0.000470
867000,0.0324,0.013523,0.002678,0.000431,0.000118
868000,0.0324,0.013523,0.002678,0.000431,0.000353
869000,0.0324,0.013523,0.002678,0.000431,0.000470
870000,0.0324,0.013523,0.002678,0.000431,0.000353
871000,0.0324,0.013523,0.002678,0.000431,0.000235
872000,0.0324,0.013523,0.002678,0.000431,0.000353
873000,0.0324,0.013523,0.002678,0.000431,0.000470
874000,0.0324,0.013523,0.002678,0.000431,0.000118
875000,0.0324,0.013523,0.002678,0.000431,0.000353
876000,0.0324,0.013523,0.002678,0.000431,0.000470
877000,0.0324,0.013523,0.002678,0.000431,0.000353
878000,0.0324,0.013523,0.002678,0.000431,0.000235
879000,0.0324,0.013523,0.002678,0.000431,0.000353
880000,0.0324,0.013523,0.002678,0.000431,0.000353
881000,0.0324,0.013523,0.002678,0.000431,0.000235
882000,0.0324,0.013523,0.002678,0.000431,0.000353
883000,0.0324,0.013523,0.002678,0.000431,0.000470
884000,0.0324,0.013523,0.002678,0.000431,0.000353
885000,0.0324,0.013523,0.002678,0.000431,0.000235
886000,0.0324,0.013523,0.002678,0.000431,0.000353
887000,0.0324,0.013523,0.002678,0.000431,0.000353
888000,0.0324,0.013523,0.002678,0.000431,0.000235
889000,0.0324,0.013523,0.002678,0.000431,0.000353
890000,0.0324,0.013523,0.002678,0.000431,0.000470
891000,0.0324,0.013523,0.002678,0.000431,0.000353
892000,0.0324,0.013523,0.002678,0.000431,0.000235
893000,0.0324,0.013523,0.002678,0.000431,0.000353
894000,0.0324,0.013523,0.002678,0.000431,0.000353
895000,0.0324,0.013523,0.002678,0.000431,0.000235
896000,0.0324,0.013523,0.002678,0.000431,0.000353
897000,0.0324,0.013523,0.002678,0.000431,0.000470
898000,0.0324,0.013523,0.002678,0.000431,0.000353
899000,0.0324,0.013523,0.002678,0.000431,0.000235
900000,0.0324,0.013523,0.002678,0.000431,0.000353
901000,0.0324,0.013523,0.002678,0.000431,0.000353
902000,0.0324,0.013523,0.002678,0.000431,0.000235
903000,0.0324,0.013523,0.002678,0.000431,0.000353
904000,0.0324,0.013523,0.002678,0.000431,0.000470
905000,0.0324,0.013523,0.002678,0.000431,0.000353
906000,0.0324,0.013523,0.002678,0.000431,0.000235
907000,0.0324,0.013523,0.002678,0.000431,0.000353
908000,0.0324,0.013523,0.002678,0.000431,0.000353
909000,0.0324,0.013523,0.002678,0.000431,0.000235
910000,0.0324,0.013523,0.002678,0.000431,0.000353
911000,0.0324,0.013523,0.002678,0.000431,0.000470
912000,0.0324,0.013523,0.002678,0.000431,0.000353
913000,0.0324,0.013523,0.002678,0.000431,0.000235
914000,0.0324,0.013523,0.002678,0.000431,0.000353
915000,0.0324,0.013523,0.002678,0.000431,0.000353
916000,0.0324,0.013523,0.002678,0.000431,0.000235
917000,0.0324,0.013523,0.002678,0.000431,0.000353
918000,0.0324,0.013523,0.002678,0.000431,0.000470
919000,0.0324,0.013523,0.002678,0.000431,0.000353
920000,0.0324,0.013523,0.002678,0.000431,0.000235
921000,0.0324,0.013523,0.002678,0.000431,0.000353
922000,0.0324,0.013523,0.002678,0.000431,0.000353
923000,0.0324,0.013523,0.002678,0.000431,0.000235
924000,0.0324,0.013523,0.002678,0.000431,0.000353
925000,0.0324,0.013523,0.002678,0.000431,0.000470
926000,0.0324,0.013523,0.002678,0.000431,0.000353
927000,0.0324,0.013523,0.002678,0.000431,0.000235
928000,0.0324,0.013523,0.002678,0.000431,0.000353
929000,0.0324,0.013523,0.002678,0.000431,0.000353
930000,0.0324,0.013523,0.002678,0.000431,0.000235
931000,0.0324,0.013523,0.002678,0.000431,0.000353
932000,0.0324,0.013523,0.002678,0.000431,0.000470
933000,0.0324,0.013523,0.002678,0.000431,0.000353
934000,0.0324,0.013523,0.002678,0.000431,0.000118
935000,0.0324,0.013523,0.002678,0.000431,0.000470
936000,0.0324,0.013523,0.002678,0.000431,0.000353
937000,0.0324,0.013523,0.002678,0.000431,0.000235
938000,0.0324,0.013523,0.002678,0.000431,0.000353
939000,0.0324,0.013523,0.002678,0.000431,0.000470
940000,0.0324,0.013523,0.002678,0.000431,0.000353
941000,0.0324,0.013523,0.002678,0.000431,0.000118
942000,0.0324,0.013523,0.002678,0.000431,0.000470
943000,0.0324,0.013523,0.002678,0.000431,0.000353
944000,0.0324,0.013523,0.002678,0.000431,0.000235
945000,0.0324,0.013523,0.002678,0.000431,0.000353
946000,0.0324,0.013523,0.002678,0.000431,0.000470
947000,0.0324,0.013523,0.002678,0.000431,0.000353
948000,0.0324,0.013523,0.002678,0.000431,0.000118
949000,0.0324,0.013523,0.002678,0.000431,0.000470
950000,0.0324,0.013523,0.002678,0.000431,0.000353
951000,0.0324,0.013523,0.002678,0.000431,0.000235
952000,0.0324,0.013523,0.002678,0.000431,0.000353
953000,0.0324,0.013523,0.002678,0.000431,0.000470
954000,0.0324,0.013523,0.002678,0.000431,0.000353
955000,0.0324,0.013523,0.002678,0.000431,0.000118
956000,0.0324,0.013523,0.002678,0.000431,0.000470
957000,0.0324,0.013523,0.002678,0.000431,0.000353
958000,0.0324,0.013523,0.002678,0.000431,0.000235
959000,0.0324,0.013523,0.002678,0.000431,0.000353
960000,0.0324,0.013523,0.002678,0.000431,0.000470
961000,0.0324,0.013523,0.002678,0.000431,0.000235
962000,0.0324,0.013523,0.002678,0.000431,0.000235
963000,0.0324,0.013523,0.002678,0.000431,0.000470
964000,0.0324,0.013523,0.002678,0.000431,0.000353
965000,0.0324,0.013523,0.002678,0.000431,0.000235
966000,0.0324,0.013523,0.002678,0.000431,0.000353
967000,0.0324,0.013523,0.002678,0.000431,0.000470
968000,0.0324,0.013523,0.002678,0.000431,0.000235
969000,0.0324,0.013523,0.002678,0.000431,0.000235
970000,0.0324,0.013523,0.002678,0.000431,0.000470
971000,0.0324,0.013523,0.002678,0.000431,0.000353
972000,0.0324,0.013523,0.002678,0.000431,0.000235
973000,0.0324,0.013523,0.002678,0.000431,0.000353
974000,0.0324,0.013523,0.002678,0.000431,0.000470
975000,0.0324,0.013523,0.002678,0.000431,0.000235
976000,0.0324,0.013523,0.002678,0.000431,0.000235
977000,0.0324,0.013523,0.002678,0.000431,0.000470
978000,0.0324,0.013523,0.002678,0.000431,0.000353
979000,0.0324,0.013523,0.002678,0.000431,0.000235
980000,0.0324,0.013523,0.002678,0.000431,0.000353
981000,0.0324,0.013523,0.002678,0.000431,0.000470
982000,0.0324,0.013523,0.002678,0.000431,0.000235
983000,0.0324,0.013523,0.002678,0.000431,0.000235
984000,0.0324,0.013523,0.002678,0.000431,0.000470
985000,0.0324,0.013523,0.002678,0.000431,0.000353
986000,0.0324,0.013523,0.002678,0.000431,0.000235
987000,0.0324,0.013523,0.002678,0.000431,0.000353
988000,0.0324,0.013523,0.002678,0.000431,0.000470
989000,0.0324,0.013523,0.002678,0.000431,0.000235
990000,0.0324,0.013523,0.002678,0.000431,0.000235
991000,0.0324,0.013523,0.002678,0.000431,0.000470
992000,0.0324,0.013523,0.002678,0.000431,0.000353
993000,0.0324,0.013523,0.002678,0.000431,0.000235
994000,0.0324,0.013523,0.002678,0.000431,0.000353
995000,0.0324,0.013523,0.002678,0.000431,0.000470
996000,0.0324,0.013523,0.002678,0.000431,0.000118
997000,0.0324,0.013523,0.002678,0.000431,0.000353
998000,0.0324,0.013523,0.002678,0.000431,0.000470
999000,0.0324,0.013523,0.002678,0.000431,0.000353
