Cycle,Area(mm^2),PeakDynamic(W),SubthresholdLeakage(W),GateLeakage(W),RunTimeDynamic(W)
5000000,0.0324,0.013523,0.002678,0.000431,0.003878
5001000,0.0324,0.013523,0.002678,0.000431,0.003291
5002000,0.0324,0.013523,0.002678,0.000431,0.003173
5003000,0.0324,0.013523,0.002678,0.000431,0.003056
5004000,0.0324,0.013523,0.002678,0.000431,0.003408
5005000,0.0324,0.013523,0.002678,0.000431,0.003291
5006000,0.0324,0.013523,0.002678,0.000431,0.003526
5007000,0.0324,0.013523,0.002678,0.000431,0.003408
5008000,0.0324,0.013523,0.002678,0.000431,0.003291
5009000,0.0324,0.013523,0.002678,0.000431,0.003408
5010000,0.0324,0.013523,0.002678,0.000431,0.003173
5011000,0.0324,0.013523,0.002678,0.000431,0.003173
5012000,0.0324,0.013523,0.002678,0.000431,0.003056
5013000,0.0324,0.013523,0.002678,0.000431,0.003408
5014000,0.0324,0.013523,0.002678,0.000431,0.003291
5015000,0.0324,0.013523,0.002678,0.000431,0.003408
5016000,0.0324,0.013523,0.002678,0.000431,0.003408
5017000,0.0324,0.013523,0.002678,0.000431,0.003408
5018000,0.0324,0.013523,0.002678,0.000431,0.003056
5019000,0.0324,0.013523,0.002678,0.000431,0.003173
5020000,0.0324,0.013523,0.002678,0.000431,0.003056
5021000,0.0324,0.013523,0.002678,0.000431,0.003173
5022000,0.0324,0.013523,0.002678,0.000431,0.002938
5023000,0.0324,0.013523,0.002678,0.000431,0.003408
5024000,0.0324,0.013523,0.002678,0.000431,0.003408
5025000,0.0324,0.013523,0.002678,0.000431,0.002938
5026000,0.0324,0.013523,0.002678,0.000431,0.003291
5027000,0.0324,0.013523,0.002678,0.000431,0.003173
5028000,0.0324,0.013523,0.002678,0.000431,0.003173
5029000,0.0324,0.013523,0.002678,0.000431,0.003291
5030000,0.0324,0.013523,0.002678,0.000431,0.003291
5031000,0.0324,0.013523,0.002678,0.000431,0.003056
5032000,0.0324,0.013523,0.002678,0.000431,0.003408
5033000,0.0324,0.013523,0.002678,0.000431,0.003056
5034000,0.0324,0.013523,0.002678,0.000431,0.003408
5035000,0.0324,0.013523,0.002678,0.000431,0.003291
5036000,0.0324,0.013523,0.002678,0.000431,0.003173
5037000,0.0324,0.013523,0.002678,0.000431,0.003173
5038000,0.0324,0.013523,0.002678,0.000431,0.003408
5039000,0.0324,0.013523,0.002678,0.000431,0.003408
5040000,0.0324,0.013523,0.002678,0.000431,0.002821
5041000,0.0324,0.013523,0.002678,0.000431,0.003526
5042000,0.0324,0.013523,0.002678,0.000431,0.003291
5043000,0.0324,0.013523,0.002678,0.000431,0.003291
5044000,0.0324,0.013523,0.002678,0.000431,0.003526
5045000,0.0324,0.013523,0.002678,0.000431,0.003408
5046000,0.0324,0.013523,0.002678,0.000431,0.003173
5047000,0.0324,0.013523,0.002678,0.000431,0.003173
5048000,0.0324,0.013523,0.002678,0.000431,0.003408
5049000,0.0324,0.013523,0.002678,0.000431,0.003291
5050000,0.0324,0.013523,0.002678,0.000431,0.003408
5051000,0.0324,0.013523,0.002678,0.000431,0.002938
5052000,0.0324,0.013523,0.002678,0.000431,0.003291
5053000,0.0324,0.013523,0.002678,0.000431,0.003408
5054000,0.0324,0.013523,0.002678,0.000431,0.003408
5055000,0.0324,0.013523,0.002678,0.000431,0.003173
5056000,0.0324,0.013523,0.002678,0.000431,0.003408
5057000,0.0324,0.013523,0.002678,0.000431,0.003173
5058000,0.0324,0.013523,0.002678,0.000431,0.003291
5059000,0.0324,0.013523,0.002678,0.000431,0.003291
5060000,0.0324,0.013523,0.002678,0.000431,0.003291
5061000,0.0324,0.013523,0.002678,0.000431,0.003291
5062000,0.0324,0.013523,0.002678,0.000431,0.003291
5063000,0.0324,0.013523,0.002678,0.000431,0.003173
5064000,0.0324,0.013523,0.002678,0.000431,0.003643
5065000,0.0324,0.013523,0.002678,0.000431,0.003291
5066000,0.0324,0.013523,0.002678,0.000431,0.003408
5067000,0.0324,0.013523,0.002678,0.000431,0.003526
5068000,0.0324,0.013523,0.002678,0.000431,0.003408
5069000,0.0324,0.013523,0.002678,0.000431,0.002938
5070000,0.0324,0.013523,0.002678,0.000431,0.003291
5071000,0.0324,0.013523,0.002678,0.000431,0.003173
5072000,0.0324,0.013523,0.002678,0.000431,0.003291
5073000,0.0324,0.013523,0.002678,0.000431,0.002938
5074000,0.0324,0.013523,0.002678,0.000431,0.003056
5075000,0.0324,0.013523,0.002678,0.000431,0.003291
5076000,0.0324,0.013523,0.002678,0.000431,0.003173
5077000,0.0324,0.013523,0.002678,0.000431,0.003526
5078000,0.0324,0.013523,0.002678,0.000431,0.003173
5079000,0.0324,0.013523,0.002678,0.000431,0.002938
5080000,0.0324,0.013523,0.002678,0.000431,0.002586
5081000,0.0324,0.013523,0.002678,0.000431,0.002938
5082000,0.0324,0.013523,0.002678,0.000431,0.002703
5083000,0.0324,0.013523,0.002678,0.000431,0.002351
5084000,0.0324,0.013523,0.002678,0.000431,0.002586
5085000,0.0324,0.013523,0.002678,0.000431,0.002703
5086000,0.0324,0.013523,0.002678,0.000431,0.002468
5087000,0.0324,0.013523,0.002678,0.000431,0.002468
5088000,0.0324,0.013523,0.002678,0.000431,0.002468
5089000,0.0324,0.013523,0.002678,0.000431,0.002821
5090000,0.0324,0.013523,0.002678,0.000431,0.002468
5091000,0.0324,0.013523,0.002678,0.000431,0.002703
5092000,0.0324,0.013523,0.002678,0.000431,0.002468
5093000,0.0324,0.013523,0.002678,0.000431,0.002586
5094000,0.0324,0.013523,0.002678,0.000431,0.002586
5095000,0.0324,0.013523,0.002678,0.000431,0.002351
5096000,0.0324,0.013523,0.002678,0.000431,0.002586
5097000,0.0324,0.013523,0.002678,0.000431,0.002351
5098000,0.0324,0.013523,0.002678,0.000431,0.002821
5099000,0.0324,0.013523,0.002678,0.000431,0.002703
5100000,0.0324,0.013523,0.002678,0.000431,0.002586
5101000,0.0324,0.013523,0.002678,0.000431,0.002586
5102000,0.0324,0.013523,0.002678,0.000431,0.002233
5103000,0.0324,0.013523,0.002678,0.000431,0.002468
5104000,0.0324,0.013523,0.002678,0.000431,0.002703
5105000,0.0324,0.013523,0.002678,0.000431,0.002586
5106000,0.0324,0.013523,0.002678,0.000431,0.002821
5107000,0.0324,0.013523,0.002678,0.000431,0.002116
5108000,0.0324,0.013523,0.002678,0.000431,0.002586
5109000,0.0324,0.013523,0.002678,0.000431,0.002703
5110000,0.0324,0.013523,0.002678,0.000431,0.002468
5111000,0.0324,0.013523,0.002678,0.000431,0.002586
5112000,0.0324,0.013523,0.002678,0.000431,0.002351
5113000,0.0324,0.013523,0.002678,0.000431,0.002586
5114000,0.0324,0.013523,0.002678,0.000431,0.002586
5115000,0.0324,0.013523,0.002678,0.000431,0.002468
5116000,0.0324,0.013523,0.002678,0.000431,0.002586
5117000,0.0324,0.013523,0.002678,0.000431,0.002586
5118000,0.0324,0.013523,0.002678,0.000431,0.002586
5119000,0.0324,0.013523,0.002678,0.000431,0.002468
5120000,0.0324,0.013523,0.002678,0.000431,0.002703
5121000,0.0324,0.013523,0.002678,0.000431,0.002586
5122000,0.0324,0.013523,0.002678,0.000431,0.002468
5123000,0.0324,0.013523,0.002678,0.000431,0.002468
5124000,0.0324,0.013523,0.002678,0.000431,0.002703
5125000,0.0324,0.013523,0.002678,0.000431,0.002468
5126000,0.0324,0.013523,0.002678,0.000431,0.002703
5127000,0.0324,0.013523,0.002678,0.000431,0.002586
5128000,0.0324,0.013523,0.002678,0.000431,0.002468
5129000,0.0324,0.013523,0.002678,0.000431,0.002468
5130000,0.0324,0.013523,0.002678,0.000431,0.002703
5131000,0.0324,0.013523,0.002678,0.000431,0.002351
5132000,0.0324,0.013523,0.002678,0.000431,0.002703
5133000,0.0324,0.013523,0.002678,0.000431,0.002468
5134000,0.0324,0.013523,0.002678,0.000431,0.002116
5135000,0.0324,0.013523,0.002678,0.000431,0.002821
5136000,0.0324,0.013523,0.002678,0.000431,0.002586
5137000,0.0324,0.013523,0.002678,0.000431,0.002233
5138000,0.0324,0.013523,0.002678,0.000431,0.002586
5139000,0.0324,0.013523,0.002678,0.000431,0.002468
5140000,0.0324,0.013523,0.002678,0.000431,0.002586
5141000,0.0324,0.013523,0.002678,0.000431,0.002468
5142000,0.0324,0.013523,0.002678,0.000431,0.002468
5143000,0.0324,0.013523,0.002678,0.000431,0.002703
5144000,0.0324,0.013523,0.002678,0.000431,0.002116
5145000,0.0324,0.013523,0.002678,0.000431,0.002938
5146000,0.0324,0.013523,0.002678,0.000431,0.002586
5147000,0.0324,0.013523,0.002678,0.000431,0.002703
5148000,0.0324,0.013523,0.002678,0.000431,0.002586
5149000,0.0324,0.013523,0.002678,0.000431,0.002703
5150000,0.0324,0.013523,0.002678,0.000431,0.002703
5151000,0.0324,0.013523,0.002678,0.000431,0.002586
5152000,0.0324,0.013523,0.002678,0.000431,0.002821
5153000,0.0324,0.013523,0.002678,0.000431,0.002351
5154000,0.0324,0.013523,0.002678,0.000431,0.002703
5155000,0.0324,0.013523,0.002678,0.000431,0.002468
5156000,0.0324,0.013523,0.002678,0.000431,0.002586
5157000,0.0324,0.013523,0.002678,0.000431,0.002821
5158000,0.0324,0.013523,0.002678,0.000431,0.002821
5159000,0.0324,0.013523,0.002678,0.000431,0.002586
5160000,0.0324,0.013523,0.002678,0.000431,0.002468
5161000,0.0324,0.013523,0.002678,0.000431,0.002586
5162000,0.0324,0.013523,0.002678,0.000431,0.002821
5163000,0.0324,0.013523,0.002678,0.000431,0.002821
5164000,0.0324,0.013523,0.002678,0.000431,0.002703
5165000,0.0324,0.013523,0.002678,0.000431,0.002468
5166000,0.0324,0.013523,0.002678,0.000431,0.002468
5167000,0.0324,0.013523,0.002678,0.000431,0.002468
5168000,0.0324,0.013523,0.002678,0.000431,0.002586
5169000,0.0324,0.013523,0.002678,0.000431,0.002821
5170000,0.0324,0.013523,0.002678,0.000431,0.002586
5171000,0.0324,0.013523,0.002678,0.000431,0.002351
5172000,0.0324,0.013523,0.002678,0.000431,0.002821
5173000,0.0324,0.013523,0.002678,0.000431,0.002586
5174000,0.0324,0.013523,0.002678,0.000431,0.002586
5175000,0.0324,0.013523,0.002678,0.000431,0.002586
5176000,0.0324,0.013523,0.002678,0.000431,0.002586
5177000,0.0324,0.013523,0.002678,0.000431,0.002586
5178000,0.0324,0.013523,0.002678,0.000431,0.002468
5179000,0.0324,0.013523,0.002678,0.000431,0.002586
5180000,0.0324,0.013523,0.002678,0.000431,0.002351
5181000,0.0324,0.013523,0.002678,0.000431,0.002586
5182000,0.0324,0.013523,0.002678,0.000431,0.002351
5183000,0.0324,0.013523,0.002678,0.000431,0.002586
5184000,0.0324,0.013523,0.002678,0.000431,0.002468
5185000,0.0324,0.013523,0.002678,0.000431,0.002586
5186000,0.0324,0.013523,0.002678,0.000431,0.002586
5187000,0.0324,0.013523,0.002678,0.000431,0.002938
5188000,0.0324,0.013523,0.002678,0.000431,0.002116
5189000,0.0324,0.013523,0.002678,0.000431,0.002821
5190000,0.0324,0.013523,0.002678,0.000431,0.002586
5191000,0.0324,0.013523,0.002678,0.000431,0.002703
5192000,0.0324,0.013523,0.002678,0.000431,0.002468
5193000,0.0324,0.013523,0.002678,0.000431,0.002703
5194000,0.0324,0.013523,0.002678,0.000431,0.002233
5195000,0.0324,0.013523,0.002678,0.000431,0.002586
5196000,0.0324,0.013523,0.002678,0.000431,0.002351
5197000,0.0324,0.013523,0.002678,0.000431,0.002821
5198000,0.0324,0.013523,0.002678,0.000431,0.002586
5199000,0.0324,0.013523,0.002678,0.000431,0.002703
5200000,0.0324,0.013523,0.002678,0.000431,0.002821
5201000,0.0324,0.013523,0.002678,0.000431,0.002703
5202000,0.0324,0.013523,0.002678,0.000431,0.002586
5203000,0.0324,0.013523,0.002678,0.000431,0.002821
5204000,0.0324,0.013523,0.002678,0.000431,0.002586
5205000,0.0324,0.013523,0.002678,0.000431,0.002586
5206000,0.0324,0.013523,0.002678,0.000431,0.002351
5207000,0.0324,0.013523,0.002678,0.000431,0.002821
5208000,0.0324,0.013523,0.002678,0.000431,0.002703
5209000,0.0324,0.013523,0.002678,0.000431,0.002351
5210000,0.0324,0.013523,0.002678,0.000431,0.002468
5211000,0.0324,0.013523,0.002678,0.000431,0.002586
5212000,0.0324,0.013523,0.002678,0.000431,0.002468
5213000,0.0324,0.013523,0.002678,0.000431,0.002351
5214000,0.0324,0.013523,0.002678,0.000431,0.002703
5215000,0.0324,0.013523,0.002678,0.000431,0.002468
5216000,0.0324,0.013523,0.002678,0.000431,0.002468
5217000,0.0324,0.013523,0.002678,0.000431,0.002351
5218000,0.0324,0.013523,0.002678,0.000431,0.002938
5219000,0.0324,0.013523,0.002678,0.000431,0.002703
5220000,0.0324,0.013523,0.002678,0.000431,0.002586
5221000,0.0324,0.013523,0.002678,0.000431,0.002586
5222000,0.0324,0.013523,0.002678,0.000431,0.002821
5223000,0.0324,0.013523,0.002678,0.000431,0.002703
5224000,0.0324,0.013523,0.002678,0.000431,0.002468
5225000,0.0324,0.013523,0.002678,0.000431,0.002821
5226000,0.0324,0.013523,0.002678,0.000431,0.002586
5227000,0.0324,0.013523,0.002678,0.000431,0.002351
5228000,0.0324,0.013523,0.002678,0.000431,0.002233
5229000,0.0324,0.013523,0.002678,0.000431,0.002586
5230000,0.0324,0.013523,0.002678,0.000431,0.002938
5231000,0.0324,0.013523,0.002678,0.000431,0.002703
5232000,0.0324,0.013523,0.002678,0.000431,0.002586
5233000,0.0324,0.013523,0.002678,0.000431,0.002233
5234000,0.0324,0.013523,0.002678,0.000431,0.002586
5235000,0.0324,0.013523,0.002678,0.000431,0.002468
5236000,0.0324,0.013523,0.002678,0.000431,0.002703
5237000,0.0324,0.013523,0.002678,0.000431,0.002351
5238000,0.0324,0.013523,0.002678,0.000431,0.002703
5239000,0.0324,0.013523,0.002678,0.000431,0.002821
5240000,0.0324,0.013523,0.002678,0.000431,0.002703
5241000,0.0324,0.013523,0.002678,0.000431,0.002351
5242000,0.0324,0.013523,0.002678,0.000431,0.002703
5243000,0.0324,0.013523,0.002678,0.000431,0.002468
5244000,0.0324,0.013523,0.002678,0.000431,0.002233
5245000,0.0324,0.013523,0.002678,0.000431,0.002468
5246000,0.0324,0.013523,0.002678,0.000431,0.002821
5247000,0.0324,0.013523,0.002678,0.000431,0.002351
5248000,0.0324,0.013523,0.002678,0.000431,0.002703
5249000,0.0324,0.013523,0.002678,0.000431,0.002703
5250000,0.0324,0.013523,0.002678,0.000431,0.002586
5251000,0.0324,0.013523,0.002678,0.000431,0.002233
5252000,0.0324,0.013523,0.002678,0.000431,0.002703
5253000,0.0324,0.013523,0.002678,0.000431,0.002586
5254000,0.0324,0.013523,0.002678,0.000431,0.002468
5255000,0.0324,0.013523,0.002678,0.000431,0.002703
5256000,0.0324,0.013523,0.002678,0.000431,0.002351
5257000,0.0324,0.013523,0.002678,0.000431,0.002703
5258000,0.0324,0.013523,0.002678,0.000431,0.002468
5259000,0.0324,0.013523,0.002678,0.000431,0.002821
5260000,0.0324,0.013523,0.002678,0.000431,0.002116
5261000,0.0324,0.013523,0.002678,0.000431,0.001763
5262000,0.0324,0.013523,0.002678,0.000431,0.001998
5263000,0.0324,0.013523,0.002678,0.000431,0.001998
5264000,0.0324,0.013523,0.002678,0.000431,0.001998
5265000,0.0324,0.013523,0.002678,0.000431,0.001998
5266000,0.0324,0.013523,0.002678,0.000431,0.001880
5267000,0.0324,0.013523,0.002678,0.000431,0.001763
5268000,0.0324,0.013523,0.002678,0.000431,0.001998
5269000,0.0324,0.013523,0.002678,0.000431,0.001998
5270000,0.0324,0.013523,0.002678,0.000431,0.001998
5271000,0.0324,0.013523,0.002678,0.000431,0.001880
5272000,0.0324,0.013523,0.002678,0.000431,0.001880
5273000,0.0324,0.013523,0.002678,0.000431,0.001998
5274000,0.0324,0.013523,0.002678,0.000431,0.001645
5275000,0.0324,0.013523,0.002678,0.000431,0.001645
5276000,0.0324,0.013523,0.002678,0.000431,0.001880
5277000,0.0324,0.013523,0.002678,0.000431,0.001998
5278000,0.0324,0.013523,0.002678,0.000431,0.001880
5279000,0.0324,0.013523,0.002678,0.000431,0.001998
5280000,0.0324,0.013523,0.002678,0.000431,0.001998
5281000,0.0324,0.013523,0.002678,0.000431,0.001998
5282000,0.0324,0.013523,0.002678,0.000431,0.001880
5283000,0.0324,0.013523,0.002678,0.000431,0.001880
5284000,0.0324,0.013523,0.002678,0.000431,0.001998
5285000,0.0324,0.013523,0.002678,0.000431,0.001880
5286000,0.0324,0.013523,0.002678,0.000431,0.001880
5287000,0.0324,0.013523,0.002678,0.000431,0.002233
5288000,0.0324,0.013523,0.002678,0.000431,0.002233
5289000,0.0324,0.013523,0.002678,0.000431,0.001763
5290000,0.0324,0.013523,0.002678,0.000431,0.001880
5291000,0.0324,0.013523,0.002678,0.000431,0.001880
5292000,0.0324,0.013523,0.002678,0.000431,0.002116
5293000,0.0324,0.013523,0.002678,0.000431,0.001763
5294000,0.0324,0.013523,0.002678,0.000431,0.001998
5295000,0.0324,0.013523,0.002678,0.000431,0.001763
5296000,0.0324,0.013523,0.002678,0.000431,0.001998
5297000,0.0324,0.013523,0.002678,0.000431,0.001998
5298000,0.0324,0.013523,0.002678,0.000431,0.001763
5299000,0.0324,0.013523,0.002678,0.000431,0.001880
5300000,0.0324,0.013523,0.002678,0.000431,0.001998
5301000,0.0324,0.013523,0.002678,0.000431,0.001763
5302000,0.0324,0.013523,0.002678,0.000431,0.001998
5303000,0.0324,0.013523,0.002678,0.000431,0.001880
5304000,0.0324,0.013523,0.002678,0.000431,0.001645
5305000,0.0324,0.013523,0.002678,0.000431,0.001763
5306000,0.0324,0.013523,0.002678,0.000431,0.001998
5307000,0.0324,0.013523,0.002678,0.000431,0.001880
5308000,0.0324,0.013523,0.002678,0.000431,0.001998
5309000,0.0324,0.013523,0.002678,0.000431,0.001880
5310000,0.0324,0.013523,0.002678,0.000431,0.002233
5311000,0.0324,0.013523,0.002678,0.000431,0.001998
5312000,0.0324,0.013523,0.002678,0.000431,0.001998
5313000,0.0324,0.013523,0.002678,0.000431,0.001880
5314000,0.0324,0.013523,0.002678,0.000431,0.001998
5315000,0.0324,0.013523,0.002678,0.000431,0.001998
5316000,0.0324,0.013523,0.002678,0.000431,0.001880
5317000,0.0324,0.013523,0.002678,0.000431,0.001763
5318000,0.0324,0.013523,0.002678,0.000431,0.002116
5319000,0.0324,0.013523,0.002678,0.000431,0.001645
5320000,0.0324,0.013523,0.002678,0.000431,0.001998
5321000,0.0324,0.013523,0.002678,0.000431,0.001880
5322000,0.0324,0.013523,0.002678,0.000431,0.001763
5323000,0.0324,0.013523,0.002678,0.000431,0.001763
5324000,0.0324,0.013523,0.002678,0.000431,0.001998
5325000,0.0324,0.013523,0.002678,0.000431,0.001763
5326000,0.0324,0.013523,0.002678,0.000431,0.002116
5327000,0.0324,0.013523,0.002678,0.000431,0.002116
5328000,0.0324,0.013523,0.002678,0.000431,0.001998
5329000,0.0324,0.013523,0.002678,0.000431,0.001880
5330000,0.0324,0.013523,0.002678,0.000431,0.002116
5331000,0.0324,0.013523,0.002678,0.000431,0.001880
5332000,0.0324,0.013523,0.002678,0.000431,0.001998
5333000,0.0324,0.013523,0.002678,0.000431,0.001998
5334000,0.0324,0.013523,0.002678,0.000431,0.001763
5335000,0.0324,0.013523,0.002678,0.000431,0.002233
5336000,0.0324,0.013523,0.002678,0.000431,0.001880
5337000,0.0324,0.013523,0.002678,0.000431,0.001880
5338000,0.0324,0.013523,0.002678,0.000431,0.001763
5339000,0.0324,0.013523,0.002678,0.000431,0.001880
5340000,0.0324,0.013523,0.002678,0.000431,0.001880
5341000,0.0324,0.013523,0.002678,0.000431,0.001880
5342000,0.0324,0.013523,0.002678,0.000431,0.001880
5343000,0.0324,0.013523,0.002678,0.000431,0.001998
5344000,0.0324,0.013523,0.002678,0.000431,0.001880
5345000,0.0324,0.013523,0.002678,0.000431,0.001880
5346000,0.0324,0.013523,0.002678,0.000431,0.001998
5347000,0.0324,0.013523,0.002678,0.000431,0.001998
5348000,0.0324,0.013523,0.002678,0.000431,0.001880
5349000,0.0324,0.013523,0.002678,0.000431,0.001998
5350000,0.0324,0.013523,0.002678,0.000431,0.002116
5351000,0.0324,0.013523,0.002678,0.000431,0.001880
5352000,0.0324,0.013523,0.002678,0.000431,0.001763
5353000,0.0324,0.013523,0.002678,0.000431,0.001763
5354000,0.0324,0.013523,0.002678,0.000431,0.001880
5355000,0.0324,0.013523,0.002678,0.000431,0.001880
5356000,0.0324,0.013523,0.002678,0.000431,0.001763
5357000,0.0324,0.013523,0.002678,0.000431,0.001998
5358000,0.0324,0.013523,0.002678,0.000431,0.002116
5359000,0.0324,0.013523,0.002678,0.000431,0.001763
5360000,0.0324,0.013523,0.002678,0.000431,0.001880
5361000,0.0324,0.013523,0.002678,0.000431,0.001880
5362000,0.0324,0.013523,0.002678,0.000431,0.002116
5363000,0.0324,0.013523,0.002678,0.000431,0.001880
5364000,0.0324,0.013523,0.002678,0.000431,0.001998
5365000,0.0324,0.013523,0.002678,0.000431,0.001998
5366000,0.0324,0.013523,0.002678,0.000431,0.001998
5367000,0.0324,0.013523,0.002678,0.000431,0.001998
5368000,0.0324,0.013523,0.002678,0.000431,0.001763
5369000,0.0324,0.013523,0.002678,0.000431,0.001763
5370000,0.0324,0.013523,0.002678,0.000431,0.001998
5371000,0.0324,0.013523,0.002678,0.000431,0.001880
5372000,0.0324,0.013523,0.002678,0.000431,0.001998
5373000,0.0324,0.013523,0.002678,0.000431,0.001880
5374000,0.0324,0.013523,0.002678,0.000431,0.001998
5375000,0.0324,0.013523,0.002678,0.000431,0.001880
5376000,0.0324,0.013523,0.002678,0.000431,0.002116
5377000,0.0324,0.013523,0.002678,0.000431,0.001645
5378000,0.0324,0.013523,0.002678,0.000431,0.002116
5379000,0.0324,0.013523,0.002678,0.000431,0.001645
5380000,0.0324,0.013523,0.002678,0.000431,0.001998
5381000,0.0324,0.013523,0.002678,0.000431,0.002116
5382000,0.0324,0.013523,0.002678,0.000431,0.001763
5383000,0.0324,0.013523,0.002678,0.000431,0.002116
5384000,0.0324,0.013523,0.002678,0.000431,0.001880
5385000,0.0324,0.013523,0.002678,0.000431,0.001998
5386000,0.0324,0.013523,0.002678,0.000431,0.001763
5387000,0.0324,0.013523,0.002678,0.000431,0.002116
5388000,0.0324,0.013523,0.002678,0.000431,0.001880
5389000,0.0324,0.013523,0.002678,0.000431,0.001880
5390000,0.0324,0.013523,0.002678,0.000431,0.002116
5391000,0.0324,0.013523,0.002678,0.000431,0.001880
5392000,0.0324,0.013523,0.002678,0.000431,0.001645
5393000,0.0324,0.013523,0.002678,0.000431,0.001998
5394000,0.0324,0.013523,0.002678,0.000431,0.001880
5395000,0.0324,0.013523,0.002678,0.000431,0.002116
5396000,0.0324,0.013523,0.002678,0.000431,0.001998
5397000,0.0324,0.013523,0.002678,0.000431,0.001880
5398000,0.0324,0.013523,0.002678,0.000431,0.001880
5399000,0.0324,0.013523,0.002678,0.000431,0.001763
5400000,0.0324,0.013523,0.002678,0.000431,0.001998
5401000,0.0324,0.013523,0.002678,0.000431,0.001998
5402000,0.0324,0.013523,0.002678,0.000431,0.001763
5403000,0.0324,0.013523,0.002678,0.000431,0.001528
5404000,0.0324,0.013523,0.002678,0.000431,0.002351
5405000,0.0324,0.013523,0.002678,0.000431,0.001880
5406000,0.0324,0.013523,0.002678,0.000431,0.001880
5407000,0.0324,0.013523,0.002678,0.000431,0.002116
5408000,0.0324,0.013523,0.002678,0.000431,0.001880
5409000,0.0324,0.013523,0.002678,0.000431,0.001880
5410000,0.0324,0.013523,0.002678,0.000431,0.001998
5411000,0.0324,0.013523,0.002678,0.000431,0.001528
5412000,0.0324,0.013523,0.002678,0.000431,0.002233
5413000,0.0324,0.013523,0.002678,0.000431,0.001998
5414000,0.0324,0.013523,0.002678,0.000431,0.001998
5415000,0.0324,0.013523,0.002678,0.000431,0.001528
5416000,0.0324,0.013523,0.002678,0.000431,0.001528
5417000,0.0324,0.013523,0.002678,0.000431,0.001528
5418000,0.0324,0.013523,0.002678,0.000431,0.001293
5419000,0.0324,0.013523,0.002678,0.000431,0.001293
5420000,0.0324,0.013523,0.002678,0.000431,0.001410
5421000,0.0324,0.013523,0.002678,0.000431,0.001410
5422000,0.0324,0.013523,0.002678,0.000431,0.001175
5423000,0.0324,0.013523,0.002678,0.000431,0.001528
5424000,0.0324,0.013523,0.002678,0.000431,0.001528
5425000,0.0324,0.013523,0.002678,0.000431,0.001293
5426000,0.0324,0.013523,0.002678,0.000431,0.001410
5427000,0.0324,0.013523,0.002678,0.000431,0.001410
5428000,0.0324,0.013523,0.002678,0.000431,0.001293
5429000,0.0324,0.013523,0.002678,0.000431,0.001410
5430000,0.0324,0.013523,0.002678,0.000431,0.001410
5431000,0.0324,0.013523,0.002678,0.000431,0.001293
5432000,0.0324,0.013523,0.002678,0.000431,0.001175
5433000,0.0324,0.013523,0.002678,0.000431,0.001175
5434000,0.0324,0.013523,0.002678,0.000431,0.001293
5435000,0.0324,0.013523,0.002678,0.000431,0.001175
5436000,0.0324,0.013523,0.002678,0.000431,0.001410
5437000,0.0324,0.013523,0.002678,0.000431,0.000705
5438000,0.0324,0.013523,0.002678,0.000431,0.000823
5439000,0.0324,0.013523,0.002678,0.000431,0.000470
5440000,0.0324,0.013523,0.002678,0.000431,0.000705
5441000,0.0324,0.013523,0.002678,0.000431,0.000705
5442000,0.0324,0.013523,0.002678,0.000431,0.000705
5443000,0.0324,0.013523,0.002678,0.000431,0.000705
5444000,0.0324,0.013523,0.002678,0.000431,0.000705
5445000,0.0324,0.013523,0.002678,0.000431,0.000588
5446000,0.0324,0.013523,0.002678,0.000431,0.000823
5447000,0.0324,0.013523,0.002678,0.000431,0.000705
5448000,0.0324,0.013523,0.002678,0.000431,0.000705
5449000,0.0324,0.013523,0.002678,0.000431,0.000823
5450000,0.0324,0.013523,0.002678,0.000431,0.000588
5451000,0.0324,0.013523,0.002678,0.000431,0.000705
5452000,0.0324,0.013523,0.002678,0.000431,0.000588
5453000,0.0324,0.013523,0.002678,0.000431,0.000588
5454000,0.0324,0.013523,0.002678,0.000431,0.000823
5455000,0.0324,0.013523,0.002678,0.000431,0.000705
5456000,0.0324,0.013523,0.002678,0.000431,0.000705
5457000,0.0324,0.013523,0.002678,0.000431,0.000705
5458000,0.0324,0.013523,0.002678,0.000431,0.000823
5459000,0.0324,0.013523,0.002678,0.000431,0.000705
5460000,0.0324,0.013523,0.002678,0.000431,0.000705
5461000,0.0324,0.013523,0.002678,0.000431,0.000705
5462000,0.0324,0.013523,0.002678,0.000431,0.000705
5463000,0.0324,0.013523,0.002678,0.000431,0.000705
5464000,0.0324,0.013523,0.002678,0.000431,0.000588
5465000,0.0324,0.013523,0.002678,0.000431,0.000588
5466000,0.0324,0.013523,0.002678,0.000431,0.000705
5467000,0.0324,0.013523,0.002678,0.000431,0.000705
5468000,0.0324,0.013523,0.002678,0.000431,0.000705
5469000,0.0324,0.013523,0.002678,0.000431,0.000705
5470000,0.0324,0.013523,0.002678,0.000431,0.000705
5471000,0.0324,0.013523,0.002678,0.000431,0.000588
5472000,0.0324,0.013523,0.002678,0.000431,0.000705
5473000,0.0324,0.013523,0.002678,0.000431,0.000705
5474000,0.0324,0.013523,0.002678,0.000431,0.000823
5475000,0.0324,0.013523,0.002678,0.000431,0.000588
5476000,0.0324,0.013523,0.002678,0.000431,0.000705
5477000,0.0324,0.013523,0.002678,0.000431,0.000823
5478000,0.0324,0.013523,0.002678,0.000431,0.000705
5479000,0.0324,0.013523,0.002678,0.000431,0.000705
5480000,0.0324,0.013523,0.002678,0.000431,0.000588
5481000,0.0324,0.013523,0.002678,0.000431,0.000823
5482000,0.0324,0.013523,0.002678,0.000431,0.000588
5483000,0.0324,0.013523,0.002678,0.000431,0.000588
5484000,0.0324,0.013523,0.002678,0.000431,0.000705
5485000,0.0324,0.013523,0.002678,0.000431,0.000588
5486000,0.0324,0.013523,0.002678,0.000431,0.000823
5487000,0.0324,0.013523,0.002678,0.000431,0.000588
5488000,0.0324,0.013523,0.002678,0.000431,0.000705
5489000,0.0324,0.013523,0.002678,0.000431,0.000823
5490000,0.0324,0.013523,0.002678,0.000431,0.000588
5491000,0.0324,0.013523,0.002678,0.000431,0.000823
5492000,0.0324,0.013523,0.002678,0.000431,0.000588
5493000,0.0324,0.013523,0.002678,0.000431,0.000588
5494000,0.0324,0.013523,0.002678,0.000431,0.000705
5495000,0.0324,0.013523,0.002678,0.000431,0.000705
5496000,0.0324,0.013523,0.002678,0.000431,0.000705
5497000,0.0324,0.013523,0.002678,0.000431,0.000705
5498000,0.0324,0.013523,0.002678,0.000431,0.000705
5499000,0.0324,0.013523,0.002678,0.000431,0.000705
5500000,0.0324,0.013523,0.002678,0.000431,0.000705
5501000,0.0324,0.013523,0.002678,0.000431,0.000705
5502000,0.0324,0.013523,0.002678,0.000431,0.000705
5503000,0.0324,0.013523,0.002678,0.000431,0.000705
5504000,0.0324,0.013523,0.002678,0.000431,0.000705
5505000,0.0324,0.013523,0.002678,0.000431,0.000588
5506000,0.0324,0.013523,0.002678,0.000431,0.000588
5507000,0.0324,0.013523,0.002678,0.000431,0.000705
5508000,0.0324,0.013523,0.002678,0.000431,0.000823
5509000,0.0324,0.013523,0.002678,0.000431,0.000705
5510000,0.0324,0.013523,0.002678,0.000431,0.000823
5511000,0.0324,0.013523,0.002678,0.000431,0.000588
5512000,0.0324,0.013523,0.002678,0.000431,0.000823
5513000,0.0324,0.013523,0.002678,0.000431,0.000588
5514000,0.0324,0.013523,0.002678,0.000431,0.000705
5515000,0.0324,0.013523,0.002678,0.000431,0.000705
5516000,0.0324,0.013523,0.002678,0.000431,0.000823
5517000,0.0324,0.013523,0.002678,0.000431,0.000705
5518000,0.0324,0.013523,0.002678,0.000431,0.000705
5519000,0.0324,0.013523,0.002678,0.000431,0.000705
5520000,0.0324,0.013523,0.002678,0.000431,0.000705
5521000,0.0324,0.013523,0.002678,0.000431,0.000705
5522000,0.0324,0.013523,0.002678,0.000431,0.000823
5523000,0.0324,0.013523,0.002678,0.000431,0.000588
5524000,0.0324,0.013523,0.002678,0.000431,0.000705
5525000,0.0324,0.013523,0.002678,0.000431,0.000705
5526000,0.0324,0.013523,0.002678,0.000431,0.000705
5527000,0.0324,0.013523,0.002678,0.000431,0.000705
5528000,0.0324,0.013523,0.002678,0.000431,0.000705
5529000,0.0324,0.013523,0.002678,0.000431,0.000705
5530000,0.0324,0.013523,0.002678,0.000431,0.000823
5531000,0.0324,0.013523,0.002678,0.000431,0.000705
5532000,0.0324,0.013523,0.002678,0.000431,0.000588
5533000,0.0324,0.013523,0.002678,0.000431,0.000705
5534000,0.0324,0.013523,0.002678,0.000431,0.000588
5535000,0.0324,0.013523,0.002678,0.000431,0.000705
5536000,0.0324,0.013523,0.002678,0.000431,0.000705
5537000,0.0324,0.013523,0.002678,0.000431,0.000823
5538000,0.0324,0.013523,0.002678,0.000431,0.000588
5539000,0.0324,0.013523,0.002678,0.000431,0.000823
5540000,0.0324,0.013523,0.002678,0.000431,0.000705
5541000,0.0324,0.013523,0.002678,0.000431,0.000588
5542000,0.0324,0.013523,0.002678,0.000431,0.000705
5543000,0.0324,0.013523,0.002678,0.000431,0.000588
5544000,0.0324,0.013523,0.002678,0.000431,0.000823
5545000,0.0324,0.013523,0.002678,0.000431,0.000823
5546000,0.0324,0.013523,0.002678,0.000431,0.000588
5547000,0.0324,0.013523,0.002678,0.000431,0.000823
5548000,0.0324,0.013523,0.002678,0.000431,0.000705
5549000,0.0324,0.013523,0.002678,0.000431,0.000705
5550000,0.0324,0.013523,0.002678,0.000431,0.000705
5551000,0.0324,0.013523,0.002678,0.000431,0.000705
5552000,0.0324,0.013523,0.002678,0.000431,0.000705
5553000,0.0324,0.013523,0.002678,0.000431,0.000705
5554000,0.0324,0.013523,0.002678,0.000431,0.000705
5555000,0.0324,0.013523,0.002678,0.000431,0.000705
5556000,0.0324,0.013523,0.002678,0.000431,0.000705
5557000,0.0324,0.013523,0.002678,0.000431,0.000705
