Cycle,Area(mm^2),PeakDynamic(W),SubthresholdLeakage(W),GateLeakage(W),RunTimeDynamic(W)
1000000,0.0324,0.013523,0.002678,0.000431,0.777684
1001000,0.0324,0.013523,0.002678,0.000431,0.762288
1002000,0.0324,0.013523,0.002678,0.000431,0.682604
1003000,0.0324,0.013523,0.002678,0.000431,0.665327
1004000,0.0324,0.013523,0.002678,0.000431,0.741955
1005000,0.0324,0.013523,0.002678,0.000431,0.865125
1006000,0.0324,0.013523,0.002678,0.000431,0.840562
1007000,0.0324,0.013523,0.002678,0.000431,0.875820
1008000,0.0324,0.013523,0.002678,0.000431,1.063983
1009000,0.0324,0.013523,0.002678,0.000431,1.156595
1010000,0.0324,0.013523,0.002678,0.000431,1.082435
1011000,0.0324,0.013523,0.002678,0.000431,1.140141
1012000,0.0324,0.013523,0.002678,0.000431,1.252498
1013000,0.0324,0.013523,0.002678,0.000431,1.138966
1014000,0.0324,0.013523,0.002678,0.000431,1.243213
1015000,0.0324,0.013523,0.002678,0.000431,1.193029
1016000,0.0324,0.013523,0.002678,0.000431,1.065040
1017000,0.0324,0.013523,0.002678,0.000431,1.138496
1018000,0.0324,0.013523,0.002678,0.000431,1.017794
1019000,0.0324,0.013523,0.002678,0.000431,0.906260
1020000,0.0324,0.013523,0.002678,0.000431,0.931998
1021000,0.0324,0.013523,0.002678,0.000431,0.879346
1022000,0.0324,0.013523,0.002678,0.000431,0.736667
1023000,0.0324,0.013523,0.002678,0.000431,0.686012
1024000,0.0324,0.013523,0.002678,0.000431,0.665327
1025000,0.0324,0.013523,0.002678,0.000431,0.672496
1026000,0.0324,0.013523,0.002678,0.000431,0.662976
1027000,0.0324,0.013523,0.002678,0.000431,0.688363
1028000,0.0324,0.013523,0.002678,0.000431,0.654044
1029000,0.0324,0.013523,0.002678,0.000431,0.610676
1030000,0.0324,0.013523,0.002678,0.000431,0.753943
1031000,0.0324,0.013523,0.002678,0.000431,1.006629
1032000,0.0324,0.013523,0.002678,0.000431,0.931763
1033000,0.0324,0.013523,0.002678,0.000431,0.844440
1034000,0.0324,0.013523,0.002678,0.000431,0.879463
1035000,0.0324,0.013523,0.002678,0.000431,0.894742
1036000,0.0324,0.013523,0.002678,0.000431,0.963731
1037000,0.0324,0.013523,0.002678,0.000431,0.953976
1038000,0.0324,0.013523,0.002678,0.000431,0.840797
1039000,0.0324,0.013523,0.002678,0.000431,0.783090
1040000,0.0324,0.013523,0.002678,0.000431,0.815058
1041000,0.0324,0.013523,0.002678,0.000431,0.818584
1042000,0.0324,0.013523,0.002678,0.000431,0.722093
1043000,0.0324,0.013523,0.002678,0.000431,0.777214
1044000,0.0324,0.013523,0.002678,0.000431,0.719155
1045000,0.0324,0.013523,0.002678,0.000431,0.671321
1046000,0.0324,0.013523,0.002678,0.000431,0.741720
1047000,0.0324,0.013523,0.002678,0.000431,0.705992
1048000,0.0324,0.013523,0.002678,0.000431,0.637473
1049000,0.0324,0.013523,0.002678,0.000431,0.710575
1050000,0.0324,0.013523,0.002678,0.000431,0.717745
1051000,0.0324,0.013523,0.002678,0.000431,0.605505
1052000,0.0324,0.013523,0.002678,0.000431,0.602685
1053000,0.0324,0.013523,0.002678,0.000431,0.633359
1054000,0.0324,0.013523,0.002678,0.000431,0.619844
1055000,0.0324,0.013523,0.002678,0.000431,0.521943
1056000,0.0324,0.013523,0.002678,0.000431,0.532990
1057000,0.0324,0.013523,0.002678,0.000431,0.645465
1058000,0.0324,0.013523,0.002678,0.000431,0.773453
1059000,0.0324,0.013523,0.002678,0.000431,0.704699
1060000,0.0324,0.013523,0.002678,0.000431,0.633124
1061000,0.0324,0.013523,0.002678,0.000431,0.615143
1062000,0.0324,0.013523,0.002678,0.000431,0.652399
1063000,0.0324,0.013523,0.002678,0.000431,0.670028
1064000,0.0324,0.013523,0.002678,0.000431,0.563078
1065000,0.0324,0.013523,0.002678,0.000431,0.567073
1066000,0.0324,0.013523,0.002678,0.000431,0.618668
1067000,0.0324,0.013523,0.002678,0.000431,0.523235
1068000,0.0324,0.013523,0.002678,0.000431,0.532285
1069000,0.0324,0.013523,0.002678,0.000431,0.557319
1070000,0.0324,0.013523,0.002678,0.000431,0.585290
1071000,0.0324,0.013523,0.002678,0.000431,0.675670
1072000,0.0324,0.013523,0.002678,0.000431,0.545331
1073000,0.0324,0.013523,0.002678,0.000431,0.512188
1074000,0.0324,0.013523,0.002678,0.000431,0.534988
1075000,0.0324,0.013523,0.002678,0.000431,0.558729
1076000,0.0324,0.013523,0.002678,0.000431,0.506782
1077000,0.0324,0.013523,0.002678,0.000431,0.550384
1078000,0.0324,0.013523,0.002678,0.000431,0.503373
1079000,0.0324,0.013523,0.002678,0.000431,0.478575
1080000,0.0324,0.013523,0.002678,0.000431,0.477047
1081000,0.0324,0.013523,0.002678,0.000431,0.523941
1082000,0.0324,0.013523,0.002678,0.000431,0.631949
1083000,0.0324,0.013523,0.002678,0.000431,0.601157
1084000,0.0324,0.013523,0.002678,0.000431,0.544861
1085000,0.0324,0.013523,0.002678,0.000431,0.571540
1086000,0.0324,0.013523,0.002678,0.000431,0.558259
1087000,0.0324,0.013523,0.002678,0.000431,0.562137
1088000,0.0324,0.013523,0.002678,0.000431,0.556143
1089000,0.0324,0.013523,0.002678,0.000431,0.596220
1090000,0.0324,0.013523,0.002678,0.000431,0.554851
1091000,0.0324,0.013523,0.002678,0.000431,0.599629
1092000,0.0324,0.013523,0.002678,0.000431,0.671791
1093000,0.0324,0.013523,0.002678,0.000431,0.620901
1094000,0.0324,0.013523,0.002678,0.000431,0.687187
1095000,0.0324,0.013523,0.002678,0.000431,0.665092
1096000,0.0324,0.013523,0.002678,0.000431,0.607386
1097000,0.0324,0.013523,0.002678,0.000431,0.683896
1098000,0.0324,0.013523,0.002678,0.000431,0.674964
1099000,0.0324,0.013523,0.002678,0.000431,0.601627
1100000,0.0324,0.013523,0.002678,0.000431,0.664034
1101000,0.0324,0.013523,0.002678,0.000431,0.812120
1102000,0.0324,0.013523,0.002678,0.000431,0.848436
1103000,0.0324,0.013523,0.002678,0.000431,0.854195
1104000,0.0324,0.013523,0.002678,0.000431,0.894625
1105000,0.0324,0.013523,0.002678,0.000431,0.992290
1106000,0.0324,0.013523,0.002678,0.000431,0.894977
1107000,0.0324,0.013523,0.002678,0.000431,0.981948
1108000,0.0324,0.013523,0.002678,0.000431,1.009567
1109000,0.0324,0.013523,0.002678,0.000431,0.934232
1110000,0.0324,0.013523,0.002678,0.000431,0.897445
1111000,0.0324,0.013523,0.002678,0.000431,0.779094
1112000,0.0324,0.013523,0.002678,0.000431,0.712691
1113000,0.0324,0.013523,0.002678,0.000431,0.663564
1114000,0.0324,0.013523,0.002678,0.000431,0.711633
1115000,0.0324,0.013523,0.002678,0.000431,0.689420
1116000,0.0324,0.013523,0.002678,0.000431,0.660861
1117000,0.0324,0.013523,0.002678,0.000431,0.738782
1118000,0.0324,0.013523,0.002678,0.000431,0.713984
1119000,0.0324,0.013523,0.002678,0.000431,0.743366
1120000,0.0324,0.013523,0.002678,0.000431,0.756176
1121000,0.0324,0.013523,0.002678,0.000431,0.726794
1122000,0.0324,0.013523,0.002678,0.000431,0.671203
1123000,0.0324,0.013523,0.002678,0.000431,0.693064
1124000,0.0324,0.013523,0.002678,0.000431,0.694239
1125000,0.0324,0.013523,0.002678,0.000431,0.628306
1126000,0.0324,0.013523,0.002678,0.000431,0.632302
1127000,0.0324,0.013523,0.002678,0.000431,0.634417
1128000,0.0324,0.013523,0.002678,0.000431,0.534988
1129000,0.0324,0.013523,0.002678,0.000431,0.515831
1130000,0.0324,0.013523,0.002678,0.000431,0.554028
1131000,0.0324,0.013523,0.002678,0.000431,0.613497
1132000,0.0324,0.013523,0.002678,0.000431,0.487507
1133000,0.0324,0.013523,0.002678,0.000431,0.514773
1134000,0.0324,0.013523,0.002678,0.000431,0.612439
1135000,0.0324,0.013523,0.002678,0.000431,0.600922
1136000,0.0324,0.013523,0.002678,0.000431,0.701878
1137000,0.0324,0.013523,0.002678,0.000431,0.687892
1138000,0.0324,0.013523,0.002678,0.000431,0.551442
1139000,0.0324,0.013523,0.002678,0.000431,0.631479
1140000,0.0324,0.013523,0.002678,0.000431,0.768047
1141000,0.0324,0.013523,0.002678,0.000431,0.805891
1142000,0.0324,0.013523,0.002678,0.000431,0.766166
1143000,0.0324,0.013523,0.002678,0.000431,0.846438
1144000,0.0324,0.013523,0.002678,0.000431,0.892039
1145000,0.0324,0.013523,0.002678,0.000431,0.933056
1146000,0.0324,0.013523,0.002678,0.000431,0.891451
1147000,0.0324,0.013523,0.002678,0.000431,0.799074
1148000,0.0324,0.013523,0.002678,0.000431,0.846085
1149000,0.0324,0.013523,0.002678,0.000431,0.886750
1150000,0.0324,0.013523,0.002678,0.000431,0.857603
1151000,0.0324,0.013523,0.002678,0.000431,0.837271
1152000,0.0324,0.013523,0.002678,0.000431,0.871001
1153000,0.0324,0.013523,0.002678,0.000431,0.828221
1154000,0.0324,0.013523,0.002678,0.000431,0.823873
1155000,0.0324,0.013523,0.002678,0.000431,0.827516
1156000,0.0324,0.013523,0.002678,0.000431,0.748184
1157000,0.0324,0.013523,0.002678,0.000431,0.725149
1158000,0.0324,0.013523,0.002678,0.000431,0.654750
1159000,0.0324,0.013523,0.002678,0.000431,0.566486
1160000,0.0324,0.013523,0.002678,0.000431,0.530170
1161000,0.0324,0.013523,0.002678,0.000431,0.515714
1162000,0.0324,0.013523,0.002678,0.000431,0.519004
1163000,0.0324,0.013523,0.002678,0.000431,0.531345
1164000,0.0324,0.013523,0.002678,0.000431,0.611264
1165000,0.0324,0.013523,0.002678,0.000431,0.580589
1166000,0.0324,0.013523,0.002678,0.000431,0.521473
1167000,0.0324,0.013523,0.002678,0.000431,0.563900
1168000,0.0324,0.013523,0.002678,0.000431,0.546389
1169000,0.0324,0.013523,0.002678,0.000431,0.571422
1170000,0.0324,0.013523,0.002678,0.000431,0.593282
1171000,0.0324,0.013523,0.002678,0.000431,0.535693
1172000,0.0324,0.013523,0.002678,0.000431,0.633242
1173000,0.0324,0.013523,0.002678,0.000431,0.753238
1174000,0.0324,0.013523,0.002678,0.000431,0.694121
1175000,0.0324,0.013523,0.002678,0.000431,0.691066
1176000,0.0324,0.013523,0.002678,0.000431,0.738077
1177000,0.0324,0.013523,0.002678,0.000431,0.753356
1178000,0.0324,0.013523,0.002678,0.000431,0.885810
1179000,0.0324,0.013523,0.002678,0.000431,0.787204
1180000,0.0324,0.013523,0.002678,0.000431,0.748067
1181000,0.0324,0.013523,0.002678,0.000431,0.827163
1182000,0.0324,0.013523,0.002678,0.000431,0.859131
1183000,0.0324,0.013523,0.002678,0.000431,0.853607
1184000,0.0324,0.013523,0.002678,0.000431,0.803188
1185000,0.0324,0.013523,0.002678,0.000431,0.912019
1186000,0.0324,0.013523,0.002678,0.000431,0.990880
1187000,0.0324,0.013523,0.002678,0.000431,0.911431
1188000,0.0324,0.013523,0.002678,0.000431,0.861247
1189000,0.0324,0.013523,0.002678,0.000431,0.939755
1190000,0.0324,0.013523,0.002678,0.000431,0.879346
1191000,0.0324,0.013523,0.002678,0.000431,0.956797
1192000,0.0324,0.013523,0.002678,0.000431,1.067391
1193000,0.0324,0.013523,0.002678,0.000431,0.924829
1194000,0.0324,0.013523,0.002678,0.000431,0.802365
1195000,0.0324,0.013523,0.002678,0.000431,0.837036
1196000,0.0324,0.013523,0.002678,0.000431,0.906847
1197000,0.0324,0.013523,0.002678,0.000431,0.836801
1198000,0.0324,0.013523,0.002678,0.000431,0.779329
1199000,0.0324,0.013523,0.002678,0.000431,0.826458
1200000,0.0324,0.013523,0.002678,0.000431,0.739722
1201000,0.0324,0.013523,0.002678,0.000431,0.735726
1202000,0.0324,0.013523,0.002678,0.000431,0.659451
1203000,0.0324,0.013523,0.002678,0.000431,0.638531
1204000,0.0324,0.013523,0.002678,0.000431,0.808829
1205000,0.0324,0.013523,0.002678,0.000431,0.761583
1206000,0.0324,0.013523,0.002678,0.000431,0.749947
1207000,0.0324,0.013523,0.002678,0.000431,0.847496
1208000,0.0324,0.013523,0.002678,0.000431,0.883812
1209000,0.0324,0.013523,0.002678,0.000431,0.793198
1210000,0.0324,0.013523,0.002678,0.000431,0.904849
1211000,0.0324,0.013523,0.002678,0.000431,0.880756
1212000,0.0324,0.013523,0.002678,0.000431,0.886280
1213000,0.0324,0.013523,0.002678,0.000431,0.839386
1214000,0.0324,0.013523,0.002678,0.000431,0.937757
1215000,0.0324,0.013523,0.002678,0.000431,1.033660
1216000,0.0324,0.013523,0.002678,0.000431,0.913899
1217000,0.0324,0.013523,0.002678,0.000431,0.812942
1218000,0.0324,0.013523,0.002678,0.000431,0.765226
1219000,0.0324,0.013523,0.002678,0.000431,0.765461
1220000,0.0324,0.013523,0.002678,0.000431,0.802953
1221000,0.0324,0.013523,0.002678,0.000431,0.793433
1222000,0.0324,0.013523,0.002678,0.000431,0.805303
1223000,0.0324,0.013523,0.002678,0.000431,0.793550
1224000,0.0324,0.013523,0.002678,0.000431,0.717392
1225000,0.0324,0.013523,0.002678,0.000431,0.693299
1226000,0.0324,0.013523,0.002678,0.000431,0.704817
1227000,0.0324,0.013523,0.002678,0.000431,0.750417
1228000,0.0324,0.013523,0.002678,0.000431,0.647228
1229000,0.0324,0.013523,0.002678,0.000431,0.612674
1230000,0.0324,0.013523,0.002678,0.000431,0.666267
1231000,0.0324,0.013523,0.002678,0.000431,0.752415
1232000,0.0324,0.013523,0.002678,0.000431,0.811062
1233000,0.0324,0.013523,0.002678,0.000431,0.748772
1234000,0.0324,0.013523,0.002678,0.000431,0.783208
1235000,0.0324,0.013523,0.002678,0.000431,0.940813
1236000,0.0324,0.013523,0.002678,0.000431,0.996286
1237000,0.0324,0.013523,0.002678,0.000431,0.933996
1238000,0.0324,0.013523,0.002678,0.000431,0.830219
1239000,0.0324,0.013523,0.002678,0.000431,0.910726
1240000,0.0324,0.013523,0.002678,0.000431,0.963731
1241000,0.0324,0.013523,0.002678,0.000431,0.826928
1242000,0.0324,0.013523,0.002678,0.000431,0.741250
1243000,0.0324,0.013523,0.002678,0.000431,0.703524
1244000,0.0324,0.013523,0.002678,0.000431,0.733023
1245000,0.0324,0.013523,0.002678,0.000431,0.788614
1246000,0.0324,0.013523,0.002678,0.000431,0.741838
1247000,0.0324,0.013523,0.002678,0.000431,0.715629
1248000,0.0324,0.013523,0.002678,0.000431,0.771102
1249000,0.0324,0.013523,0.002678,0.000431,0.733846
1250000,0.0324,0.013523,0.002678,0.000431,0.690713
1251000,0.0324,0.013523,0.002678,0.000431,0.690948
1252000,0.0324,0.013523,0.002678,0.000431,0.772983
1253000,0.0324,0.013523,0.002678,0.000431,0.759232
1254000,0.0324,0.013523,0.002678,0.000431,0.682604
1255000,0.0324,0.013523,0.002678,0.000431,0.595163
1256000,0.0324,0.013523,0.002678,0.000431,0.642762
1257000,0.0324,0.013523,0.002678,0.000431,0.721388
1258000,0.0324,0.013523,0.002678,0.000431,0.621019
1259000,0.0324,0.013523,0.002678,0.000431,0.649578
1260000,0.0324,0.013523,0.002678,0.000431,0.711751
1261000,0.0324,0.013523,0.002678,0.000431,0.625132
1262000,0.0324,0.013523,0.002678,0.000431,0.662271
1263000,0.0324,0.013523,0.002678,0.000431,0.649461
1264000,0.0324,0.013523,0.002678,0.000431,0.624897
1265000,0.0324,0.013523,0.002678,0.000431,0.752768
1266000,0.0324,0.013523,0.002678,0.000431,0.686247
1267000,0.0324,0.013523,0.002678,0.000431,0.589639
1268000,0.0324,0.013523,0.002678,0.000431,0.624662
1269000,0.0324,0.013523,0.002678,0.000431,0.780505
1270000,0.0324,0.013523,0.002678,0.000431,0.884870
1271000,0.0324,0.013523,0.002678,0.000431,0.756999
1272000,0.0324,0.013523,0.002678,0.000431,0.719860
1273000,0.0324,0.013523,0.002678,0.000431,0.714806
1274000,0.0324,0.013523,0.002678,0.000431,0.709165
1275000,0.0324,0.013523,0.002678,0.000431,0.695767
1276000,0.0324,0.013523,0.002678,0.000431,0.627130
1277000,0.0324,0.013523,0.002678,0.000431,0.668265
1278000,0.0324,0.013523,0.002678,0.000431,0.626660
1279000,0.0324,0.013523,0.002678,0.000431,0.637943
1280000,0.0324,0.013523,0.002678,0.000431,0.621607
1281000,0.0324,0.013523,0.002678,0.000431,0.616083
1282000,0.0324,0.013523,0.002678,0.000431,0.713161
1283000,0.0324,0.013523,0.002678,0.000431,0.871824
1284000,0.0324,0.013523,0.002678,0.000431,0.823755
1285000,0.0324,0.013523,0.002678,0.000431,0.670146
1286000,0.0324,0.013523,0.002678,0.000431,0.692006
1287000,0.0324,0.013523,0.002678,0.000431,0.779564
1288000,0.0324,0.013523,0.002678,0.000431,0.803070
1289000,0.0324,0.013523,0.002678,0.000431,0.754061
1290000,0.0324,0.013523,0.002678,0.000431,0.720683
1291000,0.0324,0.013523,0.002678,0.000431,0.673789
1292000,0.0324,0.013523,0.002678,0.000431,0.621607
1293000,0.0324,0.013523,0.002678,0.000431,0.767812
1294000,0.0324,0.013523,0.002678,0.000431,0.852667
1295000,0.0324,0.013523,0.002678,0.000431,0.810357
1296000,0.0324,0.013523,0.002678,0.000431,0.898856
1297000,0.0324,0.013523,0.002678,0.000431,0.920363
1298000,0.0324,0.013523,0.002678,0.000431,0.805773
1299000,0.0324,0.013523,0.002678,0.000431,0.791200
1300000,0.0324,0.013523,0.002678,0.000431,0.829631
1301000,0.0324,0.013523,0.002678,0.000431,0.801190
1302000,0.0324,0.013523,0.002678,0.000431,0.685189
1303000,0.0324,0.013523,0.002678,0.000431,0.713161
1304000,0.0324,0.013523,0.002678,0.000431,0.790612
1305000,0.0324,0.013523,0.002678,0.000431,0.746421
1306000,0.0324,0.013523,0.002678,0.000431,0.829044
1307000,0.0324,0.013523,0.002678,0.000431,0.722681
1308000,0.0324,0.013523,0.002678,0.000431,0.690125
1309000,0.0324,0.013523,0.002678,0.000431,0.811062
1310000,0.0324,0.013523,0.002678,0.000431,0.831864
1311000,0.0324,0.013523,0.002678,0.000431,0.717980
1312000,0.0324,0.013523,0.002678,0.000431,0.677197
1313000,0.0324,0.013523,0.002678,0.000431,0.663682
1314000,0.0324,0.013523,0.002678,0.000431,0.669793
1315000,0.0324,0.013523,0.002678,0.000431,0.659803
1316000,0.0324,0.013523,0.002678,0.000431,0.689420
1317000,0.0324,0.013523,0.002678,0.000431,0.718215
1318000,0.0324,0.013523,0.002678,0.000431,0.627953
1319000,0.0324,0.013523,0.002678,0.000431,0.684954
1320000,0.0324,0.013523,0.002678,0.000431,0.754296
1321000,0.0324,0.013523,0.002678,0.000431,0.776156
1322000,0.0324,0.013523,0.002678,0.000431,0.790965
1323000,0.0324,0.013523,0.002678,0.000431,0.740192
1324000,0.0324,0.013523,0.002678,0.000431,0.646523
1325000,0.0324,0.013523,0.002678,0.000431,0.737254
1326000,0.0324,0.013523,0.002678,0.000431,0.699058
1327000,0.0324,0.013523,0.002678,0.000431,0.649696
1328000,0.0324,0.013523,0.002678,0.000431,0.631361
1329000,0.0324,0.013523,0.002678,0.000431,0.578591
1330000,0.0324,0.013523,0.002678,0.000431,0.587406
1331000,0.0324,0.013523,0.002678,0.000431,0.550384
1332000,0.0324,0.013523,0.002678,0.000431,0.589639
1333000,0.0324,0.013523,0.002678,0.000431,0.625955
1334000,0.0324,0.013523,0.002678,0.000431,0.599276
1335000,0.0324,0.013523,0.002678,0.000431,0.640176
1336000,0.0324,0.013523,0.002678,0.000431,0.798722
1337000,0.0324,0.013523,0.002678,0.000431,0.721623
1338000,0.0324,0.013523,0.002678,0.000431,0.705052
1339000,0.0324,0.013523,0.002678,0.000431,0.770045
1340000,0.0324,0.013523,0.002678,0.000431,0.800484
1341000,0.0324,0.013523,0.002678,0.000431,0.878523
1342000,0.0324,0.013523,0.002678,0.000431,0.842442
1343000,0.0324,0.013523,0.002678,0.000431,0.783443
1344000,0.0324,0.013523,0.002678,0.000431,0.803540
1345000,0.0324,0.013523,0.002678,0.000431,0.780740
1346000,0.0324,0.013523,0.002678,0.000431,0.836448
1347000,0.0324,0.013523,0.002678,0.000431,0.832570
1348000,0.0324,0.013523,0.002678,0.000431,0.795196
1349000,0.0324,0.013523,0.002678,0.000431,0.772983
1350000,0.0324,0.013523,0.002678,0.000431,0.769339
1351000,0.0324,0.013523,0.002678,0.000431,0.787909
1352000,0.0324,0.013523,0.002678,0.000431,0.863362
1353000,0.0324,0.013523,0.002678,0.000431,0.735374
1354000,0.0324,0.013523,0.002678,0.000431,0.644172
1355000,0.0324,0.013523,0.002678,0.000431,0.682839
1356000,0.0324,0.013523,0.002678,0.000431,0.752650
1357000,0.0324,0.013523,0.002678,0.000431,0.633947
1358000,0.0324,0.013523,0.002678,0.000431,0.555556
1359000,0.0324,0.013523,0.002678,0.000431,0.558259
1360000,0.0324,0.013523,0.002678,0.000431,0.617963
1361000,0.0324,0.013523,0.002678,0.000431,0.522530
1362000,0.0324,0.013523,0.002678,0.000431,0.463179
1363000,0.0324,0.013523,0.002678,0.000431,0.474931
1364000,0.0324,0.013523,0.002678,0.000431,0.495734
1365000,0.0324,0.013523,0.002678,0.000431,0.545331
1366000,0.0324,0.013523,0.002678,0.000431,0.605388
1367000,0.0324,0.013523,0.002678,0.000431,0.695767
1368000,0.0324,0.013523,0.002678,0.000431,0.623252
1369000,0.0324,0.013523,0.002678,0.000431,0.545331
1370000,0.0324,0.013523,0.002678,0.000431,0.613615
1371000,0.0324,0.013523,0.002678,0.000431,0.669911
1372000,0.0324,0.013523,0.002678,0.000431,0.631479
1373000,0.0324,0.013523,0.002678,0.000431,0.572245
1374000,0.0324,0.013523,0.002678,0.000431,0.595868
1375000,0.0324,0.013523,0.002678,0.000431,0.582470
1376000,0.0324,0.013523,0.002678,0.000431,0.634770
1377000,0.0324,0.013523,0.002678,0.000431,0.774863
1378000,0.0324,0.013523,0.002678,0.000431,0.687070
1379000,0.0324,0.013523,0.002678,0.000431,0.653457
1380000,0.0324,0.013523,0.002678,0.000431,0.657688
1381000,0.0324,0.013523,0.002678,0.000431,0.663564
1382000,0.0324,0.013523,0.002678,0.000431,0.711398
1383000,0.0324,0.013523,0.002678,0.000431,0.648521
1384000,0.0324,0.013523,0.002678,0.000431,0.653574
1385000,0.0324,0.013523,0.002678,0.000431,0.792257
1386000,0.0324,0.013523,0.002678,0.000431,0.848671
1387000,0.0324,0.013523,0.002678,0.000431,0.737607
1388000,0.0324,0.013523,0.002678,0.000431,0.681311
1389000,0.0324,0.013523,0.002678,0.000431,0.763110
1390000,0.0324,0.013523,0.002678,0.000431,0.746421
1391000,0.0324,0.013523,0.002678,0.000431,0.919188
1392000,0.0324,0.013523,0.002678,0.000431,0.805303
1393000,0.0324,0.013523,0.002678,0.000431,0.748419
1394000,0.0324,0.013523,0.002678,0.000431,0.780270
1395000,0.0324,0.013523,0.002678,0.000431,0.697177
1396000,0.0324,0.013523,0.002678,0.000431,0.698352
1397000,0.0324,0.013523,0.002678,0.000431,0.708930
1398000,0.0324,0.013523,0.002678,0.000431,0.610911
1399000,0.0324,0.013523,0.002678,0.000431,0.632537
1400000,0.0324,0.013523,0.002678,0.000431,0.691888
1401000,0.0324,0.013523,0.002678,0.000431,0.664387
1402000,0.0324,0.013523,0.002678,0.000431,0.706697
1403000,0.0324,0.013523,0.002678,0.000431,0.698470
1404000,0.0324,0.013523,0.002678,0.000431,0.674024
1405000,0.0324,0.013523,0.002678,0.000431,0.682369
1406000,0.0324,0.013523,0.002678,0.000431,0.683074
1407000,0.0324,0.013523,0.002678,0.000431,0.686247
1408000,0.0324,0.013523,0.002678,0.000431,0.709753
1409000,0.0324,0.013523,0.002678,0.000431,0.671909
1410000,0.0324,0.013523,0.002678,0.000431,0.634887
1411000,0.0324,0.013523,0.002678,0.000431,0.602214
1412000,0.0324,0.013523,0.002678,0.000431,0.551090
1413000,0.0324,0.013523,0.002678,0.000431,0.772513
1414000,0.0324,0.013523,0.002678,0.000431,0.883694
1415000,0.0324,0.013523,0.002678,0.000431,0.778389
1416000,0.0324,0.013523,0.002678,0.000431,0.688950
1417000,0.0324,0.013523,0.002678,0.000431,0.700938
1418000,0.0324,0.013523,0.002678,0.000431,0.725149
1419000,0.0324,0.013523,0.002678,0.000431,0.784618
1420000,0.0324,0.013523,0.002678,0.000431,0.827398
1421000,0.0324,0.013523,0.002678,0.000431,0.805656
1422000,0.0324,0.013523,0.002678,0.000431,0.893449
1423000,0.0324,0.013523,0.002678,0.000431,0.805538
1424000,0.0324,0.013523,0.002678,0.000431,0.749125
1425000,0.0324,0.013523,0.002678,0.000431,0.817409
1426000,0.0324,0.013523,0.002678,0.000431,0.809534
1427000,0.0324,0.013523,0.002678,0.000431,0.770867
1428000,0.0324,0.013523,0.002678,0.000431,0.802717
1429000,0.0324,0.013523,0.002678,0.000431,0.753121
1430000,0.0324,0.013523,0.002678,0.000431,0.800837
1431000,0.0324,0.013523,0.002678,0.000431,0.800955
1432000,0.0324,0.013523,0.002678,0.000431,0.733728
1433000,0.0324,0.013523,0.002678,0.000431,0.674024
1434000,0.0324,0.013523,0.002678,0.000431,0.674847
1435000,0.0324,0.013523,0.002678,0.000431,0.719272
1436000,0.0324,0.013523,0.002678,0.000431,0.654397
1437000,0.0324,0.013523,0.002678,0.000431,0.579767
1438000,0.0324,0.013523,0.002678,0.000431,0.647933
1439000,0.0324,0.013523,0.002678,0.000431,0.706932
1440000,0.0324,0.013523,0.002678,0.000431,0.706227
1441000,0.0324,0.013523,0.002678,0.000431,0.648991
1442000,0.0324,0.013523,0.002678,0.000431,0.614907
1443000,0.0324,0.013523,0.002678,0.000431,0.627600
1444000,0.0324,0.013523,0.002678,0.000431,0.610794
1445000,0.0324,0.013523,0.002678,0.000431,0.542628
1446000,0.0324,0.013523,0.002678,0.000431,0.494206
1447000,0.0324,0.013523,0.002678,0.000431,0.425922
1448000,0.0324,0.013523,0.002678,0.000431,0.417578
1449000,0.0324,0.013523,0.002678,0.000431,0.442611
1450000,0.0324,0.013523,0.002678,0.000431,0.451308
1451000,0.0324,0.013523,0.002678,0.000431,0.431681
1452000,0.0324,0.013523,0.002678,0.000431,0.373622
1453000,0.0324,0.013523,0.002678,0.000431,0.438028
1454000,0.0324,0.013523,0.002678,0.000431,0.422984
1455000,0.0324,0.013523,0.002678,0.000431,0.530287
1456000,0.0324,0.013523,0.002678,0.000431,0.557554
1457000,0.0324,0.013523,0.002678,0.000431,0.574243
1458000,0.0324,0.013523,0.002678,0.000431,0.619256
1459000,0.0324,0.013523,0.002678,0.000431,0.681311
1460000,0.0324,0.013523,0.002678,0.000431,0.680841
1461000,0.0324,0.013523,0.002678,0.000431,0.672849
1462000,0.0324,0.013523,0.002678,0.000431,0.789084
1463000,0.0324,0.013523,0.002678,0.000431,0.762758
1464000,0.0324,0.013523,0.002678,0.000431,0.682486
1465000,0.0324,0.013523,0.002678,0.000431,0.678960
1466000,0.0324,0.013523,0.002678,0.000431,0.715394
1467000,0.0324,0.013523,0.002678,0.000431,0.699763
1468000,0.0324,0.013523,0.002678,0.000431,0.764521
1469000,0.0324,0.013523,0.002678,0.000431,0.708695
1470000,0.0324,0.013523,0.002678,0.000431,0.768987
1471000,0.0324,0.013523,0.002678,0.000431,0.753356
1472000,0.0324,0.013523,0.002678,0.000431,0.671791
1473000,0.0324,0.013523,0.002678,0.000431,0.842324
1474000,0.0324,0.013523,0.002678,0.000431,0.899091
1475000,0.0324,0.013523,0.002678,0.000431,0.880051
1476000,0.0324,0.013523,0.002678,0.000431,0.859366
1477000,0.0324,0.013523,0.002678,0.000431,0.840091
1478000,0.0324,0.013523,0.002678,0.000431,0.863009
1479000,0.0324,0.013523,0.002678,0.000431,0.878053
1480000,0.0324,0.013523,0.002678,0.000431,0.861247
1481000,0.0324,0.013523,0.002678,0.000431,0.771808
1482000,0.0324,0.013523,0.002678,0.000431,0.752886
1483000,0.0324,0.013523,0.002678,0.000431,0.726442
1484000,0.0324,0.013523,0.002678,0.000431,0.606328
1485000,0.0324,0.013523,0.002678,0.000431,0.560257
1486000,0.0324,0.013523,0.002678,0.000431,0.525116
1487000,0.0324,0.013523,0.002678,0.000431,0.591872
1488000,0.0324,0.013523,0.002678,0.000431,0.553793
1489000,0.0324,0.013523,0.002678,0.000431,0.559552
1490000,0.0324,0.013523,0.002678,0.000431,0.728440
1491000,0.0324,0.013523,0.002678,0.000431,0.673436
1492000,0.0324,0.013523,0.002678,0.000431,0.632889
1493000,0.0324,0.013523,0.002678,0.000431,0.702701
1494000,0.0324,0.013523,0.002678,0.000431,0.696707
1495000,0.0324,0.013523,0.002678,0.000431,0.653927
1496000,0.0324,0.013523,0.002678,0.000431,0.644407
1497000,0.0324,0.013523,0.002678,0.000431,0.647815
1498000,0.0324,0.013523,0.002678,0.000431,0.579296
1499000,0.0324,0.013523,0.002678,0.000431,0.602097
1500000,0.0324,0.013523,0.002678,0.000431,0.644289
1501000,0.0324,0.013523,0.002678,0.000431,0.641939
1502000,0.0324,0.013523,0.002678,0.000431,0.772865
1503000,0.0324,0.013523,0.002678,0.000431,0.679901
1504000,0.0324,0.013523,0.002678,0.000431,0.583998
1505000,0.0324,0.013523,0.002678,0.000431,0.642644
1506000,0.0324,0.013523,0.002678,0.000431,0.586701
1507000,0.0324,0.013523,0.002678,0.000431,0.593635
1508000,0.0324,0.013523,0.002678,0.000431,0.601274
1509000,0.0324,0.013523,0.002678,0.000431,0.509485
1510000,0.0324,0.013523,0.002678,0.000431,0.467645
1511000,0.0324,0.013523,0.002678,0.000431,0.446490
1512000,0.0324,0.013523,0.002678,0.000431,0.461181
1513000,0.0324,0.013523,0.002678,0.000431,0.432974
1514000,0.0324,0.013523,0.002678,0.000431,0.411584
1515000,0.0324,0.013523,0.002678,0.000431,0.442494
1516000,0.0324,0.013523,0.002678,0.000431,0.381732
1517000,0.0324,0.013523,0.002678,0.000431,0.360812
1518000,0.0324,0.013523,0.002678,0.000431,0.419693
1519000,0.0324,0.013523,0.002678,0.000431,0.470348
1520000,0.0324,0.013523,0.002678,0.000431,0.576711
1521000,0.0324,0.013523,0.002678,0.000431,0.532755
1522000,0.0324,0.013523,0.002678,0.000431,0.445902
1523000,0.0324,0.013523,0.002678,0.000431,0.468585
1524000,0.0324,0.013523,0.002678,0.000431,0.507604
1525000,0.0324,0.013523,0.002678,0.000431,0.560609
1526000,0.0324,0.013523,0.002678,0.000431,0.571540
1527000,0.0324,0.013523,0.002678,0.000431,0.498790
1528000,0.0324,0.013523,0.002678,0.000431,0.455892
1529000,0.0324,0.013523,0.002678,0.000431,0.529700
1530000,0.0324,0.013523,0.002678,0.000431,0.545096
1531000,0.0324,0.013523,0.002678,0.000431,0.487272
1532000,0.0324,0.013523,0.002678,0.000431,0.484686
1533000,0.0324,0.013523,0.002678,0.000431,0.466939
1534000,0.0324,0.013523,0.002678,0.000431,0.592225
1535000,0.0324,0.013523,0.002678,0.000431,0.533108
1536000,0.0324,0.013523,0.002678,0.000431,0.462473
1537000,0.0324,0.013523,0.002678,0.000431,0.551325
1538000,0.0324,0.013523,0.002678,0.000431,0.527702
1539000,0.0324,0.013523,0.002678,0.000431,0.553910
1540000,0.0324,0.013523,0.002678,0.000431,0.712338
1541000,0.0324,0.013523,0.002678,0.000431,0.714101
1542000,0.0324,0.013523,0.002678,0.000431,0.700115
1543000,0.0324,0.013523,0.002678,0.000431,0.677785
1544000,0.0324,0.013523,0.002678,0.000431,0.643467
1545000,0.0324,0.013523,0.002678,0.000431,0.744894
1546000,0.0324,0.013523,0.002678,0.000431,0.902969
1547000,0.0324,0.013523,0.002678,0.000431,0.725501
1548000,0.0324,0.013523,0.002678,0.000431,0.793198
1549000,0.0324,0.013523,0.002678,0.000431,0.766989
1550000,0.0324,0.013523,0.002678,0.000431,0.711868
1551000,0.0324,0.013523,0.002678,0.000431,0.775216
1552000,0.0324,0.013523,0.002678,0.000431,0.903674
1553000,0.0324,0.013523,0.002678,0.000431,0.835625
1554000,0.0324,0.013523,0.002678,0.000431,0.711281
1555000,0.0324,0.013523,0.002678,0.000431,0.882754
1556000,0.0324,0.013523,0.002678,0.000431,0.859013
1557000,0.0324,0.013523,0.002678,0.000431,0.771220
1558000,0.0324,0.013523,0.002678,0.000431,0.761465
1559000,0.0324,0.013523,0.002678,0.000431,0.730673
1560000,0.0324,0.013523,0.002678,0.000431,0.692594
1561000,0.0324,0.013523,0.002678,0.000431,0.619021
1562000,0.0324,0.013523,0.002678,0.000431,0.630186
1563000,0.0324,0.013523,0.002678,0.000431,0.723268
1564000,0.0324,0.013523,0.002678,0.000431,0.681311
1565000,0.0324,0.013523,0.002678,0.000431,0.621724
1566000,0.0324,0.013523,0.002678,0.000431,0.644877
1567000,0.0324,0.013523,0.002678,0.000431,0.548739
1568000,0.0324,0.013523,0.002678,0.000431,0.540042
1569000,0.0324,0.013523,0.002678,0.000431,0.621019
1570000,0.0324,0.013523,0.002678,0.000431,0.652634
1571000,0.0324,0.013523,0.002678,0.000431,0.550032
1572000,0.0324,0.013523,0.002678,0.000431,0.559669
1573000,0.0324,0.013523,0.002678,0.000431,0.551325
1574000,0.0324,0.013523,0.002678,0.000431,0.562842
1575000,0.0324,0.013523,0.002678,0.000431,0.502433
1576000,0.0324,0.013523,0.002678,0.000431,0.485391
1577000,0.0324,0.013523,0.002678,0.000431,0.542158
1578000,0.0324,0.013523,0.002678,0.000431,0.581294
1579000,0.0324,0.013523,0.002678,0.000431,0.544155
1580000,0.0324,0.013523,0.002678,0.000431,0.540865
1581000,0.0324,0.013523,0.002678,0.000431,0.533578
1582000,0.0324,0.013523,0.002678,0.000431,0.607386
1583000,0.0324,0.013523,0.002678,0.000431,0.720565
1584000,0.0324,0.013523,0.002678,0.000431,0.616553
1585000,0.0324,0.013523,0.002678,0.000431,0.598689
1586000,0.0324,0.013523,0.002678,0.000431,0.794726
1587000,0.0324,0.013523,0.002678,0.000431,0.822110
1588000,0.0324,0.013523,0.002678,0.000431,0.624427
1589000,0.0324,0.013523,0.002678,0.000431,0.630891
1590000,0.0324,0.013523,0.002678,0.000431,0.843382
1591000,0.0324,0.013523,0.002678,0.000431,0.785088
1592000,0.0324,0.013523,0.002678,0.000431,0.717157
1593000,0.0324,0.013523,0.002678,0.000431,0.803423
1594000,0.0324,0.013523,0.002678,0.000431,0.696707
1595000,0.0324,0.013523,0.002678,0.000431,0.677785
1596000,0.0324,0.013523,0.002678,0.000431,0.710105
1597000,0.0324,0.013523,0.002678,0.000431,0.760995
1598000,0.0324,0.013523,0.002678,0.000431,0.754531
1599000,0.0324,0.013523,0.002678,0.000431,0.781915
1600000,0.0324,0.013523,0.002678,0.000431,0.731966
1601000,0.0324,0.013523,0.002678,0.000431,0.800837
1602000,0.0324,0.013523,0.002678,0.000431,0.936465
1603000,0.0324,0.013523,0.002678,0.000431,0.913547
1604000,0.0324,0.013523,0.002678,0.000431,0.989117
1605000,0.0324,0.013523,0.002678,0.000431,1.066216
1606000,0.0324,0.013523,0.002678,0.000431,0.959500
1607000,0.0324,0.013523,0.002678,0.000431,0.922361
1608000,0.0324,0.013523,0.002678,0.000431,0.875938
1609000,0.0324,0.013523,0.002678,0.000431,0.827046
1610000,0.0324,0.013523,0.002678,0.000431,0.833510
1611000,0.0324,0.013523,0.002678,0.000431,0.818819
1612000,0.0324,0.013523,0.002678,0.000431,0.768517
1613000,0.0324,0.013523,0.002678,0.000431,0.784148
1614000,0.0324,0.013523,0.002678,0.000431,0.801660
1615000,0.0324,0.013523,0.002678,0.000431,0.817996
1616000,0.0324,0.013523,0.002678,0.000431,0.819994
1617000,0.0324,0.013523,0.002678,0.000431,0.751123
1618000,0.0324,0.013523,0.002678,0.000431,0.662154
1619000,0.0324,0.013523,0.002678,0.000431,0.632067
1620000,0.0324,0.013523,0.002678,0.000431,0.614790
1621000,0.0324,0.013523,0.002678,0.000431,0.667090
1622000,0.0324,0.013523,0.002678,0.000431,0.611029
1623000,0.0324,0.013523,0.002678,0.000431,0.572950
1624000,0.0324,0.013523,0.002678,0.000431,0.544155
1625000,0.0324,0.013523,0.002678,0.000431,0.647933
1626000,0.0324,0.013523,0.002678,0.000431,0.790612
1627000,0.0324,0.013523,0.002678,0.000431,0.709870
1628000,0.0324,0.013523,0.002678,0.000431,0.682016
1629000,0.0324,0.013523,0.002678,0.000431,0.709870
1630000,0.0324,0.013523,0.002678,0.000431,0.684719
1631000,0.0324,0.013523,0.002678,0.000431,0.607151
1632000,0.0324,0.013523,0.002678,0.000431,0.574360
1633000,0.0324,0.013523,0.002678,0.000431,0.537809
1634000,0.0324,0.013523,0.002678,0.000431,0.540042
1635000,0.0324,0.013523,0.002678,0.000431,0.462591
1636000,0.0324,0.013523,0.002678,0.000431,0.439790
1637000,0.0324,0.013523,0.002678,0.000431,0.468937
1638000,0.0324,0.013523,0.002678,0.000431,0.424629
1639000,0.0324,0.013523,0.002678,0.000431,0.417578
1640000,0.0324,0.013523,0.002678,0.000431,0.428038
1641000,0.0324,0.013523,0.002678,0.000431,0.381026
1642000,0.0324,0.013523,0.002678,0.000431,0.459065
1643000,0.0324,0.013523,0.002678,0.000431,0.411349
1644000,0.0324,0.013523,0.002678,0.000431,0.332840
1645000,0.0324,0.013523,0.002678,0.000431,0.389959
1646000,0.0324,0.013523,0.002678,0.000431,0.483981
1647000,0.0324,0.013523,0.002678,0.000431,0.498202
1648000,0.0324,0.013523,0.002678,0.000431,0.379146
1649000,0.0324,0.013523,0.002678,0.000431,0.413934
1650000,0.0324,0.013523,0.002678,0.000431,0.588464
1651000,0.0324,0.013523,0.002678,0.000431,0.666502
1652000,0.0324,0.013523,0.002678,0.000431,0.568249
1653000,0.0324,0.013523,0.002678,0.000431,0.550032
1654000,0.0324,0.013523,0.002678,0.000431,0.604095
1655000,0.0324,0.013523,0.002678,0.000431,0.678960
1656000,0.0324,0.013523,0.002678,0.000431,0.800837
1657000,0.0324,0.013523,0.002678,0.000431,0.725266
1658000,0.0324,0.013523,0.002678,0.000431,0.617728
1659000,0.0324,0.013523,0.002678,0.000431,0.667325
1660000,0.0324,0.013523,0.002678,0.000431,0.766636
1661000,0.0324,0.013523,0.002678,0.000431,0.789084
1662000,0.0324,0.013523,0.002678,0.000431,0.665210
1663000,0.0324,0.013523,0.002678,0.000431,0.688950
1664000,0.0324,0.013523,0.002678,0.000431,0.669205
1665000,0.0324,0.013523,0.002678,0.000431,0.680253
1666000,0.0324,0.013523,0.002678,0.000431,0.758997
1667000,0.0324,0.013523,0.002678,0.000431,0.699998
1668000,0.0324,0.013523,0.002678,0.000431,0.653104
1669000,0.0324,0.013523,0.002678,0.000431,0.746657
1670000,0.0324,0.013523,0.002678,0.000431,0.665915
1671000,0.0324,0.013523,0.002678,0.000431,0.720330
1672000,0.0324,0.013523,0.002678,0.000431,0.761113
1673000,0.0324,0.013523,0.002678,0.000431,0.666855
1674000,0.0324,0.013523,0.002678,0.000431,0.679313
1675000,0.0324,0.013523,0.002678,0.000431,0.641116
1676000,0.0324,0.013523,0.002678,0.000431,0.668265
1677000,0.0324,0.013523,0.002678,0.000431,0.689773
1678000,0.0324,0.013523,0.002678,0.000431,0.667560
1679000,0.0324,0.013523,0.002678,0.000431,0.668148
1680000,0.0324,0.013523,0.002678,0.000431,0.594105
1681000,0.0324,0.013523,0.002678,0.000431,0.615965
1682000,0.0324,0.013523,0.002678,0.000431,0.625132
1683000,0.0324,0.013523,0.002678,0.000431,0.672261
1684000,0.0324,0.013523,0.002678,0.000431,0.707872
1685000,0.0324,0.013523,0.002678,0.000431,0.613380
1686000,0.0324,0.013523,0.002678,0.000431,0.606328
1687000,0.0324,0.013523,0.002678,0.000431,0.600569
1688000,0.0324,0.013523,0.002678,0.000431,0.674729
1689000,0.0324,0.013523,0.002678,0.000431,0.618081
1690000,0.0324,0.013523,0.002678,0.000431,0.533813
1691000,0.0324,0.013523,0.002678,0.000431,0.573420
1692000,0.0324,0.013523,0.002678,0.000431,0.597278
1693000,0.0324,0.013523,0.002678,0.000431,0.458712
1694000,0.0324,0.013523,0.002678,0.000431,0.495616
1695000,0.0324,0.013523,0.002678,0.000431,0.507604
1696000,0.0324,0.013523,0.002678,0.000431,0.431916
1697000,0.0324,0.013523,0.002678,0.000431,0.397128
1698000,0.0324,0.013523,0.002678,0.000431,0.387373
1699000,0.0324,0.013523,0.002678,0.000431,0.445432
1700000,0.0324,0.013523,0.002678,0.000431,0.449898
1701000,0.0324,0.013523,0.002678,0.000431,0.420516
1702000,0.0324,0.013523,0.002678,0.000431,0.510777
1703000,0.0324,0.013523,0.002678,0.000431,0.597748
1704000,0.0324,0.013523,0.002678,0.000431,0.529700
1705000,0.0324,0.013523,0.002678,0.000431,0.588346
1706000,0.0324,0.013523,0.002678,0.000431,0.619138
1707000,0.0324,0.013523,0.002678,0.000431,0.554028
1708000,0.0324,0.013523,0.002678,0.000431,0.579179
1709000,0.0324,0.013523,0.002678,0.000431,0.666267
1710000,0.0324,0.013523,0.002678,0.000431,0.625485
1711000,0.0324,0.013523,0.002678,0.000431,0.560022
1712000,0.0324,0.013523,0.002678,0.000431,0.700703
1713000,0.0324,0.013523,0.002678,0.000431,0.765579
1714000,0.0324,0.013523,0.002678,0.000431,0.745129
1715000,0.0324,0.013523,0.002678,0.000431,0.808006
1716000,0.0324,0.013523,0.002678,0.000431,0.866183
1717000,0.0324,0.013523,0.002678,0.000431,0.952331
1718000,0.0324,0.013523,0.002678,0.000431,0.890158
1719000,0.0324,0.013523,0.002678,0.000431,0.842207
1720000,0.0324,0.013523,0.002678,0.000431,0.853842
1721000,0.0324,0.013523,0.002678,0.000431,0.849611
1722000,0.0324,0.013523,0.002678,0.000431,0.858308
1723000,0.0324,0.013523,0.002678,0.000431,0.819171
1724000,0.0324,0.013523,0.002678,0.000431,0.711633
1725000,0.0324,0.013523,0.002678,0.000431,0.652516
1726000,0.0324,0.013523,0.002678,0.000431,0.654397
1727000,0.0324,0.013523,0.002678,0.000431,0.619609
1728000,0.0324,0.013523,0.002678,0.000431,0.621254
1729000,0.0324,0.013523,0.002678,0.000431,0.764873
1730000,0.0324,0.013523,0.002678,0.000431,0.727029
1731000,0.0324,0.013523,0.002678,0.000431,0.570482
1732000,0.0324,0.013523,0.002678,0.000431,0.610324
1733000,0.0324,0.013523,0.002678,0.000431,0.665797
1734000,0.0324,0.013523,0.002678,0.000431,0.583410
1735000,0.0324,0.013523,0.002678,0.000431,0.625485
1736000,0.0324,0.013523,0.002678,0.000431,0.622077
1737000,0.0324,0.013523,0.002678,0.000431,0.570952
1738000,0.0324,0.013523,0.002678,0.000431,0.617493
1739000,0.0324,0.013523,0.002678,0.000431,0.690713
1740000,0.0324,0.013523,0.002678,0.000431,0.796488
1741000,0.0324,0.013523,0.002678,0.000431,0.769692
1742000,0.0324,0.013523,0.002678,0.000431,0.689890
1743000,0.0324,0.013523,0.002678,0.000431,0.715159
1744000,0.0324,0.013523,0.002678,0.000431,0.756881
1745000,0.0324,0.013523,0.002678,0.000431,0.752415
1746000,0.0324,0.013523,0.002678,0.000431,0.683779
1747000,0.0324,0.013523,0.002678,0.000431,0.816703
1748000,0.0324,0.013523,0.002678,0.000431,0.773688
1749000,0.0324,0.013523,0.002678,0.000431,0.742543
1750000,0.0324,0.013523,0.002678,0.000431,0.865360
1751000,0.0324,0.013523,0.002678,0.000431,0.914957
1752000,0.0324,0.013523,0.002678,0.000431,0.860894
1753000,0.0324,0.013523,0.002678,0.000431,0.864772
1754000,0.0324,0.013523,0.002678,0.000431,0.902734
1755000,0.0324,0.013523,0.002678,0.000431,0.802600
1756000,0.0324,0.013523,0.002678,0.000431,0.833040
1757000,0.0324,0.013523,0.002678,0.000431,0.772160
1758000,0.0324,0.013523,0.002678,0.000431,0.760525
1759000,0.0324,0.013523,0.002678,0.000431,0.826811
1760000,0.0324,0.013523,0.002678,0.000431,0.842795
1761000,0.0324,0.013523,0.002678,0.000431,0.780035
1762000,0.0324,0.013523,0.002678,0.000431,0.651576
1763000,0.0324,0.013523,0.002678,0.000431,0.662859
1764000,0.0324,0.013523,0.002678,0.000431,0.628658
1765000,0.0324,0.013523,0.002678,0.000431,0.620549
1766000,0.0324,0.013523,0.002678,0.000431,0.555556
1767000,0.0324,0.013523,0.002678,0.000431,0.707872
1768000,0.0324,0.013523,0.002678,0.000431,0.625485
1769000,0.0324,0.013523,0.002678,0.000431,0.567896
1770000,0.0324,0.013523,0.002678,0.000431,0.611264
1771000,0.0324,0.013523,0.002678,0.000431,0.604330
1772000,0.0324,0.013523,0.002678,0.000431,0.679430
1773000,0.0324,0.013523,0.002678,0.000431,0.613027
1774000,0.0324,0.013523,0.002678,0.000431,0.605858
1775000,0.0324,0.013523,0.002678,0.000431,0.628188
1776000,0.0324,0.013523,0.002678,0.000431,0.597043
1777000,0.0324,0.013523,0.002678,0.000431,0.535929
1778000,0.0324,0.013523,0.002678,0.000431,0.633477
1779000,0.0324,0.013523,0.002678,0.000431,0.707755
1780000,0.0324,0.013523,0.002678,0.000431,0.666855
1781000,0.0324,0.013523,0.002678,0.000431,0.722916
1782000,0.0324,0.013523,0.002678,0.000431,0.611147
1783000,0.0324,0.013523,0.002678,0.000431,0.603860
1784000,0.0324,0.013523,0.002678,0.000431,0.696590
1785000,0.0324,0.013523,0.002678,0.000431,0.754766
1786000,0.0324,0.013523,0.002678,0.000431,0.692946
1787000,0.0324,0.013523,0.002678,0.000431,0.629951
1788000,0.0324,0.013523,0.002678,0.000431,0.631361
1789000,0.0324,0.013523,0.002678,0.000431,0.631361
1790000,0.0324,0.013523,0.002678,0.000431,0.592460
1791000,0.0324,0.013523,0.002678,0.000431,0.560727
1792000,0.0324,0.013523,0.002678,0.000431,0.537809
1793000,0.0324,0.013523,0.002678,0.000431,0.488565
1794000,0.0324,0.013523,0.002678,0.000431,0.546976
1795000,0.0324,0.013523,0.002678,0.000431,0.574830
1796000,0.0324,0.013523,0.002678,0.000431,0.535811
1797000,0.0324,0.013523,0.002678,0.000431,0.589051
1798000,0.0324,0.013523,0.002678,0.000431,0.627248
1799000,0.0324,0.013523,0.002678,0.000431,0.589286
1800000,0.0324,0.013523,0.002678,0.000431,0.642174
1801000,0.0324,0.013523,0.002678,0.000431,0.703641
1802000,0.0324,0.013523,0.002678,0.000431,0.670851
1803000,0.0324,0.013523,0.002678,0.000431,0.630304
1804000,0.0324,0.013523,0.002678,0.000431,0.717980
1805000,0.0324,0.013523,0.002678,0.000431,0.621842
1806000,0.0324,0.013523,0.002678,0.000431,0.593752
1807000,0.0324,0.013523,0.002678,0.000431,0.629716
1808000,0.0324,0.013523,0.002678,0.000431,0.644760
1809000,0.0324,0.013523,0.002678,0.000431,0.601157
1810000,0.0324,0.013523,0.002678,0.000431,0.676022
1811000,0.0324,0.013523,0.002678,0.000431,0.589521
1812000,0.0324,0.013523,0.002678,0.000431,0.581177
1813000,0.0324,0.013523,0.002678,0.000431,0.652399
1814000,0.0324,0.013523,0.002678,0.000431,0.677550
1815000,0.0324,0.013523,0.002678,0.000431,0.619961
1816000,0.0324,0.013523,0.002678,0.000431,0.615965
1817000,0.0324,0.013523,0.002678,0.000431,0.682839
1818000,0.0324,0.013523,0.002678,0.000431,0.665092
1819000,0.0324,0.013523,0.002678,0.000431,0.651576
1820000,0.0324,0.013523,0.002678,0.000431,0.604918
1821000,0.0324,0.013523,0.002678,0.000431,0.639706
1822000,0.0324,0.013523,0.002678,0.000431,0.688715
1823000,0.0324,0.013523,0.002678,0.000431,0.655807
1824000,0.0324,0.013523,0.002678,0.000431,0.608796
1825000,0.0324,0.013523,0.002678,0.000431,0.600099
1826000,0.0324,0.013523,0.002678,0.000431,0.727617
1827000,0.0324,0.013523,0.002678,0.000431,0.643232
1828000,0.0324,0.013523,0.002678,0.000431,0.733611
1829000,0.0324,0.013523,0.002678,0.000431,0.737019
1830000,0.0324,0.013523,0.002678,0.000431,0.721506
1831000,0.0324,0.013523,0.002678,0.000431,0.773335
1832000,0.0324,0.013523,0.002678,0.000431,0.672614
1833000,0.0324,0.013523,0.002678,0.000431,0.621136
1834000,0.0324,0.013523,0.002678,0.000431,0.628658
1835000,0.0324,0.013523,0.002678,0.000431,0.736667
1836000,0.0324,0.013523,0.002678,0.000431,0.672379
1837000,0.0324,0.013523,0.002678,0.000431,0.738782
1838000,0.0324,0.013523,0.002678,0.000431,0.827986
1839000,0.0324,0.013523,0.002678,0.000431,0.848201
1840000,0.0324,0.013523,0.002678,0.000431,0.793785
1841000,0.0324,0.013523,0.002678,0.000431,0.864772
1842000,0.0324,0.013523,0.002678,0.000431,0.872647
1843000,0.0324,0.013523,0.002678,0.000431,0.796959
1844000,0.0324,0.013523,0.002678,0.000431,0.827869
1845000,0.0324,0.013523,0.002678,0.000431,0.757822
1846000,0.0324,0.013523,0.002678,0.000431,0.634770
1847000,0.0324,0.013523,0.002678,0.000431,0.566016
1848000,0.0324,0.013523,0.002678,0.000431,0.501963
1849000,0.0324,0.013523,0.002678,0.000431,0.520650
1850000,0.0324,0.013523,0.002678,0.000431,0.577063
1851000,0.0324,0.013523,0.002678,0.000431,0.604918
1852000,0.0324,0.013523,0.002678,0.000431,0.486919
1853000,0.0324,0.013523,0.002678,0.000431,0.480338
1854000,0.0324,0.013523,0.002678,0.000431,0.570717
1855000,0.0324,0.013523,0.002678,0.000431,0.546624
1856000,0.0324,0.013523,0.002678,0.000431,0.572715
1857000,0.0324,0.013523,0.002678,0.000431,0.646052
1858000,0.0324,0.013523,0.002678,0.000431,0.562255
1859000,0.0324,0.013523,0.002678,0.000431,0.575536
1860000,0.0324,0.013523,0.002678,0.000431,0.721153
1861000,0.0324,0.013523,0.002678,0.000431,0.693064
1862000,0.0324,0.013523,0.002678,0.000431,0.599276
1863000,0.0324,0.013523,0.002678,0.000431,0.600569
1864000,0.0324,0.013523,0.002678,0.000431,0.641704
1865000,0.0324,0.013523,0.002678,0.000431,0.641821
1866000,0.0324,0.013523,0.002678,0.000431,0.581529
1867000,0.0324,0.013523,0.002678,0.000431,0.512188
1868000,0.0324,0.013523,0.002678,0.000431,0.490563
1869000,0.0324,0.013523,0.002678,0.000431,0.531345
1870000,0.0324,0.013523,0.002678,0.000431,0.592695
1871000,0.0324,0.013523,0.002678,0.000431,0.516419
1872000,0.0324,0.013523,0.002678,0.000431,0.564958
1873000,0.0324,0.013523,0.002678,0.000431,0.632889
1874000,0.0324,0.013523,0.002678,0.000431,0.741250
1875000,0.0324,0.013523,0.002678,0.000431,0.726912
1876000,0.0324,0.013523,0.002678,0.000431,0.749125
1877000,0.0324,0.013523,0.002678,0.000431,0.671439
1878000,0.0324,0.013523,0.002678,0.000431,0.689185
1879000,0.0324,0.013523,0.002678,0.000431,0.723621
1880000,0.0324,0.013523,0.002678,0.000431,0.686365
1881000,0.0324,0.013523,0.002678,0.000431,0.683661
1882000,0.0324,0.013523,0.002678,0.000431,0.634417
1883000,0.0324,0.013523,0.002678,0.000431,0.667560
1884000,0.0324,0.013523,0.002678,0.000431,0.719508
1885000,0.0324,0.013523,0.002678,0.000431,0.659333
1886000,0.0324,0.013523,0.002678,0.000431,0.556261
1887000,0.0324,0.013523,0.002678,0.000431,0.653457
1888000,0.0324,0.013523,0.002678,0.000431,0.793903
1889000,0.0324,0.013523,0.002678,0.000431,0.791435
1890000,0.0324,0.013523,0.002678,0.000431,0.659451
1891000,0.0324,0.013523,0.002678,0.000431,0.683309
1892000,0.0324,0.013523,0.002678,0.000431,0.745246
1893000,0.0324,0.013523,0.002678,0.000431,0.694827
1894000,0.0324,0.013523,0.002678,0.000431,0.775921
1895000,0.0324,0.013523,0.002678,0.000431,0.856545
1896000,0.0324,0.013523,0.002678,0.000431,0.668148
1897000,0.0324,0.013523,0.002678,0.000431,0.667325
1898000,0.0324,0.013523,0.002678,0.000431,0.675670
1899000,0.0324,0.013523,0.002678,0.000431,0.684249
1900000,0.0324,0.013523,0.002678,0.000431,0.679901
1901000,0.0324,0.013523,0.002678,0.000431,0.549914
1902000,0.0324,0.013523,0.002678,0.000431,0.531697
1903000,0.0324,0.013523,0.002678,0.000431,0.525704
1904000,0.0324,0.013523,0.002678,0.000431,0.607033
1905000,0.0324,0.013523,0.002678,0.000431,0.768164
1906000,0.0324,0.013523,0.002678,0.000431,0.645230
1907000,0.0324,0.013523,0.002678,0.000431,0.607503
1908000,0.0324,0.013523,0.002678,0.000431,0.682016
1909000,0.0324,0.013523,0.002678,0.000431,0.706579
1910000,0.0324,0.013523,0.002678,0.000431,0.708930
1911000,0.0324,0.013523,0.002678,0.000431,0.618081
1912000,0.0324,0.013523,0.002678,0.000431,0.571304
1913000,0.0324,0.013523,0.002678,0.000431,0.605388
1914000,0.0324,0.013523,0.002678,0.000431,0.645935
1915000,0.0324,0.013523,0.002678,0.000431,0.612557
1916000,0.0324,0.013523,0.002678,0.000431,0.599276
1917000,0.0324,0.013523,0.002678,0.000431,0.688245
1918000,0.0324,0.013523,0.002678,0.000431,0.705639
1919000,0.0324,0.013523,0.002678,0.000431,0.678490
1920000,0.0324,0.013523,0.002678,0.000431,0.694592
1921000,0.0324,0.013523,0.002678,0.000431,0.707402
1922000,0.0324,0.013523,0.002678,0.000431,0.690948
1923000,0.0324,0.013523,0.002678,0.000431,0.652046
1924000,0.0324,0.013523,0.002678,0.000431,0.713514
1925000,0.0324,0.013523,0.002678,0.000431,0.834333
1926000,0.0324,0.013523,0.002678,0.000431,0.819524
1927000,0.0324,0.013523,0.002678,0.000431,0.733258
1928000,0.0324,0.013523,0.002678,0.000431,0.758879
1929000,0.0324,0.013523,0.002678,0.000431,0.892039
1930000,0.0324,0.013523,0.002678,0.000431,0.830219
1931000,0.0324,0.013523,0.002678,0.000431,0.805186
1932000,0.0324,0.013523,0.002678,0.000431,0.723739
1933000,0.0324,0.013523,0.002678,0.000431,0.652046
1934000,0.0324,0.013523,0.002678,0.000431,0.686600
1935000,0.0324,0.013523,0.002678,0.000431,0.672966
1936000,0.0324,0.013523,0.002678,0.000431,0.631596
1937000,0.0324,0.013523,0.002678,0.000431,0.574830
1938000,0.0324,0.013523,0.002678,0.000431,0.541922
1939000,0.0324,0.013523,0.002678,0.000431,0.568954
1940000,0.0324,0.013523,0.002678,0.000431,0.628423
1941000,0.0324,0.013523,0.002678,0.000431,0.610911
1942000,0.0324,0.013523,0.002678,0.000431,0.532050
1943000,0.0324,0.013523,0.002678,0.000431,0.561785
1944000,0.0324,0.013523,0.002678,0.000431,0.554380
1945000,0.0324,0.013523,0.002678,0.000431,0.509837
1946000,0.0324,0.013523,0.002678,0.000431,0.524881
1947000,0.0324,0.013523,0.002678,0.000431,0.580707
1948000,0.0324,0.013523,0.002678,0.000431,0.585760
1949000,0.0324,0.013523,0.002678,0.000431,0.576358
1950000,0.0324,0.013523,0.002678,0.000431,0.509015
1951000,0.0324,0.013523,0.002678,0.000431,0.551560
1952000,0.0324,0.013523,0.002678,0.000431,0.506194
1953000,0.0324,0.013523,0.002678,0.000431,0.507957
1954000,0.0324,0.013523,0.002678,0.000431,0.563900
1955000,0.0324,0.013523,0.002678,0.000431,0.545683
1956000,0.0324,0.013523,0.002678,0.000431,0.495851
1957000,0.0324,0.013523,0.002678,0.000431,0.529817
1958000,0.0324,0.013523,0.002678,0.000431,0.485744
1959000,0.0324,0.013523,0.002678,0.000431,0.467997
1960000,0.0324,0.013523,0.002678,0.000431,0.545918
1961000,0.0324,0.013523,0.002678,0.000431,0.497497
1962000,0.0324,0.013523,0.002678,0.000431,0.401241
1963000,0.0324,0.013523,0.002678,0.000431,0.531462
1964000,0.0324,0.013523,0.002678,0.000431,0.608678
1965000,0.0324,0.013523,0.002678,0.000431,0.483981
1966000,0.0324,0.013523,0.002678,0.000431,0.590462
1967000,0.0324,0.013523,0.002678,0.000431,0.816233
1968000,0.0324,0.013523,0.002678,0.000431,0.735021
1969000,0.0324,0.013523,0.002678,0.000431,0.768987
1970000,0.0324,0.013523,0.002678,0.000431,0.842442
1971000,0.0324,0.013523,0.002678,0.000431,0.909316
1972000,0.0324,0.013523,0.002678,0.000431,0.966199
1973000,0.0324,0.013523,0.002678,0.000431,0.940461
1974000,0.0324,0.013523,0.002678,0.000431,0.955152
1975000,0.0324,0.013523,0.002678,0.000431,0.962438
1976000,0.0324,0.013523,0.002678,0.000431,0.880286
1977000,0.0324,0.013523,0.002678,0.000431,0.817879
1978000,0.0324,0.013523,0.002678,0.000431,0.831159
1979000,0.0324,0.013523,0.002678,0.000431,0.869121
1980000,0.0324,0.013523,0.002678,0.000431,0.833157
1981000,0.0324,0.013523,0.002678,0.000431,0.734786
1982000,0.0324,0.013523,0.002678,0.000431,0.686130
1983000,0.0324,0.013523,0.002678,0.000431,0.661801
1984000,0.0324,0.013523,0.002678,0.000431,0.703524
1985000,0.0324,0.013523,0.002678,0.000431,0.638296
1986000,0.0324,0.013523,0.002678,0.000431,0.722211
1987000,0.0324,0.013523,0.002678,0.000431,0.760055
1988000,0.0324,0.013523,0.002678,0.000431,0.673436
1989000,0.0324,0.013523,0.002678,0.000431,0.696002
1990000,0.0324,0.013523,0.002678,0.000431,0.679195
1991000,0.0324,0.013523,0.002678,0.000431,0.637943
1992000,0.0324,0.013523,0.002678,0.000431,0.696472
1993000,0.0324,0.013523,0.002678,0.000431,0.674494
1994000,0.0324,0.013523,0.002678,0.000431,0.659686
1995000,0.0324,0.013523,0.002678,0.000431,0.605740
1996000,0.0324,0.013523,0.002678,0.000431,0.680958
1997000,0.0324,0.013523,0.002678,0.000431,0.638766
1998000,0.0324,0.013523,0.002678,0.000431,0.542158
1999000,0.0324,0.013523,0.002678,0.000431,0.607738
