Cycle,Area(mm^2),PeakDynamic(W),SubthresholdLeakage(W),GateLeakage(W),RunTimeDynamic(W)
3000000,0.0324,0.013523,0.002678,0.000431,0.660156
3001000,0.0324,0.013523,0.002678,0.000431,0.710458
3002000,0.0324,0.013523,0.002678,0.000431,0.573302
3003000,0.0324,0.013523,0.002678,0.000431,0.603037
3004000,0.0324,0.013523,0.002678,0.000431,0.643937
3005000,0.0324,0.013523,0.002678,0.000431,0.617963
3006000,0.0324,0.013523,0.002678,0.000431,0.699058
3007000,0.0324,0.013523,0.002678,0.000431,0.567191
3008000,0.0324,0.013523,0.002678,0.000431,0.545331
3009000,0.0324,0.013523,0.002678,0.000431,0.604565
3010000,0.0324,0.013523,0.002678,0.000431,0.563783
3011000,0.0324,0.013523,0.002678,0.000431,0.622664
3012000,0.0324,0.013523,0.002678,0.000431,0.611617
3013000,0.0324,0.013523,0.002678,0.000431,0.568014
3014000,0.0324,0.013523,0.002678,0.000431,0.573655
3015000,0.0324,0.013523,0.002678,0.000431,0.659686
3016000,0.0324,0.013523,0.002678,0.000431,0.695767
3017000,0.0324,0.013523,0.002678,0.000431,0.563313
3018000,0.0324,0.013523,0.002678,0.000431,0.551442
3019000,0.0324,0.013523,0.002678,0.000431,0.577533
3020000,0.0324,0.013523,0.002678,0.000431,0.593282
3021000,0.0324,0.013523,0.002678,0.000431,0.539572
3022000,0.0324,0.013523,0.002678,0.000431,0.594928
3023000,0.0324,0.013523,0.002678,0.000431,0.631949
3024000,0.0324,0.013523,0.002678,0.000431,0.646170
3025000,0.0324,0.013523,0.002678,0.000431,0.585408
3026000,0.0324,0.013523,0.002678,0.000431,0.641351
3027000,0.0324,0.013523,0.002678,0.000431,0.679665
3028000,0.0324,0.013523,0.002678,0.000431,0.723386
3029000,0.0324,0.013523,0.002678,0.000431,0.757704
3030000,0.0324,0.013523,0.002678,0.000431,0.660861
3031000,0.0324,0.013523,0.002678,0.000431,0.689185
3032000,0.0324,0.013523,0.002678,0.000431,0.785323
3033000,0.0324,0.013523,0.002678,0.000431,0.817879
3034000,0.0324,0.013523,0.002678,0.000431,0.738195
3035000,0.0324,0.013523,0.002678,0.000431,0.665092
3036000,0.0324,0.013523,0.002678,0.000431,0.680723
3037000,0.0324,0.013523,0.002678,0.000431,0.740428
3038000,0.0324,0.013523,0.002678,0.000431,0.804598
3039000,0.0324,0.013523,0.002678,0.000431,0.681781
3040000,0.0324,0.013523,0.002678,0.000431,0.769104
3041000,0.0324,0.013523,0.002678,0.000431,0.767694
3042000,0.0324,0.013523,0.002678,0.000431,0.694944
3043000,0.0324,0.013523,0.002678,0.000431,0.752768
3044000,0.0324,0.013523,0.002678,0.000431,0.817996
3045000,0.0324,0.013523,0.002678,0.000431,0.819994
3046000,0.0324,0.013523,0.002678,0.000431,0.787909
3047000,0.0324,0.013523,0.002678,0.000431,0.719155
3048000,0.0324,0.013523,0.002678,0.000431,0.798486
3049000,0.0324,0.013523,0.002678,0.000431,0.778507
3050000,0.0324,0.013523,0.002678,0.000431,0.766049
3051000,0.0324,0.013523,0.002678,0.000431,0.710105
3052000,0.0324,0.013523,0.002678,0.000431,0.639941
3053000,0.0324,0.013523,0.002678,0.000431,0.607973
3054000,0.0324,0.013523,0.002678,0.000431,0.635475
3055000,0.0324,0.013523,0.002678,0.000431,0.518887
3056000,0.0324,0.013523,0.002678,0.000431,0.536869
3057000,0.0324,0.013523,0.002678,0.000431,0.632537
3058000,0.0324,0.013523,0.002678,0.000431,0.625603
3059000,0.0324,0.013523,0.002678,0.000431,0.613262
3060000,0.0324,0.013523,0.002678,0.000431,0.592460
3061000,0.0324,0.013523,0.002678,0.000431,0.630186
3062000,0.0324,0.013523,0.002678,0.000431,0.645112
3063000,0.0324,0.013523,0.002678,0.000431,0.645935
3064000,0.0324,0.013523,0.002678,0.000431,0.659568
3065000,0.0324,0.013523,0.002678,0.000431,0.594222
3066000,0.0324,0.013523,0.002678,0.000431,0.556613
3067000,0.0324,0.013523,0.002678,0.000431,0.612909
3068000,0.0324,0.013523,0.002678,0.000431,0.546859
3069000,0.0324,0.013523,0.002678,0.000431,0.546271
3070000,0.0324,0.013523,0.002678,0.000431,0.656042
3071000,0.0324,0.013523,0.002678,0.000431,0.632302
3072000,0.0324,0.013523,0.002678,0.000431,0.585643
3073000,0.0324,0.013523,0.002678,0.000431,0.595045
3074000,0.0324,0.013523,0.002678,0.000431,0.566838
3075000,0.0324,0.013523,0.002678,0.000431,0.576946
3076000,0.0324,0.013523,0.002678,0.000431,0.610911
3077000,0.0324,0.013523,0.002678,0.000431,0.563078
3078000,0.0324,0.013523,0.002678,0.000431,0.524998
3079000,0.0324,0.013523,0.002678,0.000431,0.488565
3080000,0.0324,0.013523,0.002678,0.000431,0.606798
3081000,0.0324,0.013523,0.002678,0.000431,0.601744
3082000,0.0324,0.013523,0.002678,0.000431,0.486919
3083000,0.0324,0.013523,0.002678,0.000431,0.536986
3084000,0.0324,0.013523,0.002678,0.000431,0.560139
3085000,0.0324,0.013523,0.002678,0.000431,0.552147
3086000,0.0324,0.013523,0.002678,0.000431,0.529347
3087000,0.0324,0.013523,0.002678,0.000431,0.596691
3088000,0.0324,0.013523,0.002678,0.000431,0.540277
3089000,0.0324,0.013523,0.002678,0.000431,0.528054
3090000,0.0324,0.013523,0.002678,0.000431,0.504666
3091000,0.0324,0.013523,0.002678,0.000431,0.434384
3092000,0.0324,0.013523,0.002678,0.000431,0.458830
3093000,0.0324,0.013523,0.002678,0.000431,0.519827
3094000,0.0324,0.013523,0.002678,0.000431,0.607973
3095000,0.0324,0.013523,0.002678,0.000431,0.604682
3096000,0.0324,0.013523,0.002678,0.000431,0.576946
3097000,0.0324,0.013523,0.002678,0.000431,0.555086
3098000,0.0324,0.013523,0.002678,0.000431,0.613967
3099000,0.0324,0.013523,0.002678,0.000431,0.592342
3100000,0.0324,0.013523,0.002678,0.000431,0.668970
3101000,0.0324,0.013523,0.002678,0.000431,0.760525
3102000,0.0324,0.013523,0.002678,0.000431,0.788732
3103000,0.0324,0.013523,0.002678,0.000431,0.725501
3104000,0.0324,0.013523,0.002678,0.000431,0.775568
3105000,0.0324,0.013523,0.002678,0.000431,0.807301
3106000,0.0324,0.013523,0.002678,0.000431,0.782855
3107000,0.0324,0.013523,0.002678,0.000431,0.853960
3108000,0.0324,0.013523,0.002678,0.000431,0.763463
3109000,0.0324,0.013523,0.002678,0.000431,0.779094
3110000,0.0324,0.013523,0.002678,0.000431,0.921068
3111000,0.0324,0.013523,0.002678,0.000431,0.800484
3112000,0.0324,0.013523,0.002678,0.000431,0.729732
3113000,0.0324,0.013523,0.002678,0.000431,0.693534
3114000,0.0324,0.013523,0.002678,0.000431,0.638766
3115000,0.0324,0.013523,0.002678,0.000431,0.613497
3116000,0.0324,0.013523,0.002678,0.000431,0.657218
3117000,0.0324,0.013523,0.002678,0.000431,0.816233
3118000,0.0324,0.013523,0.002678,0.000431,0.756411
3119000,0.0324,0.013523,0.002678,0.000431,0.721623
3120000,0.0324,0.013523,0.002678,0.000431,0.765226
3121000,0.0324,0.013523,0.002678,0.000431,0.820112
3122000,0.0324,0.013523,0.002678,0.000431,0.840327
3123000,0.0324,0.013523,0.002678,0.000431,0.831864
3124000,0.0324,0.013523,0.002678,0.000431,0.734551
3125000,0.0324,0.013523,0.002678,0.000431,0.705052
3126000,0.0324,0.013523,0.002678,0.000431,0.703641
3127000,0.0324,0.013523,0.002678,0.000431,0.732906
3128000,0.0324,0.013523,0.002678,0.000431,0.676962
3129000,0.0324,0.013523,0.002678,0.000431,0.613967
3130000,0.0324,0.013523,0.002678,0.000431,0.592225
3131000,0.0324,0.013523,0.002678,0.000431,0.533695
3132000,0.0324,0.013523,0.002678,0.000431,0.523588
3133000,0.0324,0.013523,0.002678,0.000431,0.503138
3134000,0.0324,0.013523,0.002678,0.000431,0.498319
3135000,0.0324,0.013523,0.002678,0.000431,0.445902
3136000,0.0324,0.013523,0.002678,0.000431,0.473991
3137000,0.0324,0.013523,0.002678,0.000431,0.483158
3138000,0.0324,0.013523,0.002678,0.000431,0.554851
3139000,0.0324,0.013523,0.002678,0.000431,0.503138
3140000,0.0324,0.013523,0.002678,0.000431,0.542040
3141000,0.0324,0.013523,0.002678,0.000431,0.542275
3142000,0.0324,0.013523,0.002678,0.000431,0.568014
3143000,0.0324,0.013523,0.002678,0.000431,0.560962
3144000,0.0324,0.013523,0.002678,0.000431,0.510660
3145000,0.0324,0.013523,0.002678,0.000431,0.532285
3146000,0.0324,0.013523,0.002678,0.000431,0.574948
3147000,0.0324,0.013523,0.002678,0.000431,0.543098
3148000,0.0324,0.013523,0.002678,0.000431,0.540042
3149000,0.0324,0.013523,0.002678,0.000431,0.507017
3150000,0.0324,0.013523,0.002678,0.000431,0.459535
3151000,0.0324,0.013523,0.002678,0.000431,0.480220
3152000,0.0324,0.013523,0.002678,0.000431,0.476929
3153000,0.0324,0.013523,0.002678,0.000431,0.454481
3154000,0.0324,0.013523,0.002678,0.000431,0.496439
3155000,0.0324,0.013523,0.002678,0.000431,0.399478
3156000,0.0324,0.013523,0.002678,0.000431,0.414992
3157000,0.0324,0.013523,0.002678,0.000431,0.523000
3158000,0.0324,0.013523,0.002678,0.000431,0.422984
3159000,0.0324,0.013523,0.002678,0.000431,0.408528
3160000,0.0324,0.013523,0.002678,0.000431,0.500082
3161000,0.0324,0.013523,0.002678,0.000431,0.514538
3162000,0.0324,0.013523,0.002678,0.000431,0.599864
3163000,0.0324,0.013523,0.002678,0.000431,0.656983
3164000,0.0324,0.013523,0.002678,0.000431,0.674024
3165000,0.0324,0.013523,0.002678,0.000431,0.785911
3166000,0.0324,0.013523,0.002678,0.000431,0.767577
3167000,0.0324,0.013523,0.002678,0.000431,0.737842
3168000,0.0324,0.013523,0.002678,0.000431,0.806008
3169000,0.0324,0.013523,0.002678,0.000431,0.802835
3170000,0.0324,0.013523,0.002678,0.000431,0.746421
3171000,0.0324,0.013523,0.002678,0.000431,0.718097
3172000,0.0324,0.013523,0.002678,0.000431,0.686952
3173000,0.0324,0.013523,0.002678,0.000431,0.633124
3174000,0.0324,0.013523,0.002678,0.000431,0.595633
3175000,0.0324,0.013523,0.002678,0.000431,0.703406
3176000,0.0324,0.013523,0.002678,0.000431,0.724326
3177000,0.0324,0.013523,0.002678,0.000431,0.599041
3178000,0.0324,0.013523,0.002678,0.000431,0.564723
3179000,0.0324,0.013523,0.002678,0.000431,0.712808
3180000,0.0324,0.013523,0.002678,0.000431,0.711751
3181000,0.0324,0.013523,0.002678,0.000431,0.740075
3182000,0.0324,0.013523,0.002678,0.000431,0.739370
3183000,0.0324,0.013523,0.002678,0.000431,0.713866
3184000,0.0324,0.013523,0.002678,0.000431,0.689420
3185000,0.0324,0.013523,0.002678,0.000431,0.757939
3186000,0.0324,0.013523,0.002678,0.000431,0.731848
3187000,0.0324,0.013523,0.002678,0.000431,0.693181
3188000,0.0324,0.013523,0.002678,0.000431,0.680253
3189000,0.0324,0.013523,0.002678,0.000431,0.667560
3190000,0.0324,0.013523,0.002678,0.000431,0.645230
3191000,0.0324,0.013523,0.002678,0.000431,0.657218
3192000,0.0324,0.013523,0.002678,0.000431,0.609031
3193000,0.0324,0.013523,0.002678,0.000431,0.570482
3194000,0.0324,0.013523,0.002678,0.000431,0.496086
3195000,0.0324,0.013523,0.002678,0.000431,0.530640
3196000,0.0324,0.013523,0.002678,0.000431,0.559787
3197000,0.0324,0.013523,0.002678,0.000431,0.645347
3198000,0.0324,0.013523,0.002678,0.000431,0.656160
3199000,0.0324,0.013523,0.002678,0.000431,0.533108
3200000,0.0324,0.013523,0.002678,0.000431,0.515008
3201000,0.0324,0.013523,0.002678,0.000431,0.599041
3202000,0.0324,0.013523,0.002678,0.000431,0.689068
3203000,0.0324,0.013523,0.002678,0.000431,0.646405
3204000,0.0324,0.013523,0.002678,0.000431,0.567309
3205000,0.0324,0.013523,0.002678,0.000431,0.526291
3206000,0.0324,0.013523,0.002678,0.000431,0.556143
3207000,0.0324,0.013523,0.002678,0.000431,0.575888
3208000,0.0324,0.013523,0.002678,0.000431,0.502080
3209000,0.0324,0.013523,0.002678,0.000431,0.458948
3210000,0.0324,0.013523,0.002678,0.000431,0.503138
3211000,0.0324,0.013523,0.002678,0.000431,0.513716
3212000,0.0324,0.013523,0.002678,0.000431,0.548269
3213000,0.0324,0.013523,0.002678,0.000431,0.609384
3214000,0.0324,0.013523,0.002678,0.000431,0.597748
3215000,0.0324,0.013523,0.002678,0.000431,0.626073
3216000,0.0324,0.013523,0.002678,0.000431,0.738782
3217000,0.0324,0.013523,0.002678,0.000431,0.702819
3218000,0.0324,0.013523,0.002678,0.000431,0.609619
3219000,0.0324,0.013523,0.002678,0.000431,0.600687
3220000,0.0324,0.013523,0.002678,0.000431,0.613145
3221000,0.0324,0.013523,0.002678,0.000431,0.648403
3222000,0.0324,0.013523,0.002678,0.000431,0.723268
3223000,0.0324,0.013523,0.002678,0.000431,0.623957
3224000,0.0324,0.013523,0.002678,0.000431,0.556613
3225000,0.0324,0.013523,0.002678,0.000431,0.769457
3226000,0.0324,0.013523,0.002678,0.000431,0.748302
3227000,0.0324,0.013523,0.002678,0.000431,0.658628
3228000,0.0324,0.013523,0.002678,0.000431,0.649108
3229000,0.0324,0.013523,0.002678,0.000431,0.606798
3230000,0.0324,0.013523,0.002678,0.000431,0.623487
3231000,0.0324,0.013523,0.002678,0.000431,0.628658
3232000,0.0324,0.013523,0.002678,0.000431,0.532990
3233000,0.0324,0.013523,0.002678,0.000431,0.489152
3234000,0.0324,0.013523,0.002678,0.000431,0.477282
3235000,0.0324,0.013523,0.002678,0.000431,0.439085
3236000,0.0324,0.013523,0.002678,0.000431,0.422279
3237000,0.0324,0.013523,0.002678,0.000431,0.433444
3238000,0.0324,0.013523,0.002678,0.000431,0.387020
3239000,0.0324,0.013523,0.002678,0.000431,0.413699
3240000,0.0324,0.013523,0.002678,0.000431,0.434737
3241000,0.0324,0.013523,0.002678,0.000431,0.365160
3242000,0.0324,0.013523,0.002678,0.000431,0.412289
3243000,0.0324,0.013523,0.002678,0.000431,0.509250
3244000,0.0324,0.013523,0.002678,0.000431,0.550855
3245000,0.0324,0.013523,0.002678,0.000431,0.507252
3246000,0.0324,0.013523,0.002678,0.000431,0.566838
3247000,0.0324,0.013523,0.002678,0.000431,0.795313
3248000,0.0324,0.013523,0.002678,0.000431,0.717039
3249000,0.0324,0.013523,0.002678,0.000431,0.588934
3250000,0.0324,0.013523,0.002678,0.000431,0.736432
3251000,0.0324,0.013523,0.002678,0.000431,0.747362
3252000,0.0324,0.013523,0.002678,0.000431,0.795783
3253000,0.0324,0.013523,0.002678,0.000431,0.792728
3254000,0.0324,0.013523,0.002678,0.000431,0.662624
3255000,0.0324,0.013523,0.002678,0.000431,0.669205
3256000,0.0324,0.013523,0.002678,0.000431,0.654162
3257000,0.0324,0.013523,0.002678,0.000431,0.681781
3258000,0.0324,0.013523,0.002678,0.000431,0.609031
3259000,0.0324,0.013523,0.002678,0.000431,0.558611
3260000,0.0324,0.013523,0.002678,0.000431,0.539807
3261000,0.0324,0.013523,0.002678,0.000431,0.499142
3262000,0.0324,0.013523,0.002678,0.000431,0.523118
3263000,0.0324,0.013523,0.002678,0.000431,0.491738
3264000,0.0324,0.013523,0.002678,0.000431,0.458125
3265000,0.0324,0.013523,0.002678,0.000431,0.491150
3266000,0.0324,0.013523,0.002678,0.000431,0.430976
3267000,0.0324,0.013523,0.002678,0.000431,0.445432
3268000,0.0324,0.013523,0.002678,0.000431,0.502198
3269000,0.0324,0.013523,0.002678,0.000431,0.479280
3270000,0.0324,0.013523,0.002678,0.000431,0.485039
3271000,0.0324,0.013523,0.002678,0.000431,0.515126
3272000,0.0324,0.013523,0.002678,0.000431,0.571187
3273000,0.0324,0.013523,0.002678,0.000431,0.615143
3274000,0.0324,0.013523,0.002678,0.000431,0.608443
3275000,0.0324,0.013523,0.002678,0.000431,0.651224
3276000,0.0324,0.013523,0.002678,0.000431,0.738312
3277000,0.0324,0.013523,0.002678,0.000431,0.685072
3278000,0.0324,0.013523,0.002678,0.000431,0.670851
3279000,0.0324,0.013523,0.002678,0.000431,0.646993
3280000,0.0324,0.013523,0.002678,0.000431,0.633124
3281000,0.0324,0.013523,0.002678,0.000431,0.570834
3282000,0.0324,0.013523,0.002678,0.000431,0.571540
3283000,0.0324,0.013523,0.002678,0.000431,0.649696
3284000,0.0324,0.013523,0.002678,0.000431,0.701996
3285000,0.0324,0.013523,0.002678,0.000431,0.721388
3286000,0.0324,0.013523,0.002678,0.000431,0.655102
3287000,0.0324,0.013523,0.002678,0.000431,0.599159
3288000,0.0324,0.013523,0.002678,0.000431,0.648521
3289000,0.0324,0.013523,0.002678,0.000431,0.651694
3290000,0.0324,0.013523,0.002678,0.000431,0.602685
3291000,0.0324,0.013523,0.002678,0.000431,0.577886
3292000,0.0324,0.013523,0.002678,0.000431,0.643349
3293000,0.0324,0.013523,0.002678,0.000431,0.705287
3294000,0.0324,0.013523,0.002678,0.000431,0.690713
3295000,0.0324,0.013523,0.002678,0.000431,0.617140
3296000,0.0324,0.013523,0.002678,0.000431,0.683074
3297000,0.0324,0.013523,0.002678,0.000431,0.686952
3298000,0.0324,0.013523,0.002678,0.000431,0.674964
3299000,0.0324,0.013523,0.002678,0.000431,0.726912
3300000,0.0324,0.013523,0.002678,0.000431,0.735374
3301000,0.0324,0.013523,0.002678,0.000431,0.765344
3302000,0.0324,0.013523,0.002678,0.000431,0.690243
3303000,0.0324,0.013523,0.002678,0.000431,0.713396
3304000,0.0324,0.013523,0.002678,0.000431,0.742661
3305000,0.0324,0.013523,0.002678,0.000431,0.794608
3306000,0.0324,0.013523,0.002678,0.000431,0.785911
3307000,0.0324,0.013523,0.002678,0.000431,0.604800
3308000,0.0324,0.013523,0.002678,0.000431,0.614320
3309000,0.0324,0.013523,0.002678,0.000431,0.630656
3310000,0.0324,0.013523,0.002678,0.000431,0.610324
3311000,0.0324,0.013523,0.002678,0.000431,0.678608
3312000,0.0324,0.013523,0.002678,0.000431,0.628306
3313000,0.0324,0.013523,0.002678,0.000431,0.528172
3314000,0.0324,0.013523,0.002678,0.000431,0.583057
3315000,0.0324,0.013523,0.002678,0.000431,0.692829
3316000,0.0324,0.013523,0.002678,0.000431,0.619021
3317000,0.0324,0.013523,0.002678,0.000431,0.529582
3318000,0.0324,0.013523,0.002678,0.000431,0.582000
3319000,0.0324,0.013523,0.002678,0.000431,0.594222
3320000,0.0324,0.013523,0.002678,0.000431,0.521590
3321000,0.0324,0.013523,0.002678,0.000431,0.494676
3322000,0.0324,0.013523,0.002678,0.000431,0.424629
3323000,0.0324,0.013523,0.002678,0.000431,0.410526
3324000,0.0324,0.013523,0.002678,0.000431,0.426980
3325000,0.0324,0.013523,0.002678,0.000431,0.377265
3326000,0.0324,0.013523,0.002678,0.000431,0.326728
3327000,0.0324,0.013523,0.002678,0.000431,0.385375
3328000,0.0324,0.013523,0.002678,0.000431,0.348706
3329000,0.0324,0.013523,0.002678,0.000431,0.304751
3330000,0.0324,0.013523,0.002678,0.000431,0.289119
3331000,0.0324,0.013523,0.002678,0.000431,0.312155
3332000,0.0324,0.013523,0.002678,0.000431,0.329784
3333000,0.0324,0.013523,0.002678,0.000431,0.267612
3334000,0.0324,0.013523,0.002678,0.000431,0.296759
3335000,0.0324,0.013523,0.002678,0.000431,0.381967
3336000,0.0324,0.013523,0.002678,0.000431,0.365278
3337000,0.0324,0.013523,0.002678,0.000431,0.469643
3338000,0.0324,0.013523,0.002678,0.000431,0.534283
3339000,0.0324,0.013523,0.002678,0.000431,0.465764
3340000,0.0324,0.013523,0.002678,0.000431,0.541335
3341000,0.0324,0.013523,0.002678,0.000431,0.611147
3342000,0.0324,0.013523,0.002678,0.000431,0.616905
3343000,0.0324,0.013523,0.002678,0.000431,0.686247
3344000,0.0324,0.013523,0.002678,0.000431,0.675199
3345000,0.0324,0.013523,0.002678,0.000431,0.740663
3346000,0.0324,0.013523,0.002678,0.000431,0.787556
3347000,0.0324,0.013523,0.002678,0.000431,0.791082
3348000,0.0324,0.013523,0.002678,0.000431,0.802835
3349000,0.0324,0.013523,0.002678,0.000431,0.787909
3350000,0.0324,0.013523,0.002678,0.000431,0.765461
3351000,0.0324,0.013523,0.002678,0.000431,0.739840
3352000,0.0324,0.013523,0.002678,0.000431,0.624662
3353000,0.0324,0.013523,0.002678,0.000431,0.603272
3354000,0.0324,0.013523,0.002678,0.000431,0.533343
3355000,0.0324,0.013523,0.002678,0.000431,0.538514
3356000,0.0324,0.013523,0.002678,0.000431,0.640999
3357000,0.0324,0.013523,0.002678,0.000431,0.625485
3358000,0.0324,0.013523,0.002678,0.000431,0.575065
3359000,0.0324,0.013523,0.002678,0.000431,0.597631
3360000,0.0324,0.013523,0.002678,0.000431,0.646523
3361000,0.0324,0.013523,0.002678,0.000431,0.623605
3362000,0.0324,0.013523,0.002678,0.000431,0.648991
3363000,0.0324,0.013523,0.002678,0.000431,0.575300
3364000,0.0324,0.013523,0.002678,0.000431,0.590462
3365000,0.0324,0.013523,0.002678,0.000431,0.670381
3366000,0.0324,0.013523,0.002678,0.000431,0.644877
3367000,0.0324,0.013523,0.002678,0.000431,0.640058
3368000,0.0324,0.013523,0.002678,0.000431,0.585290
3369000,0.0324,0.013523,0.002678,0.000431,0.597278
3370000,0.0324,0.013523,0.002678,0.000431,0.618786
3371000,0.0324,0.013523,0.002678,0.000431,0.670968
3372000,0.0324,0.013523,0.002678,0.000431,0.672731
3373000,0.0324,0.013523,0.002678,0.000431,0.582822
3374000,0.0324,0.013523,0.002678,0.000431,0.636180
3375000,0.0324,0.013523,0.002678,0.000431,0.593165
3376000,0.0324,0.013523,0.002678,0.000431,0.552147
3377000,0.0324,0.013523,0.002678,0.000431,0.568366
3378000,0.0324,0.013523,0.002678,0.000431,0.540160
3379000,0.0324,0.013523,0.002678,0.000431,0.525233
3380000,0.0324,0.013523,0.002678,0.000431,0.483628
3381000,0.0324,0.013523,0.002678,0.000431,0.466822
3382000,0.0324,0.013523,0.002678,0.000431,0.501258
3383000,0.0324,0.013523,0.002678,0.000431,0.511013
3384000,0.0324,0.013523,0.002678,0.000431,0.432856
3385000,0.0324,0.013523,0.002678,0.000431,0.404414
3386000,0.0324,0.013523,0.002678,0.000431,0.407823
3387000,0.0324,0.013523,0.002678,0.000431,0.490445
3388000,0.0324,0.013523,0.002678,0.000431,0.562490
3389000,0.0324,0.013523,0.002678,0.000431,0.483158
3390000,0.0324,0.013523,0.002678,0.000431,0.469408
3391000,0.0324,0.013523,0.002678,0.000431,0.468115
3392000,0.0324,0.013523,0.002678,0.000431,0.512658
3393000,0.0324,0.013523,0.002678,0.000431,0.605270
3394000,0.0324,0.013523,0.002678,0.000431,0.653457
3395000,0.0324,0.013523,0.002678,0.000431,0.639001
3396000,0.0324,0.013523,0.002678,0.000431,0.632654
3397000,0.0324,0.013523,0.002678,0.000431,0.691536
3398000,0.0324,0.013523,0.002678,0.000431,0.806949
3399000,0.0324,0.013523,0.002678,0.000431,0.871354
3400000,0.0324,0.013523,0.002678,0.000431,0.742308
3401000,0.0324,0.013523,0.002678,0.000431,0.702583
3402000,0.0324,0.013523,0.002678,0.000431,0.849376
3403000,0.0324,0.013523,0.002678,0.000431,0.755941
3404000,0.0324,0.013523,0.002678,0.000431,0.640529
3405000,0.0324,0.013523,0.002678,0.000431,0.629481
3406000,0.0324,0.013523,0.002678,0.000431,0.713396
3407000,0.0324,0.013523,0.002678,0.000431,0.620196
3408000,0.0324,0.013523,0.002678,0.000431,0.522060
3409000,0.0324,0.013523,0.002678,0.000431,0.518299
3410000,0.0324,0.013523,0.002678,0.000431,0.534518
3411000,0.0324,0.013523,0.002678,0.000431,0.544155
3412000,0.0324,0.013523,0.002678,0.000431,0.491738
3413000,0.0324,0.013523,0.002678,0.000431,0.425805
3414000,0.0324,0.013523,0.002678,0.000431,0.434619
3415000,0.0324,0.013523,0.002678,0.000431,0.477047
3416000,0.0324,0.013523,0.002678,0.000431,0.661801
3417000,0.0324,0.013523,0.002678,0.000431,0.588111
3418000,0.0324,0.013523,0.002678,0.000431,0.556496
3419000,0.0324,0.013523,0.002678,0.000431,0.590462
3420000,0.0324,0.013523,0.002678,0.000431,0.636768
3421000,0.0324,0.013523,0.002678,0.000431,0.634417
3422000,0.0324,0.013523,0.002678,0.000431,0.595868
3423000,0.0324,0.013523,0.002678,0.000431,0.735491
3424000,0.0324,0.013523,0.002678,0.000431,0.832922
3425000,0.0324,0.013523,0.002678,0.000431,0.700821
3426000,0.0324,0.013523,0.002678,0.000431,0.703289
3427000,0.0324,0.013523,0.002678,0.000431,0.794961
3428000,0.0324,0.013523,0.002678,0.000431,0.960910
3429000,0.0324,0.013523,0.002678,0.000431,0.895447
3430000,0.0324,0.013523,0.002678,0.000431,0.772043
3431000,0.0324,0.013523,0.002678,0.000431,0.847848
3432000,0.0324,0.013523,0.002678,0.000431,0.779917
3433000,0.0324,0.013523,0.002678,0.000431,0.774746
3434000,0.0324,0.013523,0.002678,0.000431,0.817996
3435000,0.0324,0.013523,0.002678,0.000431,0.791905
3436000,0.0324,0.013523,0.002678,0.000431,0.783325
3437000,0.0324,0.013523,0.002678,0.000431,0.757587
3438000,0.0324,0.013523,0.002678,0.000431,0.690713
3439000,0.0324,0.013523,0.002678,0.000431,0.695767
3440000,0.0324,0.013523,0.002678,0.000431,0.727499
3441000,0.0324,0.013523,0.002678,0.000431,0.730203
3442000,0.0324,0.013523,0.002678,0.000431,0.642409
3443000,0.0324,0.013523,0.002678,0.000431,0.634065
3444000,0.0324,0.013523,0.002678,0.000431,0.755119
3445000,0.0324,0.013523,0.002678,0.000431,0.668970
3446000,0.0324,0.013523,0.002678,0.000431,0.672026
3447000,0.0324,0.013523,0.002678,0.000431,0.796724
3448000,0.0324,0.013523,0.002678,0.000431,0.783678
3449000,0.0324,0.013523,0.002678,0.000431,0.733493
3450000,0.0324,0.013523,0.002678,0.000431,0.695649
3451000,0.0324,0.013523,0.002678,0.000431,0.635475
3452000,0.0324,0.013523,0.002678,0.000431,0.645817
3453000,0.0324,0.013523,0.002678,0.000431,0.672614
3454000,0.0324,0.013523,0.002678,0.000431,0.643584
3455000,0.0324,0.013523,0.002678,0.000431,0.668030
3456000,0.0324,0.013523,0.002678,0.000431,0.589169
3457000,0.0324,0.013523,0.002678,0.000431,0.620196
3458000,0.0324,0.013523,0.002678,0.000431,0.628776
3459000,0.0324,0.013523,0.002678,0.000431,0.633359
3460000,0.0324,0.013523,0.002678,0.000431,0.635592
3461000,0.0324,0.013523,0.002678,0.000431,0.689068
3462000,0.0324,0.013523,0.002678,0.000431,0.558729
3463000,0.0324,0.013523,0.002678,0.000431,0.555321
3464000,0.0324,0.013523,0.002678,0.000431,0.601627
3465000,0.0324,0.013523,0.002678,0.000431,0.537809
3466000,0.0324,0.013523,0.002678,0.000431,0.475637
3467000,0.0324,0.013523,0.002678,0.000431,0.477870
3468000,0.0324,0.013523,0.002678,0.000431,0.453189
3469000,0.0324,0.013523,0.002678,0.000431,0.517947
3470000,0.0324,0.013523,0.002678,0.000431,0.555908
3471000,0.0324,0.013523,0.002678,0.000431,0.532755
3472000,0.0324,0.013523,0.002678,0.000431,0.506782
3473000,0.0324,0.013523,0.002678,0.000431,0.533343
3474000,0.0324,0.013523,0.002678,0.000431,0.519240
3475000,0.0324,0.013523,0.002678,0.000431,0.472463
3476000,0.0324,0.013523,0.002678,0.000431,0.507369
3477000,0.0324,0.013523,0.002678,0.000431,0.636885
3478000,0.0324,0.013523,0.002678,0.000431,0.662624
3479000,0.0324,0.013523,0.002678,0.000431,0.717274
3480000,0.0324,0.013523,0.002678,0.000431,0.673907
3481000,0.0324,0.013523,0.002678,0.000431,0.743836
3482000,0.0324,0.013523,0.002678,0.000431,0.767694
3483000,0.0324,0.013523,0.002678,0.000431,0.774158
3484000,0.0324,0.013523,0.002678,0.000431,0.854195
3485000,0.0324,0.013523,0.002678,0.000431,0.825871
3486000,0.0324,0.013523,0.002678,0.000431,0.867005
3487000,0.0324,0.013523,0.002678,0.000431,0.877348
3488000,0.0324,0.013523,0.002678,0.000431,0.742543
3489000,0.0324,0.013523,0.002678,0.000431,0.784736
3490000,0.0324,0.013523,0.002678,0.000431,0.887455
3491000,0.0324,0.013523,0.002678,0.000431,0.870766
3492000,0.0324,0.013523,0.002678,0.000431,0.744541
3493000,0.0324,0.013523,0.002678,0.000431,0.762875
3494000,0.0324,0.013523,0.002678,0.000431,0.822580
3495000,0.0324,0.013523,0.002678,0.000431,0.873822
3496000,0.0324,0.013523,0.002678,0.000431,0.882989
3497000,0.0324,0.013523,0.002678,0.000431,0.837623
3498000,0.0324,0.013523,0.002678,0.000431,0.794608
3499000,0.0324,0.013523,0.002678,0.000431,0.805421
3500000,0.0324,0.013523,0.002678,0.000431,0.826223
3501000,0.0324,0.013523,0.002678,0.000431,0.776509
3502000,0.0324,0.013523,0.002678,0.000431,0.714454
3503000,0.0324,0.013523,0.002678,0.000431,0.647815
3504000,0.0324,0.013523,0.002678,0.000431,0.665915
3505000,0.0324,0.013523,0.002678,0.000431,0.673084
3506000,0.0324,0.013523,0.002678,0.000431,0.696237
3507000,0.0324,0.013523,0.002678,0.000431,0.605740
3508000,0.0324,0.013523,0.002678,0.000431,0.523118
3509000,0.0324,0.013523,0.002678,0.000431,0.547094
3510000,0.0324,0.013523,0.002678,0.000431,0.502786
3511000,0.0324,0.013523,0.002678,0.000431,0.452131
3512000,0.0324,0.013523,0.002678,0.000431,0.438028
3513000,0.0324,0.013523,0.002678,0.000431,0.479515
3514000,0.0324,0.013523,0.002678,0.000431,0.522883
3515000,0.0324,0.013523,0.002678,0.000431,0.451778
3516000,0.0324,0.013523,0.002678,0.000431,0.430858
3517000,0.0324,0.013523,0.002678,0.000431,0.521473
3518000,0.0324,0.013523,0.002678,0.000431,0.600922
3519000,0.0324,0.013523,0.002678,0.000431,0.534401
3520000,0.0324,0.013523,0.002678,0.000431,0.461533
3521000,0.0324,0.013523,0.002678,0.000431,0.498555
3522000,0.0324,0.013523,0.002678,0.000431,0.523000
3523000,0.0324,0.013523,0.002678,0.000431,0.473286
3524000,0.0324,0.013523,0.002678,0.000431,0.426745
3525000,0.0324,0.013523,0.002678,0.000431,0.403592
3526000,0.0324,0.013523,0.002678,0.000431,0.398891
3527000,0.0324,0.013523,0.002678,0.000431,0.465647
3528000,0.0324,0.013523,0.002678,0.000431,0.454481
3529000,0.0324,0.013523,0.002678,0.000431,0.365865
3530000,0.0324,0.013523,0.002678,0.000431,0.452248
3531000,0.0324,0.013523,0.002678,0.000431,0.542980
3532000,0.0324,0.013523,0.002678,0.000431,0.538867
3533000,0.0324,0.013523,0.002678,0.000431,0.515126
3534000,0.0324,0.013523,0.002678,0.000431,0.507252
3535000,0.0324,0.013523,0.002678,0.000431,0.613497
3536000,0.0324,0.013523,0.002678,0.000431,0.600687
3537000,0.0324,0.013523,0.002678,0.000431,0.768164
3538000,0.0324,0.013523,0.002678,0.000431,0.816703
3539000,0.0324,0.013523,0.002678,0.000431,0.674024
3540000,0.0324,0.013523,0.002678,0.000431,0.771220
3541000,0.0324,0.013523,0.002678,0.000431,0.782973
3542000,0.0324,0.013523,0.002678,0.000431,0.741015
3543000,0.0324,0.013523,0.002678,0.000431,0.775686
3544000,0.0324,0.013523,0.002678,0.000431,0.836095
3545000,0.0324,0.013523,0.002678,0.000431,0.758527
3546000,0.0324,0.013523,0.002678,0.000431,0.661096
3547000,0.0324,0.013523,0.002678,0.000431,0.653927
3548000,0.0324,0.013523,0.002678,0.000431,0.685659
3549000,0.0324,0.013523,0.002678,0.000431,0.620901
3550000,0.0324,0.013523,0.002678,0.000431,0.567073
3551000,0.0324,0.013523,0.002678,0.000431,0.557436
3552000,0.0324,0.013523,0.002678,0.000431,0.514656
3553000,0.0324,0.013523,0.002678,0.000431,0.481043
3554000,0.0324,0.013523,0.002678,0.000431,0.556496
3555000,0.0324,0.013523,0.002678,0.000431,0.592107
3556000,0.0324,0.013523,0.002678,0.000431,0.515714
3557000,0.0324,0.013523,0.002678,0.000431,0.601862
3558000,0.0324,0.013523,0.002678,0.000431,0.574713
3559000,0.0324,0.013523,0.002678,0.000431,0.603625
3560000,0.0324,0.013523,0.002678,0.000431,0.659568
3561000,0.0324,0.013523,0.002678,0.000431,0.674494
3562000,0.0324,0.013523,0.002678,0.000431,0.664739
3563000,0.0324,0.013523,0.002678,0.000431,0.670851
3564000,0.0324,0.013523,0.002678,0.000431,0.610441
3565000,0.0324,0.013523,0.002678,0.000431,0.603390
3566000,0.0324,0.013523,0.002678,0.000431,0.644760
3567000,0.0324,0.013523,0.002678,0.000431,0.793785
3568000,0.0324,0.013523,0.002678,0.000431,0.716452
3569000,0.0324,0.013523,0.002678,0.000431,0.645582
3570000,0.0324,0.013523,0.002678,0.000431,0.716452
3571000,0.0324,0.013523,0.002678,0.000431,0.845850
3572000,0.0324,0.013523,0.002678,0.000431,0.913429
3573000,0.0324,0.013523,0.002678,0.000431,0.808711
3574000,0.0324,0.013523,0.002678,0.000431,0.790259
3575000,0.0324,0.013523,0.002678,0.000431,0.841384
3576000,0.0324,0.013523,0.002678,0.000431,0.839151
3577000,0.0324,0.013523,0.002678,0.000431,0.777096
3578000,0.0324,0.013523,0.002678,0.000431,0.733023
3579000,0.0324,0.013523,0.002678,0.000431,0.821992
3580000,0.0324,0.013523,0.002678,0.000431,0.771102
3581000,0.0324,0.013523,0.002678,0.000431,0.652869
3582000,0.0324,0.013523,0.002678,0.000431,0.635005
3583000,0.0324,0.013523,0.002678,0.000431,0.619021
3584000,0.0324,0.013523,0.002678,0.000431,0.649108
3585000,0.0324,0.013523,0.002678,0.000431,0.562607
3586000,0.0324,0.013523,0.002678,0.000431,0.488212
3587000,0.0324,0.013523,0.002678,0.000431,0.472346
3588000,0.0324,0.013523,0.002678,0.000431,0.437792
3589000,0.0324,0.013523,0.002678,0.000431,0.507017
3590000,0.0324,0.013523,0.002678,0.000431,0.478457
3591000,0.0324,0.013523,0.002678,0.000431,0.390311
3592000,0.0324,0.013523,0.002678,0.000431,0.393837
3593000,0.0324,0.013523,0.002678,0.000431,0.384787
3594000,0.0324,0.013523,0.002678,0.000431,0.364925
3595000,0.0324,0.013523,0.002678,0.000431,0.362692
3596000,0.0324,0.013523,0.002678,0.000431,0.428625
3597000,0.0324,0.013523,0.002678,0.000431,0.391369
3598000,0.0324,0.013523,0.002678,0.000431,0.360341
3599000,0.0324,0.013523,0.002678,0.000431,0.474109
3600000,0.0324,0.013523,0.002678,0.000431,0.421809
3601000,0.0324,0.013523,0.002678,0.000431,0.434384
3602000,0.0324,0.013523,0.002678,0.000431,0.454481
3603000,0.0324,0.013523,0.002678,0.000431,0.471170
3604000,0.0324,0.013523,0.002678,0.000431,0.483746
3605000,0.0324,0.013523,0.002678,0.000431,0.753826
3606000,0.0324,0.013523,0.002678,0.000431,0.862187
3607000,0.0324,0.013523,0.002678,0.000431,0.745364
3608000,0.0324,0.013523,0.002678,0.000431,0.776861
3609000,0.0324,0.013523,0.002678,0.000431,0.842560
3610000,0.0324,0.013523,0.002678,0.000431,0.821404
3611000,0.0324,0.013523,0.002678,0.000431,0.834568
3612000,0.0324,0.013523,0.002678,0.000431,0.872764
3613000,0.0324,0.013523,0.002678,0.000431,0.899913
3614000,0.0324,0.013523,0.002678,0.000431,0.833510
3615000,0.0324,0.013523,0.002678,0.000431,0.871001
3616000,0.0324,0.013523,0.002678,0.000431,0.902734
3617000,0.0324,0.013523,0.002678,0.000431,0.791082
3618000,0.0324,0.013523,0.002678,0.000431,0.757822
3619000,0.0324,0.013523,0.002678,0.000431,0.837036
3620000,0.0324,0.013523,0.002678,0.000431,0.861599
3621000,0.0324,0.013523,0.002678,0.000431,0.782385
3622000,0.0324,0.013523,0.002678,0.000431,0.731260
3623000,0.0324,0.013523,0.002678,0.000431,0.794843
3624000,0.0324,0.013523,0.002678,0.000431,0.717510
3625000,0.0324,0.013523,0.002678,0.000431,0.702348
3626000,0.0324,0.013523,0.002678,0.000431,0.822932
3627000,0.0324,0.013523,0.002678,0.000431,0.821287
3628000,0.0324,0.013523,0.002678,0.000431,0.761230
3629000,0.0324,0.013523,0.002678,0.000431,0.792845
3630000,0.0324,0.013523,0.002678,0.000431,0.775686
3631000,0.0324,0.013523,0.002678,0.000431,0.737254
3632000,0.0324,0.013523,0.002678,0.000431,0.711986
3633000,0.0324,0.013523,0.002678,0.000431,0.672614
3634000,0.0324,0.013523,0.002678,0.000431,0.656865
3635000,0.0324,0.013523,0.002678,0.000431,0.726794
3636000,0.0324,0.013523,0.002678,0.000431,0.762053
3637000,0.0324,0.013523,0.002678,0.000431,0.732318
3638000,0.0324,0.013523,0.002678,0.000431,0.728557
3639000,0.0324,0.013523,0.002678,0.000431,0.695532
3640000,0.0324,0.013523,0.002678,0.000431,0.761348
3641000,0.0324,0.013523,0.002678,0.000431,0.749595
3642000,0.0324,0.013523,0.002678,0.000431,0.854195
3643000,0.0324,0.013523,0.002678,0.000431,0.806949
3644000,0.0324,0.013523,0.002678,0.000431,0.675552
3645000,0.0324,0.013523,0.002678,0.000431,0.736314
3646000,0.0324,0.013523,0.002678,0.000431,0.772513
3647000,0.0324,0.013523,0.002678,0.000431,0.722211
3648000,0.0324,0.013523,0.002678,0.000431,0.692476
3649000,0.0324,0.013523,0.002678,0.000431,0.682721
3650000,0.0324,0.013523,0.002678,0.000431,0.630774
3651000,0.0324,0.013523,0.002678,0.000431,0.579767
3652000,0.0324,0.013523,0.002678,0.000431,0.575300
3653000,0.0324,0.013523,0.002678,0.000431,0.622312
3654000,0.0324,0.013523,0.002678,0.000431,0.570717
3655000,0.0324,0.013523,0.002678,0.000431,0.525233
3656000,0.0324,0.013523,0.002678,0.000431,0.491620
3657000,0.0324,0.013523,0.002678,0.000431,0.520297
3658000,0.0324,0.013523,0.002678,0.000431,0.694944
3659000,0.0324,0.013523,0.002678,0.000431,0.692594
3660000,0.0324,0.013523,0.002678,0.000431,0.690948
3661000,0.0324,0.013523,0.002678,0.000431,0.650283
3662000,0.0324,0.013523,0.002678,0.000431,0.692946
3663000,0.0324,0.013523,0.002678,0.000431,0.759820
3664000,0.0324,0.013523,0.002678,0.000431,0.745834
3665000,0.0324,0.013523,0.002678,0.000431,0.704699
3666000,0.0324,0.013523,0.002678,0.000431,0.674729
3667000,0.0324,0.013523,0.002678,0.000431,0.712691
3668000,0.0324,0.013523,0.002678,0.000431,0.755706
3669000,0.0324,0.013523,0.002678,0.000431,0.806361
3670000,0.0324,0.013523,0.002678,0.000431,0.846673
3671000,0.0324,0.013523,0.002678,0.000431,0.780857
3672000,0.0324,0.013523,0.002678,0.000431,0.766166
3673000,0.0324,0.013523,0.002678,0.000431,0.752886
3674000,0.0324,0.013523,0.002678,0.000431,0.738900
3675000,0.0324,0.013523,0.002678,0.000431,0.746657
3676000,0.0324,0.013523,0.002678,0.000431,0.691888
3677000,0.0324,0.013523,0.002678,0.000431,0.723974
3678000,0.0324,0.013523,0.002678,0.000431,0.767459
3679000,0.0324,0.013523,0.002678,0.000431,0.636415
3680000,0.0324,0.013523,0.002678,0.000431,0.588581
3681000,0.0324,0.013523,0.002678,0.000431,0.685659
3682000,0.0324,0.013523,0.002678,0.000431,0.662036
3683000,0.0324,0.013523,0.002678,0.000431,0.652869
3684000,0.0324,0.013523,0.002678,0.000431,0.671909
3685000,0.0324,0.013523,0.002678,0.000431,0.581882
3686000,0.0324,0.013523,0.002678,0.000431,0.608914
3687000,0.0324,0.013523,0.002678,0.000431,0.688480
3688000,0.0324,0.013523,0.002678,0.000431,0.575418
3689000,0.0324,0.013523,0.002678,0.000431,0.520532
3690000,0.0324,0.013523,0.002678,0.000431,0.540395
3691000,0.0324,0.013523,0.002678,0.000431,0.583175
3692000,0.0324,0.013523,0.002678,0.000431,0.602802
3693000,0.0324,0.013523,0.002678,0.000431,0.537574
3694000,0.0324,0.013523,0.002678,0.000431,0.565428
3695000,0.0324,0.013523,0.002678,0.000431,0.507369
3696000,0.0324,0.013523,0.002678,0.000431,0.463414
3697000,0.0324,0.013523,0.002678,0.000431,0.527584
3698000,0.0324,0.013523,0.002678,0.000431,0.572245
3699000,0.0324,0.013523,0.002678,0.000431,0.477870
3700000,0.0324,0.013523,0.002678,0.000431,0.442846
3701000,0.0324,0.013523,0.002678,0.000431,0.453071
3702000,0.0324,0.013523,0.002678,0.000431,0.456950
3703000,0.0324,0.013523,0.002678,0.000431,0.436147
3704000,0.0324,0.013523,0.002678,0.000431,0.385492
3705000,0.0324,0.013523,0.002678,0.000431,0.478222
3706000,0.0324,0.013523,0.002678,0.000431,0.507487
3707000,0.0324,0.013523,0.002678,0.000431,0.428508
3708000,0.0324,0.013523,0.002678,0.000431,0.465059
3709000,0.0324,0.013523,0.002678,0.000431,0.469290
3710000,0.0324,0.013523,0.002678,0.000431,0.543685
3711000,0.0324,0.013523,0.002678,0.000431,0.626190
3712000,0.0324,0.013523,0.002678,0.000431,0.540512
3713000,0.0324,0.013523,0.002678,0.000431,0.493736
3714000,0.0324,0.013523,0.002678,0.000431,0.546271
3715000,0.0324,0.013523,0.002678,0.000431,0.664152
3716000,0.0324,0.013523,0.002678,0.000431,0.649578
3717000,0.0324,0.013523,0.002678,0.000431,0.564018
3718000,0.0324,0.013523,0.002678,0.000431,0.623957
3719000,0.0324,0.013523,0.002678,0.000431,0.682604
3720000,0.0324,0.013523,0.002678,0.000431,0.663094
3721000,0.0324,0.013523,0.002678,0.000431,0.692829
3722000,0.0324,0.013523,0.002678,0.000431,0.676727
3723000,0.0324,0.013523,0.002678,0.000431,0.675082
3724000,0.0324,0.013523,0.002678,0.000431,0.640529
3725000,0.0324,0.013523,0.002678,0.000431,0.688715
3726000,0.0324,0.013523,0.002678,0.000431,0.695297
3727000,0.0324,0.013523,0.002678,0.000431,0.721506
3728000,0.0324,0.013523,0.002678,0.000431,0.737724
3729000,0.0324,0.013523,0.002678,0.000431,0.699058
3730000,0.0324,0.013523,0.002678,0.000431,0.641351
3731000,0.0324,0.013523,0.002678,0.000431,0.657335
3732000,0.0324,0.013523,0.002678,0.000431,0.608561
3733000,0.0324,0.013523,0.002678,0.000431,0.585173
3734000,0.0324,0.013523,0.002678,0.000431,0.715394
3735000,0.0324,0.013523,0.002678,0.000431,0.756411
3736000,0.0324,0.013523,0.002678,0.000431,0.619256
3737000,0.0324,0.013523,0.002678,0.000431,0.663564
3738000,0.0324,0.013523,0.002678,0.000431,0.658628
3739000,0.0324,0.013523,0.002678,0.000431,0.679430
3740000,0.0324,0.013523,0.002678,0.000431,0.659098
3741000,0.0324,0.013523,0.002678,0.000431,0.588346
3742000,0.0324,0.013523,0.002678,0.000431,0.579531
3743000,0.0324,0.013523,0.002678,0.000431,0.554145
3744000,0.0324,0.013523,0.002678,0.000431,0.556261
3745000,0.0324,0.013523,0.002678,0.000431,0.608443
3746000,0.0324,0.013523,0.002678,0.000431,0.639118
3747000,0.0324,0.013523,0.002678,0.000431,0.589991
3748000,0.0324,0.013523,0.002678,0.000431,0.585408
3749000,0.0324,0.013523,0.002678,0.000431,0.605505
3750000,0.0324,0.013523,0.002678,0.000431,0.628071
3751000,0.0324,0.013523,0.002678,0.000431,0.718920
3752000,0.0324,0.013523,0.002678,0.000431,0.752768
3753000,0.0324,0.013523,0.002678,0.000431,0.690125
3754000,0.0324,0.013523,0.002678,0.000431,0.697060
3755000,0.0324,0.013523,0.002678,0.000431,0.676610
3756000,0.0324,0.013523,0.002678,0.000431,0.651694
3757000,0.0324,0.013523,0.002678,0.000431,0.704581
3758000,0.0324,0.013523,0.002678,0.000431,0.683426
3759000,0.0324,0.013523,0.002678,0.000431,0.614555
3760000,0.0324,0.013523,0.002678,0.000431,0.563900
3761000,0.0324,0.013523,0.002678,0.000431,0.562372
3762000,0.0324,0.013523,0.002678,0.000431,0.515831
3763000,0.0324,0.013523,0.002678,0.000431,0.500553
3764000,0.0324,0.013523,0.002678,0.000431,0.460593
3765000,0.0324,0.013523,0.002678,0.000431,0.419576
3766000,0.0324,0.013523,0.002678,0.000431,0.382672
3767000,0.0324,0.013523,0.002678,0.000431,0.369274
3768000,0.0324,0.013523,0.002678,0.000431,0.339069
3769000,0.0324,0.013523,0.002678,0.000431,0.320499
3770000,0.0324,0.013523,0.002678,0.000431,0.302518
3771000,0.0324,0.013523,0.002678,0.000431,0.291705
3772000,0.0324,0.013523,0.002678,0.000431,0.270432
3773000,0.0324,0.013523,0.002678,0.000431,0.258915
3774000,0.0324,0.013523,0.002678,0.000431,0.256799
3775000,0.0324,0.013523,0.002678,0.000431,0.241520
3776000,0.0324,0.013523,0.002678,0.000431,0.230238
3777000,0.0324,0.013523,0.002678,0.000431,0.222833
3778000,0.0324,0.013523,0.002678,0.000431,0.212961
3779000,0.0324,0.013523,0.002678,0.000431,0.204617
3780000,0.0324,0.013523,0.002678,0.000431,0.203559
3781000,0.0324,0.013523,0.002678,0.000431,0.198505
3782000,0.0324,0.013523,0.002678,0.000431,0.190866
3783000,0.0324,0.013523,0.002678,0.000431,0.182169
3784000,0.0324,0.013523,0.002678,0.000431,0.178878
3785000,0.0324,0.013523,0.002678,0.000431,0.173472
3786000,0.0324,0.013523,0.002678,0.000431,0.166890
3787000,0.0324,0.013523,0.002678,0.000431,0.165127
3788000,0.0324,0.013523,0.002678,0.000431,0.165950
3789000,0.0324,0.013523,0.002678,0.000431,0.159956
3790000,0.0324,0.013523,0.002678,0.000431,0.158663
3791000,0.0324,0.013523,0.002678,0.000431,0.148556
3792000,0.0324,0.013523,0.002678,0.000431,0.146558
3793000,0.0324,0.013523,0.002678,0.000431,0.150671
3794000,0.0324,0.013523,0.002678,0.000431,0.139741
3795000,0.0324,0.013523,0.002678,0.000431,0.140681
3796000,0.0324,0.013523,0.002678,0.000431,0.133982
3797000,0.0324,0.013523,0.002678,0.000431,0.130456
3798000,0.0324,0.013523,0.002678,0.000431,0.130691
3799000,0.0324,0.013523,0.002678,0.000431,0.128693
3800000,0.0324,0.013523,0.002678,0.000431,0.122112
3801000,0.0324,0.013523,0.002678,0.000431,0.122699
3802000,0.0324,0.013523,0.002678,0.000431,0.119879
3803000,0.0324,0.013523,0.002678,0.000431,0.118821
3804000,0.0324,0.013523,0.002678,0.000431,0.115178
3805000,0.0324,0.013523,0.002678,0.000431,0.108243
3806000,0.0324,0.013523,0.002678,0.000431,0.111299
3807000,0.0324,0.013523,0.002678,0.000431,0.110006
3808000,0.0324,0.013523,0.002678,0.000431,0.109654
3809000,0.0324,0.013523,0.002678,0.000431,0.105658
3810000,0.0324,0.013523,0.002678,0.000431,0.104483
3811000,0.0324,0.013523,0.002678,0.000431,0.102132
3812000,0.0324,0.013523,0.002678,0.000431,0.101074
3813000,0.0324,0.013523,0.002678,0.000431,0.096608
3814000,0.0324,0.013523,0.002678,0.000431,0.096843
3815000,0.0324,0.013523,0.002678,0.000431,0.095315
3816000,0.0324,0.013523,0.002678,0.000431,0.092965
3817000,0.0324,0.013523,0.002678,0.000431,0.090967
3818000,0.0324,0.013523,0.002678,0.000431,0.088381
3819000,0.0324,0.013523,0.002678,0.000431,0.090497
3820000,0.0324,0.013523,0.002678,0.000431,0.086618
3821000,0.0324,0.013523,0.002678,0.000431,0.084738
3822000,0.0324,0.013523,0.002678,0.000431,0.087206
3823000,0.0324,0.013523,0.002678,0.000431,0.084620
3824000,0.0324,0.013523,0.002678,0.000431,0.083798
3825000,0.0324,0.013523,0.002678,0.000431,0.082740
3826000,0.0324,0.013523,0.002678,0.000431,0.082505
3827000,0.0324,0.013523,0.002678,0.000431,0.080977
3828000,0.0324,0.013523,0.002678,0.000431,0.079802
3829000,0.0324,0.013523,0.002678,0.000431,0.080272
3830000,0.0324,0.013523,0.002678,0.000431,0.078039
3831000,0.0324,0.013523,0.002678,0.000431,0.075453
3832000,0.0324,0.013523,0.002678,0.000431,0.077804
3833000,0.0324,0.013523,0.002678,0.000431,0.075336
3834000,0.0324,0.013523,0.002678,0.000431,0.073808
3835000,0.0324,0.013523,0.002678,0.000431,0.074983
3836000,0.0324,0.013523,0.002678,0.000431,0.075101
3837000,0.0324,0.013523,0.002678,0.000431,0.072162
3838000,0.0324,0.013523,0.002678,0.000431,0.071575
3839000,0.0324,0.013523,0.002678,0.000431,0.071105
3840000,0.0324,0.013523,0.002678,0.000431,0.068754
3841000,0.0324,0.013523,0.002678,0.000431,0.068284
3842000,0.0324,0.013523,0.002678,0.000431,0.068166
3843000,0.0324,0.013523,0.002678,0.000431,0.068401
3844000,0.0324,0.013523,0.002678,0.000431,0.068636
3845000,0.0324,0.013523,0.002678,0.000431,0.068872
3846000,0.0324,0.013523,0.002678,0.000431,0.067931
3847000,0.0324,0.013523,0.002678,0.000431,0.068166
3848000,0.0324,0.013523,0.002678,0.000431,0.067814
3849000,0.0324,0.013523,0.002678,0.000431,0.065581
3850000,0.0324,0.013523,0.002678,0.000431,0.064053
3851000,0.0324,0.013523,0.002678,0.000431,0.063818
3852000,0.0324,0.013523,0.002678,0.000431,0.062878
3853000,0.0324,0.013523,0.002678,0.000431,0.062407
3854000,0.0324,0.013523,0.002678,0.000431,0.060880
3855000,0.0324,0.013523,0.002678,0.000431,0.061467
3856000,0.0324,0.013523,0.002678,0.000431,0.059939
3857000,0.0324,0.013523,0.002678,0.000431,0.059939
3858000,0.0324,0.013523,0.002678,0.000431,0.059234
3859000,0.0324,0.013523,0.002678,0.000431,0.059234
3860000,0.0324,0.013523,0.002678,0.000431,0.059117
3861000,0.0324,0.013523,0.002678,0.000431,0.057354
3862000,0.0324,0.013523,0.002678,0.000431,0.060292
3863000,0.0324,0.013523,0.002678,0.000431,0.057119
3864000,0.0324,0.013523,0.002678,0.000431,0.056884
3865000,0.0324,0.013523,0.002678,0.000431,0.057236
3866000,0.0324,0.013523,0.002678,0.000431,0.059117
3867000,0.0324,0.013523,0.002678,0.000431,0.055356
3868000,0.0324,0.013523,0.002678,0.000431,0.053710
3869000,0.0324,0.013523,0.002678,0.000431,0.055356
3870000,0.0324,0.013523,0.002678,0.000431,0.054416
3871000,0.0324,0.013523,0.002678,0.000431,0.055591
3872000,0.0324,0.013523,0.002678,0.000431,0.053005
3873000,0.0324,0.013523,0.002678,0.000431,0.055121
3874000,0.0324,0.013523,0.002678,0.000431,0.052535
3875000,0.0324,0.013523,0.002678,0.000431,0.051595
3876000,0.0324,0.013523,0.002678,0.000431,0.050772
3877000,0.0324,0.013523,0.002678,0.000431,0.051947
3878000,0.0324,0.013523,0.002678,0.000431,0.049832
3879000,0.0324,0.013523,0.002678,0.000431,0.048892
3880000,0.0324,0.013523,0.002678,0.000431,0.049362
3881000,0.0324,0.013523,0.002678,0.000431,0.047364
3882000,0.0324,0.013523,0.002678,0.000431,0.047951
3883000,0.0324,0.013523,0.002678,0.000431,0.048892
3884000,0.0324,0.013523,0.002678,0.000431,0.047011
3885000,0.0324,0.013523,0.002678,0.000431,0.047246
3886000,0.0324,0.013523,0.002678,0.000431,0.045601
3887000,0.0324,0.013523,0.002678,0.000431,0.045954
3888000,0.0324,0.013523,0.002678,0.000431,0.046071
3889000,0.0324,0.013523,0.002678,0.000431,0.045013
3890000,0.0324,0.013523,0.002678,0.000431,0.043956
3891000,0.0324,0.013523,0.002678,0.000431,0.044426
3892000,0.0324,0.013523,0.002678,0.000431,0.044661
3893000,0.0324,0.013523,0.002678,0.000431,0.044073
3894000,0.0324,0.013523,0.002678,0.000431,0.044426
3895000,0.0324,0.013523,0.002678,0.000431,0.043250
3896000,0.0324,0.013523,0.002678,0.000431,0.043250
3897000,0.0324,0.013523,0.002678,0.000431,0.043485
3898000,0.0324,0.013523,0.002678,0.000431,0.043015
3899000,0.0324,0.013523,0.002678,0.000431,0.041958
3900000,0.0324,0.013523,0.002678,0.000431,0.041487
3901000,0.0324,0.013523,0.002678,0.000431,0.042428
3902000,0.0324,0.013523,0.002678,0.000431,0.040782
3903000,0.0324,0.013523,0.002678,0.000431,0.042193
3904000,0.0324,0.013523,0.002678,0.000431,0.042075
3905000,0.0324,0.013523,0.002678,0.000431,0.040900
3906000,0.0324,0.013523,0.002678,0.000431,0.039725
3907000,0.0324,0.013523,0.002678,0.000431,0.041958
3908000,0.0324,0.013523,0.002678,0.000431,0.041135
3909000,0.0324,0.013523,0.002678,0.000431,0.041135
3910000,0.0324,0.013523,0.002678,0.000431,0.041723
3911000,0.0324,0.013523,0.002678,0.000431,0.041723
3912000,0.0324,0.013523,0.002678,0.000431,0.042075
3913000,0.0324,0.013523,0.002678,0.000431,0.041958
3914000,0.0324,0.013523,0.002678,0.000431,0.041370
3915000,0.0324,0.013523,0.002678,0.000431,0.040312
3916000,0.0324,0.013523,0.002678,0.000431,0.041840
3917000,0.0324,0.013523,0.002678,0.000431,0.041723
3918000,0.0324,0.013523,0.002678,0.000431,0.040900
3919000,0.0324,0.013523,0.002678,0.000431,0.041252
3920000,0.0324,0.013523,0.002678,0.000431,0.040430
3921000,0.0324,0.013523,0.002678,0.000431,0.039842
3922000,0.0324,0.013523,0.002678,0.000431,0.037256
3923000,0.0324,0.013523,0.002678,0.000431,0.039019
3924000,0.0324,0.013523,0.002678,0.000431,0.038197
3925000,0.0324,0.013523,0.002678,0.000431,0.037256
3926000,0.0324,0.013523,0.002678,0.000431,0.037374
3927000,0.0324,0.013523,0.002678,0.000431,0.038314
3928000,0.0324,0.013523,0.002678,0.000431,0.036904
3929000,0.0324,0.013523,0.002678,0.000431,0.037374
3930000,0.0324,0.013523,0.002678,0.000431,0.037962
3931000,0.0324,0.013523,0.002678,0.000431,0.037962
3932000,0.0324,0.013523,0.002678,0.000431,0.035964
3933000,0.0324,0.013523,0.002678,0.000431,0.038314
3934000,0.0324,0.013523,0.002678,0.000431,0.036551
3935000,0.0324,0.013523,0.002678,0.000431,0.036434
3936000,0.0324,0.013523,0.002678,0.000431,0.035964
3937000,0.0324,0.013523,0.002678,0.000431,0.037021
3938000,0.0324,0.013523,0.002678,0.000431,0.035846
3939000,0.0324,0.013523,0.002678,0.000431,0.035023
3940000,0.0324,0.013523,0.002678,0.000431,0.034671
3941000,0.0324,0.013523,0.002678,0.000431,0.034553
3942000,0.0324,0.013523,0.002678,0.000431,0.033966
3943000,0.0324,0.013523,0.002678,0.000431,0.034671
3944000,0.0324,0.013523,0.002678,0.000431,0.035141
3945000,0.0324,0.013523,0.002678,0.000431,0.034318
3946000,0.0324,0.013523,0.002678,0.000431,0.035258
3947000,0.0324,0.013523,0.002678,0.000431,0.033966
3948000,0.0324,0.013523,0.002678,0.000431,0.034671
3949000,0.0324,0.013523,0.002678,0.000431,0.032790
3950000,0.0324,0.013523,0.002678,0.000431,0.035846
3951000,0.0324,0.013523,0.002678,0.000431,0.034788
3952000,0.0324,0.013523,0.002678,0.000431,0.032790
3953000,0.0324,0.013523,0.002678,0.000431,0.033260
3954000,0.0324,0.013523,0.002678,0.000431,0.033378
3955000,0.0324,0.013523,0.002678,0.000431,0.032673
3956000,0.0324,0.013523,0.002678,0.000431,0.031850
3957000,0.0324,0.013523,0.002678,0.000431,0.033260
3958000,0.0324,0.013523,0.002678,0.000431,0.033260
3959000,0.0324,0.013523,0.002678,0.000431,0.032555
3960000,0.0324,0.013523,0.002678,0.000431,0.033025
3961000,0.0324,0.013523,0.002678,0.000431,0.031733
3962000,0.0324,0.013523,0.002678,0.000431,0.032790
3963000,0.0324,0.013523,0.002678,0.000431,0.031615
3964000,0.0324,0.013523,0.002678,0.000431,0.031145
3965000,0.0324,0.013523,0.002678,0.000431,0.031733
3966000,0.0324,0.013523,0.002678,0.000431,0.030675
3967000,0.0324,0.013523,0.002678,0.000431,0.031027
3968000,0.0324,0.013523,0.002678,0.000431,0.032203
3969000,0.0324,0.013523,0.002678,0.000431,0.030792
3970000,0.0324,0.013523,0.002678,0.000431,0.032555
3971000,0.0324,0.013523,0.002678,0.000431,0.030440
3972000,0.0324,0.013523,0.002678,0.000431,0.031850
3973000,0.0324,0.013523,0.002678,0.000431,0.031615
3974000,0.0324,0.013523,0.002678,0.000431,0.031380
3975000,0.0324,0.013523,0.002678,0.000431,0.031380
3976000,0.0324,0.013523,0.002678,0.000431,0.031262
3977000,0.0324,0.013523,0.002678,0.000431,0.031262
3978000,0.0324,0.013523,0.002678,0.000431,0.031145
3979000,0.0324,0.013523,0.002678,0.000431,0.030675
3980000,0.0324,0.013523,0.002678,0.000431,0.031145
3981000,0.0324,0.013523,0.002678,0.000431,0.030675
3982000,0.0324,0.013523,0.002678,0.000431,0.030322
3983000,0.0324,0.013523,0.002678,0.000431,0.028089
3984000,0.0324,0.013523,0.002678,0.000431,0.030322
3985000,0.0324,0.013523,0.002678,0.000431,0.028677
3986000,0.0324,0.013523,0.002678,0.000431,0.028912
3987000,0.0324,0.013523,0.002678,0.000431,0.028442
3988000,0.0324,0.013523,0.002678,0.000431,0.028794
3989000,0.0324,0.013523,0.002678,0.000431,0.029147
3990000,0.0324,0.013523,0.002678,0.000431,0.030205
3991000,0.0324,0.013523,0.002678,0.000431,0.028324
3992000,0.0324,0.013523,0.002678,0.000431,0.029970
3993000,0.0324,0.013523,0.002678,0.000431,0.028559
3994000,0.0324,0.013523,0.002678,0.000431,0.028794
3995000,0.0324,0.013523,0.002678,0.000431,0.029029
3996000,0.0324,0.013523,0.002678,0.000431,0.030322
3997000,0.0324,0.013523,0.002678,0.000431,0.029500
3998000,0.0324,0.013523,0.002678,0.000431,0.028442
3999000,0.0324,0.013523,0.002678,0.000431,0.029382
