Cycle,Area(mm^2),PeakDynamic(W),SubthresholdLeakage(W),GateLeakage(W),RunTimeDynamic(W)
3000000,0.0324,0.013523,0.002678,0.000431,0.350939
3001000,0.0324,0.013523,0.002678,0.000431,0.312860
3002000,0.0324,0.013523,0.002678,0.000431,0.335778
3003000,0.0324,0.013523,0.002678,0.000431,0.397715
3004000,0.0324,0.013523,0.002678,0.000431,0.377736
3005000,0.0324,0.013523,0.002678,0.000431,0.436500
3006000,0.0324,0.013523,0.002678,0.000431,0.408998
3007000,0.0324,0.013523,0.002678,0.000431,0.587523
3008000,0.0324,0.013523,0.002678,0.000431,0.579296
3009000,0.0324,0.013523,0.002678,0.000431,0.495499
3010000,0.0324,0.013523,0.002678,0.000431,0.661566
3011000,0.0324,0.013523,0.002678,0.000431,0.733141
3012000,0.0324,0.013523,0.002678,0.000431,0.660156
3013000,0.0324,0.013523,0.002678,0.000431,0.578356
3014000,0.0324,0.013523,0.002678,0.000431,0.601157
3015000,0.0324,0.013523,0.002678,0.000431,0.546506
3016000,0.0324,0.013523,0.002678,0.000431,0.558494
3017000,0.0324,0.013523,0.002678,0.000431,0.689655
3018000,0.0324,0.013523,0.002678,0.000431,0.572950
3019000,0.0324,0.013523,0.002678,0.000431,0.485744
3020000,0.0324,0.013523,0.002678,0.000431,0.584233
3021000,0.0324,0.013523,0.002678,0.000431,0.625603
3022000,0.0324,0.013523,0.002678,0.000431,0.632772
3023000,0.0324,0.013523,0.002678,0.000431,0.598571
3024000,0.0324,0.013523,0.002678,0.000431,0.580824
3025000,0.0324,0.013523,0.002678,0.000431,0.588816
3026000,0.0324,0.013523,0.002678,0.000431,0.603625
3027000,0.0324,0.013523,0.002678,0.000431,0.612322
3028000,0.0324,0.013523,0.002678,0.000431,0.674729
3029000,0.0324,0.013523,0.002678,0.000431,0.802130
3030000,0.0324,0.013523,0.002678,0.000431,0.734669
3031000,0.0324,0.013523,0.002678,0.000431,0.744188
3032000,0.0324,0.013523,0.002678,0.000431,0.830337
3033000,0.0324,0.013523,0.002678,0.000431,0.709165
3034000,0.0324,0.013523,0.002678,0.000431,0.749360
3035000,0.0324,0.013523,0.002678,0.000431,0.760172
3036000,0.0324,0.013523,0.002678,0.000431,0.645465
3037000,0.0324,0.013523,0.002678,0.000431,0.676727
3038000,0.0324,0.013523,0.002678,0.000431,0.648403
3039000,0.0324,0.013523,0.002678,0.000431,0.624545
3040000,0.0324,0.013523,0.002678,0.000431,0.602449
3041000,0.0324,0.013523,0.002678,0.000431,0.523353
3042000,0.0324,0.013523,0.002678,0.000431,0.482453
3043000,0.0324,0.013523,0.002678,0.000431,0.473874
3044000,0.0324,0.013523,0.002678,0.000431,0.512775
3045000,0.0324,0.013523,0.002678,0.000431,0.512540
3046000,0.0324,0.013523,0.002678,0.000431,0.480103
3047000,0.0324,0.013523,0.002678,0.000431,0.431093
3048000,0.0324,0.013523,0.002678,0.000431,0.429213
3049000,0.0324,0.013523,0.002678,0.000431,0.444609
3050000,0.0324,0.013523,0.002678,0.000431,0.505724
3051000,0.0324,0.013523,0.002678,0.000431,0.386315
3052000,0.0324,0.013523,0.002678,0.000431,0.430506
3053000,0.0324,0.013523,0.002678,0.000431,0.566251
3054000,0.0324,0.013523,0.002678,0.000431,0.625838
3055000,0.0324,0.013523,0.002678,0.000431,0.694944
3056000,0.0324,0.013523,0.002678,0.000431,0.583527
3057000,0.0324,0.013523,0.002678,0.000431,0.695884
3058000,0.0324,0.013523,0.002678,0.000431,0.661331
3059000,0.0324,0.013523,0.002678,0.000431,0.616435
3060000,0.0324,0.013523,0.002678,0.000431,0.612557
3061000,0.0324,0.013523,0.002678,0.000431,0.609266
3062000,0.0324,0.013523,0.002678,0.000431,0.678490
3063000,0.0324,0.013523,0.002678,0.000431,0.769575
3064000,0.0324,0.013523,0.002678,0.000431,0.847143
3065000,0.0324,0.013523,0.002678,0.000431,0.808006
3066000,0.0324,0.013523,0.002678,0.000431,0.801660
3067000,0.0324,0.013523,0.002678,0.000431,0.757234
3068000,0.0324,0.013523,0.002678,0.000431,0.810004
3069000,0.0324,0.013523,0.002678,0.000431,0.815998
3070000,0.0324,0.013523,0.002678,0.000431,0.675082
3071000,0.0324,0.013523,0.002678,0.000431,0.605153
3072000,0.0324,0.013523,0.002678,0.000431,0.651811
3073000,0.0324,0.013523,0.002678,0.000431,0.611852
3074000,0.0324,0.013523,0.002678,0.000431,0.542863
3075000,0.0324,0.013523,0.002678,0.000431,0.560962
3076000,0.0324,0.013523,0.002678,0.000431,0.559317
3077000,0.0324,0.013523,0.002678,0.000431,0.497262
3078000,0.0324,0.013523,0.002678,0.000431,0.514538
3079000,0.0324,0.013523,0.002678,0.000431,0.473168
3080000,0.0324,0.013523,0.002678,0.000431,0.544508
3081000,0.0324,0.013523,0.002678,0.000431,0.562020
3082000,0.0324,0.013523,0.002678,0.000431,0.566251
3083000,0.0324,0.013523,0.002678,0.000431,0.554145
3084000,0.0324,0.013523,0.002678,0.000431,0.655690
3085000,0.0324,0.013523,0.002678,0.000431,0.741720
3086000,0.0324,0.013523,0.002678,0.000431,0.636063
3087000,0.0324,0.013523,0.002678,0.000431,0.685072
3088000,0.0324,0.013523,0.002678,0.000431,0.816351
3089000,0.0324,0.013523,0.002678,0.000431,0.872764
3090000,0.0324,0.013523,0.002678,0.000431,0.767459
3091000,0.0324,0.013523,0.002678,0.000431,0.902146
3092000,0.0324,0.013523,0.002678,0.000431,0.891804
3093000,0.0324,0.013523,0.002678,0.000431,0.753003
3094000,0.0324,0.013523,0.002678,0.000431,0.813530
3095000,0.0324,0.013523,0.002678,0.000431,0.857016
3096000,0.0324,0.013523,0.002678,0.000431,0.902381
3097000,0.0324,0.013523,0.002678,0.000431,0.861364
3098000,0.0324,0.013523,0.002678,0.000431,0.793550
3099000,0.0324,0.013523,0.002678,0.000431,0.811767
3100000,0.0324,0.013523,0.002678,0.000431,0.808359
3101000,0.0324,0.013523,0.002678,0.000431,0.807654
3102000,0.0324,0.013523,0.002678,0.000431,0.746774
3103000,0.0324,0.013523,0.002678,0.000431,0.690361
3104000,0.0324,0.013523,0.002678,0.000431,0.609266
3105000,0.0324,0.013523,0.002678,0.000431,0.613027
3106000,0.0324,0.013523,0.002678,0.000431,0.621372
3107000,0.0324,0.013523,0.002678,0.000431,0.574243
3108000,0.0324,0.013523,0.002678,0.000431,0.491855
3109000,0.0324,0.013523,0.002678,0.000431,0.544626
3110000,0.0324,0.013523,0.002678,0.000431,0.627953
3111000,0.0324,0.013523,0.002678,0.000431,0.625603
3112000,0.0324,0.013523,0.002678,0.000431,0.600216
3113000,0.0324,0.013523,0.002678,0.000431,0.540865
3114000,0.0324,0.013523,0.002678,0.000431,0.542745
3115000,0.0324,0.013523,0.002678,0.000431,0.559434
3116000,0.0324,0.013523,0.002678,0.000431,0.562490
3117000,0.0324,0.013523,0.002678,0.000431,0.486214
3118000,0.0324,0.013523,0.002678,0.000431,0.485039
3119000,0.0324,0.013523,0.002678,0.000431,0.508662
3120000,0.0324,0.013523,0.002678,0.000431,0.537221
3121000,0.0324,0.013523,0.002678,0.000431,0.434737
3122000,0.0324,0.013523,0.002678,0.000431,0.407705
3123000,0.0324,0.013523,0.002678,0.000431,0.454481
3124000,0.0324,0.013523,0.002678,0.000431,0.441436
3125000,0.0324,0.013523,0.002678,0.000431,0.396893
3126000,0.0324,0.013523,0.002678,0.000431,0.439673
3127000,0.0324,0.013523,0.002678,0.000431,0.505724
3128000,0.0324,0.013523,0.002678,0.000431,0.504313
3129000,0.0324,0.013523,0.002678,0.000431,0.433091
3130000,0.0324,0.013523,0.002678,0.000431,0.513598
3131000,0.0324,0.013523,0.002678,0.000431,0.456362
3132000,0.0324,0.013523,0.002678,0.000431,0.551325
3133000,0.0324,0.013523,0.002678,0.000431,0.952448
3134000,0.0324,0.013523,0.002678,0.000431,0.814000
3135000,0.0324,0.013523,0.002678,0.000431,0.755236
3136000,0.0324,0.013523,0.002678,0.000431,1.050584
3137000,0.0324,0.013523,0.002678,0.000431,0.972193
3138000,0.0324,0.013523,0.002678,0.000431,0.931411
3139000,0.0324,0.013523,0.002678,0.000431,0.950098
3140000,0.0324,0.013523,0.002678,0.000431,0.920481
3141000,0.0324,0.013523,0.002678,0.000431,0.904849
3142000,0.0324,0.013523,0.002678,0.000431,0.836801
3143000,0.0324,0.013523,0.002678,0.000431,0.774746
3144000,0.0324,0.013523,0.002678,0.000431,0.694592
3145000,0.0324,0.013523,0.002678,0.000431,0.661801
3146000,0.0324,0.013523,0.002678,0.000431,0.660508
3147000,0.0324,0.013523,0.002678,0.000431,0.714101
3148000,0.0324,0.013523,0.002678,0.000431,0.641821
3149000,0.0324,0.013523,0.002678,0.000431,0.682369
3150000,0.0324,0.013523,0.002678,0.000431,0.633359
3151000,0.0324,0.013523,0.002678,0.000431,0.649696
3152000,0.0324,0.013523,0.002678,0.000431,0.557789
3153000,0.0324,0.013523,0.002678,0.000431,0.665445
3154000,0.0324,0.013523,0.002678,0.000431,0.632302
3155000,0.0324,0.013523,0.002678,0.000431,0.640411
3156000,0.0324,0.013523,0.002678,0.000431,0.654985
3157000,0.0324,0.013523,0.002678,0.000431,0.602332
3158000,0.0324,0.013523,0.002678,0.000431,0.559669
3159000,0.0324,0.013523,0.002678,0.000431,0.525351
3160000,0.0324,0.013523,0.002678,0.000431,0.488095
3161000,0.0324,0.013523,0.002678,0.000431,0.469408
3162000,0.0324,0.013523,0.002678,0.000431,0.466939
3163000,0.0324,0.013523,0.002678,0.000431,0.464119
3164000,0.0324,0.013523,0.002678,0.000431,0.529112
3165000,0.0324,0.013523,0.002678,0.000431,0.500905
3166000,0.0324,0.013523,0.002678,0.000431,0.541805
3167000,0.0324,0.013523,0.002678,0.000431,0.689303
3168000,0.0324,0.013523,0.002678,0.000431,0.595515
3169000,0.0324,0.013523,0.002678,0.000431,0.578474
3170000,0.0324,0.013523,0.002678,0.000431,0.552030
3171000,0.0324,0.013523,0.002678,0.000431,0.540630
3172000,0.0324,0.013523,0.002678,0.000431,0.538162
3173000,0.0324,0.013523,0.002678,0.000431,0.487624
3174000,0.0324,0.013523,0.002678,0.000431,0.468232
3175000,0.0324,0.013523,0.002678,0.000431,0.461416
3176000,0.0324,0.013523,0.002678,0.000431,0.464941
3177000,0.0324,0.013523,0.002678,0.000431,0.492326
3178000,0.0324,0.013523,0.002678,0.000431,0.473521
3179000,0.0324,0.013523,0.002678,0.000431,0.453894
3180000,0.0324,0.013523,0.002678,0.000431,0.454481
3181000,0.0324,0.013523,0.002678,0.000431,0.563313
3182000,0.0324,0.013523,0.002678,0.000431,0.549209
3183000,0.0324,0.013523,0.002678,0.000431,0.652046
3184000,0.0324,0.013523,0.002678,0.000431,0.746892
3185000,0.0324,0.013523,0.002678,0.000431,0.727029
3186000,0.0324,0.013523,0.002678,0.000431,0.687657
3187000,0.0324,0.013523,0.002678,0.000431,0.790259
3188000,0.0324,0.013523,0.002678,0.000431,0.869709
3189000,0.0324,0.013523,0.002678,0.000431,0.855723
3190000,0.0324,0.013523,0.002678,0.000431,0.867946
3191000,0.0324,0.013523,0.002678,0.000431,0.823520
3192000,0.0324,0.013523,0.002678,0.000431,0.864185
3193000,0.0324,0.013523,0.002678,0.000431,0.887690
3194000,0.0324,0.013523,0.002678,0.000431,0.772160
3195000,0.0324,0.013523,0.002678,0.000431,0.838093
3196000,0.0324,0.013523,0.002678,0.000431,0.883929
3197000,0.0324,0.013523,0.002678,0.000431,0.723621
3198000,0.0324,0.013523,0.002678,0.000431,0.662506
3199000,0.0324,0.013523,0.002678,0.000431,0.810357
3200000,0.0324,0.013523,0.002678,0.000431,0.737254
3201000,0.0324,0.013523,0.002678,0.000431,0.663094
3202000,0.0324,0.013523,0.002678,0.000431,0.860776
3203000,0.0324,0.013523,0.002678,0.000431,0.783678
3204000,0.0324,0.013523,0.002678,0.000431,0.641821
3205000,0.0324,0.013523,0.002678,0.000431,0.703876
3206000,0.0324,0.013523,0.002678,0.000431,0.747362
3207000,0.0324,0.013523,0.002678,0.000431,0.645465
3208000,0.0324,0.013523,0.002678,0.000431,0.611617
3209000,0.0324,0.013523,0.002678,0.000431,0.705639
3210000,0.0324,0.013523,0.002678,0.000431,0.662859
3211000,0.0324,0.013523,0.002678,0.000431,0.599511
3212000,0.0324,0.013523,0.002678,0.000431,0.629481
3213000,0.0324,0.013523,0.002678,0.000431,0.603272
3214000,0.0324,0.013523,0.002678,0.000431,0.606798
3215000,0.0324,0.013523,0.002678,0.000431,0.579296
3216000,0.0324,0.013523,0.002678,0.000431,0.553323
3217000,0.0324,0.013523,0.002678,0.000431,0.608561
3218000,0.0324,0.013523,0.002678,0.000431,0.781327
3219000,0.0324,0.013523,0.002678,0.000431,0.713396
3220000,0.0324,0.013523,0.002678,0.000431,0.618198
3221000,0.0324,0.013523,0.002678,0.000431,0.706344
3222000,0.0324,0.013523,0.002678,0.000431,0.719860
3223000,0.0324,0.013523,0.002678,0.000431,0.752768
3224000,0.0324,0.013523,0.002678,0.000431,0.755471
3225000,0.0324,0.013523,0.002678,0.000431,0.697295
3226000,0.0324,0.013523,0.002678,0.000431,0.677903
3227000,0.0324,0.013523,0.002678,0.000431,0.787909
3228000,0.0324,0.013523,0.002678,0.000431,0.709165
3229000,0.0324,0.013523,0.002678,0.000431,0.648050
3230000,0.0324,0.013523,0.002678,0.000431,0.668618
3231000,0.0324,0.013523,0.002678,0.000431,0.624662
3232000,0.0324,0.013523,0.002678,0.000431,0.603507
3233000,0.0324,0.013523,0.002678,0.000431,0.584585
3234000,0.0324,0.013523,0.002678,0.000431,0.636063
3235000,0.0324,0.013523,0.002678,0.000431,0.627365
3236000,0.0324,0.013523,0.002678,0.000431,0.614672
3237000,0.0324,0.013523,0.002678,0.000431,0.560727
3238000,0.0324,0.013523,0.002678,0.000431,0.564370
3239000,0.0324,0.013523,0.002678,0.000431,0.531815
3240000,0.0324,0.013523,0.002678,0.000431,0.530757
3241000,0.0324,0.013523,0.002678,0.000431,0.478457
3242000,0.0324,0.013523,0.002678,0.000431,0.398656
3243000,0.0324,0.013523,0.002678,0.000431,0.397010
3244000,0.0324,0.013523,0.002678,0.000431,0.396893
3245000,0.0324,0.013523,0.002678,0.000431,0.464941
3246000,0.0324,0.013523,0.002678,0.000431,0.463296
3247000,0.0324,0.013523,0.002678,0.000431,0.410761
3248000,0.0324,0.013523,0.002678,0.000431,0.510542
3249000,0.0324,0.013523,0.002678,0.000431,0.605035
3250000,0.0324,0.013523,0.002678,0.000431,0.678138
3251000,0.0324,0.013523,0.002678,0.000431,0.599159
3252000,0.0324,0.013523,0.002678,0.000431,0.641351
3253000,0.0324,0.013523,0.002678,0.000431,0.786028
3254000,0.0324,0.013523,0.002678,0.000431,0.755706
3255000,0.0324,0.013523,0.002678,0.000431,0.783913
3256000,0.0324,0.013523,0.002678,0.000431,0.949628
3257000,0.0324,0.013523,0.002678,0.000431,0.962203
3258000,0.0324,0.013523,0.002678,0.000431,0.836448
3259000,0.0324,0.013523,0.002678,0.000431,0.895565
3260000,0.0324,0.013523,0.002678,0.000431,1.021672
3261000,0.0324,0.013523,0.002678,0.000431,0.962321
3262000,0.0324,0.013523,0.002678,0.000431,0.863244
3263000,0.0324,0.013523,0.002678,0.000431,0.871354
3264000,0.0324,0.013523,0.002678,0.000431,0.911666
3265000,0.0324,0.013523,0.002678,0.000431,0.909786
3266000,0.0324,0.013523,0.002678,0.000431,0.963966
3267000,0.0324,0.013523,0.002678,0.000431,0.868063
3268000,0.0324,0.013523,0.002678,0.000431,0.827163
3269000,0.0324,0.013523,0.002678,0.000431,0.807419
3270000,0.0324,0.013523,0.002678,0.000431,0.777096
3271000,0.0324,0.013523,0.002678,0.000431,0.764991
3272000,0.0324,0.013523,0.002678,0.000431,0.726442
3273000,0.0324,0.013523,0.002678,0.000431,0.694121
3274000,0.0324,0.013523,0.002678,0.000431,0.756176
3275000,0.0324,0.013523,0.002678,0.000431,0.697295
3276000,0.0324,0.013523,0.002678,0.000431,0.708930
3277000,0.0324,0.013523,0.002678,0.000431,0.803423
3278000,0.0324,0.013523,0.002678,0.000431,0.728440
3279000,0.0324,0.013523,0.002678,0.000431,0.706462
3280000,0.0324,0.013523,0.002678,0.000431,0.782620
3281000,0.0324,0.013523,0.002678,0.000431,0.831512
3282000,0.0324,0.013523,0.002678,0.000431,0.676375
3283000,0.0324,0.013523,0.002678,0.000431,0.739487
3284000,0.0324,0.013523,0.002678,0.000431,0.757352
3285000,0.0324,0.013523,0.002678,0.000431,0.745129
3286000,0.0324,0.013523,0.002678,0.000431,0.680136
3287000,0.0324,0.013523,0.002678,0.000431,0.642762
3288000,0.0324,0.013523,0.002678,0.000431,0.627013
3289000,0.0324,0.013523,0.002678,0.000431,0.585643
3290000,0.0324,0.013523,0.002678,0.000431,0.611499
3291000,0.0324,0.013523,0.002678,0.000431,0.578591
3292000,0.0324,0.013523,0.002678,0.000431,0.508427
3293000,0.0324,0.013523,0.002678,0.000431,0.488917
3294000,0.0324,0.013523,0.002678,0.000431,0.614672
3295000,0.0324,0.013523,0.002678,0.000431,0.615965
3296000,0.0324,0.013523,0.002678,0.000431,0.540160
3297000,0.0324,0.013523,0.002678,0.000431,0.748302
3298000,0.0324,0.013523,0.002678,0.000431,0.778389
3299000,0.0324,0.013523,0.002678,0.000431,0.668970
3300000,0.0324,0.013523,0.002678,0.000431,0.784971
3301000,0.0324,0.013523,0.002678,0.000431,0.772983
3302000,0.0324,0.013523,0.002678,0.000431,0.733611
3303000,0.0324,0.013523,0.002678,0.000431,0.762640
3304000,0.0324,0.013523,0.002678,0.000431,0.777566
3305000,0.0324,0.013523,0.002678,0.000431,0.879346
3306000,0.0324,0.013523,0.002678,0.000431,0.848083
3307000,0.0324,0.013523,0.002678,0.000431,0.774863
3308000,0.0324,0.013523,0.002678,0.000431,0.862304
3309000,0.0324,0.013523,0.002678,0.000431,0.800602
3310000,0.0324,0.013523,0.002678,0.000431,0.853490
3311000,0.0324,0.013523,0.002678,0.000431,0.784971
3312000,0.0324,0.013523,0.002678,0.000431,0.694357
3313000,0.0324,0.013523,0.002678,0.000431,0.656747
3314000,0.0324,0.013523,0.002678,0.000431,0.623957
3315000,0.0324,0.013523,0.002678,0.000431,0.553440
3316000,0.0324,0.013523,0.002678,0.000431,0.540630
3317000,0.0324,0.013523,0.002678,0.000431,0.519122
3318000,0.0324,0.013523,0.002678,0.000431,0.513833
3319000,0.0324,0.013523,0.002678,0.000431,0.566486
3320000,0.0324,0.013523,0.002678,0.000431,0.489622
3321000,0.0324,0.013523,0.002678,0.000431,0.479868
3322000,0.0324,0.013523,0.002678,0.000431,0.539219
3323000,0.0324,0.013523,0.002678,0.000431,0.540512
3324000,0.0324,0.013523,0.002678,0.000431,0.472933
3325000,0.0324,0.013523,0.002678,0.000431,0.525116
3326000,0.0324,0.013523,0.002678,0.000431,0.501023
3327000,0.0324,0.013523,0.002678,0.000431,0.448605
3328000,0.0324,0.013523,0.002678,0.000431,0.455187
3329000,0.0324,0.013523,0.002678,0.000431,0.496086
3330000,0.0324,0.013523,0.002678,0.000431,0.467880
3331000,0.0324,0.013523,0.002678,0.000431,0.440731
3332000,0.0324,0.013523,0.002678,0.000431,0.435324
3333000,0.0324,0.013523,0.002678,0.000431,0.532755
3334000,0.0324,0.013523,0.002678,0.000431,0.527937
3335000,0.0324,0.013523,0.002678,0.000431,0.452719
3336000,0.0324,0.013523,0.002678,0.000431,0.477635
3337000,0.0324,0.013523,0.002678,0.000431,0.568719
3338000,0.0324,0.013523,0.002678,0.000431,0.577181
3339000,0.0324,0.013523,0.002678,0.000431,0.506311
3340000,0.0324,0.013523,0.002678,0.000431,0.559082
3341000,0.0324,0.013523,0.002678,0.000431,0.638531
3342000,0.0324,0.013523,0.002678,0.000431,0.533343
3343000,0.0324,0.013523,0.002678,0.000431,0.495499
3344000,0.0324,0.013523,0.002678,0.000431,0.573890
3345000,0.0324,0.013523,0.002678,0.000431,0.622077
3346000,0.0324,0.013523,0.002678,0.000431,0.599276
3347000,0.0324,0.013523,0.002678,0.000431,0.558494
3348000,0.0324,0.013523,0.002678,0.000431,0.563313
3349000,0.0324,0.013523,0.002678,0.000431,0.644995
3350000,0.0324,0.013523,0.002678,0.000431,0.662271
3351000,0.0324,0.013523,0.002678,0.000431,0.663447
3352000,0.0324,0.013523,0.002678,0.000431,0.600922
3353000,0.0324,0.013523,0.002678,0.000431,0.639471
3354000,0.0324,0.013523,0.002678,0.000431,0.709635
3355000,0.0324,0.013523,0.002678,0.000431,0.847143
3356000,0.0324,0.013523,0.002678,0.000431,0.747244
3357000,0.0324,0.013523,0.002678,0.000431,0.747949
3358000,0.0324,0.013523,0.002678,0.000431,0.791200
3359000,0.0324,0.013523,0.002678,0.000431,0.760525
3360000,0.0324,0.013523,0.002678,0.000431,0.670968
3361000,0.0324,0.013523,0.002678,0.000431,0.666620
3362000,0.0324,0.013523,0.002678,0.000431,0.656512
3363000,0.0324,0.013523,0.002678,0.000431,0.550149
3364000,0.0324,0.013523,0.002678,0.000431,0.529700
3365000,0.0324,0.013523,0.002678,0.000431,0.508074
3366000,0.0324,0.013523,0.002678,0.000431,0.535811
3367000,0.0324,0.013523,0.002678,0.000431,0.631714
3368000,0.0324,0.013523,0.002678,0.000431,0.523353
3369000,0.0324,0.013523,0.002678,0.000431,0.530170
3370000,0.0324,0.013523,0.002678,0.000431,0.580002
3371000,0.0324,0.013523,0.002678,0.000431,0.591754
3372000,0.0324,0.013523,0.002678,0.000431,0.527349
3373000,0.0324,0.013523,0.002678,0.000431,0.504313
3374000,0.0324,0.013523,0.002678,0.000431,0.544508
3375000,0.0324,0.013523,0.002678,0.000431,0.645112
3376000,0.0324,0.013523,0.002678,0.000431,0.605858
3377000,0.0324,0.013523,0.002678,0.000431,0.601862
3378000,0.0324,0.013523,0.002678,0.000431,0.726324
3379000,0.0324,0.013523,0.002678,0.000431,0.843382
3380000,0.0324,0.013523,0.002678,0.000431,0.819759
3381000,0.0324,0.013523,0.002678,0.000431,0.863362
3382000,0.0324,0.013523,0.002678,0.000431,0.867123
3383000,0.0324,0.013523,0.002678,0.000431,0.795783
3384000,0.0324,0.013523,0.002678,0.000431,0.817879
3385000,0.0324,0.013523,0.002678,0.000431,0.766754
3386000,0.0324,0.013523,0.002678,0.000431,0.680488
3387000,0.0324,0.013523,0.002678,0.000431,0.644995
3388000,0.0324,0.013523,0.002678,0.000431,0.593635
3389000,0.0324,0.013523,0.002678,0.000431,0.542628
3390000,0.0324,0.013523,0.002678,0.000431,0.490210
3391000,0.0324,0.013523,0.002678,0.000431,0.440966
3392000,0.0324,0.013523,0.002678,0.000431,0.405237
3393000,0.0324,0.013523,0.002678,0.000431,0.373622
3394000,0.0324,0.013523,0.002678,0.000431,0.352467
3395000,0.0324,0.013523,0.002678,0.000431,0.329314
3396000,0.0324,0.013523,0.002678,0.000431,0.304986
3397000,0.0324,0.013523,0.002678,0.000431,0.293820
3398000,0.0324,0.013523,0.002678,0.000431,0.273841
3399000,0.0324,0.013523,0.002678,0.000431,0.263381
3400000,0.0324,0.013523,0.002678,0.000431,0.253391
3401000,0.0324,0.013523,0.002678,0.000431,0.248572
3402000,0.0324,0.013523,0.002678,0.000431,0.233646
3403000,0.0324,0.013523,0.002678,0.000431,0.223539
3404000,0.0324,0.013523,0.002678,0.000431,0.214724
3405000,0.0324,0.013523,0.002678,0.000431,0.206379
3406000,0.0324,0.013523,0.002678,0.000431,0.198035
3407000,0.0324,0.013523,0.002678,0.000431,0.194744
3408000,0.0324,0.013523,0.002678,0.000431,0.189808
3409000,0.0324,0.013523,0.002678,0.000431,0.181934
3410000,0.0324,0.013523,0.002678,0.000431,0.178995
3411000,0.0324,0.013523,0.002678,0.000431,0.169946
3412000,0.0324,0.013523,0.002678,0.000431,0.167360
3413000,0.0324,0.013523,0.002678,0.000431,0.167478
3414000,0.0324,0.013523,0.002678,0.000431,0.155255
3415000,0.0324,0.013523,0.002678,0.000431,0.158898
3416000,0.0324,0.013523,0.002678,0.000431,0.153022
3417000,0.0324,0.013523,0.002678,0.000431,0.151259
3418000,0.0324,0.013523,0.002678,0.000431,0.146675
3419000,0.0324,0.013523,0.002678,0.000431,0.141151
3420000,0.0324,0.013523,0.002678,0.000431,0.142092
3421000,0.0324,0.013523,0.002678,0.000431,0.139388
3422000,0.0324,0.013523,0.002678,0.000431,0.137978
3423000,0.0324,0.013523,0.002678,0.000431,0.132337
3424000,0.0324,0.013523,0.002678,0.000431,0.129751
3425000,0.0324,0.013523,0.002678,0.000431,0.124580
3426000,0.0324,0.013523,0.002678,0.000431,0.122229
3427000,0.0324,0.013523,0.002678,0.000431,0.118821
3428000,0.0324,0.013523,0.002678,0.000431,0.120349
3429000,0.0324,0.013523,0.002678,0.000431,0.119056
3430000,0.0324,0.013523,0.002678,0.000431,0.117646
3431000,0.0324,0.013523,0.002678,0.000431,0.112474
3432000,0.0324,0.013523,0.002678,0.000431,0.113415
3433000,0.0324,0.013523,0.002678,0.000431,0.112004
3434000,0.0324,0.013523,0.002678,0.000431,0.110006
3435000,0.0324,0.013523,0.002678,0.000431,0.106010
3436000,0.0324,0.013523,0.002678,0.000431,0.108479
3437000,0.0324,0.013523,0.002678,0.000431,0.102602
3438000,0.0324,0.013523,0.002678,0.000431,0.103307
3439000,0.0324,0.013523,0.002678,0.000431,0.098841
3440000,0.0324,0.013523,0.002678,0.000431,0.098489
3441000,0.0324,0.013523,0.002678,0.000431,0.095433
3442000,0.0324,0.013523,0.002678,0.000431,0.093317
3443000,0.0324,0.013523,0.002678,0.000431,0.092965
3444000,0.0324,0.013523,0.002678,0.000431,0.091907
3445000,0.0324,0.013523,0.002678,0.000431,0.089321
3446000,0.0324,0.013523,0.002678,0.000431,0.090732
3447000,0.0324,0.013523,0.002678,0.000431,0.085913
3448000,0.0324,0.013523,0.002678,0.000431,0.084738
3449000,0.0324,0.013523,0.002678,0.000431,0.084150
3450000,0.0324,0.013523,0.002678,0.000431,0.085913
3451000,0.0324,0.013523,0.002678,0.000431,0.083563
3452000,0.0324,0.013523,0.002678,0.000431,0.080389
3453000,0.0324,0.013523,0.002678,0.000431,0.085208
3454000,0.0324,0.013523,0.002678,0.000431,0.080507
3455000,0.0324,0.013523,0.002678,0.000431,0.079684
3456000,0.0324,0.013523,0.002678,0.000431,0.080272
3457000,0.0324,0.013523,0.002678,0.000431,0.077686
3458000,0.0324,0.013523,0.002678,0.000431,0.078156
3459000,0.0324,0.013523,0.002678,0.000431,0.076041
3460000,0.0324,0.013523,0.002678,0.000431,0.077686
3461000,0.0324,0.013523,0.002678,0.000431,0.076628
3462000,0.0324,0.013523,0.002678,0.000431,0.076981
3463000,0.0324,0.013523,0.002678,0.000431,0.075923
3464000,0.0324,0.013523,0.002678,0.000431,0.071927
3465000,0.0324,0.013523,0.002678,0.000431,0.071340
3466000,0.0324,0.013523,0.002678,0.000431,0.070752
3467000,0.0324,0.013523,0.002678,0.000431,0.069224
3468000,0.0324,0.013523,0.002678,0.000431,0.069107
3469000,0.0324,0.013523,0.002678,0.000431,0.067696
3470000,0.0324,0.013523,0.002678,0.000431,0.066286
3471000,0.0324,0.013523,0.002678,0.000431,0.067109
3472000,0.0324,0.013523,0.002678,0.000431,0.064053
3473000,0.0324,0.013523,0.002678,0.000431,0.065346
3474000,0.0324,0.013523,0.002678,0.000431,0.064876
3475000,0.0324,0.013523,0.002678,0.000431,0.064170
3476000,0.0324,0.013523,0.002678,0.000431,0.064405
3477000,0.0324,0.013523,0.002678,0.000431,0.063583
3478000,0.0324,0.013523,0.002678,0.000431,0.064170
3479000,0.0324,0.013523,0.002678,0.000431,0.062878
3480000,0.0324,0.013523,0.002678,0.000431,0.062055
3481000,0.0324,0.013523,0.002678,0.000431,0.061350
3482000,0.0324,0.013523,0.002678,0.000431,0.061585
3483000,0.0324,0.013523,0.002678,0.000431,0.060409
3484000,0.0324,0.013523,0.002678,0.000431,0.059939
3485000,0.0324,0.013523,0.002678,0.000431,0.060292
3486000,0.0324,0.013523,0.002678,0.000431,0.059822
3487000,0.0324,0.013523,0.002678,0.000431,0.058059
3488000,0.0324,0.013523,0.002678,0.000431,0.060762
3489000,0.0324,0.013523,0.002678,0.000431,0.057706
3490000,0.0324,0.013523,0.002678,0.000431,0.056884
3491000,0.0324,0.013523,0.002678,0.000431,0.056178
3492000,0.0324,0.013523,0.002678,0.000431,0.058059
3493000,0.0324,0.013523,0.002678,0.000431,0.056414
3494000,0.0324,0.013523,0.002678,0.000431,0.055826
3495000,0.0324,0.013523,0.002678,0.000431,0.054416
3496000,0.0324,0.013523,0.002678,0.000431,0.055003
3497000,0.0324,0.013523,0.002678,0.000431,0.055473
3498000,0.0324,0.013523,0.002678,0.000431,0.053240
3499000,0.0324,0.013523,0.002678,0.000431,0.050537
3500000,0.0324,0.013523,0.002678,0.000431,0.051477
3501000,0.0324,0.013523,0.002678,0.000431,0.050185
3502000,0.0324,0.013523,0.002678,0.000431,0.052535
3503000,0.0324,0.013523,0.002678,0.000431,0.050890
3504000,0.0324,0.013523,0.002678,0.000431,0.049362
3505000,0.0324,0.013523,0.002678,0.000431,0.050302
3506000,0.0324,0.013523,0.002678,0.000431,0.049479
3507000,0.0324,0.013523,0.002678,0.000431,0.049362
3508000,0.0324,0.013523,0.002678,0.000431,0.048774
3509000,0.0324,0.013523,0.002678,0.000431,0.048187
3510000,0.0324,0.013523,0.002678,0.000431,0.047481
3511000,0.0324,0.013523,0.002678,0.000431,0.046189
3512000,0.0324,0.013523,0.002678,0.000431,0.047246
3513000,0.0324,0.013523,0.002678,0.000431,0.045601
3514000,0.0324,0.013523,0.002678,0.000431,0.044308
3515000,0.0324,0.013523,0.002678,0.000431,0.042663
3516000,0.0324,0.013523,0.002678,0.000431,0.043603
3517000,0.0324,0.013523,0.002678,0.000431,0.043485
3518000,0.0324,0.013523,0.002678,0.000431,0.043368
3519000,0.0324,0.013523,0.002678,0.000431,0.043720
3520000,0.0324,0.013523,0.002678,0.000431,0.043956
3521000,0.0324,0.013523,0.002678,0.000431,0.042428
3522000,0.0324,0.013523,0.002678,0.000431,0.042310
3523000,0.0324,0.013523,0.002678,0.000431,0.043133
3524000,0.0324,0.013523,0.002678,0.000431,0.041487
3525000,0.0324,0.013523,0.002678,0.000431,0.041958
3526000,0.0324,0.013523,0.002678,0.000431,0.041958
3527000,0.0324,0.013523,0.002678,0.000431,0.042428
3528000,0.0324,0.013523,0.002678,0.000431,0.042310
3529000,0.0324,0.013523,0.002678,0.000431,0.041723
3530000,0.0324,0.013523,0.002678,0.000431,0.041605
3531000,0.0324,0.013523,0.002678,0.000431,0.042193
3532000,0.0324,0.013523,0.002678,0.000431,0.041605
3533000,0.0324,0.013523,0.002678,0.000431,0.042075
3534000,0.0324,0.013523,0.002678,0.000431,0.041840
3535000,0.0324,0.013523,0.002678,0.000431,0.041723
3536000,0.0324,0.013523,0.002678,0.000431,0.039842
3537000,0.0324,0.013523,0.002678,0.000431,0.042193
3538000,0.0324,0.013523,0.002678,0.000431,0.040430
3539000,0.0324,0.013523,0.002678,0.000431,0.042075
3540000,0.0324,0.013523,0.002678,0.000431,0.040077
3541000,0.0324,0.013523,0.002678,0.000431,0.041605
3542000,0.0324,0.013523,0.002678,0.000431,0.041605
3543000,0.0324,0.013523,0.002678,0.000431,0.039842
3544000,0.0324,0.013523,0.002678,0.000431,0.039019
3545000,0.0324,0.013523,0.002678,0.000431,0.038549
3546000,0.0324,0.013523,0.002678,0.000431,0.038432
3547000,0.0324,0.013523,0.002678,0.000431,0.037021
3548000,0.0324,0.013523,0.002678,0.000431,0.038079
3549000,0.0324,0.013523,0.002678,0.000431,0.038902
3550000,0.0324,0.013523,0.002678,0.000431,0.037962
3551000,0.0324,0.013523,0.002678,0.000431,0.037139
3552000,0.0324,0.013523,0.002678,0.000431,0.037844
3553000,0.0324,0.013523,0.002678,0.000431,0.037139
3554000,0.0324,0.013523,0.002678,0.000431,0.037727
3555000,0.0324,0.013523,0.002678,0.000431,0.036669
3556000,0.0324,0.013523,0.002678,0.000431,0.038197
3557000,0.0324,0.013523,0.002678,0.000431,0.035611
3558000,0.0324,0.013523,0.002678,0.000431,0.035846
3559000,0.0324,0.013523,0.002678,0.000431,0.034318
3560000,0.0324,0.013523,0.002678,0.000431,0.036199
3561000,0.0324,0.013523,0.002678,0.000431,0.035846
3562000,0.0324,0.013523,0.002678,0.000431,0.034553
3563000,0.0324,0.013523,0.002678,0.000431,0.032673
3564000,0.0324,0.013523,0.002678,0.000431,0.033731
3565000,0.0324,0.013523,0.002678,0.000431,0.033025
3566000,0.0324,0.013523,0.002678,0.000431,0.033848
3567000,0.0324,0.013523,0.002678,0.000431,0.033731
3568000,0.0324,0.013523,0.002678,0.000431,0.033025
3569000,0.0324,0.013523,0.002678,0.000431,0.033848
3570000,0.0324,0.013523,0.002678,0.000431,0.034201
3571000,0.0324,0.013523,0.002678,0.000431,0.032085
3572000,0.0324,0.013523,0.002678,0.000431,0.033378
3573000,0.0324,0.013523,0.002678,0.000431,0.033848
3574000,0.0324,0.013523,0.002678,0.000431,0.032673
3575000,0.0324,0.013523,0.002678,0.000431,0.033731
3576000,0.0324,0.013523,0.002678,0.000431,0.033143
3577000,0.0324,0.013523,0.002678,0.000431,0.034318
3578000,0.0324,0.013523,0.002678,0.000431,0.032203
3579000,0.0324,0.013523,0.002678,0.000431,0.033613
3580000,0.0324,0.013523,0.002678,0.000431,0.032555
3581000,0.0324,0.013523,0.002678,0.000431,0.035258
3582000,0.0324,0.013523,0.002678,0.000431,0.032085
3583000,0.0324,0.013523,0.002678,0.000431,0.033613
3584000,0.0324,0.013523,0.002678,0.000431,0.033496
3585000,0.0324,0.013523,0.002678,0.000431,0.034201
3586000,0.0324,0.013523,0.002678,0.000431,0.033378
3587000,0.0324,0.013523,0.002678,0.000431,0.032908
3588000,0.0324,0.013523,0.002678,0.000431,0.032908
3589000,0.0324,0.013523,0.002678,0.000431,0.032438
3590000,0.0324,0.013523,0.002678,0.000431,0.033496
3591000,0.0324,0.013523,0.002678,0.000431,0.033260
3592000,0.0324,0.013523,0.002678,0.000431,0.032908
3593000,0.0324,0.013523,0.002678,0.000431,0.032203
3594000,0.0324,0.013523,0.002678,0.000431,0.033496
3595000,0.0324,0.013523,0.002678,0.000431,0.033143
3596000,0.0324,0.013523,0.002678,0.000431,0.032085
3597000,0.0324,0.013523,0.002678,0.000431,0.032203
3598000,0.0324,0.013523,0.002678,0.000431,0.032085
3599000,0.0324,0.013523,0.002678,0.000431,0.031968
3600000,0.0324,0.013523,0.002678,0.000431,0.031850
3601000,0.0324,0.013523,0.002678,0.000431,0.032555
3602000,0.0324,0.013523,0.002678,0.000431,0.031733
3603000,0.0324,0.013523,0.002678,0.000431,0.032085
3604000,0.0324,0.013523,0.002678,0.000431,0.031733
3605000,0.0324,0.013523,0.002678,0.000431,0.031615
3606000,0.0324,0.013523,0.002678,0.000431,0.032320
3607000,0.0324,0.013523,0.002678,0.000431,0.031380
3608000,0.0324,0.013523,0.002678,0.000431,0.032673
3609000,0.0324,0.013523,0.002678,0.000431,0.033613
3610000,0.0324,0.013523,0.002678,0.000431,0.032790
3611000,0.0324,0.013523,0.002678,0.000431,0.031027
3612000,0.0324,0.013523,0.002678,0.000431,0.031145
3613000,0.0324,0.013523,0.002678,0.000431,0.030440
3614000,0.0324,0.013523,0.002678,0.000431,0.029500
3615000,0.0324,0.013523,0.002678,0.000431,0.029852
3616000,0.0324,0.013523,0.002678,0.000431,0.029735
3617000,0.0324,0.013523,0.002678,0.000431,0.029382
3618000,0.0324,0.013523,0.002678,0.000431,0.028912
3619000,0.0324,0.013523,0.002678,0.000431,0.028324
3620000,0.0324,0.013523,0.002678,0.000431,0.029852
3621000,0.0324,0.013523,0.002678,0.000431,0.028559
3622000,0.0324,0.013523,0.002678,0.000431,0.028442
3623000,0.0324,0.013523,0.002678,0.000431,0.027737
3624000,0.0324,0.013523,0.002678,0.000431,0.027619
3625000,0.0324,0.013523,0.002678,0.000431,0.029147
3626000,0.0324,0.013523,0.002678,0.000431,0.027737
3627000,0.0324,0.013523,0.002678,0.000431,0.029500
3628000,0.0324,0.013523,0.002678,0.000431,0.027972
3629000,0.0324,0.013523,0.002678,0.000431,0.028677
3630000,0.0324,0.013523,0.002678,0.000431,0.028794
3631000,0.0324,0.013523,0.002678,0.000431,0.027384
3632000,0.0324,0.013523,0.002678,0.000431,0.026679
3633000,0.0324,0.013523,0.002678,0.000431,0.028089
3634000,0.0324,0.013523,0.002678,0.000431,0.028324
3635000,0.0324,0.013523,0.002678,0.000431,0.027149
3636000,0.0324,0.013523,0.002678,0.000431,0.027149
3637000,0.0324,0.013523,0.002678,0.000431,0.027619
3638000,0.0324,0.013523,0.002678,0.000431,0.026561
3639000,0.0324,0.013523,0.002678,0.000431,0.026209
3640000,0.0324,0.013523,0.002678,0.000431,0.027149
3641000,0.0324,0.013523,0.002678,0.000431,0.027149
3642000,0.0324,0.013523,0.002678,0.000431,0.026796
3643000,0.0324,0.013523,0.002678,0.000431,0.026444
3644000,0.0324,0.013523,0.002678,0.000431,0.026796
3645000,0.0324,0.013523,0.002678,0.000431,0.026796
3646000,0.0324,0.013523,0.002678,0.000431,0.026914
3647000,0.0324,0.013523,0.002678,0.000431,0.026326
3648000,0.0324,0.013523,0.002678,0.000431,0.025504
3649000,0.0324,0.013523,0.002678,0.000431,0.025034
3650000,0.0324,0.013523,0.002678,0.000431,0.025621
3651000,0.0324,0.013523,0.002678,0.000431,0.026561
3652000,0.0324,0.013523,0.002678,0.000431,0.024328
3653000,0.0324,0.013523,0.002678,0.000431,0.024563
3654000,0.0324,0.013523,0.002678,0.000431,0.024328
3655000,0.0324,0.013523,0.002678,0.000431,0.024446
3656000,0.0324,0.013523,0.002678,0.000431,0.022683
3657000,0.0324,0.013523,0.002678,0.000431,0.023741
3658000,0.0324,0.013523,0.002678,0.000431,0.023623
3659000,0.0324,0.013523,0.002678,0.000431,0.023976
3660000,0.0324,0.013523,0.002678,0.000431,0.023858
3661000,0.0324,0.013523,0.002678,0.000431,0.023388
3662000,0.0324,0.013523,0.002678,0.000431,0.022683
3663000,0.0324,0.013523,0.002678,0.000431,0.024093
3664000,0.0324,0.013523,0.002678,0.000431,0.023976
3665000,0.0324,0.013523,0.002678,0.000431,0.023506
3666000,0.0324,0.013523,0.002678,0.000431,0.023036
3667000,0.0324,0.013523,0.002678,0.000431,0.024211
3668000,0.0324,0.013523,0.002678,0.000431,0.023506
3669000,0.0324,0.013523,0.002678,0.000431,0.024093
3670000,0.0324,0.013523,0.002678,0.000431,0.023153
3671000,0.0324,0.013523,0.002678,0.000431,0.023623
3672000,0.0324,0.013523,0.002678,0.000431,0.023858
3673000,0.0324,0.013523,0.002678,0.000431,0.023153
3674000,0.0324,0.013523,0.002678,0.000431,0.023036
3675000,0.0324,0.013523,0.002678,0.000431,0.023036
3676000,0.0324,0.013523,0.002678,0.000431,0.022448
3677000,0.0324,0.013523,0.002678,0.000431,0.023153
3678000,0.0324,0.013523,0.002678,0.000431,0.023623
3679000,0.0324,0.013523,0.002678,0.000431,0.023623
3680000,0.0324,0.013523,0.002678,0.000431,0.023741
3681000,0.0324,0.013523,0.002678,0.000431,0.022565
3682000,0.0324,0.013523,0.002678,0.000431,0.022918
3683000,0.0324,0.013523,0.002678,0.000431,0.023036
3684000,0.0324,0.013523,0.002678,0.000431,0.023036
3685000,0.0324,0.013523,0.002678,0.000431,0.022565
3686000,0.0324,0.013523,0.002678,0.000431,0.023153
3687000,0.0324,0.013523,0.002678,0.000431,0.023271
3688000,0.0324,0.013523,0.002678,0.000431,0.023388
3689000,0.0324,0.013523,0.002678,0.000431,0.023271
3690000,0.0324,0.013523,0.002678,0.000431,0.022918
3691000,0.0324,0.013523,0.002678,0.000431,0.023153
3692000,0.0324,0.013523,0.002678,0.000431,0.023271
3693000,0.0324,0.013523,0.002678,0.000431,0.022683
3694000,0.0324,0.013523,0.002678,0.000431,0.022213
3695000,0.0324,0.013523,0.002678,0.000431,0.022095
3696000,0.0324,0.013523,0.002678,0.000431,0.022330
3697000,0.0324,0.013523,0.002678,0.000431,0.022330
3698000,0.0324,0.013523,0.002678,0.000431,0.022448
3699000,0.0324,0.013523,0.002678,0.000431,0.021273
3700000,0.0324,0.013523,0.002678,0.000431,0.022095
3701000,0.0324,0.013523,0.002678,0.000431,0.021625
3702000,0.0324,0.013523,0.002678,0.000431,0.021390
3703000,0.0324,0.013523,0.002678,0.000431,0.022565
3704000,0.0324,0.013523,0.002678,0.000431,0.021625
3705000,0.0324,0.013523,0.002678,0.000431,0.021625
3706000,0.0324,0.013523,0.002678,0.000431,0.021978
3707000,0.0324,0.013523,0.002678,0.000431,0.022095
3708000,0.0324,0.013523,0.002678,0.000431,0.021978
3709000,0.0324,0.013523,0.002678,0.000431,0.021508
3710000,0.0324,0.013523,0.002678,0.000431,0.021978
3711000,0.0324,0.013523,0.002678,0.000431,0.022213
3712000,0.0324,0.013523,0.002678,0.000431,0.021978
3713000,0.0324,0.013523,0.002678,0.000431,0.021978
3714000,0.0324,0.013523,0.002678,0.000431,0.021155
3715000,0.0324,0.013523,0.002678,0.000431,0.021273
3716000,0.0324,0.013523,0.002678,0.000431,0.022683
3717000,0.0324,0.013523,0.002678,0.000431,0.021508
3718000,0.0324,0.013523,0.002678,0.000431,0.021860
3719000,0.0324,0.013523,0.002678,0.000431,0.021860
3720000,0.0324,0.013523,0.002678,0.000431,0.021978
3721000,0.0324,0.013523,0.002678,0.000431,0.021978
3722000,0.0324,0.013523,0.002678,0.000431,0.021273
3723000,0.0324,0.013523,0.002678,0.000431,0.021390
3724000,0.0324,0.013523,0.002678,0.000431,0.022330
3725000,0.0324,0.013523,0.002678,0.000431,0.021743
3726000,0.0324,0.013523,0.002678,0.000431,0.021390
3727000,0.0324,0.013523,0.002678,0.000431,0.020920
3728000,0.0324,0.013523,0.002678,0.000431,0.022213
3729000,0.0324,0.013523,0.002678,0.000431,0.019980
3730000,0.0324,0.013523,0.002678,0.000431,0.021625
3731000,0.0324,0.013523,0.002678,0.000431,0.022213
3732000,0.0324,0.013523,0.002678,0.000431,0.021978
3733000,0.0324,0.013523,0.002678,0.000431,0.020685
3734000,0.0324,0.013523,0.002678,0.000431,0.021390
3735000,0.0324,0.013523,0.002678,0.000431,0.019627
3736000,0.0324,0.013523,0.002678,0.000431,0.019980
3737000,0.0324,0.013523,0.002678,0.000431,0.017864
3738000,0.0324,0.013523,0.002678,0.000431,0.018687
3739000,0.0324,0.013523,0.002678,0.000431,0.018569
3740000,0.0324,0.013523,0.002678,0.000431,0.017747
3741000,0.0324,0.013523,0.002678,0.000431,0.019157
3742000,0.0324,0.013523,0.002678,0.000431,0.018217
3743000,0.0324,0.013523,0.002678,0.000431,0.019040
3744000,0.0324,0.013523,0.002678,0.000431,0.019157
3745000,0.0324,0.013523,0.002678,0.000431,0.017864
3746000,0.0324,0.013523,0.002678,0.000431,0.018687
3747000,0.0324,0.013523,0.002678,0.000431,0.018922
3748000,0.0324,0.013523,0.002678,0.000431,0.018687
3749000,0.0324,0.013523,0.002678,0.000431,0.018805
3750000,0.0324,0.013523,0.002678,0.000431,0.018099
3751000,0.0324,0.013523,0.002678,0.000431,0.018334
3752000,0.0324,0.013523,0.002678,0.000431,0.019510
3753000,0.0324,0.013523,0.002678,0.000431,0.017747
3754000,0.0324,0.013523,0.002678,0.000431,0.018805
3755000,0.0324,0.013523,0.002678,0.000431,0.017864
3756000,0.0324,0.013523,0.002678,0.000431,0.018805
3757000,0.0324,0.013523,0.002678,0.000431,0.018687
3758000,0.0324,0.013523,0.002678,0.000431,0.018922
3759000,0.0324,0.013523,0.002678,0.000431,0.018099
3760000,0.0324,0.013523,0.002678,0.000431,0.017747
3761000,0.0324,0.013523,0.002678,0.000431,0.018099
3762000,0.0324,0.013523,0.002678,0.000431,0.018569
3763000,0.0324,0.013523,0.002678,0.000431,0.018922
3764000,0.0324,0.013523,0.002678,0.000431,0.018452
3765000,0.0324,0.013523,0.002678,0.000431,0.017747
3766000,0.0324,0.013523,0.002678,0.000431,0.017277
3767000,0.0324,0.013523,0.002678,0.000431,0.017394
3768000,0.0324,0.013523,0.002678,0.000431,0.018217
3769000,0.0324,0.013523,0.002678,0.000431,0.017512
3770000,0.0324,0.013523,0.002678,0.000431,0.017629
3771000,0.0324,0.013523,0.002678,0.000431,0.018217
3772000,0.0324,0.013523,0.002678,0.000431,0.017982
3773000,0.0324,0.013523,0.002678,0.000431,0.017982
3774000,0.0324,0.013523,0.002678,0.000431,0.017629
3775000,0.0324,0.013523,0.002678,0.000431,0.018569
3776000,0.0324,0.013523,0.002678,0.000431,0.017747
3777000,0.0324,0.013523,0.002678,0.000431,0.017629
3778000,0.0324,0.013523,0.002678,0.000431,0.016689
3779000,0.0324,0.013523,0.002678,0.000431,0.015396
3780000,0.0324,0.013523,0.002678,0.000431,0.016219
3781000,0.0324,0.013523,0.002678,0.000431,0.014926
3782000,0.0324,0.013523,0.002678,0.000431,0.015161
3783000,0.0324,0.013523,0.002678,0.000431,0.015984
3784000,0.0324,0.013523,0.002678,0.000431,0.016101
3785000,0.0324,0.013523,0.002678,0.000431,0.015514
3786000,0.0324,0.013523,0.002678,0.000431,0.016101
3787000,0.0324,0.013523,0.002678,0.000431,0.015279
3788000,0.0324,0.013523,0.002678,0.000431,0.016219
3789000,0.0324,0.013523,0.002678,0.000431,0.015984
3790000,0.0324,0.013523,0.002678,0.000431,0.015984
3791000,0.0324,0.013523,0.002678,0.000431,0.014926
3792000,0.0324,0.013523,0.002678,0.000431,0.015514
3793000,0.0324,0.013523,0.002678,0.000431,0.015984
3794000,0.0324,0.013523,0.002678,0.000431,0.015161
3795000,0.0324,0.013523,0.002678,0.000431,0.014926
3796000,0.0324,0.013523,0.002678,0.000431,0.015279
3797000,0.0324,0.013523,0.002678,0.000431,0.015866
3798000,0.0324,0.013523,0.002678,0.000431,0.014926
3799000,0.0324,0.013523,0.002678,0.000431,0.015279
3800000,0.0324,0.013523,0.002678,0.000431,0.014926
3801000,0.0324,0.013523,0.002678,0.000431,0.015161
3802000,0.0324,0.013523,0.002678,0.000431,0.015044
3803000,0.0324,0.013523,0.002678,0.000431,0.015396
3804000,0.0324,0.013523,0.002678,0.000431,0.014926
3805000,0.0324,0.013523,0.002678,0.000431,0.015044
3806000,0.0324,0.013523,0.002678,0.000431,0.015514
3807000,0.0324,0.013523,0.002678,0.000431,0.014926
3808000,0.0324,0.013523,0.002678,0.000431,0.013986
3809000,0.0324,0.013523,0.002678,0.000431,0.013986
3810000,0.0324,0.013523,0.002678,0.000431,0.013986
3811000,0.0324,0.013523,0.002678,0.000431,0.014809
3812000,0.0324,0.013523,0.002678,0.000431,0.014103
3813000,0.0324,0.013523,0.002678,0.000431,0.014691
3814000,0.0324,0.013523,0.002678,0.000431,0.014456
3815000,0.0324,0.013523,0.002678,0.000431,0.014338
3816000,0.0324,0.013523,0.002678,0.000431,0.013868
3817000,0.0324,0.013523,0.002678,0.000431,0.014221
3818000,0.0324,0.013523,0.002678,0.000431,0.013986
3819000,0.0324,0.013523,0.002678,0.000431,0.014691
3820000,0.0324,0.013523,0.002678,0.000431,0.013633
3821000,0.0324,0.013523,0.002678,0.000431,0.014456
3822000,0.0324,0.013523,0.002678,0.000431,0.013868
3823000,0.0324,0.013523,0.002678,0.000431,0.014338
3824000,0.0324,0.013523,0.002678,0.000431,0.013986
3825000,0.0324,0.013523,0.002678,0.000431,0.014338
3826000,0.0324,0.013523,0.002678,0.000431,0.014456
3827000,0.0324,0.013523,0.002678,0.000431,0.014221
3828000,0.0324,0.013523,0.002678,0.000431,0.014221
3829000,0.0324,0.013523,0.002678,0.000431,0.013868
3830000,0.0324,0.013523,0.002678,0.000431,0.014926
3831000,0.0324,0.013523,0.002678,0.000431,0.014221
3832000,0.0324,0.013523,0.002678,0.000431,0.014338
3833000,0.0324,0.013523,0.002678,0.000431,0.014573
3834000,0.0324,0.013523,0.002678,0.000431,0.013986
3835000,0.0324,0.013523,0.002678,0.000431,0.015044
3836000,0.0324,0.013523,0.002678,0.000431,0.014338
3837000,0.0324,0.013523,0.002678,0.000431,0.014456
3838000,0.0324,0.013523,0.002678,0.000431,0.014338
3839000,0.0324,0.013523,0.002678,0.000431,0.013986
3840000,0.0324,0.013523,0.002678,0.000431,0.014691
3841000,0.0324,0.013523,0.002678,0.000431,0.013868
3842000,0.0324,0.013523,0.002678,0.000431,0.014221
3843000,0.0324,0.013523,0.002678,0.000431,0.014221
3844000,0.0324,0.013523,0.002678,0.000431,0.014221
3845000,0.0324,0.013523,0.002678,0.000431,0.013986
3846000,0.0324,0.013523,0.002678,0.000431,0.014221
3847000,0.0324,0.013523,0.002678,0.000431,0.014573
3848000,0.0324,0.013523,0.002678,0.000431,0.014338
3849000,0.0324,0.013523,0.002678,0.000431,0.014456
3850000,0.0324,0.013523,0.002678,0.000431,0.013633
3851000,0.0324,0.013523,0.002678,0.000431,0.013986
3852000,0.0324,0.013523,0.002678,0.000431,0.014456
3853000,0.0324,0.013523,0.002678,0.000431,0.014338
3854000,0.0324,0.013523,0.002678,0.000431,0.014456
3855000,0.0324,0.013523,0.002678,0.000431,0.014456
3856000,0.0324,0.013523,0.002678,0.000431,0.014691
3857000,0.0324,0.013523,0.002678,0.000431,0.014338
3858000,0.0324,0.013523,0.002678,0.000431,0.014103
3859000,0.0324,0.013523,0.002678,0.000431,0.014221
3860000,0.0324,0.013523,0.002678,0.000431,0.014221
3861000,0.0324,0.013523,0.002678,0.000431,0.014573
3862000,0.0324,0.013523,0.002678,0.000431,0.013751
3863000,0.0324,0.013523,0.002678,0.000431,0.013046
3864000,0.0324,0.013523,0.002678,0.000431,0.013163
3865000,0.0324,0.013523,0.002678,0.000431,0.013751
3866000,0.0324,0.013523,0.002678,0.000431,0.013868
3867000,0.0324,0.013523,0.002678,0.000431,0.013281
3868000,0.0324,0.013523,0.002678,0.000431,0.014103
3869000,0.0324,0.013523,0.002678,0.000431,0.013516
3870000,0.0324,0.013523,0.002678,0.000431,0.012928
3871000,0.0324,0.013523,0.002678,0.000431,0.013986
3872000,0.0324,0.013523,0.002678,0.000431,0.013516
3873000,0.0324,0.013523,0.002678,0.000431,0.014103
3874000,0.0324,0.013523,0.002678,0.000431,0.013633
3875000,0.0324,0.013523,0.002678,0.000431,0.013751
3876000,0.0324,0.013523,0.002678,0.000431,0.013516
3877000,0.0324,0.013523,0.002678,0.000431,0.013868
3878000,0.0324,0.013523,0.002678,0.000431,0.013868
3879000,0.0324,0.013523,0.002678,0.000431,0.013516
3880000,0.0324,0.013523,0.002678,0.000431,0.013398
3881000,0.0324,0.013523,0.002678,0.000431,0.012928
3882000,0.0324,0.013523,0.002678,0.000431,0.013163
3883000,0.0324,0.013523,0.002678,0.000431,0.012811
3884000,0.0324,0.013523,0.002678,0.000431,0.013163
3885000,0.0324,0.013523,0.002678,0.000431,0.013046
3886000,0.0324,0.013523,0.002678,0.000431,0.012458
3887000,0.0324,0.013523,0.002678,0.000431,0.012693
3888000,0.0324,0.013523,0.002678,0.000431,0.013281
3889000,0.0324,0.013523,0.002678,0.000431,0.013046
3890000,0.0324,0.013523,0.002678,0.000431,0.011753
3891000,0.0324,0.013523,0.002678,0.000431,0.012576
3892000,0.0324,0.013523,0.002678,0.000431,0.011870
3893000,0.0324,0.013523,0.002678,0.000431,0.012576
3894000,0.0324,0.013523,0.002678,0.000431,0.011753
3895000,0.0324,0.013523,0.002678,0.000431,0.012340
3896000,0.0324,0.013523,0.002678,0.000431,0.012223
3897000,0.0324,0.013523,0.002678,0.000431,0.012458
3898000,0.0324,0.013523,0.002678,0.000431,0.012223
3899000,0.0324,0.013523,0.002678,0.000431,0.012105
3900000,0.0324,0.013523,0.002678,0.000431,0.012223
3901000,0.0324,0.013523,0.002678,0.000431,0.012811
3902000,0.0324,0.013523,0.002678,0.000431,0.011870
3903000,0.0324,0.013523,0.002678,0.000431,0.012340
3904000,0.0324,0.013523,0.002678,0.000431,0.011988
3905000,0.0324,0.013523,0.002678,0.000431,0.012105
3906000,0.0324,0.013523,0.002678,0.000431,0.012576
3907000,0.0324,0.013523,0.002678,0.000431,0.012105
3908000,0.0324,0.013523,0.002678,0.000431,0.011870
3909000,0.0324,0.013523,0.002678,0.000431,0.012458
3910000,0.0324,0.013523,0.002678,0.000431,0.011753
3911000,0.0324,0.013523,0.002678,0.000431,0.012693
3912000,0.0324,0.013523,0.002678,0.000431,0.012928
3913000,0.0324,0.013523,0.002678,0.000431,0.011753
3914000,0.0324,0.013523,0.002678,0.000431,0.012105
3915000,0.0324,0.013523,0.002678,0.000431,0.011518
3916000,0.0324,0.013523,0.002678,0.000431,0.011518
3917000,0.0324,0.013523,0.002678,0.000431,0.012105
3918000,0.0324,0.013523,0.002678,0.000431,0.011518
3919000,0.0324,0.013523,0.002678,0.000431,0.011400
3920000,0.0324,0.013523,0.002678,0.000431,0.011870
3921000,0.0324,0.013523,0.002678,0.000431,0.011518
3922000,0.0324,0.013523,0.002678,0.000431,0.011988
3923000,0.0324,0.013523,0.002678,0.000431,0.011400
3924000,0.0324,0.013523,0.002678,0.000431,0.012105
3925000,0.0324,0.013523,0.002678,0.000431,0.011518
3926000,0.0324,0.013523,0.002678,0.000431,0.011165
3927000,0.0324,0.013523,0.002678,0.000431,0.010695
3928000,0.0324,0.013523,0.002678,0.000431,0.010813
3929000,0.0324,0.013523,0.002678,0.000431,0.011165
3930000,0.0324,0.013523,0.002678,0.000431,0.010578
3931000,0.0324,0.013523,0.002678,0.000431,0.011518
3932000,0.0324,0.013523,0.002678,0.000431,0.010930
3933000,0.0324,0.013523,0.002678,0.000431,0.010930
3934000,0.0324,0.013523,0.002678,0.000431,0.010578
3935000,0.0324,0.013523,0.002678,0.000431,0.010695
3936000,0.0324,0.013523,0.002678,0.000431,0.011400
3937000,0.0324,0.013523,0.002678,0.000431,0.010695
3938000,0.0324,0.013523,0.002678,0.000431,0.010930
3939000,0.0324,0.013523,0.002678,0.000431,0.011048
3940000,0.0324,0.013523,0.002678,0.000431,0.010460
3941000,0.0324,0.013523,0.002678,0.000431,0.010695
3942000,0.0324,0.013523,0.002678,0.000431,0.011400
3943000,0.0324,0.013523,0.002678,0.000431,0.010930
3944000,0.0324,0.013523,0.002678,0.000431,0.011635
3945000,0.0324,0.013523,0.002678,0.000431,0.011165
3946000,0.0324,0.013523,0.002678,0.000431,0.011048
3947000,0.0324,0.013523,0.002678,0.000431,0.011048
3948000,0.0324,0.013523,0.002678,0.000431,0.010342
3949000,0.0324,0.013523,0.002678,0.000431,0.010813
3950000,0.0324,0.013523,0.002678,0.000431,0.011400
3951000,0.0324,0.013523,0.002678,0.000431,0.011048
3952000,0.0324,0.013523,0.002678,0.000431,0.011283
3953000,0.0324,0.013523,0.002678,0.000431,0.010813
3954000,0.0324,0.013523,0.002678,0.000431,0.011048
3955000,0.0324,0.013523,0.002678,0.000431,0.011048
3956000,0.0324,0.013523,0.002678,0.000431,0.010695
3957000,0.0324,0.013523,0.002678,0.000431,0.011283
3958000,0.0324,0.013523,0.002678,0.000431,0.010813
3959000,0.0324,0.013523,0.002678,0.000431,0.011048
3960000,0.0324,0.013523,0.002678,0.000431,0.010813
3961000,0.0324,0.013523,0.002678,0.000431,0.010930
3962000,0.0324,0.013523,0.002678,0.000431,0.010930
3963000,0.0324,0.013523,0.002678,0.000431,0.010930
3964000,0.0324,0.013523,0.002678,0.000431,0.011165
3965000,0.0324,0.013523,0.002678,0.000431,0.011048
3966000,0.0324,0.013523,0.002678,0.000431,0.011165
3967000,0.0324,0.013523,0.002678,0.000431,0.010930
3968000,0.0324,0.013523,0.002678,0.000431,0.010813
3969000,0.0324,0.013523,0.002678,0.000431,0.011165
3970000,0.0324,0.013523,0.002678,0.000431,0.011165
3971000,0.0324,0.013523,0.002678,0.000431,0.011048
3972000,0.0324,0.013523,0.002678,0.000431,0.011283
3973000,0.0324,0.013523,0.002678,0.000431,0.010342
3974000,0.0324,0.013523,0.002678,0.000431,0.011283
3975000,0.0324,0.013523,0.002678,0.000431,0.011518
3976000,0.0324,0.013523,0.002678,0.000431,0.010813
3977000,0.0324,0.013523,0.002678,0.000431,0.011048
3978000,0.0324,0.013523,0.002678,0.000431,0.010813
3979000,0.0324,0.013523,0.002678,0.000431,0.010813
3980000,0.0324,0.013523,0.002678,0.000431,0.009755
3981000,0.0324,0.013523,0.002678,0.000431,0.009872
3982000,0.0324,0.013523,0.002678,0.000431,0.010107
3983000,0.0324,0.013523,0.002678,0.000431,0.008932
3984000,0.0324,0.013523,0.002678,0.000431,0.009167
3985000,0.0324,0.013523,0.002678,0.000431,0.009402
3986000,0.0324,0.013523,0.002678,0.000431,0.009520
3987000,0.0324,0.013523,0.002678,0.000431,0.009520
3988000,0.0324,0.013523,0.002678,0.000431,0.009872
3989000,0.0324,0.013523,0.002678,0.000431,0.009755
3990000,0.0324,0.013523,0.002678,0.000431,0.010225
3991000,0.0324,0.013523,0.002678,0.000431,0.009402
3992000,0.0324,0.013523,0.002678,0.000431,0.009167
3993000,0.0324,0.013523,0.002678,0.000431,0.008580
3994000,0.0324,0.013523,0.002678,0.000431,0.009167
3995000,0.0324,0.013523,0.002678,0.000431,0.008580
3996000,0.0324,0.013523,0.002678,0.000431,0.009167
3997000,0.0324,0.013523,0.002678,0.000431,0.008462
3998000,0.0324,0.013523,0.002678,0.000431,0.009285
3999000,0.0324,0.013523,0.002678,0.000431,0.008580
