Cycle,Area(mm^2),PeakDynamic(W),SubthresholdLeakage(W),GateLeakage(W),RunTimeDynamic(W)
2000000,0.0324,0.013523,0.002678,0.000431,0.861834
2001000,0.0324,0.013523,0.002678,0.000431,0.784383
2002000,0.0324,0.013523,0.002678,0.000431,0.747009
2003000,0.0324,0.013523,0.002678,0.000431,0.701526
2004000,0.0324,0.013523,0.002678,0.000431,0.576006
2005000,0.0324,0.013523,0.002678,0.000431,0.595163
2006000,0.0324,0.013523,0.002678,0.000431,0.585525
2007000,0.0324,0.013523,0.002678,0.000431,0.479162
2008000,0.0324,0.013523,0.002678,0.000431,0.560492
2009000,0.0324,0.013523,0.002678,0.000431,0.507722
2010000,0.0324,0.013523,0.002678,0.000431,0.598336
2011000,0.0324,0.013523,0.002678,0.000431,0.588229
2012000,0.0324,0.013523,0.002678,0.000431,0.486919
2013000,0.0324,0.013523,0.002678,0.000431,0.504313
2014000,0.0324,0.013523,0.002678,0.000431,0.468467
2015000,0.0324,0.013523,0.002678,0.000431,0.439790
2016000,0.0324,0.013523,0.002678,0.000431,0.455539
2017000,0.0324,0.013523,0.002678,0.000431,0.451543
2018000,0.0324,0.013523,0.002678,0.000431,0.379263
2019000,0.0324,0.013523,0.002678,0.000431,0.379028
2020000,0.0324,0.013523,0.002678,0.000431,0.460593
2021000,0.0324,0.013523,0.002678,0.000431,0.586818
2022000,0.0324,0.013523,0.002678,0.000431,0.665210
2023000,0.0324,0.013523,0.002678,0.000431,0.644172
2024000,0.0324,0.013523,0.002678,0.000431,0.852079
2025000,0.0324,0.013523,0.002678,0.000431,0.803305
2026000,0.0324,0.013523,0.002678,0.000431,0.836448
2027000,0.0324,0.013523,0.002678,0.000431,0.852314
2028000,0.0324,0.013523,0.002678,0.000431,0.795313
2029000,0.0324,0.013523,0.002678,0.000431,0.715864
2030000,0.0324,0.013523,0.002678,0.000431,0.632184
2031000,0.0324,0.013523,0.002678,0.000431,0.627365
2032000,0.0324,0.013523,0.002678,0.000431,0.647110
2033000,0.0324,0.013523,0.002678,0.000431,0.623957
2034000,0.0324,0.013523,0.002678,0.000431,0.586348
2035000,0.0324,0.013523,0.002678,0.000431,0.536516
2036000,0.0324,0.013523,0.002678,0.000431,0.507134
2037000,0.0324,0.013523,0.002678,0.000431,0.487389
2038000,0.0324,0.013523,0.002678,0.000431,0.558259
2039000,0.0324,0.013523,0.002678,0.000431,0.638883
2040000,0.0324,0.013523,0.002678,0.000431,0.558729
2041000,0.0324,0.013523,0.002678,0.000431,0.591519
2042000,0.0324,0.013523,0.002678,0.000431,0.672026
2043000,0.0324,0.013523,0.002678,0.000431,0.679901
2044000,0.0324,0.013523,0.002678,0.000431,0.657805
2045000,0.0324,0.013523,0.002678,0.000431,0.601744
2046000,0.0324,0.013523,0.002678,0.000431,0.654985
2047000,0.0324,0.013523,0.002678,0.000431,0.639588
2048000,0.0324,0.013523,0.002678,0.000431,0.646052
2049000,0.0324,0.013523,0.002678,0.000431,0.635827
2050000,0.0324,0.013523,0.002678,0.000431,0.686717
2051000,0.0324,0.013523,0.002678,0.000431,0.746892
2052000,0.0324,0.013523,0.002678,0.000431,0.734199
2053000,0.0324,0.013523,0.002678,0.000431,0.740428
2054000,0.0324,0.013523,0.002678,0.000431,0.639941
2055000,0.0324,0.013523,0.002678,0.000431,0.618786
2056000,0.0324,0.013523,0.002678,0.000431,0.590932
2057000,0.0324,0.013523,0.002678,0.000431,0.639706
2058000,0.0324,0.013523,0.002678,0.000431,0.556026
2059000,0.0324,0.013523,0.002678,0.000431,0.530522
2060000,0.0324,0.013523,0.002678,0.000431,0.584350
2061000,0.0324,0.013523,0.002678,0.000431,0.677432
2062000,0.0324,0.013523,0.002678,0.000431,0.509015
2063000,0.0324,0.013523,0.002678,0.000431,0.554145
2064000,0.0324,0.013523,0.002678,0.000431,0.639706
2065000,0.0324,0.013523,0.002678,0.000431,0.585525
2066000,0.0324,0.013523,0.002678,0.000431,0.528407
2067000,0.0324,0.013523,0.002678,0.000431,0.619844
2068000,0.0324,0.013523,0.002678,0.000431,0.644054
2069000,0.0324,0.013523,0.002678,0.000431,0.570482
2070000,0.0324,0.013523,0.002678,0.000431,0.715512
2071000,0.0324,0.013523,0.002678,0.000431,0.662271
2072000,0.0324,0.013523,0.002678,0.000431,0.689655
2073000,0.0324,0.013523,0.002678,0.000431,0.640764
2074000,0.0324,0.013523,0.002678,0.000431,0.694474
2075000,0.0324,0.013523,0.002678,0.000431,0.703759
2076000,0.0324,0.013523,0.002678,0.000431,0.662036
2077000,0.0324,0.013523,0.002678,0.000431,0.735021
2078000,0.0324,0.013523,0.002678,0.000431,0.646993
2079000,0.0324,0.013523,0.002678,0.000431,0.585173
2080000,0.0324,0.013523,0.002678,0.000431,0.732436
2081000,0.0324,0.013523,0.002678,0.000431,0.703289
2082000,0.0324,0.013523,0.002678,0.000431,0.678725
2083000,0.0324,0.013523,0.002678,0.000431,0.593400
2084000,0.0324,0.013523,0.002678,0.000431,0.613850
2085000,0.0324,0.013523,0.002678,0.000431,0.597631
2086000,0.0324,0.013523,0.002678,0.000431,0.556261
2087000,0.0324,0.013523,0.002678,0.000431,0.569542
2088000,0.0324,0.013523,0.002678,0.000431,0.594222
2089000,0.0324,0.013523,0.002678,0.000431,0.604095
2090000,0.0324,0.013523,0.002678,0.000431,0.568484
2091000,0.0324,0.013523,0.002678,0.000431,0.537809
2092000,0.0324,0.013523,0.002678,0.000431,0.557906
2093000,0.0324,0.013523,0.002678,0.000431,0.541217
2094000,0.0324,0.013523,0.002678,0.000431,0.591754
2095000,0.0324,0.013523,0.002678,0.000431,0.590227
2096000,0.0324,0.013523,0.002678,0.000431,0.500670
2097000,0.0324,0.013523,0.002678,0.000431,0.565781
2098000,0.0324,0.013523,0.002678,0.000431,0.503608
2099000,0.0324,0.013523,0.002678,0.000431,0.451896
2100000,0.0324,0.013523,0.002678,0.000431,0.510542
2101000,0.0324,0.013523,0.002678,0.000431,0.531697
2102000,0.0324,0.013523,0.002678,0.000431,0.446255
2103000,0.0324,0.013523,0.002678,0.000431,0.409116
2104000,0.0324,0.013523,0.002678,0.000431,0.579179
2105000,0.0324,0.013523,0.002678,0.000431,0.581059
2106000,0.0324,0.013523,0.002678,0.000431,0.511718
2107000,0.0324,0.013523,0.002678,0.000431,0.455539
2108000,0.0324,0.013523,0.002678,0.000431,0.541805
2109000,0.0324,0.013523,0.002678,0.000431,0.615378
2110000,0.0324,0.013523,0.002678,0.000431,0.547916
2111000,0.0324,0.013523,0.002678,0.000431,0.464589
2112000,0.0324,0.013523,0.002678,0.000431,0.491150
2113000,0.0324,0.013523,0.002678,0.000431,0.495969
2114000,0.0324,0.013523,0.002678,0.000431,0.459888
2115000,0.0324,0.013523,0.002678,0.000431,0.517594
2116000,0.0324,0.013523,0.002678,0.000431,0.489035
2117000,0.0324,0.013523,0.002678,0.000431,0.444492
2118000,0.0324,0.013523,0.002678,0.000431,0.478457
2119000,0.0324,0.013523,0.002678,0.000431,0.500905
2120000,0.0324,0.013523,0.002678,0.000431,0.523706
2121000,0.0324,0.013523,0.002678,0.000431,0.589991
2122000,0.0324,0.013523,0.002678,0.000431,0.535223
2123000,0.0324,0.013523,0.002678,0.000431,0.558494
2124000,0.0324,0.013523,0.002678,0.000431,0.513833
2125000,0.0324,0.013523,0.002678,0.000431,0.453189
2126000,0.0324,0.013523,0.002678,0.000431,0.484569
2127000,0.0324,0.013523,0.002678,0.000431,0.550149
2128000,0.0324,0.013523,0.002678,0.000431,0.575183
2129000,0.0324,0.013523,0.002678,0.000431,0.786969
2130000,0.0324,0.013523,0.002678,0.000431,0.666385
2131000,0.0324,0.013523,0.002678,0.000431,0.728675
2132000,0.0324,0.013523,0.002678,0.000431,0.829866
2133000,0.0324,0.013523,0.002678,0.000431,0.821522
2134000,0.0324,0.013523,0.002678,0.000431,0.981125
2135000,0.0324,0.013523,0.002678,0.000431,0.940813
2136000,0.0324,0.013523,0.002678,0.000431,1.030722
2137000,0.0324,0.013523,0.002678,0.000431,0.998754
2138000,0.0324,0.013523,0.002678,0.000431,1.031075
2139000,0.0324,0.013523,0.002678,0.000431,0.986767
2140000,0.0324,0.013523,0.002678,0.000431,0.932821
2141000,0.0324,0.013523,0.002678,0.000431,0.884282
2142000,0.0324,0.013523,0.002678,0.000431,0.856780
2143000,0.0324,0.013523,0.002678,0.000431,0.790377
2144000,0.0324,0.013523,0.002678,0.000431,0.745599
2145000,0.0324,0.013523,0.002678,0.000431,0.645935
2146000,0.0324,0.013523,0.002678,0.000431,0.747832
2147000,0.0324,0.013523,0.002678,0.000431,0.686130
2148000,0.0324,0.013523,0.002678,0.000431,0.603625
2149000,0.0324,0.013523,0.002678,0.000431,0.601274
2150000,0.0324,0.013523,0.002678,0.000431,0.636650
2151000,0.0324,0.013523,0.002678,0.000431,0.575183
2152000,0.0324,0.013523,0.002678,0.000431,0.521237
2153000,0.0324,0.013523,0.002678,0.000431,0.503138
2154000,0.0324,0.013523,0.002678,0.000431,0.478575
2155000,0.0324,0.013523,0.002678,0.000431,0.499377
2156000,0.0324,0.013523,0.002678,0.000431,0.489975
2157000,0.0324,0.013523,0.002678,0.000431,0.488330
2158000,0.0324,0.013523,0.002678,0.000431,0.521120
2159000,0.0324,0.013523,0.002678,0.000431,0.593282
2160000,0.0324,0.013523,0.002678,0.000431,0.628776
2161000,0.0324,0.013523,0.002678,0.000431,0.653222
2162000,0.0324,0.013523,0.002678,0.000431,0.658745
2163000,0.0324,0.013523,0.002678,0.000431,0.614320
2164000,0.0324,0.013523,0.002678,0.000431,0.705404
2165000,0.0324,0.013523,0.002678,0.000431,0.725031
2166000,0.0324,0.013523,0.002678,0.000431,0.660273
2167000,0.0324,0.013523,0.002678,0.000431,0.624897
2168000,0.0324,0.013523,0.002678,0.000431,0.648873
2169000,0.0324,0.013523,0.002678,0.000431,0.728087
2170000,0.0324,0.013523,0.002678,0.000431,0.872647
2171000,0.0324,0.013523,0.002678,0.000431,0.718097
2172000,0.0324,0.013523,0.002678,0.000431,0.689890
2173000,0.0324,0.013523,0.002678,0.000431,0.819994
2174000,0.0324,0.013523,0.002678,0.000431,0.681311
2175000,0.0324,0.013523,0.002678,0.000431,0.630539
2176000,0.0324,0.013523,0.002678,0.000431,0.718685
2177000,0.0324,0.013523,0.002678,0.000431,0.655220
2178000,0.0324,0.013523,0.002678,0.000431,0.552147
2179000,0.0324,0.013523,0.002678,0.000431,0.536516
2180000,0.0324,0.013523,0.002678,0.000431,0.481866
2181000,0.0324,0.013523,0.002678,0.000431,0.472346
2182000,0.0324,0.013523,0.002678,0.000431,0.473991
2183000,0.0324,0.013523,0.002678,0.000431,0.403709
2184000,0.0324,0.013523,0.002678,0.000431,0.455774
2185000,0.0324,0.013523,0.002678,0.000431,0.481395
2186000,0.0324,0.013523,0.002678,0.000431,0.491973
2187000,0.0324,0.013523,0.002678,0.000431,0.514421
2188000,0.0324,0.013523,0.002678,0.000431,0.564370
2189000,0.0324,0.013523,0.002678,0.000431,0.489622
2190000,0.0324,0.013523,0.002678,0.000431,0.560609
2191000,0.0324,0.013523,0.002678,0.000431,0.552030
2192000,0.0324,0.013523,0.002678,0.000431,0.525233
2193000,0.0324,0.013523,0.002678,0.000431,0.639236
2194000,0.0324,0.013523,0.002678,0.000431,0.682134
2195000,0.0324,0.013523,0.002678,0.000431,0.681428
2196000,0.0324,0.013523,0.002678,0.000431,0.616435
2197000,0.0324,0.013523,0.002678,0.000431,0.653104
2198000,0.0324,0.013523,0.002678,0.000431,0.662976
2199000,0.0324,0.013523,0.002678,0.000431,0.696237
2200000,0.0324,0.013523,0.002678,0.000431,0.665092
2201000,0.0324,0.013523,0.002678,0.000431,0.770867
2202000,0.0324,0.013523,0.002678,0.000431,0.720918
2203000,0.0324,0.013523,0.002678,0.000431,0.678608
2204000,0.0324,0.013523,0.002678,0.000431,0.653692
2205000,0.0324,0.013523,0.002678,0.000431,0.685072
2206000,0.0324,0.013523,0.002678,0.000431,0.648521
2207000,0.0324,0.013523,0.002678,0.000431,0.622429
2208000,0.0324,0.013523,0.002678,0.000431,0.552500
2209000,0.0324,0.013523,0.002678,0.000431,0.506076
2210000,0.0324,0.013523,0.002678,0.000431,0.481866
2211000,0.0324,0.013523,0.002678,0.000431,0.449193
2212000,0.0324,0.013523,0.002678,0.000431,0.440026
2213000,0.0324,0.013523,0.002678,0.000431,0.361634
2214000,0.0324,0.013523,0.002678,0.000431,0.322615
2215000,0.0324,0.013523,0.002678,0.000431,0.348706
2216000,0.0324,0.013523,0.002678,0.000431,0.473756
2217000,0.0324,0.013523,0.002678,0.000431,0.531697
2218000,0.0324,0.013523,0.002678,0.000431,0.582822
2219000,0.0324,0.013523,0.002678,0.000431,0.569189
2220000,0.0324,0.013523,0.002678,0.000431,0.630891
2221000,0.0324,0.013523,0.002678,0.000431,0.652869
2222000,0.0324,0.013523,0.002678,0.000431,0.673319
2223000,0.0324,0.013523,0.002678,0.000431,0.635592
2224000,0.0324,0.013523,0.002678,0.000431,0.613732
2225000,0.0324,0.013523,0.002678,0.000431,0.686130
2226000,0.0324,0.013523,0.002678,0.000431,0.733376
2227000,0.0324,0.013523,0.002678,0.000431,0.654750
2228000,0.0324,0.013523,0.002678,0.000431,0.680841
2229000,0.0324,0.013523,0.002678,0.000431,0.679195
2230000,0.0324,0.013523,0.002678,0.000431,0.606798
2231000,0.0324,0.013523,0.002678,0.000431,0.616670
2232000,0.0324,0.013523,0.002678,0.000431,0.513481
2233000,0.0324,0.013523,0.002678,0.000431,0.484451
2234000,0.0324,0.013523,0.002678,0.000431,0.521590
2235000,0.0324,0.013523,0.002678,0.000431,0.550502
2236000,0.0324,0.013523,0.002678,0.000431,0.574125
2237000,0.0324,0.013523,0.002678,0.000431,0.576828
2238000,0.0324,0.013523,0.002678,0.000431,0.494676
2239000,0.0324,0.013523,0.002678,0.000431,0.519004
2240000,0.0324,0.013523,0.002678,0.000431,0.511835
2241000,0.0324,0.013523,0.002678,0.000431,0.444844
2242000,0.0324,0.013523,0.002678,0.000431,0.488800
2243000,0.0324,0.013523,0.002678,0.000431,0.583410
2244000,0.0324,0.013523,0.002678,0.000431,0.546506
2245000,0.0324,0.013523,0.002678,0.000431,0.571187
2246000,0.0324,0.013523,0.002678,0.000431,0.515126
2247000,0.0324,0.013523,0.002678,0.000431,0.497027
2248000,0.0324,0.013523,0.002678,0.000431,0.518769
2249000,0.0324,0.013523,0.002678,0.000431,0.631361
2250000,0.0324,0.013523,0.002678,0.000431,0.706697
2251000,0.0324,0.013523,0.002678,0.000431,0.747009
2252000,0.0324,0.013523,0.002678,0.000431,0.666032
2253000,0.0324,0.013523,0.002678,0.000431,0.650871
2254000,0.0324,0.013523,0.002678,0.000431,0.611382
2255000,0.0324,0.013523,0.002678,0.000431,0.565546
2256000,0.0324,0.013523,0.002678,0.000431,0.552735
2257000,0.0324,0.013523,0.002678,0.000431,0.611147
2258000,0.0324,0.013523,0.002678,0.000431,0.566603
2259000,0.0324,0.013523,0.002678,0.000431,0.596338
2260000,0.0324,0.013523,0.002678,0.000431,0.583057
2261000,0.0324,0.013523,0.002678,0.000431,0.598336
2262000,0.0324,0.013523,0.002678,0.000431,0.595868
2263000,0.0324,0.013523,0.002678,0.000431,0.638766
2264000,0.0324,0.013523,0.002678,0.000431,0.582235
2265000,0.0324,0.013523,0.002678,0.000431,0.586348
2266000,0.0324,0.013523,0.002678,0.000431,0.692006
2267000,0.0324,0.013523,0.002678,0.000431,0.637120
2268000,0.0324,0.013523,0.002678,0.000431,0.595633
2269000,0.0324,0.013523,0.002678,0.000431,0.596338
2270000,0.0324,0.013523,0.002678,0.000431,0.672026
2271000,0.0324,0.013523,0.002678,0.000431,0.873940
2272000,0.0324,0.013523,0.002678,0.000431,0.773100
2273000,0.0324,0.013523,0.002678,0.000431,0.738077
2274000,0.0324,0.013523,0.002678,0.000431,0.891099
2275000,0.0324,0.013523,0.002678,0.000431,0.815881
2276000,0.0324,0.013523,0.002678,0.000431,0.815175
2277000,0.0324,0.013523,0.002678,0.000431,0.845380
2278000,0.0324,0.013523,0.002678,0.000431,0.755706
2279000,0.0324,0.013523,0.002678,0.000431,0.718802
2280000,0.0324,0.013523,0.002678,0.000431,0.691771
2281000,0.0324,0.013523,0.002678,0.000431,0.660743
2282000,0.0324,0.013523,0.002678,0.000431,0.726794
2283000,0.0324,0.013523,0.002678,0.000431,0.625485
2284000,0.0324,0.013523,0.002678,0.000431,0.643819
2285000,0.0324,0.013523,0.002678,0.000431,0.547799
2286000,0.0324,0.013523,0.002678,0.000431,0.528289
2287000,0.0324,0.013523,0.002678,0.000431,0.478692
2288000,0.0324,0.013523,0.002678,0.000431,0.463884
2289000,0.0324,0.013523,0.002678,0.000431,0.496792
2290000,0.0324,0.013523,0.002678,0.000431,0.479750
2291000,0.0324,0.013523,0.002678,0.000431,0.597748
2292000,0.0324,0.013523,0.002678,0.000431,0.526409
2293000,0.0324,0.013523,0.002678,0.000431,0.532990
2294000,0.0324,0.013523,0.002678,0.000431,0.628423
2295000,0.0324,0.013523,0.002678,0.000431,0.726794
2296000,0.0324,0.013523,0.002678,0.000431,0.708342
2297000,0.0324,0.013523,0.002678,0.000431,0.783678
2298000,0.0324,0.013523,0.002678,0.000431,0.726324
2299000,0.0324,0.013523,0.002678,0.000431,0.691418
2300000,0.0324,0.013523,0.002678,0.000431,0.650048
2301000,0.0324,0.013523,0.002678,0.000431,0.603977
2302000,0.0324,0.013523,0.002678,0.000431,0.691301
2303000,0.0324,0.013523,0.002678,0.000431,0.650871
2304000,0.0324,0.013523,0.002678,0.000431,0.584350
2305000,0.0324,0.013523,0.002678,0.000431,0.642056
2306000,0.0324,0.013523,0.002678,0.000431,0.629246
2307000,0.0324,0.013523,0.002678,0.000431,0.644995
2308000,0.0324,0.013523,0.002678,0.000431,0.630774
2309000,0.0324,0.013523,0.002678,0.000431,0.548974
2310000,0.0324,0.013523,0.002678,0.000431,0.585055
2311000,0.0324,0.013523,0.002678,0.000431,0.557436
2312000,0.0324,0.013523,0.002678,0.000431,0.579884
2313000,0.0324,0.013523,0.002678,0.000431,0.579296
2314000,0.0324,0.013523,0.002678,0.000431,0.498084
2315000,0.0324,0.013523,0.002678,0.000431,0.515831
2316000,0.0324,0.013523,0.002678,0.000431,0.446960
2317000,0.0324,0.013523,0.002678,0.000431,0.417108
2318000,0.0324,0.013523,0.002678,0.000431,0.378558
2319000,0.0324,0.013523,0.002678,0.000431,0.348941
2320000,0.0324,0.013523,0.002678,0.000431,0.462473
2321000,0.0324,0.013523,0.002678,0.000431,0.509485
2322000,0.0324,0.013523,0.002678,0.000431,0.403474
2323000,0.0324,0.013523,0.002678,0.000431,0.561432
2324000,0.0324,0.013523,0.002678,0.000431,0.560609
2325000,0.0324,0.013523,0.002678,0.000431,0.525704
2326000,0.0324,0.013523,0.002678,0.000431,0.609149
2327000,0.0324,0.013523,0.002678,0.000431,0.594458
2328000,0.0324,0.013523,0.002678,0.000431,0.629598
2329000,0.0324,0.013523,0.002678,0.000431,0.683661
2330000,0.0324,0.013523,0.002678,0.000431,0.792375
2331000,0.0324,0.013523,0.002678,0.000431,0.688245
2332000,0.0324,0.013523,0.002678,0.000431,0.706697
2333000,0.0324,0.013523,0.002678,0.000431,0.714924
2334000,0.0324,0.013523,0.002678,0.000431,0.688480
2335000,0.0324,0.013523,0.002678,0.000431,0.644407
2336000,0.0324,0.013523,0.002678,0.000431,0.650283
2337000,0.0324,0.013523,0.002678,0.000431,0.704346
2338000,0.0324,0.013523,0.002678,0.000431,0.703171
2339000,0.0324,0.013523,0.002678,0.000431,0.787439
2340000,0.0324,0.013523,0.002678,0.000431,0.790024
2341000,0.0324,0.013523,0.002678,0.000431,0.691418
2342000,0.0324,0.013523,0.002678,0.000431,0.782150
2343000,0.0324,0.013523,0.002678,0.000431,0.924477
2344000,0.0324,0.013523,0.002678,0.000431,0.856310
2345000,0.0324,0.013523,0.002678,0.000431,0.925652
2346000,0.0324,0.013523,0.002678,0.000431,0.947982
2347000,0.0324,0.013523,0.002678,0.000431,0.796606
2348000,0.0324,0.013523,0.002678,0.000431,0.781445
2349000,0.0324,0.013523,0.002678,0.000431,0.745246
2350000,0.0324,0.013523,0.002678,0.000431,0.734081
2351000,0.0324,0.013523,0.002678,0.000431,0.754061
2352000,0.0324,0.013523,0.002678,0.000431,0.621254
2353000,0.0324,0.013523,0.002678,0.000431,0.553440
2354000,0.0324,0.013523,0.002678,0.000431,0.560139
2355000,0.0324,0.013523,0.002678,0.000431,0.486919
2356000,0.0324,0.013523,0.002678,0.000431,0.429330
2357000,0.0324,0.013523,0.002678,0.000431,0.454364
2358000,0.0324,0.013523,0.002678,0.000431,0.438615
2359000,0.0324,0.013523,0.002678,0.000431,0.395130
2360000,0.0324,0.013523,0.002678,0.000431,0.415580
2361000,0.0324,0.013523,0.002678,0.000431,0.392074
2362000,0.0324,0.013523,0.002678,0.000431,0.385140
2363000,0.0324,0.013523,0.002678,0.000431,0.462238
2364000,0.0324,0.013523,0.002678,0.000431,0.521002
2365000,0.0324,0.013523,0.002678,0.000431,0.621959
2366000,0.0324,0.013523,0.002678,0.000431,0.682486
2367000,0.0324,0.013523,0.002678,0.000431,0.779329
2368000,0.0324,0.013523,0.002678,0.000431,0.848906
2369000,0.0324,0.013523,0.002678,0.000431,0.887220
2370000,0.0324,0.013523,0.002678,0.000431,0.871942
2371000,0.0324,0.013523,0.002678,0.000431,0.955152
2372000,0.0324,0.013523,0.002678,0.000431,0.939168
2373000,0.0324,0.013523,0.002678,0.000431,0.875820
2374000,0.0324,0.013523,0.002678,0.000431,0.795783
2375000,0.0324,0.013523,0.002678,0.000431,0.815881
2376000,0.0324,0.013523,0.002678,0.000431,0.829631
2377000,0.0324,0.013523,0.002678,0.000431,0.751475
2378000,0.0324,0.013523,0.002678,0.000431,0.783913
2379000,0.0324,0.013523,0.002678,0.000431,0.751945
2380000,0.0324,0.013523,0.002678,0.000431,0.681193
2381000,0.0324,0.013523,0.002678,0.000431,0.612909
2382000,0.0324,0.013523,0.002678,0.000431,0.674612
2383000,0.0324,0.013523,0.002678,0.000431,0.736079
2384000,0.0324,0.013523,0.002678,0.000431,0.674377
2385000,0.0324,0.013523,0.002678,0.000431,0.731025
2386000,0.0324,0.013523,0.002678,0.000431,0.809299
2387000,0.0324,0.013523,0.002678,0.000431,0.734786
2388000,0.0324,0.013523,0.002678,0.000431,0.680841
2389000,0.0324,0.013523,0.002678,0.000431,0.715394
2390000,0.0324,0.013523,0.002678,0.000431,0.773218
2391000,0.0324,0.013523,0.002678,0.000431,0.702819
2392000,0.0324,0.013523,0.002678,0.000431,0.646875
2393000,0.0324,0.013523,0.002678,0.000431,0.709400
2394000,0.0324,0.013523,0.002678,0.000431,0.575888
2395000,0.0324,0.013523,0.002678,0.000431,0.543215
2396000,0.0324,0.013523,0.002678,0.000431,0.530052
2397000,0.0324,0.013523,0.002678,0.000431,0.542510
2398000,0.0324,0.013523,0.002678,0.000431,0.441906
2399000,0.0324,0.013523,0.002678,0.000431,0.388196
2400000,0.0324,0.013523,0.002678,0.000431,0.430388
2401000,0.0324,0.013523,0.002678,0.000431,0.523823
2402000,0.0324,0.013523,0.002678,0.000431,0.443199
2403000,0.0324,0.013523,0.002678,0.000431,0.441788
2404000,0.0324,0.013523,0.002678,0.000431,0.548034
2405000,0.0324,0.013523,0.002678,0.000431,0.506194
2406000,0.0324,0.013523,0.002678,0.000431,0.548739
2407000,0.0324,0.013523,0.002678,0.000431,0.476694
2408000,0.0324,0.013523,0.002678,0.000431,0.499025
2409000,0.0324,0.013523,0.002678,0.000431,0.583880
2410000,0.0324,0.013523,0.002678,0.000431,0.566956
2411000,0.0324,0.013523,0.002678,0.000431,0.516066
2412000,0.0324,0.013523,0.002678,0.000431,0.586818
2413000,0.0324,0.013523,0.002678,0.000431,0.664739
2414000,0.0324,0.013523,0.002678,0.000431,0.680488
2415000,0.0324,0.013523,0.002678,0.000431,0.639236
2416000,0.0324,0.013523,0.002678,0.000431,0.637238
2417000,0.0324,0.013523,0.002678,0.000431,0.655925
2418000,0.0324,0.013523,0.002678,0.000431,0.597278
2419000,0.0324,0.013523,0.002678,0.000431,0.633594
2420000,0.0324,0.013523,0.002678,0.000431,0.647815
2421000,0.0324,0.013523,0.002678,0.000431,0.632654
2422000,0.0324,0.013523,0.002678,0.000431,0.560609
2423000,0.0324,0.013523,0.002678,0.000431,0.532050
2424000,0.0324,0.013523,0.002678,0.000431,0.589286
2425000,0.0324,0.013523,0.002678,0.000431,0.574713
2426000,0.0324,0.013523,0.002678,0.000431,0.538514
2427000,0.0324,0.013523,0.002678,0.000431,0.640764
2428000,0.0324,0.013523,0.002678,0.000431,0.731966
2429000,0.0324,0.013523,0.002678,0.000431,0.603272
2430000,0.0324,0.013523,0.002678,0.000431,0.714336
2431000,0.0324,0.013523,0.002678,0.000431,0.639118
2432000,0.0324,0.013523,0.002678,0.000431,0.749007
2433000,0.0324,0.013523,0.002678,0.000431,0.780622
2434000,0.0324,0.013523,0.002678,0.000431,0.709283
2435000,0.0324,0.013523,0.002678,0.000431,0.693064
2436000,0.0324,0.013523,0.002678,0.000431,0.694944
2437000,0.0324,0.013523,0.002678,0.000431,0.735256
2438000,0.0324,0.013523,0.002678,0.000431,0.869473
2439000,0.0324,0.013523,0.002678,0.000431,0.785558
2440000,0.0324,0.013523,0.002678,0.000431,0.779094
2441000,0.0324,0.013523,0.002678,0.000431,0.768517
2442000,0.0324,0.013523,0.002678,0.000431,0.808359
2443000,0.0324,0.013523,0.002678,0.000431,0.836213
2444000,0.0324,0.013523,0.002678,0.000431,0.872764
2445000,0.0324,0.013523,0.002678,0.000431,0.734904
2446000,0.0324,0.013523,0.002678,0.000431,0.726559
2447000,0.0324,0.013523,0.002678,0.000431,0.597866
2448000,0.0324,0.013523,0.002678,0.000431,0.548622
2449000,0.0324,0.013523,0.002678,0.000431,0.495146
2450000,0.0324,0.013523,0.002678,0.000431,0.481630
2451000,0.0324,0.013523,0.002678,0.000431,0.442259
2452000,0.0324,0.013523,0.002678,0.000431,0.390899
2453000,0.0324,0.013523,0.002678,0.000431,0.415462
2454000,0.0324,0.013523,0.002678,0.000431,0.371624
2455000,0.0324,0.013523,0.002678,0.000431,0.435677
2456000,0.0324,0.013523,0.002678,0.000431,0.411701
2457000,0.0324,0.013523,0.002678,0.000431,0.405120
2458000,0.0324,0.013523,0.002678,0.000431,0.484804
2459000,0.0324,0.013523,0.002678,0.000431,0.425334
2460000,0.0324,0.013523,0.002678,0.000431,0.535576
2461000,0.0324,0.013523,0.002678,0.000431,0.574713
2462000,0.0324,0.013523,0.002678,0.000431,0.523471
2463000,0.0324,0.013523,0.002678,0.000431,0.610089
2464000,0.0324,0.013523,0.002678,0.000431,0.712691
2465000,0.0324,0.013523,0.002678,0.000431,0.595398
2466000,0.0324,0.013523,0.002678,0.000431,0.600922
2467000,0.0324,0.013523,0.002678,0.000431,0.764873
2468000,0.0324,0.013523,0.002678,0.000431,0.724679
2469000,0.0324,0.013523,0.002678,0.000431,0.606328
2470000,0.0324,0.013523,0.002678,0.000431,0.609619
2471000,0.0324,0.013523,0.002678,0.000431,0.573067
2472000,0.0324,0.013523,0.002678,0.000431,0.579649
2473000,0.0324,0.013523,0.002678,0.000431,0.582940
2474000,0.0324,0.013523,0.002678,0.000431,0.573067
2475000,0.0324,0.013523,0.002678,0.000431,0.691183
2476000,0.0324,0.013523,0.002678,0.000431,0.697177
2477000,0.0324,0.013523,0.002678,0.000431,0.703759
2478000,0.0324,0.013523,0.002678,0.000431,0.737607
2479000,0.0324,0.013523,0.002678,0.000431,0.763110
2480000,0.0324,0.013523,0.002678,0.000431,0.834568
2481000,0.0324,0.013523,0.002678,0.000431,0.853842
2482000,0.0324,0.013523,0.002678,0.000431,0.814588
2483000,0.0324,0.013523,0.002678,0.000431,0.879346
2484000,0.0324,0.013523,0.002678,0.000431,0.811062
2485000,0.0324,0.013523,0.002678,0.000431,0.881226
2486000,0.0324,0.013523,0.002678,0.000431,0.986884
2487000,0.0324,0.013523,0.002678,0.000431,0.881344
2488000,0.0324,0.013523,0.002678,0.000431,0.765696
2489000,0.0324,0.013523,0.002678,0.000431,0.795431
2490000,0.0324,0.013523,0.002678,0.000431,0.861482
2491000,0.0324,0.013523,0.002678,0.000431,0.782738
2492000,0.0324,0.013523,0.002678,0.000431,0.785558
2493000,0.0324,0.013523,0.002678,0.000431,0.673554
2494000,0.0324,0.013523,0.002678,0.000431,0.744776
2495000,0.0324,0.013523,0.002678,0.000431,0.776039
2496000,0.0324,0.013523,0.002678,0.000431,0.696119
2497000,0.0324,0.013523,0.002678,0.000431,0.757234
2498000,0.0324,0.013523,0.002678,0.000431,0.674612
2499000,0.0324,0.013523,0.002678,0.000431,0.632772
2500000,0.0324,0.013523,0.002678,0.000431,0.573420
2501000,0.0324,0.013523,0.002678,0.000431,0.617611
2502000,0.0324,0.013523,0.002678,0.000431,0.566016
2503000,0.0324,0.013523,0.002678,0.000431,0.615378
2504000,0.0324,0.013523,0.002678,0.000431,0.741720
2505000,0.0324,0.013523,0.002678,0.000431,0.641704
2506000,0.0324,0.013523,0.002678,0.000431,0.559552
2507000,0.0324,0.013523,0.002678,0.000431,0.618433
2508000,0.0324,0.013523,0.002678,0.000431,0.670851
2509000,0.0324,0.013523,0.002678,0.000431,0.683309
2510000,0.0324,0.013523,0.002678,0.000431,0.648285
2511000,0.0324,0.013523,0.002678,0.000431,0.740545
2512000,0.0324,0.013523,0.002678,0.000431,0.660038
2513000,0.0324,0.013523,0.002678,0.000431,0.669793
2514000,0.0324,0.013523,0.002678,0.000431,0.675434
2515000,0.0324,0.013523,0.002678,0.000431,0.660273
2516000,0.0324,0.013523,0.002678,0.000431,0.623134
2517000,0.0324,0.013523,0.002678,0.000431,0.650283
2518000,0.0324,0.013523,0.002678,0.000431,0.674377
2519000,0.0324,0.013523,0.002678,0.000431,0.622547
2520000,0.0324,0.013523,0.002678,0.000431,0.620666
2521000,0.0324,0.013523,0.002678,0.000431,0.579414
2522000,0.0324,0.013523,0.002678,0.000431,0.582822
2523000,0.0324,0.013523,0.002678,0.000431,0.552382
2524000,0.0324,0.013523,0.002678,0.000431,0.494794
2525000,0.0324,0.013523,0.002678,0.000431,0.514773
2526000,0.0324,0.013523,0.002678,0.000431,0.440496
2527000,0.0324,0.013523,0.002678,0.000431,0.451661
2528000,0.0324,0.013523,0.002678,0.000431,0.494911
2529000,0.0324,0.013523,0.002678,0.000431,0.554615
2530000,0.0324,0.013523,0.002678,0.000431,0.499495
2531000,0.0324,0.013523,0.002678,0.000431,0.629951
2532000,0.0324,0.013523,0.002678,0.000431,0.768047
2533000,0.0324,0.013523,0.002678,0.000431,0.683544
2534000,0.0324,0.013523,0.002678,0.000431,0.627600
2535000,0.0324,0.013523,0.002678,0.000431,0.642056
2536000,0.0324,0.013523,0.002678,0.000431,0.653574
2537000,0.0324,0.013523,0.002678,0.000431,0.663682
2538000,0.0324,0.013523,0.002678,0.000431,0.633242
2539000,0.0324,0.013523,0.002678,0.000431,0.682956
2540000,0.0324,0.013523,0.002678,0.000431,0.668618
2541000,0.0324,0.013523,0.002678,0.000431,0.682251
2542000,0.0324,0.013523,0.002678,0.000431,0.797899
2543000,0.0324,0.013523,0.002678,0.000431,0.913547
2544000,0.0324,0.013523,0.002678,0.000431,0.762993
2545000,0.0324,0.013523,0.002678,0.000431,0.798251
2546000,0.0324,0.013523,0.002678,0.000431,0.795901
2547000,0.0324,0.013523,0.002678,0.000431,0.818936
2548000,0.0324,0.013523,0.002678,0.000431,0.831277
2549000,0.0324,0.013523,0.002678,0.000431,0.730203
2550000,0.0324,0.013523,0.002678,0.000431,0.655455
2551000,0.0324,0.013523,0.002678,0.000431,0.665915
2552000,0.0324,0.013523,0.002678,0.000431,0.731966
2553000,0.0324,0.013523,0.002678,0.000431,0.679783
2554000,0.0324,0.013523,0.002678,0.000431,0.674259
2555000,0.0324,0.013523,0.002678,0.000431,0.617611
2556000,0.0324,0.013523,0.002678,0.000431,0.629834
2557000,0.0324,0.013523,0.002678,0.000431,0.609736
2558000,0.0324,0.013523,0.002678,0.000431,0.681076
2559000,0.0324,0.013523,0.002678,0.000431,0.717392
2560000,0.0324,0.013523,0.002678,0.000431,0.651694
2561000,0.0324,0.013523,0.002678,0.000431,0.582352
2562000,0.0324,0.013523,0.002678,0.000431,0.580237
2563000,0.0324,0.013523,0.002678,0.000431,0.606210
2564000,0.0324,0.013523,0.002678,0.000431,0.752415
2565000,0.0324,0.013523,0.002678,0.000431,0.700233
2566000,0.0324,0.013523,0.002678,0.000431,0.571304
2567000,0.0324,0.013523,0.002678,0.000431,0.576711
2568000,0.0324,0.013523,0.002678,0.000431,0.585173
2569000,0.0324,0.013523,0.002678,0.000431,0.508780
2570000,0.0324,0.013523,0.002678,0.000431,0.460828
2571000,0.0324,0.013523,0.002678,0.000431,0.503726
2572000,0.0324,0.013523,0.002678,0.000431,0.556613
2573000,0.0324,0.013523,0.002678,0.000431,0.532050
2574000,0.0324,0.013523,0.002678,0.000431,0.562960
2575000,0.0324,0.013523,0.002678,0.000431,0.636180
2576000,0.0324,0.013523,0.002678,0.000431,0.745364
2577000,0.0324,0.013523,0.002678,0.000431,0.648638
2578000,0.0324,0.013523,0.002678,0.000431,0.633947
2579000,0.0324,0.013523,0.002678,0.000431,0.651341
2580000,0.0324,0.013523,0.002678,0.000431,0.632889
2581000,0.0324,0.013523,0.002678,0.000431,0.615848
2582000,0.0324,0.013523,0.002678,0.000431,0.548034
2583000,0.0324,0.013523,0.002678,0.000431,0.585996
2584000,0.0324,0.013523,0.002678,0.000431,0.631949
2585000,0.0324,0.013523,0.002678,0.000431,0.568366
2586000,0.0324,0.013523,0.002678,0.000431,0.531345
2587000,0.0324,0.013523,0.002678,0.000431,0.602332
2588000,0.0324,0.013523,0.002678,0.000431,0.611852
2589000,0.0324,0.013523,0.002678,0.000431,0.685777
2590000,0.0324,0.013523,0.002678,0.000431,0.861129
2591000,0.0324,0.013523,0.002678,0.000431,0.756881
2592000,0.0324,0.013523,0.002678,0.000431,0.714571
2593000,0.0324,0.013523,0.002678,0.000431,0.801777
2594000,0.0324,0.013523,0.002678,0.000431,0.709988
2595000,0.0324,0.013523,0.002678,0.000431,0.717745
2596000,0.0324,0.013523,0.002678,0.000431,0.822345
2597000,0.0324,0.013523,0.002678,0.000431,0.776744
2598000,0.0324,0.013523,0.002678,0.000431,0.755119
2599000,0.0324,0.013523,0.002678,0.000431,0.805186
2600000,0.0324,0.013523,0.002678,0.000431,0.765579
2601000,0.0324,0.013523,0.002678,0.000431,0.707285
2602000,0.0324,0.013523,0.002678,0.000431,0.699293
2603000,0.0324,0.013523,0.002678,0.000431,0.652987
2604000,0.0324,0.013523,0.002678,0.000431,0.656983
2605000,0.0324,0.013523,0.002678,0.000431,0.567544
2606000,0.0324,0.013523,0.002678,0.000431,0.618786
2607000,0.0324,0.013523,0.002678,0.000431,0.595163
2608000,0.0324,0.013523,0.002678,0.000431,0.560609
2609000,0.0324,0.013523,0.002678,0.000431,0.548857
2610000,0.0324,0.013523,0.002678,0.000431,0.554380
2611000,0.0324,0.013523,0.002678,0.000431,0.463296
2612000,0.0324,0.013523,0.002678,0.000431,0.444492
2613000,0.0324,0.013523,0.002678,0.000431,0.405355
2614000,0.0324,0.013523,0.002678,0.000431,0.367041
2615000,0.0324,0.013523,0.002678,0.000431,0.413229
2616000,0.0324,0.013523,0.002678,0.000431,0.465999
2617000,0.0324,0.013523,0.002678,0.000431,0.564370
2618000,0.0324,0.013523,0.002678,0.000431,0.650754
2619000,0.0324,0.013523,0.002678,0.000431,0.616670
2620000,0.0324,0.013523,0.002678,0.000431,0.624780
2621000,0.0324,0.013523,0.002678,0.000431,0.641234
2622000,0.0324,0.013523,0.002678,0.000431,0.686482
2623000,0.0324,0.013523,0.002678,0.000431,0.686482
2624000,0.0324,0.013523,0.002678,0.000431,0.764991
2625000,0.0324,0.013523,0.002678,0.000431,0.715159
2626000,0.0324,0.013523,0.002678,0.000431,0.637943
2627000,0.0324,0.013523,0.002678,0.000431,0.607386
2628000,0.0324,0.013523,0.002678,0.000431,0.624427
2629000,0.0324,0.013523,0.002678,0.000431,0.667795
2630000,0.0324,0.013523,0.002678,0.000431,0.623134
2631000,0.0324,0.013523,0.002678,0.000431,0.588111
2632000,0.0324,0.013523,0.002678,0.000431,0.563783
2633000,0.0324,0.013523,0.002678,0.000431,0.665797
2634000,0.0324,0.013523,0.002678,0.000431,0.631009
2635000,0.0324,0.013523,0.002678,0.000431,0.518534
2636000,0.0324,0.013523,0.002678,0.000431,0.529700
2637000,0.0324,0.013523,0.002678,0.000431,0.568719
2638000,0.0324,0.013523,0.002678,0.000431,0.570482
2639000,0.0324,0.013523,0.002678,0.000431,0.633829
2640000,0.0324,0.013523,0.002678,0.000431,0.642997
2641000,0.0324,0.013523,0.002678,0.000431,0.553440
2642000,0.0324,0.013523,0.002678,0.000431,0.554498
2643000,0.0324,0.013523,0.002678,0.000431,0.587523
2644000,0.0324,0.013523,0.002678,0.000431,0.544626
2645000,0.0324,0.013523,0.002678,0.000431,0.471170
2646000,0.0324,0.013523,0.002678,0.000431,0.568836
2647000,0.0324,0.013523,0.002678,0.000431,0.577886
2648000,0.0324,0.013523,0.002678,0.000431,0.609031
2649000,0.0324,0.013523,0.002678,0.000431,0.684249
2650000,0.0324,0.013523,0.002678,0.000431,0.581177
2651000,0.0324,0.013523,0.002678,0.000431,0.571657
2652000,0.0324,0.013523,0.002678,0.000431,0.611382
2653000,0.0324,0.013523,0.002678,0.000431,0.588581
2654000,0.0324,0.013523,0.002678,0.000431,0.645817
2655000,0.0324,0.013523,0.002678,0.000431,0.690831
2656000,0.0324,0.013523,0.002678,0.000431,0.576593
2657000,0.0324,0.013523,0.002678,0.000431,0.628306
2658000,0.0324,0.013523,0.002678,0.000431,0.752768
2659000,0.0324,0.013523,0.002678,0.000431,0.724561
2660000,0.0324,0.013523,0.002678,0.000431,0.739957
2661000,0.0324,0.013523,0.002678,0.000431,0.747479
2662000,0.0324,0.013523,0.002678,0.000431,0.709165
2663000,0.0324,0.013523,0.002678,0.000431,0.773923
2664000,0.0324,0.013523,0.002678,0.000431,0.815998
2665000,0.0324,0.013523,0.002678,0.000431,0.756059
2666000,0.0324,0.013523,0.002678,0.000431,0.675199
2667000,0.0324,0.013523,0.002678,0.000431,0.735844
2668000,0.0324,0.013523,0.002678,0.000431,0.628541
2669000,0.0324,0.013523,0.002678,0.000431,0.570952
2670000,0.0324,0.013523,0.002678,0.000431,0.679195
2671000,0.0324,0.013523,0.002678,0.000431,0.631832
2672000,0.0324,0.013523,0.002678,0.000431,0.570834
2673000,0.0324,0.013523,0.002678,0.000431,0.578709
2674000,0.0324,0.013523,0.002678,0.000431,0.656865
2675000,0.0324,0.013523,0.002678,0.000431,0.660273
2676000,0.0324,0.013523,0.002678,0.000431,0.553675
2677000,0.0324,0.013523,0.002678,0.000431,0.672614
2678000,0.0324,0.013523,0.002678,0.000431,0.703641
2679000,0.0324,0.013523,0.002678,0.000431,0.560492
2680000,0.0324,0.013523,0.002678,0.000431,0.626073
2681000,0.0324,0.013523,0.002678,0.000431,0.599041
2682000,0.0324,0.013523,0.002678,0.000431,0.556966
2683000,0.0324,0.013523,0.002678,0.000431,0.518652
2684000,0.0324,0.013523,0.002678,0.000431,0.552970
2685000,0.0324,0.013523,0.002678,0.000431,0.588816
2686000,0.0324,0.013523,0.002678,0.000431,0.559434
2687000,0.0324,0.013523,0.002678,0.000431,0.554851
2688000,0.0324,0.013523,0.002678,0.000431,0.579061
2689000,0.0324,0.013523,0.002678,0.000431,0.509485
2690000,0.0324,0.013523,0.002678,0.000431,0.558259
2691000,0.0324,0.013523,0.002678,0.000431,0.531345
2692000,0.0324,0.013523,0.002678,0.000431,0.564488
2693000,0.0324,0.013523,0.002678,0.000431,0.523353
2694000,0.0324,0.013523,0.002678,0.000431,0.513481
2695000,0.0324,0.013523,0.002678,0.000431,0.496439
2696000,0.0324,0.013523,0.002678,0.000431,0.541805
2697000,0.0324,0.013523,0.002678,0.000431,0.592225
2698000,0.0324,0.013523,0.002678,0.000431,0.585173
2699000,0.0324,0.013523,0.002678,0.000431,0.595750
2700000,0.0324,0.013523,0.002678,0.000431,0.643114
2701000,0.0324,0.013523,0.002678,0.000431,0.678725
2702000,0.0324,0.013523,0.002678,0.000431,0.810004
2703000,0.0324,0.013523,0.002678,0.000431,0.847731
2704000,0.0324,0.013523,0.002678,0.000431,0.714101
2705000,0.0324,0.013523,0.002678,0.000431,0.863480
2706000,0.0324,0.013523,0.002678,0.000431,0.848553
2707000,0.0324,0.013523,0.002678,0.000431,0.754884
2708000,0.0324,0.013523,0.002678,0.000431,0.817526
2709000,0.0324,0.013523,0.002678,0.000431,0.698588
2710000,0.0324,0.013523,0.002678,0.000431,0.712456
2711000,0.0324,0.013523,0.002678,0.000431,0.620784
2712000,0.0324,0.013523,0.002678,0.000431,0.577416
2713000,0.0324,0.013523,0.002678,0.000431,0.528877
2714000,0.0324,0.013523,0.002678,0.000431,0.558847
2715000,0.0324,0.013523,0.002678,0.000431,0.637590
2716000,0.0324,0.013523,0.002678,0.000431,0.663682
2717000,0.0324,0.013523,0.002678,0.000431,0.570129
2718000,0.0324,0.013523,0.002678,0.000431,0.547916
2719000,0.0324,0.013523,0.002678,0.000431,0.556143
2720000,0.0324,0.013523,0.002678,0.000431,0.577298
2721000,0.0324,0.013523,0.002678,0.000431,0.562020
2722000,0.0324,0.013523,0.002678,0.000431,0.498437
2723000,0.0324,0.013523,0.002678,0.000431,0.511718
2724000,0.0324,0.013523,0.002678,0.000431,0.500553
2725000,0.0324,0.013523,0.002678,0.000431,0.563665
2726000,0.0324,0.013523,0.002678,0.000431,0.629598
2727000,0.0324,0.013523,0.002678,0.000431,0.619491
2728000,0.0324,0.013523,0.002678,0.000431,0.613850
2729000,0.0324,0.013523,0.002678,0.000431,0.587053
2730000,0.0324,0.013523,0.002678,0.000431,0.709283
2731000,0.0324,0.013523,0.002678,0.000431,0.694709
2732000,0.0324,0.013523,0.002678,0.000431,0.746539
2733000,0.0324,0.013523,0.002678,0.000431,0.870531
2734000,0.0324,0.013523,0.002678,0.000431,0.792375
2735000,0.0324,0.013523,0.002678,0.000431,0.749007
2736000,0.0324,0.013523,0.002678,0.000431,0.720448
2737000,0.0324,0.013523,0.002678,0.000431,0.700115
2738000,0.0324,0.013523,0.002678,0.000431,0.622194
2739000,0.0324,0.013523,0.002678,0.000431,0.609149
2740000,0.0324,0.013523,0.002678,0.000431,0.700350
2741000,0.0324,0.013523,0.002678,0.000431,0.754178
2742000,0.0324,0.013523,0.002678,0.000431,0.670616
2743000,0.0324,0.013523,0.002678,0.000431,0.679901
2744000,0.0324,0.013523,0.002678,0.000431,0.670733
2745000,0.0324,0.013523,0.002678,0.000431,0.634065
2746000,0.0324,0.013523,0.002678,0.000431,0.682839
2747000,0.0324,0.013523,0.002678,0.000431,0.738312
2748000,0.0324,0.013523,0.002678,0.000431,0.573420
2749000,0.0324,0.013523,0.002678,0.000431,0.640411
2750000,0.0324,0.013523,0.002678,0.000431,0.710928
2751000,0.0324,0.013523,0.002678,0.000431,0.618903
2752000,0.0324,0.013523,0.002678,0.000431,0.711751
2753000,0.0324,0.013523,0.002678,0.000431,0.675317
2754000,0.0324,0.013523,0.002678,0.000431,0.753473
2755000,0.0324,0.013523,0.002678,0.000431,0.733728
2756000,0.0324,0.013523,0.002678,0.000431,0.728322
2757000,0.0324,0.013523,0.002678,0.000431,0.734669
2758000,0.0324,0.013523,0.002678,0.000431,0.680606
2759000,0.0324,0.013523,0.002678,0.000431,0.757939
2760000,0.0324,0.013523,0.002678,0.000431,0.659803
2761000,0.0324,0.013523,0.002678,0.000431,0.636298
2762000,0.0324,0.013523,0.002678,0.000431,0.660743
2763000,0.0324,0.013523,0.002678,0.000431,0.701056
2764000,0.0324,0.013523,0.002678,0.000431,0.679313
2765000,0.0324,0.013523,0.002678,0.000431,0.612439
2766000,0.0324,0.013523,0.002678,0.000431,0.637943
2767000,0.0324,0.013523,0.002678,0.000431,0.744776
2768000,0.0324,0.013523,0.002678,0.000431,0.634182
2769000,0.0324,0.013523,0.002678,0.000431,0.646993
2770000,0.0324,0.013523,0.002678,0.000431,0.692359
2771000,0.0324,0.013523,0.002678,0.000431,0.753708
2772000,0.0324,0.013523,0.002678,0.000431,0.641939
2773000,0.0324,0.013523,0.002678,0.000431,0.610676
2774000,0.0324,0.013523,0.002678,0.000431,0.734904
2775000,0.0324,0.013523,0.002678,0.000431,0.716804
2776000,0.0324,0.013523,0.002678,0.000431,0.574243
2777000,0.0324,0.013523,0.002678,0.000431,0.564253
2778000,0.0324,0.013523,0.002678,0.000431,0.544626
2779000,0.0324,0.013523,0.002678,0.000431,0.479045
2780000,0.0324,0.013523,0.002678,0.000431,0.498790
2781000,0.0324,0.013523,0.002678,0.000431,0.512305
2782000,0.0324,0.013523,0.002678,0.000431,0.509837
2783000,0.0324,0.013523,0.002678,0.000431,0.479397
2784000,0.0324,0.013523,0.002678,0.000431,0.485862
2785000,0.0324,0.013523,0.002678,0.000431,0.499612
2786000,0.0324,0.013523,0.002678,0.000431,0.467410
2787000,0.0324,0.013523,0.002678,0.000431,0.535223
2788000,0.0324,0.013523,0.002678,0.000431,0.595633
2789000,0.0324,0.013523,0.002678,0.000431,0.665680
2790000,0.0324,0.013523,0.002678,0.000431,0.554380
2791000,0.0324,0.013523,0.002678,0.000431,0.556613
2792000,0.0324,0.013523,0.002678,0.000431,0.574243
2793000,0.0324,0.013523,0.002678,0.000431,0.560609
2794000,0.0324,0.013523,0.002678,0.000431,0.672849
2795000,0.0324,0.013523,0.002678,0.000431,0.618551
2796000,0.0324,0.013523,0.002678,0.000431,0.726559
2797000,0.0324,0.013523,0.002678,0.000431,0.747362
2798000,0.0324,0.013523,0.002678,0.000431,0.695179
2799000,0.0324,0.013523,0.002678,0.000431,0.664269
2800000,0.0324,0.013523,0.002678,0.000431,0.662624
2801000,0.0324,0.013523,0.002678,0.000431,0.648168
2802000,0.0324,0.013523,0.002678,0.000431,0.770515
2803000,0.0324,0.013523,0.002678,0.000431,0.715159
2804000,0.0324,0.013523,0.002678,0.000431,0.702348
2805000,0.0324,0.013523,0.002678,0.000431,0.799897
2806000,0.0324,0.013523,0.002678,0.000431,0.943869
2807000,0.0324,0.013523,0.002678,0.000431,0.827869
2808000,0.0324,0.013523,0.002678,0.000431,0.770045
2809000,0.0324,0.013523,0.002678,0.000431,0.829044
2810000,0.0324,0.013523,0.002678,0.000431,0.716217
2811000,0.0324,0.013523,0.002678,0.000431,0.687305
2812000,0.0324,0.013523,0.002678,0.000431,0.664857
2813000,0.0324,0.013523,0.002678,0.000431,0.595515
2814000,0.0324,0.013523,0.002678,0.000431,0.602214
2815000,0.0324,0.013523,0.002678,0.000431,0.698000
2816000,0.0324,0.013523,0.002678,0.000431,0.704817
2817000,0.0324,0.013523,0.002678,0.000431,0.728205
2818000,0.0324,0.013523,0.002678,0.000431,0.655690
2819000,0.0324,0.013523,0.002678,0.000431,0.633124
2820000,0.0324,0.013523,0.002678,0.000431,0.616670
2821000,0.0324,0.013523,0.002678,0.000431,0.627130
2822000,0.0324,0.013523,0.002678,0.000431,0.593870
2823000,0.0324,0.013523,0.002678,0.000431,0.606916
2824000,0.0324,0.013523,0.002678,0.000431,0.508192
2825000,0.0324,0.013523,0.002678,0.000431,0.552147
2826000,0.0324,0.013523,0.002678,0.000431,0.670968
2827000,0.0324,0.013523,0.002678,0.000431,0.621724
2828000,0.0324,0.013523,0.002678,0.000431,0.565663
2829000,0.0324,0.013523,0.002678,0.000431,0.681546
2830000,0.0324,0.013523,0.002678,0.000431,0.604095
2831000,0.0324,0.013523,0.002678,0.000431,0.680488
2832000,0.0324,0.013523,0.002678,0.000431,0.754178
2833000,0.0324,0.013523,0.002678,0.000431,0.757234
2834000,0.0324,0.013523,0.002678,0.000431,0.742896
2835000,0.0324,0.013523,0.002678,0.000431,0.738900
2836000,0.0324,0.013523,0.002678,0.000431,0.786146
2837000,0.0324,0.013523,0.002678,0.000431,0.696472
2838000,0.0324,0.013523,0.002678,0.000431,0.717039
2839000,0.0324,0.013523,0.002678,0.000431,0.646052
2840000,0.0324,0.013523,0.002678,0.000431,0.605740
2841000,0.0324,0.013523,0.002678,0.000431,0.572715
2842000,0.0324,0.013523,0.002678,0.000431,0.493148
2843000,0.0324,0.013523,0.002678,0.000431,0.475754
2844000,0.0324,0.013523,0.002678,0.000431,0.489857
2845000,0.0324,0.013523,0.002678,0.000431,0.454952
2846000,0.0324,0.013523,0.002678,0.000431,0.439438
2847000,0.0324,0.013523,0.002678,0.000431,0.369861
2848000,0.0324,0.013523,0.002678,0.000431,0.409938
2849000,0.0324,0.013523,0.002678,0.000431,0.452248
2850000,0.0324,0.013523,0.002678,0.000431,0.524881
2851000,0.0324,0.013523,0.002678,0.000431,0.450250
2852000,0.0324,0.013523,0.002678,0.000431,0.480103
2853000,0.0324,0.013523,0.002678,0.000431,0.493618
2854000,0.0324,0.013523,0.002678,0.000431,0.586818
2855000,0.0324,0.013523,0.002678,0.000431,0.708577
2856000,0.0324,0.013523,0.002678,0.000431,0.669441
2857000,0.0324,0.013523,0.002678,0.000431,0.659921
2858000,0.0324,0.013523,0.002678,0.000431,0.779447
2859000,0.0324,0.013523,0.002678,0.000431,0.788026
2860000,0.0324,0.013523,0.002678,0.000431,0.700350
2861000,0.0324,0.013523,0.002678,0.000431,0.775921
2862000,0.0324,0.013523,0.002678,0.000431,0.754531
2863000,0.0324,0.013523,0.002678,0.000431,0.634300
2864000,0.0324,0.013523,0.002678,0.000431,0.657805
2865000,0.0324,0.013523,0.002678,0.000431,0.782620
2866000,0.0324,0.013523,0.002678,0.000431,0.735726
2867000,0.0324,0.013523,0.002678,0.000431,0.664739
2868000,0.0324,0.013523,0.002678,0.000431,0.662154
2869000,0.0324,0.013523,0.002678,0.000431,0.799074
2870000,0.0324,0.013523,0.002678,0.000431,0.832687
2871000,0.0324,0.013523,0.002678,0.000431,0.735021
2872000,0.0324,0.013523,0.002678,0.000431,0.855370
2873000,0.0324,0.013523,0.002678,0.000431,0.912959
2874000,0.0324,0.013523,0.002678,0.000431,0.784971
2875000,0.0324,0.013523,0.002678,0.000431,0.735139
2876000,0.0324,0.013523,0.002678,0.000431,0.739135
2877000,0.0324,0.013523,0.002678,0.000431,0.714571
2878000,0.0324,0.013523,0.002678,0.000431,0.687540
2879000,0.0324,0.013523,0.002678,0.000431,0.653104
2880000,0.0324,0.013523,0.002678,0.000431,0.553323
2881000,0.0324,0.013523,0.002678,0.000431,0.523941
2882000,0.0324,0.013523,0.002678,0.000431,0.501845
2883000,0.0324,0.013523,0.002678,0.000431,0.489975
2884000,0.0324,0.013523,0.002678,0.000431,0.457772
2885000,0.0324,0.013523,0.002678,0.000431,0.435912
2886000,0.0324,0.013523,0.002678,0.000431,0.437322
2887000,0.0324,0.013523,0.002678,0.000431,0.403709
2888000,0.0324,0.013523,0.002678,0.000431,0.582940
2889000,0.0324,0.013523,0.002678,0.000431,0.551912
2890000,0.0324,0.013523,0.002678,0.000431,0.465059
2891000,0.0324,0.013523,0.002678,0.000431,0.571657
2892000,0.0324,0.013523,0.002678,0.000431,0.573538
2893000,0.0324,0.013523,0.002678,0.000431,0.515949
2894000,0.0324,0.013523,0.002678,0.000431,0.550620
2895000,0.0324,0.013523,0.002678,0.000431,0.589639
2896000,0.0324,0.013523,0.002678,0.000431,0.533460
2897000,0.0324,0.013523,0.002678,0.000431,0.585760
2898000,0.0324,0.013523,0.002678,0.000431,0.691301
2899000,0.0324,0.013523,0.002678,0.000431,0.628188
2900000,0.0324,0.013523,0.002678,0.000431,0.652046
2901000,0.0324,0.013523,0.002678,0.000431,0.701761
2902000,0.0324,0.013523,0.002678,0.000431,0.719272
2903000,0.0324,0.013523,0.002678,0.000431,0.746304
2904000,0.0324,0.013523,0.002678,0.000431,0.688715
2905000,0.0324,0.013523,0.002678,0.000431,0.661566
2906000,0.0324,0.013523,0.002678,0.000431,0.674142
2907000,0.0324,0.013523,0.002678,0.000431,0.663212
2908000,0.0324,0.013523,0.002678,0.000431,0.587641
2909000,0.0324,0.013523,0.002678,0.000431,0.576123
2910000,0.0324,0.013523,0.002678,0.000431,0.638413
2911000,0.0324,0.013523,0.002678,0.000431,0.672614
2912000,0.0324,0.013523,0.002678,0.000431,0.538514
2913000,0.0324,0.013523,0.002678,0.000431,0.581529
2914000,0.0324,0.013523,0.002678,0.000431,0.527349
2915000,0.0324,0.013523,0.002678,0.000431,0.519122
2916000,0.0324,0.013523,0.002678,0.000431,0.565076
2917000,0.0324,0.013523,0.002678,0.000431,0.512775
2918000,0.0324,0.013523,0.002678,0.000431,0.460593
2919000,0.0324,0.013523,0.002678,0.000431,0.562842
2920000,0.0324,0.013523,0.002678,0.000431,0.509485
2921000,0.0324,0.013523,0.002678,0.000431,0.426980
2922000,0.0324,0.013523,0.002678,0.000431,0.542980
2923000,0.0324,0.013523,0.002678,0.000431,0.644054
2924000,0.0324,0.013523,0.002678,0.000431,0.529229
2925000,0.0324,0.013523,0.002678,0.000431,0.557906
2926000,0.0324,0.013523,0.002678,0.000431,0.577651
2927000,0.0324,0.013523,0.002678,0.000431,0.634300
2928000,0.0324,0.013523,0.002678,0.000431,0.642527
2929000,0.0324,0.013523,0.002678,0.000431,0.639588
2930000,0.0324,0.013523,0.002678,0.000431,0.549444
2931000,0.0324,0.013523,0.002678,0.000431,0.566486
2932000,0.0324,0.013523,0.002678,0.000431,0.606445
2933000,0.0324,0.013523,0.002678,0.000431,0.614907
2934000,0.0324,0.013523,0.002678,0.000431,0.707167
2935000,0.0324,0.013523,0.002678,0.000431,0.651106
2936000,0.0324,0.013523,0.002678,0.000431,0.607738
2937000,0.0324,0.013523,0.002678,0.000431,0.674259
2938000,0.0324,0.013523,0.002678,0.000431,0.614790
2939000,0.0324,0.013523,0.002678,0.000431,0.585055
2940000,0.0324,0.013523,0.002678,0.000431,0.501493
2941000,0.0324,0.013523,0.002678,0.000431,0.471170
2942000,0.0324,0.013523,0.002678,0.000431,0.467292
2943000,0.0324,0.013523,0.002678,0.000431,0.595868
2944000,0.0324,0.013523,0.002678,0.000431,0.513128
2945000,0.0324,0.013523,0.002678,0.000431,0.395717
2946000,0.0324,0.013523,0.002678,0.000431,0.439320
2947000,0.0324,0.013523,0.002678,0.000431,0.436852
2948000,0.0324,0.013523,0.002678,0.000431,0.499730
2949000,0.0324,0.013523,0.002678,0.000431,0.441083
2950000,0.0324,0.013523,0.002678,0.000431,0.445432
2951000,0.0324,0.013523,0.002678,0.000431,0.444727
2952000,0.0324,0.013523,0.002678,0.000431,0.549209
2953000,0.0324,0.013523,0.002678,0.000431,0.624192
2954000,0.0324,0.013523,0.002678,0.000431,0.566721
2955000,0.0324,0.013523,0.002678,0.000431,0.678255
2956000,0.0324,0.013523,0.002678,0.000431,0.668853
2957000,0.0324,0.013523,0.002678,0.000431,0.694709
2958000,0.0324,0.013523,0.002678,0.000431,0.759467
2959000,0.0324,0.013523,0.002678,0.000431,0.840797
2960000,0.0324,0.013523,0.002678,0.000431,0.854077
2961000,0.0324,0.013523,0.002678,0.000431,0.775333
2962000,0.0324,0.013523,0.002678,0.000431,0.927650
2963000,0.0324,0.013523,0.002678,0.000431,0.892509
2964000,0.0324,0.013523,0.002678,0.000431,0.791552
2965000,0.0324,0.013523,0.002678,0.000431,0.743366
2966000,0.0324,0.013523,0.002678,0.000431,0.743366
2967000,0.0324,0.013523,0.002678,0.000431,0.689185
2968000,0.0324,0.013523,0.002678,0.000431,0.572362
2969000,0.0324,0.013523,0.002678,0.000431,0.544861
2970000,0.0324,0.013523,0.002678,0.000431,0.548974
2971000,0.0324,0.013523,0.002678,0.000431,0.628423
2972000,0.0324,0.013523,0.002678,0.000431,0.598571
2973000,0.0324,0.013523,0.002678,0.000431,0.556849
2974000,0.0324,0.013523,0.002678,0.000431,0.546741
2975000,0.0324,0.013523,0.002678,0.000431,0.589051
2976000,0.0324,0.013523,0.002678,0.000431,0.628071
2977000,0.0324,0.013523,0.002678,0.000431,0.614790
2978000,0.0324,0.013523,0.002678,0.000431,0.567426
2979000,0.0324,0.013523,0.002678,0.000431,0.572832
2980000,0.0324,0.013523,0.002678,0.000431,0.608326
2981000,0.0324,0.013523,0.002678,0.000431,0.676845
2982000,0.0324,0.013523,0.002678,0.000431,0.809769
2983000,0.0324,0.013523,0.002678,0.000431,0.661449
2984000,0.0324,0.013523,0.002678,0.000431,0.701173
2985000,0.0324,0.013523,0.002678,0.000431,0.763933
2986000,0.0324,0.013523,0.002678,0.000431,0.788614
2987000,0.0324,0.013523,0.002678,0.000431,0.695532
2988000,0.0324,0.013523,0.002678,0.000431,0.650283
2989000,0.0324,0.013523,0.002678,0.000431,0.613145
2990000,0.0324,0.013523,0.002678,0.000431,0.569777
2991000,0.0324,0.013523,0.002678,0.000431,0.554498
2992000,0.0324,0.013523,0.002678,0.000431,0.615260
2993000,0.0324,0.013523,0.002678,0.000431,0.643702
2994000,0.0324,0.013523,0.002678,0.000431,0.552265
2995000,0.0324,0.013523,0.002678,0.000431,0.568954
2996000,0.0324,0.013523,0.002678,0.000431,0.528759
2997000,0.0324,0.013523,0.002678,0.000431,0.504784
2998000,0.0324,0.013523,0.002678,0.000431,0.447430
2999000,0.0324,0.013523,0.002678,0.000431,0.403474
