Cycle,Area(mm^2),PeakDynamic(W),SubthresholdLeakage(W),GateLeakage(W),RunTimeDynamic(W)
6000000,0.0324,0.013523,0.002678,0.000431,0.000235
6001000,0.0324,0.013523,0.002678,0.000431,0.000353
6002000,0.0324,0.013523,0.002678,0.000431,0.000470
6003000,0.0324,0.013523,0.002678,0.000431,0.000118
6004000,0.0324,0.013523,0.002678,0.000431,0.000353
6005000,0.0324,0.013523,0.002678,0.000431,0.000470
6006000,0.0324,0.013523,0.002678,0.000431,0.000353
6007000,0.0324,0.013523,0.002678,0.000431,0.000235
6008000,0.0324,0.013523,0.002678,0.000431,0.000353
6009000,0.0324,0.013523,0.002678,0.000431,0.000470
6010000,0.0324,0.013523,0.002678,0.000431,0.000118
6011000,0.0324,0.013523,0.002678,0.000431,0.000353
6012000,0.0324,0.013523,0.002678,0.000431,0.000470
6013000,0.0324,0.013523,0.002678,0.000431,0.000353
6014000,0.0324,0.013523,0.002678,0.000431,0.000235
6015000,0.0324,0.013523,0.002678,0.000431,0.000353
6016000,0.0324,0.013523,0.002678,0.000431,0.000470
6017000,0.0324,0.013523,0.002678,0.000431,0.000118
6018000,0.0324,0.013523,0.002678,0.000431,0.000353
6019000,0.0324,0.013523,0.002678,0.000431,0.000470
6020000,0.0324,0.013523,0.002678,0.000431,0.000353
6021000,0.0324,0.013523,0.002678,0.000431,0.000235
6022000,0.0324,0.013523,0.002678,0.000431,0.000353
6023000,0.0324,0.013523,0.002678,0.000431,0.000353
6024000,0.0324,0.013523,0.002678,0.000431,0.000235
6025000,0.0324,0.013523,0.002678,0.000431,0.000353
6026000,0.0324,0.013523,0.002678,0.000431,0.000470
6027000,0.0324,0.013523,0.002678,0.000431,0.000353
6028000,0.0324,0.013523,0.002678,0.000431,0.000235
6029000,0.0324,0.013523,0.002678,0.000431,0.000353
6030000,0.0324,0.013523,0.002678,0.000431,0.000353
6031000,0.0324,0.013523,0.002678,0.000431,0.000235
6032000,0.0324,0.013523,0.002678,0.000431,0.000353
6033000,0.0324,0.013523,0.002678,0.000431,0.000470
6034000,0.0324,0.013523,0.002678,0.000431,0.000353
6035000,0.0324,0.013523,0.002678,0.000431,0.000235
6036000,0.0324,0.013523,0.002678,0.000431,0.000353
6037000,0.0324,0.013523,0.002678,0.000431,0.000353
6038000,0.0324,0.013523,0.002678,0.000431,0.000235
6039000,0.0324,0.013523,0.002678,0.000431,0.000353
6040000,0.0324,0.013523,0.002678,0.000431,0.000470
6041000,0.0324,0.013523,0.002678,0.000431,0.000353
6042000,0.0324,0.013523,0.002678,0.000431,0.000235
6043000,0.0324,0.013523,0.002678,0.000431,0.000353
6044000,0.0324,0.013523,0.002678,0.000431,0.000353
6045000,0.0324,0.013523,0.002678,0.000431,0.000235
6046000,0.0324,0.013523,0.002678,0.000431,0.000353
6047000,0.0324,0.013523,0.002678,0.000431,0.000470
6048000,0.0324,0.013523,0.002678,0.000431,0.000353
6049000,0.0324,0.013523,0.002678,0.000431,0.000235
6050000,0.0324,0.013523,0.002678,0.000431,0.000353
6051000,0.0324,0.013523,0.002678,0.000431,0.000353
6052000,0.0324,0.013523,0.002678,0.000431,0.000235
6053000,0.0324,0.013523,0.002678,0.000431,0.000353
6054000,0.0324,0.013523,0.002678,0.000431,0.000470
6055000,0.0324,0.013523,0.002678,0.000431,0.000353
6056000,0.0324,0.013523,0.002678,0.000431,0.000235
6057000,0.0324,0.013523,0.002678,0.000431,0.000353
6058000,0.0324,0.013523,0.002678,0.000431,0.000353
6059000,0.0324,0.013523,0.002678,0.000431,0.000235
6060000,0.0324,0.013523,0.002678,0.000431,0.000353
6061000,0.0324,0.013523,0.002678,0.000431,0.000470
6062000,0.0324,0.013523,0.002678,0.000431,0.000353
6063000,0.0324,0.013523,0.002678,0.000431,0.000235
6064000,0.0324,0.013523,0.002678,0.000431,0.000353
6065000,0.0324,0.013523,0.002678,0.000431,0.000353
6066000,0.0324,0.013523,0.002678,0.000431,0.000235
6067000,0.0324,0.013523,0.002678,0.000431,0.000353
6068000,0.0324,0.013523,0.002678,0.000431,0.000470
6069000,0.0324,0.013523,0.002678,0.000431,0.000353
6070000,0.0324,0.013523,0.002678,0.000431,0.000235
6071000,0.0324,0.013523,0.002678,0.000431,0.000353
6072000,0.0324,0.013523,0.002678,0.000431,0.000353
6073000,0.0324,0.013523,0.002678,0.000431,0.000235
6074000,0.0324,0.013523,0.002678,0.000431,0.000353
6075000,0.0324,0.013523,0.002678,0.000431,0.000470
6076000,0.0324,0.013523,0.002678,0.000431,0.000353
6077000,0.0324,0.013523,0.002678,0.000431,0.000118
6078000,0.0324,0.013523,0.002678,0.000431,0.000470
6079000,0.0324,0.013523,0.002678,0.000431,0.000353
6080000,0.0324,0.013523,0.002678,0.000431,0.000235
6081000,0.0324,0.013523,0.002678,0.000431,0.000353
6082000,0.0324,0.013523,0.002678,0.000431,0.000470
6083000,0.0324,0.013523,0.002678,0.000431,0.000353
6084000,0.0324,0.013523,0.002678,0.000431,0.000118
6085000,0.0324,0.013523,0.002678,0.000431,0.000470
6086000,0.0324,0.013523,0.002678,0.000431,0.000353
6087000,0.0324,0.013523,0.002678,0.000431,0.000235
6088000,0.0324,0.013523,0.002678,0.000431,0.000353
6089000,0.0324,0.013523,0.002678,0.000431,0.000470
6090000,0.0324,0.013523,0.002678,0.000431,0.000353
6091000,0.0324,0.013523,0.002678,0.000431,0.000118
6092000,0.0324,0.013523,0.002678,0.000431,0.000470
6093000,0.0324,0.013523,0.002678,0.000431,0.000353
6094000,0.0324,0.013523,0.002678,0.000431,0.000235
6095000,0.0324,0.013523,0.002678,0.000431,0.000353
6096000,0.0324,0.013523,0.002678,0.000431,0.000470
6097000,0.0324,0.013523,0.002678,0.000431,0.000235
6098000,0.0324,0.013523,0.002678,0.000431,0.000235
6099000,0.0324,0.013523,0.002678,0.000431,0.000470
6100000,0.0324,0.013523,0.002678,0.000431,0.000353
6101000,0.0324,0.013523,0.002678,0.000431,0.000235
6102000,0.0324,0.013523,0.002678,0.000431,0.000353
6103000,0.0324,0.013523,0.002678,0.000431,0.000470
6104000,0.0324,0.013523,0.002678,0.000431,0.000235
6105000,0.0324,0.013523,0.002678,0.000431,0.000235
6106000,0.0324,0.013523,0.002678,0.000431,0.000470
6107000,0.0324,0.013523,0.002678,0.000431,0.000353
6108000,0.0324,0.013523,0.002678,0.000431,0.000235
6109000,0.0324,0.013523,0.002678,0.000431,0.000353
6110000,0.0324,0.013523,0.002678,0.000431,0.000470
6111000,0.0324,0.013523,0.002678,0.000431,0.000235
6112000,0.0324,0.013523,0.002678,0.000431,0.000235
6113000,0.0324,0.013523,0.002678,0.000431,0.000470
6114000,0.0324,0.013523,0.002678,0.000431,0.000353
6115000,0.0324,0.013523,0.002678,0.000431,0.000235
6116000,0.0324,0.013523,0.002678,0.000431,0.000353
6117000,0.0324,0.013523,0.002678,0.000431,0.000470
6118000,0.0324,0.013523,0.002678,0.000431,0.000235
6119000,0.0324,0.013523,0.002678,0.000431,0.000235
6120000,0.0324,0.013523,0.002678,0.000431,0.000470
6121000,0.0324,0.013523,0.002678,0.000431,0.000353
6122000,0.0324,0.013523,0.002678,0.000431,0.000235
6123000,0.0324,0.013523,0.002678,0.000431,0.000353
6124000,0.0324,0.013523,0.002678,0.000431,0.000470
6125000,0.0324,0.013523,0.002678,0.000431,0.000235
6126000,0.0324,0.013523,0.002678,0.000431,0.000235
6127000,0.0324,0.013523,0.002678,0.000431,0.000470
6128000,0.0324,0.013523,0.002678,0.000431,0.000353
6129000,0.0324,0.013523,0.002678,0.000431,0.000235
6130000,0.0324,0.013523,0.002678,0.000431,0.000353
6131000,0.0324,0.013523,0.002678,0.000431,0.000470
6132000,0.0324,0.013523,0.002678,0.000431,0.000235
6133000,0.0324,0.013523,0.002678,0.000431,0.000235
6134000,0.0324,0.013523,0.002678,0.000431,0.000470
6135000,0.0324,0.013523,0.002678,0.000431,0.000353
6136000,0.0324,0.013523,0.002678,0.000431,0.000235
6137000,0.0324,0.013523,0.002678,0.000431,0.000353
6138000,0.0324,0.013523,0.002678,0.000431,0.000470
6139000,0.0324,0.013523,0.002678,0.000431,0.000118
6140000,0.0324,0.013523,0.002678,0.000431,0.000353
6141000,0.0324,0.013523,0.002678,0.000431,0.000470
6142000,0.0324,0.013523,0.002678,0.000431,0.000353
6143000,0.0324,0.013523,0.002678,0.000431,0.000235
6144000,0.0324,0.013523,0.002678,0.000431,0.000353
6145000,0.0324,0.013523,0.002678,0.000431,0.000470
6146000,0.0324,0.013523,0.002678,0.000431,0.000118
6147000,0.0324,0.013523,0.002678,0.000431,0.000353
6148000,0.0324,0.013523,0.002678,0.000431,0.000470
6149000,0.0324,0.013523,0.002678,0.000431,0.000353
6150000,0.0324,0.013523,0.002678,0.000431,0.000235
6151000,0.0324,0.013523,0.002678,0.000431,0.000353
6152000,0.0324,0.013523,0.002678,0.000431,0.000470
6153000,0.0324,0.013523,0.002678,0.000431,0.000118
6154000,0.0324,0.013523,0.002678,0.000431,0.000353
6155000,0.0324,0.013523,0.002678,0.000431,0.000470
6156000,0.0324,0.013523,0.002678,0.000431,0.000353
6157000,0.0324,0.013523,0.002678,0.000431,0.000235
6158000,0.0324,0.013523,0.002678,0.000431,0.000353
6159000,0.0324,0.013523,0.002678,0.000431,0.000470
6160000,0.0324,0.013523,0.002678,0.000431,0.000118
6161000,0.0324,0.013523,0.002678,0.000431,0.000353
6162000,0.0324,0.013523,0.002678,0.000431,0.000470
6163000,0.0324,0.013523,0.002678,0.000431,0.000353
6164000,0.0324,0.013523,0.002678,0.000431,0.000235
6165000,0.0324,0.013523,0.002678,0.000431,0.000353
6166000,0.0324,0.013523,0.002678,0.000431,0.000353
6167000,0.0324,0.013523,0.002678,0.000431,0.000235
6168000,0.0324,0.013523,0.002678,0.000431,0.000353
6169000,0.0324,0.013523,0.002678,0.000431,0.000470
6170000,0.0324,0.013523,0.002678,0.000431,0.000353
6171000,0.0324,0.013523,0.002678,0.000431,0.000235
6172000,0.0324,0.013523,0.002678,0.000431,0.000353
6173000,0.0324,0.013523,0.002678,0.000431,0.000353
6174000,0.0324,0.013523,0.002678,0.000431,0.000235
6175000,0.0324,0.013523,0.002678,0.000431,0.000353
6176000,0.0324,0.013523,0.002678,0.000431,0.000470
6177000,0.0324,0.013523,0.002678,0.000431,0.000353
6178000,0.0324,0.013523,0.002678,0.000431,0.000235
6179000,0.0324,0.013523,0.002678,0.000431,0.000353
6180000,0.0324,0.013523,0.002678,0.000431,0.000353
6181000,0.0324,0.013523,0.002678,0.000431,0.000235
6182000,0.0324,0.013523,0.002678,0.000431,0.000353
6183000,0.0324,0.013523,0.002678,0.000431,0.000470
6184000,0.0324,0.013523,0.002678,0.000431,0.000353
6185000,0.0324,0.013523,0.002678,0.000431,0.000235
6186000,0.0324,0.013523,0.002678,0.000431,0.000353
6187000,0.0324,0.013523,0.002678,0.000431,0.000353
6188000,0.0324,0.013523,0.002678,0.000431,0.000235
6189000,0.0324,0.013523,0.002678,0.000431,0.000353
6190000,0.0324,0.013523,0.002678,0.000431,0.000470
6191000,0.0324,0.013523,0.002678,0.000431,0.000353
6192000,0.0324,0.013523,0.002678,0.000431,0.000235
6193000,0.0324,0.013523,0.002678,0.000431,0.000353
6194000,0.0324,0.013523,0.002678,0.000431,0.000353
6195000,0.0324,0.013523,0.002678,0.000431,0.000235
6196000,0.0324,0.013523,0.002678,0.000431,0.000353
6197000,0.0324,0.013523,0.002678,0.000431,0.000470
6198000,0.0324,0.013523,0.002678,0.000431,0.000353
6199000,0.0324,0.013523,0.002678,0.000431,0.000235
6200000,0.0324,0.013523,0.002678,0.000431,0.000353
6201000,0.0324,0.013523,0.002678,0.000431,0.000353
6202000,0.0324,0.013523,0.002678,0.000431,0.000235
6203000,0.0324,0.013523,0.002678,0.000431,0.000353
6204000,0.0324,0.013523,0.002678,0.000431,0.000470
6205000,0.0324,0.013523,0.002678,0.000431,0.000353
6206000,0.0324,0.013523,0.002678,0.000431,0.000235
6207000,0.0324,0.013523,0.002678,0.000431,0.000353
6208000,0.0324,0.013523,0.002678,0.000431,0.000353
6209000,0.0324,0.013523,0.002678,0.000431,0.000235
6210000,0.0324,0.013523,0.002678,0.000431,0.000353
6211000,0.0324,0.013523,0.002678,0.000431,0.000470
6212000,0.0324,0.013523,0.002678,0.000431,0.000353
6213000,0.0324,0.013523,0.002678,0.000431,0.000118
6214000,0.0324,0.013523,0.002678,0.000431,0.000470
6215000,0.0324,0.013523,0.002678,0.000431,0.000353
6216000,0.0324,0.013523,0.002678,0.000431,0.000235
6217000,0.0324,0.013523,0.002678,0.000431,0.000353
6218000,0.0324,0.013523,0.002678,0.000431,0.000470
6219000,0.0324,0.013523,0.002678,0.000431,0.000353
6220000,0.0324,0.013523,0.002678,0.000431,0.000118
6221000,0.0324,0.013523,0.002678,0.000431,0.000470
6222000,0.0324,0.013523,0.002678,0.000431,0.000353
6223000,0.0324,0.013523,0.002678,0.000431,0.000235
6224000,0.0324,0.013523,0.002678,0.000431,0.000353
6225000,0.0324,0.013523,0.002678,0.000431,0.000470
6226000,0.0324,0.013523,0.002678,0.000431,0.000353
6227000,0.0324,0.013523,0.002678,0.000431,0.000118
6228000,0.0324,0.013523,0.002678,0.000431,0.000470
6229000,0.0324,0.013523,0.002678,0.000431,0.000353
6230000,0.0324,0.013523,0.002678,0.000431,0.000235
6231000,0.0324,0.013523,0.002678,0.000431,0.000353
6232000,0.0324,0.013523,0.002678,0.000431,0.000470
6233000,0.0324,0.013523,0.002678,0.000431,0.000353
6234000,0.0324,0.013523,0.002678,0.000431,0.000118
6235000,0.0324,0.013523,0.002678,0.000431,0.000470
6236000,0.0324,0.013523,0.002678,0.000431,0.000353
6237000,0.0324,0.013523,0.002678,0.000431,0.000235
6238000,0.0324,0.013523,0.002678,0.000431,0.000353
6239000,0.0324,0.013523,0.002678,0.000431,0.000470
6240000,0.0324,0.013523,0.002678,0.000431,0.000235
6241000,0.0324,0.013523,0.002678,0.000431,0.000235
6242000,0.0324,0.013523,0.002678,0.000431,0.000470
6243000,0.0324,0.013523,0.002678,0.000431,0.000353
6244000,0.0324,0.013523,0.002678,0.000431,0.000235
6245000,0.0324,0.013523,0.002678,0.000431,0.000353
6246000,0.0324,0.013523,0.002678,0.000431,0.000470
6247000,0.0324,0.013523,0.002678,0.000431,0.000235
6248000,0.0324,0.013523,0.002678,0.000431,0.000235
6249000,0.0324,0.013523,0.002678,0.000431,0.000470
6250000,0.0324,0.013523,0.002678,0.000431,0.000353
6251000,0.0324,0.013523,0.002678,0.000431,0.000235
6252000,0.0324,0.013523,0.002678,0.000431,0.000353
6253000,0.0324,0.013523,0.002678,0.000431,0.000470
6254000,0.0324,0.013523,0.002678,0.000431,0.000118
6255000,0.0324,0.013523,0.002678,0.000431,0.000353
6256000,0.0324,0.013523,0.002678,0.000431,0.000470
6257000,0.0324,0.013523,0.002678,0.000431,0.000353
6258000,0.0324,0.013523,0.002678,0.000431,0.000235
6259000,0.0324,0.013523,0.002678,0.000431,0.000353
6260000,0.0324,0.013523,0.002678,0.000431,0.000470
6261000,0.0324,0.013523,0.002678,0.000431,0.000118
6262000,0.0324,0.013523,0.002678,0.000431,0.000353
6263000,0.0324,0.013523,0.002678,0.000431,0.000470
6264000,0.0324,0.013523,0.002678,0.000431,0.000353
6265000,0.0324,0.013523,0.002678,0.000431,0.000235
6266000,0.0324,0.013523,0.002678,0.000431,0.000353
6267000,0.0324,0.013523,0.002678,0.000431,0.000353
6268000,0.0324,0.013523,0.002678,0.000431,0.000235
6269000,0.0324,0.013523,0.002678,0.000431,0.000353
6270000,0.0324,0.013523,0.002678,0.000431,0.000470
6271000,0.0324,0.013523,0.002678,0.000431,0.000353
6272000,0.0324,0.013523,0.002678,0.000431,0.000235
6273000,0.0324,0.013523,0.002678,0.000431,0.000353
6274000,0.0324,0.013523,0.002678,0.000431,0.000353
6275000,0.0324,0.013523,0.002678,0.000431,0.000235
6276000,0.0324,0.013523,0.002678,0.000431,0.000353
6277000,0.0324,0.013523,0.002678,0.000431,0.000470
6278000,0.0324,0.013523,0.002678,0.000431,0.000353
6279000,0.0324,0.013523,0.002678,0.000431,0.000118
6280000,0.0324,0.013523,0.002678,0.000431,0.000470
6281000,0.0324,0.013523,0.002678,0.000431,0.000353
6282000,0.0324,0.013523,0.002678,0.000431,0.000235
6283000,0.0324,0.013523,0.002678,0.000431,0.000353
6284000,0.0324,0.013523,0.002678,0.000431,0.000470
6285000,0.0324,0.013523,0.002678,0.000431,0.000235
6286000,0.0324,0.013523,0.002678,0.000431,0.000235
6287000,0.0324,0.013523,0.002678,0.000431,0.000470
6288000,0.0324,0.013523,0.002678,0.000431,0.000353
6289000,0.0324,0.013523,0.002678,0.000431,0.000235
6290000,0.0324,0.013523,0.002678,0.000431,0.000353
6291000,0.0324,0.013523,0.002678,0.000431,0.000470
6292000,0.0324,0.013523,0.002678,0.000431,0.000235
6293000,0.0324,0.013523,0.002678,0.000431,0.000235
6294000,0.0324,0.013523,0.002678,0.000431,0.000470
6295000,0.0324,0.013523,0.002678,0.000431,0.000353
6296000,0.0324,0.013523,0.002678,0.000431,0.000235
6297000,0.0324,0.013523,0.002678,0.000431,0.000353
6298000,0.0324,0.013523,0.002678,0.000431,0.000470
6299000,0.0324,0.013523,0.002678,0.000431,0.000118
6300000,0.0324,0.013523,0.002678,0.000431,0.000353
6301000,0.0324,0.013523,0.002678,0.000431,0.000470
6302000,0.0324,0.013523,0.002678,0.000431,0.000353
6303000,0.0324,0.013523,0.002678,0.000431,0.000235
6304000,0.0324,0.013523,0.002678,0.000431,0.000353
6305000,0.0324,0.013523,0.002678,0.000431,0.000353
6306000,0.0324,0.013523,0.002678,0.000431,0.000235
6307000,0.0324,0.013523,0.002678,0.000431,0.000353
6308000,0.0324,0.013523,0.002678,0.000431,0.000470
6309000,0.0324,0.013523,0.002678,0.000431,0.000353
6310000,0.0324,0.013523,0.002678,0.000431,0.000235
6311000,0.0324,0.013523,0.002678,0.000431,0.000353
6312000,0.0324,0.013523,0.002678,0.000431,0.000353
6313000,0.0324,0.013523,0.002678,0.000431,0.000235
6314000,0.0324,0.013523,0.002678,0.000431,0.000353
6315000,0.0324,0.013523,0.002678,0.000431,0.000470
6316000,0.0324,0.013523,0.002678,0.000431,0.000353
6317000,0.0324,0.013523,0.002678,0.000431,0.000235
6318000,0.0324,0.013523,0.002678,0.000431,0.000353
6319000,0.0324,0.013523,0.002678,0.000431,0.000353
6320000,0.0324,0.013523,0.002678,0.000431,0.000235
6321000,0.0324,0.013523,0.002678,0.000431,0.000353
6322000,0.0324,0.013523,0.002678,0.000431,0.000470
6323000,0.0324,0.013523,0.002678,0.000431,0.000353
6324000,0.0324,0.013523,0.002678,0.000431,0.000118
6325000,0.0324,0.013523,0.002678,0.000431,0.000470
6326000,0.0324,0.013523,0.002678,0.000431,0.000353
6327000,0.0324,0.013523,0.002678,0.000431,0.000235
6328000,0.0324,0.013523,0.002678,0.000431,0.000353
6329000,0.0324,0.013523,0.002678,0.000431,0.000470
6330000,0.0324,0.013523,0.002678,0.000431,0.000235
6331000,0.0324,0.013523,0.002678,0.000431,0.000235
6332000,0.0324,0.013523,0.002678,0.000431,0.000470
6333000,0.0324,0.013523,0.002678,0.000431,0.000353
6334000,0.0324,0.013523,0.002678,0.000431,0.000235
6335000,0.0324,0.013523,0.002678,0.000431,0.000353
6336000,0.0324,0.013523,0.002678,0.000431,0.000470
6337000,0.0324,0.013523,0.002678,0.000431,0.000118
6338000,0.0324,0.013523,0.002678,0.000431,0.000353
6339000,0.0324,0.013523,0.002678,0.000431,0.000470
6340000,0.0324,0.013523,0.002678,0.000431,0.000353
6341000,0.0324,0.013523,0.002678,0.000431,0.000235
6342000,0.0324,0.013523,0.002678,0.000431,0.000353
6343000,0.0324,0.013523,0.002678,0.000431,0.000470
6344000,0.0324,0.013523,0.002678,0.000431,0.000118
6345000,0.0324,0.013523,0.002678,0.000431,0.000353
6346000,0.0324,0.013523,0.002678,0.000431,0.000470
6347000,0.0324,0.013523,0.002678,0.000431,0.000353
6348000,0.0324,0.013523,0.002678,0.000431,0.000235
6349000,0.0324,0.013523,0.002678,0.000431,0.000353
6350000,0.0324,0.013523,0.002678,0.000431,0.000353
6351000,0.0324,0.013523,0.002678,0.000431,0.000235
6352000,0.0324,0.013523,0.002678,0.000431,0.000353
6353000,0.0324,0.013523,0.002678,0.000431,0.000470
6354000,0.0324,0.013523,0.002678,0.000431,0.000353
6355000,0.0324,0.013523,0.002678,0.000431,0.000235
6356000,0.0324,0.013523,0.002678,0.000431,0.000353
6357000,0.0324,0.013523,0.002678,0.000431,0.000353
6358000,0.0324,0.013523,0.002678,0.000431,0.000235
6359000,0.0324,0.013523,0.002678,0.000431,0.000353
6360000,0.0324,0.013523,0.002678,0.000431,0.000470
6361000,0.0324,0.013523,0.002678,0.000431,0.000353
6362000,0.0324,0.013523,0.002678,0.000431,0.000118
6363000,0.0324,0.013523,0.002678,0.000431,0.000470
6364000,0.0324,0.013523,0.002678,0.000431,0.000353
6365000,0.0324,0.013523,0.002678,0.000431,0.000235
6366000,0.0324,0.013523,0.002678,0.000431,0.000353
6367000,0.0324,0.013523,0.002678,0.000431,0.000470
6368000,0.0324,0.013523,0.002678,0.000431,0.000353
6369000,0.0324,0.013523,0.002678,0.000431,0.000118
6370000,0.0324,0.013523,0.002678,0.000431,0.000470
6371000,0.0324,0.013523,0.002678,0.000431,0.000353
6372000,0.0324,0.013523,0.002678,0.000431,0.000235
6373000,0.0324,0.013523,0.002678,0.000431,0.000353
6374000,0.0324,0.013523,0.002678,0.000431,0.000470
6375000,0.0324,0.013523,0.002678,0.000431,0.000235
6376000,0.0324,0.013523,0.002678,0.000431,0.000235
6377000,0.0324,0.013523,0.002678,0.000431,0.000470
6378000,0.0324,0.013523,0.002678,0.000431,0.000353
6379000,0.0324,0.013523,0.002678,0.000431,0.000235
6380000,0.0324,0.013523,0.002678,0.000431,0.000353
6381000,0.0324,0.013523,0.002678,0.000431,0.000470
6382000,0.0324,0.013523,0.002678,0.000431,0.000235
6383000,0.0324,0.013523,0.002678,0.000431,0.000235
6384000,0.0324,0.013523,0.002678,0.000431,0.000470
6385000,0.0324,0.013523,0.002678,0.000431,0.000353
6386000,0.0324,0.013523,0.002678,0.000431,0.000235
6387000,0.0324,0.013523,0.002678,0.000431,0.000353
6388000,0.0324,0.013523,0.002678,0.000431,0.000470
6389000,0.0324,0.013523,0.002678,0.000431,0.000118
6390000,0.0324,0.013523,0.002678,0.000431,0.000353
6391000,0.0324,0.013523,0.002678,0.000431,0.000470
6392000,0.0324,0.013523,0.002678,0.000431,0.000353
6393000,0.0324,0.013523,0.002678,0.000431,0.000235
6394000,0.0324,0.013523,0.002678,0.000431,0.000353
6395000,0.0324,0.013523,0.002678,0.000431,0.000470
6396000,0.0324,0.013523,0.002678,0.000431,0.000118
6397000,0.0324,0.013523,0.002678,0.000431,0.000353
6398000,0.0324,0.013523,0.002678,0.000431,0.000470
6399000,0.0324,0.013523,0.002678,0.000431,0.000353
6400000,0.0324,0.013523,0.002678,0.000431,0.000235
6401000,0.0324,0.013523,0.002678,0.000431,0.000353
6402000,0.0324,0.013523,0.002678,0.000431,0.000470
6403000,0.0324,0.013523,0.002678,0.000431,0.000118
6404000,0.0324,0.013523,0.002678,0.000431,0.000353
6405000,0.0324,0.013523,0.002678,0.000431,0.000470
6406000,0.0324,0.013523,0.002678,0.000431,0.000353
6407000,0.0324,0.013523,0.002678,0.000431,0.000235
6408000,0.0324,0.013523,0.002678,0.000431,0.000353
6409000,0.0324,0.013523,0.002678,0.000431,0.000470
6410000,0.0324,0.013523,0.002678,0.000431,0.000118
6411000,0.0324,0.013523,0.002678,0.000431,0.000353
6412000,0.0324,0.013523,0.002678,0.000431,0.000470
6413000,0.0324,0.013523,0.002678,0.000431,0.000353
6414000,0.0324,0.013523,0.002678,0.000431,0.000235
6415000,0.0324,0.013523,0.002678,0.000431,0.000353
6416000,0.0324,0.013523,0.002678,0.000431,0.000353
6417000,0.0324,0.013523,0.002678,0.000431,0.000235
6418000,0.0324,0.013523,0.002678,0.000431,0.000353
6419000,0.0324,0.013523,0.002678,0.000431,0.000470
6420000,0.0324,0.013523,0.002678,0.000431,0.000353
6421000,0.0324,0.013523,0.002678,0.000431,0.000235
6422000,0.0324,0.013523,0.002678,0.000431,0.000353
6423000,0.0324,0.013523,0.002678,0.000431,0.000353
6424000,0.0324,0.013523,0.002678,0.000431,0.000235
6425000,0.0324,0.013523,0.002678,0.000431,0.000353
6426000,0.0324,0.013523,0.002678,0.000431,0.000470
6427000,0.0324,0.013523,0.002678,0.000431,0.000353
6428000,0.0324,0.013523,0.002678,0.000431,0.000235
6429000,0.0324,0.013523,0.002678,0.000431,0.000353
6430000,0.0324,0.013523,0.002678,0.000431,0.000353
6431000,0.0324,0.013523,0.002678,0.000431,0.000235
6432000,0.0324,0.013523,0.002678,0.000431,0.000353
6433000,0.0324,0.013523,0.002678,0.000431,0.000470
6434000,0.0324,0.013523,0.002678,0.000431,0.000353
6435000,0.0324,0.013523,0.002678,0.000431,0.000235
6436000,0.0324,0.013523,0.002678,0.000431,0.000353
6437000,0.0324,0.013523,0.002678,0.000431,0.000353
6438000,0.0324,0.013523,0.002678,0.000431,0.000235
6439000,0.0324,0.013523,0.002678,0.000431,0.000353
6440000,0.0324,0.013523,0.002678,0.000431,0.000470
6441000,0.0324,0.013523,0.002678,0.000431,0.000353
6442000,0.0324,0.013523,0.002678,0.000431,0.000235
6443000,0.0324,0.013523,0.002678,0.000431,0.000353
6444000,0.0324,0.013523,0.002678,0.000431,0.000353
6445000,0.0324,0.013523,0.002678,0.000431,0.000235
6446000,0.0324,0.013523,0.002678,0.000431,0.000353
6447000,0.0324,0.013523,0.002678,0.000431,0.000470
6448000,0.0324,0.013523,0.002678,0.000431,0.000353
6449000,0.0324,0.013523,0.002678,0.000431,0.000235
6450000,0.0324,0.013523,0.002678,0.000431,0.000353
6451000,0.0324,0.013523,0.002678,0.000431,0.000353
6452000,0.0324,0.013523,0.002678,0.000431,0.000235
6453000,0.0324,0.013523,0.002678,0.000431,0.000353
6454000,0.0324,0.013523,0.002678,0.000431,0.000470
6455000,0.0324,0.013523,0.002678,0.000431,0.000353
6456000,0.0324,0.013523,0.002678,0.000431,0.000235
6457000,0.0324,0.013523,0.002678,0.000431,0.000353
6458000,0.0324,0.013523,0.002678,0.000431,0.000353
6459000,0.0324,0.013523,0.002678,0.000431,0.000235
6460000,0.0324,0.013523,0.002678,0.000431,0.000353
6461000,0.0324,0.013523,0.002678,0.000431,0.000470
6462000,0.0324,0.013523,0.002678,0.000431,0.000353
6463000,0.0324,0.013523,0.002678,0.000431,0.000118
6464000,0.0324,0.013523,0.002678,0.000431,0.000470
6465000,0.0324,0.013523,0.002678,0.000431,0.000353
6466000,0.0324,0.013523,0.002678,0.000431,0.000235
6467000,0.0324,0.013523,0.002678,0.000431,0.000353
6468000,0.0324,0.013523,0.002678,0.000431,0.000470
6469000,0.0324,0.013523,0.002678,0.000431,0.000353
6470000,0.0324,0.013523,0.002678,0.000431,0.000118
6471000,0.0324,0.013523,0.002678,0.000431,0.000470
6472000,0.0324,0.013523,0.002678,0.000431,0.000353
6473000,0.0324,0.013523,0.002678,0.000431,0.000235
6474000,0.0324,0.013523,0.002678,0.000431,0.000353
6475000,0.0324,0.013523,0.002678,0.000431,0.000470
6476000,0.0324,0.013523,0.002678,0.000431,0.000353
6477000,0.0324,0.013523,0.002678,0.000431,0.000118
6478000,0.0324,0.013523,0.002678,0.000431,0.000470
6479000,0.0324,0.013523,0.002678,0.000431,0.000353
6480000,0.0324,0.013523,0.002678,0.000431,0.000235
6481000,0.0324,0.013523,0.002678,0.000431,0.000353
6482000,0.0324,0.013523,0.002678,0.000431,0.000470
6483000,0.0324,0.013523,0.002678,0.000431,0.000353
6484000,0.0324,0.013523,0.002678,0.000431,0.000118
6485000,0.0324,0.013523,0.002678,0.000431,0.000470
6486000,0.0324,0.013523,0.002678,0.000431,0.000353
6487000,0.0324,0.013523,0.002678,0.000431,0.000235
6488000,0.0324,0.013523,0.002678,0.000431,0.000353
6489000,0.0324,0.013523,0.002678,0.000431,0.000470
6490000,0.0324,0.013523,0.002678,0.000431,0.000235
6491000,0.0324,0.013523,0.002678,0.000431,0.000235
6492000,0.0324,0.013523,0.002678,0.000431,0.000470
6493000,0.0324,0.013523,0.002678,0.000431,0.000353
6494000,0.0324,0.013523,0.002678,0.000431,0.000235
6495000,0.0324,0.013523,0.002678,0.000431,0.000353
6496000,0.0324,0.013523,0.002678,0.000431,0.000470
6497000,0.0324,0.013523,0.002678,0.000431,0.000235
6498000,0.0324,0.013523,0.002678,0.000431,0.000235
6499000,0.0324,0.013523,0.002678,0.000431,0.000470
6500000,0.0324,0.013523,0.002678,0.000431,0.000353
6501000,0.0324,0.013523,0.002678,0.000431,0.000235
6502000,0.0324,0.013523,0.002678,0.000431,0.000353
6503000,0.0324,0.013523,0.002678,0.000431,0.000470
6504000,0.0324,0.013523,0.002678,0.000431,0.000235
6505000,0.0324,0.013523,0.002678,0.000431,0.000235
6506000,0.0324,0.013523,0.002678,0.000431,0.000470
6507000,0.0324,0.013523,0.002678,0.000431,0.000353
6508000,0.0324,0.013523,0.002678,0.000431,0.000235
6509000,0.0324,0.013523,0.002678,0.000431,0.000353
6510000,0.0324,0.013523,0.002678,0.000431,0.000470
6511000,0.0324,0.013523,0.002678,0.000431,0.000235
6512000,0.0324,0.013523,0.002678,0.000431,0.000235
6513000,0.0324,0.013523,0.002678,0.000431,0.000470
6514000,0.0324,0.013523,0.002678,0.000431,0.000353
6515000,0.0324,0.013523,0.002678,0.000431,0.000235
6516000,0.0324,0.013523,0.002678,0.000431,0.000353
6517000,0.0324,0.013523,0.002678,0.000431,0.000470
6518000,0.0324,0.013523,0.002678,0.000431,0.000235
6519000,0.0324,0.013523,0.002678,0.000431,0.000235
6520000,0.0324,0.013523,0.002678,0.000431,0.000470
6521000,0.0324,0.013523,0.002678,0.000431,0.000353
6522000,0.0324,0.013523,0.002678,0.000431,0.000235
6523000,0.0324,0.013523,0.002678,0.000431,0.000353
6524000,0.0324,0.013523,0.002678,0.000431,0.000470
6525000,0.0324,0.013523,0.002678,0.000431,0.000235
6526000,0.0324,0.013523,0.002678,0.000431,0.000235
6527000,0.0324,0.013523,0.002678,0.000431,0.000470
6528000,0.0324,0.013523,0.002678,0.000431,0.000353
6529000,0.0324,0.013523,0.002678,0.000431,0.000235
6530000,0.0324,0.013523,0.002678,0.000431,0.000353
6531000,0.0324,0.013523,0.002678,0.000431,0.000470
6532000,0.0324,0.013523,0.002678,0.000431,0.000118
6533000,0.0324,0.013523,0.002678,0.000431,0.000353
6534000,0.0324,0.013523,0.002678,0.000431,0.000470
6535000,0.0324,0.013523,0.002678,0.000431,0.000353
6536000,0.0324,0.013523,0.002678,0.000431,0.000235
6537000,0.0324,0.013523,0.002678,0.000431,0.000353
6538000,0.0324,0.013523,0.002678,0.000431,0.000353
6539000,0.0324,0.013523,0.002678,0.000431,0.000235
6540000,0.0324,0.013523,0.002678,0.000431,0.000353
6541000,0.0324,0.013523,0.002678,0.000431,0.000470
6542000,0.0324,0.013523,0.002678,0.000431,0.000353
6543000,0.0324,0.013523,0.002678,0.000431,0.000235
6544000,0.0324,0.013523,0.002678,0.000431,0.000353
6545000,0.0324,0.013523,0.002678,0.000431,0.000353
6546000,0.0324,0.013523,0.002678,0.000431,0.000235
6547000,0.0324,0.013523,0.002678,0.000431,0.000353
6548000,0.0324,0.013523,0.002678,0.000431,0.000470
6549000,0.0324,0.013523,0.002678,0.000431,0.000353
6550000,0.0324,0.013523,0.002678,0.000431,0.000118
6551000,0.0324,0.013523,0.002678,0.000431,0.000470
6552000,0.0324,0.013523,0.002678,0.000431,0.000353
6553000,0.0324,0.013523,0.002678,0.000431,0.000235
6554000,0.0324,0.013523,0.002678,0.000431,0.000353
6555000,0.0324,0.013523,0.002678,0.000431,0.000470
6556000,0.0324,0.013523,0.002678,0.000431,0.000235
6557000,0.0324,0.013523,0.002678,0.000431,0.000235
6558000,0.0324,0.013523,0.002678,0.000431,0.000470
6559000,0.0324,0.013523,0.002678,0.000431,0.000353
6560000,0.0324,0.013523,0.002678,0.000431,0.000235
6561000,0.0324,0.013523,0.002678,0.000431,0.000353
6562000,0.0324,0.013523,0.002678,0.000431,0.000470
6563000,0.0324,0.013523,0.002678,0.000431,0.000235
6564000,0.0324,0.013523,0.002678,0.000431,0.000235
6565000,0.0324,0.013523,0.002678,0.000431,0.000470
6566000,0.0324,0.013523,0.002678,0.000431,0.000353
6567000,0.0324,0.013523,0.002678,0.000431,0.000235
6568000,0.0324,0.013523,0.002678,0.000431,0.000353
6569000,0.0324,0.013523,0.002678,0.000431,0.000470
6570000,0.0324,0.013523,0.002678,0.000431,0.000118
6571000,0.0324,0.013523,0.002678,0.000431,0.000353
6572000,0.0324,0.013523,0.002678,0.000431,0.000470
6573000,0.0324,0.013523,0.002678,0.000431,0.000353
6574000,0.0324,0.013523,0.002678,0.000431,0.000235
6575000,0.0324,0.013523,0.002678,0.000431,0.000353
6576000,0.0324,0.013523,0.002678,0.000431,0.000353
6577000,0.0324,0.013523,0.002678,0.000431,0.000235
6578000,0.0324,0.013523,0.002678,0.000431,0.000353
6579000,0.0324,0.013523,0.002678,0.000431,0.000470
6580000,0.0324,0.013523,0.002678,0.000431,0.000353
6581000,0.0324,0.013523,0.002678,0.000431,0.000235
6582000,0.0324,0.013523,0.002678,0.000431,0.000353
6583000,0.0324,0.013523,0.002678,0.000431,0.000353
6584000,0.0324,0.013523,0.002678,0.000431,0.000235
6585000,0.0324,0.013523,0.002678,0.000431,0.000353
6586000,0.0324,0.013523,0.002678,0.000431,0.000470
6587000,0.0324,0.013523,0.002678,0.000431,0.000353
6588000,0.0324,0.013523,0.002678,0.000431,0.000235
6589000,0.0324,0.013523,0.002678,0.000431,0.000353
6590000,0.0324,0.013523,0.002678,0.000431,0.000353
6591000,0.0324,0.013523,0.002678,0.000431,0.000235
6592000,0.0324,0.013523,0.002678,0.000431,0.000353
6593000,0.0324,0.013523,0.002678,0.000431,0.000470
6594000,0.0324,0.013523,0.002678,0.000431,0.000353
6595000,0.0324,0.013523,0.002678,0.000431,0.000118
6596000,0.0324,0.013523,0.002678,0.000431,0.000470
6597000,0.0324,0.013523,0.002678,0.000431,0.000353
6598000,0.0324,0.013523,0.002678,0.000431,0.000235
6599000,0.0324,0.013523,0.002678,0.000431,0.000353
6600000,0.0324,0.013523,0.002678,0.000431,0.000470
6601000,0.0324,0.013523,0.002678,0.000431,0.000235
6602000,0.0324,0.013523,0.002678,0.000431,0.000235
6603000,0.0324,0.013523,0.002678,0.000431,0.000470
6604000,0.0324,0.013523,0.002678,0.000431,0.000353
6605000,0.0324,0.013523,0.002678,0.000431,0.000235
6606000,0.0324,0.013523,0.002678,0.000431,0.000353
6607000,0.0324,0.013523,0.002678,0.000431,0.000470
6608000,0.0324,0.013523,0.002678,0.000431,0.000235
6609000,0.0324,0.013523,0.002678,0.000431,0.000235
6610000,0.0324,0.013523,0.002678,0.000431,0.000470
6611000,0.0324,0.013523,0.002678,0.000431,0.000353
6612000,0.0324,0.013523,0.002678,0.000431,0.000235
6613000,0.0324,0.013523,0.002678,0.000431,0.000353
6614000,0.0324,0.013523,0.002678,0.000431,0.000470
6615000,0.0324,0.013523,0.002678,0.000431,0.000118
6616000,0.0324,0.013523,0.002678,0.000431,0.000353
6617000,0.0324,0.013523,0.002678,0.000431,0.000470
6618000,0.0324,0.013523,0.002678,0.000431,0.000353
6619000,0.0324,0.013523,0.002678,0.000431,0.000235
6620000,0.0324,0.013523,0.002678,0.000431,0.000353
6621000,0.0324,0.013523,0.002678,0.000431,0.000353
6622000,0.0324,0.013523,0.002678,0.000431,0.000235
6623000,0.0324,0.013523,0.002678,0.000431,0.000353
6624000,0.0324,0.013523,0.002678,0.000431,0.000470
6625000,0.0324,0.013523,0.002678,0.000431,0.000353
6626000,0.0324,0.013523,0.002678,0.000431,0.000235
6627000,0.0324,0.013523,0.002678,0.000431,0.000353
6628000,0.0324,0.013523,0.002678,0.000431,0.000353
6629000,0.0324,0.013523,0.002678,0.000431,0.000235
6630000,0.0324,0.013523,0.002678,0.000431,0.000353
6631000,0.0324,0.013523,0.002678,0.000431,0.000470
6632000,0.0324,0.013523,0.002678,0.000431,0.000353
6633000,0.0324,0.013523,0.002678,0.000431,0.000235
6634000,0.0324,0.013523,0.002678,0.000431,0.000353
6635000,0.0324,0.013523,0.002678,0.000431,0.000353
6636000,0.0324,0.013523,0.002678,0.000431,0.000235
6637000,0.0324,0.013523,0.002678,0.000431,0.000353
6638000,0.0324,0.013523,0.002678,0.000431,0.000470
6639000,0.0324,0.013523,0.002678,0.000431,0.000235
6640000,0.0324,0.013523,0.002678,0.000431,0.000235
6641000,0.0324,0.013523,0.002678,0.000431,0.000470
6642000,0.0324,0.013523,0.002678,0.000431,0.000353
6643000,0.0324,0.013523,0.002678,0.000431,0.000235
6644000,0.0324,0.013523,0.002678,0.000431,0.000353
6645000,0.0324,0.013523,0.002678,0.000431,0.000470
6646000,0.0324,0.013523,0.002678,0.000431,0.000235
6647000,0.0324,0.013523,0.002678,0.000431,0.000235
6648000,0.0324,0.013523,0.002678,0.000431,0.000470
6649000,0.0324,0.013523,0.002678,0.000431,0.000353
6650000,0.0324,0.013523,0.002678,0.000431,0.000235
6651000,0.0324,0.013523,0.002678,0.000431,0.000353
6652000,0.0324,0.013523,0.002678,0.000431,0.000470
6653000,0.0324,0.013523,0.002678,0.000431,0.000118
6654000,0.0324,0.013523,0.002678,0.000431,0.000353
6655000,0.0324,0.013523,0.002678,0.000431,0.000470
6656000,0.0324,0.013523,0.002678,0.000431,0.000353
6657000,0.0324,0.013523,0.002678,0.000431,0.000235
6658000,0.0324,0.013523,0.002678,0.000431,0.000353
6659000,0.0324,0.013523,0.002678,0.000431,0.000353
6660000,0.0324,0.013523,0.002678,0.000431,0.000235
6661000,0.0324,0.013523,0.002678,0.000431,0.000353
6662000,0.0324,0.013523,0.002678,0.000431,0.000470
6663000,0.0324,0.013523,0.002678,0.000431,0.000353
6664000,0.0324,0.013523,0.002678,0.000431,0.000235
6665000,0.0324,0.013523,0.002678,0.000431,0.000353
6666000,0.0324,0.013523,0.002678,0.000431,0.000353
6667000,0.0324,0.013523,0.002678,0.000431,0.000235
6668000,0.0324,0.013523,0.002678,0.000431,0.000353
6669000,0.0324,0.013523,0.002678,0.000431,0.000470
6670000,0.0324,0.013523,0.002678,0.000431,0.000353
6671000,0.0324,0.013523,0.002678,0.000431,0.000235
6672000,0.0324,0.013523,0.002678,0.000431,0.000353
6673000,0.0324,0.013523,0.002678,0.000431,0.000353
6674000,0.0324,0.013523,0.002678,0.000431,0.000235
6675000,0.0324,0.013523,0.002678,0.000431,0.000353
6676000,0.0324,0.013523,0.002678,0.000431,0.000470
6677000,0.0324,0.013523,0.002678,0.000431,0.000353
6678000,0.0324,0.013523,0.002678,0.000431,0.000235
6679000,0.0324,0.013523,0.002678,0.000431,0.000353
6680000,0.0324,0.013523,0.002678,0.000431,0.000353
6681000,0.0324,0.013523,0.002678,0.000431,0.000235
6682000,0.0324,0.013523,0.002678,0.000431,0.000353
6683000,0.0324,0.013523,0.002678,0.000431,0.000470
6684000,0.0324,0.013523,0.002678,0.000431,0.000353
6685000,0.0324,0.013523,0.002678,0.000431,0.000235
6686000,0.0324,0.013523,0.002678,0.000431,0.000353
6687000,0.0324,0.013523,0.002678,0.000431,0.000353
6688000,0.0324,0.013523,0.002678,0.000431,0.000235
6689000,0.0324,0.013523,0.002678,0.000431,0.000353
6690000,0.0324,0.013523,0.002678,0.000431,0.000470
6691000,0.0324,0.013523,0.002678,0.000431,0.000353
6692000,0.0324,0.013523,0.002678,0.000431,0.000235
6693000,0.0324,0.013523,0.002678,0.000431,0.000353
6694000,0.0324,0.013523,0.002678,0.000431,0.000353
6695000,0.0324,0.013523,0.002678,0.000431,0.000235
6696000,0.0324,0.013523,0.002678,0.000431,0.000353
6697000,0.0324,0.013523,0.002678,0.000431,0.000470
6698000,0.0324,0.013523,0.002678,0.000431,0.000353
6699000,0.0324,0.013523,0.002678,0.000431,0.000235
6700000,0.0324,0.013523,0.002678,0.000431,0.000353
6701000,0.0324,0.013523,0.002678,0.000431,0.000353
6702000,0.0324,0.013523,0.002678,0.000431,0.000235
6703000,0.0324,0.013523,0.002678,0.000431,0.000353
6704000,0.0324,0.013523,0.002678,0.000431,0.000470
6705000,0.0324,0.013523,0.002678,0.000431,0.000353
6706000,0.0324,0.013523,0.002678,0.000431,0.000235
6707000,0.0324,0.013523,0.002678,0.000431,0.000353
6708000,0.0324,0.013523,0.002678,0.000431,0.000353
6709000,0.0324,0.013523,0.002678,0.000431,0.000235
6710000,0.0324,0.013523,0.002678,0.000431,0.000353
6711000,0.0324,0.013523,0.002678,0.000431,0.000470
6712000,0.0324,0.013523,0.002678,0.000431,0.000353
6713000,0.0324,0.013523,0.002678,0.000431,0.000118
6714000,0.0324,0.013523,0.002678,0.000431,0.000470
6715000,0.0324,0.013523,0.002678,0.000431,0.000353
6716000,0.0324,0.013523,0.002678,0.000431,0.000235
6717000,0.0324,0.013523,0.002678,0.000431,0.000353
6718000,0.0324,0.013523,0.002678,0.000431,0.000470
6719000,0.0324,0.013523,0.002678,0.000431,0.000353
6720000,0.0324,0.013523,0.002678,0.000431,0.000118
6721000,0.0324,0.013523,0.002678,0.000431,0.000470
6722000,0.0324,0.013523,0.002678,0.000431,0.000353
6723000,0.0324,0.013523,0.002678,0.000431,0.000235
6724000,0.0324,0.013523,0.002678,0.000431,0.000353
6725000,0.0324,0.013523,0.002678,0.000431,0.000470
6726000,0.0324,0.013523,0.002678,0.000431,0.000353
6727000,0.0324,0.013523,0.002678,0.000431,0.000118
6728000,0.0324,0.013523,0.002678,0.000431,0.000470
6729000,0.0324,0.013523,0.002678,0.000431,0.000353
6730000,0.0324,0.013523,0.002678,0.000431,0.000235
6731000,0.0324,0.013523,0.002678,0.000431,0.000353
6732000,0.0324,0.013523,0.002678,0.000431,0.000470
6733000,0.0324,0.013523,0.002678,0.000431,0.000353
6734000,0.0324,0.013523,0.002678,0.000431,0.000118
6735000,0.0324,0.013523,0.002678,0.000431,0.000470
6736000,0.0324,0.013523,0.002678,0.000431,0.000353
6737000,0.0324,0.013523,0.002678,0.000431,0.000235
6738000,0.0324,0.013523,0.002678,0.000431,0.000353
6739000,0.0324,0.013523,0.002678,0.000431,0.000470
6740000,0.0324,0.013523,0.002678,0.000431,0.000235
6741000,0.0324,0.013523,0.002678,0.000431,0.000235
6742000,0.0324,0.013523,0.002678,0.000431,0.000470
6743000,0.0324,0.013523,0.002678,0.000431,0.000353
6744000,0.0324,0.013523,0.002678,0.000431,0.000235
6745000,0.0324,0.013523,0.002678,0.000431,0.000353
6746000,0.0324,0.013523,0.002678,0.000431,0.000470
6747000,0.0324,0.013523,0.002678,0.000431,0.000235
6748000,0.0324,0.013523,0.002678,0.000431,0.000235
6749000,0.0324,0.013523,0.002678,0.000431,0.000470
6750000,0.0324,0.013523,0.002678,0.000431,0.000353
6751000,0.0324,0.013523,0.002678,0.000431,0.000235
6752000,0.0324,0.013523,0.002678,0.000431,0.000353
6753000,0.0324,0.013523,0.002678,0.000431,0.000470
6754000,0.0324,0.013523,0.002678,0.000431,0.000235
6755000,0.0324,0.013523,0.002678,0.000431,0.000235
6756000,0.0324,0.013523,0.002678,0.000431,0.000470
6757000,0.0324,0.013523,0.002678,0.000431,0.000353
6758000,0.0324,0.013523,0.002678,0.000431,0.000235
6759000,0.0324,0.013523,0.002678,0.000431,0.000353
6760000,0.0324,0.013523,0.002678,0.000431,0.000470
6761000,0.0324,0.013523,0.002678,0.000431,0.000235
6762000,0.0324,0.013523,0.002678,0.000431,0.000235
6763000,0.0324,0.013523,0.002678,0.000431,0.000470
6764000,0.0324,0.013523,0.002678,0.000431,0.000353
6765000,0.0324,0.013523,0.002678,0.000431,0.000235
6766000,0.0324,0.013523,0.002678,0.000431,0.000353
6767000,0.0324,0.013523,0.002678,0.000431,0.000470
6768000,0.0324,0.013523,0.002678,0.000431,0.000235
6769000,0.0324,0.013523,0.002678,0.000431,0.000235
6770000,0.0324,0.013523,0.002678,0.000431,0.000470
6771000,0.0324,0.013523,0.002678,0.000431,0.000353
6772000,0.0324,0.013523,0.002678,0.000431,0.000235
6773000,0.0324,0.013523,0.002678,0.000431,0.000353
6774000,0.0324,0.013523,0.002678,0.000431,0.000470
6775000,0.0324,0.013523,0.002678,0.000431,0.000235
6776000,0.0324,0.013523,0.002678,0.000431,0.000235
6777000,0.0324,0.013523,0.002678,0.000431,0.000470
6778000,0.0324,0.013523,0.002678,0.000431,0.000353
6779000,0.0324,0.013523,0.002678,0.000431,0.000235
6780000,0.0324,0.013523,0.002678,0.000431,0.000353
6781000,0.0324,0.013523,0.002678,0.000431,0.000470
6782000,0.0324,0.013523,0.002678,0.000431,0.000118
6783000,0.0324,0.013523,0.002678,0.000431,0.000353
6784000,0.0324,0.013523,0.002678,0.000431,0.000470
6785000,0.0324,0.013523,0.002678,0.000431,0.000353
6786000,0.0324,0.013523,0.002678,0.000431,0.000235
6787000,0.0324,0.013523,0.002678,0.000431,0.000353
6788000,0.0324,0.013523,0.002678,0.000431,0.000470
6789000,0.0324,0.013523,0.002678,0.000431,0.000118
6790000,0.0324,0.013523,0.002678,0.000431,0.000353
6791000,0.0324,0.013523,0.002678,0.000431,0.000470
6792000,0.0324,0.013523,0.002678,0.000431,0.000353
6793000,0.0324,0.013523,0.002678,0.000431,0.000235
6794000,0.0324,0.013523,0.002678,0.000431,0.000353
6795000,0.0324,0.013523,0.002678,0.000431,0.000470
6796000,0.0324,0.013523,0.002678,0.000431,0.000118
6797000,0.0324,0.013523,0.002678,0.000431,0.000353
6798000,0.0324,0.013523,0.002678,0.000431,0.000470
6799000,0.0324,0.013523,0.002678,0.000431,0.000353
6800000,0.0324,0.013523,0.002678,0.000431,0.000235
6801000,0.0324,0.013523,0.002678,0.000431,0.000353
6802000,0.0324,0.013523,0.002678,0.000431,0.000353
6803000,0.0324,0.013523,0.002678,0.000431,0.000235
6804000,0.0324,0.013523,0.002678,0.000431,0.000353
6805000,0.0324,0.013523,0.002678,0.000431,0.000470
6806000,0.0324,0.013523,0.002678,0.000431,0.000353
6807000,0.0324,0.013523,0.002678,0.000431,0.000235
6808000,0.0324,0.013523,0.002678,0.000431,0.000353
6809000,0.0324,0.013523,0.002678,0.000431,0.000353
6810000,0.0324,0.013523,0.002678,0.000431,0.000235
6811000,0.0324,0.013523,0.002678,0.000431,0.000353
6812000,0.0324,0.013523,0.002678,0.000431,0.000470
6813000,0.0324,0.013523,0.002678,0.000431,0.000353
6814000,0.0324,0.013523,0.002678,0.000431,0.000235
6815000,0.0324,0.013523,0.002678,0.000431,0.000353
6816000,0.0324,0.013523,0.002678,0.000431,0.000353
6817000,0.0324,0.013523,0.002678,0.000431,0.000235
6818000,0.0324,0.013523,0.002678,0.000431,0.000353
6819000,0.0324,0.013523,0.002678,0.000431,0.000470
6820000,0.0324,0.013523,0.002678,0.000431,0.000353
6821000,0.0324,0.013523,0.002678,0.000431,0.000235
6822000,0.0324,0.013523,0.002678,0.000431,0.000353
6823000,0.0324,0.013523,0.002678,0.000431,0.000353
6824000,0.0324,0.013523,0.002678,0.000431,0.000235
6825000,0.0324,0.013523,0.002678,0.000431,0.000353
6826000,0.0324,0.013523,0.002678,0.000431,0.000470
6827000,0.0324,0.013523,0.002678,0.000431,0.000353
6828000,0.0324,0.013523,0.002678,0.000431,0.000235
6829000,0.0324,0.013523,0.002678,0.000431,0.000353
6830000,0.0324,0.013523,0.002678,0.000431,0.000353
6831000,0.0324,0.013523,0.002678,0.000431,0.000235
6832000,0.0324,0.013523,0.002678,0.000431,0.000353
6833000,0.0324,0.013523,0.002678,0.000431,0.000470
6834000,0.0324,0.013523,0.002678,0.000431,0.000353
6835000,0.0324,0.013523,0.002678,0.000431,0.000235
6836000,0.0324,0.013523,0.002678,0.000431,0.000353
6837000,0.0324,0.013523,0.002678,0.000431,0.000353
6838000,0.0324,0.013523,0.002678,0.000431,0.000235
6839000,0.0324,0.013523,0.002678,0.000431,0.000353
6840000,0.0324,0.013523,0.002678,0.000431,0.000470
6841000,0.0324,0.013523,0.002678,0.000431,0.000353
6842000,0.0324,0.013523,0.002678,0.000431,0.000235
6843000,0.0324,0.013523,0.002678,0.000431,0.000353
6844000,0.0324,0.013523,0.002678,0.000431,0.000353
6845000,0.0324,0.013523,0.002678,0.000431,0.000235
6846000,0.0324,0.013523,0.002678,0.000431,0.000353
6847000,0.0324,0.013523,0.002678,0.000431,0.000470
6848000,0.0324,0.013523,0.002678,0.000431,0.000353
6849000,0.0324,0.013523,0.002678,0.000431,0.000235
6850000,0.0324,0.013523,0.002678,0.000431,0.000353
6851000,0.0324,0.013523,0.002678,0.000431,0.000353
6852000,0.0324,0.013523,0.002678,0.000431,0.000235
6853000,0.0324,0.013523,0.002678,0.000431,0.000353
6854000,0.0324,0.013523,0.002678,0.000431,0.000470
6855000,0.0324,0.013523,0.002678,0.000431,0.000353
6856000,0.0324,0.013523,0.002678,0.000431,0.000118
6857000,0.0324,0.013523,0.002678,0.000431,0.000470
6858000,0.0324,0.013523,0.002678,0.000431,0.000353
6859000,0.0324,0.013523,0.002678,0.000431,0.000235
6860000,0.0324,0.013523,0.002678,0.000431,0.000353
6861000,0.0324,0.013523,0.002678,0.000431,0.000470
6862000,0.0324,0.013523,0.002678,0.000431,0.000353
6863000,0.0324,0.013523,0.002678,0.000431,0.000118
6864000,0.0324,0.013523,0.002678,0.000431,0.000470
6865000,0.0324,0.013523,0.002678,0.000431,0.000353
6866000,0.0324,0.013523,0.002678,0.000431,0.000235
6867000,0.0324,0.013523,0.002678,0.000431,0.000353
6868000,0.0324,0.013523,0.002678,0.000431,0.000470
6869000,0.0324,0.013523,0.002678,0.000431,0.000353
6870000,0.0324,0.013523,0.002678,0.000431,0.000118
6871000,0.0324,0.013523,0.002678,0.000431,0.000470
6872000,0.0324,0.013523,0.002678,0.000431,0.000353
6873000,0.0324,0.013523,0.002678,0.000431,0.000235
6874000,0.0324,0.013523,0.002678,0.000431,0.000353
6875000,0.0324,0.013523,0.002678,0.000431,0.000470
6876000,0.0324,0.013523,0.002678,0.000431,0.000235
6877000,0.0324,0.013523,0.002678,0.000431,0.000235
6878000,0.0324,0.013523,0.002678,0.000431,0.000470
6879000,0.0324,0.013523,0.002678,0.000431,0.000353
6880000,0.0324,0.013523,0.002678,0.000431,0.000235
6881000,0.0324,0.013523,0.002678,0.000431,0.000353
6882000,0.0324,0.013523,0.002678,0.000431,0.000470
6883000,0.0324,0.013523,0.002678,0.000431,0.000235
6884000,0.0324,0.013523,0.002678,0.000431,0.000235
6885000,0.0324,0.013523,0.002678,0.000431,0.000470
6886000,0.0324,0.013523,0.002678,0.000431,0.000353
6887000,0.0324,0.013523,0.002678,0.000431,0.000235
6888000,0.0324,0.013523,0.002678,0.000431,0.000353
6889000,0.0324,0.013523,0.002678,0.000431,0.000470
6890000,0.0324,0.013523,0.002678,0.000431,0.000235
6891000,0.0324,0.013523,0.002678,0.000431,0.000235
6892000,0.0324,0.013523,0.002678,0.000431,0.000470
6893000,0.0324,0.013523,0.002678,0.000431,0.000353
6894000,0.0324,0.013523,0.002678,0.000431,0.000235
6895000,0.0324,0.013523,0.002678,0.000431,0.000353
6896000,0.0324,0.013523,0.002678,0.000431,0.000470
6897000,0.0324,0.013523,0.002678,0.000431,0.000235
6898000,0.0324,0.013523,0.002678,0.000431,0.000235
6899000,0.0324,0.013523,0.002678,0.000431,0.000470
6900000,0.0324,0.013523,0.002678,0.000431,0.000353
6901000,0.0324,0.013523,0.002678,0.000431,0.000235
6902000,0.0324,0.013523,0.002678,0.000431,0.000353
6903000,0.0324,0.013523,0.002678,0.000431,0.000470
6904000,0.0324,0.013523,0.002678,0.000431,0.000235
6905000,0.0324,0.013523,0.002678,0.000431,0.000235
6906000,0.0324,0.013523,0.002678,0.000431,0.000470
6907000,0.0324,0.013523,0.002678,0.000431,0.000353
6908000,0.0324,0.013523,0.002678,0.000431,0.000235
6909000,0.0324,0.013523,0.002678,0.000431,0.000353
6910000,0.0324,0.013523,0.002678,0.000431,0.000470
6911000,0.0324,0.013523,0.002678,0.000431,0.000235
6912000,0.0324,0.013523,0.002678,0.000431,0.000235
6913000,0.0324,0.013523,0.002678,0.000431,0.000470
6914000,0.0324,0.013523,0.002678,0.000431,0.000353
6915000,0.0324,0.013523,0.002678,0.000431,0.000235
6916000,0.0324,0.013523,0.002678,0.000431,0.000353
6917000,0.0324,0.013523,0.002678,0.000431,0.000470
6918000,0.0324,0.013523,0.002678,0.000431,0.000118
6919000,0.0324,0.013523,0.002678,0.000431,0.000353
6920000,0.0324,0.013523,0.002678,0.000431,0.000470
6921000,0.0324,0.013523,0.002678,0.000431,0.000353
6922000,0.0324,0.013523,0.002678,0.000431,0.000235
6923000,0.0324,0.013523,0.002678,0.000431,0.000353
6924000,0.0324,0.013523,0.002678,0.000431,0.000470
6925000,0.0324,0.013523,0.002678,0.000431,0.000118
6926000,0.0324,0.013523,0.002678,0.000431,0.000353
6927000,0.0324,0.013523,0.002678,0.000431,0.000470
6928000,0.0324,0.013523,0.002678,0.000431,0.000353
6929000,0.0324,0.013523,0.002678,0.000431,0.000235
6930000,0.0324,0.013523,0.002678,0.000431,0.000353
6931000,0.0324,0.013523,0.002678,0.000431,0.000470
6932000,0.0324,0.013523,0.002678,0.000431,0.000118
6933000,0.0324,0.013523,0.002678,0.000431,0.000353
6934000,0.0324,0.013523,0.002678,0.000431,0.000470
6935000,0.0324,0.013523,0.002678,0.000431,0.000353
6936000,0.0324,0.013523,0.002678,0.000431,0.000235
6937000,0.0324,0.013523,0.002678,0.000431,0.000353
6938000,0.0324,0.013523,0.002678,0.000431,0.000470
6939000,0.0324,0.013523,0.002678,0.000431,0.000118
6940000,0.0324,0.013523,0.002678,0.000431,0.000353
6941000,0.0324,0.013523,0.002678,0.000431,0.000470
6942000,0.0324,0.013523,0.002678,0.000431,0.000353
6943000,0.0324,0.013523,0.002678,0.000431,0.000235
6944000,0.0324,0.013523,0.002678,0.000431,0.000353
6945000,0.0324,0.013523,0.002678,0.000431,0.000353
6946000,0.0324,0.013523,0.002678,0.000431,0.000235
6947000,0.0324,0.013523,0.002678,0.000431,0.000353
6948000,0.0324,0.013523,0.002678,0.000431,0.000470
6949000,0.0324,0.013523,0.002678,0.000431,0.000353
6950000,0.0324,0.013523,0.002678,0.000431,0.000235
6951000,0.0324,0.013523,0.002678,0.000431,0.000353
6952000,0.0324,0.013523,0.002678,0.000431,0.000353
6953000,0.0324,0.013523,0.002678,0.000431,0.000235
6954000,0.0324,0.013523,0.002678,0.000431,0.000353
6955000,0.0324,0.013523,0.002678,0.000431,0.000470
6956000,0.0324,0.013523,0.002678,0.000431,0.000353
6957000,0.0324,0.013523,0.002678,0.000431,0.000235
6958000,0.0324,0.013523,0.002678,0.000431,0.000353
6959000,0.0324,0.013523,0.002678,0.000431,0.000353
6960000,0.0324,0.013523,0.002678,0.000431,0.000235
6961000,0.0324,0.013523,0.002678,0.000431,0.000353
6962000,0.0324,0.013523,0.002678,0.000431,0.000470
6963000,0.0324,0.013523,0.002678,0.000431,0.000353
6964000,0.0324,0.013523,0.002678,0.000431,0.000235
6965000,0.0324,0.013523,0.002678,0.000431,0.000353
6966000,0.0324,0.013523,0.002678,0.000431,0.000353
6967000,0.0324,0.013523,0.002678,0.000431,0.000235
6968000,0.0324,0.013523,0.002678,0.000431,0.000353
6969000,0.0324,0.013523,0.002678,0.000431,0.000470
6970000,0.0324,0.013523,0.002678,0.000431,0.000353
6971000,0.0324,0.013523,0.002678,0.000431,0.000235
6972000,0.0324,0.013523,0.002678,0.000431,0.000353
6973000,0.0324,0.013523,0.002678,0.000431,0.000353
6974000,0.0324,0.013523,0.002678,0.000431,0.000235
6975000,0.0324,0.013523,0.002678,0.000431,0.000353
6976000,0.0324,0.013523,0.002678,0.000431,0.000470
6977000,0.0324,0.013523,0.002678,0.000431,0.000353
6978000,0.0324,0.013523,0.002678,0.000431,0.000235
6979000,0.0324,0.013523,0.002678,0.000431,0.000353
6980000,0.0324,0.013523,0.002678,0.000431,0.000353
6981000,0.0324,0.013523,0.002678,0.000431,0.000235
6982000,0.0324,0.013523,0.002678,0.000431,0.000353
6983000,0.0324,0.013523,0.002678,0.000431,0.000470
6984000,0.0324,0.013523,0.002678,0.000431,0.000353
6985000,0.0324,0.013523,0.002678,0.000431,0.000235
6986000,0.0324,0.013523,0.002678,0.000431,0.000353
6987000,0.0324,0.013523,0.002678,0.000431,0.000353
6988000,0.0324,0.013523,0.002678,0.000431,0.000235
6989000,0.0324,0.013523,0.002678,0.000431,0.000353
6990000,0.0324,0.013523,0.002678,0.000431,0.000470
6991000,0.0324,0.013523,0.002678,0.000431,0.000353
6992000,0.0324,0.013523,0.002678,0.000431,0.000118
6993000,0.0324,0.013523,0.002678,0.000431,0.000470
6994000,0.0324,0.013523,0.002678,0.000431,0.000353
6995000,0.0324,0.013523,0.002678,0.000431,0.000235
6996000,0.0324,0.013523,0.002678,0.000431,0.000353
6997000,0.0324,0.013523,0.002678,0.000431,0.000470
6998000,0.0324,0.013523,0.002678,0.000431,0.000353
6999000,0.0324,0.013523,0.002678,0.000431,0.000118
