Cycle,Area(mm^2),PeakDynamic(W),SubthresholdLeakage(W),GateLeakage(W),RunTimeDynamic(W)
17000000,0.0324,0.013523,0.002678,0.000431,0.000470
17001000,0.0324,0.013523,0.002678,0.000431,0.000353
17002000,0.0324,0.013523,0.002678,0.000431,0.000235
17003000,0.0324,0.013523,0.002678,0.000431,0.000353
17004000,0.0324,0.013523,0.002678,0.000431,0.000470
17005000,0.0324,0.013523,0.002678,0.000431,0.000118
17006000,0.0324,0.013523,0.002678,0.000431,0.000353
17007000,0.0324,0.013523,0.002678,0.000431,0.000470
17008000,0.0324,0.013523,0.002678,0.000431,0.000353
17009000,0.0324,0.013523,0.002678,0.000431,0.000235
17010000,0.0324,0.013523,0.002678,0.000431,0.000353
17011000,0.0324,0.013523,0.002678,0.000431,0.000470
17012000,0.0324,0.013523,0.002678,0.000431,0.000118
17013000,0.0324,0.013523,0.002678,0.000431,0.000353
17014000,0.0324,0.013523,0.002678,0.000431,0.000470
17015000,0.0324,0.013523,0.002678,0.000431,0.000353
17016000,0.0324,0.013523,0.002678,0.000431,0.000235
17017000,0.0324,0.013523,0.002678,0.000431,0.000353
17018000,0.0324,0.013523,0.002678,0.000431,0.000353
17019000,0.0324,0.013523,0.002678,0.000431,0.000235
17020000,0.0324,0.013523,0.002678,0.000431,0.000353
17021000,0.0324,0.013523,0.002678,0.000431,0.000470
17022000,0.0324,0.013523,0.002678,0.000431,0.000353
17023000,0.0324,0.013523,0.002678,0.000431,0.000235
17024000,0.0324,0.013523,0.002678,0.000431,0.000353
17025000,0.0324,0.013523,0.002678,0.000431,0.000353
17026000,0.0324,0.013523,0.002678,0.000431,0.000235
17027000,0.0324,0.013523,0.002678,0.000431,0.000353
17028000,0.0324,0.013523,0.002678,0.000431,0.000470
17029000,0.0324,0.013523,0.002678,0.000431,0.000353
17030000,0.0324,0.013523,0.002678,0.000431,0.000235
17031000,0.0324,0.013523,0.002678,0.000431,0.000353
17032000,0.0324,0.013523,0.002678,0.000431,0.000353
17033000,0.0324,0.013523,0.002678,0.000431,0.000235
17034000,0.0324,0.013523,0.002678,0.000431,0.000353
17035000,0.0324,0.013523,0.002678,0.000431,0.000470
17036000,0.0324,0.013523,0.002678,0.000431,0.000353
17037000,0.0324,0.013523,0.002678,0.000431,0.000118
17038000,0.0324,0.013523,0.002678,0.000431,0.000470
17039000,0.0324,0.013523,0.002678,0.000431,0.000353
17040000,0.0324,0.013523,0.002678,0.000431,0.000235
17041000,0.0324,0.013523,0.002678,0.000431,0.000353
17042000,0.0324,0.013523,0.002678,0.000431,0.000470
17043000,0.0324,0.013523,0.002678,0.000431,0.000235
17044000,0.0324,0.013523,0.002678,0.000431,0.000235
17045000,0.0324,0.013523,0.002678,0.000431,0.000470
17046000,0.0324,0.013523,0.002678,0.000431,0.000353
17047000,0.0324,0.013523,0.002678,0.000431,0.000235
17048000,0.0324,0.013523,0.002678,0.000431,0.000353
17049000,0.0324,0.013523,0.002678,0.000431,0.000470
17050000,0.0324,0.013523,0.002678,0.000431,0.000235
17051000,0.0324,0.013523,0.002678,0.000431,0.000235
17052000,0.0324,0.013523,0.002678,0.000431,0.000470
17053000,0.0324,0.013523,0.002678,0.000431,0.000353
17054000,0.0324,0.013523,0.002678,0.000431,0.000235
17055000,0.0324,0.013523,0.002678,0.000431,0.000353
17056000,0.0324,0.013523,0.002678,0.000431,0.000470
17057000,0.0324,0.013523,0.002678,0.000431,0.000118
17058000,0.0324,0.013523,0.002678,0.000431,0.000353
17059000,0.0324,0.013523,0.002678,0.000431,0.000470
17060000,0.0324,0.013523,0.002678,0.000431,0.000353
17061000,0.0324,0.013523,0.002678,0.000431,0.000235
17062000,0.0324,0.013523,0.002678,0.000431,0.000353
17063000,0.0324,0.013523,0.002678,0.000431,0.000353
17064000,0.0324,0.013523,0.002678,0.000431,0.000235
17065000,0.0324,0.013523,0.002678,0.000431,0.000353
17066000,0.0324,0.013523,0.002678,0.000431,0.000470
17067000,0.0324,0.013523,0.002678,0.000431,0.000353
17068000,0.0324,0.013523,0.002678,0.000431,0.000235
17069000,0.0324,0.013523,0.002678,0.000431,0.000353
17070000,0.0324,0.013523,0.002678,0.000431,0.000353
17071000,0.0324,0.013523,0.002678,0.000431,0.000235
17072000,0.0324,0.013523,0.002678,0.000431,0.000353
17073000,0.0324,0.013523,0.002678,0.000431,0.000470
17074000,0.0324,0.013523,0.002678,0.000431,0.000353
17075000,0.0324,0.013523,0.002678,0.000431,0.000118
17076000,0.0324,0.013523,0.002678,0.000431,0.000470
17077000,0.0324,0.013523,0.002678,0.000431,0.000353
17078000,0.0324,0.013523,0.002678,0.000431,0.000235
17079000,0.0324,0.013523,0.002678,0.000431,0.000353
17080000,0.0324,0.013523,0.002678,0.000431,0.000470
17081000,0.0324,0.013523,0.002678,0.000431,0.000235
17082000,0.0324,0.013523,0.002678,0.000431,0.000235
17083000,0.0324,0.013523,0.002678,0.000431,0.000470
17084000,0.0324,0.013523,0.002678,0.000431,0.000353
17085000,0.0324,0.013523,0.002678,0.000431,0.000235
17086000,0.0324,0.013523,0.002678,0.000431,0.000353
17087000,0.0324,0.013523,0.002678,0.000431,0.000470
17088000,0.0324,0.013523,0.002678,0.000431,0.000235
17089000,0.0324,0.013523,0.002678,0.000431,0.000235
17090000,0.0324,0.013523,0.002678,0.000431,0.000470
17091000,0.0324,0.013523,0.002678,0.000431,0.000353
17092000,0.0324,0.013523,0.002678,0.000431,0.000235
17093000,0.0324,0.013523,0.002678,0.000431,0.000353
17094000,0.0324,0.013523,0.002678,0.000431,0.000470
17095000,0.0324,0.013523,0.002678,0.000431,0.000235
17096000,0.0324,0.013523,0.002678,0.000431,0.000235
17097000,0.0324,0.013523,0.002678,0.000431,0.000470
17098000,0.0324,0.013523,0.002678,0.000431,0.000353
17099000,0.0324,0.013523,0.002678,0.000431,0.000235
17100000,0.0324,0.013523,0.002678,0.000431,0.000353
17101000,0.0324,0.013523,0.002678,0.000431,0.000470
17102000,0.0324,0.013523,0.002678,0.000431,0.000118
17103000,0.0324,0.013523,0.002678,0.000431,0.000353
17104000,0.0324,0.013523,0.002678,0.000431,0.000470
17105000,0.0324,0.013523,0.002678,0.000431,0.000353
17106000,0.0324,0.013523,0.002678,0.000431,0.000235
17107000,0.0324,0.013523,0.002678,0.000431,0.000353
17108000,0.0324,0.013523,0.002678,0.000431,0.000353
17109000,0.0324,0.013523,0.002678,0.000431,0.000235
17110000,0.0324,0.013523,0.002678,0.000431,0.000353
17111000,0.0324,0.013523,0.002678,0.000431,0.000470
17112000,0.0324,0.013523,0.002678,0.000431,0.000353
17113000,0.0324,0.013523,0.002678,0.000431,0.000235
17114000,0.0324,0.013523,0.002678,0.000431,0.000353
17115000,0.0324,0.013523,0.002678,0.000431,0.000353
17116000,0.0324,0.013523,0.002678,0.000431,0.000235
17117000,0.0324,0.013523,0.002678,0.000431,0.000353
17118000,0.0324,0.013523,0.002678,0.000431,0.000470
17119000,0.0324,0.013523,0.002678,0.000431,0.000353
17120000,0.0324,0.013523,0.002678,0.000431,0.000118
17121000,0.0324,0.013523,0.002678,0.000431,0.000470
17122000,0.0324,0.013523,0.002678,0.000431,0.000353
17123000,0.0324,0.013523,0.002678,0.000431,0.000235
17124000,0.0324,0.013523,0.002678,0.000431,0.000353
17125000,0.0324,0.013523,0.002678,0.000431,0.000470
17126000,0.0324,0.013523,0.002678,0.000431,0.000235
17127000,0.0324,0.013523,0.002678,0.000431,0.000235
17128000,0.0324,0.013523,0.002678,0.000431,0.000470
17129000,0.0324,0.013523,0.002678,0.000431,0.000353
17130000,0.0324,0.013523,0.002678,0.000431,0.000235
17131000,0.0324,0.013523,0.002678,0.000431,0.000353
17132000,0.0324,0.013523,0.002678,0.000431,0.000470
17133000,0.0324,0.013523,0.002678,0.000431,0.000235
17134000,0.0324,0.013523,0.002678,0.000431,0.000235
17135000,0.0324,0.013523,0.002678,0.000431,0.000470
17136000,0.0324,0.013523,0.002678,0.000431,0.000353
17137000,0.0324,0.013523,0.002678,0.000431,0.000235
17138000,0.0324,0.013523,0.002678,0.000431,0.000353
17139000,0.0324,0.013523,0.002678,0.000431,0.000470
17140000,0.0324,0.013523,0.002678,0.000431,0.000118
17141000,0.0324,0.013523,0.002678,0.000431,0.000353
17142000,0.0324,0.013523,0.002678,0.000431,0.000470
17143000,0.0324,0.013523,0.002678,0.000431,0.000353
17144000,0.0324,0.013523,0.002678,0.000431,0.000235
17145000,0.0324,0.013523,0.002678,0.000431,0.000353
17146000,0.0324,0.013523,0.002678,0.000431,0.000353
17147000,0.0324,0.013523,0.002678,0.000431,0.000235
17148000,0.0324,0.013523,0.002678,0.000431,0.000353
17149000,0.0324,0.013523,0.002678,0.000431,0.000470
17150000,0.0324,0.013523,0.002678,0.000431,0.000353
17151000,0.0324,0.013523,0.002678,0.000431,0.000235
17152000,0.0324,0.013523,0.002678,0.000431,0.000353
17153000,0.0324,0.013523,0.002678,0.000431,0.000353
17154000,0.0324,0.013523,0.002678,0.000431,0.000235
17155000,0.0324,0.013523,0.002678,0.000431,0.000353
17156000,0.0324,0.013523,0.002678,0.000431,0.000470
17157000,0.0324,0.013523,0.002678,0.000431,0.000353
17158000,0.0324,0.013523,0.002678,0.000431,0.000235
17159000,0.0324,0.013523,0.002678,0.000431,0.000353
17160000,0.0324,0.013523,0.002678,0.000431,0.000353
17161000,0.0324,0.013523,0.002678,0.000431,0.000235
17162000,0.0324,0.013523,0.002678,0.000431,0.000353
17163000,0.0324,0.013523,0.002678,0.000431,0.000470
17164000,0.0324,0.013523,0.002678,0.000431,0.000353
17165000,0.0324,0.013523,0.002678,0.000431,0.000235
17166000,0.0324,0.013523,0.002678,0.000431,0.000353
17167000,0.0324,0.013523,0.002678,0.000431,0.000353
17168000,0.0324,0.013523,0.002678,0.000431,0.000235
17169000,0.0324,0.013523,0.002678,0.000431,0.000353
17170000,0.0324,0.013523,0.002678,0.000431,0.000470
17171000,0.0324,0.013523,0.002678,0.000431,0.000353
17172000,0.0324,0.013523,0.002678,0.000431,0.000235
17173000,0.0324,0.013523,0.002678,0.000431,0.000353
17174000,0.0324,0.013523,0.002678,0.000431,0.000353
17175000,0.0324,0.013523,0.002678,0.000431,0.000235
17176000,0.0324,0.013523,0.002678,0.000431,0.000353
17177000,0.0324,0.013523,0.002678,0.000431,0.000470
17178000,0.0324,0.013523,0.002678,0.000431,0.000353
17179000,0.0324,0.013523,0.002678,0.000431,0.000235
17180000,0.0324,0.013523,0.002678,0.000431,0.000353
17181000,0.0324,0.013523,0.002678,0.000431,0.000353
17182000,0.0324,0.013523,0.002678,0.000431,0.000235
17183000,0.0324,0.013523,0.002678,0.000431,0.000353
17184000,0.0324,0.013523,0.002678,0.000431,0.000470
17185000,0.0324,0.013523,0.002678,0.000431,0.000353
17186000,0.0324,0.013523,0.002678,0.000431,0.000118
17187000,0.0324,0.013523,0.002678,0.000431,0.000470
17188000,0.0324,0.013523,0.002678,0.000431,0.000353
17189000,0.0324,0.013523,0.002678,0.000431,0.000235
17190000,0.0324,0.013523,0.002678,0.000431,0.000353
17191000,0.0324,0.013523,0.002678,0.000431,0.000470
17192000,0.0324,0.013523,0.002678,0.000431,0.000353
17193000,0.0324,0.013523,0.002678,0.000431,0.000118
17194000,0.0324,0.013523,0.002678,0.000431,0.000470
17195000,0.0324,0.013523,0.002678,0.000431,0.000353
17196000,0.0324,0.013523,0.002678,0.000431,0.000235
17197000,0.0324,0.013523,0.002678,0.000431,0.000353
17198000,0.0324,0.013523,0.002678,0.000431,0.000470
17199000,0.0324,0.013523,0.002678,0.000431,0.000353
17200000,0.0324,0.013523,0.002678,0.000431,0.000118
17201000,0.0324,0.013523,0.002678,0.000431,0.000470
17202000,0.0324,0.013523,0.002678,0.000431,0.000353
17203000,0.0324,0.013523,0.002678,0.000431,0.000235
17204000,0.0324,0.013523,0.002678,0.000431,0.000353
17205000,0.0324,0.013523,0.002678,0.000431,0.000470
17206000,0.0324,0.013523,0.002678,0.000431,0.000235
17207000,0.0324,0.013523,0.002678,0.000431,0.000235
17208000,0.0324,0.013523,0.002678,0.000431,0.000470
17209000,0.0324,0.013523,0.002678,0.000431,0.000353
17210000,0.0324,0.013523,0.002678,0.000431,0.000235
17211000,0.0324,0.013523,0.002678,0.000431,0.000353
17212000,0.0324,0.013523,0.002678,0.000431,0.000470
17213000,0.0324,0.013523,0.002678,0.000431,0.000235
17214000,0.0324,0.013523,0.002678,0.000431,0.000235
17215000,0.0324,0.013523,0.002678,0.000431,0.000470
17216000,0.0324,0.013523,0.002678,0.000431,0.000353
17217000,0.0324,0.013523,0.002678,0.000431,0.000235
17218000,0.0324,0.013523,0.002678,0.000431,0.000353
17219000,0.0324,0.013523,0.002678,0.000431,0.000470
17220000,0.0324,0.013523,0.002678,0.000431,0.000235
17221000,0.0324,0.013523,0.002678,0.000431,0.000235
17222000,0.0324,0.013523,0.002678,0.000431,0.000470
17223000,0.0324,0.013523,0.002678,0.000431,0.000353
17224000,0.0324,0.013523,0.002678,0.000431,0.000235
17225000,0.0324,0.013523,0.002678,0.000431,0.000353
17226000,0.0324,0.013523,0.002678,0.000431,0.000470
17227000,0.0324,0.013523,0.002678,0.000431,0.000235
17228000,0.0324,0.013523,0.002678,0.000431,0.000235
17229000,0.0324,0.013523,0.002678,0.000431,0.000470
17230000,0.0324,0.013523,0.002678,0.000431,0.000353
17231000,0.0324,0.013523,0.002678,0.000431,0.000235
17232000,0.0324,0.013523,0.002678,0.000431,0.000353
17233000,0.0324,0.013523,0.002678,0.000431,0.000470
17234000,0.0324,0.013523,0.002678,0.000431,0.000235
17235000,0.0324,0.013523,0.002678,0.000431,0.000235
17236000,0.0324,0.013523,0.002678,0.000431,0.000470
17237000,0.0324,0.013523,0.002678,0.000431,0.000353
17238000,0.0324,0.013523,0.002678,0.000431,0.000235
17239000,0.0324,0.013523,0.002678,0.000431,0.000353
17240000,0.0324,0.013523,0.002678,0.000431,0.000470
17241000,0.0324,0.013523,0.002678,0.000431,0.000235
17242000,0.0324,0.013523,0.002678,0.000431,0.000235
17243000,0.0324,0.013523,0.002678,0.000431,0.000470
17244000,0.0324,0.013523,0.002678,0.000431,0.000353
17245000,0.0324,0.013523,0.002678,0.000431,0.000235
17246000,0.0324,0.013523,0.002678,0.000431,0.000353
17247000,0.0324,0.013523,0.002678,0.000431,0.000470
17248000,0.0324,0.013523,0.002678,0.000431,0.000118
17249000,0.0324,0.013523,0.002678,0.000431,0.000353
17250000,0.0324,0.013523,0.002678,0.000431,0.000470
17251000,0.0324,0.013523,0.002678,0.000431,0.000353
17252000,0.0324,0.013523,0.002678,0.000431,0.000235
17253000,0.0324,0.013523,0.002678,0.000431,0.000353
17254000,0.0324,0.013523,0.002678,0.000431,0.000470
17255000,0.0324,0.013523,0.002678,0.000431,0.000118
17256000,0.0324,0.013523,0.002678,0.000431,0.000353
17257000,0.0324,0.013523,0.002678,0.000431,0.000470
17258000,0.0324,0.013523,0.002678,0.000431,0.000353
17259000,0.0324,0.013523,0.002678,0.000431,0.000235
17260000,0.0324,0.013523,0.002678,0.000431,0.000353
17261000,0.0324,0.013523,0.002678,0.000431,0.000470
17262000,0.0324,0.013523,0.002678,0.000431,0.000118
17263000,0.0324,0.013523,0.002678,0.000431,0.000353
17264000,0.0324,0.013523,0.002678,0.000431,0.000470
17265000,0.0324,0.013523,0.002678,0.000431,0.000353
17266000,0.0324,0.013523,0.002678,0.000431,0.000235
17267000,0.0324,0.013523,0.002678,0.000431,0.000353
17268000,0.0324,0.013523,0.002678,0.000431,0.000470
17269000,0.0324,0.013523,0.002678,0.000431,0.000118
17270000,0.0324,0.013523,0.002678,0.000431,0.000353
17271000,0.0324,0.013523,0.002678,0.000431,0.000470
17272000,0.0324,0.013523,0.002678,0.000431,0.000353
17273000,0.0324,0.013523,0.002678,0.000431,0.000235
17274000,0.0324,0.013523,0.002678,0.000431,0.000353
17275000,0.0324,0.013523,0.002678,0.000431,0.000353
17276000,0.0324,0.013523,0.002678,0.000431,0.000235
17277000,0.0324,0.013523,0.002678,0.000431,0.000353
17278000,0.0324,0.013523,0.002678,0.000431,0.000470
17279000,0.0324,0.013523,0.002678,0.000431,0.000353
17280000,0.0324,0.013523,0.002678,0.000431,0.000235
17281000,0.0324,0.013523,0.002678,0.000431,0.000353
17282000,0.0324,0.013523,0.002678,0.000431,0.000353
17283000,0.0324,0.013523,0.002678,0.000431,0.000235
17284000,0.0324,0.013523,0.002678,0.000431,0.000353
17285000,0.0324,0.013523,0.002678,0.000431,0.000470
17286000,0.0324,0.013523,0.002678,0.000431,0.000353
17287000,0.0324,0.013523,0.002678,0.000431,0.000235
17288000,0.0324,0.013523,0.002678,0.000431,0.000353
17289000,0.0324,0.013523,0.002678,0.000431,0.000353
17290000,0.0324,0.013523,0.002678,0.000431,0.000235
17291000,0.0324,0.013523,0.002678,0.000431,0.000353
17292000,0.0324,0.013523,0.002678,0.000431,0.000470
17293000,0.0324,0.013523,0.002678,0.000431,0.000353
17294000,0.0324,0.013523,0.002678,0.000431,0.000235
17295000,0.0324,0.013523,0.002678,0.000431,0.000353
17296000,0.0324,0.013523,0.002678,0.000431,0.000353
17297000,0.0324,0.013523,0.002678,0.000431,0.000235
17298000,0.0324,0.013523,0.002678,0.000431,0.000353
17299000,0.0324,0.013523,0.002678,0.000431,0.000470
17300000,0.0324,0.013523,0.002678,0.000431,0.000353
17301000,0.0324,0.013523,0.002678,0.000431,0.000235
17302000,0.0324,0.013523,0.002678,0.000431,0.000353
17303000,0.0324,0.013523,0.002678,0.000431,0.000353
17304000,0.0324,0.013523,0.002678,0.000431,0.000235
17305000,0.0324,0.013523,0.002678,0.000431,0.000353
17306000,0.0324,0.013523,0.002678,0.000431,0.000470
17307000,0.0324,0.013523,0.002678,0.000431,0.000353
17308000,0.0324,0.013523,0.002678,0.000431,0.000118
17309000,0.0324,0.013523,0.002678,0.000431,0.000470
17310000,0.0324,0.013523,0.002678,0.000431,0.000353
17311000,0.0324,0.013523,0.002678,0.000431,0.000235
17312000,0.0324,0.013523,0.002678,0.000431,0.000353
17313000,0.0324,0.013523,0.002678,0.000431,0.000470
17314000,0.0324,0.013523,0.002678,0.000431,0.000235
17315000,0.0324,0.013523,0.002678,0.000431,0.000235
17316000,0.0324,0.013523,0.002678,0.000431,0.000470
17317000,0.0324,0.013523,0.002678,0.000431,0.000353
17318000,0.0324,0.013523,0.002678,0.000431,0.000235
17319000,0.0324,0.013523,0.002678,0.000431,0.000353
17320000,0.0324,0.013523,0.002678,0.000431,0.000470
17321000,0.0324,0.013523,0.002678,0.000431,0.000235
17322000,0.0324,0.013523,0.002678,0.000431,0.000235
17323000,0.0324,0.013523,0.002678,0.000431,0.000470
17324000,0.0324,0.013523,0.002678,0.000431,0.000353
17325000,0.0324,0.013523,0.002678,0.000431,0.000235
17326000,0.0324,0.013523,0.002678,0.000431,0.000353
17327000,0.0324,0.013523,0.002678,0.000431,0.000470
17328000,0.0324,0.013523,0.002678,0.000431,0.000118
17329000,0.0324,0.013523,0.002678,0.000431,0.000353
17330000,0.0324,0.013523,0.002678,0.000431,0.000470
17331000,0.0324,0.013523,0.002678,0.000431,0.000353
17332000,0.0324,0.013523,0.002678,0.000431,0.000235
17333000,0.0324,0.013523,0.002678,0.000431,0.000353
17334000,0.0324,0.013523,0.002678,0.000431,0.000353
17335000,0.0324,0.013523,0.002678,0.000431,0.000235
17336000,0.0324,0.013523,0.002678,0.000431,0.000353
17337000,0.0324,0.013523,0.002678,0.000431,0.000470
17338000,0.0324,0.013523,0.002678,0.000431,0.000353
17339000,0.0324,0.013523,0.002678,0.000431,0.000235
17340000,0.0324,0.013523,0.002678,0.000431,0.000353
17341000,0.0324,0.013523,0.002678,0.000431,0.000353
17342000,0.0324,0.013523,0.002678,0.000431,0.000235
17343000,0.0324,0.013523,0.002678,0.000431,0.000353
17344000,0.0324,0.013523,0.002678,0.000431,0.000470
17345000,0.0324,0.013523,0.002678,0.000431,0.000353
17346000,0.0324,0.013523,0.002678,0.000431,0.000118
17347000,0.0324,0.013523,0.002678,0.000431,0.000470
17348000,0.0324,0.013523,0.002678,0.000431,0.000353
17349000,0.0324,0.013523,0.002678,0.000431,0.000235
17350000,0.0324,0.013523,0.002678,0.000431,0.000353
17351000,0.0324,0.013523,0.002678,0.000431,0.000470
17352000,0.0324,0.013523,0.002678,0.000431,0.000353
17353000,0.0324,0.013523,0.002678,0.000431,0.000118
17354000,0.0324,0.013523,0.002678,0.000431,0.000470
17355000,0.0324,0.013523,0.002678,0.000431,0.000353
17356000,0.0324,0.013523,0.002678,0.000431,0.000235
17357000,0.0324,0.013523,0.002678,0.000431,0.000353
17358000,0.0324,0.013523,0.002678,0.000431,0.000470
17359000,0.0324,0.013523,0.002678,0.000431,0.000235
17360000,0.0324,0.013523,0.002678,0.000431,0.000235
17361000,0.0324,0.013523,0.002678,0.000431,0.000470
17362000,0.0324,0.013523,0.002678,0.000431,0.000353
17363000,0.0324,0.013523,0.002678,0.000431,0.000235
17364000,0.0324,0.013523,0.002678,0.000431,0.000353
17365000,0.0324,0.013523,0.002678,0.000431,0.000470
17366000,0.0324,0.013523,0.002678,0.000431,0.000118
17367000,0.0324,0.013523,0.002678,0.000431,0.000353
17368000,0.0324,0.013523,0.002678,0.000431,0.000470
17369000,0.0324,0.013523,0.002678,0.000431,0.000353
17370000,0.0324,0.013523,0.002678,0.000431,0.000235
17371000,0.0324,0.013523,0.002678,0.000431,0.000353
17372000,0.0324,0.013523,0.002678,0.000431,0.000353
17373000,0.0324,0.013523,0.002678,0.000431,0.000235
17374000,0.0324,0.013523,0.002678,0.000431,0.000353
17375000,0.0324,0.013523,0.002678,0.000431,0.000470
17376000,0.0324,0.013523,0.002678,0.000431,0.000353
17377000,0.0324,0.013523,0.002678,0.000431,0.000235
17378000,0.0324,0.013523,0.002678,0.000431,0.000353
17379000,0.0324,0.013523,0.002678,0.000431,0.000353
17380000,0.0324,0.013523,0.002678,0.000431,0.000235
17381000,0.0324,0.013523,0.002678,0.000431,0.000353
17382000,0.0324,0.013523,0.002678,0.000431,0.000470
17383000,0.0324,0.013523,0.002678,0.000431,0.000353
17384000,0.0324,0.013523,0.002678,0.000431,0.000235
17385000,0.0324,0.013523,0.002678,0.000431,0.000353
17386000,0.0324,0.013523,0.002678,0.000431,0.000353
17387000,0.0324,0.013523,0.002678,0.000431,0.000235
17388000,0.0324,0.013523,0.002678,0.000431,0.000353
17389000,0.0324,0.013523,0.002678,0.000431,0.000470
17390000,0.0324,0.013523,0.002678,0.000431,0.000353
17391000,0.0324,0.013523,0.002678,0.000431,0.000118
17392000,0.0324,0.013523,0.002678,0.000431,0.000470
17393000,0.0324,0.013523,0.002678,0.000431,0.000353
17394000,0.0324,0.013523,0.002678,0.000431,0.000235
17395000,0.0324,0.013523,0.002678,0.000431,0.000353
17396000,0.0324,0.013523,0.002678,0.000431,0.000470
17397000,0.0324,0.013523,0.002678,0.000431,0.000235
17398000,0.0324,0.013523,0.002678,0.000431,0.000235
17399000,0.0324,0.013523,0.002678,0.000431,0.000470
17400000,0.0324,0.013523,0.002678,0.000431,0.000353
17401000,0.0324,0.013523,0.002678,0.000431,0.000235
17402000,0.0324,0.013523,0.002678,0.000431,0.000353
17403000,0.0324,0.013523,0.002678,0.000431,0.000470
17404000,0.0324,0.013523,0.002678,0.000431,0.000235
17405000,0.0324,0.013523,0.002678,0.000431,0.000235
17406000,0.0324,0.013523,0.002678,0.000431,0.000470
17407000,0.0324,0.013523,0.002678,0.000431,0.000353
17408000,0.0324,0.013523,0.002678,0.000431,0.000235
17409000,0.0324,0.013523,0.002678,0.000431,0.000353
17410000,0.0324,0.013523,0.002678,0.000431,0.000470
17411000,0.0324,0.013523,0.002678,0.000431,0.000118
17412000,0.0324,0.013523,0.002678,0.000431,0.000353
17413000,0.0324,0.013523,0.002678,0.000431,0.000470
17414000,0.0324,0.013523,0.002678,0.000431,0.000353
17415000,0.0324,0.013523,0.002678,0.000431,0.000235
17416000,0.0324,0.013523,0.002678,0.000431,0.000353
17417000,0.0324,0.013523,0.002678,0.000431,0.000353
17418000,0.0324,0.013523,0.002678,0.000431,0.000235
17419000,0.0324,0.013523,0.002678,0.000431,0.000353
17420000,0.0324,0.013523,0.002678,0.000431,0.000470
17421000,0.0324,0.013523,0.002678,0.000431,0.000353
17422000,0.0324,0.013523,0.002678,0.000431,0.000235
17423000,0.0324,0.013523,0.002678,0.000431,0.000353
17424000,0.0324,0.013523,0.002678,0.000431,0.000353
17425000,0.0324,0.013523,0.002678,0.000431,0.000235
17426000,0.0324,0.013523,0.002678,0.000431,0.000353
17427000,0.0324,0.013523,0.002678,0.000431,0.000470
17428000,0.0324,0.013523,0.002678,0.000431,0.000353
17429000,0.0324,0.013523,0.002678,0.000431,0.000118
17430000,0.0324,0.013523,0.002678,0.000431,0.000470
17431000,0.0324,0.013523,0.002678,0.000431,0.000353
17432000,0.0324,0.013523,0.002678,0.000431,0.000235
17433000,0.0324,0.013523,0.002678,0.000431,0.000353
17434000,0.0324,0.013523,0.002678,0.000431,0.000470
17435000,0.0324,0.013523,0.002678,0.000431,0.000235
17436000,0.0324,0.013523,0.002678,0.000431,0.000235
17437000,0.0324,0.013523,0.002678,0.000431,0.000470
17438000,0.0324,0.013523,0.002678,0.000431,0.000353
17439000,0.0324,0.013523,0.002678,0.000431,0.000235
17440000,0.0324,0.013523,0.002678,0.000431,0.000353
17441000,0.0324,0.013523,0.002678,0.000431,0.000470
17442000,0.0324,0.013523,0.002678,0.000431,0.000235
17443000,0.0324,0.013523,0.002678,0.000431,0.000235
17444000,0.0324,0.013523,0.002678,0.000431,0.000470
17445000,0.0324,0.013523,0.002678,0.000431,0.000353
17446000,0.0324,0.013523,0.002678,0.000431,0.000235
17447000,0.0324,0.013523,0.002678,0.000431,0.000353
17448000,0.0324,0.013523,0.002678,0.000431,0.000470
17449000,0.0324,0.013523,0.002678,0.000431,0.000118
17450000,0.0324,0.013523,0.002678,0.000431,0.000353
17451000,0.0324,0.013523,0.002678,0.000431,0.000470
17452000,0.0324,0.013523,0.002678,0.000431,0.000353
17453000,0.0324,0.013523,0.002678,0.000431,0.000235
17454000,0.0324,0.013523,0.002678,0.000431,0.000353
17455000,0.0324,0.013523,0.002678,0.000431,0.000470
17456000,0.0324,0.013523,0.002678,0.000431,0.000118
17457000,0.0324,0.013523,0.002678,0.000431,0.000353
17458000,0.0324,0.013523,0.002678,0.000431,0.000470
17459000,0.0324,0.013523,0.002678,0.000431,0.000353
17460000,0.0324,0.013523,0.002678,0.000431,0.000235
17461000,0.0324,0.013523,0.002678,0.000431,0.000353
17462000,0.0324,0.013523,0.002678,0.000431,0.000353
17463000,0.0324,0.013523,0.002678,0.000431,0.000235
17464000,0.0324,0.013523,0.002678,0.000431,0.000353
17465000,0.0324,0.013523,0.002678,0.000431,0.000470
17466000,0.0324,0.013523,0.002678,0.000431,0.000353
17467000,0.0324,0.013523,0.002678,0.000431,0.000235
17468000,0.0324,0.013523,0.002678,0.000431,0.000353
17469000,0.0324,0.013523,0.002678,0.000431,0.000353
17470000,0.0324,0.013523,0.002678,0.000431,0.000235
17471000,0.0324,0.013523,0.002678,0.000431,0.000353
17472000,0.0324,0.013523,0.002678,0.000431,0.000470
17473000,0.0324,0.013523,0.002678,0.000431,0.000353
17474000,0.0324,0.013523,0.002678,0.000431,0.000235
17475000,0.0324,0.013523,0.002678,0.000431,0.000353
17476000,0.0324,0.013523,0.002678,0.000431,0.000353
17477000,0.0324,0.013523,0.002678,0.000431,0.000235
17478000,0.0324,0.013523,0.002678,0.000431,0.000353
17479000,0.0324,0.013523,0.002678,0.000431,0.000470
17480000,0.0324,0.013523,0.002678,0.000431,0.000353
17481000,0.0324,0.013523,0.002678,0.000431,0.000118
17482000,0.0324,0.013523,0.002678,0.000431,0.000470
17483000,0.0324,0.013523,0.002678,0.000431,0.000353
17484000,0.0324,0.013523,0.002678,0.000431,0.000235
17485000,0.0324,0.013523,0.002678,0.000431,0.000353
17486000,0.0324,0.013523,0.002678,0.000431,0.000470
17487000,0.0324,0.013523,0.002678,0.000431,0.000235
17488000,0.0324,0.013523,0.002678,0.000431,0.000235
17489000,0.0324,0.013523,0.002678,0.000431,0.000470
17490000,0.0324,0.013523,0.002678,0.000431,0.000353
17491000,0.0324,0.013523,0.002678,0.000431,0.000235
17492000,0.0324,0.013523,0.002678,0.000431,0.000353
17493000,0.0324,0.013523,0.002678,0.000431,0.000470
17494000,0.0324,0.013523,0.002678,0.000431,0.000235
17495000,0.0324,0.013523,0.002678,0.000431,0.000235
17496000,0.0324,0.013523,0.002678,0.000431,0.000470
17497000,0.0324,0.013523,0.002678,0.000431,0.000353
17498000,0.0324,0.013523,0.002678,0.000431,0.000235
17499000,0.0324,0.013523,0.002678,0.000431,0.000353
17500000,0.0324,0.013523,0.002678,0.000431,0.000470
17501000,0.0324,0.013523,0.002678,0.000431,0.000235
17502000,0.0324,0.013523,0.002678,0.000431,0.000235
17503000,0.0324,0.013523,0.002678,0.000431,0.000470
17504000,0.0324,0.013523,0.002678,0.000431,0.000353
17505000,0.0324,0.013523,0.002678,0.000431,0.000235
17506000,0.0324,0.013523,0.002678,0.000431,0.000353
17507000,0.0324,0.013523,0.002678,0.000431,0.000470
17508000,0.0324,0.013523,0.002678,0.000431,0.000118
17509000,0.0324,0.013523,0.002678,0.000431,0.000353
17510000,0.0324,0.013523,0.002678,0.000431,0.000470
17511000,0.0324,0.013523,0.002678,0.000431,0.000353
17512000,0.0324,0.013523,0.002678,0.000431,0.000235
17513000,0.0324,0.013523,0.002678,0.000431,0.000353
17514000,0.0324,0.013523,0.002678,0.000431,0.000470
17515000,0.0324,0.013523,0.002678,0.000431,0.000118
17516000,0.0324,0.013523,0.002678,0.000431,0.000353
17517000,0.0324,0.013523,0.002678,0.000431,0.000470
17518000,0.0324,0.013523,0.002678,0.000431,0.000353
17519000,0.0324,0.013523,0.002678,0.000431,0.000235
17520000,0.0324,0.013523,0.002678,0.000431,0.000353
17521000,0.0324,0.013523,0.002678,0.000431,0.000353
17522000,0.0324,0.013523,0.002678,0.000431,0.000235
17523000,0.0324,0.013523,0.002678,0.000431,0.000353
17524000,0.0324,0.013523,0.002678,0.000431,0.000470
17525000,0.0324,0.013523,0.002678,0.000431,0.000353
17526000,0.0324,0.013523,0.002678,0.000431,0.000235
17527000,0.0324,0.013523,0.002678,0.000431,0.000353
17528000,0.0324,0.013523,0.002678,0.000431,0.000353
17529000,0.0324,0.013523,0.002678,0.000431,0.000235
17530000,0.0324,0.013523,0.002678,0.000431,0.000353
17531000,0.0324,0.013523,0.002678,0.000431,0.000470
17532000,0.0324,0.013523,0.002678,0.000431,0.000353
17533000,0.0324,0.013523,0.002678,0.000431,0.000235
17534000,0.0324,0.013523,0.002678,0.000431,0.000353
17535000,0.0324,0.013523,0.002678,0.000431,0.000353
17536000,0.0324,0.013523,0.002678,0.000431,0.000235
17537000,0.0324,0.013523,0.002678,0.000431,0.000353
17538000,0.0324,0.013523,0.002678,0.000431,0.000470
17539000,0.0324,0.013523,0.002678,0.000431,0.000353
17540000,0.0324,0.013523,0.002678,0.000431,0.000235
17541000,0.0324,0.013523,0.002678,0.000431,0.000353
17542000,0.0324,0.013523,0.002678,0.000431,0.000353
17543000,0.0324,0.013523,0.002678,0.000431,0.000235
17544000,0.0324,0.013523,0.002678,0.000431,0.000353
17545000,0.0324,0.013523,0.002678,0.000431,0.000470
17546000,0.0324,0.013523,0.002678,0.000431,0.000353
17547000,0.0324,0.013523,0.002678,0.000431,0.000118
17548000,0.0324,0.013523,0.002678,0.000431,0.000470
17549000,0.0324,0.013523,0.002678,0.000431,0.000353
17550000,0.0324,0.013523,0.002678,0.000431,0.000235
17551000,0.0324,0.013523,0.002678,0.000431,0.000353
17552000,0.0324,0.013523,0.002678,0.000431,0.000470
17553000,0.0324,0.013523,0.002678,0.000431,0.000235
17554000,0.0324,0.013523,0.002678,0.000431,0.000235
17555000,0.0324,0.013523,0.002678,0.000431,0.000470
17556000,0.0324,0.013523,0.002678,0.000431,0.000353
17557000,0.0324,0.013523,0.002678,0.000431,0.000235
17558000,0.0324,0.013523,0.002678,0.000431,0.000353
17559000,0.0324,0.013523,0.002678,0.000431,0.000470
17560000,0.0324,0.013523,0.002678,0.000431,0.000235
17561000,0.0324,0.013523,0.002678,0.000431,0.000235
17562000,0.0324,0.013523,0.002678,0.000431,0.000470
17563000,0.0324,0.013523,0.002678,0.000431,0.000353
17564000,0.0324,0.013523,0.002678,0.000431,0.000235
17565000,0.0324,0.013523,0.002678,0.000431,0.000353
17566000,0.0324,0.013523,0.002678,0.000431,0.000470
17567000,0.0324,0.013523,0.002678,0.000431,0.000235
17568000,0.0324,0.013523,0.002678,0.000431,0.000235
17569000,0.0324,0.013523,0.002678,0.000431,0.000470
17570000,0.0324,0.013523,0.002678,0.000431,0.000353
17571000,0.0324,0.013523,0.002678,0.000431,0.000235
17572000,0.0324,0.013523,0.002678,0.000431,0.000353
17573000,0.0324,0.013523,0.002678,0.000431,0.000470
17574000,0.0324,0.013523,0.002678,0.000431,0.000118
17575000,0.0324,0.013523,0.002678,0.000431,0.000353
17576000,0.0324,0.013523,0.002678,0.000431,0.000470
17577000,0.0324,0.013523,0.002678,0.000431,0.000353
17578000,0.0324,0.013523,0.002678,0.000431,0.000235
17579000,0.0324,0.013523,0.002678,0.000431,0.000353
17580000,0.0324,0.013523,0.002678,0.000431,0.000353
17581000,0.0324,0.013523,0.002678,0.000431,0.000235
17582000,0.0324,0.013523,0.002678,0.000431,0.000353
17583000,0.0324,0.013523,0.002678,0.000431,0.000470
17584000,0.0324,0.013523,0.002678,0.000431,0.000353
17585000,0.0324,0.013523,0.002678,0.000431,0.000235
17586000,0.0324,0.013523,0.002678,0.000431,0.000353
17587000,0.0324,0.013523,0.002678,0.000431,0.000353
17588000,0.0324,0.013523,0.002678,0.000431,0.000235
17589000,0.0324,0.013523,0.002678,0.000431,0.000353
17590000,0.0324,0.013523,0.002678,0.000431,0.000470
17591000,0.0324,0.013523,0.002678,0.000431,0.000353
17592000,0.0324,0.013523,0.002678,0.000431,0.000235
17593000,0.0324,0.013523,0.002678,0.000431,0.000353
17594000,0.0324,0.013523,0.002678,0.000431,0.000353
17595000,0.0324,0.013523,0.002678,0.000431,0.000235
17596000,0.0324,0.013523,0.002678,0.000431,0.000353
17597000,0.0324,0.013523,0.002678,0.000431,0.000470
17598000,0.0324,0.013523,0.002678,0.000431,0.000353
17599000,0.0324,0.013523,0.002678,0.000431,0.000235
17600000,0.0324,0.013523,0.002678,0.000431,0.000353
17601000,0.0324,0.013523,0.002678,0.000431,0.000353
17602000,0.0324,0.013523,0.002678,0.000431,0.000235
17603000,0.0324,0.013523,0.002678,0.000431,0.000353
17604000,0.0324,0.013523,0.002678,0.000431,0.000470
17605000,0.0324,0.013523,0.002678,0.000431,0.000353
17606000,0.0324,0.013523,0.002678,0.000431,0.000235
17607000,0.0324,0.013523,0.002678,0.000431,0.000353
17608000,0.0324,0.013523,0.002678,0.000431,0.000353
17609000,0.0324,0.013523,0.002678,0.000431,0.000235
17610000,0.0324,0.013523,0.002678,0.000431,0.000353
17611000,0.0324,0.013523,0.002678,0.000431,0.000470
17612000,0.0324,0.013523,0.002678,0.000431,0.000353
17613000,0.0324,0.013523,0.002678,0.000431,0.000118
17614000,0.0324,0.013523,0.002678,0.000431,0.000470
17615000,0.0324,0.013523,0.002678,0.000431,0.000353
17616000,0.0324,0.013523,0.002678,0.000431,0.000235
17617000,0.0324,0.013523,0.002678,0.000431,0.000353
17618000,0.0324,0.013523,0.002678,0.000431,0.000470
17619000,0.0324,0.013523,0.002678,0.000431,0.000353
17620000,0.0324,0.013523,0.002678,0.000431,0.000118
17621000,0.0324,0.013523,0.002678,0.000431,0.000470
17622000,0.0324,0.013523,0.002678,0.000431,0.000353
17623000,0.0324,0.013523,0.002678,0.000431,0.000235
17624000,0.0324,0.013523,0.002678,0.000431,0.000353
17625000,0.0324,0.013523,0.002678,0.000431,0.000470
17626000,0.0324,0.013523,0.002678,0.000431,0.000235
17627000,0.0324,0.013523,0.002678,0.000431,0.000235
17628000,0.0324,0.013523,0.002678,0.000431,0.000470
17629000,0.0324,0.013523,0.002678,0.000431,0.000353
17630000,0.0324,0.013523,0.002678,0.000431,0.000235
17631000,0.0324,0.013523,0.002678,0.000431,0.000353
17632000,0.0324,0.013523,0.002678,0.000431,0.000470
17633000,0.0324,0.013523,0.002678,0.000431,0.000118
17634000,0.0324,0.013523,0.002678,0.000431,0.000353
17635000,0.0324,0.013523,0.002678,0.000431,0.000470
17636000,0.0324,0.013523,0.002678,0.000431,0.000353
17637000,0.0324,0.013523,0.002678,0.000431,0.000235
17638000,0.0324,0.013523,0.002678,0.000431,0.000353
17639000,0.0324,0.013523,0.002678,0.000431,0.000470
17640000,0.0324,0.013523,0.002678,0.000431,0.000118
17641000,0.0324,0.013523,0.002678,0.000431,0.000353
17642000,0.0324,0.013523,0.002678,0.000431,0.000470
17643000,0.0324,0.013523,0.002678,0.000431,0.000353
17644000,0.0324,0.013523,0.002678,0.000431,0.000235
17645000,0.0324,0.013523,0.002678,0.000431,0.000353
17646000,0.0324,0.013523,0.002678,0.000431,0.000470
17647000,0.0324,0.013523,0.002678,0.000431,0.000118
17648000,0.0324,0.013523,0.002678,0.000431,0.000353
17649000,0.0324,0.013523,0.002678,0.000431,0.000470
17650000,0.0324,0.013523,0.002678,0.000431,0.000353
17651000,0.0324,0.013523,0.002678,0.000431,0.000235
17652000,0.0324,0.013523,0.002678,0.000431,0.000353
17653000,0.0324,0.013523,0.002678,0.000431,0.000470
17654000,0.0324,0.013523,0.002678,0.000431,0.000118
17655000,0.0324,0.013523,0.002678,0.000431,0.000353
17656000,0.0324,0.013523,0.002678,0.000431,0.000470
17657000,0.0324,0.013523,0.002678,0.000431,0.000353
17658000,0.0324,0.013523,0.002678,0.000431,0.000235
17659000,0.0324,0.013523,0.002678,0.000431,0.000353
17660000,0.0324,0.013523,0.002678,0.000431,0.000353
17661000,0.0324,0.013523,0.002678,0.000431,0.000235
17662000,0.0324,0.013523,0.002678,0.000431,0.000353
17663000,0.0324,0.013523,0.002678,0.000431,0.000470
17664000,0.0324,0.013523,0.002678,0.000431,0.000353
17665000,0.0324,0.013523,0.002678,0.000431,0.000235
17666000,0.0324,0.013523,0.002678,0.000431,0.000353
17667000,0.0324,0.013523,0.002678,0.000431,0.000353
17668000,0.0324,0.013523,0.002678,0.000431,0.000235
17669000,0.0324,0.013523,0.002678,0.000431,0.000353
17670000,0.0324,0.013523,0.002678,0.000431,0.000470
17671000,0.0324,0.013523,0.002678,0.000431,0.000353
17672000,0.0324,0.013523,0.002678,0.000431,0.000235
17673000,0.0324,0.013523,0.002678,0.000431,0.000353
17674000,0.0324,0.013523,0.002678,0.000431,0.000353
17675000,0.0324,0.013523,0.002678,0.000431,0.000235
17676000,0.0324,0.013523,0.002678,0.000431,0.000353
17677000,0.0324,0.013523,0.002678,0.000431,0.000470
17678000,0.0324,0.013523,0.002678,0.000431,0.000353
17679000,0.0324,0.013523,0.002678,0.000431,0.000235
17680000,0.0324,0.013523,0.002678,0.000431,0.000353
17681000,0.0324,0.013523,0.002678,0.000431,0.000353
17682000,0.0324,0.013523,0.002678,0.000431,0.000235
17683000,0.0324,0.013523,0.002678,0.000431,0.000353
17684000,0.0324,0.013523,0.002678,0.000431,0.000470
17685000,0.0324,0.013523,0.002678,0.000431,0.000353
17686000,0.0324,0.013523,0.002678,0.000431,0.000118
17687000,0.0324,0.013523,0.002678,0.000431,0.000470
17688000,0.0324,0.013523,0.002678,0.000431,0.000353
17689000,0.0324,0.013523,0.002678,0.000431,0.000235
17690000,0.0324,0.013523,0.002678,0.000431,0.000353
17691000,0.0324,0.013523,0.002678,0.000431,0.000470
17692000,0.0324,0.013523,0.002678,0.000431,0.000235
17693000,0.0324,0.013523,0.002678,0.000431,0.000235
17694000,0.0324,0.013523,0.002678,0.000431,0.000470
17695000,0.0324,0.013523,0.002678,0.000431,0.000353
17696000,0.0324,0.013523,0.002678,0.000431,0.000235
17697000,0.0324,0.013523,0.002678,0.000431,0.000353
17698000,0.0324,0.013523,0.002678,0.000431,0.000470
17699000,0.0324,0.013523,0.002678,0.000431,0.000118
17700000,0.0324,0.013523,0.002678,0.000431,0.000353
17701000,0.0324,0.013523,0.002678,0.000431,0.000470
17702000,0.0324,0.013523,0.002678,0.000431,0.000353
17703000,0.0324,0.013523,0.002678,0.000431,0.000235
17704000,0.0324,0.013523,0.002678,0.000431,0.000353
17705000,0.0324,0.013523,0.002678,0.000431,0.000470
17706000,0.0324,0.013523,0.002678,0.000431,0.000118
17707000,0.0324,0.013523,0.002678,0.000431,0.000353
17708000,0.0324,0.013523,0.002678,0.000431,0.000470
17709000,0.0324,0.013523,0.002678,0.000431,0.000353
17710000,0.0324,0.013523,0.002678,0.000431,0.000235
17711000,0.0324,0.013523,0.002678,0.000431,0.000353
17712000,0.0324,0.013523,0.002678,0.000431,0.000353
17713000,0.0324,0.013523,0.002678,0.000431,0.000235
17714000,0.0324,0.013523,0.002678,0.000431,0.000353
17715000,0.0324,0.013523,0.002678,0.000431,0.000470
17716000,0.0324,0.013523,0.002678,0.000431,0.000353
17717000,0.0324,0.013523,0.002678,0.000431,0.000235
17718000,0.0324,0.013523,0.002678,0.000431,0.000353
17719000,0.0324,0.013523,0.002678,0.000431,0.000353
17720000,0.0324,0.013523,0.002678,0.000431,0.000235
17721000,0.0324,0.013523,0.002678,0.000431,0.000353
17722000,0.0324,0.013523,0.002678,0.000431,0.000470
17723000,0.0324,0.013523,0.002678,0.000431,0.000353
17724000,0.0324,0.013523,0.002678,0.000431,0.000235
17725000,0.0324,0.013523,0.002678,0.000431,0.000353
17726000,0.0324,0.013523,0.002678,0.000431,0.000353
17727000,0.0324,0.013523,0.002678,0.000431,0.000235
17728000,0.0324,0.013523,0.002678,0.000431,0.000353
17729000,0.0324,0.013523,0.002678,0.000431,0.000470
17730000,0.0324,0.013523,0.002678,0.000431,0.000353
17731000,0.0324,0.013523,0.002678,0.000431,0.000118
17732000,0.0324,0.013523,0.002678,0.000431,0.000470
17733000,0.0324,0.013523,0.002678,0.000431,0.000353
17734000,0.0324,0.013523,0.002678,0.000431,0.000235
17735000,0.0324,0.013523,0.002678,0.000431,0.000353
17736000,0.0324,0.013523,0.002678,0.000431,0.000470
17737000,0.0324,0.013523,0.002678,0.000431,0.000235
17738000,0.0324,0.013523,0.002678,0.000431,0.000235
17739000,0.0324,0.013523,0.002678,0.000431,0.000470
17740000,0.0324,0.013523,0.002678,0.000431,0.000353
17741000,0.0324,0.013523,0.002678,0.000431,0.000235
17742000,0.0324,0.013523,0.002678,0.000431,0.000353
17743000,0.0324,0.013523,0.002678,0.000431,0.000470
17744000,0.0324,0.013523,0.002678,0.000431,0.000235
17745000,0.0324,0.013523,0.002678,0.000431,0.000235
17746000,0.0324,0.013523,0.002678,0.000431,0.000470
17747000,0.0324,0.013523,0.002678,0.000431,0.000353
17748000,0.0324,0.013523,0.002678,0.000431,0.000235
17749000,0.0324,0.013523,0.002678,0.000431,0.000353
17750000,0.0324,0.013523,0.002678,0.000431,0.000470
17751000,0.0324,0.013523,0.002678,0.000431,0.000235
17752000,0.0324,0.013523,0.002678,0.000431,0.000235
17753000,0.0324,0.013523,0.002678,0.000431,0.000470
17754000,0.0324,0.013523,0.002678,0.000431,0.000353
17755000,0.0324,0.013523,0.002678,0.000431,0.000235
17756000,0.0324,0.013523,0.002678,0.000431,0.000353
17757000,0.0324,0.013523,0.002678,0.000431,0.000470
17758000,0.0324,0.013523,0.002678,0.000431,0.000235
17759000,0.0324,0.013523,0.002678,0.000431,0.000235
17760000,0.0324,0.013523,0.002678,0.000431,0.000470
17761000,0.0324,0.013523,0.002678,0.000431,0.000353
17762000,0.0324,0.013523,0.002678,0.000431,0.000235
17763000,0.0324,0.013523,0.002678,0.000431,0.000353
17764000,0.0324,0.013523,0.002678,0.000431,0.000470
17765000,0.0324,0.013523,0.002678,0.000431,0.000235
17766000,0.0324,0.013523,0.002678,0.000431,0.000235
17767000,0.0324,0.013523,0.002678,0.000431,0.000470
17768000,0.0324,0.013523,0.002678,0.000431,0.000353
17769000,0.0324,0.013523,0.002678,0.000431,0.000235
17770000,0.0324,0.013523,0.002678,0.000431,0.000353
17771000,0.0324,0.013523,0.002678,0.000431,0.000470
17772000,0.0324,0.013523,0.002678,0.000431,0.000118
17773000,0.0324,0.013523,0.002678,0.000431,0.000353
17774000,0.0324,0.013523,0.002678,0.000431,0.000470
17775000,0.0324,0.013523,0.002678,0.000431,0.000353
17776000,0.0324,0.013523,0.002678,0.000431,0.000235
17777000,0.0324,0.013523,0.002678,0.000431,0.000353
17778000,0.0324,0.013523,0.002678,0.000431,0.000470
17779000,0.0324,0.013523,0.002678,0.000431,0.000118
17780000,0.0324,0.013523,0.002678,0.000431,0.000353
17781000,0.0324,0.013523,0.002678,0.000431,0.000470
17782000,0.0324,0.013523,0.002678,0.000431,0.000353
17783000,0.0324,0.013523,0.002678,0.000431,0.000235
17784000,0.0324,0.013523,0.002678,0.000431,0.000353
17785000,0.0324,0.013523,0.002678,0.000431,0.000353
17786000,0.0324,0.013523,0.002678,0.000431,0.000235
17787000,0.0324,0.013523,0.002678,0.000431,0.000353
17788000,0.0324,0.013523,0.002678,0.000431,0.000470
17789000,0.0324,0.013523,0.002678,0.000431,0.000353
17790000,0.0324,0.013523,0.002678,0.000431,0.000235
17791000,0.0324,0.013523,0.002678,0.000431,0.000353
17792000,0.0324,0.013523,0.002678,0.000431,0.000353
17793000,0.0324,0.013523,0.002678,0.000431,0.000235
17794000,0.0324,0.013523,0.002678,0.000431,0.000353
17795000,0.0324,0.013523,0.002678,0.000431,0.000470
17796000,0.0324,0.013523,0.002678,0.000431,0.000353
17797000,0.0324,0.013523,0.002678,0.000431,0.000235
17798000,0.0324,0.013523,0.002678,0.000431,0.000353
17799000,0.0324,0.013523,0.002678,0.000431,0.000353
17800000,0.0324,0.013523,0.002678,0.000431,0.000235
17801000,0.0324,0.013523,0.002678,0.000431,0.000353
17802000,0.0324,0.013523,0.002678,0.000431,0.000470
17803000,0.0324,0.013523,0.002678,0.000431,0.000353
17804000,0.0324,0.013523,0.002678,0.000431,0.000118
17805000,0.0324,0.013523,0.002678,0.000431,0.000470
17806000,0.0324,0.013523,0.002678,0.000431,0.000353
17807000,0.0324,0.013523,0.002678,0.000431,0.000235
17808000,0.0324,0.013523,0.002678,0.000431,0.000353
17809000,0.0324,0.013523,0.002678,0.000431,0.000470
17810000,0.0324,0.013523,0.002678,0.000431,0.000235
17811000,0.0324,0.013523,0.002678,0.000431,0.000235
17812000,0.0324,0.013523,0.002678,0.000431,0.000470
17813000,0.0324,0.013523,0.002678,0.000431,0.000353
17814000,0.0324,0.013523,0.002678,0.000431,0.000235
17815000,0.0324,0.013523,0.002678,0.000431,0.000353
17816000,0.0324,0.013523,0.002678,0.000431,0.000470
17817000,0.0324,0.013523,0.002678,0.000431,0.000235
17818000,0.0324,0.013523,0.002678,0.000431,0.000235
17819000,0.0324,0.013523,0.002678,0.000431,0.000470
17820000,0.0324,0.013523,0.002678,0.000431,0.000353
17821000,0.0324,0.013523,0.002678,0.000431,0.000235
17822000,0.0324,0.013523,0.002678,0.000431,0.000353
17823000,0.0324,0.013523,0.002678,0.000431,0.000470
17824000,0.0324,0.013523,0.002678,0.000431,0.000118
17825000,0.0324,0.013523,0.002678,0.000431,0.000353
17826000,0.0324,0.013523,0.002678,0.000431,0.000470
17827000,0.0324,0.013523,0.002678,0.000431,0.000353
17828000,0.0324,0.013523,0.002678,0.000431,0.000235
17829000,0.0324,0.013523,0.002678,0.000431,0.000353
17830000,0.0324,0.013523,0.002678,0.000431,0.000470
17831000,0.0324,0.013523,0.002678,0.000431,0.000118
17832000,0.0324,0.013523,0.002678,0.000431,0.000353
17833000,0.0324,0.013523,0.002678,0.000431,0.000470
17834000,0.0324,0.013523,0.002678,0.000431,0.000353
17835000,0.0324,0.013523,0.002678,0.000431,0.000235
17836000,0.0324,0.013523,0.002678,0.000431,0.000353
17837000,0.0324,0.013523,0.002678,0.000431,0.000353
17838000,0.0324,0.013523,0.002678,0.000431,0.000235
17839000,0.0324,0.013523,0.002678,0.000431,0.000353
17840000,0.0324,0.013523,0.002678,0.000431,0.000470
17841000,0.0324,0.013523,0.002678,0.000431,0.000353
17842000,0.0324,0.013523,0.002678,0.000431,0.000235
17843000,0.0324,0.013523,0.002678,0.000431,0.000353
17844000,0.0324,0.013523,0.002678,0.000431,0.000353
17845000,0.0324,0.013523,0.002678,0.000431,0.000235
17846000,0.0324,0.013523,0.002678,0.000431,0.000353
17847000,0.0324,0.013523,0.002678,0.000431,0.000470
17848000,0.0324,0.013523,0.002678,0.000431,0.000353
17849000,0.0324,0.013523,0.002678,0.000431,0.000235
17850000,0.0324,0.013523,0.002678,0.000431,0.000353
17851000,0.0324,0.013523,0.002678,0.000431,0.000353
17852000,0.0324,0.013523,0.002678,0.000431,0.000235
17853000,0.0324,0.013523,0.002678,0.000431,0.000353
17854000,0.0324,0.013523,0.002678,0.000431,0.000470
17855000,0.0324,0.013523,0.002678,0.000431,0.000353
17856000,0.0324,0.013523,0.002678,0.000431,0.000235
17857000,0.0324,0.013523,0.002678,0.000431,0.000353
17858000,0.0324,0.013523,0.002678,0.000431,0.000353
17859000,0.0324,0.013523,0.002678,0.000431,0.000235
17860000,0.0324,0.013523,0.002678,0.000431,0.000353
17861000,0.0324,0.013523,0.002678,0.000431,0.000470
17862000,0.0324,0.013523,0.002678,0.000431,0.000353
17863000,0.0324,0.013523,0.002678,0.000431,0.000235
17864000,0.0324,0.013523,0.002678,0.000431,0.000353
17865000,0.0324,0.013523,0.002678,0.000431,0.000353
17866000,0.0324,0.013523,0.002678,0.000431,0.000235
17867000,0.0324,0.013523,0.002678,0.000431,0.000353
17868000,0.0324,0.013523,0.002678,0.000431,0.000470
17869000,0.0324,0.013523,0.002678,0.000431,0.000353
17870000,0.0324,0.013523,0.002678,0.000431,0.000235
17871000,0.0324,0.013523,0.002678,0.000431,0.000353
17872000,0.0324,0.013523,0.002678,0.000431,0.000353
17873000,0.0324,0.013523,0.002678,0.000431,0.000235
17874000,0.0324,0.013523,0.002678,0.000431,0.000353
17875000,0.0324,0.013523,0.002678,0.000431,0.000470
17876000,0.0324,0.013523,0.002678,0.000431,0.000353
17877000,0.0324,0.013523,0.002678,0.000431,0.000118
17878000,0.0324,0.013523,0.002678,0.000431,0.000470
17879000,0.0324,0.013523,0.002678,0.000431,0.000353
17880000,0.0324,0.013523,0.002678,0.000431,0.000235
17881000,0.0324,0.013523,0.002678,0.000431,0.000353
17882000,0.0324,0.013523,0.002678,0.000431,0.000470
17883000,0.0324,0.013523,0.002678,0.000431,0.000353
17884000,0.0324,0.013523,0.002678,0.000431,0.000118
17885000,0.0324,0.013523,0.002678,0.000431,0.000470
17886000,0.0324,0.013523,0.002678,0.000431,0.000353
17887000,0.0324,0.013523,0.002678,0.000431,0.000235
17888000,0.0324,0.013523,0.002678,0.000431,0.000353
17889000,0.0324,0.013523,0.002678,0.000431,0.000470
17890000,0.0324,0.013523,0.002678,0.000431,0.000353
17891000,0.0324,0.013523,0.002678,0.000431,0.000118
17892000,0.0324,0.013523,0.002678,0.000431,0.000470
17893000,0.0324,0.013523,0.002678,0.000431,0.000353
17894000,0.0324,0.013523,0.002678,0.000431,0.000235
17895000,0.0324,0.013523,0.002678,0.000431,0.000353
17896000,0.0324,0.013523,0.002678,0.000431,0.000470
17897000,0.0324,0.013523,0.002678,0.000431,0.000235
17898000,0.0324,0.013523,0.002678,0.000431,0.000235
17899000,0.0324,0.013523,0.002678,0.000431,0.000470
17900000,0.0324,0.013523,0.002678,0.000431,0.000353
17901000,0.0324,0.013523,0.002678,0.000431,0.000235
17902000,0.0324,0.013523,0.002678,0.000431,0.000353
17903000,0.0324,0.013523,0.002678,0.000431,0.000470
17904000,0.0324,0.013523,0.002678,0.000431,0.000235
17905000,0.0324,0.013523,0.002678,0.000431,0.000235
17906000,0.0324,0.013523,0.002678,0.000431,0.000470
17907000,0.0324,0.013523,0.002678,0.000431,0.000353
17908000,0.0324,0.013523,0.002678,0.000431,0.000235
17909000,0.0324,0.013523,0.002678,0.000431,0.000353
17910000,0.0324,0.013523,0.002678,0.000431,0.000470
17911000,0.0324,0.013523,0.002678,0.000431,0.000235
17912000,0.0324,0.013523,0.002678,0.000431,0.000235
17913000,0.0324,0.013523,0.002678,0.000431,0.000470
17914000,0.0324,0.013523,0.002678,0.000431,0.000353
17915000,0.0324,0.013523,0.002678,0.000431,0.000235
17916000,0.0324,0.013523,0.002678,0.000431,0.000353
17917000,0.0324,0.013523,0.002678,0.000431,0.000470
17918000,0.0324,0.013523,0.002678,0.000431,0.000235
17919000,0.0324,0.013523,0.002678,0.000431,0.000235
17920000,0.0324,0.013523,0.002678,0.000431,0.000470
17921000,0.0324,0.013523,0.002678,0.000431,0.000353
17922000,0.0324,0.013523,0.002678,0.000431,0.000235
17923000,0.0324,0.013523,0.002678,0.000431,0.000353
17924000,0.0324,0.013523,0.002678,0.000431,0.000470
17925000,0.0324,0.013523,0.002678,0.000431,0.000118
17926000,0.0324,0.013523,0.002678,0.000431,0.000353
17927000,0.0324,0.013523,0.002678,0.000431,0.000470
17928000,0.0324,0.013523,0.002678,0.000431,0.000353
17929000,0.0324,0.013523,0.002678,0.000431,0.000235
17930000,0.0324,0.013523,0.002678,0.000431,0.000353
17931000,0.0324,0.013523,0.002678,0.000431,0.000353
17932000,0.0324,0.013523,0.002678,0.000431,0.000235
17933000,0.0324,0.013523,0.002678,0.000431,0.000353
17934000,0.0324,0.013523,0.002678,0.000431,0.000470
17935000,0.0324,0.013523,0.002678,0.000431,0.000353
17936000,0.0324,0.013523,0.002678,0.000431,0.000235
17937000,0.0324,0.013523,0.002678,0.000431,0.000353
17938000,0.0324,0.013523,0.002678,0.000431,0.000353
17939000,0.0324,0.013523,0.002678,0.000431,0.000235
17940000,0.0324,0.013523,0.002678,0.000431,0.000353
17941000,0.0324,0.013523,0.002678,0.000431,0.000470
17942000,0.0324,0.013523,0.002678,0.000431,0.000353
17943000,0.0324,0.013523,0.002678,0.000431,0.000235
17944000,0.0324,0.013523,0.002678,0.000431,0.000353
17945000,0.0324,0.013523,0.002678,0.000431,0.000353
17946000,0.0324,0.013523,0.002678,0.000431,0.000235
17947000,0.0324,0.013523,0.002678,0.000431,0.000353
17948000,0.0324,0.013523,0.002678,0.000431,0.000470
17949000,0.0324,0.013523,0.002678,0.000431,0.000353
17950000,0.0324,0.013523,0.002678,0.000431,0.000235
17951000,0.0324,0.013523,0.002678,0.000431,0.000353
17952000,0.0324,0.013523,0.002678,0.000431,0.000353
17953000,0.0324,0.013523,0.002678,0.000431,0.000235
17954000,0.0324,0.013523,0.002678,0.000431,0.000353
17955000,0.0324,0.013523,0.002678,0.000431,0.000470
17956000,0.0324,0.013523,0.002678,0.000431,0.000353
17957000,0.0324,0.013523,0.002678,0.000431,0.000118
17958000,0.0324,0.013523,0.002678,0.000431,0.000470
17959000,0.0324,0.013523,0.002678,0.000431,0.000353
17960000,0.0324,0.013523,0.002678,0.000431,0.000235
17961000,0.0324,0.013523,0.002678,0.000431,0.000353
17962000,0.0324,0.013523,0.002678,0.000431,0.000470
17963000,0.0324,0.013523,0.002678,0.000431,0.000235
17964000,0.0324,0.013523,0.002678,0.000431,0.000235
17965000,0.0324,0.013523,0.002678,0.000431,0.000470
17966000,0.0324,0.013523,0.002678,0.000431,0.000353
17967000,0.0324,0.013523,0.002678,0.000431,0.000235
17968000,0.0324,0.013523,0.002678,0.000431,0.000353
17969000,0.0324,0.013523,0.002678,0.000431,0.000470
17970000,0.0324,0.013523,0.002678,0.000431,0.000235
17971000,0.0324,0.013523,0.002678,0.000431,0.000235
17972000,0.0324,0.013523,0.002678,0.000431,0.000470
17973000,0.0324,0.013523,0.002678,0.000431,0.000353
17974000,0.0324,0.013523,0.002678,0.000431,0.000235
17975000,0.0324,0.013523,0.002678,0.000431,0.000353
17976000,0.0324,0.013523,0.002678,0.000431,0.000470
17977000,0.0324,0.013523,0.002678,0.000431,0.000118
17978000,0.0324,0.013523,0.002678,0.000431,0.000353
17979000,0.0324,0.013523,0.002678,0.000431,0.000470
17980000,0.0324,0.013523,0.002678,0.000431,0.000353
17981000,0.0324,0.013523,0.002678,0.000431,0.000235
17982000,0.0324,0.013523,0.002678,0.000431,0.000353
17983000,0.0324,0.013523,0.002678,0.000431,0.000353
17984000,0.0324,0.013523,0.002678,0.000431,0.000235
17985000,0.0324,0.013523,0.002678,0.000431,0.000353
17986000,0.0324,0.013523,0.002678,0.000431,0.000470
17987000,0.0324,0.013523,0.002678,0.000431,0.000353
17988000,0.0324,0.013523,0.002678,0.000431,0.000235
17989000,0.0324,0.013523,0.002678,0.000431,0.000353
17990000,0.0324,0.013523,0.002678,0.000431,0.000353
17991000,0.0324,0.013523,0.002678,0.000431,0.000235
17992000,0.0324,0.013523,0.002678,0.000431,0.000353
17993000,0.0324,0.013523,0.002678,0.000431,0.000470
17994000,0.0324,0.013523,0.002678,0.000431,0.000353
17995000,0.0324,0.013523,0.002678,0.000431,0.000235
17996000,0.0324,0.013523,0.002678,0.000431,0.000353
17997000,0.0324,0.013523,0.002678,0.000431,0.000353
17998000,0.0324,0.013523,0.002678,0.000431,0.000235
17999000,0.0324,0.013523,0.002678,0.000431,0.000353
