Cycle,Area(mm^2),PeakDynamic(W),SubthresholdLeakage(W),GateLeakage(W),RunTimeDynamic(W)
29000000,0.0324,0.013523,0.002678,0.000431,0.000118
29001000,0.0324,0.013523,0.002678,0.000431,0.000353
29002000,0.0324,0.013523,0.002678,0.000431,0.000470
29003000,0.0324,0.013523,0.002678,0.000431,0.000353
29004000,0.0324,0.013523,0.002678,0.000431,0.000235
29005000,0.0324,0.013523,0.002678,0.000431,0.000353
29006000,0.0324,0.013523,0.002678,0.000431,0.000470
29007000,0.0324,0.013523,0.002678,0.000431,0.000118
29008000,0.0324,0.013523,0.002678,0.000431,0.000353
29009000,0.0324,0.013523,0.002678,0.000431,0.000470
29010000,0.0324,0.013523,0.002678,0.000431,0.000353
29011000,0.0324,0.013523,0.002678,0.000431,0.000235
29012000,0.0324,0.013523,0.002678,0.000431,0.000353
29013000,0.0324,0.013523,0.002678,0.000431,0.000353
29014000,0.0324,0.013523,0.002678,0.000431,0.000235
29015000,0.0324,0.013523,0.002678,0.000431,0.000353
29016000,0.0324,0.013523,0.002678,0.000431,0.000470
29017000,0.0324,0.013523,0.002678,0.000431,0.000353
29018000,0.0324,0.013523,0.002678,0.000431,0.000235
29019000,0.0324,0.013523,0.002678,0.000431,0.000353
29020000,0.0324,0.013523,0.002678,0.000431,0.000353
29021000,0.0324,0.013523,0.002678,0.000431,0.000235
29022000,0.0324,0.013523,0.002678,0.000431,0.000353
29023000,0.0324,0.013523,0.002678,0.000431,0.000470
29024000,0.0324,0.013523,0.002678,0.000431,0.000353
29025000,0.0324,0.013523,0.002678,0.000431,0.000235
29026000,0.0324,0.013523,0.002678,0.000431,0.000353
29027000,0.0324,0.013523,0.002678,0.000431,0.000353
29028000,0.0324,0.013523,0.002678,0.000431,0.000235
29029000,0.0324,0.013523,0.002678,0.000431,0.000353
29030000,0.0324,0.013523,0.002678,0.000431,0.000470
29031000,0.0324,0.013523,0.002678,0.000431,0.000353
29032000,0.0324,0.013523,0.002678,0.000431,0.000235
29033000,0.0324,0.013523,0.002678,0.000431,0.000353
29034000,0.0324,0.013523,0.002678,0.000431,0.000353
29035000,0.0324,0.013523,0.002678,0.000431,0.000235
29036000,0.0324,0.013523,0.002678,0.000431,0.000353
29037000,0.0324,0.013523,0.002678,0.000431,0.000470
29038000,0.0324,0.013523,0.002678,0.000431,0.000353
29039000,0.0324,0.013523,0.002678,0.000431,0.000235
29040000,0.0324,0.013523,0.002678,0.000431,0.000353
29041000,0.0324,0.013523,0.002678,0.000431,0.000353
29042000,0.0324,0.013523,0.002678,0.000431,0.000235
29043000,0.0324,0.013523,0.002678,0.000431,0.000353
29044000,0.0324,0.013523,0.002678,0.000431,0.000470
29045000,0.0324,0.013523,0.002678,0.000431,0.000353
29046000,0.0324,0.013523,0.002678,0.000431,0.000235
29047000,0.0324,0.013523,0.002678,0.000431,0.000353
29048000,0.0324,0.013523,0.002678,0.000431,0.000353
29049000,0.0324,0.013523,0.002678,0.000431,0.000235
29050000,0.0324,0.013523,0.002678,0.000431,0.000353
29051000,0.0324,0.013523,0.002678,0.000431,0.000470
29052000,0.0324,0.013523,0.002678,0.000431,0.000353
29053000,0.0324,0.013523,0.002678,0.000431,0.000235
29054000,0.0324,0.013523,0.002678,0.000431,0.000353
29055000,0.0324,0.013523,0.002678,0.000431,0.000353
29056000,0.0324,0.013523,0.002678,0.000431,0.000235
29057000,0.0324,0.013523,0.002678,0.000431,0.000353
29058000,0.0324,0.013523,0.002678,0.000431,0.000470
29059000,0.0324,0.013523,0.002678,0.000431,0.000353
29060000,0.0324,0.013523,0.002678,0.000431,0.000235
29061000,0.0324,0.013523,0.002678,0.000431,0.000353
29062000,0.0324,0.013523,0.002678,0.000431,0.000353
29063000,0.0324,0.013523,0.002678,0.000431,0.000235
29064000,0.0324,0.013523,0.002678,0.000431,0.000353
29065000,0.0324,0.013523,0.002678,0.000431,0.000470
29066000,0.0324,0.013523,0.002678,0.000431,0.000353
29067000,0.0324,0.013523,0.002678,0.000431,0.000118
29068000,0.0324,0.013523,0.002678,0.000431,0.000470
29069000,0.0324,0.013523,0.002678,0.000431,0.000353
29070000,0.0324,0.013523,0.002678,0.000431,0.000235
29071000,0.0324,0.013523,0.002678,0.000431,0.000353
29072000,0.0324,0.013523,0.002678,0.000431,0.000470
29073000,0.0324,0.013523,0.002678,0.000431,0.000353
29074000,0.0324,0.013523,0.002678,0.000431,0.000118
29075000,0.0324,0.013523,0.002678,0.000431,0.000470
29076000,0.0324,0.013523,0.002678,0.000431,0.000353
29077000,0.0324,0.013523,0.002678,0.000431,0.000235
29078000,0.0324,0.013523,0.002678,0.000431,0.000353
29079000,0.0324,0.013523,0.002678,0.000431,0.000470
29080000,0.0324,0.013523,0.002678,0.000431,0.000353
29081000,0.0324,0.013523,0.002678,0.000431,0.000118
29082000,0.0324,0.013523,0.002678,0.000431,0.000470
29083000,0.0324,0.013523,0.002678,0.000431,0.000353
29084000,0.0324,0.013523,0.002678,0.000431,0.000235
29085000,0.0324,0.013523,0.002678,0.000431,0.000353
29086000,0.0324,0.013523,0.002678,0.000431,0.000470
29087000,0.0324,0.013523,0.002678,0.000431,0.000235
29088000,0.0324,0.013523,0.002678,0.000431,0.000235
29089000,0.0324,0.013523,0.002678,0.000431,0.000470
29090000,0.0324,0.013523,0.002678,0.000431,0.000353
29091000,0.0324,0.013523,0.002678,0.000431,0.000235
29092000,0.0324,0.013523,0.002678,0.000431,0.000353
29093000,0.0324,0.013523,0.002678,0.000431,0.000470
29094000,0.0324,0.013523,0.002678,0.000431,0.000235
29095000,0.0324,0.013523,0.002678,0.000431,0.000235
29096000,0.0324,0.013523,0.002678,0.000431,0.000470
29097000,0.0324,0.013523,0.002678,0.000431,0.000353
29098000,0.0324,0.013523,0.002678,0.000431,0.000235
29099000,0.0324,0.013523,0.002678,0.000431,0.000353
29100000,0.0324,0.013523,0.002678,0.000431,0.000470
29101000,0.0324,0.013523,0.002678,0.000431,0.000235
29102000,0.0324,0.013523,0.002678,0.000431,0.000235
29103000,0.0324,0.013523,0.002678,0.000431,0.000470
29104000,0.0324,0.013523,0.002678,0.000431,0.000353
29105000,0.0324,0.013523,0.002678,0.000431,0.000235
29106000,0.0324,0.013523,0.002678,0.000431,0.000353
29107000,0.0324,0.013523,0.002678,0.000431,0.000470
29108000,0.0324,0.013523,0.002678,0.000431,0.000235
29109000,0.0324,0.013523,0.002678,0.000431,0.000235
29110000,0.0324,0.013523,0.002678,0.000431,0.000470
29111000,0.0324,0.013523,0.002678,0.000431,0.000353
29112000,0.0324,0.013523,0.002678,0.000431,0.000235
29113000,0.0324,0.013523,0.002678,0.000431,0.000353
29114000,0.0324,0.013523,0.002678,0.000431,0.000470
29115000,0.0324,0.013523,0.002678,0.000431,0.000235
29116000,0.0324,0.013523,0.002678,0.000431,0.000235
29117000,0.0324,0.013523,0.002678,0.000431,0.000470
29118000,0.0324,0.013523,0.002678,0.000431,0.000353
29119000,0.0324,0.013523,0.002678,0.000431,0.000235
29120000,0.0324,0.013523,0.002678,0.000431,0.000353
29121000,0.0324,0.013523,0.002678,0.000431,0.000470
29122000,0.0324,0.013523,0.002678,0.000431,0.000235
29123000,0.0324,0.013523,0.002678,0.000431,0.000235
29124000,0.0324,0.013523,0.002678,0.000431,0.000470
29125000,0.0324,0.013523,0.002678,0.000431,0.000353
29126000,0.0324,0.013523,0.002678,0.000431,0.000235
29127000,0.0324,0.013523,0.002678,0.000431,0.000353
29128000,0.0324,0.013523,0.002678,0.000431,0.000470
29129000,0.0324,0.013523,0.002678,0.000431,0.000118
29130000,0.0324,0.013523,0.002678,0.000431,0.000353
29131000,0.0324,0.013523,0.002678,0.000431,0.000470
29132000,0.0324,0.013523,0.002678,0.000431,0.000353
29133000,0.0324,0.013523,0.002678,0.000431,0.000235
29134000,0.0324,0.013523,0.002678,0.000431,0.000353
29135000,0.0324,0.013523,0.002678,0.000431,0.000470
29136000,0.0324,0.013523,0.002678,0.000431,0.000118
29137000,0.0324,0.013523,0.002678,0.000431,0.000353
29138000,0.0324,0.013523,0.002678,0.000431,0.000470
29139000,0.0324,0.013523,0.002678,0.000431,0.000353
29140000,0.0324,0.013523,0.002678,0.000431,0.000235
29141000,0.0324,0.013523,0.002678,0.000431,0.000353
29142000,0.0324,0.013523,0.002678,0.000431,0.000470
29143000,0.0324,0.013523,0.002678,0.000431,0.000118
29144000,0.0324,0.013523,0.002678,0.000431,0.000353
29145000,0.0324,0.013523,0.002678,0.000431,0.000470
29146000,0.0324,0.013523,0.002678,0.000431,0.000353
29147000,0.0324,0.013523,0.002678,0.000431,0.000235
29148000,0.0324,0.013523,0.002678,0.000431,0.000353
29149000,0.0324,0.013523,0.002678,0.000431,0.000470
29150000,0.0324,0.013523,0.002678,0.000431,0.000118
29151000,0.0324,0.013523,0.002678,0.000431,0.000353
29152000,0.0324,0.013523,0.002678,0.000431,0.000470
29153000,0.0324,0.013523,0.002678,0.000431,0.000353
29154000,0.0324,0.013523,0.002678,0.000431,0.000235
29155000,0.0324,0.013523,0.002678,0.000431,0.000353
29156000,0.0324,0.013523,0.002678,0.000431,0.000353
29157000,0.0324,0.013523,0.002678,0.000431,0.000235
29158000,0.0324,0.013523,0.002678,0.000431,0.000353
29159000,0.0324,0.013523,0.002678,0.000431,0.000470
29160000,0.0324,0.013523,0.002678,0.000431,0.000353
29161000,0.0324,0.013523,0.002678,0.000431,0.000235
29162000,0.0324,0.013523,0.002678,0.000431,0.000353
29163000,0.0324,0.013523,0.002678,0.000431,0.000353
29164000,0.0324,0.013523,0.002678,0.000431,0.000235
29165000,0.0324,0.013523,0.002678,0.000431,0.000353
29166000,0.0324,0.013523,0.002678,0.000431,0.000470
29167000,0.0324,0.013523,0.002678,0.000431,0.000353
29168000,0.0324,0.013523,0.002678,0.000431,0.000235
29169000,0.0324,0.013523,0.002678,0.000431,0.000353
29170000,0.0324,0.013523,0.002678,0.000431,0.000353
29171000,0.0324,0.013523,0.002678,0.000431,0.000235
29172000,0.0324,0.013523,0.002678,0.000431,0.000353
29173000,0.0324,0.013523,0.002678,0.000431,0.000470
29174000,0.0324,0.013523,0.002678,0.000431,0.000353
29175000,0.0324,0.013523,0.002678,0.000431,0.000235
29176000,0.0324,0.013523,0.002678,0.000431,0.000353
29177000,0.0324,0.013523,0.002678,0.000431,0.000353
29178000,0.0324,0.013523,0.002678,0.000431,0.000235
29179000,0.0324,0.013523,0.002678,0.000431,0.000353
29180000,0.0324,0.013523,0.002678,0.000431,0.000470
29181000,0.0324,0.013523,0.002678,0.000431,0.000353
29182000,0.0324,0.013523,0.002678,0.000431,0.000235
29183000,0.0324,0.013523,0.002678,0.000431,0.000353
29184000,0.0324,0.013523,0.002678,0.000431,0.000353
29185000,0.0324,0.013523,0.002678,0.000431,0.000235
29186000,0.0324,0.013523,0.002678,0.000431,0.000353
29187000,0.0324,0.013523,0.002678,0.000431,0.000470
29188000,0.0324,0.013523,0.002678,0.000431,0.000353
29189000,0.0324,0.013523,0.002678,0.000431,0.000235
29190000,0.0324,0.013523,0.002678,0.000431,0.000353
29191000,0.0324,0.013523,0.002678,0.000431,0.000353
29192000,0.0324,0.013523,0.002678,0.000431,0.000235
29193000,0.0324,0.013523,0.002678,0.000431,0.000353
29194000,0.0324,0.013523,0.002678,0.000431,0.000470
29195000,0.0324,0.013523,0.002678,0.000431,0.000353
29196000,0.0324,0.013523,0.002678,0.000431,0.000235
29197000,0.0324,0.013523,0.002678,0.000431,0.000353
29198000,0.0324,0.013523,0.002678,0.000431,0.000353
29199000,0.0324,0.013523,0.002678,0.000431,0.000235
29200000,0.0324,0.013523,0.002678,0.000431,0.000353
29201000,0.0324,0.013523,0.002678,0.000431,0.000470
29202000,0.0324,0.013523,0.002678,0.000431,0.000353
29203000,0.0324,0.013523,0.002678,0.000431,0.000118
29204000,0.0324,0.013523,0.002678,0.000431,0.000470
29205000,0.0324,0.013523,0.002678,0.000431,0.000353
29206000,0.0324,0.013523,0.002678,0.000431,0.000235
29207000,0.0324,0.013523,0.002678,0.000431,0.000353
29208000,0.0324,0.013523,0.002678,0.000431,0.000470
29209000,0.0324,0.013523,0.002678,0.000431,0.000353
29210000,0.0324,0.013523,0.002678,0.000431,0.000118
29211000,0.0324,0.013523,0.002678,0.000431,0.000470
29212000,0.0324,0.013523,0.002678,0.000431,0.000353
29213000,0.0324,0.013523,0.002678,0.000431,0.000235
29214000,0.0324,0.013523,0.002678,0.000431,0.000353
29215000,0.0324,0.013523,0.002678,0.000431,0.000470
29216000,0.0324,0.013523,0.002678,0.000431,0.000353
29217000,0.0324,0.013523,0.002678,0.000431,0.000118
29218000,0.0324,0.013523,0.002678,0.000431,0.000470
29219000,0.0324,0.013523,0.002678,0.000431,0.000353
29220000,0.0324,0.013523,0.002678,0.000431,0.000235
29221000,0.0324,0.013523,0.002678,0.000431,0.000353
29222000,0.0324,0.013523,0.002678,0.000431,0.000470
29223000,0.0324,0.013523,0.002678,0.000431,0.000353
29224000,0.0324,0.013523,0.002678,0.000431,0.000118
29225000,0.0324,0.013523,0.002678,0.000431,0.000470
29226000,0.0324,0.013523,0.002678,0.000431,0.000353
29227000,0.0324,0.013523,0.002678,0.000431,0.000235
29228000,0.0324,0.013523,0.002678,0.000431,0.000353
29229000,0.0324,0.013523,0.002678,0.000431,0.000470
29230000,0.0324,0.013523,0.002678,0.000431,0.000235
29231000,0.0324,0.013523,0.002678,0.000431,0.000235
29232000,0.0324,0.013523,0.002678,0.000431,0.000470
29233000,0.0324,0.013523,0.002678,0.000431,0.000353
29234000,0.0324,0.013523,0.002678,0.000431,0.000235
29235000,0.0324,0.013523,0.002678,0.000431,0.000353
29236000,0.0324,0.013523,0.002678,0.000431,0.000470
29237000,0.0324,0.013523,0.002678,0.000431,0.000235
29238000,0.0324,0.013523,0.002678,0.000431,0.000235
29239000,0.0324,0.013523,0.002678,0.000431,0.000470
29240000,0.0324,0.013523,0.002678,0.000431,0.000353
29241000,0.0324,0.013523,0.002678,0.000431,0.000235
29242000,0.0324,0.013523,0.002678,0.000431,0.000353
29243000,0.0324,0.013523,0.002678,0.000431,0.000470
29244000,0.0324,0.013523,0.002678,0.000431,0.000235
29245000,0.0324,0.013523,0.002678,0.000431,0.000235
29246000,0.0324,0.013523,0.002678,0.000431,0.000470
29247000,0.0324,0.013523,0.002678,0.000431,0.000353
29248000,0.0324,0.013523,0.002678,0.000431,0.000235
29249000,0.0324,0.013523,0.002678,0.000431,0.000353
29250000,0.0324,0.013523,0.002678,0.000431,0.000470
29251000,0.0324,0.013523,0.002678,0.000431,0.000235
29252000,0.0324,0.013523,0.002678,0.000431,0.000235
29253000,0.0324,0.013523,0.002678,0.000431,0.000470
29254000,0.0324,0.013523,0.002678,0.000431,0.000353
29255000,0.0324,0.013523,0.002678,0.000431,0.000235
29256000,0.0324,0.013523,0.002678,0.000431,0.000353
29257000,0.0324,0.013523,0.002678,0.000431,0.000470
29258000,0.0324,0.013523,0.002678,0.000431,0.000235
29259000,0.0324,0.013523,0.002678,0.000431,0.000235
29260000,0.0324,0.013523,0.002678,0.000431,0.000470
29261000,0.0324,0.013523,0.002678,0.000431,0.000353
29262000,0.0324,0.013523,0.002678,0.000431,0.000235
29263000,0.0324,0.013523,0.002678,0.000431,0.000353
29264000,0.0324,0.013523,0.002678,0.000431,0.000470
29265000,0.0324,0.013523,0.002678,0.000431,0.000235
29266000,0.0324,0.013523,0.002678,0.000431,0.000235
29267000,0.0324,0.013523,0.002678,0.000431,0.000470
29268000,0.0324,0.013523,0.002678,0.000431,0.000353
29269000,0.0324,0.013523,0.002678,0.000431,0.000235
29270000,0.0324,0.013523,0.002678,0.000431,0.000353
29271000,0.0324,0.013523,0.002678,0.000431,0.000470
29272000,0.0324,0.013523,0.002678,0.000431,0.000118
29273000,0.0324,0.013523,0.002678,0.000431,0.000353
29274000,0.0324,0.013523,0.002678,0.000431,0.000470
29275000,0.0324,0.013523,0.002678,0.000431,0.000353
29276000,0.0324,0.013523,0.002678,0.000431,0.000235
29277000,0.0324,0.013523,0.002678,0.000431,0.000353
29278000,0.0324,0.013523,0.002678,0.000431,0.000470
29279000,0.0324,0.013523,0.002678,0.000431,0.000118
29280000,0.0324,0.013523,0.002678,0.000431,0.000353
29281000,0.0324,0.013523,0.002678,0.000431,0.000470
29282000,0.0324,0.013523,0.002678,0.000431,0.000353
29283000,0.0324,0.013523,0.002678,0.000431,0.000235
29284000,0.0324,0.013523,0.002678,0.000431,0.000353
29285000,0.0324,0.013523,0.002678,0.000431,0.000470
29286000,0.0324,0.013523,0.002678,0.000431,0.000118
29287000,0.0324,0.013523,0.002678,0.000431,0.000353
29288000,0.0324,0.013523,0.002678,0.000431,0.000470
29289000,0.0324,0.013523,0.002678,0.000431,0.000353
29290000,0.0324,0.013523,0.002678,0.000431,0.000235
29291000,0.0324,0.013523,0.002678,0.000431,0.000353
29292000,0.0324,0.013523,0.002678,0.000431,0.000353
29293000,0.0324,0.013523,0.002678,0.000431,0.000235
29294000,0.0324,0.013523,0.002678,0.000431,0.000353
29295000,0.0324,0.013523,0.002678,0.000431,0.000470
29296000,0.0324,0.013523,0.002678,0.000431,0.000353
29297000,0.0324,0.013523,0.002678,0.000431,0.000235
29298000,0.0324,0.013523,0.002678,0.000431,0.000353
29299000,0.0324,0.013523,0.002678,0.000431,0.000353
29300000,0.0324,0.013523,0.002678,0.000431,0.000235
29301000,0.0324,0.013523,0.002678,0.000431,0.000353
29302000,0.0324,0.013523,0.002678,0.000431,0.000470
29303000,0.0324,0.013523,0.002678,0.000431,0.000353
29304000,0.0324,0.013523,0.002678,0.000431,0.000235
29305000,0.0324,0.013523,0.002678,0.000431,0.000353
29306000,0.0324,0.013523,0.002678,0.000431,0.000353
29307000,0.0324,0.013523,0.002678,0.000431,0.000235
29308000,0.0324,0.013523,0.002678,0.000431,0.000353
29309000,0.0324,0.013523,0.002678,0.000431,0.000470
29310000,0.0324,0.013523,0.002678,0.000431,0.000353
29311000,0.0324,0.013523,0.002678,0.000431,0.000235
29312000,0.0324,0.013523,0.002678,0.000431,0.000353
29313000,0.0324,0.013523,0.002678,0.000431,0.000353
29314000,0.0324,0.013523,0.002678,0.000431,0.000235
29315000,0.0324,0.013523,0.002678,0.000431,0.000353
29316000,0.0324,0.013523,0.002678,0.000431,0.000470
29317000,0.0324,0.013523,0.002678,0.000431,0.000353
29318000,0.0324,0.013523,0.002678,0.000431,0.000235
29319000,0.0324,0.013523,0.002678,0.000431,0.000353
29320000,0.0324,0.013523,0.002678,0.000431,0.000353
29321000,0.0324,0.013523,0.002678,0.000431,0.000235
29322000,0.0324,0.013523,0.002678,0.000431,0.000353
29323000,0.0324,0.013523,0.002678,0.000431,0.000470
29324000,0.0324,0.013523,0.002678,0.000431,0.000353
29325000,0.0324,0.013523,0.002678,0.000431,0.000235
29326000,0.0324,0.013523,0.002678,0.000431,0.000353
29327000,0.0324,0.013523,0.002678,0.000431,0.000353
29328000,0.0324,0.013523,0.002678,0.000431,0.000235
29329000,0.0324,0.013523,0.002678,0.000431,0.000353
29330000,0.0324,0.013523,0.002678,0.000431,0.000470
29331000,0.0324,0.013523,0.002678,0.000431,0.000353
29332000,0.0324,0.013523,0.002678,0.000431,0.000235
29333000,0.0324,0.013523,0.002678,0.000431,0.000353
29334000,0.0324,0.013523,0.002678,0.000431,0.000353
29335000,0.0324,0.013523,0.002678,0.000431,0.000235
29336000,0.0324,0.013523,0.002678,0.000431,0.000353
29337000,0.0324,0.013523,0.002678,0.000431,0.000470
29338000,0.0324,0.013523,0.002678,0.000431,0.000353
29339000,0.0324,0.013523,0.002678,0.000431,0.000235
29340000,0.0324,0.013523,0.002678,0.000431,0.000353
29341000,0.0324,0.013523,0.002678,0.000431,0.000353
29342000,0.0324,0.013523,0.002678,0.000431,0.000235
29343000,0.0324,0.013523,0.002678,0.000431,0.000353
29344000,0.0324,0.013523,0.002678,0.000431,0.000470
29345000,0.0324,0.013523,0.002678,0.000431,0.000353
29346000,0.0324,0.013523,0.002678,0.000431,0.000118
29347000,0.0324,0.013523,0.002678,0.000431,0.000470
29348000,0.0324,0.013523,0.002678,0.000431,0.000353
29349000,0.0324,0.013523,0.002678,0.000431,0.000235
29350000,0.0324,0.013523,0.002678,0.000431,0.000353
29351000,0.0324,0.013523,0.002678,0.000431,0.000470
29352000,0.0324,0.013523,0.002678,0.000431,0.000353
29353000,0.0324,0.013523,0.002678,0.000431,0.000118
29354000,0.0324,0.013523,0.002678,0.000431,0.000470
29355000,0.0324,0.013523,0.002678,0.000431,0.000353
29356000,0.0324,0.013523,0.002678,0.000431,0.000235
29357000,0.0324,0.013523,0.002678,0.000431,0.000353
29358000,0.0324,0.013523,0.002678,0.000431,0.000470
29359000,0.0324,0.013523,0.002678,0.000431,0.000353
29360000,0.0324,0.013523,0.002678,0.000431,0.000118
29361000,0.0324,0.013523,0.002678,0.000431,0.000470
29362000,0.0324,0.013523,0.002678,0.000431,0.000353
29363000,0.0324,0.013523,0.002678,0.000431,0.000235
29364000,0.0324,0.013523,0.002678,0.000431,0.000353
29365000,0.0324,0.013523,0.002678,0.000431,0.000470
29366000,0.0324,0.013523,0.002678,0.000431,0.000235
29367000,0.0324,0.013523,0.002678,0.000431,0.000235
29368000,0.0324,0.013523,0.002678,0.000431,0.000470
29369000,0.0324,0.013523,0.002678,0.000431,0.000353
29370000,0.0324,0.013523,0.002678,0.000431,0.000235
29371000,0.0324,0.013523,0.002678,0.000431,0.000353
29372000,0.0324,0.013523,0.002678,0.000431,0.000470
29373000,0.0324,0.013523,0.002678,0.000431,0.000235
29374000,0.0324,0.013523,0.002678,0.000431,0.000235
29375000,0.0324,0.013523,0.002678,0.000431,0.000470
29376000,0.0324,0.013523,0.002678,0.000431,0.000353
29377000,0.0324,0.013523,0.002678,0.000431,0.000235
29378000,0.0324,0.013523,0.002678,0.000431,0.000353
29379000,0.0324,0.013523,0.002678,0.000431,0.000470
29380000,0.0324,0.013523,0.002678,0.000431,0.000235
29381000,0.0324,0.013523,0.002678,0.000431,0.000235
29382000,0.0324,0.013523,0.002678,0.000431,0.000470
29383000,0.0324,0.013523,0.002678,0.000431,0.000353
29384000,0.0324,0.013523,0.002678,0.000431,0.000235
29385000,0.0324,0.013523,0.002678,0.000431,0.000353
29386000,0.0324,0.013523,0.002678,0.000431,0.000470
29387000,0.0324,0.013523,0.002678,0.000431,0.000235
29388000,0.0324,0.013523,0.002678,0.000431,0.000235
29389000,0.0324,0.013523,0.002678,0.000431,0.000470
29390000,0.0324,0.013523,0.002678,0.000431,0.000353
29391000,0.0324,0.013523,0.002678,0.000431,0.000235
29392000,0.0324,0.013523,0.002678,0.000431,0.000353
29393000,0.0324,0.013523,0.002678,0.000431,0.000470
29394000,0.0324,0.013523,0.002678,0.000431,0.000235
29395000,0.0324,0.013523,0.002678,0.000431,0.000235
29396000,0.0324,0.013523,0.002678,0.000431,0.000470
29397000,0.0324,0.013523,0.002678,0.000431,0.000353
29398000,0.0324,0.013523,0.002678,0.000431,0.000235
29399000,0.0324,0.013523,0.002678,0.000431,0.000353
29400000,0.0324,0.013523,0.002678,0.000431,0.000470
29401000,0.0324,0.013523,0.002678,0.000431,0.000235
29402000,0.0324,0.013523,0.002678,0.000431,0.000235
29403000,0.0324,0.013523,0.002678,0.000431,0.000470
29404000,0.0324,0.013523,0.002678,0.000431,0.000353
29405000,0.0324,0.013523,0.002678,0.000431,0.000235
29406000,0.0324,0.013523,0.002678,0.000431,0.000353
29407000,0.0324,0.013523,0.002678,0.000431,0.000470
29408000,0.0324,0.013523,0.002678,0.000431,0.000118
29409000,0.0324,0.013523,0.002678,0.000431,0.000353
29410000,0.0324,0.013523,0.002678,0.000431,0.000470
29411000,0.0324,0.013523,0.002678,0.000431,0.000353
29412000,0.0324,0.013523,0.002678,0.000431,0.000235
29413000,0.0324,0.013523,0.002678,0.000431,0.000353
29414000,0.0324,0.013523,0.002678,0.000431,0.000470
29415000,0.0324,0.013523,0.002678,0.000431,0.000118
29416000,0.0324,0.013523,0.002678,0.000431,0.000353
29417000,0.0324,0.013523,0.002678,0.000431,0.000470
29418000,0.0324,0.013523,0.002678,0.000431,0.000353
29419000,0.0324,0.013523,0.002678,0.000431,0.000235
29420000,0.0324,0.013523,0.002678,0.000431,0.000353
29421000,0.0324,0.013523,0.002678,0.000431,0.000470
29422000,0.0324,0.013523,0.002678,0.000431,0.000118
29423000,0.0324,0.013523,0.002678,0.000431,0.000353
29424000,0.0324,0.013523,0.002678,0.000431,0.000470
29425000,0.0324,0.013523,0.002678,0.000431,0.000353
29426000,0.0324,0.013523,0.002678,0.000431,0.000235
29427000,0.0324,0.013523,0.002678,0.000431,0.000353
29428000,0.0324,0.013523,0.002678,0.000431,0.000470
29429000,0.0324,0.013523,0.002678,0.000431,0.000118
29430000,0.0324,0.013523,0.002678,0.000431,0.000353
29431000,0.0324,0.013523,0.002678,0.000431,0.000470
29432000,0.0324,0.013523,0.002678,0.000431,0.000353
29433000,0.0324,0.013523,0.002678,0.000431,0.000235
29434000,0.0324,0.013523,0.002678,0.000431,0.000353
29435000,0.0324,0.013523,0.002678,0.000431,0.000353
29436000,0.0324,0.013523,0.002678,0.000431,0.000235
29437000,0.0324,0.013523,0.002678,0.000431,0.000353
29438000,0.0324,0.013523,0.002678,0.000431,0.000470
29439000,0.0324,0.013523,0.002678,0.000431,0.000353
29440000,0.0324,0.013523,0.002678,0.000431,0.000235
29441000,0.0324,0.013523,0.002678,0.000431,0.000353
29442000,0.0324,0.013523,0.002678,0.000431,0.000353
29443000,0.0324,0.013523,0.002678,0.000431,0.000235
29444000,0.0324,0.013523,0.002678,0.000431,0.000353
29445000,0.0324,0.013523,0.002678,0.000431,0.000470
29446000,0.0324,0.013523,0.002678,0.000431,0.000353
29447000,0.0324,0.013523,0.002678,0.000431,0.000235
29448000,0.0324,0.013523,0.002678,0.000431,0.000353
29449000,0.0324,0.013523,0.002678,0.000431,0.000353
29450000,0.0324,0.013523,0.002678,0.000431,0.000235
29451000,0.0324,0.013523,0.002678,0.000431,0.000353
29452000,0.0324,0.013523,0.002678,0.000431,0.000470
29453000,0.0324,0.013523,0.002678,0.000431,0.000353
29454000,0.0324,0.013523,0.002678,0.000431,0.000235
29455000,0.0324,0.013523,0.002678,0.000431,0.000353
29456000,0.0324,0.013523,0.002678,0.000431,0.000353
29457000,0.0324,0.013523,0.002678,0.000431,0.000235
29458000,0.0324,0.013523,0.002678,0.000431,0.000353
29459000,0.0324,0.013523,0.002678,0.000431,0.000470
29460000,0.0324,0.013523,0.002678,0.000431,0.000353
29461000,0.0324,0.013523,0.002678,0.000431,0.000235
29462000,0.0324,0.013523,0.002678,0.000431,0.000353
29463000,0.0324,0.013523,0.002678,0.000431,0.000353
29464000,0.0324,0.013523,0.002678,0.000431,0.000235
29465000,0.0324,0.013523,0.002678,0.000431,0.000353
29466000,0.0324,0.013523,0.002678,0.000431,0.000470
29467000,0.0324,0.013523,0.002678,0.000431,0.000353
29468000,0.0324,0.013523,0.002678,0.000431,0.000235
29469000,0.0324,0.013523,0.002678,0.000431,0.000353
29470000,0.0324,0.013523,0.002678,0.000431,0.000353
29471000,0.0324,0.013523,0.002678,0.000431,0.000235
29472000,0.0324,0.013523,0.002678,0.000431,0.000353
29473000,0.0324,0.013523,0.002678,0.000431,0.000470
29474000,0.0324,0.013523,0.002678,0.000431,0.000353
29475000,0.0324,0.013523,0.002678,0.000431,0.000235
29476000,0.0324,0.013523,0.002678,0.000431,0.000353
29477000,0.0324,0.013523,0.002678,0.000431,0.000353
29478000,0.0324,0.013523,0.002678,0.000431,0.000235
29479000,0.0324,0.013523,0.002678,0.000431,0.000353
29480000,0.0324,0.013523,0.002678,0.000431,0.000470
29481000,0.0324,0.013523,0.002678,0.000431,0.000353
29482000,0.0324,0.013523,0.002678,0.000431,0.000235
29483000,0.0324,0.013523,0.002678,0.000431,0.000353
29484000,0.0324,0.013523,0.002678,0.000431,0.000353
29485000,0.0324,0.013523,0.002678,0.000431,0.000235
29486000,0.0324,0.013523,0.002678,0.000431,0.000353
29487000,0.0324,0.013523,0.002678,0.000431,0.000470
29488000,0.0324,0.013523,0.002678,0.000431,0.000353
29489000,0.0324,0.013523,0.002678,0.000431,0.000118
29490000,0.0324,0.013523,0.002678,0.000431,0.000470
29491000,0.0324,0.013523,0.002678,0.000431,0.000353
29492000,0.0324,0.013523,0.002678,0.000431,0.000235
29493000,0.0324,0.013523,0.002678,0.000431,0.000353
29494000,0.0324,0.013523,0.002678,0.000431,0.000470
29495000,0.0324,0.013523,0.002678,0.000431,0.000353
29496000,0.0324,0.013523,0.002678,0.000431,0.000118
29497000,0.0324,0.013523,0.002678,0.000431,0.000470
29498000,0.0324,0.013523,0.002678,0.000431,0.000353
29499000,0.0324,0.013523,0.002678,0.000431,0.000235
29500000,0.0324,0.013523,0.002678,0.000431,0.000353
29501000,0.0324,0.013523,0.002678,0.000431,0.000470
29502000,0.0324,0.013523,0.002678,0.000431,0.000353
29503000,0.0324,0.013523,0.002678,0.000431,0.000118
29504000,0.0324,0.013523,0.002678,0.000431,0.000470
29505000,0.0324,0.013523,0.002678,0.000431,0.000353
29506000,0.0324,0.013523,0.002678,0.000431,0.000235
29507000,0.0324,0.013523,0.002678,0.000431,0.000353
29508000,0.0324,0.013523,0.002678,0.000431,0.000470
29509000,0.0324,0.013523,0.002678,0.000431,0.000235
29510000,0.0324,0.013523,0.002678,0.000431,0.000235
29511000,0.0324,0.013523,0.002678,0.000431,0.000470
29512000,0.0324,0.013523,0.002678,0.000431,0.000353
29513000,0.0324,0.013523,0.002678,0.000431,0.000235
29514000,0.0324,0.013523,0.002678,0.000431,0.000353
29515000,0.0324,0.013523,0.002678,0.000431,0.000470
29516000,0.0324,0.013523,0.002678,0.000431,0.000235
29517000,0.0324,0.013523,0.002678,0.000431,0.000235
29518000,0.0324,0.013523,0.002678,0.000431,0.000470
29519000,0.0324,0.013523,0.002678,0.000431,0.000353
29520000,0.0324,0.013523,0.002678,0.000431,0.000235
29521000,0.0324,0.013523,0.002678,0.000431,0.000353
29522000,0.0324,0.013523,0.002678,0.000431,0.000470
29523000,0.0324,0.013523,0.002678,0.000431,0.000235
29524000,0.0324,0.013523,0.002678,0.000431,0.000235
29525000,0.0324,0.013523,0.002678,0.000431,0.000470
29526000,0.0324,0.013523,0.002678,0.000431,0.000353
29527000,0.0324,0.013523,0.002678,0.000431,0.000235
29528000,0.0324,0.013523,0.002678,0.000431,0.000353
29529000,0.0324,0.013523,0.002678,0.000431,0.000470
29530000,0.0324,0.013523,0.002678,0.000431,0.000235
29531000,0.0324,0.013523,0.002678,0.000431,0.000235
29532000,0.0324,0.013523,0.002678,0.000431,0.000470
29533000,0.0324,0.013523,0.002678,0.000431,0.000353
29534000,0.0324,0.013523,0.002678,0.000431,0.000235
29535000,0.0324,0.013523,0.002678,0.000431,0.000353
29536000,0.0324,0.013523,0.002678,0.000431,0.000470
29537000,0.0324,0.013523,0.002678,0.000431,0.000235
29538000,0.0324,0.013523,0.002678,0.000431,0.000235
29539000,0.0324,0.013523,0.002678,0.000431,0.000470
29540000,0.0324,0.013523,0.002678,0.000431,0.000353
29541000,0.0324,0.013523,0.002678,0.000431,0.000235
29542000,0.0324,0.013523,0.002678,0.000431,0.000353
29543000,0.0324,0.013523,0.002678,0.000431,0.000470
29544000,0.0324,0.013523,0.002678,0.000431,0.000235
29545000,0.0324,0.013523,0.002678,0.000431,0.000235
29546000,0.0324,0.013523,0.002678,0.000431,0.000470
29547000,0.0324,0.013523,0.002678,0.000431,0.000353
29548000,0.0324,0.013523,0.002678,0.000431,0.000235
29549000,0.0324,0.013523,0.002678,0.000431,0.000353
29550000,0.0324,0.013523,0.002678,0.000431,0.000470
29551000,0.0324,0.013523,0.002678,0.000431,0.000118
29552000,0.0324,0.013523,0.002678,0.000431,0.000353
29553000,0.0324,0.013523,0.002678,0.000431,0.000470
29554000,0.0324,0.013523,0.002678,0.000431,0.000353
29555000,0.0324,0.013523,0.002678,0.000431,0.000235
29556000,0.0324,0.013523,0.002678,0.000431,0.000353
29557000,0.0324,0.013523,0.002678,0.000431,0.000470
29558000,0.0324,0.013523,0.002678,0.000431,0.000118
29559000,0.0324,0.013523,0.002678,0.000431,0.000353
29560000,0.0324,0.013523,0.002678,0.000431,0.000470
29561000,0.0324,0.013523,0.002678,0.000431,0.000353
29562000,0.0324,0.013523,0.002678,0.000431,0.000235
29563000,0.0324,0.013523,0.002678,0.000431,0.000353
29564000,0.0324,0.013523,0.002678,0.000431,0.000470
29565000,0.0324,0.013523,0.002678,0.000431,0.000118
29566000,0.0324,0.013523,0.002678,0.000431,0.000353
29567000,0.0324,0.013523,0.002678,0.000431,0.000470
29568000,0.0324,0.013523,0.002678,0.000431,0.000353
29569000,0.0324,0.013523,0.002678,0.000431,0.000235
29570000,0.0324,0.013523,0.002678,0.000431,0.000353
29571000,0.0324,0.013523,0.002678,0.000431,0.000353
29572000,0.0324,0.013523,0.002678,0.000431,0.000235
29573000,0.0324,0.013523,0.002678,0.000431,0.000353
29574000,0.0324,0.013523,0.002678,0.000431,0.000470
29575000,0.0324,0.013523,0.002678,0.000431,0.000353
29576000,0.0324,0.013523,0.002678,0.000431,0.000235
29577000,0.0324,0.013523,0.002678,0.000431,0.000353
29578000,0.0324,0.013523,0.002678,0.000431,0.000353
29579000,0.0324,0.013523,0.002678,0.000431,0.000235
29580000,0.0324,0.013523,0.002678,0.000431,0.000353
29581000,0.0324,0.013523,0.002678,0.000431,0.000470
29582000,0.0324,0.013523,0.002678,0.000431,0.000353
29583000,0.0324,0.013523,0.002678,0.000431,0.000235
29584000,0.0324,0.013523,0.002678,0.000431,0.000353
29585000,0.0324,0.013523,0.002678,0.000431,0.000353
29586000,0.0324,0.013523,0.002678,0.000431,0.000235
29587000,0.0324,0.013523,0.002678,0.000431,0.000353
29588000,0.0324,0.013523,0.002678,0.000431,0.000470
29589000,0.0324,0.013523,0.002678,0.000431,0.000353
29590000,0.0324,0.013523,0.002678,0.000431,0.000235
29591000,0.0324,0.013523,0.002678,0.000431,0.000353
29592000,0.0324,0.013523,0.002678,0.000431,0.000353
29593000,0.0324,0.013523,0.002678,0.000431,0.000235
29594000,0.0324,0.013523,0.002678,0.000431,0.000353
29595000,0.0324,0.013523,0.002678,0.000431,0.000470
29596000,0.0324,0.013523,0.002678,0.000431,0.000353
29597000,0.0324,0.013523,0.002678,0.000431,0.000235
29598000,0.0324,0.013523,0.002678,0.000431,0.000353
29599000,0.0324,0.013523,0.002678,0.000431,0.000353
29600000,0.0324,0.013523,0.002678,0.000431,0.000235
29601000,0.0324,0.013523,0.002678,0.000431,0.000353
29602000,0.0324,0.013523,0.002678,0.000431,0.000470
29603000,0.0324,0.013523,0.002678,0.000431,0.000353
29604000,0.0324,0.013523,0.002678,0.000431,0.000235
29605000,0.0324,0.013523,0.002678,0.000431,0.000353
29606000,0.0324,0.013523,0.002678,0.000431,0.000353
29607000,0.0324,0.013523,0.002678,0.000431,0.000235
29608000,0.0324,0.013523,0.002678,0.000431,0.000353
29609000,0.0324,0.013523,0.002678,0.000431,0.000470
29610000,0.0324,0.013523,0.002678,0.000431,0.000353
29611000,0.0324,0.013523,0.002678,0.000431,0.000235
29612000,0.0324,0.013523,0.002678,0.000431,0.000353
29613000,0.0324,0.013523,0.002678,0.000431,0.000353
29614000,0.0324,0.013523,0.002678,0.000431,0.000235
29615000,0.0324,0.013523,0.002678,0.000431,0.000353
29616000,0.0324,0.013523,0.002678,0.000431,0.000470
29617000,0.0324,0.013523,0.002678,0.000431,0.000353
29618000,0.0324,0.013523,0.002678,0.000431,0.000235
29619000,0.0324,0.013523,0.002678,0.000431,0.000353
29620000,0.0324,0.013523,0.002678,0.000431,0.000353
29621000,0.0324,0.013523,0.002678,0.000431,0.000235
29622000,0.0324,0.013523,0.002678,0.000431,0.000353
29623000,0.0324,0.013523,0.002678,0.000431,0.000470
29624000,0.0324,0.013523,0.002678,0.000431,0.000353
29625000,0.0324,0.013523,0.002678,0.000431,0.000118
29626000,0.0324,0.013523,0.002678,0.000431,0.000470
29627000,0.0324,0.013523,0.002678,0.000431,0.000353
29628000,0.0324,0.013523,0.002678,0.000431,0.000235
29629000,0.0324,0.013523,0.002678,0.000431,0.000353
29630000,0.0324,0.013523,0.002678,0.000431,0.000470
29631000,0.0324,0.013523,0.002678,0.000431,0.000353
29632000,0.0324,0.013523,0.002678,0.000431,0.000118
29633000,0.0324,0.013523,0.002678,0.000431,0.000470
29634000,0.0324,0.013523,0.002678,0.000431,0.000353
29635000,0.0324,0.013523,0.002678,0.000431,0.000235
29636000,0.0324,0.013523,0.002678,0.000431,0.000353
29637000,0.0324,0.013523,0.002678,0.000431,0.000470
29638000,0.0324,0.013523,0.002678,0.000431,0.000353
29639000,0.0324,0.013523,0.002678,0.000431,0.000118
29640000,0.0324,0.013523,0.002678,0.000431,0.000470
29641000,0.0324,0.013523,0.002678,0.000431,0.000353
29642000,0.0324,0.013523,0.002678,0.000431,0.000235
29643000,0.0324,0.013523,0.002678,0.000431,0.000353
29644000,0.0324,0.013523,0.002678,0.000431,0.000470
29645000,0.0324,0.013523,0.002678,0.000431,0.000353
29646000,0.0324,0.013523,0.002678,0.000431,0.000118
29647000,0.0324,0.013523,0.002678,0.000431,0.000470
29648000,0.0324,0.013523,0.002678,0.000431,0.000353
29649000,0.0324,0.013523,0.002678,0.000431,0.000235
29650000,0.0324,0.013523,0.002678,0.000431,0.000353
29651000,0.0324,0.013523,0.002678,0.000431,0.000470
29652000,0.0324,0.013523,0.002678,0.000431,0.000235
29653000,0.0324,0.013523,0.002678,0.000431,0.000235
29654000,0.0324,0.013523,0.002678,0.000431,0.000470
29655000,0.0324,0.013523,0.002678,0.000431,0.000353
29656000,0.0324,0.013523,0.002678,0.000431,0.000235
29657000,0.0324,0.013523,0.002678,0.000431,0.000353
29658000,0.0324,0.013523,0.002678,0.000431,0.000470
29659000,0.0324,0.013523,0.002678,0.000431,0.000235
29660000,0.0324,0.013523,0.002678,0.000431,0.000235
29661000,0.0324,0.013523,0.002678,0.000431,0.000470
29662000,0.0324,0.013523,0.002678,0.000431,0.000353
29663000,0.0324,0.013523,0.002678,0.000431,0.000235
29664000,0.0324,0.013523,0.002678,0.000431,0.000353
29665000,0.0324,0.013523,0.002678,0.000431,0.000470
29666000,0.0324,0.013523,0.002678,0.000431,0.000235
29667000,0.0324,0.013523,0.002678,0.000431,0.000235
29668000,0.0324,0.013523,0.002678,0.000431,0.000470
29669000,0.0324,0.013523,0.002678,0.000431,0.000353
29670000,0.0324,0.013523,0.002678,0.000431,0.000235
29671000,0.0324,0.013523,0.002678,0.000431,0.000353
29672000,0.0324,0.013523,0.002678,0.000431,0.000470
29673000,0.0324,0.013523,0.002678,0.000431,0.000235
29674000,0.0324,0.013523,0.002678,0.000431,0.000235
29675000,0.0324,0.013523,0.002678,0.000431,0.000470
29676000,0.0324,0.013523,0.002678,0.000431,0.000353
29677000,0.0324,0.013523,0.002678,0.000431,0.000235
29678000,0.0324,0.013523,0.002678,0.000431,0.000353
29679000,0.0324,0.013523,0.002678,0.000431,0.000470
29680000,0.0324,0.013523,0.002678,0.000431,0.000235
29681000,0.0324,0.013523,0.002678,0.000431,0.000235
29682000,0.0324,0.013523,0.002678,0.000431,0.000470
29683000,0.0324,0.013523,0.002678,0.000431,0.000353
29684000,0.0324,0.013523,0.002678,0.000431,0.000235
29685000,0.0324,0.013523,0.002678,0.000431,0.000353
29686000,0.0324,0.013523,0.002678,0.000431,0.000470
29687000,0.0324,0.013523,0.002678,0.000431,0.000235
29688000,0.0324,0.013523,0.002678,0.000431,0.000235
29689000,0.0324,0.013523,0.002678,0.000431,0.000470
29690000,0.0324,0.013523,0.002678,0.000431,0.000353
29691000,0.0324,0.013523,0.002678,0.000431,0.000235
29692000,0.0324,0.013523,0.002678,0.000431,0.000353
29693000,0.0324,0.013523,0.002678,0.000431,0.000470
29694000,0.0324,0.013523,0.002678,0.000431,0.000118
29695000,0.0324,0.013523,0.002678,0.000431,0.000353
29696000,0.0324,0.013523,0.002678,0.000431,0.000470
29697000,0.0324,0.013523,0.002678,0.000431,0.000353
29698000,0.0324,0.013523,0.002678,0.000431,0.000235
29699000,0.0324,0.013523,0.002678,0.000431,0.000353
29700000,0.0324,0.013523,0.002678,0.000431,0.000470
29701000,0.0324,0.013523,0.002678,0.000431,0.000118
29702000,0.0324,0.013523,0.002678,0.000431,0.000353
29703000,0.0324,0.013523,0.002678,0.000431,0.000470
29704000,0.0324,0.013523,0.002678,0.000431,0.000353
29705000,0.0324,0.013523,0.002678,0.000431,0.000235
29706000,0.0324,0.013523,0.002678,0.000431,0.000353
29707000,0.0324,0.013523,0.002678,0.000431,0.000470
29708000,0.0324,0.013523,0.002678,0.000431,0.000118
29709000,0.0324,0.013523,0.002678,0.000431,0.000353
29710000,0.0324,0.013523,0.002678,0.000431,0.000470
29711000,0.0324,0.013523,0.002678,0.000431,0.000353
29712000,0.0324,0.013523,0.002678,0.000431,0.000235
29713000,0.0324,0.013523,0.002678,0.000431,0.000353
29714000,0.0324,0.013523,0.002678,0.000431,0.000353
29715000,0.0324,0.013523,0.002678,0.000431,0.000235
29716000,0.0324,0.013523,0.002678,0.000431,0.000353
29717000,0.0324,0.013523,0.002678,0.000431,0.000470
29718000,0.0324,0.013523,0.002678,0.000431,0.000353
29719000,0.0324,0.013523,0.002678,0.000431,0.000235
29720000,0.0324,0.013523,0.002678,0.000431,0.000353
29721000,0.0324,0.013523,0.002678,0.000431,0.000353
29722000,0.0324,0.013523,0.002678,0.000431,0.000235
29723000,0.0324,0.013523,0.002678,0.000431,0.000353
29724000,0.0324,0.013523,0.002678,0.000431,0.000470
29725000,0.0324,0.013523,0.002678,0.000431,0.000353
29726000,0.0324,0.013523,0.002678,0.000431,0.000235
29727000,0.0324,0.013523,0.002678,0.000431,0.000353
29728000,0.0324,0.013523,0.002678,0.000431,0.000353
29729000,0.0324,0.013523,0.002678,0.000431,0.000235
29730000,0.0324,0.013523,0.002678,0.000431,0.000353
29731000,0.0324,0.013523,0.002678,0.000431,0.000470
29732000,0.0324,0.013523,0.002678,0.000431,0.000353
29733000,0.0324,0.013523,0.002678,0.000431,0.000235
29734000,0.0324,0.013523,0.002678,0.000431,0.000353
29735000,0.0324,0.013523,0.002678,0.000431,0.000353
29736000,0.0324,0.013523,0.002678,0.000431,0.000235
29737000,0.0324,0.013523,0.002678,0.000431,0.000353
29738000,0.0324,0.013523,0.002678,0.000431,0.000470
29739000,0.0324,0.013523,0.002678,0.000431,0.000353
29740000,0.0324,0.013523,0.002678,0.000431,0.000235
29741000,0.0324,0.013523,0.002678,0.000431,0.000353
29742000,0.0324,0.013523,0.002678,0.000431,0.000353
29743000,0.0324,0.013523,0.002678,0.000431,0.000235
29744000,0.0324,0.013523,0.002678,0.000431,0.000353
29745000,0.0324,0.013523,0.002678,0.000431,0.000470
29746000,0.0324,0.013523,0.002678,0.000431,0.000353
29747000,0.0324,0.013523,0.002678,0.000431,0.000235
29748000,0.0324,0.013523,0.002678,0.000431,0.000353
29749000,0.0324,0.013523,0.002678,0.000431,0.000353
29750000,0.0324,0.013523,0.002678,0.000431,0.000235
29751000,0.0324,0.013523,0.002678,0.000431,0.000353
29752000,0.0324,0.013523,0.002678,0.000431,0.000470
29753000,0.0324,0.013523,0.002678,0.000431,0.000353
29754000,0.0324,0.013523,0.002678,0.000431,0.000235
29755000,0.0324,0.013523,0.002678,0.000431,0.000353
29756000,0.0324,0.013523,0.002678,0.000431,0.000353
29757000,0.0324,0.013523,0.002678,0.000431,0.000235
29758000,0.0324,0.013523,0.002678,0.000431,0.000353
29759000,0.0324,0.013523,0.002678,0.000431,0.000470
29760000,0.0324,0.013523,0.002678,0.000431,0.000353
29761000,0.0324,0.013523,0.002678,0.000431,0.000235
29762000,0.0324,0.013523,0.002678,0.000431,0.000353
29763000,0.0324,0.013523,0.002678,0.000431,0.000353
29764000,0.0324,0.013523,0.002678,0.000431,0.000235
29765000,0.0324,0.013523,0.002678,0.000431,0.000353
29766000,0.0324,0.013523,0.002678,0.000431,0.000470
29767000,0.0324,0.013523,0.002678,0.000431,0.000353
29768000,0.0324,0.013523,0.002678,0.000431,0.000118
29769000,0.0324,0.013523,0.002678,0.000431,0.000470
29770000,0.0324,0.013523,0.002678,0.000431,0.000353
29771000,0.0324,0.013523,0.002678,0.000431,0.000235
29772000,0.0324,0.013523,0.002678,0.000431,0.000353
29773000,0.0324,0.013523,0.002678,0.000431,0.000470
29774000,0.0324,0.013523,0.002678,0.000431,0.000353
29775000,0.0324,0.013523,0.002678,0.000431,0.000118
29776000,0.0324,0.013523,0.002678,0.000431,0.000470
29777000,0.0324,0.013523,0.002678,0.000431,0.000353
29778000,0.0324,0.013523,0.002678,0.000431,0.000235
29779000,0.0324,0.013523,0.002678,0.000431,0.000353
29780000,0.0324,0.013523,0.002678,0.000431,0.000470
29781000,0.0324,0.013523,0.002678,0.000431,0.000353
29782000,0.0324,0.013523,0.002678,0.000431,0.000118
29783000,0.0324,0.013523,0.002678,0.000431,0.000470
29784000,0.0324,0.013523,0.002678,0.000431,0.000353
29785000,0.0324,0.013523,0.002678,0.000431,0.000235
29786000,0.0324,0.013523,0.002678,0.000431,0.000353
29787000,0.0324,0.013523,0.002678,0.000431,0.000470
29788000,0.0324,0.013523,0.002678,0.000431,0.000235
29789000,0.0324,0.013523,0.002678,0.000431,0.000235
29790000,0.0324,0.013523,0.002678,0.000431,0.000470
29791000,0.0324,0.013523,0.002678,0.000431,0.000353
29792000,0.0324,0.013523,0.002678,0.000431,0.000235
29793000,0.0324,0.013523,0.002678,0.000431,0.000353
29794000,0.0324,0.013523,0.002678,0.000431,0.000470
29795000,0.0324,0.013523,0.002678,0.000431,0.000235
29796000,0.0324,0.013523,0.002678,0.000431,0.000235
29797000,0.0324,0.013523,0.002678,0.000431,0.000470
29798000,0.0324,0.013523,0.002678,0.000431,0.000353
29799000,0.0324,0.013523,0.002678,0.000431,0.000235
29800000,0.0324,0.013523,0.002678,0.000431,0.000353
29801000,0.0324,0.013523,0.002678,0.000431,0.000470
29802000,0.0324,0.013523,0.002678,0.000431,0.000235
29803000,0.0324,0.013523,0.002678,0.000431,0.000235
29804000,0.0324,0.013523,0.002678,0.000431,0.000470
29805000,0.0324,0.013523,0.002678,0.000431,0.000353
29806000,0.0324,0.013523,0.002678,0.000431,0.000235
29807000,0.0324,0.013523,0.002678,0.000431,0.000353
29808000,0.0324,0.013523,0.002678,0.000431,0.000470
29809000,0.0324,0.013523,0.002678,0.000431,0.000235
29810000,0.0324,0.013523,0.002678,0.000431,0.000235
29811000,0.0324,0.013523,0.002678,0.000431,0.000470
29812000,0.0324,0.013523,0.002678,0.000431,0.000353
29813000,0.0324,0.013523,0.002678,0.000431,0.000235
29814000,0.0324,0.013523,0.002678,0.000431,0.000353
29815000,0.0324,0.013523,0.002678,0.000431,0.000470
29816000,0.0324,0.013523,0.002678,0.000431,0.000235
29817000,0.0324,0.013523,0.002678,0.000431,0.000235
29818000,0.0324,0.013523,0.002678,0.000431,0.000470
29819000,0.0324,0.013523,0.002678,0.000431,0.000353
29820000,0.0324,0.013523,0.002678,0.000431,0.000235
29821000,0.0324,0.013523,0.002678,0.000431,0.000353
29822000,0.0324,0.013523,0.002678,0.000431,0.000470
29823000,0.0324,0.013523,0.002678,0.000431,0.000235
29824000,0.0324,0.013523,0.002678,0.000431,0.000235
29825000,0.0324,0.013523,0.002678,0.000431,0.000470
29826000,0.0324,0.013523,0.002678,0.000431,0.000353
29827000,0.0324,0.013523,0.002678,0.000431,0.000235
29828000,0.0324,0.013523,0.002678,0.000431,0.000353
29829000,0.0324,0.013523,0.002678,0.000431,0.000470
29830000,0.0324,0.013523,0.002678,0.000431,0.000118
29831000,0.0324,0.013523,0.002678,0.000431,0.000353
29832000,0.0324,0.013523,0.002678,0.000431,0.000470
29833000,0.0324,0.013523,0.002678,0.000431,0.000353
29834000,0.0324,0.013523,0.002678,0.000431,0.000235
29835000,0.0324,0.013523,0.002678,0.000431,0.000353
29836000,0.0324,0.013523,0.002678,0.000431,0.000470
29837000,0.0324,0.013523,0.002678,0.000431,0.000118
29838000,0.0324,0.013523,0.002678,0.000431,0.000353
29839000,0.0324,0.013523,0.002678,0.000431,0.000470
29840000,0.0324,0.013523,0.002678,0.000431,0.000353
29841000,0.0324,0.013523,0.002678,0.000431,0.000235
29842000,0.0324,0.013523,0.002678,0.000431,0.000353
29843000,0.0324,0.013523,0.002678,0.000431,0.000470
29844000,0.0324,0.013523,0.002678,0.000431,0.000118
29845000,0.0324,0.013523,0.002678,0.000431,0.000353
29846000,0.0324,0.013523,0.002678,0.000431,0.000470
29847000,0.0324,0.013523,0.002678,0.000431,0.000353
29848000,0.0324,0.013523,0.002678,0.000431,0.000235
29849000,0.0324,0.013523,0.002678,0.000431,0.000353
29850000,0.0324,0.013523,0.002678,0.000431,0.000470
29851000,0.0324,0.013523,0.002678,0.000431,0.000118
29852000,0.0324,0.013523,0.002678,0.000431,0.000353
29853000,0.0324,0.013523,0.002678,0.000431,0.000470
29854000,0.0324,0.013523,0.002678,0.000431,0.000353
29855000,0.0324,0.013523,0.002678,0.000431,0.000235
29856000,0.0324,0.013523,0.002678,0.000431,0.000353
29857000,0.0324,0.013523,0.002678,0.000431,0.000353
29858000,0.0324,0.013523,0.002678,0.000431,0.000235
29859000,0.0324,0.013523,0.002678,0.000431,0.000353
29860000,0.0324,0.013523,0.002678,0.000431,0.000470
29861000,0.0324,0.013523,0.002678,0.000431,0.000353
29862000,0.0324,0.013523,0.002678,0.000431,0.000235
29863000,0.0324,0.013523,0.002678,0.000431,0.000353
29864000,0.0324,0.013523,0.002678,0.000431,0.000353
29865000,0.0324,0.013523,0.002678,0.000431,0.000235
29866000,0.0324,0.013523,0.002678,0.000431,0.000353
29867000,0.0324,0.013523,0.002678,0.000431,0.000470
29868000,0.0324,0.013523,0.002678,0.000431,0.000353
29869000,0.0324,0.013523,0.002678,0.000431,0.000235
29870000,0.0324,0.013523,0.002678,0.000431,0.000353
29871000,0.0324,0.013523,0.002678,0.000431,0.000353
29872000,0.0324,0.013523,0.002678,0.000431,0.000235
29873000,0.0324,0.013523,0.002678,0.000431,0.000353
29874000,0.0324,0.013523,0.002678,0.000431,0.000470
29875000,0.0324,0.013523,0.002678,0.000431,0.000353
29876000,0.0324,0.013523,0.002678,0.000431,0.000235
29877000,0.0324,0.013523,0.002678,0.000431,0.000353
29878000,0.0324,0.013523,0.002678,0.000431,0.000353
29879000,0.0324,0.013523,0.002678,0.000431,0.000235
29880000,0.0324,0.013523,0.002678,0.000431,0.000353
29881000,0.0324,0.013523,0.002678,0.000431,0.000470
29882000,0.0324,0.013523,0.002678,0.000431,0.000353
29883000,0.0324,0.013523,0.002678,0.000431,0.000235
29884000,0.0324,0.013523,0.002678,0.000431,0.000353
29885000,0.0324,0.013523,0.002678,0.000431,0.000353
29886000,0.0324,0.013523,0.002678,0.000431,0.000235
29887000,0.0324,0.013523,0.002678,0.000431,0.000353
29888000,0.0324,0.013523,0.002678,0.000431,0.000470
29889000,0.0324,0.013523,0.002678,0.000431,0.000353
29890000,0.0324,0.013523,0.002678,0.000431,0.000235
29891000,0.0324,0.013523,0.002678,0.000431,0.000353
29892000,0.0324,0.013523,0.002678,0.000431,0.000353
29893000,0.0324,0.013523,0.002678,0.000431,0.000235
29894000,0.0324,0.013523,0.002678,0.000431,0.000353
29895000,0.0324,0.013523,0.002678,0.000431,0.000470
29896000,0.0324,0.013523,0.002678,0.000431,0.000353
29897000,0.0324,0.013523,0.002678,0.000431,0.000235
29898000,0.0324,0.013523,0.002678,0.000431,0.000353
29899000,0.0324,0.013523,0.002678,0.000431,0.000353
29900000,0.0324,0.013523,0.002678,0.000431,0.000235
29901000,0.0324,0.013523,0.002678,0.000431,0.000353
29902000,0.0324,0.013523,0.002678,0.000431,0.000470
29903000,0.0324,0.013523,0.002678,0.000431,0.000353
29904000,0.0324,0.013523,0.002678,0.000431,0.000118
29905000,0.0324,0.013523,0.002678,0.000431,0.000470
29906000,0.0324,0.013523,0.002678,0.000431,0.000353
29907000,0.0324,0.013523,0.002678,0.000431,0.000235
29908000,0.0324,0.013523,0.002678,0.000431,0.000353
29909000,0.0324,0.013523,0.002678,0.000431,0.000470
29910000,0.0324,0.013523,0.002678,0.000431,0.000353
29911000,0.0324,0.013523,0.002678,0.000431,0.000118
29912000,0.0324,0.013523,0.002678,0.000431,0.000470
29913000,0.0324,0.013523,0.002678,0.000431,0.000353
29914000,0.0324,0.013523,0.002678,0.000431,0.000235
29915000,0.0324,0.013523,0.002678,0.000431,0.000353
29916000,0.0324,0.013523,0.002678,0.000431,0.000470
29917000,0.0324,0.013523,0.002678,0.000431,0.000353
29918000,0.0324,0.013523,0.002678,0.000431,0.000118
29919000,0.0324,0.013523,0.002678,0.000431,0.000470
29920000,0.0324,0.013523,0.002678,0.000431,0.000353
29921000,0.0324,0.013523,0.002678,0.000431,0.000235
29922000,0.0324,0.013523,0.002678,0.000431,0.000353
29923000,0.0324,0.013523,0.002678,0.000431,0.000470
29924000,0.0324,0.013523,0.002678,0.000431,0.000353
29925000,0.0324,0.013523,0.002678,0.000431,0.000118
29926000,0.0324,0.013523,0.002678,0.000431,0.000470
29927000,0.0324,0.013523,0.002678,0.000431,0.000353
29928000,0.0324,0.013523,0.002678,0.000431,0.000235
29929000,0.0324,0.013523,0.002678,0.000431,0.000353
29930000,0.0324,0.013523,0.002678,0.000431,0.000470
29931000,0.0324,0.013523,0.002678,0.000431,0.000235
29932000,0.0324,0.013523,0.002678,0.000431,0.000235
29933000,0.0324,0.013523,0.002678,0.000431,0.000470
29934000,0.0324,0.013523,0.002678,0.000431,0.000353
29935000,0.0324,0.013523,0.002678,0.000431,0.000235
29936000,0.0324,0.013523,0.002678,0.000431,0.000353
29937000,0.0324,0.013523,0.002678,0.000431,0.000470
29938000,0.0324,0.013523,0.002678,0.000431,0.000235
29939000,0.0324,0.013523,0.002678,0.000431,0.000235
29940000,0.0324,0.013523,0.002678,0.000431,0.000470
29941000,0.0324,0.013523,0.002678,0.000431,0.000353
29942000,0.0324,0.013523,0.002678,0.000431,0.000235
29943000,0.0324,0.013523,0.002678,0.000431,0.000353
29944000,0.0324,0.013523,0.002678,0.000431,0.000470
29945000,0.0324,0.013523,0.002678,0.000431,0.000235
29946000,0.0324,0.013523,0.002678,0.000431,0.000235
29947000,0.0324,0.013523,0.002678,0.000431,0.000470
29948000,0.0324,0.013523,0.002678,0.000431,0.000353
29949000,0.0324,0.013523,0.002678,0.000431,0.000235
29950000,0.0324,0.013523,0.002678,0.000431,0.000353
29951000,0.0324,0.013523,0.002678,0.000431,0.000470
29952000,0.0324,0.013523,0.002678,0.000431,0.000118
29953000,0.0324,0.013523,0.002678,0.000431,0.000353
29954000,0.0324,0.013523,0.002678,0.000431,0.000470
29955000,0.0324,0.013523,0.002678,0.000431,0.000353
29956000,0.0324,0.013523,0.002678,0.000431,0.000235
29957000,0.0324,0.013523,0.002678,0.000431,0.000353
29958000,0.0324,0.013523,0.002678,0.000431,0.000353
29959000,0.0324,0.013523,0.002678,0.000431,0.000235
29960000,0.0324,0.013523,0.002678,0.000431,0.000353
29961000,0.0324,0.013523,0.002678,0.000431,0.000470
29962000,0.0324,0.013523,0.002678,0.000431,0.000353
29963000,0.0324,0.013523,0.002678,0.000431,0.000235
29964000,0.0324,0.013523,0.002678,0.000431,0.000353
29965000,0.0324,0.013523,0.002678,0.000431,0.000353
29966000,0.0324,0.013523,0.002678,0.000431,0.000235
29967000,0.0324,0.013523,0.002678,0.000431,0.000353
29968000,0.0324,0.013523,0.002678,0.000431,0.000470
29969000,0.0324,0.013523,0.002678,0.000431,0.000353
29970000,0.0324,0.013523,0.002678,0.000431,0.000235
29971000,0.0324,0.013523,0.002678,0.000431,0.000353
29972000,0.0324,0.013523,0.002678,0.000431,0.000353
29973000,0.0324,0.013523,0.002678,0.000431,0.000235
29974000,0.0324,0.013523,0.002678,0.000431,0.000353
29975000,0.0324,0.013523,0.002678,0.000431,0.000470
29976000,0.0324,0.013523,0.002678,0.000431,0.000353
29977000,0.0324,0.013523,0.002678,0.000431,0.000118
29978000,0.0324,0.013523,0.002678,0.000431,0.000470
29979000,0.0324,0.013523,0.002678,0.000431,0.000353
29980000,0.0324,0.013523,0.002678,0.000431,0.000235
29981000,0.0324,0.013523,0.002678,0.000431,0.000353
29982000,0.0324,0.013523,0.002678,0.000431,0.000470
29983000,0.0324,0.013523,0.002678,0.000431,0.000235
29984000,0.0324,0.013523,0.002678,0.000431,0.000235
29985000,0.0324,0.013523,0.002678,0.000431,0.000470
29986000,0.0324,0.013523,0.002678,0.000431,0.000353
29987000,0.0324,0.013523,0.002678,0.000431,0.000235
29988000,0.0324,0.013523,0.002678,0.000431,0.000353
29989000,0.0324,0.013523,0.002678,0.000431,0.000470
29990000,0.0324,0.013523,0.002678,0.000431,0.000235
29991000,0.0324,0.013523,0.002678,0.000431,0.000235
29992000,0.0324,0.013523,0.002678,0.000431,0.000470
29993000,0.0324,0.013523,0.002678,0.000431,0.000353
29994000,0.0324,0.013523,0.002678,0.000431,0.000235
29995000,0.0324,0.013523,0.002678,0.000431,0.000353
29996000,0.0324,0.013523,0.002678,0.000431,0.000470
29997000,0.0324,0.013523,0.002678,0.000431,0.000118
29998000,0.0324,0.013523,0.002678,0.000431,0.000353
29999000,0.0324,0.013523,0.002678,0.000431,0.000470
