Cycle,Area(mm^2),PeakDynamic(W),SubthresholdLeakage(W),GateLeakage(W),RunTimeDynamic(W)
22000000,0.0324,0.013523,0.002678,0.000431,0.000235
22001000,0.0324,0.013523,0.002678,0.000431,0.000235
22002000,0.0324,0.013523,0.002678,0.000431,0.000470
22003000,0.0324,0.013523,0.002678,0.000431,0.000353
22004000,0.0324,0.013523,0.002678,0.000431,0.000235
22005000,0.0324,0.013523,0.002678,0.000431,0.000353
22006000,0.0324,0.013523,0.002678,0.000431,0.000470
22007000,0.0324,0.013523,0.002678,0.000431,0.000235
22008000,0.0324,0.013523,0.002678,0.000431,0.000235
22009000,0.0324,0.013523,0.002678,0.000431,0.000470
22010000,0.0324,0.013523,0.002678,0.000431,0.000353
22011000,0.0324,0.013523,0.002678,0.000431,0.000235
22012000,0.0324,0.013523,0.002678,0.000431,0.000353
22013000,0.0324,0.013523,0.002678,0.000431,0.000470
22014000,0.0324,0.013523,0.002678,0.000431,0.000235
22015000,0.0324,0.013523,0.002678,0.000431,0.000235
22016000,0.0324,0.013523,0.002678,0.000431,0.000470
22017000,0.0324,0.013523,0.002678,0.000431,0.000353
22018000,0.0324,0.013523,0.002678,0.000431,0.000235
22019000,0.0324,0.013523,0.002678,0.000431,0.000353
22020000,0.0324,0.013523,0.002678,0.000431,0.000470
22021000,0.0324,0.013523,0.002678,0.000431,0.000235
22022000,0.0324,0.013523,0.002678,0.000431,0.000235
22023000,0.0324,0.013523,0.002678,0.000431,0.000470
22024000,0.0324,0.013523,0.002678,0.000431,0.000353
22025000,0.0324,0.013523,0.002678,0.000431,0.000235
22026000,0.0324,0.013523,0.002678,0.000431,0.000353
22027000,0.0324,0.013523,0.002678,0.000431,0.000470
22028000,0.0324,0.013523,0.002678,0.000431,0.000235
22029000,0.0324,0.013523,0.002678,0.000431,0.000235
22030000,0.0324,0.013523,0.002678,0.000431,0.000470
22031000,0.0324,0.013523,0.002678,0.000431,0.000353
22032000,0.0324,0.013523,0.002678,0.000431,0.000235
22033000,0.0324,0.013523,0.002678,0.000431,0.000353
22034000,0.0324,0.013523,0.002678,0.000431,0.000470
22035000,0.0324,0.013523,0.002678,0.000431,0.000235
22036000,0.0324,0.013523,0.002678,0.000431,0.000235
22037000,0.0324,0.013523,0.002678,0.000431,0.000470
22038000,0.0324,0.013523,0.002678,0.000431,0.000353
22039000,0.0324,0.013523,0.002678,0.000431,0.000235
22040000,0.0324,0.013523,0.002678,0.000431,0.000353
22041000,0.0324,0.013523,0.002678,0.000431,0.000470
22042000,0.0324,0.013523,0.002678,0.000431,0.000118
22043000,0.0324,0.013523,0.002678,0.000431,0.000353
22044000,0.0324,0.013523,0.002678,0.000431,0.000470
22045000,0.0324,0.013523,0.002678,0.000431,0.000353
22046000,0.0324,0.013523,0.002678,0.000431,0.000235
22047000,0.0324,0.013523,0.002678,0.000431,0.000353
22048000,0.0324,0.013523,0.002678,0.000431,0.000470
22049000,0.0324,0.013523,0.002678,0.000431,0.000118
22050000,0.0324,0.013523,0.002678,0.000431,0.000353
22051000,0.0324,0.013523,0.002678,0.000431,0.000470
22052000,0.0324,0.013523,0.002678,0.000431,0.000353
22053000,0.0324,0.013523,0.002678,0.000431,0.000235
22054000,0.0324,0.013523,0.002678,0.000431,0.000353
22055000,0.0324,0.013523,0.002678,0.000431,0.000470
22056000,0.0324,0.013523,0.002678,0.000431,0.000118
22057000,0.0324,0.013523,0.002678,0.000431,0.000353
22058000,0.0324,0.013523,0.002678,0.000431,0.000470
22059000,0.0324,0.013523,0.002678,0.000431,0.000353
22060000,0.0324,0.013523,0.002678,0.000431,0.000235
22061000,0.0324,0.013523,0.002678,0.000431,0.000353
22062000,0.0324,0.013523,0.002678,0.000431,0.000353
22063000,0.0324,0.013523,0.002678,0.000431,0.000235
22064000,0.0324,0.013523,0.002678,0.000431,0.000353
22065000,0.0324,0.013523,0.002678,0.000431,0.000470
22066000,0.0324,0.013523,0.002678,0.000431,0.000353
22067000,0.0324,0.013523,0.002678,0.000431,0.000235
22068000,0.0324,0.013523,0.002678,0.000431,0.000353
22069000,0.0324,0.013523,0.002678,0.000431,0.000353
22070000,0.0324,0.013523,0.002678,0.000431,0.000235
22071000,0.0324,0.013523,0.002678,0.000431,0.000353
22072000,0.0324,0.013523,0.002678,0.000431,0.000470
22073000,0.0324,0.013523,0.002678,0.000431,0.000353
22074000,0.0324,0.013523,0.002678,0.000431,0.000235
22075000,0.0324,0.013523,0.002678,0.000431,0.000353
22076000,0.0324,0.013523,0.002678,0.000431,0.000353
22077000,0.0324,0.013523,0.002678,0.000431,0.000235
22078000,0.0324,0.013523,0.002678,0.000431,0.000353
22079000,0.0324,0.013523,0.002678,0.000431,0.000470
22080000,0.0324,0.013523,0.002678,0.000431,0.000353
22081000,0.0324,0.013523,0.002678,0.000431,0.000235
22082000,0.0324,0.013523,0.002678,0.000431,0.000353
22083000,0.0324,0.013523,0.002678,0.000431,0.000353
22084000,0.0324,0.013523,0.002678,0.000431,0.000235
22085000,0.0324,0.013523,0.002678,0.000431,0.000353
22086000,0.0324,0.013523,0.002678,0.000431,0.000470
22087000,0.0324,0.013523,0.002678,0.000431,0.000353
22088000,0.0324,0.013523,0.002678,0.000431,0.000235
22089000,0.0324,0.013523,0.002678,0.000431,0.000353
22090000,0.0324,0.013523,0.002678,0.000431,0.000353
22091000,0.0324,0.013523,0.002678,0.000431,0.000235
22092000,0.0324,0.013523,0.002678,0.000431,0.000353
22093000,0.0324,0.013523,0.002678,0.000431,0.000470
22094000,0.0324,0.013523,0.002678,0.000431,0.000353
22095000,0.0324,0.013523,0.002678,0.000431,0.000235
22096000,0.0324,0.013523,0.002678,0.000431,0.000353
22097000,0.0324,0.013523,0.002678,0.000431,0.000353
22098000,0.0324,0.013523,0.002678,0.000431,0.000235
22099000,0.0324,0.013523,0.002678,0.000431,0.000353
22100000,0.0324,0.013523,0.002678,0.000431,0.000470
22101000,0.0324,0.013523,0.002678,0.000431,0.000353
22102000,0.0324,0.013523,0.002678,0.000431,0.000235
22103000,0.0324,0.013523,0.002678,0.000431,0.000353
22104000,0.0324,0.013523,0.002678,0.000431,0.000353
22105000,0.0324,0.013523,0.002678,0.000431,0.000235
22106000,0.0324,0.013523,0.002678,0.000431,0.000353
22107000,0.0324,0.013523,0.002678,0.000431,0.000470
22108000,0.0324,0.013523,0.002678,0.000431,0.000353
22109000,0.0324,0.013523,0.002678,0.000431,0.000235
22110000,0.0324,0.013523,0.002678,0.000431,0.000353
22111000,0.0324,0.013523,0.002678,0.000431,0.000353
22112000,0.0324,0.013523,0.002678,0.000431,0.000235
22113000,0.0324,0.013523,0.002678,0.000431,0.000353
22114000,0.0324,0.013523,0.002678,0.000431,0.000470
22115000,0.0324,0.013523,0.002678,0.000431,0.000353
22116000,0.0324,0.013523,0.002678,0.000431,0.000118
22117000,0.0324,0.013523,0.002678,0.000431,0.000470
22118000,0.0324,0.013523,0.002678,0.000431,0.000353
22119000,0.0324,0.013523,0.002678,0.000431,0.000235
22120000,0.0324,0.013523,0.002678,0.000431,0.000353
22121000,0.0324,0.013523,0.002678,0.000431,0.000470
22122000,0.0324,0.013523,0.002678,0.000431,0.000353
22123000,0.0324,0.013523,0.002678,0.000431,0.000118
22124000,0.0324,0.013523,0.002678,0.000431,0.000470
22125000,0.0324,0.013523,0.002678,0.000431,0.000353
22126000,0.0324,0.013523,0.002678,0.000431,0.000235
22127000,0.0324,0.013523,0.002678,0.000431,0.000353
22128000,0.0324,0.013523,0.002678,0.000431,0.000470
22129000,0.0324,0.013523,0.002678,0.000431,0.000353
22130000,0.0324,0.013523,0.002678,0.000431,0.000118
22131000,0.0324,0.013523,0.002678,0.000431,0.000470
22132000,0.0324,0.013523,0.002678,0.000431,0.000353
22133000,0.0324,0.013523,0.002678,0.000431,0.000235
22134000,0.0324,0.013523,0.002678,0.000431,0.000353
22135000,0.0324,0.013523,0.002678,0.000431,0.000470
22136000,0.0324,0.013523,0.002678,0.000431,0.000235
22137000,0.0324,0.013523,0.002678,0.000431,0.000235
22138000,0.0324,0.013523,0.002678,0.000431,0.000470
22139000,0.0324,0.013523,0.002678,0.000431,0.000353
22140000,0.0324,0.013523,0.002678,0.000431,0.000235
22141000,0.0324,0.013523,0.002678,0.000431,0.000353
22142000,0.0324,0.013523,0.002678,0.000431,0.000470
22143000,0.0324,0.013523,0.002678,0.000431,0.000235
22144000,0.0324,0.013523,0.002678,0.000431,0.000235
22145000,0.0324,0.013523,0.002678,0.000431,0.000470
22146000,0.0324,0.013523,0.002678,0.000431,0.000353
22147000,0.0324,0.013523,0.002678,0.000431,0.000235
22148000,0.0324,0.013523,0.002678,0.000431,0.000353
22149000,0.0324,0.013523,0.002678,0.000431,0.000470
22150000,0.0324,0.013523,0.002678,0.000431,0.000235
22151000,0.0324,0.013523,0.002678,0.000431,0.000235
22152000,0.0324,0.013523,0.002678,0.000431,0.000470
22153000,0.0324,0.013523,0.002678,0.000431,0.000353
22154000,0.0324,0.013523,0.002678,0.000431,0.000235
22155000,0.0324,0.013523,0.002678,0.000431,0.000353
22156000,0.0324,0.013523,0.002678,0.000431,0.000470
22157000,0.0324,0.013523,0.002678,0.000431,0.000235
22158000,0.0324,0.013523,0.002678,0.000431,0.000235
22159000,0.0324,0.013523,0.002678,0.000431,0.000470
22160000,0.0324,0.013523,0.002678,0.000431,0.000353
22161000,0.0324,0.013523,0.002678,0.000431,0.000235
22162000,0.0324,0.013523,0.002678,0.000431,0.000353
22163000,0.0324,0.013523,0.002678,0.000431,0.000470
22164000,0.0324,0.013523,0.002678,0.000431,0.000235
22165000,0.0324,0.013523,0.002678,0.000431,0.000235
22166000,0.0324,0.013523,0.002678,0.000431,0.000470
22167000,0.0324,0.013523,0.002678,0.000431,0.000353
22168000,0.0324,0.013523,0.002678,0.000431,0.000235
22169000,0.0324,0.013523,0.002678,0.000431,0.000353
22170000,0.0324,0.013523,0.002678,0.000431,0.000470
22171000,0.0324,0.013523,0.002678,0.000431,0.000235
22172000,0.0324,0.013523,0.002678,0.000431,0.000235
22173000,0.0324,0.013523,0.002678,0.000431,0.000470
22174000,0.0324,0.013523,0.002678,0.000431,0.000353
22175000,0.0324,0.013523,0.002678,0.000431,0.000235
22176000,0.0324,0.013523,0.002678,0.000431,0.000353
22177000,0.0324,0.013523,0.002678,0.000431,0.000470
22178000,0.0324,0.013523,0.002678,0.000431,0.000118
22179000,0.0324,0.013523,0.002678,0.000431,0.000353
22180000,0.0324,0.013523,0.002678,0.000431,0.000470
22181000,0.0324,0.013523,0.002678,0.000431,0.000353
22182000,0.0324,0.013523,0.002678,0.000431,0.000235
22183000,0.0324,0.013523,0.002678,0.000431,0.000353
22184000,0.0324,0.013523,0.002678,0.000431,0.000470
22185000,0.0324,0.013523,0.002678,0.000431,0.000118
22186000,0.0324,0.013523,0.002678,0.000431,0.000353
22187000,0.0324,0.013523,0.002678,0.000431,0.000470
22188000,0.0324,0.013523,0.002678,0.000431,0.000353
22189000,0.0324,0.013523,0.002678,0.000431,0.000235
22190000,0.0324,0.013523,0.002678,0.000431,0.000353
22191000,0.0324,0.013523,0.002678,0.000431,0.000470
22192000,0.0324,0.013523,0.002678,0.000431,0.000118
22193000,0.0324,0.013523,0.002678,0.000431,0.000353
22194000,0.0324,0.013523,0.002678,0.000431,0.000470
22195000,0.0324,0.013523,0.002678,0.000431,0.000353
22196000,0.0324,0.013523,0.002678,0.000431,0.000235
22197000,0.0324,0.013523,0.002678,0.000431,0.000353
22198000,0.0324,0.013523,0.002678,0.000431,0.000470
22199000,0.0324,0.013523,0.002678,0.000431,0.000118
22200000,0.0324,0.013523,0.002678,0.000431,0.000353
22201000,0.0324,0.013523,0.002678,0.000431,0.000470
22202000,0.0324,0.013523,0.002678,0.000431,0.000353
22203000,0.0324,0.013523,0.002678,0.000431,0.000235
22204000,0.0324,0.013523,0.002678,0.000431,0.000353
22205000,0.0324,0.013523,0.002678,0.000431,0.000353
22206000,0.0324,0.013523,0.002678,0.000431,0.000235
22207000,0.0324,0.013523,0.002678,0.000431,0.000353
22208000,0.0324,0.013523,0.002678,0.000431,0.000470
22209000,0.0324,0.013523,0.002678,0.000431,0.000353
22210000,0.0324,0.013523,0.002678,0.000431,0.000235
22211000,0.0324,0.013523,0.002678,0.000431,0.000353
22212000,0.0324,0.013523,0.002678,0.000431,0.000353
22213000,0.0324,0.013523,0.002678,0.000431,0.000235
22214000,0.0324,0.013523,0.002678,0.000431,0.000353
22215000,0.0324,0.013523,0.002678,0.000431,0.000470
22216000,0.0324,0.013523,0.002678,0.000431,0.000353
22217000,0.0324,0.013523,0.002678,0.000431,0.000235
22218000,0.0324,0.013523,0.002678,0.000431,0.000353
22219000,0.0324,0.013523,0.002678,0.000431,0.000353
22220000,0.0324,0.013523,0.002678,0.000431,0.000235
22221000,0.0324,0.013523,0.002678,0.000431,0.000353
22222000,0.0324,0.013523,0.002678,0.000431,0.000470
22223000,0.0324,0.013523,0.002678,0.000431,0.000353
22224000,0.0324,0.013523,0.002678,0.000431,0.000235
22225000,0.0324,0.013523,0.002678,0.000431,0.000353
22226000,0.0324,0.013523,0.002678,0.000431,0.000353
22227000,0.0324,0.013523,0.002678,0.000431,0.000235
22228000,0.0324,0.013523,0.002678,0.000431,0.000353
22229000,0.0324,0.013523,0.002678,0.000431,0.000470
22230000,0.0324,0.013523,0.002678,0.000431,0.000353
22231000,0.0324,0.013523,0.002678,0.000431,0.000235
22232000,0.0324,0.013523,0.002678,0.000431,0.000353
22233000,0.0324,0.013523,0.002678,0.000431,0.000353
22234000,0.0324,0.013523,0.002678,0.000431,0.000235
22235000,0.0324,0.013523,0.002678,0.000431,0.000353
22236000,0.0324,0.013523,0.002678,0.000431,0.000470
22237000,0.0324,0.013523,0.002678,0.000431,0.000353
22238000,0.0324,0.013523,0.002678,0.000431,0.000235
22239000,0.0324,0.013523,0.002678,0.000431,0.000353
22240000,0.0324,0.013523,0.002678,0.000431,0.000353
22241000,0.0324,0.013523,0.002678,0.000431,0.000235
22242000,0.0324,0.013523,0.002678,0.000431,0.000353
22243000,0.0324,0.013523,0.002678,0.000431,0.000470
22244000,0.0324,0.013523,0.002678,0.000431,0.000353
22245000,0.0324,0.013523,0.002678,0.000431,0.000235
22246000,0.0324,0.013523,0.002678,0.000431,0.000353
22247000,0.0324,0.013523,0.002678,0.000431,0.000353
22248000,0.0324,0.013523,0.002678,0.000431,0.000235
22249000,0.0324,0.013523,0.002678,0.000431,0.000353
22250000,0.0324,0.013523,0.002678,0.000431,0.000470
22251000,0.0324,0.013523,0.002678,0.000431,0.000353
22252000,0.0324,0.013523,0.002678,0.000431,0.000118
22253000,0.0324,0.013523,0.002678,0.000431,0.000470
22254000,0.0324,0.013523,0.002678,0.000431,0.000353
22255000,0.0324,0.013523,0.002678,0.000431,0.000235
22256000,0.0324,0.013523,0.002678,0.000431,0.000353
22257000,0.0324,0.013523,0.002678,0.000431,0.000470
22258000,0.0324,0.013523,0.002678,0.000431,0.000353
22259000,0.0324,0.013523,0.002678,0.000431,0.000118
22260000,0.0324,0.013523,0.002678,0.000431,0.000470
22261000,0.0324,0.013523,0.002678,0.000431,0.000353
22262000,0.0324,0.013523,0.002678,0.000431,0.000235
22263000,0.0324,0.013523,0.002678,0.000431,0.000353
22264000,0.0324,0.013523,0.002678,0.000431,0.000470
22265000,0.0324,0.013523,0.002678,0.000431,0.000353
22266000,0.0324,0.013523,0.002678,0.000431,0.000118
22267000,0.0324,0.013523,0.002678,0.000431,0.000470
22268000,0.0324,0.013523,0.002678,0.000431,0.000353
22269000,0.0324,0.013523,0.002678,0.000431,0.000235
22270000,0.0324,0.013523,0.002678,0.000431,0.000353
22271000,0.0324,0.013523,0.002678,0.000431,0.000470
22272000,0.0324,0.013523,0.002678,0.000431,0.000353
22273000,0.0324,0.013523,0.002678,0.000431,0.000118
22274000,0.0324,0.013523,0.002678,0.000431,0.000470
22275000,0.0324,0.013523,0.002678,0.000431,0.000353
22276000,0.0324,0.013523,0.002678,0.000431,0.000235
22277000,0.0324,0.013523,0.002678,0.000431,0.000353
22278000,0.0324,0.013523,0.002678,0.000431,0.000470
22279000,0.0324,0.013523,0.002678,0.000431,0.000235
22280000,0.0324,0.013523,0.002678,0.000431,0.000235
22281000,0.0324,0.013523,0.002678,0.000431,0.000470
22282000,0.0324,0.013523,0.002678,0.000431,0.000353
22283000,0.0324,0.013523,0.002678,0.000431,0.000235
22284000,0.0324,0.013523,0.002678,0.000431,0.000353
22285000,0.0324,0.013523,0.002678,0.000431,0.000470
22286000,0.0324,0.013523,0.002678,0.000431,0.000235
22287000,0.0324,0.013523,0.002678,0.000431,0.000235
22288000,0.0324,0.013523,0.002678,0.000431,0.000470
22289000,0.0324,0.013523,0.002678,0.000431,0.000353
22290000,0.0324,0.013523,0.002678,0.000431,0.000235
22291000,0.0324,0.013523,0.002678,0.000431,0.000353
22292000,0.0324,0.013523,0.002678,0.000431,0.000470
22293000,0.0324,0.013523,0.002678,0.000431,0.000235
22294000,0.0324,0.013523,0.002678,0.000431,0.000235
22295000,0.0324,0.013523,0.002678,0.000431,0.000470
22296000,0.0324,0.013523,0.002678,0.000431,0.000353
22297000,0.0324,0.013523,0.002678,0.000431,0.000235
22298000,0.0324,0.013523,0.002678,0.000431,0.000353
22299000,0.0324,0.013523,0.002678,0.000431,0.000470
22300000,0.0324,0.013523,0.002678,0.000431,0.000235
22301000,0.0324,0.013523,0.002678,0.000431,0.000235
22302000,0.0324,0.013523,0.002678,0.000431,0.000470
22303000,0.0324,0.013523,0.002678,0.000431,0.000353
22304000,0.0324,0.013523,0.002678,0.000431,0.000235
22305000,0.0324,0.013523,0.002678,0.000431,0.000353
22306000,0.0324,0.013523,0.002678,0.000431,0.000470
22307000,0.0324,0.013523,0.002678,0.000431,0.000235
22308000,0.0324,0.013523,0.002678,0.000431,0.000235
22309000,0.0324,0.013523,0.002678,0.000431,0.000470
22310000,0.0324,0.013523,0.002678,0.000431,0.000353
22311000,0.0324,0.013523,0.002678,0.000431,0.000235
22312000,0.0324,0.013523,0.002678,0.000431,0.000353
22313000,0.0324,0.013523,0.002678,0.000431,0.000470
22314000,0.0324,0.013523,0.002678,0.000431,0.000235
22315000,0.0324,0.013523,0.002678,0.000431,0.000235
22316000,0.0324,0.013523,0.002678,0.000431,0.000470
22317000,0.0324,0.013523,0.002678,0.000431,0.000353
22318000,0.0324,0.013523,0.002678,0.000431,0.000235
22319000,0.0324,0.013523,0.002678,0.000431,0.000353
22320000,0.0324,0.013523,0.002678,0.000431,0.000470
22321000,0.0324,0.013523,0.002678,0.000431,0.000118
22322000,0.0324,0.013523,0.002678,0.000431,0.000353
22323000,0.0324,0.013523,0.002678,0.000431,0.000470
22324000,0.0324,0.013523,0.002678,0.000431,0.000353
22325000,0.0324,0.013523,0.002678,0.000431,0.000235
22326000,0.0324,0.013523,0.002678,0.000431,0.000353
22327000,0.0324,0.013523,0.002678,0.000431,0.000470
22328000,0.0324,0.013523,0.002678,0.000431,0.000118
22329000,0.0324,0.013523,0.002678,0.000431,0.000353
22330000,0.0324,0.013523,0.002678,0.000431,0.000470
22331000,0.0324,0.013523,0.002678,0.000431,0.000353
22332000,0.0324,0.013523,0.002678,0.000431,0.000235
22333000,0.0324,0.013523,0.002678,0.000431,0.000353
22334000,0.0324,0.013523,0.002678,0.000431,0.000470
22335000,0.0324,0.013523,0.002678,0.000431,0.000118
22336000,0.0324,0.013523,0.002678,0.000431,0.000353
22337000,0.0324,0.013523,0.002678,0.000431,0.000470
22338000,0.0324,0.013523,0.002678,0.000431,0.000353
22339000,0.0324,0.013523,0.002678,0.000431,0.000235
22340000,0.0324,0.013523,0.002678,0.000431,0.000353
22341000,0.0324,0.013523,0.002678,0.000431,0.000353
22342000,0.0324,0.013523,0.002678,0.000431,0.000235
22343000,0.0324,0.013523,0.002678,0.000431,0.000353
22344000,0.0324,0.013523,0.002678,0.000431,0.000470
22345000,0.0324,0.013523,0.002678,0.000431,0.000353
22346000,0.0324,0.013523,0.002678,0.000431,0.000235
22347000,0.0324,0.013523,0.002678,0.000431,0.000353
22348000,0.0324,0.013523,0.002678,0.000431,0.000353
22349000,0.0324,0.013523,0.002678,0.000431,0.000235
22350000,0.0324,0.013523,0.002678,0.000431,0.000353
22351000,0.0324,0.013523,0.002678,0.000431,0.000470
22352000,0.0324,0.013523,0.002678,0.000431,0.000353
22353000,0.0324,0.013523,0.002678,0.000431,0.000235
22354000,0.0324,0.013523,0.002678,0.000431,0.000353
22355000,0.0324,0.013523,0.002678,0.000431,0.000353
22356000,0.0324,0.013523,0.002678,0.000431,0.000235
22357000,0.0324,0.013523,0.002678,0.000431,0.000353
22358000,0.0324,0.013523,0.002678,0.000431,0.000470
22359000,0.0324,0.013523,0.002678,0.000431,0.000353
22360000,0.0324,0.013523,0.002678,0.000431,0.000235
22361000,0.0324,0.013523,0.002678,0.000431,0.000353
22362000,0.0324,0.013523,0.002678,0.000431,0.000353
22363000,0.0324,0.013523,0.002678,0.000431,0.000235
22364000,0.0324,0.013523,0.002678,0.000431,0.000353
22365000,0.0324,0.013523,0.002678,0.000431,0.000470
22366000,0.0324,0.013523,0.002678,0.000431,0.000353
22367000,0.0324,0.013523,0.002678,0.000431,0.000235
22368000,0.0324,0.013523,0.002678,0.000431,0.000353
22369000,0.0324,0.013523,0.002678,0.000431,0.000353
22370000,0.0324,0.013523,0.002678,0.000431,0.000235
22371000,0.0324,0.013523,0.002678,0.000431,0.000353
22372000,0.0324,0.013523,0.002678,0.000431,0.000470
22373000,0.0324,0.013523,0.002678,0.000431,0.000353
22374000,0.0324,0.013523,0.002678,0.000431,0.000235
22375000,0.0324,0.013523,0.002678,0.000431,0.000353
22376000,0.0324,0.013523,0.002678,0.000431,0.000353
22377000,0.0324,0.013523,0.002678,0.000431,0.000235
22378000,0.0324,0.013523,0.002678,0.000431,0.000353
22379000,0.0324,0.013523,0.002678,0.000431,0.000470
22380000,0.0324,0.013523,0.002678,0.000431,0.000353
22381000,0.0324,0.013523,0.002678,0.000431,0.000235
22382000,0.0324,0.013523,0.002678,0.000431,0.000353
22383000,0.0324,0.013523,0.002678,0.000431,0.000353
22384000,0.0324,0.013523,0.002678,0.000431,0.000235
22385000,0.0324,0.013523,0.002678,0.000431,0.000353
22386000,0.0324,0.013523,0.002678,0.000431,0.000470
22387000,0.0324,0.013523,0.002678,0.000431,0.000353
22388000,0.0324,0.013523,0.002678,0.000431,0.000235
22389000,0.0324,0.013523,0.002678,0.000431,0.000353
22390000,0.0324,0.013523,0.002678,0.000431,0.000353
22391000,0.0324,0.013523,0.002678,0.000431,0.000235
22392000,0.0324,0.013523,0.002678,0.000431,0.000353
22393000,0.0324,0.013523,0.002678,0.000431,0.000470
22394000,0.0324,0.013523,0.002678,0.000431,0.000353
22395000,0.0324,0.013523,0.002678,0.000431,0.000118
22396000,0.0324,0.013523,0.002678,0.000431,0.000470
22397000,0.0324,0.013523,0.002678,0.000431,0.000353
22398000,0.0324,0.013523,0.002678,0.000431,0.000235
22399000,0.0324,0.013523,0.002678,0.000431,0.000353
22400000,0.0324,0.013523,0.002678,0.000431,0.000470
22401000,0.0324,0.013523,0.002678,0.000431,0.000353
22402000,0.0324,0.013523,0.002678,0.000431,0.000118
22403000,0.0324,0.013523,0.002678,0.000431,0.000470
22404000,0.0324,0.013523,0.002678,0.000431,0.000353
22405000,0.0324,0.013523,0.002678,0.000431,0.000235
22406000,0.0324,0.013523,0.002678,0.000431,0.000353
22407000,0.0324,0.013523,0.002678,0.000431,0.000470
22408000,0.0324,0.013523,0.002678,0.000431,0.000353
22409000,0.0324,0.013523,0.002678,0.000431,0.000118
22410000,0.0324,0.013523,0.002678,0.000431,0.000470
22411000,0.0324,0.013523,0.002678,0.000431,0.000353
22412000,0.0324,0.013523,0.002678,0.000431,0.000235
22413000,0.0324,0.013523,0.002678,0.000431,0.000353
22414000,0.0324,0.013523,0.002678,0.000431,0.000470
22415000,0.0324,0.013523,0.002678,0.000431,0.000235
22416000,0.0324,0.013523,0.002678,0.000431,0.000235
22417000,0.0324,0.013523,0.002678,0.000431,0.000470
22418000,0.0324,0.013523,0.002678,0.000431,0.000353
22419000,0.0324,0.013523,0.002678,0.000431,0.000235
22420000,0.0324,0.013523,0.002678,0.000431,0.000353
22421000,0.0324,0.013523,0.002678,0.000431,0.000470
22422000,0.0324,0.013523,0.002678,0.000431,0.000235
22423000,0.0324,0.013523,0.002678,0.000431,0.000235
22424000,0.0324,0.013523,0.002678,0.000431,0.000470
22425000,0.0324,0.013523,0.002678,0.000431,0.000353
22426000,0.0324,0.013523,0.002678,0.000431,0.000235
22427000,0.0324,0.013523,0.002678,0.000431,0.000353
22428000,0.0324,0.013523,0.002678,0.000431,0.000470
22429000,0.0324,0.013523,0.002678,0.000431,0.000235
22430000,0.0324,0.013523,0.002678,0.000431,0.000235
22431000,0.0324,0.013523,0.002678,0.000431,0.000470
22432000,0.0324,0.013523,0.002678,0.000431,0.000353
22433000,0.0324,0.013523,0.002678,0.000431,0.000235
22434000,0.0324,0.013523,0.002678,0.000431,0.000353
22435000,0.0324,0.013523,0.002678,0.000431,0.000470
22436000,0.0324,0.013523,0.002678,0.000431,0.000235
22437000,0.0324,0.013523,0.002678,0.000431,0.000235
22438000,0.0324,0.013523,0.002678,0.000431,0.000470
22439000,0.0324,0.013523,0.002678,0.000431,0.000353
22440000,0.0324,0.013523,0.002678,0.000431,0.000235
22441000,0.0324,0.013523,0.002678,0.000431,0.000353
22442000,0.0324,0.013523,0.002678,0.000431,0.000470
22443000,0.0324,0.013523,0.002678,0.000431,0.000235
22444000,0.0324,0.013523,0.002678,0.000431,0.000235
22445000,0.0324,0.013523,0.002678,0.000431,0.000470
22446000,0.0324,0.013523,0.002678,0.000431,0.000353
22447000,0.0324,0.013523,0.002678,0.000431,0.000235
22448000,0.0324,0.013523,0.002678,0.000431,0.000353
22449000,0.0324,0.013523,0.002678,0.000431,0.000470
22450000,0.0324,0.013523,0.002678,0.000431,0.000235
22451000,0.0324,0.013523,0.002678,0.000431,0.000235
22452000,0.0324,0.013523,0.002678,0.000431,0.000470
22453000,0.0324,0.013523,0.002678,0.000431,0.000353
22454000,0.0324,0.013523,0.002678,0.000431,0.000235
22455000,0.0324,0.013523,0.002678,0.000431,0.000353
22456000,0.0324,0.013523,0.002678,0.000431,0.000470
22457000,0.0324,0.013523,0.002678,0.000431,0.000118
22458000,0.0324,0.013523,0.002678,0.000431,0.000353
22459000,0.0324,0.013523,0.002678,0.000431,0.000470
22460000,0.0324,0.013523,0.002678,0.000431,0.000353
22461000,0.0324,0.013523,0.002678,0.000431,0.000235
22462000,0.0324,0.013523,0.002678,0.000431,0.000353
22463000,0.0324,0.013523,0.002678,0.000431,0.000470
22464000,0.0324,0.013523,0.002678,0.000431,0.000118
22465000,0.0324,0.013523,0.002678,0.000431,0.000353
22466000,0.0324,0.013523,0.002678,0.000431,0.000470
22467000,0.0324,0.013523,0.002678,0.000431,0.000353
22468000,0.0324,0.013523,0.002678,0.000431,0.000235
22469000,0.0324,0.013523,0.002678,0.000431,0.000353
22470000,0.0324,0.013523,0.002678,0.000431,0.000470
22471000,0.0324,0.013523,0.002678,0.000431,0.000118
22472000,0.0324,0.013523,0.002678,0.000431,0.000353
22473000,0.0324,0.013523,0.002678,0.000431,0.000470
22474000,0.0324,0.013523,0.002678,0.000431,0.000353
22475000,0.0324,0.013523,0.002678,0.000431,0.000235
22476000,0.0324,0.013523,0.002678,0.000431,0.000353
22477000,0.0324,0.013523,0.002678,0.000431,0.000470
22478000,0.0324,0.013523,0.002678,0.000431,0.000118
22479000,0.0324,0.013523,0.002678,0.000431,0.000353
22480000,0.0324,0.013523,0.002678,0.000431,0.000470
22481000,0.0324,0.013523,0.002678,0.000431,0.000353
22482000,0.0324,0.013523,0.002678,0.000431,0.000235
22483000,0.0324,0.013523,0.002678,0.000431,0.000353
22484000,0.0324,0.013523,0.002678,0.000431,0.000353
22485000,0.0324,0.013523,0.002678,0.000431,0.000235
22486000,0.0324,0.013523,0.002678,0.000431,0.000353
22487000,0.0324,0.013523,0.002678,0.000431,0.000470
22488000,0.0324,0.013523,0.002678,0.000431,0.000353
22489000,0.0324,0.013523,0.002678,0.000431,0.000235
22490000,0.0324,0.013523,0.002678,0.000431,0.000353
22491000,0.0324,0.013523,0.002678,0.000431,0.000353
22492000,0.0324,0.013523,0.002678,0.000431,0.000235
22493000,0.0324,0.013523,0.002678,0.000431,0.000353
22494000,0.0324,0.013523,0.002678,0.000431,0.000470
22495000,0.0324,0.013523,0.002678,0.000431,0.000353
22496000,0.0324,0.013523,0.002678,0.000431,0.000235
22497000,0.0324,0.013523,0.002678,0.000431,0.000353
22498000,0.0324,0.013523,0.002678,0.000431,0.000353
22499000,0.0324,0.013523,0.002678,0.000431,0.000235
22500000,0.0324,0.013523,0.002678,0.000431,0.000353
22501000,0.0324,0.013523,0.002678,0.000431,0.000470
22502000,0.0324,0.013523,0.002678,0.000431,0.000353
22503000,0.0324,0.013523,0.002678,0.000431,0.000235
22504000,0.0324,0.013523,0.002678,0.000431,0.000353
22505000,0.0324,0.013523,0.002678,0.000431,0.000353
22506000,0.0324,0.013523,0.002678,0.000431,0.000235
22507000,0.0324,0.013523,0.002678,0.000431,0.000353
22508000,0.0324,0.013523,0.002678,0.000431,0.000470
22509000,0.0324,0.013523,0.002678,0.000431,0.000353
22510000,0.0324,0.013523,0.002678,0.000431,0.000235
22511000,0.0324,0.013523,0.002678,0.000431,0.000353
22512000,0.0324,0.013523,0.002678,0.000431,0.000353
22513000,0.0324,0.013523,0.002678,0.000431,0.000235
22514000,0.0324,0.013523,0.002678,0.000431,0.000353
22515000,0.0324,0.013523,0.002678,0.000431,0.000470
22516000,0.0324,0.013523,0.002678,0.000431,0.000353
22517000,0.0324,0.013523,0.002678,0.000431,0.000235
22518000,0.0324,0.013523,0.002678,0.000431,0.000353
22519000,0.0324,0.013523,0.002678,0.000431,0.000353
22520000,0.0324,0.013523,0.002678,0.000431,0.000235
22521000,0.0324,0.013523,0.002678,0.000431,0.000353
22522000,0.0324,0.013523,0.002678,0.000431,0.000470
22523000,0.0324,0.013523,0.002678,0.000431,0.000353
22524000,0.0324,0.013523,0.002678,0.000431,0.000235
22525000,0.0324,0.013523,0.002678,0.000431,0.000353
22526000,0.0324,0.013523,0.002678,0.000431,0.000353
22527000,0.0324,0.013523,0.002678,0.000431,0.000235
22528000,0.0324,0.013523,0.002678,0.000431,0.000353
22529000,0.0324,0.013523,0.002678,0.000431,0.000470
22530000,0.0324,0.013523,0.002678,0.000431,0.000353
22531000,0.0324,0.013523,0.002678,0.000431,0.000235
22532000,0.0324,0.013523,0.002678,0.000431,0.000353
22533000,0.0324,0.013523,0.002678,0.000431,0.000353
22534000,0.0324,0.013523,0.002678,0.000431,0.000235
22535000,0.0324,0.013523,0.002678,0.000431,0.000353
22536000,0.0324,0.013523,0.002678,0.000431,0.000470
22537000,0.0324,0.013523,0.002678,0.000431,0.000353
22538000,0.0324,0.013523,0.002678,0.000431,0.000118
22539000,0.0324,0.013523,0.002678,0.000431,0.000470
22540000,0.0324,0.013523,0.002678,0.000431,0.000353
22541000,0.0324,0.013523,0.002678,0.000431,0.000235
22542000,0.0324,0.013523,0.002678,0.000431,0.000353
22543000,0.0324,0.013523,0.002678,0.000431,0.000470
22544000,0.0324,0.013523,0.002678,0.000431,0.000353
22545000,0.0324,0.013523,0.002678,0.000431,0.000118
22546000,0.0324,0.013523,0.002678,0.000431,0.000470
22547000,0.0324,0.013523,0.002678,0.000431,0.000353
22548000,0.0324,0.013523,0.002678,0.000431,0.000235
22549000,0.0324,0.013523,0.002678,0.000431,0.000353
22550000,0.0324,0.013523,0.002678,0.000431,0.000470
22551000,0.0324,0.013523,0.002678,0.000431,0.000353
22552000,0.0324,0.013523,0.002678,0.000431,0.000118
22553000,0.0324,0.013523,0.002678,0.000431,0.000470
22554000,0.0324,0.013523,0.002678,0.000431,0.000353
22555000,0.0324,0.013523,0.002678,0.000431,0.000235
22556000,0.0324,0.013523,0.002678,0.000431,0.000353
22557000,0.0324,0.013523,0.002678,0.000431,0.000470
22558000,0.0324,0.013523,0.002678,0.000431,0.000235
22559000,0.0324,0.013523,0.002678,0.000431,0.000235
22560000,0.0324,0.013523,0.002678,0.000431,0.000470
22561000,0.0324,0.013523,0.002678,0.000431,0.000353
22562000,0.0324,0.013523,0.002678,0.000431,0.000235
22563000,0.0324,0.013523,0.002678,0.000431,0.000353
22564000,0.0324,0.013523,0.002678,0.000431,0.000470
22565000,0.0324,0.013523,0.002678,0.000431,0.000235
22566000,0.0324,0.013523,0.002678,0.000431,0.000235
22567000,0.0324,0.013523,0.002678,0.000431,0.000470
22568000,0.0324,0.013523,0.002678,0.000431,0.000353
22569000,0.0324,0.013523,0.002678,0.000431,0.000235
22570000,0.0324,0.013523,0.002678,0.000431,0.000353
22571000,0.0324,0.013523,0.002678,0.000431,0.000470
22572000,0.0324,0.013523,0.002678,0.000431,0.000235
22573000,0.0324,0.013523,0.002678,0.000431,0.000235
22574000,0.0324,0.013523,0.002678,0.000431,0.000470
22575000,0.0324,0.013523,0.002678,0.000431,0.000353
22576000,0.0324,0.013523,0.002678,0.000431,0.000235
22577000,0.0324,0.013523,0.002678,0.000431,0.000353
22578000,0.0324,0.013523,0.002678,0.000431,0.000470
22579000,0.0324,0.013523,0.002678,0.000431,0.000235
22580000,0.0324,0.013523,0.002678,0.000431,0.000235
22581000,0.0324,0.013523,0.002678,0.000431,0.000470
22582000,0.0324,0.013523,0.002678,0.000431,0.000353
22583000,0.0324,0.013523,0.002678,0.000431,0.000235
22584000,0.0324,0.013523,0.002678,0.000431,0.000353
22585000,0.0324,0.013523,0.002678,0.000431,0.000470
22586000,0.0324,0.013523,0.002678,0.000431,0.000235
22587000,0.0324,0.013523,0.002678,0.000431,0.000235
22588000,0.0324,0.013523,0.002678,0.000431,0.000470
22589000,0.0324,0.013523,0.002678,0.000431,0.000353
22590000,0.0324,0.013523,0.002678,0.000431,0.000235
22591000,0.0324,0.013523,0.002678,0.000431,0.000353
22592000,0.0324,0.013523,0.002678,0.000431,0.000470
22593000,0.0324,0.013523,0.002678,0.000431,0.000235
22594000,0.0324,0.013523,0.002678,0.000431,0.000235
22595000,0.0324,0.013523,0.002678,0.000431,0.000470
22596000,0.0324,0.013523,0.002678,0.000431,0.000353
22597000,0.0324,0.013523,0.002678,0.000431,0.000235
22598000,0.0324,0.013523,0.002678,0.000431,0.000353
22599000,0.0324,0.013523,0.002678,0.000431,0.000470
22600000,0.0324,0.013523,0.002678,0.000431,0.000118
22601000,0.0324,0.013523,0.002678,0.000431,0.000353
22602000,0.0324,0.013523,0.002678,0.000431,0.000470
22603000,0.0324,0.013523,0.002678,0.000431,0.000353
22604000,0.0324,0.013523,0.002678,0.000431,0.000235
22605000,0.0324,0.013523,0.002678,0.000431,0.000353
22606000,0.0324,0.013523,0.002678,0.000431,0.000470
22607000,0.0324,0.013523,0.002678,0.000431,0.000118
22608000,0.0324,0.013523,0.002678,0.000431,0.000353
22609000,0.0324,0.013523,0.002678,0.000431,0.000470
22610000,0.0324,0.013523,0.002678,0.000431,0.000353
22611000,0.0324,0.013523,0.002678,0.000431,0.000235
22612000,0.0324,0.013523,0.002678,0.000431,0.000353
22613000,0.0324,0.013523,0.002678,0.000431,0.000470
22614000,0.0324,0.013523,0.002678,0.000431,0.000118
22615000,0.0324,0.013523,0.002678,0.000431,0.000353
22616000,0.0324,0.013523,0.002678,0.000431,0.000470
22617000,0.0324,0.013523,0.002678,0.000431,0.000353
22618000,0.0324,0.013523,0.002678,0.000431,0.000235
22619000,0.0324,0.013523,0.002678,0.000431,0.000353
22620000,0.0324,0.013523,0.002678,0.000431,0.000353
22621000,0.0324,0.013523,0.002678,0.000431,0.000235
22622000,0.0324,0.013523,0.002678,0.000431,0.000353
22623000,0.0324,0.013523,0.002678,0.000431,0.000470
22624000,0.0324,0.013523,0.002678,0.000431,0.000353
22625000,0.0324,0.013523,0.002678,0.000431,0.000235
22626000,0.0324,0.013523,0.002678,0.000431,0.000353
22627000,0.0324,0.013523,0.002678,0.000431,0.000353
22628000,0.0324,0.013523,0.002678,0.000431,0.000235
22629000,0.0324,0.013523,0.002678,0.000431,0.000353
22630000,0.0324,0.013523,0.002678,0.000431,0.000470
22631000,0.0324,0.013523,0.002678,0.000431,0.000353
22632000,0.0324,0.013523,0.002678,0.000431,0.000235
22633000,0.0324,0.013523,0.002678,0.000431,0.000353
22634000,0.0324,0.013523,0.002678,0.000431,0.000353
22635000,0.0324,0.013523,0.002678,0.000431,0.000235
22636000,0.0324,0.013523,0.002678,0.000431,0.000353
22637000,0.0324,0.013523,0.002678,0.000431,0.000470
22638000,0.0324,0.013523,0.002678,0.000431,0.000353
22639000,0.0324,0.013523,0.002678,0.000431,0.000235
22640000,0.0324,0.013523,0.002678,0.000431,0.000353
22641000,0.0324,0.013523,0.002678,0.000431,0.000353
22642000,0.0324,0.013523,0.002678,0.000431,0.000235
22643000,0.0324,0.013523,0.002678,0.000431,0.000353
22644000,0.0324,0.013523,0.002678,0.000431,0.000470
22645000,0.0324,0.013523,0.002678,0.000431,0.000353
22646000,0.0324,0.013523,0.002678,0.000431,0.000235
22647000,0.0324,0.013523,0.002678,0.000431,0.000353
22648000,0.0324,0.013523,0.002678,0.000431,0.000353
22649000,0.0324,0.013523,0.002678,0.000431,0.000235
22650000,0.0324,0.013523,0.002678,0.000431,0.000353
22651000,0.0324,0.013523,0.002678,0.000431,0.000470
22652000,0.0324,0.013523,0.002678,0.000431,0.000353
22653000,0.0324,0.013523,0.002678,0.000431,0.000235
22654000,0.0324,0.013523,0.002678,0.000431,0.000353
22655000,0.0324,0.013523,0.002678,0.000431,0.000353
22656000,0.0324,0.013523,0.002678,0.000431,0.000235
22657000,0.0324,0.013523,0.002678,0.000431,0.000353
22658000,0.0324,0.013523,0.002678,0.000431,0.000470
22659000,0.0324,0.013523,0.002678,0.000431,0.000353
22660000,0.0324,0.013523,0.002678,0.000431,0.000235
22661000,0.0324,0.013523,0.002678,0.000431,0.000353
22662000,0.0324,0.013523,0.002678,0.000431,0.000353
22663000,0.0324,0.013523,0.002678,0.000431,0.000235
22664000,0.0324,0.013523,0.002678,0.000431,0.000353
22665000,0.0324,0.013523,0.002678,0.000431,0.000470
22666000,0.0324,0.013523,0.002678,0.000431,0.000353
22667000,0.0324,0.013523,0.002678,0.000431,0.000235
22668000,0.0324,0.013523,0.002678,0.000431,0.000353
22669000,0.0324,0.013523,0.002678,0.000431,0.000353
22670000,0.0324,0.013523,0.002678,0.000431,0.000235
22671000,0.0324,0.013523,0.002678,0.000431,0.000353
22672000,0.0324,0.013523,0.002678,0.000431,0.000470
22673000,0.0324,0.013523,0.002678,0.000431,0.000353
22674000,0.0324,0.013523,0.002678,0.000431,0.000118
22675000,0.0324,0.013523,0.002678,0.000431,0.000470
22676000,0.0324,0.013523,0.002678,0.000431,0.000353
22677000,0.0324,0.013523,0.002678,0.000431,0.000235
22678000,0.0324,0.013523,0.002678,0.000431,0.000353
22679000,0.0324,0.013523,0.002678,0.000431,0.000470
22680000,0.0324,0.013523,0.002678,0.000431,0.000353
22681000,0.0324,0.013523,0.002678,0.000431,0.000118
22682000,0.0324,0.013523,0.002678,0.000431,0.000470
22683000,0.0324,0.013523,0.002678,0.000431,0.000353
22684000,0.0324,0.013523,0.002678,0.000431,0.000235
22685000,0.0324,0.013523,0.002678,0.000431,0.000353
22686000,0.0324,0.013523,0.002678,0.000431,0.000470
22687000,0.0324,0.013523,0.002678,0.000431,0.000353
22688000,0.0324,0.013523,0.002678,0.000431,0.000118
22689000,0.0324,0.013523,0.002678,0.000431,0.000470
22690000,0.0324,0.013523,0.002678,0.000431,0.000353
22691000,0.0324,0.013523,0.002678,0.000431,0.000235
22692000,0.0324,0.013523,0.002678,0.000431,0.000353
22693000,0.0324,0.013523,0.002678,0.000431,0.000470
22694000,0.0324,0.013523,0.002678,0.000431,0.000353
22695000,0.0324,0.013523,0.002678,0.000431,0.000118
22696000,0.0324,0.013523,0.002678,0.000431,0.000470
22697000,0.0324,0.013523,0.002678,0.000431,0.000353
22698000,0.0324,0.013523,0.002678,0.000431,0.000235
22699000,0.0324,0.013523,0.002678,0.000431,0.000353
22700000,0.0324,0.013523,0.002678,0.000431,0.000470
22701000,0.0324,0.013523,0.002678,0.000431,0.000235
22702000,0.0324,0.013523,0.002678,0.000431,0.000235
22703000,0.0324,0.013523,0.002678,0.000431,0.000470
22704000,0.0324,0.013523,0.002678,0.000431,0.000353
22705000,0.0324,0.013523,0.002678,0.000431,0.000235
22706000,0.0324,0.013523,0.002678,0.000431,0.000353
22707000,0.0324,0.013523,0.002678,0.000431,0.000470
22708000,0.0324,0.013523,0.002678,0.000431,0.000235
22709000,0.0324,0.013523,0.002678,0.000431,0.000235
22710000,0.0324,0.013523,0.002678,0.000431,0.000470
22711000,0.0324,0.013523,0.002678,0.000431,0.000353
22712000,0.0324,0.013523,0.002678,0.000431,0.000235
22713000,0.0324,0.013523,0.002678,0.000431,0.000353
22714000,0.0324,0.013523,0.002678,0.000431,0.000470
22715000,0.0324,0.013523,0.002678,0.000431,0.000235
22716000,0.0324,0.013523,0.002678,0.000431,0.000235
22717000,0.0324,0.013523,0.002678,0.000431,0.000470
22718000,0.0324,0.013523,0.002678,0.000431,0.000353
22719000,0.0324,0.013523,0.002678,0.000431,0.000235
22720000,0.0324,0.013523,0.002678,0.000431,0.000353
22721000,0.0324,0.013523,0.002678,0.000431,0.000470
22722000,0.0324,0.013523,0.002678,0.000431,0.000235
22723000,0.0324,0.013523,0.002678,0.000431,0.000235
22724000,0.0324,0.013523,0.002678,0.000431,0.000470
22725000,0.0324,0.013523,0.002678,0.000431,0.000353
22726000,0.0324,0.013523,0.002678,0.000431,0.000235
22727000,0.0324,0.013523,0.002678,0.000431,0.000353
22728000,0.0324,0.013523,0.002678,0.000431,0.000470
22729000,0.0324,0.013523,0.002678,0.000431,0.000235
22730000,0.0324,0.013523,0.002678,0.000431,0.000235
22731000,0.0324,0.013523,0.002678,0.000431,0.000470
22732000,0.0324,0.013523,0.002678,0.000431,0.000353
22733000,0.0324,0.013523,0.002678,0.000431,0.000235
22734000,0.0324,0.013523,0.002678,0.000431,0.000353
22735000,0.0324,0.013523,0.002678,0.000431,0.000470
22736000,0.0324,0.013523,0.002678,0.000431,0.000235
22737000,0.0324,0.013523,0.002678,0.000431,0.000235
22738000,0.0324,0.013523,0.002678,0.000431,0.000470
22739000,0.0324,0.013523,0.002678,0.000431,0.000353
22740000,0.0324,0.013523,0.002678,0.000431,0.000235
22741000,0.0324,0.013523,0.002678,0.000431,0.000353
22742000,0.0324,0.013523,0.002678,0.000431,0.000470
22743000,0.0324,0.013523,0.002678,0.000431,0.000118
22744000,0.0324,0.013523,0.002678,0.000431,0.000353
22745000,0.0324,0.013523,0.002678,0.000431,0.000470
22746000,0.0324,0.013523,0.002678,0.000431,0.000353
22747000,0.0324,0.013523,0.002678,0.000431,0.000235
22748000,0.0324,0.013523,0.002678,0.000431,0.000353
22749000,0.0324,0.013523,0.002678,0.000431,0.000470
22750000,0.0324,0.013523,0.002678,0.000431,0.000118
22751000,0.0324,0.013523,0.002678,0.000431,0.000353
22752000,0.0324,0.013523,0.002678,0.000431,0.000470
22753000,0.0324,0.013523,0.002678,0.000431,0.000353
22754000,0.0324,0.013523,0.002678,0.000431,0.000235
22755000,0.0324,0.013523,0.002678,0.000431,0.000353
22756000,0.0324,0.013523,0.002678,0.000431,0.000470
22757000,0.0324,0.013523,0.002678,0.000431,0.000118
22758000,0.0324,0.013523,0.002678,0.000431,0.000353
22759000,0.0324,0.013523,0.002678,0.000431,0.000470
22760000,0.0324,0.013523,0.002678,0.000431,0.000353
22761000,0.0324,0.013523,0.002678,0.000431,0.000235
22762000,0.0324,0.013523,0.002678,0.000431,0.000353
22763000,0.0324,0.013523,0.002678,0.000431,0.000353
22764000,0.0324,0.013523,0.002678,0.000431,0.000235
22765000,0.0324,0.013523,0.002678,0.000431,0.000353
22766000,0.0324,0.013523,0.002678,0.000431,0.000470
22767000,0.0324,0.013523,0.002678,0.000431,0.000353
22768000,0.0324,0.013523,0.002678,0.000431,0.000235
22769000,0.0324,0.013523,0.002678,0.000431,0.000353
22770000,0.0324,0.013523,0.002678,0.000431,0.000353
22771000,0.0324,0.013523,0.002678,0.000431,0.000235
22772000,0.0324,0.013523,0.002678,0.000431,0.000353
22773000,0.0324,0.013523,0.002678,0.000431,0.000470
22774000,0.0324,0.013523,0.002678,0.000431,0.000353
22775000,0.0324,0.013523,0.002678,0.000431,0.000235
22776000,0.0324,0.013523,0.002678,0.000431,0.000353
22777000,0.0324,0.013523,0.002678,0.000431,0.000353
22778000,0.0324,0.013523,0.002678,0.000431,0.000235
22779000,0.0324,0.013523,0.002678,0.000431,0.000353
22780000,0.0324,0.013523,0.002678,0.000431,0.000470
22781000,0.0324,0.013523,0.002678,0.000431,0.000353
22782000,0.0324,0.013523,0.002678,0.000431,0.000235
22783000,0.0324,0.013523,0.002678,0.000431,0.000353
22784000,0.0324,0.013523,0.002678,0.000431,0.000353
22785000,0.0324,0.013523,0.002678,0.000431,0.000235
22786000,0.0324,0.013523,0.002678,0.000431,0.000353
22787000,0.0324,0.013523,0.002678,0.000431,0.000470
22788000,0.0324,0.013523,0.002678,0.000431,0.000353
22789000,0.0324,0.013523,0.002678,0.000431,0.000235
22790000,0.0324,0.013523,0.002678,0.000431,0.000353
22791000,0.0324,0.013523,0.002678,0.000431,0.000353
22792000,0.0324,0.013523,0.002678,0.000431,0.000235
22793000,0.0324,0.013523,0.002678,0.000431,0.000353
22794000,0.0324,0.013523,0.002678,0.000431,0.000470
22795000,0.0324,0.013523,0.002678,0.000431,0.000353
22796000,0.0324,0.013523,0.002678,0.000431,0.000235
22797000,0.0324,0.013523,0.002678,0.000431,0.000353
22798000,0.0324,0.013523,0.002678,0.000431,0.000353
22799000,0.0324,0.013523,0.002678,0.000431,0.000235
22800000,0.0324,0.013523,0.002678,0.000431,0.000353
22801000,0.0324,0.013523,0.002678,0.000431,0.000470
22802000,0.0324,0.013523,0.002678,0.000431,0.000353
22803000,0.0324,0.013523,0.002678,0.000431,0.000235
22804000,0.0324,0.013523,0.002678,0.000431,0.000353
22805000,0.0324,0.013523,0.002678,0.000431,0.000353
22806000,0.0324,0.013523,0.002678,0.000431,0.000235
22807000,0.0324,0.013523,0.002678,0.000431,0.000353
22808000,0.0324,0.013523,0.002678,0.000431,0.000470
22809000,0.0324,0.013523,0.002678,0.000431,0.000353
22810000,0.0324,0.013523,0.002678,0.000431,0.000235
22811000,0.0324,0.013523,0.002678,0.000431,0.000353
22812000,0.0324,0.013523,0.002678,0.000431,0.000353
22813000,0.0324,0.013523,0.002678,0.000431,0.000235
22814000,0.0324,0.013523,0.002678,0.000431,0.000353
22815000,0.0324,0.013523,0.002678,0.000431,0.000470
22816000,0.0324,0.013523,0.002678,0.000431,0.000353
22817000,0.0324,0.013523,0.002678,0.000431,0.000118
22818000,0.0324,0.013523,0.002678,0.000431,0.000470
22819000,0.0324,0.013523,0.002678,0.000431,0.000353
22820000,0.0324,0.013523,0.002678,0.000431,0.000235
22821000,0.0324,0.013523,0.002678,0.000431,0.000353
22822000,0.0324,0.013523,0.002678,0.000431,0.000470
22823000,0.0324,0.013523,0.002678,0.000431,0.000353
22824000,0.0324,0.013523,0.002678,0.000431,0.000118
22825000,0.0324,0.013523,0.002678,0.000431,0.000470
22826000,0.0324,0.013523,0.002678,0.000431,0.000353
22827000,0.0324,0.013523,0.002678,0.000431,0.000235
22828000,0.0324,0.013523,0.002678,0.000431,0.000353
22829000,0.0324,0.013523,0.002678,0.000431,0.000470
22830000,0.0324,0.013523,0.002678,0.000431,0.000353
22831000,0.0324,0.013523,0.002678,0.000431,0.000118
22832000,0.0324,0.013523,0.002678,0.000431,0.000470
22833000,0.0324,0.013523,0.002678,0.000431,0.000353
22834000,0.0324,0.013523,0.002678,0.000431,0.000235
22835000,0.0324,0.013523,0.002678,0.000431,0.000353
22836000,0.0324,0.013523,0.002678,0.000431,0.000470
22837000,0.0324,0.013523,0.002678,0.000431,0.000235
22838000,0.0324,0.013523,0.002678,0.000431,0.000235
22839000,0.0324,0.013523,0.002678,0.000431,0.000470
22840000,0.0324,0.013523,0.002678,0.000431,0.000353
22841000,0.0324,0.013523,0.002678,0.000431,0.000235
22842000,0.0324,0.013523,0.002678,0.000431,0.000353
22843000,0.0324,0.013523,0.002678,0.000431,0.000470
22844000,0.0324,0.013523,0.002678,0.000431,0.000235
22845000,0.0324,0.013523,0.002678,0.000431,0.000235
22846000,0.0324,0.013523,0.002678,0.000431,0.000470
22847000,0.0324,0.013523,0.002678,0.000431,0.000353
22848000,0.0324,0.013523,0.002678,0.000431,0.000235
22849000,0.0324,0.013523,0.002678,0.000431,0.000353
22850000,0.0324,0.013523,0.002678,0.000431,0.000470
22851000,0.0324,0.013523,0.002678,0.000431,0.000235
22852000,0.0324,0.013523,0.002678,0.000431,0.000235
22853000,0.0324,0.013523,0.002678,0.000431,0.000470
22854000,0.0324,0.013523,0.002678,0.000431,0.000353
22855000,0.0324,0.013523,0.002678,0.000431,0.000235
22856000,0.0324,0.013523,0.002678,0.000431,0.000353
22857000,0.0324,0.013523,0.002678,0.000431,0.000470
22858000,0.0324,0.013523,0.002678,0.000431,0.000235
22859000,0.0324,0.013523,0.002678,0.000431,0.000235
22860000,0.0324,0.013523,0.002678,0.000431,0.000470
22861000,0.0324,0.013523,0.002678,0.000431,0.000353
22862000,0.0324,0.013523,0.002678,0.000431,0.000235
22863000,0.0324,0.013523,0.002678,0.000431,0.000353
22864000,0.0324,0.013523,0.002678,0.000431,0.000470
22865000,0.0324,0.013523,0.002678,0.000431,0.000235
22866000,0.0324,0.013523,0.002678,0.000431,0.000235
22867000,0.0324,0.013523,0.002678,0.000431,0.000470
22868000,0.0324,0.013523,0.002678,0.000431,0.000353
22869000,0.0324,0.013523,0.002678,0.000431,0.000235
22870000,0.0324,0.013523,0.002678,0.000431,0.000353
22871000,0.0324,0.013523,0.002678,0.000431,0.000470
22872000,0.0324,0.013523,0.002678,0.000431,0.000235
22873000,0.0324,0.013523,0.002678,0.000431,0.000235
22874000,0.0324,0.013523,0.002678,0.000431,0.000470
22875000,0.0324,0.013523,0.002678,0.000431,0.000353
22876000,0.0324,0.013523,0.002678,0.000431,0.000235
22877000,0.0324,0.013523,0.002678,0.000431,0.000353
22878000,0.0324,0.013523,0.002678,0.000431,0.000470
22879000,0.0324,0.013523,0.002678,0.000431,0.000118
22880000,0.0324,0.013523,0.002678,0.000431,0.000353
22881000,0.0324,0.013523,0.002678,0.000431,0.000470
22882000,0.0324,0.013523,0.002678,0.000431,0.000353
22883000,0.0324,0.013523,0.002678,0.000431,0.000235
22884000,0.0324,0.013523,0.002678,0.000431,0.000353
22885000,0.0324,0.013523,0.002678,0.000431,0.000470
22886000,0.0324,0.013523,0.002678,0.000431,0.000118
22887000,0.0324,0.013523,0.002678,0.000431,0.000353
22888000,0.0324,0.013523,0.002678,0.000431,0.000470
22889000,0.0324,0.013523,0.002678,0.000431,0.000353
22890000,0.0324,0.013523,0.002678,0.000431,0.000235
22891000,0.0324,0.013523,0.002678,0.000431,0.000353
22892000,0.0324,0.013523,0.002678,0.000431,0.000470
22893000,0.0324,0.013523,0.002678,0.000431,0.000118
22894000,0.0324,0.013523,0.002678,0.000431,0.000353
22895000,0.0324,0.013523,0.002678,0.000431,0.000470
22896000,0.0324,0.013523,0.002678,0.000431,0.000353
22897000,0.0324,0.013523,0.002678,0.000431,0.000235
22898000,0.0324,0.013523,0.002678,0.000431,0.000353
22899000,0.0324,0.013523,0.002678,0.000431,0.000470
22900000,0.0324,0.013523,0.002678,0.000431,0.000118
22901000,0.0324,0.013523,0.002678,0.000431,0.000353
22902000,0.0324,0.013523,0.002678,0.000431,0.000470
22903000,0.0324,0.013523,0.002678,0.000431,0.000353
22904000,0.0324,0.013523,0.002678,0.000431,0.000235
22905000,0.0324,0.013523,0.002678,0.000431,0.000353
22906000,0.0324,0.013523,0.002678,0.000431,0.000353
22907000,0.0324,0.013523,0.002678,0.000431,0.000235
22908000,0.0324,0.013523,0.002678,0.000431,0.000353
22909000,0.0324,0.013523,0.002678,0.000431,0.000470
22910000,0.0324,0.013523,0.002678,0.000431,0.000353
22911000,0.0324,0.013523,0.002678,0.000431,0.000235
22912000,0.0324,0.013523,0.002678,0.000431,0.000353
22913000,0.0324,0.013523,0.002678,0.000431,0.000353
22914000,0.0324,0.013523,0.002678,0.000431,0.000235
22915000,0.0324,0.013523,0.002678,0.000431,0.000353
22916000,0.0324,0.013523,0.002678,0.000431,0.000470
22917000,0.0324,0.013523,0.002678,0.000431,0.000353
22918000,0.0324,0.013523,0.002678,0.000431,0.000235
22919000,0.0324,0.013523,0.002678,0.000431,0.000353
22920000,0.0324,0.013523,0.002678,0.000431,0.000353
22921000,0.0324,0.013523,0.002678,0.000431,0.000235
22922000,0.0324,0.013523,0.002678,0.000431,0.000353
22923000,0.0324,0.013523,0.002678,0.000431,0.000470
22924000,0.0324,0.013523,0.002678,0.000431,0.000353
22925000,0.0324,0.013523,0.002678,0.000431,0.000235
22926000,0.0324,0.013523,0.002678,0.000431,0.000353
22927000,0.0324,0.013523,0.002678,0.000431,0.000353
22928000,0.0324,0.013523,0.002678,0.000431,0.000235
22929000,0.0324,0.013523,0.002678,0.000431,0.000353
22930000,0.0324,0.013523,0.002678,0.000431,0.000470
22931000,0.0324,0.013523,0.002678,0.000431,0.000353
22932000,0.0324,0.013523,0.002678,0.000431,0.000235
22933000,0.0324,0.013523,0.002678,0.000431,0.000353
22934000,0.0324,0.013523,0.002678,0.000431,0.000353
22935000,0.0324,0.013523,0.002678,0.000431,0.000235
22936000,0.0324,0.013523,0.002678,0.000431,0.000353
22937000,0.0324,0.013523,0.002678,0.000431,0.000470
22938000,0.0324,0.013523,0.002678,0.000431,0.000353
22939000,0.0324,0.013523,0.002678,0.000431,0.000235
22940000,0.0324,0.013523,0.002678,0.000431,0.000353
22941000,0.0324,0.013523,0.002678,0.000431,0.000353
22942000,0.0324,0.013523,0.002678,0.000431,0.000235
22943000,0.0324,0.013523,0.002678,0.000431,0.000353
22944000,0.0324,0.013523,0.002678,0.000431,0.000470
22945000,0.0324,0.013523,0.002678,0.000431,0.000353
22946000,0.0324,0.013523,0.002678,0.000431,0.000235
22947000,0.0324,0.013523,0.002678,0.000431,0.000353
22948000,0.0324,0.013523,0.002678,0.000431,0.000353
22949000,0.0324,0.013523,0.002678,0.000431,0.000235
22950000,0.0324,0.013523,0.002678,0.000431,0.000353
22951000,0.0324,0.013523,0.002678,0.000431,0.000470
22952000,0.0324,0.013523,0.002678,0.000431,0.000353
22953000,0.0324,0.013523,0.002678,0.000431,0.000118
22954000,0.0324,0.013523,0.002678,0.000431,0.000470
22955000,0.0324,0.013523,0.002678,0.000431,0.000353
22956000,0.0324,0.013523,0.002678,0.000431,0.000235
22957000,0.0324,0.013523,0.002678,0.000431,0.000353
22958000,0.0324,0.013523,0.002678,0.000431,0.000470
22959000,0.0324,0.013523,0.002678,0.000431,0.000353
22960000,0.0324,0.013523,0.002678,0.000431,0.000118
22961000,0.0324,0.013523,0.002678,0.000431,0.000470
22962000,0.0324,0.013523,0.002678,0.000431,0.000353
22963000,0.0324,0.013523,0.002678,0.000431,0.000235
22964000,0.0324,0.013523,0.002678,0.000431,0.000353
22965000,0.0324,0.013523,0.002678,0.000431,0.000470
22966000,0.0324,0.013523,0.002678,0.000431,0.000353
22967000,0.0324,0.013523,0.002678,0.000431,0.000118
22968000,0.0324,0.013523,0.002678,0.000431,0.000470
22969000,0.0324,0.013523,0.002678,0.000431,0.000353
22970000,0.0324,0.013523,0.002678,0.000431,0.000235
22971000,0.0324,0.013523,0.002678,0.000431,0.000353
22972000,0.0324,0.013523,0.002678,0.000431,0.000470
22973000,0.0324,0.013523,0.002678,0.000431,0.000353
22974000,0.0324,0.013523,0.002678,0.000431,0.000118
22975000,0.0324,0.013523,0.002678,0.000431,0.000470
22976000,0.0324,0.013523,0.002678,0.000431,0.000353
22977000,0.0324,0.013523,0.002678,0.000431,0.000235
22978000,0.0324,0.013523,0.002678,0.000431,0.000353
22979000,0.0324,0.013523,0.002678,0.000431,0.000470
22980000,0.0324,0.013523,0.002678,0.000431,0.000235
22981000,0.0324,0.013523,0.002678,0.000431,0.000235
22982000,0.0324,0.013523,0.002678,0.000431,0.000470
22983000,0.0324,0.013523,0.002678,0.000431,0.000353
22984000,0.0324,0.013523,0.002678,0.000431,0.000235
22985000,0.0324,0.013523,0.002678,0.000431,0.000353
22986000,0.0324,0.013523,0.002678,0.000431,0.000470
22987000,0.0324,0.013523,0.002678,0.000431,0.000235
22988000,0.0324,0.013523,0.002678,0.000431,0.000235
22989000,0.0324,0.013523,0.002678,0.000431,0.000470
22990000,0.0324,0.013523,0.002678,0.000431,0.000353
22991000,0.0324,0.013523,0.002678,0.000431,0.000235
22992000,0.0324,0.013523,0.002678,0.000431,0.000353
22993000,0.0324,0.013523,0.002678,0.000431,0.000470
22994000,0.0324,0.013523,0.002678,0.000431,0.000235
22995000,0.0324,0.013523,0.002678,0.000431,0.000235
22996000,0.0324,0.013523,0.002678,0.000431,0.000470
22997000,0.0324,0.013523,0.002678,0.000431,0.000353
22998000,0.0324,0.013523,0.002678,0.000431,0.000235
22999000,0.0324,0.013523,0.002678,0.000431,0.000353
