Cycle,Area(mm^2),PeakDynamic(W),SubthresholdLeakage(W),GateLeakage(W),RunTimeDynamic(W)
25000000,0.0324,0.013523,0.002678,0.000431,0.000353
25001000,0.0324,0.013523,0.002678,0.000431,0.000235
25002000,0.0324,0.013523,0.002678,0.000431,0.000353
25003000,0.0324,0.013523,0.002678,0.000431,0.000470
25004000,0.0324,0.013523,0.002678,0.000431,0.000235
25005000,0.0324,0.013523,0.002678,0.000431,0.000235
25006000,0.0324,0.013523,0.002678,0.000431,0.000470
25007000,0.0324,0.013523,0.002678,0.000431,0.000353
25008000,0.0324,0.013523,0.002678,0.000431,0.000235
25009000,0.0324,0.013523,0.002678,0.000431,0.000353
25010000,0.0324,0.013523,0.002678,0.000431,0.000470
25011000,0.0324,0.013523,0.002678,0.000431,0.000235
25012000,0.0324,0.013523,0.002678,0.000431,0.000235
25013000,0.0324,0.013523,0.002678,0.000431,0.000470
25014000,0.0324,0.013523,0.002678,0.000431,0.000353
25015000,0.0324,0.013523,0.002678,0.000431,0.000235
25016000,0.0324,0.013523,0.002678,0.000431,0.000353
25017000,0.0324,0.013523,0.002678,0.000431,0.000470
25018000,0.0324,0.013523,0.002678,0.000431,0.000235
25019000,0.0324,0.013523,0.002678,0.000431,0.000235
25020000,0.0324,0.013523,0.002678,0.000431,0.000470
25021000,0.0324,0.013523,0.002678,0.000431,0.000353
25022000,0.0324,0.013523,0.002678,0.000431,0.000235
25023000,0.0324,0.013523,0.002678,0.000431,0.000353
25024000,0.0324,0.013523,0.002678,0.000431,0.000470
25025000,0.0324,0.013523,0.002678,0.000431,0.000235
25026000,0.0324,0.013523,0.002678,0.000431,0.000235
25027000,0.0324,0.013523,0.002678,0.000431,0.000470
25028000,0.0324,0.013523,0.002678,0.000431,0.000353
25029000,0.0324,0.013523,0.002678,0.000431,0.000235
25030000,0.0324,0.013523,0.002678,0.000431,0.000353
25031000,0.0324,0.013523,0.002678,0.000431,0.000470
25032000,0.0324,0.013523,0.002678,0.000431,0.000235
25033000,0.0324,0.013523,0.002678,0.000431,0.000235
25034000,0.0324,0.013523,0.002678,0.000431,0.000470
25035000,0.0324,0.013523,0.002678,0.000431,0.000353
25036000,0.0324,0.013523,0.002678,0.000431,0.000235
25037000,0.0324,0.013523,0.002678,0.000431,0.000353
25038000,0.0324,0.013523,0.002678,0.000431,0.000470
25039000,0.0324,0.013523,0.002678,0.000431,0.000235
25040000,0.0324,0.013523,0.002678,0.000431,0.000235
25041000,0.0324,0.013523,0.002678,0.000431,0.000470
25042000,0.0324,0.013523,0.002678,0.000431,0.000353
25043000,0.0324,0.013523,0.002678,0.000431,0.000235
25044000,0.0324,0.013523,0.002678,0.000431,0.000353
25045000,0.0324,0.013523,0.002678,0.000431,0.000470
25046000,0.0324,0.013523,0.002678,0.000431,0.000118
25047000,0.0324,0.013523,0.002678,0.000431,0.000353
25048000,0.0324,0.013523,0.002678,0.000431,0.000470
25049000,0.0324,0.013523,0.002678,0.000431,0.000353
25050000,0.0324,0.013523,0.002678,0.000431,0.000235
25051000,0.0324,0.013523,0.002678,0.000431,0.000353
25052000,0.0324,0.013523,0.002678,0.000431,0.000470
25053000,0.0324,0.013523,0.002678,0.000431,0.000118
25054000,0.0324,0.013523,0.002678,0.000431,0.000353
25055000,0.0324,0.013523,0.002678,0.000431,0.000470
25056000,0.0324,0.013523,0.002678,0.000431,0.000353
25057000,0.0324,0.013523,0.002678,0.000431,0.000235
25058000,0.0324,0.013523,0.002678,0.000431,0.000353
25059000,0.0324,0.013523,0.002678,0.000431,0.000470
25060000,0.0324,0.013523,0.002678,0.000431,0.000118
25061000,0.0324,0.013523,0.002678,0.000431,0.000353
25062000,0.0324,0.013523,0.002678,0.000431,0.000470
25063000,0.0324,0.013523,0.002678,0.000431,0.000353
25064000,0.0324,0.013523,0.002678,0.000431,0.000235
25065000,0.0324,0.013523,0.002678,0.000431,0.000353
25066000,0.0324,0.013523,0.002678,0.000431,0.000470
25067000,0.0324,0.013523,0.002678,0.000431,0.000118
25068000,0.0324,0.013523,0.002678,0.000431,0.000353
25069000,0.0324,0.013523,0.002678,0.000431,0.000470
25070000,0.0324,0.013523,0.002678,0.000431,0.000353
25071000,0.0324,0.013523,0.002678,0.000431,0.000235
25072000,0.0324,0.013523,0.002678,0.000431,0.000353
25073000,0.0324,0.013523,0.002678,0.000431,0.000353
25074000,0.0324,0.013523,0.002678,0.000431,0.000235
25075000,0.0324,0.013523,0.002678,0.000431,0.000353
25076000,0.0324,0.013523,0.002678,0.000431,0.000470
25077000,0.0324,0.013523,0.002678,0.000431,0.000353
25078000,0.0324,0.013523,0.002678,0.000431,0.000235
25079000,0.0324,0.013523,0.002678,0.000431,0.000353
25080000,0.0324,0.013523,0.002678,0.000431,0.000353
25081000,0.0324,0.013523,0.002678,0.000431,0.000235
25082000,0.0324,0.013523,0.002678,0.000431,0.000353
25083000,0.0324,0.013523,0.002678,0.000431,0.000470
25084000,0.0324,0.013523,0.002678,0.000431,0.000353
25085000,0.0324,0.013523,0.002678,0.000431,0.000235
25086000,0.0324,0.013523,0.002678,0.000431,0.000353
25087000,0.0324,0.013523,0.002678,0.000431,0.000353
25088000,0.0324,0.013523,0.002678,0.000431,0.000235
25089000,0.0324,0.013523,0.002678,0.000431,0.000353
25090000,0.0324,0.013523,0.002678,0.000431,0.000470
25091000,0.0324,0.013523,0.002678,0.000431,0.000353
25092000,0.0324,0.013523,0.002678,0.000431,0.000235
25093000,0.0324,0.013523,0.002678,0.000431,0.000353
25094000,0.0324,0.013523,0.002678,0.000431,0.000353
25095000,0.0324,0.013523,0.002678,0.000431,0.000235
25096000,0.0324,0.013523,0.002678,0.000431,0.000353
25097000,0.0324,0.013523,0.002678,0.000431,0.000470
25098000,0.0324,0.013523,0.002678,0.000431,0.000353
25099000,0.0324,0.013523,0.002678,0.000431,0.000235
25100000,0.0324,0.013523,0.002678,0.000431,0.000353
25101000,0.0324,0.013523,0.002678,0.000431,0.000353
25102000,0.0324,0.013523,0.002678,0.000431,0.000235
25103000,0.0324,0.013523,0.002678,0.000431,0.000353
25104000,0.0324,0.013523,0.002678,0.000431,0.000470
25105000,0.0324,0.013523,0.002678,0.000431,0.000353
25106000,0.0324,0.013523,0.002678,0.000431,0.000235
25107000,0.0324,0.013523,0.002678,0.000431,0.000353
25108000,0.0324,0.013523,0.002678,0.000431,0.000353
25109000,0.0324,0.013523,0.002678,0.000431,0.000235
25110000,0.0324,0.013523,0.002678,0.000431,0.000353
25111000,0.0324,0.013523,0.002678,0.000431,0.000470
25112000,0.0324,0.013523,0.002678,0.000431,0.000353
25113000,0.0324,0.013523,0.002678,0.000431,0.000235
25114000,0.0324,0.013523,0.002678,0.000431,0.000353
25115000,0.0324,0.013523,0.002678,0.000431,0.000353
25116000,0.0324,0.013523,0.002678,0.000431,0.000235
25117000,0.0324,0.013523,0.002678,0.000431,0.000353
25118000,0.0324,0.013523,0.002678,0.000431,0.000470
25119000,0.0324,0.013523,0.002678,0.000431,0.000353
25120000,0.0324,0.013523,0.002678,0.000431,0.000118
25121000,0.0324,0.013523,0.002678,0.000431,0.000470
25122000,0.0324,0.013523,0.002678,0.000431,0.000353
25123000,0.0324,0.013523,0.002678,0.000431,0.000235
25124000,0.0324,0.013523,0.002678,0.000431,0.000353
25125000,0.0324,0.013523,0.002678,0.000431,0.000470
25126000,0.0324,0.013523,0.002678,0.000431,0.000353
25127000,0.0324,0.013523,0.002678,0.000431,0.000118
25128000,0.0324,0.013523,0.002678,0.000431,0.000470
25129000,0.0324,0.013523,0.002678,0.000431,0.000353
25130000,0.0324,0.013523,0.002678,0.000431,0.000235
25131000,0.0324,0.013523,0.002678,0.000431,0.000353
25132000,0.0324,0.013523,0.002678,0.000431,0.000470
25133000,0.0324,0.013523,0.002678,0.000431,0.000353
25134000,0.0324,0.013523,0.002678,0.000431,0.000118
25135000,0.0324,0.013523,0.002678,0.000431,0.000470
25136000,0.0324,0.013523,0.002678,0.000431,0.000353
25137000,0.0324,0.013523,0.002678,0.000431,0.000235
25138000,0.0324,0.013523,0.002678,0.000431,0.000353
25139000,0.0324,0.013523,0.002678,0.000431,0.000470
25140000,0.0324,0.013523,0.002678,0.000431,0.000353
25141000,0.0324,0.013523,0.002678,0.000431,0.000118
25142000,0.0324,0.013523,0.002678,0.000431,0.000470
25143000,0.0324,0.013523,0.002678,0.000431,0.000353
25144000,0.0324,0.013523,0.002678,0.000431,0.000235
25145000,0.0324,0.013523,0.002678,0.000431,0.000353
25146000,0.0324,0.013523,0.002678,0.000431,0.000470
25147000,0.0324,0.013523,0.002678,0.000431,0.000235
25148000,0.0324,0.013523,0.002678,0.000431,0.000235
25149000,0.0324,0.013523,0.002678,0.000431,0.000470
25150000,0.0324,0.013523,0.002678,0.000431,0.000353
25151000,0.0324,0.013523,0.002678,0.000431,0.000235
25152000,0.0324,0.013523,0.002678,0.000431,0.000353
25153000,0.0324,0.013523,0.002678,0.000431,0.000470
25154000,0.0324,0.013523,0.002678,0.000431,0.000235
25155000,0.0324,0.013523,0.002678,0.000431,0.000235
25156000,0.0324,0.013523,0.002678,0.000431,0.000470
25157000,0.0324,0.013523,0.002678,0.000431,0.000353
25158000,0.0324,0.013523,0.002678,0.000431,0.000235
25159000,0.0324,0.013523,0.002678,0.000431,0.000353
25160000,0.0324,0.013523,0.002678,0.000431,0.000470
25161000,0.0324,0.013523,0.002678,0.000431,0.000235
25162000,0.0324,0.013523,0.002678,0.000431,0.000235
25163000,0.0324,0.013523,0.002678,0.000431,0.000470
25164000,0.0324,0.013523,0.002678,0.000431,0.000353
25165000,0.0324,0.013523,0.002678,0.000431,0.000235
25166000,0.0324,0.013523,0.002678,0.000431,0.000353
25167000,0.0324,0.013523,0.002678,0.000431,0.000470
25168000,0.0324,0.013523,0.002678,0.000431,0.000235
25169000,0.0324,0.013523,0.002678,0.000431,0.000235
25170000,0.0324,0.013523,0.002678,0.000431,0.000470
25171000,0.0324,0.013523,0.002678,0.000431,0.000353
25172000,0.0324,0.013523,0.002678,0.000431,0.000235
25173000,0.0324,0.013523,0.002678,0.000431,0.000353
25174000,0.0324,0.013523,0.002678,0.000431,0.000470
25175000,0.0324,0.013523,0.002678,0.000431,0.000235
25176000,0.0324,0.013523,0.002678,0.000431,0.000235
25177000,0.0324,0.013523,0.002678,0.000431,0.000470
25178000,0.0324,0.013523,0.002678,0.000431,0.000353
25179000,0.0324,0.013523,0.002678,0.000431,0.000235
25180000,0.0324,0.013523,0.002678,0.000431,0.000353
25181000,0.0324,0.013523,0.002678,0.000431,0.000470
25182000,0.0324,0.013523,0.002678,0.000431,0.000235
25183000,0.0324,0.013523,0.002678,0.000431,0.000235
25184000,0.0324,0.013523,0.002678,0.000431,0.000470
25185000,0.0324,0.013523,0.002678,0.000431,0.000353
25186000,0.0324,0.013523,0.002678,0.000431,0.000235
25187000,0.0324,0.013523,0.002678,0.000431,0.000353
25188000,0.0324,0.013523,0.002678,0.000431,0.000470
25189000,0.0324,0.013523,0.002678,0.000431,0.000118
25190000,0.0324,0.013523,0.002678,0.000431,0.000353
25191000,0.0324,0.013523,0.002678,0.000431,0.000470
25192000,0.0324,0.013523,0.002678,0.000431,0.000353
25193000,0.0324,0.013523,0.002678,0.000431,0.000235
25194000,0.0324,0.013523,0.002678,0.000431,0.000353
25195000,0.0324,0.013523,0.002678,0.000431,0.000470
25196000,0.0324,0.013523,0.002678,0.000431,0.000118
25197000,0.0324,0.013523,0.002678,0.000431,0.000353
25198000,0.0324,0.013523,0.002678,0.000431,0.000470
25199000,0.0324,0.013523,0.002678,0.000431,0.000353
25200000,0.0324,0.013523,0.002678,0.000431,0.000235
25201000,0.0324,0.013523,0.002678,0.000431,0.000353
25202000,0.0324,0.013523,0.002678,0.000431,0.000470
25203000,0.0324,0.013523,0.002678,0.000431,0.000118
25204000,0.0324,0.013523,0.002678,0.000431,0.000353
25205000,0.0324,0.013523,0.002678,0.000431,0.000470
25206000,0.0324,0.013523,0.002678,0.000431,0.000353
25207000,0.0324,0.013523,0.002678,0.000431,0.000235
25208000,0.0324,0.013523,0.002678,0.000431,0.000353
25209000,0.0324,0.013523,0.002678,0.000431,0.000353
25210000,0.0324,0.013523,0.002678,0.000431,0.000235
25211000,0.0324,0.013523,0.002678,0.000431,0.000353
25212000,0.0324,0.013523,0.002678,0.000431,0.000470
25213000,0.0324,0.013523,0.002678,0.000431,0.000353
25214000,0.0324,0.013523,0.002678,0.000431,0.000235
25215000,0.0324,0.013523,0.002678,0.000431,0.000353
25216000,0.0324,0.013523,0.002678,0.000431,0.000353
25217000,0.0324,0.013523,0.002678,0.000431,0.000235
25218000,0.0324,0.013523,0.002678,0.000431,0.000353
25219000,0.0324,0.013523,0.002678,0.000431,0.000470
25220000,0.0324,0.013523,0.002678,0.000431,0.000353
25221000,0.0324,0.013523,0.002678,0.000431,0.000235
25222000,0.0324,0.013523,0.002678,0.000431,0.000353
25223000,0.0324,0.013523,0.002678,0.000431,0.000353
25224000,0.0324,0.013523,0.002678,0.000431,0.000235
25225000,0.0324,0.013523,0.002678,0.000431,0.000353
25226000,0.0324,0.013523,0.002678,0.000431,0.000470
25227000,0.0324,0.013523,0.002678,0.000431,0.000353
25228000,0.0324,0.013523,0.002678,0.000431,0.000235
25229000,0.0324,0.013523,0.002678,0.000431,0.000353
25230000,0.0324,0.013523,0.002678,0.000431,0.000353
25231000,0.0324,0.013523,0.002678,0.000431,0.000235
25232000,0.0324,0.013523,0.002678,0.000431,0.000353
25233000,0.0324,0.013523,0.002678,0.000431,0.000470
25234000,0.0324,0.013523,0.002678,0.000431,0.000353
25235000,0.0324,0.013523,0.002678,0.000431,0.000235
25236000,0.0324,0.013523,0.002678,0.000431,0.000353
25237000,0.0324,0.013523,0.002678,0.000431,0.000353
25238000,0.0324,0.013523,0.002678,0.000431,0.000235
25239000,0.0324,0.013523,0.002678,0.000431,0.000353
25240000,0.0324,0.013523,0.002678,0.000431,0.000470
25241000,0.0324,0.013523,0.002678,0.000431,0.000353
25242000,0.0324,0.013523,0.002678,0.000431,0.000235
25243000,0.0324,0.013523,0.002678,0.000431,0.000353
25244000,0.0324,0.013523,0.002678,0.000431,0.000353
25245000,0.0324,0.013523,0.002678,0.000431,0.000235
25246000,0.0324,0.013523,0.002678,0.000431,0.000353
25247000,0.0324,0.013523,0.002678,0.000431,0.000470
25248000,0.0324,0.013523,0.002678,0.000431,0.000353
25249000,0.0324,0.013523,0.002678,0.000431,0.000235
25250000,0.0324,0.013523,0.002678,0.000431,0.000353
25251000,0.0324,0.013523,0.002678,0.000431,0.000353
25252000,0.0324,0.013523,0.002678,0.000431,0.000235
25253000,0.0324,0.013523,0.002678,0.000431,0.000353
25254000,0.0324,0.013523,0.002678,0.000431,0.000470
25255000,0.0324,0.013523,0.002678,0.000431,0.000353
25256000,0.0324,0.013523,0.002678,0.000431,0.000235
25257000,0.0324,0.013523,0.002678,0.000431,0.000353
25258000,0.0324,0.013523,0.002678,0.000431,0.000353
25259000,0.0324,0.013523,0.002678,0.000431,0.000235
25260000,0.0324,0.013523,0.002678,0.000431,0.000353
25261000,0.0324,0.013523,0.002678,0.000431,0.000470
25262000,0.0324,0.013523,0.002678,0.000431,0.000353
25263000,0.0324,0.013523,0.002678,0.000431,0.000118
25264000,0.0324,0.013523,0.002678,0.000431,0.000470
25265000,0.0324,0.013523,0.002678,0.000431,0.000353
25266000,0.0324,0.013523,0.002678,0.000431,0.000235
25267000,0.0324,0.013523,0.002678,0.000431,0.000353
25268000,0.0324,0.013523,0.002678,0.000431,0.000470
25269000,0.0324,0.013523,0.002678,0.000431,0.000353
25270000,0.0324,0.013523,0.002678,0.000431,0.000118
25271000,0.0324,0.013523,0.002678,0.000431,0.000470
25272000,0.0324,0.013523,0.002678,0.000431,0.000353
25273000,0.0324,0.013523,0.002678,0.000431,0.000235
25274000,0.0324,0.013523,0.002678,0.000431,0.000353
25275000,0.0324,0.013523,0.002678,0.000431,0.000470
25276000,0.0324,0.013523,0.002678,0.000431,0.000353
25277000,0.0324,0.013523,0.002678,0.000431,0.000118
25278000,0.0324,0.013523,0.002678,0.000431,0.000470
25279000,0.0324,0.013523,0.002678,0.000431,0.000353
25280000,0.0324,0.013523,0.002678,0.000431,0.000235
25281000,0.0324,0.013523,0.002678,0.000431,0.000353
25282000,0.0324,0.013523,0.002678,0.000431,0.000470
25283000,0.0324,0.013523,0.002678,0.000431,0.000353
25284000,0.0324,0.013523,0.002678,0.000431,0.000118
25285000,0.0324,0.013523,0.002678,0.000431,0.000470
25286000,0.0324,0.013523,0.002678,0.000431,0.000353
25287000,0.0324,0.013523,0.002678,0.000431,0.000235
25288000,0.0324,0.013523,0.002678,0.000431,0.000353
25289000,0.0324,0.013523,0.002678,0.000431,0.000470
25290000,0.0324,0.013523,0.002678,0.000431,0.000235
25291000,0.0324,0.013523,0.002678,0.000431,0.000235
25292000,0.0324,0.013523,0.002678,0.000431,0.000470
25293000,0.0324,0.013523,0.002678,0.000431,0.000353
25294000,0.0324,0.013523,0.002678,0.000431,0.000235
25295000,0.0324,0.013523,0.002678,0.000431,0.000353
25296000,0.0324,0.013523,0.002678,0.000431,0.000470
25297000,0.0324,0.013523,0.002678,0.000431,0.000235
25298000,0.0324,0.013523,0.002678,0.000431,0.000235
25299000,0.0324,0.013523,0.002678,0.000431,0.000470
25300000,0.0324,0.013523,0.002678,0.000431,0.000353
25301000,0.0324,0.013523,0.002678,0.000431,0.000235
25302000,0.0324,0.013523,0.002678,0.000431,0.000353
25303000,0.0324,0.013523,0.002678,0.000431,0.000470
25304000,0.0324,0.013523,0.002678,0.000431,0.000235
25305000,0.0324,0.013523,0.002678,0.000431,0.000235
25306000,0.0324,0.013523,0.002678,0.000431,0.000470
25307000,0.0324,0.013523,0.002678,0.000431,0.000353
25308000,0.0324,0.013523,0.002678,0.000431,0.000235
25309000,0.0324,0.013523,0.002678,0.000431,0.000353
25310000,0.0324,0.013523,0.002678,0.000431,0.000470
25311000,0.0324,0.013523,0.002678,0.000431,0.000235
25312000,0.0324,0.013523,0.002678,0.000431,0.000235
25313000,0.0324,0.013523,0.002678,0.000431,0.000470
25314000,0.0324,0.013523,0.002678,0.000431,0.000353
25315000,0.0324,0.013523,0.002678,0.000431,0.000235
25316000,0.0324,0.013523,0.002678,0.000431,0.000353
25317000,0.0324,0.013523,0.002678,0.000431,0.000470
25318000,0.0324,0.013523,0.002678,0.000431,0.000235
25319000,0.0324,0.013523,0.002678,0.000431,0.000235
25320000,0.0324,0.013523,0.002678,0.000431,0.000470
25321000,0.0324,0.013523,0.002678,0.000431,0.000353
25322000,0.0324,0.013523,0.002678,0.000431,0.000235
25323000,0.0324,0.013523,0.002678,0.000431,0.000353
25324000,0.0324,0.013523,0.002678,0.000431,0.000470
25325000,0.0324,0.013523,0.002678,0.000431,0.000118
25326000,0.0324,0.013523,0.002678,0.000431,0.000353
25327000,0.0324,0.013523,0.002678,0.000431,0.000470
25328000,0.0324,0.013523,0.002678,0.000431,0.000353
25329000,0.0324,0.013523,0.002678,0.000431,0.000235
25330000,0.0324,0.013523,0.002678,0.000431,0.000353
25331000,0.0324,0.013523,0.002678,0.000431,0.000470
25332000,0.0324,0.013523,0.002678,0.000431,0.000118
25333000,0.0324,0.013523,0.002678,0.000431,0.000353
25334000,0.0324,0.013523,0.002678,0.000431,0.000470
25335000,0.0324,0.013523,0.002678,0.000431,0.000353
25336000,0.0324,0.013523,0.002678,0.000431,0.000235
25337000,0.0324,0.013523,0.002678,0.000431,0.000353
25338000,0.0324,0.013523,0.002678,0.000431,0.000470
25339000,0.0324,0.013523,0.002678,0.000431,0.000118
25340000,0.0324,0.013523,0.002678,0.000431,0.000353
25341000,0.0324,0.013523,0.002678,0.000431,0.000470
25342000,0.0324,0.013523,0.002678,0.000431,0.000353
25343000,0.0324,0.013523,0.002678,0.000431,0.000235
25344000,0.0324,0.013523,0.002678,0.000431,0.000353
25345000,0.0324,0.013523,0.002678,0.000431,0.000470
25346000,0.0324,0.013523,0.002678,0.000431,0.000118
25347000,0.0324,0.013523,0.002678,0.000431,0.000353
25348000,0.0324,0.013523,0.002678,0.000431,0.000470
25349000,0.0324,0.013523,0.002678,0.000431,0.000353
25350000,0.0324,0.013523,0.002678,0.000431,0.000235
25351000,0.0324,0.013523,0.002678,0.000431,0.000353
25352000,0.0324,0.013523,0.002678,0.000431,0.000353
25353000,0.0324,0.013523,0.002678,0.000431,0.000235
25354000,0.0324,0.013523,0.002678,0.000431,0.000353
25355000,0.0324,0.013523,0.002678,0.000431,0.000470
25356000,0.0324,0.013523,0.002678,0.000431,0.000353
25357000,0.0324,0.013523,0.002678,0.000431,0.000235
25358000,0.0324,0.013523,0.002678,0.000431,0.000353
25359000,0.0324,0.013523,0.002678,0.000431,0.000353
25360000,0.0324,0.013523,0.002678,0.000431,0.000235
25361000,0.0324,0.013523,0.002678,0.000431,0.000353
25362000,0.0324,0.013523,0.002678,0.000431,0.000470
25363000,0.0324,0.013523,0.002678,0.000431,0.000353
25364000,0.0324,0.013523,0.002678,0.000431,0.000235
25365000,0.0324,0.013523,0.002678,0.000431,0.000353
25366000,0.0324,0.013523,0.002678,0.000431,0.000353
25367000,0.0324,0.013523,0.002678,0.000431,0.000235
25368000,0.0324,0.013523,0.002678,0.000431,0.000353
25369000,0.0324,0.013523,0.002678,0.000431,0.000470
25370000,0.0324,0.013523,0.002678,0.000431,0.000353
25371000,0.0324,0.013523,0.002678,0.000431,0.000235
25372000,0.0324,0.013523,0.002678,0.000431,0.000353
25373000,0.0324,0.013523,0.002678,0.000431,0.000353
25374000,0.0324,0.013523,0.002678,0.000431,0.000235
25375000,0.0324,0.013523,0.002678,0.000431,0.000353
25376000,0.0324,0.013523,0.002678,0.000431,0.000470
25377000,0.0324,0.013523,0.002678,0.000431,0.000353
25378000,0.0324,0.013523,0.002678,0.000431,0.000235
25379000,0.0324,0.013523,0.002678,0.000431,0.000353
25380000,0.0324,0.013523,0.002678,0.000431,0.000353
25381000,0.0324,0.013523,0.002678,0.000431,0.000235
25382000,0.0324,0.013523,0.002678,0.000431,0.000353
25383000,0.0324,0.013523,0.002678,0.000431,0.000470
25384000,0.0324,0.013523,0.002678,0.000431,0.000353
25385000,0.0324,0.013523,0.002678,0.000431,0.000235
25386000,0.0324,0.013523,0.002678,0.000431,0.000353
25387000,0.0324,0.013523,0.002678,0.000431,0.000353
25388000,0.0324,0.013523,0.002678,0.000431,0.000235
25389000,0.0324,0.013523,0.002678,0.000431,0.000353
25390000,0.0324,0.013523,0.002678,0.000431,0.000470
25391000,0.0324,0.013523,0.002678,0.000431,0.000353
25392000,0.0324,0.013523,0.002678,0.000431,0.000235
25393000,0.0324,0.013523,0.002678,0.000431,0.000353
25394000,0.0324,0.013523,0.002678,0.000431,0.000353
25395000,0.0324,0.013523,0.002678,0.000431,0.000235
25396000,0.0324,0.013523,0.002678,0.000431,0.000353
25397000,0.0324,0.013523,0.002678,0.000431,0.000470
25398000,0.0324,0.013523,0.002678,0.000431,0.000353
25399000,0.0324,0.013523,0.002678,0.000431,0.000235
25400000,0.0324,0.013523,0.002678,0.000431,0.000353
25401000,0.0324,0.013523,0.002678,0.000431,0.000353
25402000,0.0324,0.013523,0.002678,0.000431,0.000235
25403000,0.0324,0.013523,0.002678,0.000431,0.000353
25404000,0.0324,0.013523,0.002678,0.000431,0.000470
25405000,0.0324,0.013523,0.002678,0.000431,0.000353
25406000,0.0324,0.013523,0.002678,0.000431,0.000118
25407000,0.0324,0.013523,0.002678,0.000431,0.000470
25408000,0.0324,0.013523,0.002678,0.000431,0.000353
25409000,0.0324,0.013523,0.002678,0.000431,0.000235
25410000,0.0324,0.013523,0.002678,0.000431,0.000353
25411000,0.0324,0.013523,0.002678,0.000431,0.000470
25412000,0.0324,0.013523,0.002678,0.000431,0.000353
25413000,0.0324,0.013523,0.002678,0.000431,0.000118
25414000,0.0324,0.013523,0.002678,0.000431,0.000470
25415000,0.0324,0.013523,0.002678,0.000431,0.000353
25416000,0.0324,0.013523,0.002678,0.000431,0.000235
25417000,0.0324,0.013523,0.002678,0.000431,0.000353
25418000,0.0324,0.013523,0.002678,0.000431,0.000470
25419000,0.0324,0.013523,0.002678,0.000431,0.000353
25420000,0.0324,0.013523,0.002678,0.000431,0.000118
25421000,0.0324,0.013523,0.002678,0.000431,0.000470
25422000,0.0324,0.013523,0.002678,0.000431,0.000353
25423000,0.0324,0.013523,0.002678,0.000431,0.000235
25424000,0.0324,0.013523,0.002678,0.000431,0.000353
25425000,0.0324,0.013523,0.002678,0.000431,0.000470
25426000,0.0324,0.013523,0.002678,0.000431,0.000235
25427000,0.0324,0.013523,0.002678,0.000431,0.000235
25428000,0.0324,0.013523,0.002678,0.000431,0.000470
25429000,0.0324,0.013523,0.002678,0.000431,0.000353
25430000,0.0324,0.013523,0.002678,0.000431,0.000235
25431000,0.0324,0.013523,0.002678,0.000431,0.000353
25432000,0.0324,0.013523,0.002678,0.000431,0.000470
25433000,0.0324,0.013523,0.002678,0.000431,0.000235
25434000,0.0324,0.013523,0.002678,0.000431,0.000235
25435000,0.0324,0.013523,0.002678,0.000431,0.000470
25436000,0.0324,0.013523,0.002678,0.000431,0.000353
25437000,0.0324,0.013523,0.002678,0.000431,0.000235
25438000,0.0324,0.013523,0.002678,0.000431,0.000353
25439000,0.0324,0.013523,0.002678,0.000431,0.000470
25440000,0.0324,0.013523,0.002678,0.000431,0.000235
25441000,0.0324,0.013523,0.002678,0.000431,0.000235
25442000,0.0324,0.013523,0.002678,0.000431,0.000470
25443000,0.0324,0.013523,0.002678,0.000431,0.000353
25444000,0.0324,0.013523,0.002678,0.000431,0.000235
25445000,0.0324,0.013523,0.002678,0.000431,0.000353
25446000,0.0324,0.013523,0.002678,0.000431,0.000470
25447000,0.0324,0.013523,0.002678,0.000431,0.000235
25448000,0.0324,0.013523,0.002678,0.000431,0.000235
25449000,0.0324,0.013523,0.002678,0.000431,0.000470
25450000,0.0324,0.013523,0.002678,0.000431,0.000353
25451000,0.0324,0.013523,0.002678,0.000431,0.000235
25452000,0.0324,0.013523,0.002678,0.000431,0.000353
25453000,0.0324,0.013523,0.002678,0.000431,0.000470
25454000,0.0324,0.013523,0.002678,0.000431,0.000235
25455000,0.0324,0.013523,0.002678,0.000431,0.000235
25456000,0.0324,0.013523,0.002678,0.000431,0.000470
25457000,0.0324,0.013523,0.002678,0.000431,0.000353
25458000,0.0324,0.013523,0.002678,0.000431,0.000235
25459000,0.0324,0.013523,0.002678,0.000431,0.000353
25460000,0.0324,0.013523,0.002678,0.000431,0.000470
25461000,0.0324,0.013523,0.002678,0.000431,0.000235
25462000,0.0324,0.013523,0.002678,0.000431,0.000235
25463000,0.0324,0.013523,0.002678,0.000431,0.000470
25464000,0.0324,0.013523,0.002678,0.000431,0.000353
25465000,0.0324,0.013523,0.002678,0.000431,0.000235
25466000,0.0324,0.013523,0.002678,0.000431,0.000353
25467000,0.0324,0.013523,0.002678,0.000431,0.000470
25468000,0.0324,0.013523,0.002678,0.000431,0.000118
25469000,0.0324,0.013523,0.002678,0.000431,0.000353
25470000,0.0324,0.013523,0.002678,0.000431,0.000470
25471000,0.0324,0.013523,0.002678,0.000431,0.000353
25472000,0.0324,0.013523,0.002678,0.000431,0.000235
25473000,0.0324,0.013523,0.002678,0.000431,0.000353
25474000,0.0324,0.013523,0.002678,0.000431,0.000470
25475000,0.0324,0.013523,0.002678,0.000431,0.000118
25476000,0.0324,0.013523,0.002678,0.000431,0.000353
25477000,0.0324,0.013523,0.002678,0.000431,0.000470
25478000,0.0324,0.013523,0.002678,0.000431,0.000353
25479000,0.0324,0.013523,0.002678,0.000431,0.000235
25480000,0.0324,0.013523,0.002678,0.000431,0.000353
25481000,0.0324,0.013523,0.002678,0.000431,0.000470
25482000,0.0324,0.013523,0.002678,0.000431,0.000118
25483000,0.0324,0.013523,0.002678,0.000431,0.000353
25484000,0.0324,0.013523,0.002678,0.000431,0.000470
25485000,0.0324,0.013523,0.002678,0.000431,0.000353
25486000,0.0324,0.013523,0.002678,0.000431,0.000235
25487000,0.0324,0.013523,0.002678,0.000431,0.000353
25488000,0.0324,0.013523,0.002678,0.000431,0.000470
25489000,0.0324,0.013523,0.002678,0.000431,0.000118
25490000,0.0324,0.013523,0.002678,0.000431,0.000353
25491000,0.0324,0.013523,0.002678,0.000431,0.000470
25492000,0.0324,0.013523,0.002678,0.000431,0.000353
25493000,0.0324,0.013523,0.002678,0.000431,0.000235
25494000,0.0324,0.013523,0.002678,0.000431,0.000353
25495000,0.0324,0.013523,0.002678,0.000431,0.000353
25496000,0.0324,0.013523,0.002678,0.000431,0.000235
25497000,0.0324,0.013523,0.002678,0.000431,0.000353
25498000,0.0324,0.013523,0.002678,0.000431,0.000470
25499000,0.0324,0.013523,0.002678,0.000431,0.000353
25500000,0.0324,0.013523,0.002678,0.000431,0.000235
25501000,0.0324,0.013523,0.002678,0.000431,0.000353
25502000,0.0324,0.013523,0.002678,0.000431,0.000353
25503000,0.0324,0.013523,0.002678,0.000431,0.000235
25504000,0.0324,0.013523,0.002678,0.000431,0.000353
25505000,0.0324,0.013523,0.002678,0.000431,0.000470
25506000,0.0324,0.013523,0.002678,0.000431,0.000353
25507000,0.0324,0.013523,0.002678,0.000431,0.000235
25508000,0.0324,0.013523,0.002678,0.000431,0.000353
25509000,0.0324,0.013523,0.002678,0.000431,0.000353
25510000,0.0324,0.013523,0.002678,0.000431,0.000235
25511000,0.0324,0.013523,0.002678,0.000431,0.000353
25512000,0.0324,0.013523,0.002678,0.000431,0.000470
25513000,0.0324,0.013523,0.002678,0.000431,0.000353
25514000,0.0324,0.013523,0.002678,0.000431,0.000235
25515000,0.0324,0.013523,0.002678,0.000431,0.000353
25516000,0.0324,0.013523,0.002678,0.000431,0.000353
25517000,0.0324,0.013523,0.002678,0.000431,0.000235
25518000,0.0324,0.013523,0.002678,0.000431,0.000353
25519000,0.0324,0.013523,0.002678,0.000431,0.000470
25520000,0.0324,0.013523,0.002678,0.000431,0.000353
25521000,0.0324,0.013523,0.002678,0.000431,0.000235
25522000,0.0324,0.013523,0.002678,0.000431,0.000353
25523000,0.0324,0.013523,0.002678,0.000431,0.000353
25524000,0.0324,0.013523,0.002678,0.000431,0.000235
25525000,0.0324,0.013523,0.002678,0.000431,0.000353
25526000,0.0324,0.013523,0.002678,0.000431,0.000470
25527000,0.0324,0.013523,0.002678,0.000431,0.000353
25528000,0.0324,0.013523,0.002678,0.000431,0.000235
25529000,0.0324,0.013523,0.002678,0.000431,0.000353
25530000,0.0324,0.013523,0.002678,0.000431,0.000353
25531000,0.0324,0.013523,0.002678,0.000431,0.000235
25532000,0.0324,0.013523,0.002678,0.000431,0.000353
25533000,0.0324,0.013523,0.002678,0.000431,0.000470
25534000,0.0324,0.013523,0.002678,0.000431,0.000353
25535000,0.0324,0.013523,0.002678,0.000431,0.000235
25536000,0.0324,0.013523,0.002678,0.000431,0.000353
25537000,0.0324,0.013523,0.002678,0.000431,0.000353
25538000,0.0324,0.013523,0.002678,0.000431,0.000235
25539000,0.0324,0.013523,0.002678,0.000431,0.000353
25540000,0.0324,0.013523,0.002678,0.000431,0.000470
25541000,0.0324,0.013523,0.002678,0.000431,0.000353
25542000,0.0324,0.013523,0.002678,0.000431,0.000118
25543000,0.0324,0.013523,0.002678,0.000431,0.000470
25544000,0.0324,0.013523,0.002678,0.000431,0.000353
25545000,0.0324,0.013523,0.002678,0.000431,0.000235
25546000,0.0324,0.013523,0.002678,0.000431,0.000353
25547000,0.0324,0.013523,0.002678,0.000431,0.000470
25548000,0.0324,0.013523,0.002678,0.000431,0.000353
25549000,0.0324,0.013523,0.002678,0.000431,0.000118
25550000,0.0324,0.013523,0.002678,0.000431,0.000470
25551000,0.0324,0.013523,0.002678,0.000431,0.000353
25552000,0.0324,0.013523,0.002678,0.000431,0.000235
25553000,0.0324,0.013523,0.002678,0.000431,0.000353
25554000,0.0324,0.013523,0.002678,0.000431,0.000470
25555000,0.0324,0.013523,0.002678,0.000431,0.000353
25556000,0.0324,0.013523,0.002678,0.000431,0.000118
25557000,0.0324,0.013523,0.002678,0.000431,0.000470
25558000,0.0324,0.013523,0.002678,0.000431,0.000353
25559000,0.0324,0.013523,0.002678,0.000431,0.000235
25560000,0.0324,0.013523,0.002678,0.000431,0.000353
25561000,0.0324,0.013523,0.002678,0.000431,0.000470
25562000,0.0324,0.013523,0.002678,0.000431,0.000353
25563000,0.0324,0.013523,0.002678,0.000431,0.000118
25564000,0.0324,0.013523,0.002678,0.000431,0.000470
25565000,0.0324,0.013523,0.002678,0.000431,0.000353
25566000,0.0324,0.013523,0.002678,0.000431,0.000235
25567000,0.0324,0.013523,0.002678,0.000431,0.000353
25568000,0.0324,0.013523,0.002678,0.000431,0.000470
25569000,0.0324,0.013523,0.002678,0.000431,0.000235
25570000,0.0324,0.013523,0.002678,0.000431,0.000235
25571000,0.0324,0.013523,0.002678,0.000431,0.000470
25572000,0.0324,0.013523,0.002678,0.000431,0.000353
25573000,0.0324,0.013523,0.002678,0.000431,0.000235
25574000,0.0324,0.013523,0.002678,0.000431,0.000353
25575000,0.0324,0.013523,0.002678,0.000431,0.000470
25576000,0.0324,0.013523,0.002678,0.000431,0.000235
25577000,0.0324,0.013523,0.002678,0.000431,0.000235
25578000,0.0324,0.013523,0.002678,0.000431,0.000470
25579000,0.0324,0.013523,0.002678,0.000431,0.000353
25580000,0.0324,0.013523,0.002678,0.000431,0.000235
25581000,0.0324,0.013523,0.002678,0.000431,0.000353
25582000,0.0324,0.013523,0.002678,0.000431,0.000470
25583000,0.0324,0.013523,0.002678,0.000431,0.000235
25584000,0.0324,0.013523,0.002678,0.000431,0.000235
25585000,0.0324,0.013523,0.002678,0.000431,0.000470
25586000,0.0324,0.013523,0.002678,0.000431,0.000353
25587000,0.0324,0.013523,0.002678,0.000431,0.000235
25588000,0.0324,0.013523,0.002678,0.000431,0.000353
25589000,0.0324,0.013523,0.002678,0.000431,0.000470
25590000,0.0324,0.013523,0.002678,0.000431,0.000235
25591000,0.0324,0.013523,0.002678,0.000431,0.000235
25592000,0.0324,0.013523,0.002678,0.000431,0.000470
25593000,0.0324,0.013523,0.002678,0.000431,0.000353
25594000,0.0324,0.013523,0.002678,0.000431,0.000235
25595000,0.0324,0.013523,0.002678,0.000431,0.000353
25596000,0.0324,0.013523,0.002678,0.000431,0.000470
25597000,0.0324,0.013523,0.002678,0.000431,0.000235
25598000,0.0324,0.013523,0.002678,0.000431,0.000235
25599000,0.0324,0.013523,0.002678,0.000431,0.000470
25600000,0.0324,0.013523,0.002678,0.000431,0.000353
25601000,0.0324,0.013523,0.002678,0.000431,0.000235
25602000,0.0324,0.013523,0.002678,0.000431,0.000353
25603000,0.0324,0.013523,0.002678,0.000431,0.000470
25604000,0.0324,0.013523,0.002678,0.000431,0.000235
25605000,0.0324,0.013523,0.002678,0.000431,0.000235
25606000,0.0324,0.013523,0.002678,0.000431,0.000470
25607000,0.0324,0.013523,0.002678,0.000431,0.000353
25608000,0.0324,0.013523,0.002678,0.000431,0.000235
25609000,0.0324,0.013523,0.002678,0.000431,0.000353
25610000,0.0324,0.013523,0.002678,0.000431,0.000470
25611000,0.0324,0.013523,0.002678,0.000431,0.000118
25612000,0.0324,0.013523,0.002678,0.000431,0.000353
25613000,0.0324,0.013523,0.002678,0.000431,0.000470
25614000,0.0324,0.013523,0.002678,0.000431,0.000353
25615000,0.0324,0.013523,0.002678,0.000431,0.000235
25616000,0.0324,0.013523,0.002678,0.000431,0.000353
25617000,0.0324,0.013523,0.002678,0.000431,0.000470
25618000,0.0324,0.013523,0.002678,0.000431,0.000118
25619000,0.0324,0.013523,0.002678,0.000431,0.000353
25620000,0.0324,0.013523,0.002678,0.000431,0.000470
25621000,0.0324,0.013523,0.002678,0.000431,0.000353
25622000,0.0324,0.013523,0.002678,0.000431,0.000235
25623000,0.0324,0.013523,0.002678,0.000431,0.000353
25624000,0.0324,0.013523,0.002678,0.000431,0.000470
25625000,0.0324,0.013523,0.002678,0.000431,0.000118
25626000,0.0324,0.013523,0.002678,0.000431,0.000353
25627000,0.0324,0.013523,0.002678,0.000431,0.000470
25628000,0.0324,0.013523,0.002678,0.000431,0.000353
25629000,0.0324,0.013523,0.002678,0.000431,0.000235
25630000,0.0324,0.013523,0.002678,0.000431,0.000353
25631000,0.0324,0.013523,0.002678,0.000431,0.000353
25632000,0.0324,0.013523,0.002678,0.000431,0.000235
25633000,0.0324,0.013523,0.002678,0.000431,0.000353
25634000,0.0324,0.013523,0.002678,0.000431,0.000470
25635000,0.0324,0.013523,0.002678,0.000431,0.000353
25636000,0.0324,0.013523,0.002678,0.000431,0.000235
25637000,0.0324,0.013523,0.002678,0.000431,0.000353
25638000,0.0324,0.013523,0.002678,0.000431,0.000353
25639000,0.0324,0.013523,0.002678,0.000431,0.000235
25640000,0.0324,0.013523,0.002678,0.000431,0.000353
25641000,0.0324,0.013523,0.002678,0.000431,0.000470
25642000,0.0324,0.013523,0.002678,0.000431,0.000353
25643000,0.0324,0.013523,0.002678,0.000431,0.000235
25644000,0.0324,0.013523,0.002678,0.000431,0.000353
25645000,0.0324,0.013523,0.002678,0.000431,0.000353
25646000,0.0324,0.013523,0.002678,0.000431,0.000235
25647000,0.0324,0.013523,0.002678,0.000431,0.000353
25648000,0.0324,0.013523,0.002678,0.000431,0.000470
25649000,0.0324,0.013523,0.002678,0.000431,0.000353
25650000,0.0324,0.013523,0.002678,0.000431,0.000118
25651000,0.0324,0.013523,0.002678,0.000431,0.000470
25652000,0.0324,0.013523,0.002678,0.000431,0.000353
25653000,0.0324,0.013523,0.002678,0.000431,0.000235
25654000,0.0324,0.013523,0.002678,0.000431,0.000353
25655000,0.0324,0.013523,0.002678,0.000431,0.000470
25656000,0.0324,0.013523,0.002678,0.000431,0.000235
25657000,0.0324,0.013523,0.002678,0.000431,0.000235
25658000,0.0324,0.013523,0.002678,0.000431,0.000470
25659000,0.0324,0.013523,0.002678,0.000431,0.000353
25660000,0.0324,0.013523,0.002678,0.000431,0.000235
25661000,0.0324,0.013523,0.002678,0.000431,0.000353
25662000,0.0324,0.013523,0.002678,0.000431,0.000470
25663000,0.0324,0.013523,0.002678,0.000431,0.000235
25664000,0.0324,0.013523,0.002678,0.000431,0.000235
25665000,0.0324,0.013523,0.002678,0.000431,0.000470
25666000,0.0324,0.013523,0.002678,0.000431,0.000353
25667000,0.0324,0.013523,0.002678,0.000431,0.000235
25668000,0.0324,0.013523,0.002678,0.000431,0.000353
25669000,0.0324,0.013523,0.002678,0.000431,0.000470
25670000,0.0324,0.013523,0.002678,0.000431,0.000118
25671000,0.0324,0.013523,0.002678,0.000431,0.000353
25672000,0.0324,0.013523,0.002678,0.000431,0.000470
25673000,0.0324,0.013523,0.002678,0.000431,0.000353
25674000,0.0324,0.013523,0.002678,0.000431,0.000235
25675000,0.0324,0.013523,0.002678,0.000431,0.000353
25676000,0.0324,0.013523,0.002678,0.000431,0.000353
25677000,0.0324,0.013523,0.002678,0.000431,0.000235
25678000,0.0324,0.013523,0.002678,0.000431,0.000353
25679000,0.0324,0.013523,0.002678,0.000431,0.000470
25680000,0.0324,0.013523,0.002678,0.000431,0.000353
25681000,0.0324,0.013523,0.002678,0.000431,0.000235
25682000,0.0324,0.013523,0.002678,0.000431,0.000353
25683000,0.0324,0.013523,0.002678,0.000431,0.000353
25684000,0.0324,0.013523,0.002678,0.000431,0.000235
25685000,0.0324,0.013523,0.002678,0.000431,0.000353
25686000,0.0324,0.013523,0.002678,0.000431,0.000470
25687000,0.0324,0.013523,0.002678,0.000431,0.000353
25688000,0.0324,0.013523,0.002678,0.000431,0.000235
25689000,0.0324,0.013523,0.002678,0.000431,0.000353
25690000,0.0324,0.013523,0.002678,0.000431,0.000353
25691000,0.0324,0.013523,0.002678,0.000431,0.000235
25692000,0.0324,0.013523,0.002678,0.000431,0.000353
25693000,0.0324,0.013523,0.002678,0.000431,0.000470
25694000,0.0324,0.013523,0.002678,0.000431,0.000353
25695000,0.0324,0.013523,0.002678,0.000431,0.000118
25696000,0.0324,0.013523,0.002678,0.000431,0.000470
25697000,0.0324,0.013523,0.002678,0.000431,0.000353
25698000,0.0324,0.013523,0.002678,0.000431,0.000235
25699000,0.0324,0.013523,0.002678,0.000431,0.000353
25700000,0.0324,0.013523,0.002678,0.000431,0.000470
25701000,0.0324,0.013523,0.002678,0.000431,0.000235
25702000,0.0324,0.013523,0.002678,0.000431,0.000235
25703000,0.0324,0.013523,0.002678,0.000431,0.000470
25704000,0.0324,0.013523,0.002678,0.000431,0.000353
25705000,0.0324,0.013523,0.002678,0.000431,0.000235
25706000,0.0324,0.013523,0.002678,0.000431,0.000353
25707000,0.0324,0.013523,0.002678,0.000431,0.000470
25708000,0.0324,0.013523,0.002678,0.000431,0.000235
25709000,0.0324,0.013523,0.002678,0.000431,0.000235
25710000,0.0324,0.013523,0.002678,0.000431,0.000470
25711000,0.0324,0.013523,0.002678,0.000431,0.000353
25712000,0.0324,0.013523,0.002678,0.000431,0.000235
25713000,0.0324,0.013523,0.002678,0.000431,0.000353
25714000,0.0324,0.013523,0.002678,0.000431,0.000470
25715000,0.0324,0.013523,0.002678,0.000431,0.000118
25716000,0.0324,0.013523,0.002678,0.000431,0.000353
25717000,0.0324,0.013523,0.002678,0.000431,0.000470
25718000,0.0324,0.013523,0.002678,0.000431,0.000353
25719000,0.0324,0.013523,0.002678,0.000431,0.000235
25720000,0.0324,0.013523,0.002678,0.000431,0.000353
25721000,0.0324,0.013523,0.002678,0.000431,0.000353
25722000,0.0324,0.013523,0.002678,0.000431,0.000235
25723000,0.0324,0.013523,0.002678,0.000431,0.000353
25724000,0.0324,0.013523,0.002678,0.000431,0.000470
25725000,0.0324,0.013523,0.002678,0.000431,0.000353
25726000,0.0324,0.013523,0.002678,0.000431,0.000235
25727000,0.0324,0.013523,0.002678,0.000431,0.000353
25728000,0.0324,0.013523,0.002678,0.000431,0.000353
25729000,0.0324,0.013523,0.002678,0.000431,0.000235
25730000,0.0324,0.013523,0.002678,0.000431,0.000353
25731000,0.0324,0.013523,0.002678,0.000431,0.000470
25732000,0.0324,0.013523,0.002678,0.000431,0.000353
25733000,0.0324,0.013523,0.002678,0.000431,0.000118
25734000,0.0324,0.013523,0.002678,0.000431,0.000470
25735000,0.0324,0.013523,0.002678,0.000431,0.000353
25736000,0.0324,0.013523,0.002678,0.000431,0.000235
25737000,0.0324,0.013523,0.002678,0.000431,0.000353
25738000,0.0324,0.013523,0.002678,0.000431,0.000470
25739000,0.0324,0.013523,0.002678,0.000431,0.000235
25740000,0.0324,0.013523,0.002678,0.000431,0.000235
25741000,0.0324,0.013523,0.002678,0.000431,0.000470
25742000,0.0324,0.013523,0.002678,0.000431,0.000353
25743000,0.0324,0.013523,0.002678,0.000431,0.000235
25744000,0.0324,0.013523,0.002678,0.000431,0.000353
25745000,0.0324,0.013523,0.002678,0.000431,0.000470
25746000,0.0324,0.013523,0.002678,0.000431,0.000235
25747000,0.0324,0.013523,0.002678,0.000431,0.000235
25748000,0.0324,0.013523,0.002678,0.000431,0.000470
25749000,0.0324,0.013523,0.002678,0.000431,0.000353
25750000,0.0324,0.013523,0.002678,0.000431,0.000235
25751000,0.0324,0.013523,0.002678,0.000431,0.000353
25752000,0.0324,0.013523,0.002678,0.000431,0.000470
25753000,0.0324,0.013523,0.002678,0.000431,0.000235
25754000,0.0324,0.013523,0.002678,0.000431,0.000235
25755000,0.0324,0.013523,0.002678,0.000431,0.000470
25756000,0.0324,0.013523,0.002678,0.000431,0.000353
25757000,0.0324,0.013523,0.002678,0.000431,0.000235
25758000,0.0324,0.013523,0.002678,0.000431,0.000353
25759000,0.0324,0.013523,0.002678,0.000431,0.000470
25760000,0.0324,0.013523,0.002678,0.000431,0.000118
25761000,0.0324,0.013523,0.002678,0.000431,0.000353
25762000,0.0324,0.013523,0.002678,0.000431,0.000470
25763000,0.0324,0.013523,0.002678,0.000431,0.000353
25764000,0.0324,0.013523,0.002678,0.000431,0.000235
25765000,0.0324,0.013523,0.002678,0.000431,0.000353
25766000,0.0324,0.013523,0.002678,0.000431,0.000353
25767000,0.0324,0.013523,0.002678,0.000431,0.000235
25768000,0.0324,0.013523,0.002678,0.000431,0.000353
25769000,0.0324,0.013523,0.002678,0.000431,0.000470
25770000,0.0324,0.013523,0.002678,0.000431,0.000353
25771000,0.0324,0.013523,0.002678,0.000431,0.000235
25772000,0.0324,0.013523,0.002678,0.000431,0.000353
25773000,0.0324,0.013523,0.002678,0.000431,0.000353
25774000,0.0324,0.013523,0.002678,0.000431,0.000235
25775000,0.0324,0.013523,0.002678,0.000431,0.000353
25776000,0.0324,0.013523,0.002678,0.000431,0.000470
25777000,0.0324,0.013523,0.002678,0.000431,0.000353
25778000,0.0324,0.013523,0.002678,0.000431,0.000235
25779000,0.0324,0.013523,0.002678,0.000431,0.000353
25780000,0.0324,0.013523,0.002678,0.000431,0.000353
25781000,0.0324,0.013523,0.002678,0.000431,0.000235
25782000,0.0324,0.013523,0.002678,0.000431,0.000353
25783000,0.0324,0.013523,0.002678,0.000431,0.000470
25784000,0.0324,0.013523,0.002678,0.000431,0.000353
25785000,0.0324,0.013523,0.002678,0.000431,0.000235
25786000,0.0324,0.013523,0.002678,0.000431,0.000353
25787000,0.0324,0.013523,0.002678,0.000431,0.000353
25788000,0.0324,0.013523,0.002678,0.000431,0.000235
25789000,0.0324,0.013523,0.002678,0.000431,0.000353
25790000,0.0324,0.013523,0.002678,0.000431,0.000470
25791000,0.0324,0.013523,0.002678,0.000431,0.000353
25792000,0.0324,0.013523,0.002678,0.000431,0.000118
25793000,0.0324,0.013523,0.002678,0.000431,0.000470
25794000,0.0324,0.013523,0.002678,0.000431,0.000353
25795000,0.0324,0.013523,0.002678,0.000431,0.000235
25796000,0.0324,0.013523,0.002678,0.000431,0.000353
25797000,0.0324,0.013523,0.002678,0.000431,0.000470
25798000,0.0324,0.013523,0.002678,0.000431,0.000353
25799000,0.0324,0.013523,0.002678,0.000431,0.000118
25800000,0.0324,0.013523,0.002678,0.000431,0.000470
25801000,0.0324,0.013523,0.002678,0.000431,0.000353
25802000,0.0324,0.013523,0.002678,0.000431,0.000235
25803000,0.0324,0.013523,0.002678,0.000431,0.000353
25804000,0.0324,0.013523,0.002678,0.000431,0.000470
25805000,0.0324,0.013523,0.002678,0.000431,0.000353
25806000,0.0324,0.013523,0.002678,0.000431,0.000118
25807000,0.0324,0.013523,0.002678,0.000431,0.000470
25808000,0.0324,0.013523,0.002678,0.000431,0.000353
25809000,0.0324,0.013523,0.002678,0.000431,0.000235
25810000,0.0324,0.013523,0.002678,0.000431,0.000353
25811000,0.0324,0.013523,0.002678,0.000431,0.000470
25812000,0.0324,0.013523,0.002678,0.000431,0.000353
25813000,0.0324,0.013523,0.002678,0.000431,0.000118
25814000,0.0324,0.013523,0.002678,0.000431,0.000470
25815000,0.0324,0.013523,0.002678,0.000431,0.000353
25816000,0.0324,0.013523,0.002678,0.000431,0.000235
25817000,0.0324,0.013523,0.002678,0.000431,0.000353
25818000,0.0324,0.013523,0.002678,0.000431,0.000470
25819000,0.0324,0.013523,0.002678,0.000431,0.000235
25820000,0.0324,0.013523,0.002678,0.000431,0.000235
25821000,0.0324,0.013523,0.002678,0.000431,0.000470
25822000,0.0324,0.013523,0.002678,0.000431,0.000353
25823000,0.0324,0.013523,0.002678,0.000431,0.000235
25824000,0.0324,0.013523,0.002678,0.000431,0.000353
25825000,0.0324,0.013523,0.002678,0.000431,0.000470
25826000,0.0324,0.013523,0.002678,0.000431,0.000235
25827000,0.0324,0.013523,0.002678,0.000431,0.000235
25828000,0.0324,0.013523,0.002678,0.000431,0.000470
25829000,0.0324,0.013523,0.002678,0.000431,0.000353
25830000,0.0324,0.013523,0.002678,0.000431,0.000235
25831000,0.0324,0.013523,0.002678,0.000431,0.000353
25832000,0.0324,0.013523,0.002678,0.000431,0.000470
25833000,0.0324,0.013523,0.002678,0.000431,0.000235
25834000,0.0324,0.013523,0.002678,0.000431,0.000235
25835000,0.0324,0.013523,0.002678,0.000431,0.000470
25836000,0.0324,0.013523,0.002678,0.000431,0.000353
25837000,0.0324,0.013523,0.002678,0.000431,0.000235
25838000,0.0324,0.013523,0.002678,0.000431,0.000353
25839000,0.0324,0.013523,0.002678,0.000431,0.000470
25840000,0.0324,0.013523,0.002678,0.000431,0.000235
25841000,0.0324,0.013523,0.002678,0.000431,0.000235
25842000,0.0324,0.013523,0.002678,0.000431,0.000470
25843000,0.0324,0.013523,0.002678,0.000431,0.000353
25844000,0.0324,0.013523,0.002678,0.000431,0.000235
25845000,0.0324,0.013523,0.002678,0.000431,0.000353
25846000,0.0324,0.013523,0.002678,0.000431,0.000470
25847000,0.0324,0.013523,0.002678,0.000431,0.000235
25848000,0.0324,0.013523,0.002678,0.000431,0.000235
25849000,0.0324,0.013523,0.002678,0.000431,0.000470
25850000,0.0324,0.013523,0.002678,0.000431,0.000353
25851000,0.0324,0.013523,0.002678,0.000431,0.000235
25852000,0.0324,0.013523,0.002678,0.000431,0.000353
25853000,0.0324,0.013523,0.002678,0.000431,0.000470
25854000,0.0324,0.013523,0.002678,0.000431,0.000235
25855000,0.0324,0.013523,0.002678,0.000431,0.000235
25856000,0.0324,0.013523,0.002678,0.000431,0.000470
25857000,0.0324,0.013523,0.002678,0.000431,0.000353
25858000,0.0324,0.013523,0.002678,0.000431,0.000235
25859000,0.0324,0.013523,0.002678,0.000431,0.000353
25860000,0.0324,0.013523,0.002678,0.000431,0.000470
25861000,0.0324,0.013523,0.002678,0.000431,0.000118
25862000,0.0324,0.013523,0.002678,0.000431,0.000353
25863000,0.0324,0.013523,0.002678,0.000431,0.000470
25864000,0.0324,0.013523,0.002678,0.000431,0.000353
25865000,0.0324,0.013523,0.002678,0.000431,0.000235
25866000,0.0324,0.013523,0.002678,0.000431,0.000353
25867000,0.0324,0.013523,0.002678,0.000431,0.000470
25868000,0.0324,0.013523,0.002678,0.000431,0.000118
25869000,0.0324,0.013523,0.002678,0.000431,0.000353
25870000,0.0324,0.013523,0.002678,0.000431,0.000470
25871000,0.0324,0.013523,0.002678,0.000431,0.000353
25872000,0.0324,0.013523,0.002678,0.000431,0.000235
25873000,0.0324,0.013523,0.002678,0.000431,0.000353
25874000,0.0324,0.013523,0.002678,0.000431,0.000470
25875000,0.0324,0.013523,0.002678,0.000431,0.000118
25876000,0.0324,0.013523,0.002678,0.000431,0.000353
25877000,0.0324,0.013523,0.002678,0.000431,0.000470
25878000,0.0324,0.013523,0.002678,0.000431,0.000353
25879000,0.0324,0.013523,0.002678,0.000431,0.000235
25880000,0.0324,0.013523,0.002678,0.000431,0.000353
25881000,0.0324,0.013523,0.002678,0.000431,0.000353
25882000,0.0324,0.013523,0.002678,0.000431,0.000235
25883000,0.0324,0.013523,0.002678,0.000431,0.000353
25884000,0.0324,0.013523,0.002678,0.000431,0.000470
25885000,0.0324,0.013523,0.002678,0.000431,0.000353
25886000,0.0324,0.013523,0.002678,0.000431,0.000235
25887000,0.0324,0.013523,0.002678,0.000431,0.000353
25888000,0.0324,0.013523,0.002678,0.000431,0.000353
25889000,0.0324,0.013523,0.002678,0.000431,0.000235
25890000,0.0324,0.013523,0.002678,0.000431,0.000353
25891000,0.0324,0.013523,0.002678,0.000431,0.000470
25892000,0.0324,0.013523,0.002678,0.000431,0.000353
25893000,0.0324,0.013523,0.002678,0.000431,0.000235
25894000,0.0324,0.013523,0.002678,0.000431,0.000353
25895000,0.0324,0.013523,0.002678,0.000431,0.000353
25896000,0.0324,0.013523,0.002678,0.000431,0.000235
25897000,0.0324,0.013523,0.002678,0.000431,0.000353
25898000,0.0324,0.013523,0.002678,0.000431,0.000470
25899000,0.0324,0.013523,0.002678,0.000431,0.000353
25900000,0.0324,0.013523,0.002678,0.000431,0.000235
25901000,0.0324,0.013523,0.002678,0.000431,0.000353
25902000,0.0324,0.013523,0.002678,0.000431,0.000353
25903000,0.0324,0.013523,0.002678,0.000431,0.000235
25904000,0.0324,0.013523,0.002678,0.000431,0.000353
25905000,0.0324,0.013523,0.002678,0.000431,0.000470
25906000,0.0324,0.013523,0.002678,0.000431,0.000353
25907000,0.0324,0.013523,0.002678,0.000431,0.000235
25908000,0.0324,0.013523,0.002678,0.000431,0.000353
25909000,0.0324,0.013523,0.002678,0.000431,0.000353
25910000,0.0324,0.013523,0.002678,0.000431,0.000235
25911000,0.0324,0.013523,0.002678,0.000431,0.000353
25912000,0.0324,0.013523,0.002678,0.000431,0.000470
25913000,0.0324,0.013523,0.002678,0.000431,0.000353
25914000,0.0324,0.013523,0.002678,0.000431,0.000235
25915000,0.0324,0.013523,0.002678,0.000431,0.000353
25916000,0.0324,0.013523,0.002678,0.000431,0.000353
25917000,0.0324,0.013523,0.002678,0.000431,0.000235
25918000,0.0324,0.013523,0.002678,0.000431,0.000353
25919000,0.0324,0.013523,0.002678,0.000431,0.000470
25920000,0.0324,0.013523,0.002678,0.000431,0.000353
25921000,0.0324,0.013523,0.002678,0.000431,0.000118
25922000,0.0324,0.013523,0.002678,0.000431,0.000470
25923000,0.0324,0.013523,0.002678,0.000431,0.000353
25924000,0.0324,0.013523,0.002678,0.000431,0.000235
25925000,0.0324,0.013523,0.002678,0.000431,0.000353
25926000,0.0324,0.013523,0.002678,0.000431,0.000470
25927000,0.0324,0.013523,0.002678,0.000431,0.000353
25928000,0.0324,0.013523,0.002678,0.000431,0.000118
25929000,0.0324,0.013523,0.002678,0.000431,0.000470
25930000,0.0324,0.013523,0.002678,0.000431,0.000353
25931000,0.0324,0.013523,0.002678,0.000431,0.000235
25932000,0.0324,0.013523,0.002678,0.000431,0.000353
25933000,0.0324,0.013523,0.002678,0.000431,0.000470
25934000,0.0324,0.013523,0.002678,0.000431,0.000235
25935000,0.0324,0.013523,0.002678,0.000431,0.000235
25936000,0.0324,0.013523,0.002678,0.000431,0.000470
25937000,0.0324,0.013523,0.002678,0.000431,0.000353
25938000,0.0324,0.013523,0.002678,0.000431,0.000235
25939000,0.0324,0.013523,0.002678,0.000431,0.000353
25940000,0.0324,0.013523,0.002678,0.000431,0.000470
25941000,0.0324,0.013523,0.002678,0.000431,0.000118
25942000,0.0324,0.013523,0.002678,0.000431,0.000353
25943000,0.0324,0.013523,0.002678,0.000431,0.000470
25944000,0.0324,0.013523,0.002678,0.000431,0.000353
25945000,0.0324,0.013523,0.002678,0.000431,0.000235
25946000,0.0324,0.013523,0.002678,0.000431,0.000353
25947000,0.0324,0.013523,0.002678,0.000431,0.000353
25948000,0.0324,0.013523,0.002678,0.000431,0.000235
25949000,0.0324,0.013523,0.002678,0.000431,0.000353
25950000,0.0324,0.013523,0.002678,0.000431,0.000470
25951000,0.0324,0.013523,0.002678,0.000431,0.000353
25952000,0.0324,0.013523,0.002678,0.000431,0.000235
25953000,0.0324,0.013523,0.002678,0.000431,0.000353
25954000,0.0324,0.013523,0.002678,0.000431,0.000353
25955000,0.0324,0.013523,0.002678,0.000431,0.000235
25956000,0.0324,0.013523,0.002678,0.000431,0.000353
25957000,0.0324,0.013523,0.002678,0.000431,0.000470
25958000,0.0324,0.013523,0.002678,0.000431,0.000353
25959000,0.0324,0.013523,0.002678,0.000431,0.000235
25960000,0.0324,0.013523,0.002678,0.000431,0.000353
25961000,0.0324,0.013523,0.002678,0.000431,0.000353
25962000,0.0324,0.013523,0.002678,0.000431,0.000235
25963000,0.0324,0.013523,0.002678,0.000431,0.000353
25964000,0.0324,0.013523,0.002678,0.000431,0.000470
25965000,0.0324,0.013523,0.002678,0.000431,0.000353
25966000,0.0324,0.013523,0.002678,0.000431,0.000118
25967000,0.0324,0.013523,0.002678,0.000431,0.000470
25968000,0.0324,0.013523,0.002678,0.000431,0.000353
25969000,0.0324,0.013523,0.002678,0.000431,0.000235
25970000,0.0324,0.013523,0.002678,0.000431,0.000353
25971000,0.0324,0.013523,0.002678,0.000431,0.000470
25972000,0.0324,0.013523,0.002678,0.000431,0.000235
25973000,0.0324,0.013523,0.002678,0.000431,0.000235
25974000,0.0324,0.013523,0.002678,0.000431,0.000470
25975000,0.0324,0.013523,0.002678,0.000431,0.000353
25976000,0.0324,0.013523,0.002678,0.000431,0.000235
25977000,0.0324,0.013523,0.002678,0.000431,0.000353
25978000,0.0324,0.013523,0.002678,0.000431,0.000470
25979000,0.0324,0.013523,0.002678,0.000431,0.000235
25980000,0.0324,0.013523,0.002678,0.000431,0.000235
25981000,0.0324,0.013523,0.002678,0.000431,0.000470
25982000,0.0324,0.013523,0.002678,0.000431,0.000353
25983000,0.0324,0.013523,0.002678,0.000431,0.000235
25984000,0.0324,0.013523,0.002678,0.000431,0.000353
25985000,0.0324,0.013523,0.002678,0.000431,0.000470
25986000,0.0324,0.013523,0.002678,0.000431,0.000118
25987000,0.0324,0.013523,0.002678,0.000431,0.000353
25988000,0.0324,0.013523,0.002678,0.000431,0.000470
25989000,0.0324,0.013523,0.002678,0.000431,0.000353
25990000,0.0324,0.013523,0.002678,0.000431,0.000235
25991000,0.0324,0.013523,0.002678,0.000431,0.000353
25992000,0.0324,0.013523,0.002678,0.000431,0.000353
25993000,0.0324,0.013523,0.002678,0.000431,0.000235
25994000,0.0324,0.013523,0.002678,0.000431,0.000353
25995000,0.0324,0.013523,0.002678,0.000431,0.000470
25996000,0.0324,0.013523,0.002678,0.000431,0.000353
25997000,0.0324,0.013523,0.002678,0.000431,0.000235
25998000,0.0324,0.013523,0.002678,0.000431,0.000353
25999000,0.0324,0.013523,0.002678,0.000431,0.000353
