Cycle,Area(mm^2),PeakDynamic(W),SubthresholdLeakage(W),GateLeakage(W),RunTimeDynamic(W)
21000000,0.0324,0.013523,0.002678,0.000431,0.000470
21001000,0.0324,0.013523,0.002678,0.000431,0.000353
21002000,0.0324,0.013523,0.002678,0.000431,0.000235
21003000,0.0324,0.013523,0.002678,0.000431,0.000353
21004000,0.0324,0.013523,0.002678,0.000431,0.000353
21005000,0.0324,0.013523,0.002678,0.000431,0.000235
21006000,0.0324,0.013523,0.002678,0.000431,0.000353
21007000,0.0324,0.013523,0.002678,0.000431,0.000470
21008000,0.0324,0.013523,0.002678,0.000431,0.000353
21009000,0.0324,0.013523,0.002678,0.000431,0.000235
21010000,0.0324,0.013523,0.002678,0.000431,0.000353
21011000,0.0324,0.013523,0.002678,0.000431,0.000353
21012000,0.0324,0.013523,0.002678,0.000431,0.000235
21013000,0.0324,0.013523,0.002678,0.000431,0.000353
21014000,0.0324,0.013523,0.002678,0.000431,0.000470
21015000,0.0324,0.013523,0.002678,0.000431,0.000353
21016000,0.0324,0.013523,0.002678,0.000431,0.000235
21017000,0.0324,0.013523,0.002678,0.000431,0.000353
21018000,0.0324,0.013523,0.002678,0.000431,0.000353
21019000,0.0324,0.013523,0.002678,0.000431,0.000235
21020000,0.0324,0.013523,0.002678,0.000431,0.000353
21021000,0.0324,0.013523,0.002678,0.000431,0.000470
21022000,0.0324,0.013523,0.002678,0.000431,0.000353
21023000,0.0324,0.013523,0.002678,0.000431,0.000235
21024000,0.0324,0.013523,0.002678,0.000431,0.000353
21025000,0.0324,0.013523,0.002678,0.000431,0.000353
21026000,0.0324,0.013523,0.002678,0.000431,0.000235
21027000,0.0324,0.013523,0.002678,0.000431,0.000353
21028000,0.0324,0.013523,0.002678,0.000431,0.000470
21029000,0.0324,0.013523,0.002678,0.000431,0.000353
21030000,0.0324,0.013523,0.002678,0.000431,0.000235
21031000,0.0324,0.013523,0.002678,0.000431,0.000353
21032000,0.0324,0.013523,0.002678,0.000431,0.000353
21033000,0.0324,0.013523,0.002678,0.000431,0.000235
21034000,0.0324,0.013523,0.002678,0.000431,0.000353
21035000,0.0324,0.013523,0.002678,0.000431,0.000470
21036000,0.0324,0.013523,0.002678,0.000431,0.000353
21037000,0.0324,0.013523,0.002678,0.000431,0.000235
21038000,0.0324,0.013523,0.002678,0.000431,0.000353
21039000,0.0324,0.013523,0.002678,0.000431,0.000353
21040000,0.0324,0.013523,0.002678,0.000431,0.000235
21041000,0.0324,0.013523,0.002678,0.000431,0.000353
21042000,0.0324,0.013523,0.002678,0.000431,0.000470
21043000,0.0324,0.013523,0.002678,0.000431,0.000353
21044000,0.0324,0.013523,0.002678,0.000431,0.000235
21045000,0.0324,0.013523,0.002678,0.000431,0.000353
21046000,0.0324,0.013523,0.002678,0.000431,0.000353
21047000,0.0324,0.013523,0.002678,0.000431,0.000235
21048000,0.0324,0.013523,0.002678,0.000431,0.000353
21049000,0.0324,0.013523,0.002678,0.000431,0.000470
21050000,0.0324,0.013523,0.002678,0.000431,0.000353
21051000,0.0324,0.013523,0.002678,0.000431,0.000235
21052000,0.0324,0.013523,0.002678,0.000431,0.000353
21053000,0.0324,0.013523,0.002678,0.000431,0.000353
21054000,0.0324,0.013523,0.002678,0.000431,0.000235
21055000,0.0324,0.013523,0.002678,0.000431,0.000353
21056000,0.0324,0.013523,0.002678,0.000431,0.000470
21057000,0.0324,0.013523,0.002678,0.000431,0.000353
21058000,0.0324,0.013523,0.002678,0.000431,0.000118
21059000,0.0324,0.013523,0.002678,0.000431,0.000470
21060000,0.0324,0.013523,0.002678,0.000431,0.000353
21061000,0.0324,0.013523,0.002678,0.000431,0.000235
21062000,0.0324,0.013523,0.002678,0.000431,0.000353
21063000,0.0324,0.013523,0.002678,0.000431,0.000470
21064000,0.0324,0.013523,0.002678,0.000431,0.000353
21065000,0.0324,0.013523,0.002678,0.000431,0.000118
21066000,0.0324,0.013523,0.002678,0.000431,0.000470
21067000,0.0324,0.013523,0.002678,0.000431,0.000353
21068000,0.0324,0.013523,0.002678,0.000431,0.000235
21069000,0.0324,0.013523,0.002678,0.000431,0.000353
21070000,0.0324,0.013523,0.002678,0.000431,0.000470
21071000,0.0324,0.013523,0.002678,0.000431,0.000353
21072000,0.0324,0.013523,0.002678,0.000431,0.000118
21073000,0.0324,0.013523,0.002678,0.000431,0.000470
21074000,0.0324,0.013523,0.002678,0.000431,0.000353
21075000,0.0324,0.013523,0.002678,0.000431,0.000235
21076000,0.0324,0.013523,0.002678,0.000431,0.000353
21077000,0.0324,0.013523,0.002678,0.000431,0.000470
21078000,0.0324,0.013523,0.002678,0.000431,0.000235
21079000,0.0324,0.013523,0.002678,0.000431,0.000235
21080000,0.0324,0.013523,0.002678,0.000431,0.000470
21081000,0.0324,0.013523,0.002678,0.000431,0.000353
21082000,0.0324,0.013523,0.002678,0.000431,0.000235
21083000,0.0324,0.013523,0.002678,0.000431,0.000353
21084000,0.0324,0.013523,0.002678,0.000431,0.000470
21085000,0.0324,0.013523,0.002678,0.000431,0.000235
21086000,0.0324,0.013523,0.002678,0.000431,0.000235
21087000,0.0324,0.013523,0.002678,0.000431,0.000470
21088000,0.0324,0.013523,0.002678,0.000431,0.000353
21089000,0.0324,0.013523,0.002678,0.000431,0.000235
21090000,0.0324,0.013523,0.002678,0.000431,0.000353
21091000,0.0324,0.013523,0.002678,0.000431,0.000470
21092000,0.0324,0.013523,0.002678,0.000431,0.000235
21093000,0.0324,0.013523,0.002678,0.000431,0.000235
21094000,0.0324,0.013523,0.002678,0.000431,0.000470
21095000,0.0324,0.013523,0.002678,0.000431,0.000353
21096000,0.0324,0.013523,0.002678,0.000431,0.000235
21097000,0.0324,0.013523,0.002678,0.000431,0.000353
21098000,0.0324,0.013523,0.002678,0.000431,0.000470
21099000,0.0324,0.013523,0.002678,0.000431,0.000235
21100000,0.0324,0.013523,0.002678,0.000431,0.000235
21101000,0.0324,0.013523,0.002678,0.000431,0.000470
21102000,0.0324,0.013523,0.002678,0.000431,0.000353
21103000,0.0324,0.013523,0.002678,0.000431,0.000235
21104000,0.0324,0.013523,0.002678,0.000431,0.000353
21105000,0.0324,0.013523,0.002678,0.000431,0.000470
21106000,0.0324,0.013523,0.002678,0.000431,0.000235
21107000,0.0324,0.013523,0.002678,0.000431,0.000235
21108000,0.0324,0.013523,0.002678,0.000431,0.000470
21109000,0.0324,0.013523,0.002678,0.000431,0.000353
21110000,0.0324,0.013523,0.002678,0.000431,0.000235
21111000,0.0324,0.013523,0.002678,0.000431,0.000353
21112000,0.0324,0.013523,0.002678,0.000431,0.000470
21113000,0.0324,0.013523,0.002678,0.000431,0.000235
21114000,0.0324,0.013523,0.002678,0.000431,0.000235
21115000,0.0324,0.013523,0.002678,0.000431,0.000470
21116000,0.0324,0.013523,0.002678,0.000431,0.000353
21117000,0.0324,0.013523,0.002678,0.000431,0.000235
21118000,0.0324,0.013523,0.002678,0.000431,0.000353
21119000,0.0324,0.013523,0.002678,0.000431,0.000470
21120000,0.0324,0.013523,0.002678,0.000431,0.000118
21121000,0.0324,0.013523,0.002678,0.000431,0.000353
21122000,0.0324,0.013523,0.002678,0.000431,0.000470
21123000,0.0324,0.013523,0.002678,0.000431,0.000353
21124000,0.0324,0.013523,0.002678,0.000431,0.000235
21125000,0.0324,0.013523,0.002678,0.000431,0.000353
21126000,0.0324,0.013523,0.002678,0.000431,0.000470
21127000,0.0324,0.013523,0.002678,0.000431,0.000118
21128000,0.0324,0.013523,0.002678,0.000431,0.000353
21129000,0.0324,0.013523,0.002678,0.000431,0.000470
21130000,0.0324,0.013523,0.002678,0.000431,0.000353
21131000,0.0324,0.013523,0.002678,0.000431,0.000235
21132000,0.0324,0.013523,0.002678,0.000431,0.000353
21133000,0.0324,0.013523,0.002678,0.000431,0.000470
21134000,0.0324,0.013523,0.002678,0.000431,0.000118
21135000,0.0324,0.013523,0.002678,0.000431,0.000353
21136000,0.0324,0.013523,0.002678,0.000431,0.000470
21137000,0.0324,0.013523,0.002678,0.000431,0.000353
21138000,0.0324,0.013523,0.002678,0.000431,0.000235
21139000,0.0324,0.013523,0.002678,0.000431,0.000353
21140000,0.0324,0.013523,0.002678,0.000431,0.000353
21141000,0.0324,0.013523,0.002678,0.000431,0.000235
21142000,0.0324,0.013523,0.002678,0.000431,0.000353
21143000,0.0324,0.013523,0.002678,0.000431,0.000470
21144000,0.0324,0.013523,0.002678,0.000431,0.000353
21145000,0.0324,0.013523,0.002678,0.000431,0.000235
21146000,0.0324,0.013523,0.002678,0.000431,0.000353
21147000,0.0324,0.013523,0.002678,0.000431,0.000353
21148000,0.0324,0.013523,0.002678,0.000431,0.000235
21149000,0.0324,0.013523,0.002678,0.000431,0.000353
21150000,0.0324,0.013523,0.002678,0.000431,0.000470
21151000,0.0324,0.013523,0.002678,0.000431,0.000353
21152000,0.0324,0.013523,0.002678,0.000431,0.000235
21153000,0.0324,0.013523,0.002678,0.000431,0.000353
21154000,0.0324,0.013523,0.002678,0.000431,0.000353
21155000,0.0324,0.013523,0.002678,0.000431,0.000235
21156000,0.0324,0.013523,0.002678,0.000431,0.000353
21157000,0.0324,0.013523,0.002678,0.000431,0.000470
21158000,0.0324,0.013523,0.002678,0.000431,0.000353
21159000,0.0324,0.013523,0.002678,0.000431,0.000235
21160000,0.0324,0.013523,0.002678,0.000431,0.000353
21161000,0.0324,0.013523,0.002678,0.000431,0.000353
21162000,0.0324,0.013523,0.002678,0.000431,0.000235
21163000,0.0324,0.013523,0.002678,0.000431,0.000353
21164000,0.0324,0.013523,0.002678,0.000431,0.000470
21165000,0.0324,0.013523,0.002678,0.000431,0.000353
21166000,0.0324,0.013523,0.002678,0.000431,0.000235
21167000,0.0324,0.013523,0.002678,0.000431,0.000353
21168000,0.0324,0.013523,0.002678,0.000431,0.000353
21169000,0.0324,0.013523,0.002678,0.000431,0.000235
21170000,0.0324,0.013523,0.002678,0.000431,0.000353
21171000,0.0324,0.013523,0.002678,0.000431,0.000470
21172000,0.0324,0.013523,0.002678,0.000431,0.000353
21173000,0.0324,0.013523,0.002678,0.000431,0.000235
21174000,0.0324,0.013523,0.002678,0.000431,0.000353
21175000,0.0324,0.013523,0.002678,0.000431,0.000353
21176000,0.0324,0.013523,0.002678,0.000431,0.000235
21177000,0.0324,0.013523,0.002678,0.000431,0.000353
21178000,0.0324,0.013523,0.002678,0.000431,0.000470
21179000,0.0324,0.013523,0.002678,0.000431,0.000353
21180000,0.0324,0.013523,0.002678,0.000431,0.000235
21181000,0.0324,0.013523,0.002678,0.000431,0.000353
21182000,0.0324,0.013523,0.002678,0.000431,0.000353
21183000,0.0324,0.013523,0.002678,0.000431,0.000235
21184000,0.0324,0.013523,0.002678,0.000431,0.000353
21185000,0.0324,0.013523,0.002678,0.000431,0.000470
21186000,0.0324,0.013523,0.002678,0.000431,0.000353
21187000,0.0324,0.013523,0.002678,0.000431,0.000235
21188000,0.0324,0.013523,0.002678,0.000431,0.000353
21189000,0.0324,0.013523,0.002678,0.000431,0.000353
21190000,0.0324,0.013523,0.002678,0.000431,0.000235
21191000,0.0324,0.013523,0.002678,0.000431,0.000353
21192000,0.0324,0.013523,0.002678,0.000431,0.000470
21193000,0.0324,0.013523,0.002678,0.000431,0.000353
21194000,0.0324,0.013523,0.002678,0.000431,0.000118
21195000,0.0324,0.013523,0.002678,0.000431,0.000470
21196000,0.0324,0.013523,0.002678,0.000431,0.000353
21197000,0.0324,0.013523,0.002678,0.000431,0.000235
21198000,0.0324,0.013523,0.002678,0.000431,0.000353
21199000,0.0324,0.013523,0.002678,0.000431,0.000470
21200000,0.0324,0.013523,0.002678,0.000431,0.000353
21201000,0.0324,0.013523,0.002678,0.000431,0.000118
21202000,0.0324,0.013523,0.002678,0.000431,0.000470
21203000,0.0324,0.013523,0.002678,0.000431,0.000353
21204000,0.0324,0.013523,0.002678,0.000431,0.000235
21205000,0.0324,0.013523,0.002678,0.000431,0.000353
21206000,0.0324,0.013523,0.002678,0.000431,0.000470
21207000,0.0324,0.013523,0.002678,0.000431,0.000353
21208000,0.0324,0.013523,0.002678,0.000431,0.000118
21209000,0.0324,0.013523,0.002678,0.000431,0.000470
21210000,0.0324,0.013523,0.002678,0.000431,0.000353
21211000,0.0324,0.013523,0.002678,0.000431,0.000235
21212000,0.0324,0.013523,0.002678,0.000431,0.000353
21213000,0.0324,0.013523,0.002678,0.000431,0.000470
21214000,0.0324,0.013523,0.002678,0.000431,0.000353
21215000,0.0324,0.013523,0.002678,0.000431,0.000118
21216000,0.0324,0.013523,0.002678,0.000431,0.000470
21217000,0.0324,0.013523,0.002678,0.000431,0.000353
21218000,0.0324,0.013523,0.002678,0.000431,0.000235
21219000,0.0324,0.013523,0.002678,0.000431,0.000353
21220000,0.0324,0.013523,0.002678,0.000431,0.000470
21221000,0.0324,0.013523,0.002678,0.000431,0.000235
21222000,0.0324,0.013523,0.002678,0.000431,0.000235
21223000,0.0324,0.013523,0.002678,0.000431,0.000470
21224000,0.0324,0.013523,0.002678,0.000431,0.000353
21225000,0.0324,0.013523,0.002678,0.000431,0.000235
21226000,0.0324,0.013523,0.002678,0.000431,0.000353
21227000,0.0324,0.013523,0.002678,0.000431,0.000470
21228000,0.0324,0.013523,0.002678,0.000431,0.000235
21229000,0.0324,0.013523,0.002678,0.000431,0.000235
21230000,0.0324,0.013523,0.002678,0.000431,0.000470
21231000,0.0324,0.013523,0.002678,0.000431,0.000353
21232000,0.0324,0.013523,0.002678,0.000431,0.000235
21233000,0.0324,0.013523,0.002678,0.000431,0.000353
21234000,0.0324,0.013523,0.002678,0.000431,0.000470
21235000,0.0324,0.013523,0.002678,0.000431,0.000235
21236000,0.0324,0.013523,0.002678,0.000431,0.000235
21237000,0.0324,0.013523,0.002678,0.000431,0.000470
21238000,0.0324,0.013523,0.002678,0.000431,0.000353
21239000,0.0324,0.013523,0.002678,0.000431,0.000235
21240000,0.0324,0.013523,0.002678,0.000431,0.000353
21241000,0.0324,0.013523,0.002678,0.000431,0.000470
21242000,0.0324,0.013523,0.002678,0.000431,0.000235
21243000,0.0324,0.013523,0.002678,0.000431,0.000235
21244000,0.0324,0.013523,0.002678,0.000431,0.000470
21245000,0.0324,0.013523,0.002678,0.000431,0.000353
21246000,0.0324,0.013523,0.002678,0.000431,0.000235
21247000,0.0324,0.013523,0.002678,0.000431,0.000353
21248000,0.0324,0.013523,0.002678,0.000431,0.000470
21249000,0.0324,0.013523,0.002678,0.000431,0.000235
21250000,0.0324,0.013523,0.002678,0.000431,0.000235
21251000,0.0324,0.013523,0.002678,0.000431,0.000470
21252000,0.0324,0.013523,0.002678,0.000431,0.000353
21253000,0.0324,0.013523,0.002678,0.000431,0.000235
21254000,0.0324,0.013523,0.002678,0.000431,0.000353
21255000,0.0324,0.013523,0.002678,0.000431,0.000470
21256000,0.0324,0.013523,0.002678,0.000431,0.000235
21257000,0.0324,0.013523,0.002678,0.000431,0.000235
21258000,0.0324,0.013523,0.002678,0.000431,0.000470
21259000,0.0324,0.013523,0.002678,0.000431,0.000353
21260000,0.0324,0.013523,0.002678,0.000431,0.000235
21261000,0.0324,0.013523,0.002678,0.000431,0.000353
21262000,0.0324,0.013523,0.002678,0.000431,0.000470
21263000,0.0324,0.013523,0.002678,0.000431,0.000118
21264000,0.0324,0.013523,0.002678,0.000431,0.000353
21265000,0.0324,0.013523,0.002678,0.000431,0.000470
21266000,0.0324,0.013523,0.002678,0.000431,0.000353
21267000,0.0324,0.013523,0.002678,0.000431,0.000235
21268000,0.0324,0.013523,0.002678,0.000431,0.000353
21269000,0.0324,0.013523,0.002678,0.000431,0.000470
21270000,0.0324,0.013523,0.002678,0.000431,0.000118
21271000,0.0324,0.013523,0.002678,0.000431,0.000353
21272000,0.0324,0.013523,0.002678,0.000431,0.000470
21273000,0.0324,0.013523,0.002678,0.000431,0.000353
21274000,0.0324,0.013523,0.002678,0.000431,0.000235
21275000,0.0324,0.013523,0.002678,0.000431,0.000353
21276000,0.0324,0.013523,0.002678,0.000431,0.000470
21277000,0.0324,0.013523,0.002678,0.000431,0.000118
21278000,0.0324,0.013523,0.002678,0.000431,0.000353
21279000,0.0324,0.013523,0.002678,0.000431,0.000470
21280000,0.0324,0.013523,0.002678,0.000431,0.000353
21281000,0.0324,0.013523,0.002678,0.000431,0.000235
21282000,0.0324,0.013523,0.002678,0.000431,0.000353
21283000,0.0324,0.013523,0.002678,0.000431,0.000353
21284000,0.0324,0.013523,0.002678,0.000431,0.000235
21285000,0.0324,0.013523,0.002678,0.000431,0.000353
21286000,0.0324,0.013523,0.002678,0.000431,0.000470
21287000,0.0324,0.013523,0.002678,0.000431,0.000353
21288000,0.0324,0.013523,0.002678,0.000431,0.000235
21289000,0.0324,0.013523,0.002678,0.000431,0.000353
21290000,0.0324,0.013523,0.002678,0.000431,0.000353
21291000,0.0324,0.013523,0.002678,0.000431,0.000235
21292000,0.0324,0.013523,0.002678,0.000431,0.000353
21293000,0.0324,0.013523,0.002678,0.000431,0.000470
21294000,0.0324,0.013523,0.002678,0.000431,0.000353
21295000,0.0324,0.013523,0.002678,0.000431,0.000235
21296000,0.0324,0.013523,0.002678,0.000431,0.000353
21297000,0.0324,0.013523,0.002678,0.000431,0.000353
21298000,0.0324,0.013523,0.002678,0.000431,0.000235
21299000,0.0324,0.013523,0.002678,0.000431,0.000353
21300000,0.0324,0.013523,0.002678,0.000431,0.000470
21301000,0.0324,0.013523,0.002678,0.000431,0.000353
21302000,0.0324,0.013523,0.002678,0.000431,0.000235
21303000,0.0324,0.013523,0.002678,0.000431,0.000353
21304000,0.0324,0.013523,0.002678,0.000431,0.000353
21305000,0.0324,0.013523,0.002678,0.000431,0.000235
21306000,0.0324,0.013523,0.002678,0.000431,0.000353
21307000,0.0324,0.013523,0.002678,0.000431,0.000470
21308000,0.0324,0.013523,0.002678,0.000431,0.000353
21309000,0.0324,0.013523,0.002678,0.000431,0.000235
21310000,0.0324,0.013523,0.002678,0.000431,0.000353
21311000,0.0324,0.013523,0.002678,0.000431,0.000353
21312000,0.0324,0.013523,0.002678,0.000431,0.000235
21313000,0.0324,0.013523,0.002678,0.000431,0.000353
21314000,0.0324,0.013523,0.002678,0.000431,0.000470
21315000,0.0324,0.013523,0.002678,0.000431,0.000353
21316000,0.0324,0.013523,0.002678,0.000431,0.000235
21317000,0.0324,0.013523,0.002678,0.000431,0.000353
21318000,0.0324,0.013523,0.002678,0.000431,0.000353
21319000,0.0324,0.013523,0.002678,0.000431,0.000235
21320000,0.0324,0.013523,0.002678,0.000431,0.000353
21321000,0.0324,0.013523,0.002678,0.000431,0.000470
21322000,0.0324,0.013523,0.002678,0.000431,0.000353
21323000,0.0324,0.013523,0.002678,0.000431,0.000235
21324000,0.0324,0.013523,0.002678,0.000431,0.000353
21325000,0.0324,0.013523,0.002678,0.000431,0.000353
21326000,0.0324,0.013523,0.002678,0.000431,0.000235
21327000,0.0324,0.013523,0.002678,0.000431,0.000353
21328000,0.0324,0.013523,0.002678,0.000431,0.000470
21329000,0.0324,0.013523,0.002678,0.000431,0.000353
21330000,0.0324,0.013523,0.002678,0.000431,0.000118
21331000,0.0324,0.013523,0.002678,0.000431,0.000470
21332000,0.0324,0.013523,0.002678,0.000431,0.000353
21333000,0.0324,0.013523,0.002678,0.000431,0.000235
21334000,0.0324,0.013523,0.002678,0.000431,0.000353
21335000,0.0324,0.013523,0.002678,0.000431,0.000470
21336000,0.0324,0.013523,0.002678,0.000431,0.000235
21337000,0.0324,0.013523,0.002678,0.000431,0.000235
21338000,0.0324,0.013523,0.002678,0.000431,0.000470
21339000,0.0324,0.013523,0.002678,0.000431,0.000353
21340000,0.0324,0.013523,0.002678,0.000431,0.000235
21341000,0.0324,0.013523,0.002678,0.000431,0.000353
21342000,0.0324,0.013523,0.002678,0.000431,0.000470
21343000,0.0324,0.013523,0.002678,0.000431,0.000235
21344000,0.0324,0.013523,0.002678,0.000431,0.000235
21345000,0.0324,0.013523,0.002678,0.000431,0.000470
21346000,0.0324,0.013523,0.002678,0.000431,0.000353
21347000,0.0324,0.013523,0.002678,0.000431,0.000235
21348000,0.0324,0.013523,0.002678,0.000431,0.000353
21349000,0.0324,0.013523,0.002678,0.000431,0.000470
21350000,0.0324,0.013523,0.002678,0.000431,0.000118
21351000,0.0324,0.013523,0.002678,0.000431,0.000353
21352000,0.0324,0.013523,0.002678,0.000431,0.000470
21353000,0.0324,0.013523,0.002678,0.000431,0.000353
21354000,0.0324,0.013523,0.002678,0.000431,0.000235
21355000,0.0324,0.013523,0.002678,0.000431,0.000353
21356000,0.0324,0.013523,0.002678,0.000431,0.000353
21357000,0.0324,0.013523,0.002678,0.000431,0.000235
21358000,0.0324,0.013523,0.002678,0.000431,0.000353
21359000,0.0324,0.013523,0.002678,0.000431,0.000470
21360000,0.0324,0.013523,0.002678,0.000431,0.000353
21361000,0.0324,0.013523,0.002678,0.000431,0.000235
21362000,0.0324,0.013523,0.002678,0.000431,0.000353
21363000,0.0324,0.013523,0.002678,0.000431,0.000353
21364000,0.0324,0.013523,0.002678,0.000431,0.000235
21365000,0.0324,0.013523,0.002678,0.000431,0.000353
21366000,0.0324,0.013523,0.002678,0.000431,0.000470
21367000,0.0324,0.013523,0.002678,0.000431,0.000353
21368000,0.0324,0.013523,0.002678,0.000431,0.000235
21369000,0.0324,0.013523,0.002678,0.000431,0.000353
21370000,0.0324,0.013523,0.002678,0.000431,0.000353
21371000,0.0324,0.013523,0.002678,0.000431,0.000235
21372000,0.0324,0.013523,0.002678,0.000431,0.000353
21373000,0.0324,0.013523,0.002678,0.000431,0.000470
21374000,0.0324,0.013523,0.002678,0.000431,0.000353
21375000,0.0324,0.013523,0.002678,0.000431,0.000118
21376000,0.0324,0.013523,0.002678,0.000431,0.000470
21377000,0.0324,0.013523,0.002678,0.000431,0.000353
21378000,0.0324,0.013523,0.002678,0.000431,0.000235
21379000,0.0324,0.013523,0.002678,0.000431,0.000353
21380000,0.0324,0.013523,0.002678,0.000431,0.000470
21381000,0.0324,0.013523,0.002678,0.000431,0.000235
21382000,0.0324,0.013523,0.002678,0.000431,0.000235
21383000,0.0324,0.013523,0.002678,0.000431,0.000470
21384000,0.0324,0.013523,0.002678,0.000431,0.000353
21385000,0.0324,0.013523,0.002678,0.000431,0.000235
21386000,0.0324,0.013523,0.002678,0.000431,0.000353
21387000,0.0324,0.013523,0.002678,0.000431,0.000470
21388000,0.0324,0.013523,0.002678,0.000431,0.000235
21389000,0.0324,0.013523,0.002678,0.000431,0.000235
21390000,0.0324,0.013523,0.002678,0.000431,0.000470
21391000,0.0324,0.013523,0.002678,0.000431,0.000353
21392000,0.0324,0.013523,0.002678,0.000431,0.000235
21393000,0.0324,0.013523,0.002678,0.000431,0.000353
21394000,0.0324,0.013523,0.002678,0.000431,0.000470
21395000,0.0324,0.013523,0.002678,0.000431,0.000118
21396000,0.0324,0.013523,0.002678,0.000431,0.000353
21397000,0.0324,0.013523,0.002678,0.000431,0.000470
21398000,0.0324,0.013523,0.002678,0.000431,0.000353
21399000,0.0324,0.013523,0.002678,0.000431,0.000235
21400000,0.0324,0.013523,0.002678,0.000431,0.000353
21401000,0.0324,0.013523,0.002678,0.000431,0.000353
21402000,0.0324,0.013523,0.002678,0.000431,0.000235
21403000,0.0324,0.013523,0.002678,0.000431,0.000353
21404000,0.0324,0.013523,0.002678,0.000431,0.000470
21405000,0.0324,0.013523,0.002678,0.000431,0.000353
21406000,0.0324,0.013523,0.002678,0.000431,0.000235
21407000,0.0324,0.013523,0.002678,0.000431,0.000353
21408000,0.0324,0.013523,0.002678,0.000431,0.000353
21409000,0.0324,0.013523,0.002678,0.000431,0.000235
21410000,0.0324,0.013523,0.002678,0.000431,0.000353
21411000,0.0324,0.013523,0.002678,0.000431,0.000470
21412000,0.0324,0.013523,0.002678,0.000431,0.000353
21413000,0.0324,0.013523,0.002678,0.000431,0.000118
21414000,0.0324,0.013523,0.002678,0.000431,0.000470
21415000,0.0324,0.013523,0.002678,0.000431,0.000353
21416000,0.0324,0.013523,0.002678,0.000431,0.000235
21417000,0.0324,0.013523,0.002678,0.000431,0.000353
21418000,0.0324,0.013523,0.002678,0.000431,0.000470
21419000,0.0324,0.013523,0.002678,0.000431,0.000235
21420000,0.0324,0.013523,0.002678,0.000431,0.000235
21421000,0.0324,0.013523,0.002678,0.000431,0.000470
21422000,0.0324,0.013523,0.002678,0.000431,0.000353
21423000,0.0324,0.013523,0.002678,0.000431,0.000235
21424000,0.0324,0.013523,0.002678,0.000431,0.000353
21425000,0.0324,0.013523,0.002678,0.000431,0.000470
21426000,0.0324,0.013523,0.002678,0.000431,0.000235
21427000,0.0324,0.013523,0.002678,0.000431,0.000235
21428000,0.0324,0.013523,0.002678,0.000431,0.000470
21429000,0.0324,0.013523,0.002678,0.000431,0.000353
21430000,0.0324,0.013523,0.002678,0.000431,0.000235
21431000,0.0324,0.013523,0.002678,0.000431,0.000353
21432000,0.0324,0.013523,0.002678,0.000431,0.000470
21433000,0.0324,0.013523,0.002678,0.000431,0.000118
21434000,0.0324,0.013523,0.002678,0.000431,0.000353
21435000,0.0324,0.013523,0.002678,0.000431,0.000470
21436000,0.0324,0.013523,0.002678,0.000431,0.000353
21437000,0.0324,0.013523,0.002678,0.000431,0.000235
21438000,0.0324,0.013523,0.002678,0.000431,0.000353
21439000,0.0324,0.013523,0.002678,0.000431,0.000470
21440000,0.0324,0.013523,0.002678,0.000431,0.000118
21441000,0.0324,0.013523,0.002678,0.000431,0.000353
21442000,0.0324,0.013523,0.002678,0.000431,0.000470
21443000,0.0324,0.013523,0.002678,0.000431,0.000353
21444000,0.0324,0.013523,0.002678,0.000431,0.000235
21445000,0.0324,0.013523,0.002678,0.000431,0.000353
21446000,0.0324,0.013523,0.002678,0.000431,0.000353
21447000,0.0324,0.013523,0.002678,0.000431,0.000235
21448000,0.0324,0.013523,0.002678,0.000431,0.000353
21449000,0.0324,0.013523,0.002678,0.000431,0.000470
21450000,0.0324,0.013523,0.002678,0.000431,0.000353
21451000,0.0324,0.013523,0.002678,0.000431,0.000235
21452000,0.0324,0.013523,0.002678,0.000431,0.000353
21453000,0.0324,0.013523,0.002678,0.000431,0.000353
21454000,0.0324,0.013523,0.002678,0.000431,0.000235
21455000,0.0324,0.013523,0.002678,0.000431,0.000353
21456000,0.0324,0.013523,0.002678,0.000431,0.000470
21457000,0.0324,0.013523,0.002678,0.000431,0.000353
21458000,0.0324,0.013523,0.002678,0.000431,0.000118
21459000,0.0324,0.013523,0.002678,0.000431,0.000470
21460000,0.0324,0.013523,0.002678,0.000431,0.000353
21461000,0.0324,0.013523,0.002678,0.000431,0.000235
21462000,0.0324,0.013523,0.002678,0.000431,0.000353
21463000,0.0324,0.013523,0.002678,0.000431,0.000470
21464000,0.0324,0.013523,0.002678,0.000431,0.000353
21465000,0.0324,0.013523,0.002678,0.000431,0.000118
21466000,0.0324,0.013523,0.002678,0.000431,0.000470
21467000,0.0324,0.013523,0.002678,0.000431,0.000353
21468000,0.0324,0.013523,0.002678,0.000431,0.000235
21469000,0.0324,0.013523,0.002678,0.000431,0.000353
21470000,0.0324,0.013523,0.002678,0.000431,0.000470
21471000,0.0324,0.013523,0.002678,0.000431,0.000235
21472000,0.0324,0.013523,0.002678,0.000431,0.000235
21473000,0.0324,0.013523,0.002678,0.000431,0.000470
21474000,0.0324,0.013523,0.002678,0.000431,0.000353
21475000,0.0324,0.013523,0.002678,0.000431,0.000235
21476000,0.0324,0.013523,0.002678,0.000431,0.000353
21477000,0.0324,0.013523,0.002678,0.000431,0.000470
21478000,0.0324,0.013523,0.002678,0.000431,0.000235
21479000,0.0324,0.013523,0.002678,0.000431,0.000235
21480000,0.0324,0.013523,0.002678,0.000431,0.000470
21481000,0.0324,0.013523,0.002678,0.000431,0.000353
21482000,0.0324,0.013523,0.002678,0.000431,0.000235
21483000,0.0324,0.013523,0.002678,0.000431,0.000353
21484000,0.0324,0.013523,0.002678,0.000431,0.000470
21485000,0.0324,0.013523,0.002678,0.000431,0.000235
21486000,0.0324,0.013523,0.002678,0.000431,0.000235
21487000,0.0324,0.013523,0.002678,0.000431,0.000470
21488000,0.0324,0.013523,0.002678,0.000431,0.000353
21489000,0.0324,0.013523,0.002678,0.000431,0.000235
21490000,0.0324,0.013523,0.002678,0.000431,0.000353
21491000,0.0324,0.013523,0.002678,0.000431,0.000470
21492000,0.0324,0.013523,0.002678,0.000431,0.000235
21493000,0.0324,0.013523,0.002678,0.000431,0.000235
21494000,0.0324,0.013523,0.002678,0.000431,0.000470
21495000,0.0324,0.013523,0.002678,0.000431,0.000353
21496000,0.0324,0.013523,0.002678,0.000431,0.000235
21497000,0.0324,0.013523,0.002678,0.000431,0.000353
21498000,0.0324,0.013523,0.002678,0.000431,0.000470
21499000,0.0324,0.013523,0.002678,0.000431,0.000235
21500000,0.0324,0.013523,0.002678,0.000431,0.000235
21501000,0.0324,0.013523,0.002678,0.000431,0.000470
21502000,0.0324,0.013523,0.002678,0.000431,0.000353
21503000,0.0324,0.013523,0.002678,0.000431,0.000235
21504000,0.0324,0.013523,0.002678,0.000431,0.000353
21505000,0.0324,0.013523,0.002678,0.000431,0.000470
21506000,0.0324,0.013523,0.002678,0.000431,0.000118
21507000,0.0324,0.013523,0.002678,0.000431,0.000353
21508000,0.0324,0.013523,0.002678,0.000431,0.000470
21509000,0.0324,0.013523,0.002678,0.000431,0.000353
21510000,0.0324,0.013523,0.002678,0.000431,0.000235
21511000,0.0324,0.013523,0.002678,0.000431,0.000353
21512000,0.0324,0.013523,0.002678,0.000431,0.000470
21513000,0.0324,0.013523,0.002678,0.000431,0.000118
21514000,0.0324,0.013523,0.002678,0.000431,0.000353
21515000,0.0324,0.013523,0.002678,0.000431,0.000470
21516000,0.0324,0.013523,0.002678,0.000431,0.000353
21517000,0.0324,0.013523,0.002678,0.000431,0.000235
21518000,0.0324,0.013523,0.002678,0.000431,0.000353
21519000,0.0324,0.013523,0.002678,0.000431,0.000470
21520000,0.0324,0.013523,0.002678,0.000431,0.000118
21521000,0.0324,0.013523,0.002678,0.000431,0.000353
21522000,0.0324,0.013523,0.002678,0.000431,0.000470
21523000,0.0324,0.013523,0.002678,0.000431,0.000353
21524000,0.0324,0.013523,0.002678,0.000431,0.000235
21525000,0.0324,0.013523,0.002678,0.000431,0.000353
21526000,0.0324,0.013523,0.002678,0.000431,0.000470
21527000,0.0324,0.013523,0.002678,0.000431,0.000118
21528000,0.0324,0.013523,0.002678,0.000431,0.000353
21529000,0.0324,0.013523,0.002678,0.000431,0.000470
21530000,0.0324,0.013523,0.002678,0.000431,0.000353
21531000,0.0324,0.013523,0.002678,0.000431,0.000235
21532000,0.0324,0.013523,0.002678,0.000431,0.000353
21533000,0.0324,0.013523,0.002678,0.000431,0.000353
21534000,0.0324,0.013523,0.002678,0.000431,0.000235
21535000,0.0324,0.013523,0.002678,0.000431,0.000353
21536000,0.0324,0.013523,0.002678,0.000431,0.000470
21537000,0.0324,0.013523,0.002678,0.000431,0.000353
21538000,0.0324,0.013523,0.002678,0.000431,0.000235
21539000,0.0324,0.013523,0.002678,0.000431,0.000353
21540000,0.0324,0.013523,0.002678,0.000431,0.000353
21541000,0.0324,0.013523,0.002678,0.000431,0.000235
21542000,0.0324,0.013523,0.002678,0.000431,0.000353
21543000,0.0324,0.013523,0.002678,0.000431,0.000470
21544000,0.0324,0.013523,0.002678,0.000431,0.000353
21545000,0.0324,0.013523,0.002678,0.000431,0.000235
21546000,0.0324,0.013523,0.002678,0.000431,0.000353
21547000,0.0324,0.013523,0.002678,0.000431,0.000353
21548000,0.0324,0.013523,0.002678,0.000431,0.000235
21549000,0.0324,0.013523,0.002678,0.000431,0.000353
21550000,0.0324,0.013523,0.002678,0.000431,0.000470
21551000,0.0324,0.013523,0.002678,0.000431,0.000353
21552000,0.0324,0.013523,0.002678,0.000431,0.000235
21553000,0.0324,0.013523,0.002678,0.000431,0.000353
21554000,0.0324,0.013523,0.002678,0.000431,0.000353
21555000,0.0324,0.013523,0.002678,0.000431,0.000235
21556000,0.0324,0.013523,0.002678,0.000431,0.000353
21557000,0.0324,0.013523,0.002678,0.000431,0.000470
21558000,0.0324,0.013523,0.002678,0.000431,0.000353
21559000,0.0324,0.013523,0.002678,0.000431,0.000235
21560000,0.0324,0.013523,0.002678,0.000431,0.000353
21561000,0.0324,0.013523,0.002678,0.000431,0.000353
21562000,0.0324,0.013523,0.002678,0.000431,0.000235
21563000,0.0324,0.013523,0.002678,0.000431,0.000353
21564000,0.0324,0.013523,0.002678,0.000431,0.000470
21565000,0.0324,0.013523,0.002678,0.000431,0.000353
21566000,0.0324,0.013523,0.002678,0.000431,0.000235
21567000,0.0324,0.013523,0.002678,0.000431,0.000353
21568000,0.0324,0.013523,0.002678,0.000431,0.000353
21569000,0.0324,0.013523,0.002678,0.000431,0.000235
21570000,0.0324,0.013523,0.002678,0.000431,0.000353
21571000,0.0324,0.013523,0.002678,0.000431,0.000470
21572000,0.0324,0.013523,0.002678,0.000431,0.000353
21573000,0.0324,0.013523,0.002678,0.000431,0.000235
21574000,0.0324,0.013523,0.002678,0.000431,0.000353
21575000,0.0324,0.013523,0.002678,0.000431,0.000353
21576000,0.0324,0.013523,0.002678,0.000431,0.000235
21577000,0.0324,0.013523,0.002678,0.000431,0.000353
21578000,0.0324,0.013523,0.002678,0.000431,0.000470
21579000,0.0324,0.013523,0.002678,0.000431,0.000353
21580000,0.0324,0.013523,0.002678,0.000431,0.000235
21581000,0.0324,0.013523,0.002678,0.000431,0.000353
21582000,0.0324,0.013523,0.002678,0.000431,0.000353
21583000,0.0324,0.013523,0.002678,0.000431,0.000235
21584000,0.0324,0.013523,0.002678,0.000431,0.000353
21585000,0.0324,0.013523,0.002678,0.000431,0.000470
21586000,0.0324,0.013523,0.002678,0.000431,0.000353
21587000,0.0324,0.013523,0.002678,0.000431,0.000118
21588000,0.0324,0.013523,0.002678,0.000431,0.000470
21589000,0.0324,0.013523,0.002678,0.000431,0.000353
21590000,0.0324,0.013523,0.002678,0.000431,0.000235
21591000,0.0324,0.013523,0.002678,0.000431,0.000353
21592000,0.0324,0.013523,0.002678,0.000431,0.000470
21593000,0.0324,0.013523,0.002678,0.000431,0.000353
21594000,0.0324,0.013523,0.002678,0.000431,0.000118
21595000,0.0324,0.013523,0.002678,0.000431,0.000470
21596000,0.0324,0.013523,0.002678,0.000431,0.000353
21597000,0.0324,0.013523,0.002678,0.000431,0.000235
21598000,0.0324,0.013523,0.002678,0.000431,0.000353
21599000,0.0324,0.013523,0.002678,0.000431,0.000470
21600000,0.0324,0.013523,0.002678,0.000431,0.000353
21601000,0.0324,0.013523,0.002678,0.000431,0.000118
21602000,0.0324,0.013523,0.002678,0.000431,0.000470
21603000,0.0324,0.013523,0.002678,0.000431,0.000353
21604000,0.0324,0.013523,0.002678,0.000431,0.000235
21605000,0.0324,0.013523,0.002678,0.000431,0.000353
21606000,0.0324,0.013523,0.002678,0.000431,0.000470
21607000,0.0324,0.013523,0.002678,0.000431,0.000235
21608000,0.0324,0.013523,0.002678,0.000431,0.000235
21609000,0.0324,0.013523,0.002678,0.000431,0.000470
21610000,0.0324,0.013523,0.002678,0.000431,0.000353
21611000,0.0324,0.013523,0.002678,0.000431,0.000235
21612000,0.0324,0.013523,0.002678,0.000431,0.000353
21613000,0.0324,0.013523,0.002678,0.000431,0.000470
21614000,0.0324,0.013523,0.002678,0.000431,0.000235
21615000,0.0324,0.013523,0.002678,0.000431,0.000235
21616000,0.0324,0.013523,0.002678,0.000431,0.000470
21617000,0.0324,0.013523,0.002678,0.000431,0.000353
21618000,0.0324,0.013523,0.002678,0.000431,0.000235
21619000,0.0324,0.013523,0.002678,0.000431,0.000353
21620000,0.0324,0.013523,0.002678,0.000431,0.000470
21621000,0.0324,0.013523,0.002678,0.000431,0.000118
21622000,0.0324,0.013523,0.002678,0.000431,0.000353
21623000,0.0324,0.013523,0.002678,0.000431,0.000470
21624000,0.0324,0.013523,0.002678,0.000431,0.000353
21625000,0.0324,0.013523,0.002678,0.000431,0.000235
21626000,0.0324,0.013523,0.002678,0.000431,0.000353
21627000,0.0324,0.013523,0.002678,0.000431,0.000353
21628000,0.0324,0.013523,0.002678,0.000431,0.000235
21629000,0.0324,0.013523,0.002678,0.000431,0.000353
21630000,0.0324,0.013523,0.002678,0.000431,0.000470
21631000,0.0324,0.013523,0.002678,0.000431,0.000353
21632000,0.0324,0.013523,0.002678,0.000431,0.000235
21633000,0.0324,0.013523,0.002678,0.000431,0.000353
21634000,0.0324,0.013523,0.002678,0.000431,0.000353
21635000,0.0324,0.013523,0.002678,0.000431,0.000235
21636000,0.0324,0.013523,0.002678,0.000431,0.000353
21637000,0.0324,0.013523,0.002678,0.000431,0.000470
21638000,0.0324,0.013523,0.002678,0.000431,0.000353
21639000,0.0324,0.013523,0.002678,0.000431,0.000235
21640000,0.0324,0.013523,0.002678,0.000431,0.000353
21641000,0.0324,0.013523,0.002678,0.000431,0.000353
21642000,0.0324,0.013523,0.002678,0.000431,0.000235
21643000,0.0324,0.013523,0.002678,0.000431,0.000353
21644000,0.0324,0.013523,0.002678,0.000431,0.000470
21645000,0.0324,0.013523,0.002678,0.000431,0.000353
21646000,0.0324,0.013523,0.002678,0.000431,0.000118
21647000,0.0324,0.013523,0.002678,0.000431,0.000470
21648000,0.0324,0.013523,0.002678,0.000431,0.000353
21649000,0.0324,0.013523,0.002678,0.000431,0.000235
21650000,0.0324,0.013523,0.002678,0.000431,0.000353
21651000,0.0324,0.013523,0.002678,0.000431,0.000470
21652000,0.0324,0.013523,0.002678,0.000431,0.000235
21653000,0.0324,0.013523,0.002678,0.000431,0.000235
21654000,0.0324,0.013523,0.002678,0.000431,0.000470
21655000,0.0324,0.013523,0.002678,0.000431,0.000353
21656000,0.0324,0.013523,0.002678,0.000431,0.000235
21657000,0.0324,0.013523,0.002678,0.000431,0.000353
21658000,0.0324,0.013523,0.002678,0.000431,0.000470
21659000,0.0324,0.013523,0.002678,0.000431,0.000118
21660000,0.0324,0.013523,0.002678,0.000431,0.000353
21661000,0.0324,0.013523,0.002678,0.000431,0.000470
21662000,0.0324,0.013523,0.002678,0.000431,0.000353
21663000,0.0324,0.013523,0.002678,0.000431,0.000235
21664000,0.0324,0.013523,0.002678,0.000431,0.000353
21665000,0.0324,0.013523,0.002678,0.000431,0.000470
21666000,0.0324,0.013523,0.002678,0.000431,0.000118
21667000,0.0324,0.013523,0.002678,0.000431,0.000353
21668000,0.0324,0.013523,0.002678,0.000431,0.000470
21669000,0.0324,0.013523,0.002678,0.000431,0.000353
21670000,0.0324,0.013523,0.002678,0.000431,0.000235
21671000,0.0324,0.013523,0.002678,0.000431,0.000353
21672000,0.0324,0.013523,0.002678,0.000431,0.000353
21673000,0.0324,0.013523,0.002678,0.000431,0.000235
21674000,0.0324,0.013523,0.002678,0.000431,0.000353
21675000,0.0324,0.013523,0.002678,0.000431,0.000470
21676000,0.0324,0.013523,0.002678,0.000431,0.000353
21677000,0.0324,0.013523,0.002678,0.000431,0.000235
21678000,0.0324,0.013523,0.002678,0.000431,0.000353
21679000,0.0324,0.013523,0.002678,0.000431,0.000353
21680000,0.0324,0.013523,0.002678,0.000431,0.000235
21681000,0.0324,0.013523,0.002678,0.000431,0.000353
21682000,0.0324,0.013523,0.002678,0.000431,0.000470
21683000,0.0324,0.013523,0.002678,0.000431,0.000353
21684000,0.0324,0.013523,0.002678,0.000431,0.000118
21685000,0.0324,0.013523,0.002678,0.000431,0.000470
21686000,0.0324,0.013523,0.002678,0.000431,0.000353
21687000,0.0324,0.013523,0.002678,0.000431,0.000235
21688000,0.0324,0.013523,0.002678,0.000431,0.000353
21689000,0.0324,0.013523,0.002678,0.000431,0.000470
21690000,0.0324,0.013523,0.002678,0.000431,0.000353
21691000,0.0324,0.013523,0.002678,0.000431,0.000118
21692000,0.0324,0.013523,0.002678,0.000431,0.000470
21693000,0.0324,0.013523,0.002678,0.000431,0.000353
21694000,0.0324,0.013523,0.002678,0.000431,0.000235
21695000,0.0324,0.013523,0.002678,0.000431,0.000353
21696000,0.0324,0.013523,0.002678,0.000431,0.000470
21697000,0.0324,0.013523,0.002678,0.000431,0.000235
21698000,0.0324,0.013523,0.002678,0.000431,0.000235
21699000,0.0324,0.013523,0.002678,0.000431,0.000470
21700000,0.0324,0.013523,0.002678,0.000431,0.000353
21701000,0.0324,0.013523,0.002678,0.000431,0.000235
21702000,0.0324,0.013523,0.002678,0.000431,0.000353
21703000,0.0324,0.013523,0.002678,0.000431,0.000470
21704000,0.0324,0.013523,0.002678,0.000431,0.000118
21705000,0.0324,0.013523,0.002678,0.000431,0.000353
21706000,0.0324,0.013523,0.002678,0.000431,0.000470
21707000,0.0324,0.013523,0.002678,0.000431,0.000353
21708000,0.0324,0.013523,0.002678,0.000431,0.000235
21709000,0.0324,0.013523,0.002678,0.000431,0.000353
21710000,0.0324,0.013523,0.002678,0.000431,0.000353
21711000,0.0324,0.013523,0.002678,0.000431,0.000235
21712000,0.0324,0.013523,0.002678,0.000431,0.000353
21713000,0.0324,0.013523,0.002678,0.000431,0.000470
21714000,0.0324,0.013523,0.002678,0.000431,0.000353
21715000,0.0324,0.013523,0.002678,0.000431,0.000235
21716000,0.0324,0.013523,0.002678,0.000431,0.000353
21717000,0.0324,0.013523,0.002678,0.000431,0.000353
21718000,0.0324,0.013523,0.002678,0.000431,0.000235
21719000,0.0324,0.013523,0.002678,0.000431,0.000353
21720000,0.0324,0.013523,0.002678,0.000431,0.000470
21721000,0.0324,0.013523,0.002678,0.000431,0.000353
21722000,0.0324,0.013523,0.002678,0.000431,0.000235
21723000,0.0324,0.013523,0.002678,0.000431,0.000353
21724000,0.0324,0.013523,0.002678,0.000431,0.000353
21725000,0.0324,0.013523,0.002678,0.000431,0.000235
21726000,0.0324,0.013523,0.002678,0.000431,0.000353
21727000,0.0324,0.013523,0.002678,0.000431,0.000470
21728000,0.0324,0.013523,0.002678,0.000431,0.000353
21729000,0.0324,0.013523,0.002678,0.000431,0.000118
21730000,0.0324,0.013523,0.002678,0.000431,0.000470
21731000,0.0324,0.013523,0.002678,0.000431,0.000353
21732000,0.0324,0.013523,0.002678,0.000431,0.000235
21733000,0.0324,0.013523,0.002678,0.000431,0.000353
21734000,0.0324,0.013523,0.002678,0.000431,0.000470
21735000,0.0324,0.013523,0.002678,0.000431,0.000235
21736000,0.0324,0.013523,0.002678,0.000431,0.000235
21737000,0.0324,0.013523,0.002678,0.000431,0.000470
21738000,0.0324,0.013523,0.002678,0.000431,0.000353
21739000,0.0324,0.013523,0.002678,0.000431,0.000235
21740000,0.0324,0.013523,0.002678,0.000431,0.000353
21741000,0.0324,0.013523,0.002678,0.000431,0.000470
21742000,0.0324,0.013523,0.002678,0.000431,0.000235
21743000,0.0324,0.013523,0.002678,0.000431,0.000235
21744000,0.0324,0.013523,0.002678,0.000431,0.000470
21745000,0.0324,0.013523,0.002678,0.000431,0.000353
21746000,0.0324,0.013523,0.002678,0.000431,0.000235
21747000,0.0324,0.013523,0.002678,0.000431,0.000353
21748000,0.0324,0.013523,0.002678,0.000431,0.000470
21749000,0.0324,0.013523,0.002678,0.000431,0.000235
21750000,0.0324,0.013523,0.002678,0.000431,0.000235
21751000,0.0324,0.013523,0.002678,0.000431,0.000470
21752000,0.0324,0.013523,0.002678,0.000431,0.000353
21753000,0.0324,0.013523,0.002678,0.000431,0.000235
21754000,0.0324,0.013523,0.002678,0.000431,0.000353
21755000,0.0324,0.013523,0.002678,0.000431,0.000470
21756000,0.0324,0.013523,0.002678,0.000431,0.000118
21757000,0.0324,0.013523,0.002678,0.000431,0.000353
21758000,0.0324,0.013523,0.002678,0.000431,0.000470
21759000,0.0324,0.013523,0.002678,0.000431,0.000353
21760000,0.0324,0.013523,0.002678,0.000431,0.000235
21761000,0.0324,0.013523,0.002678,0.000431,0.000353
21762000,0.0324,0.013523,0.002678,0.000431,0.000470
21763000,0.0324,0.013523,0.002678,0.000431,0.000118
21764000,0.0324,0.013523,0.002678,0.000431,0.000353
21765000,0.0324,0.013523,0.002678,0.000431,0.000470
21766000,0.0324,0.013523,0.002678,0.000431,0.000353
21767000,0.0324,0.013523,0.002678,0.000431,0.000235
21768000,0.0324,0.013523,0.002678,0.000431,0.000353
21769000,0.0324,0.013523,0.002678,0.000431,0.000470
21770000,0.0324,0.013523,0.002678,0.000431,0.000118
21771000,0.0324,0.013523,0.002678,0.000431,0.000353
21772000,0.0324,0.013523,0.002678,0.000431,0.000470
21773000,0.0324,0.013523,0.002678,0.000431,0.000353
21774000,0.0324,0.013523,0.002678,0.000431,0.000235
21775000,0.0324,0.013523,0.002678,0.000431,0.000353
21776000,0.0324,0.013523,0.002678,0.000431,0.000470
21777000,0.0324,0.013523,0.002678,0.000431,0.000118
21778000,0.0324,0.013523,0.002678,0.000431,0.000353
21779000,0.0324,0.013523,0.002678,0.000431,0.000470
21780000,0.0324,0.013523,0.002678,0.000431,0.000353
21781000,0.0324,0.013523,0.002678,0.000431,0.000235
21782000,0.0324,0.013523,0.002678,0.000431,0.000353
21783000,0.0324,0.013523,0.002678,0.000431,0.000353
21784000,0.0324,0.013523,0.002678,0.000431,0.000235
21785000,0.0324,0.013523,0.002678,0.000431,0.000353
21786000,0.0324,0.013523,0.002678,0.000431,0.000470
21787000,0.0324,0.013523,0.002678,0.000431,0.000353
21788000,0.0324,0.013523,0.002678,0.000431,0.000235
21789000,0.0324,0.013523,0.002678,0.000431,0.000353
21790000,0.0324,0.013523,0.002678,0.000431,0.000353
21791000,0.0324,0.013523,0.002678,0.000431,0.000235
21792000,0.0324,0.013523,0.002678,0.000431,0.000353
21793000,0.0324,0.013523,0.002678,0.000431,0.000470
21794000,0.0324,0.013523,0.002678,0.000431,0.000353
21795000,0.0324,0.013523,0.002678,0.000431,0.000235
21796000,0.0324,0.013523,0.002678,0.000431,0.000353
21797000,0.0324,0.013523,0.002678,0.000431,0.000353
21798000,0.0324,0.013523,0.002678,0.000431,0.000235
21799000,0.0324,0.013523,0.002678,0.000431,0.000353
21800000,0.0324,0.013523,0.002678,0.000431,0.000470
21801000,0.0324,0.013523,0.002678,0.000431,0.000353
21802000,0.0324,0.013523,0.002678,0.000431,0.000235
21803000,0.0324,0.013523,0.002678,0.000431,0.000353
21804000,0.0324,0.013523,0.002678,0.000431,0.000353
21805000,0.0324,0.013523,0.002678,0.000431,0.000235
21806000,0.0324,0.013523,0.002678,0.000431,0.000353
21807000,0.0324,0.013523,0.002678,0.000431,0.000470
21808000,0.0324,0.013523,0.002678,0.000431,0.000353
21809000,0.0324,0.013523,0.002678,0.000431,0.000235
21810000,0.0324,0.013523,0.002678,0.000431,0.000353
21811000,0.0324,0.013523,0.002678,0.000431,0.000353
21812000,0.0324,0.013523,0.002678,0.000431,0.000235
21813000,0.0324,0.013523,0.002678,0.000431,0.000353
21814000,0.0324,0.013523,0.002678,0.000431,0.000470
21815000,0.0324,0.013523,0.002678,0.000431,0.000353
21816000,0.0324,0.013523,0.002678,0.000431,0.000235
21817000,0.0324,0.013523,0.002678,0.000431,0.000353
21818000,0.0324,0.013523,0.002678,0.000431,0.000353
21819000,0.0324,0.013523,0.002678,0.000431,0.000235
21820000,0.0324,0.013523,0.002678,0.000431,0.000353
21821000,0.0324,0.013523,0.002678,0.000431,0.000470
21822000,0.0324,0.013523,0.002678,0.000431,0.000353
21823000,0.0324,0.013523,0.002678,0.000431,0.000235
21824000,0.0324,0.013523,0.002678,0.000431,0.000353
21825000,0.0324,0.013523,0.002678,0.000431,0.000353
21826000,0.0324,0.013523,0.002678,0.000431,0.000235
21827000,0.0324,0.013523,0.002678,0.000431,0.000353
21828000,0.0324,0.013523,0.002678,0.000431,0.000470
21829000,0.0324,0.013523,0.002678,0.000431,0.000353
21830000,0.0324,0.013523,0.002678,0.000431,0.000235
21831000,0.0324,0.013523,0.002678,0.000431,0.000353
21832000,0.0324,0.013523,0.002678,0.000431,0.000353
21833000,0.0324,0.013523,0.002678,0.000431,0.000235
21834000,0.0324,0.013523,0.002678,0.000431,0.000353
21835000,0.0324,0.013523,0.002678,0.000431,0.000470
21836000,0.0324,0.013523,0.002678,0.000431,0.000353
21837000,0.0324,0.013523,0.002678,0.000431,0.000118
21838000,0.0324,0.013523,0.002678,0.000431,0.000470
21839000,0.0324,0.013523,0.002678,0.000431,0.000353
21840000,0.0324,0.013523,0.002678,0.000431,0.000235
21841000,0.0324,0.013523,0.002678,0.000431,0.000353
21842000,0.0324,0.013523,0.002678,0.000431,0.000470
21843000,0.0324,0.013523,0.002678,0.000431,0.000353
21844000,0.0324,0.013523,0.002678,0.000431,0.000118
21845000,0.0324,0.013523,0.002678,0.000431,0.000470
21846000,0.0324,0.013523,0.002678,0.000431,0.000353
21847000,0.0324,0.013523,0.002678,0.000431,0.000235
21848000,0.0324,0.013523,0.002678,0.000431,0.000353
21849000,0.0324,0.013523,0.002678,0.000431,0.000470
21850000,0.0324,0.013523,0.002678,0.000431,0.000353
21851000,0.0324,0.013523,0.002678,0.000431,0.000118
21852000,0.0324,0.013523,0.002678,0.000431,0.000470
21853000,0.0324,0.013523,0.002678,0.000431,0.000353
21854000,0.0324,0.013523,0.002678,0.000431,0.000235
21855000,0.0324,0.013523,0.002678,0.000431,0.000353
21856000,0.0324,0.013523,0.002678,0.000431,0.000470
21857000,0.0324,0.013523,0.002678,0.000431,0.000235
21858000,0.0324,0.013523,0.002678,0.000431,0.000235
21859000,0.0324,0.013523,0.002678,0.000431,0.000470
21860000,0.0324,0.013523,0.002678,0.000431,0.000353
21861000,0.0324,0.013523,0.002678,0.000431,0.000235
21862000,0.0324,0.013523,0.002678,0.000431,0.000353
21863000,0.0324,0.013523,0.002678,0.000431,0.000470
21864000,0.0324,0.013523,0.002678,0.000431,0.000235
21865000,0.0324,0.013523,0.002678,0.000431,0.000235
21866000,0.0324,0.013523,0.002678,0.000431,0.000470
21867000,0.0324,0.013523,0.002678,0.000431,0.000353
21868000,0.0324,0.013523,0.002678,0.000431,0.000235
21869000,0.0324,0.013523,0.002678,0.000431,0.000353
21870000,0.0324,0.013523,0.002678,0.000431,0.000470
21871000,0.0324,0.013523,0.002678,0.000431,0.000235
21872000,0.0324,0.013523,0.002678,0.000431,0.000235
21873000,0.0324,0.013523,0.002678,0.000431,0.000470
21874000,0.0324,0.013523,0.002678,0.000431,0.000353
21875000,0.0324,0.013523,0.002678,0.000431,0.000235
21876000,0.0324,0.013523,0.002678,0.000431,0.000353
21877000,0.0324,0.013523,0.002678,0.000431,0.000470
21878000,0.0324,0.013523,0.002678,0.000431,0.000235
21879000,0.0324,0.013523,0.002678,0.000431,0.000235
21880000,0.0324,0.013523,0.002678,0.000431,0.000470
21881000,0.0324,0.013523,0.002678,0.000431,0.000353
21882000,0.0324,0.013523,0.002678,0.000431,0.000235
21883000,0.0324,0.013523,0.002678,0.000431,0.000353
21884000,0.0324,0.013523,0.002678,0.000431,0.000470
21885000,0.0324,0.013523,0.002678,0.000431,0.000235
21886000,0.0324,0.013523,0.002678,0.000431,0.000235
21887000,0.0324,0.013523,0.002678,0.000431,0.000470
21888000,0.0324,0.013523,0.002678,0.000431,0.000353
21889000,0.0324,0.013523,0.002678,0.000431,0.000235
21890000,0.0324,0.013523,0.002678,0.000431,0.000353
21891000,0.0324,0.013523,0.002678,0.000431,0.000470
21892000,0.0324,0.013523,0.002678,0.000431,0.000235
21893000,0.0324,0.013523,0.002678,0.000431,0.000235
21894000,0.0324,0.013523,0.002678,0.000431,0.000470
21895000,0.0324,0.013523,0.002678,0.000431,0.000353
21896000,0.0324,0.013523,0.002678,0.000431,0.000235
21897000,0.0324,0.013523,0.002678,0.000431,0.000353
21898000,0.0324,0.013523,0.002678,0.000431,0.000470
21899000,0.0324,0.013523,0.002678,0.000431,0.000118
21900000,0.0324,0.013523,0.002678,0.000431,0.000353
21901000,0.0324,0.013523,0.002678,0.000431,0.000470
21902000,0.0324,0.013523,0.002678,0.000431,0.000353
21903000,0.0324,0.013523,0.002678,0.000431,0.000235
21904000,0.0324,0.013523,0.002678,0.000431,0.000353
21905000,0.0324,0.013523,0.002678,0.000431,0.000470
21906000,0.0324,0.013523,0.002678,0.000431,0.000118
21907000,0.0324,0.013523,0.002678,0.000431,0.000353
21908000,0.0324,0.013523,0.002678,0.000431,0.000470
21909000,0.0324,0.013523,0.002678,0.000431,0.000353
21910000,0.0324,0.013523,0.002678,0.000431,0.000235
21911000,0.0324,0.013523,0.002678,0.000431,0.000353
21912000,0.0324,0.013523,0.002678,0.000431,0.000470
21913000,0.0324,0.013523,0.002678,0.000431,0.000118
21914000,0.0324,0.013523,0.002678,0.000431,0.000353
21915000,0.0324,0.013523,0.002678,0.000431,0.000470
21916000,0.0324,0.013523,0.002678,0.000431,0.000353
21917000,0.0324,0.013523,0.002678,0.000431,0.000235
21918000,0.0324,0.013523,0.002678,0.000431,0.000353
21919000,0.0324,0.013523,0.002678,0.000431,0.000353
21920000,0.0324,0.013523,0.002678,0.000431,0.000235
21921000,0.0324,0.013523,0.002678,0.000431,0.000353
21922000,0.0324,0.013523,0.002678,0.000431,0.000470
21923000,0.0324,0.013523,0.002678,0.000431,0.000353
21924000,0.0324,0.013523,0.002678,0.000431,0.000235
21925000,0.0324,0.013523,0.002678,0.000431,0.000353
21926000,0.0324,0.013523,0.002678,0.000431,0.000353
21927000,0.0324,0.013523,0.002678,0.000431,0.000235
21928000,0.0324,0.013523,0.002678,0.000431,0.000353
21929000,0.0324,0.013523,0.002678,0.000431,0.000470
21930000,0.0324,0.013523,0.002678,0.000431,0.000353
21931000,0.0324,0.013523,0.002678,0.000431,0.000235
21932000,0.0324,0.013523,0.002678,0.000431,0.000353
21933000,0.0324,0.013523,0.002678,0.000431,0.000353
21934000,0.0324,0.013523,0.002678,0.000431,0.000235
21935000,0.0324,0.013523,0.002678,0.000431,0.000353
21936000,0.0324,0.013523,0.002678,0.000431,0.000470
21937000,0.0324,0.013523,0.002678,0.000431,0.000353
21938000,0.0324,0.013523,0.002678,0.000431,0.000235
21939000,0.0324,0.013523,0.002678,0.000431,0.000353
21940000,0.0324,0.013523,0.002678,0.000431,0.000353
21941000,0.0324,0.013523,0.002678,0.000431,0.000235
21942000,0.0324,0.013523,0.002678,0.000431,0.000353
21943000,0.0324,0.013523,0.002678,0.000431,0.000470
21944000,0.0324,0.013523,0.002678,0.000431,0.000353
21945000,0.0324,0.013523,0.002678,0.000431,0.000235
21946000,0.0324,0.013523,0.002678,0.000431,0.000353
21947000,0.0324,0.013523,0.002678,0.000431,0.000353
21948000,0.0324,0.013523,0.002678,0.000431,0.000235
21949000,0.0324,0.013523,0.002678,0.000431,0.000353
21950000,0.0324,0.013523,0.002678,0.000431,0.000470
21951000,0.0324,0.013523,0.002678,0.000431,0.000353
21952000,0.0324,0.013523,0.002678,0.000431,0.000235
21953000,0.0324,0.013523,0.002678,0.000431,0.000353
21954000,0.0324,0.013523,0.002678,0.000431,0.000353
21955000,0.0324,0.013523,0.002678,0.000431,0.000235
21956000,0.0324,0.013523,0.002678,0.000431,0.000353
21957000,0.0324,0.013523,0.002678,0.000431,0.000470
21958000,0.0324,0.013523,0.002678,0.000431,0.000353
21959000,0.0324,0.013523,0.002678,0.000431,0.000235
21960000,0.0324,0.013523,0.002678,0.000431,0.000353
21961000,0.0324,0.013523,0.002678,0.000431,0.000353
21962000,0.0324,0.013523,0.002678,0.000431,0.000235
21963000,0.0324,0.013523,0.002678,0.000431,0.000353
21964000,0.0324,0.013523,0.002678,0.000431,0.000470
21965000,0.0324,0.013523,0.002678,0.000431,0.000353
21966000,0.0324,0.013523,0.002678,0.000431,0.000235
21967000,0.0324,0.013523,0.002678,0.000431,0.000353
21968000,0.0324,0.013523,0.002678,0.000431,0.000353
21969000,0.0324,0.013523,0.002678,0.000431,0.000235
21970000,0.0324,0.013523,0.002678,0.000431,0.000353
21971000,0.0324,0.013523,0.002678,0.000431,0.000470
21972000,0.0324,0.013523,0.002678,0.000431,0.000353
21973000,0.0324,0.013523,0.002678,0.000431,0.000118
21974000,0.0324,0.013523,0.002678,0.000431,0.000470
21975000,0.0324,0.013523,0.002678,0.000431,0.000353
21976000,0.0324,0.013523,0.002678,0.000431,0.000235
21977000,0.0324,0.013523,0.002678,0.000431,0.000353
21978000,0.0324,0.013523,0.002678,0.000431,0.000470
21979000,0.0324,0.013523,0.002678,0.000431,0.000353
21980000,0.0324,0.013523,0.002678,0.000431,0.000118
21981000,0.0324,0.013523,0.002678,0.000431,0.000470
21982000,0.0324,0.013523,0.002678,0.000431,0.000353
21983000,0.0324,0.013523,0.002678,0.000431,0.000235
21984000,0.0324,0.013523,0.002678,0.000431,0.000353
21985000,0.0324,0.013523,0.002678,0.000431,0.000470
21986000,0.0324,0.013523,0.002678,0.000431,0.000353
21987000,0.0324,0.013523,0.002678,0.000431,0.000118
21988000,0.0324,0.013523,0.002678,0.000431,0.000470
21989000,0.0324,0.013523,0.002678,0.000431,0.000353
21990000,0.0324,0.013523,0.002678,0.000431,0.000235
21991000,0.0324,0.013523,0.002678,0.000431,0.000353
21992000,0.0324,0.013523,0.002678,0.000431,0.000470
21993000,0.0324,0.013523,0.002678,0.000431,0.000353
21994000,0.0324,0.013523,0.002678,0.000431,0.000118
21995000,0.0324,0.013523,0.002678,0.000431,0.000470
21996000,0.0324,0.013523,0.002678,0.000431,0.000353
21997000,0.0324,0.013523,0.002678,0.000431,0.000235
21998000,0.0324,0.013523,0.002678,0.000431,0.000353
21999000,0.0324,0.013523,0.002678,0.000431,0.000470
