Cycle,Area(mm^2),PeakDynamic(W),SubthresholdLeakage(W),GateLeakage(W),RunTimeDynamic(W)
23000000,0.0324,0.013523,0.002678,0.000431,0.000470
23001000,0.0324,0.013523,0.002678,0.000431,0.000235
23002000,0.0324,0.013523,0.002678,0.000431,0.000235
23003000,0.0324,0.013523,0.002678,0.000431,0.000470
23004000,0.0324,0.013523,0.002678,0.000431,0.000353
23005000,0.0324,0.013523,0.002678,0.000431,0.000235
23006000,0.0324,0.013523,0.002678,0.000431,0.000353
23007000,0.0324,0.013523,0.002678,0.000431,0.000470
23008000,0.0324,0.013523,0.002678,0.000431,0.000235
23009000,0.0324,0.013523,0.002678,0.000431,0.000235
23010000,0.0324,0.013523,0.002678,0.000431,0.000470
23011000,0.0324,0.013523,0.002678,0.000431,0.000353
23012000,0.0324,0.013523,0.002678,0.000431,0.000235
23013000,0.0324,0.013523,0.002678,0.000431,0.000353
23014000,0.0324,0.013523,0.002678,0.000431,0.000470
23015000,0.0324,0.013523,0.002678,0.000431,0.000235
23016000,0.0324,0.013523,0.002678,0.000431,0.000235
23017000,0.0324,0.013523,0.002678,0.000431,0.000470
23018000,0.0324,0.013523,0.002678,0.000431,0.000353
23019000,0.0324,0.013523,0.002678,0.000431,0.000235
23020000,0.0324,0.013523,0.002678,0.000431,0.000353
23021000,0.0324,0.013523,0.002678,0.000431,0.000470
23022000,0.0324,0.013523,0.002678,0.000431,0.000118
23023000,0.0324,0.013523,0.002678,0.000431,0.000353
23024000,0.0324,0.013523,0.002678,0.000431,0.000470
23025000,0.0324,0.013523,0.002678,0.000431,0.000353
23026000,0.0324,0.013523,0.002678,0.000431,0.000235
23027000,0.0324,0.013523,0.002678,0.000431,0.000353
23028000,0.0324,0.013523,0.002678,0.000431,0.000470
23029000,0.0324,0.013523,0.002678,0.000431,0.000118
23030000,0.0324,0.013523,0.002678,0.000431,0.000353
23031000,0.0324,0.013523,0.002678,0.000431,0.000470
23032000,0.0324,0.013523,0.002678,0.000431,0.000353
23033000,0.0324,0.013523,0.002678,0.000431,0.000235
23034000,0.0324,0.013523,0.002678,0.000431,0.000353
23035000,0.0324,0.013523,0.002678,0.000431,0.000470
23036000,0.0324,0.013523,0.002678,0.000431,0.000118
23037000,0.0324,0.013523,0.002678,0.000431,0.000353
23038000,0.0324,0.013523,0.002678,0.000431,0.000470
23039000,0.0324,0.013523,0.002678,0.000431,0.000353
23040000,0.0324,0.013523,0.002678,0.000431,0.000235
23041000,0.0324,0.013523,0.002678,0.000431,0.000353
23042000,0.0324,0.013523,0.002678,0.000431,0.000353
23043000,0.0324,0.013523,0.002678,0.000431,0.000235
23044000,0.0324,0.013523,0.002678,0.000431,0.000353
23045000,0.0324,0.013523,0.002678,0.000431,0.000470
23046000,0.0324,0.013523,0.002678,0.000431,0.000353
23047000,0.0324,0.013523,0.002678,0.000431,0.000235
23048000,0.0324,0.013523,0.002678,0.000431,0.000353
23049000,0.0324,0.013523,0.002678,0.000431,0.000353
23050000,0.0324,0.013523,0.002678,0.000431,0.000235
23051000,0.0324,0.013523,0.002678,0.000431,0.000353
23052000,0.0324,0.013523,0.002678,0.000431,0.000470
23053000,0.0324,0.013523,0.002678,0.000431,0.000353
23054000,0.0324,0.013523,0.002678,0.000431,0.000235
23055000,0.0324,0.013523,0.002678,0.000431,0.000353
23056000,0.0324,0.013523,0.002678,0.000431,0.000353
23057000,0.0324,0.013523,0.002678,0.000431,0.000235
23058000,0.0324,0.013523,0.002678,0.000431,0.000353
23059000,0.0324,0.013523,0.002678,0.000431,0.000470
23060000,0.0324,0.013523,0.002678,0.000431,0.000353
23061000,0.0324,0.013523,0.002678,0.000431,0.000235
23062000,0.0324,0.013523,0.002678,0.000431,0.000353
23063000,0.0324,0.013523,0.002678,0.000431,0.000353
23064000,0.0324,0.013523,0.002678,0.000431,0.000235
23065000,0.0324,0.013523,0.002678,0.000431,0.000353
23066000,0.0324,0.013523,0.002678,0.000431,0.000470
23067000,0.0324,0.013523,0.002678,0.000431,0.000353
23068000,0.0324,0.013523,0.002678,0.000431,0.000235
23069000,0.0324,0.013523,0.002678,0.000431,0.000353
23070000,0.0324,0.013523,0.002678,0.000431,0.000353
23071000,0.0324,0.013523,0.002678,0.000431,0.000235
23072000,0.0324,0.013523,0.002678,0.000431,0.000353
23073000,0.0324,0.013523,0.002678,0.000431,0.000470
23074000,0.0324,0.013523,0.002678,0.000431,0.000353
23075000,0.0324,0.013523,0.002678,0.000431,0.000235
23076000,0.0324,0.013523,0.002678,0.000431,0.000353
23077000,0.0324,0.013523,0.002678,0.000431,0.000353
23078000,0.0324,0.013523,0.002678,0.000431,0.000235
23079000,0.0324,0.013523,0.002678,0.000431,0.000353
23080000,0.0324,0.013523,0.002678,0.000431,0.000470
23081000,0.0324,0.013523,0.002678,0.000431,0.000353
23082000,0.0324,0.013523,0.002678,0.000431,0.000235
23083000,0.0324,0.013523,0.002678,0.000431,0.000353
23084000,0.0324,0.013523,0.002678,0.000431,0.000353
23085000,0.0324,0.013523,0.002678,0.000431,0.000235
23086000,0.0324,0.013523,0.002678,0.000431,0.000353
23087000,0.0324,0.013523,0.002678,0.000431,0.000470
23088000,0.0324,0.013523,0.002678,0.000431,0.000353
23089000,0.0324,0.013523,0.002678,0.000431,0.000235
23090000,0.0324,0.013523,0.002678,0.000431,0.000353
23091000,0.0324,0.013523,0.002678,0.000431,0.000353
23092000,0.0324,0.013523,0.002678,0.000431,0.000235
23093000,0.0324,0.013523,0.002678,0.000431,0.000353
23094000,0.0324,0.013523,0.002678,0.000431,0.000470
23095000,0.0324,0.013523,0.002678,0.000431,0.000353
23096000,0.0324,0.013523,0.002678,0.000431,0.000118
23097000,0.0324,0.013523,0.002678,0.000431,0.000470
23098000,0.0324,0.013523,0.002678,0.000431,0.000353
23099000,0.0324,0.013523,0.002678,0.000431,0.000235
23100000,0.0324,0.013523,0.002678,0.000431,0.000353
23101000,0.0324,0.013523,0.002678,0.000431,0.000470
23102000,0.0324,0.013523,0.002678,0.000431,0.000353
23103000,0.0324,0.013523,0.002678,0.000431,0.000118
23104000,0.0324,0.013523,0.002678,0.000431,0.000470
23105000,0.0324,0.013523,0.002678,0.000431,0.000353
23106000,0.0324,0.013523,0.002678,0.000431,0.000235
23107000,0.0324,0.013523,0.002678,0.000431,0.000353
23108000,0.0324,0.013523,0.002678,0.000431,0.000470
23109000,0.0324,0.013523,0.002678,0.000431,0.000353
23110000,0.0324,0.013523,0.002678,0.000431,0.000118
23111000,0.0324,0.013523,0.002678,0.000431,0.000470
23112000,0.0324,0.013523,0.002678,0.000431,0.000353
23113000,0.0324,0.013523,0.002678,0.000431,0.000235
23114000,0.0324,0.013523,0.002678,0.000431,0.000353
23115000,0.0324,0.013523,0.002678,0.000431,0.000470
23116000,0.0324,0.013523,0.002678,0.000431,0.000235
23117000,0.0324,0.013523,0.002678,0.000431,0.000235
23118000,0.0324,0.013523,0.002678,0.000431,0.000470
23119000,0.0324,0.013523,0.002678,0.000431,0.000353
23120000,0.0324,0.013523,0.002678,0.000431,0.000235
23121000,0.0324,0.013523,0.002678,0.000431,0.000353
23122000,0.0324,0.013523,0.002678,0.000431,0.000470
23123000,0.0324,0.013523,0.002678,0.000431,0.000235
23124000,0.0324,0.013523,0.002678,0.000431,0.000235
23125000,0.0324,0.013523,0.002678,0.000431,0.000470
23126000,0.0324,0.013523,0.002678,0.000431,0.000353
23127000,0.0324,0.013523,0.002678,0.000431,0.000235
23128000,0.0324,0.013523,0.002678,0.000431,0.000353
23129000,0.0324,0.013523,0.002678,0.000431,0.000470
23130000,0.0324,0.013523,0.002678,0.000431,0.000235
23131000,0.0324,0.013523,0.002678,0.000431,0.000235
23132000,0.0324,0.013523,0.002678,0.000431,0.000470
23133000,0.0324,0.013523,0.002678,0.000431,0.000353
23134000,0.0324,0.013523,0.002678,0.000431,0.000235
23135000,0.0324,0.013523,0.002678,0.000431,0.000353
23136000,0.0324,0.013523,0.002678,0.000431,0.000470
23137000,0.0324,0.013523,0.002678,0.000431,0.000235
23138000,0.0324,0.013523,0.002678,0.000431,0.000235
23139000,0.0324,0.013523,0.002678,0.000431,0.000470
23140000,0.0324,0.013523,0.002678,0.000431,0.000353
23141000,0.0324,0.013523,0.002678,0.000431,0.000235
23142000,0.0324,0.013523,0.002678,0.000431,0.000353
23143000,0.0324,0.013523,0.002678,0.000431,0.000470
23144000,0.0324,0.013523,0.002678,0.000431,0.000235
23145000,0.0324,0.013523,0.002678,0.000431,0.000235
23146000,0.0324,0.013523,0.002678,0.000431,0.000470
23147000,0.0324,0.013523,0.002678,0.000431,0.000353
23148000,0.0324,0.013523,0.002678,0.000431,0.000235
23149000,0.0324,0.013523,0.002678,0.000431,0.000353
23150000,0.0324,0.013523,0.002678,0.000431,0.000470
23151000,0.0324,0.013523,0.002678,0.000431,0.000235
23152000,0.0324,0.013523,0.002678,0.000431,0.000235
23153000,0.0324,0.013523,0.002678,0.000431,0.000470
23154000,0.0324,0.013523,0.002678,0.000431,0.000353
23155000,0.0324,0.013523,0.002678,0.000431,0.000235
23156000,0.0324,0.013523,0.002678,0.000431,0.000353
23157000,0.0324,0.013523,0.002678,0.000431,0.000470
23158000,0.0324,0.013523,0.002678,0.000431,0.000118
23159000,0.0324,0.013523,0.002678,0.000431,0.000353
23160000,0.0324,0.013523,0.002678,0.000431,0.000470
23161000,0.0324,0.013523,0.002678,0.000431,0.000353
23162000,0.0324,0.013523,0.002678,0.000431,0.000235
23163000,0.0324,0.013523,0.002678,0.000431,0.000353
23164000,0.0324,0.013523,0.002678,0.000431,0.000470
23165000,0.0324,0.013523,0.002678,0.000431,0.000118
23166000,0.0324,0.013523,0.002678,0.000431,0.000353
23167000,0.0324,0.013523,0.002678,0.000431,0.000470
23168000,0.0324,0.013523,0.002678,0.000431,0.000353
23169000,0.0324,0.013523,0.002678,0.000431,0.000235
23170000,0.0324,0.013523,0.002678,0.000431,0.000353
23171000,0.0324,0.013523,0.002678,0.000431,0.000470
23172000,0.0324,0.013523,0.002678,0.000431,0.000118
23173000,0.0324,0.013523,0.002678,0.000431,0.000353
23174000,0.0324,0.013523,0.002678,0.000431,0.000470
23175000,0.0324,0.013523,0.002678,0.000431,0.000353
23176000,0.0324,0.013523,0.002678,0.000431,0.000235
23177000,0.0324,0.013523,0.002678,0.000431,0.000353
23178000,0.0324,0.013523,0.002678,0.000431,0.000470
23179000,0.0324,0.013523,0.002678,0.000431,0.000118
23180000,0.0324,0.013523,0.002678,0.000431,0.000353
23181000,0.0324,0.013523,0.002678,0.000431,0.000470
23182000,0.0324,0.013523,0.002678,0.000431,0.000353
23183000,0.0324,0.013523,0.002678,0.000431,0.000235
23184000,0.0324,0.013523,0.002678,0.000431,0.000353
23185000,0.0324,0.013523,0.002678,0.000431,0.000353
23186000,0.0324,0.013523,0.002678,0.000431,0.000235
23187000,0.0324,0.013523,0.002678,0.000431,0.000353
23188000,0.0324,0.013523,0.002678,0.000431,0.000470
23189000,0.0324,0.013523,0.002678,0.000431,0.000353
23190000,0.0324,0.013523,0.002678,0.000431,0.000235
23191000,0.0324,0.013523,0.002678,0.000431,0.000353
23192000,0.0324,0.013523,0.002678,0.000431,0.000353
23193000,0.0324,0.013523,0.002678,0.000431,0.000235
23194000,0.0324,0.013523,0.002678,0.000431,0.000353
23195000,0.0324,0.013523,0.002678,0.000431,0.000470
23196000,0.0324,0.013523,0.002678,0.000431,0.000353
23197000,0.0324,0.013523,0.002678,0.000431,0.000235
23198000,0.0324,0.013523,0.002678,0.000431,0.000353
23199000,0.0324,0.013523,0.002678,0.000431,0.000353
23200000,0.0324,0.013523,0.002678,0.000431,0.000235
23201000,0.0324,0.013523,0.002678,0.000431,0.000353
23202000,0.0324,0.013523,0.002678,0.000431,0.000470
23203000,0.0324,0.013523,0.002678,0.000431,0.000353
23204000,0.0324,0.013523,0.002678,0.000431,0.000235
23205000,0.0324,0.013523,0.002678,0.000431,0.000353
23206000,0.0324,0.013523,0.002678,0.000431,0.000353
23207000,0.0324,0.013523,0.002678,0.000431,0.000235
23208000,0.0324,0.013523,0.002678,0.000431,0.000353
23209000,0.0324,0.013523,0.002678,0.000431,0.000470
23210000,0.0324,0.013523,0.002678,0.000431,0.000353
23211000,0.0324,0.013523,0.002678,0.000431,0.000235
23212000,0.0324,0.013523,0.002678,0.000431,0.000353
23213000,0.0324,0.013523,0.002678,0.000431,0.000353
23214000,0.0324,0.013523,0.002678,0.000431,0.000235
23215000,0.0324,0.013523,0.002678,0.000431,0.000353
23216000,0.0324,0.013523,0.002678,0.000431,0.000470
23217000,0.0324,0.013523,0.002678,0.000431,0.000353
23218000,0.0324,0.013523,0.002678,0.000431,0.000235
23219000,0.0324,0.013523,0.002678,0.000431,0.000353
23220000,0.0324,0.013523,0.002678,0.000431,0.000353
23221000,0.0324,0.013523,0.002678,0.000431,0.000235
23222000,0.0324,0.013523,0.002678,0.000431,0.000353
23223000,0.0324,0.013523,0.002678,0.000431,0.000470
23224000,0.0324,0.013523,0.002678,0.000431,0.000353
23225000,0.0324,0.013523,0.002678,0.000431,0.000235
23226000,0.0324,0.013523,0.002678,0.000431,0.000353
23227000,0.0324,0.013523,0.002678,0.000431,0.000353
23228000,0.0324,0.013523,0.002678,0.000431,0.000235
23229000,0.0324,0.013523,0.002678,0.000431,0.000353
23230000,0.0324,0.013523,0.002678,0.000431,0.000470
23231000,0.0324,0.013523,0.002678,0.000431,0.000353
23232000,0.0324,0.013523,0.002678,0.000431,0.000235
23233000,0.0324,0.013523,0.002678,0.000431,0.000353
23234000,0.0324,0.013523,0.002678,0.000431,0.000353
23235000,0.0324,0.013523,0.002678,0.000431,0.000235
23236000,0.0324,0.013523,0.002678,0.000431,0.000353
23237000,0.0324,0.013523,0.002678,0.000431,0.000470
23238000,0.0324,0.013523,0.002678,0.000431,0.000353
23239000,0.0324,0.013523,0.002678,0.000431,0.000118
23240000,0.0324,0.013523,0.002678,0.000431,0.000470
23241000,0.0324,0.013523,0.002678,0.000431,0.000353
23242000,0.0324,0.013523,0.002678,0.000431,0.000235
23243000,0.0324,0.013523,0.002678,0.000431,0.000353
23244000,0.0324,0.013523,0.002678,0.000431,0.000470
23245000,0.0324,0.013523,0.002678,0.000431,0.000353
23246000,0.0324,0.013523,0.002678,0.000431,0.000118
23247000,0.0324,0.013523,0.002678,0.000431,0.000470
23248000,0.0324,0.013523,0.002678,0.000431,0.000353
23249000,0.0324,0.013523,0.002678,0.000431,0.000235
23250000,0.0324,0.013523,0.002678,0.000431,0.000353
23251000,0.0324,0.013523,0.002678,0.000431,0.000470
23252000,0.0324,0.013523,0.002678,0.000431,0.000353
23253000,0.0324,0.013523,0.002678,0.000431,0.000118
23254000,0.0324,0.013523,0.002678,0.000431,0.000470
23255000,0.0324,0.013523,0.002678,0.000431,0.000353
23256000,0.0324,0.013523,0.002678,0.000431,0.000235
23257000,0.0324,0.013523,0.002678,0.000431,0.000353
23258000,0.0324,0.013523,0.002678,0.000431,0.000470
23259000,0.0324,0.013523,0.002678,0.000431,0.000235
23260000,0.0324,0.013523,0.002678,0.000431,0.000235
23261000,0.0324,0.013523,0.002678,0.000431,0.000470
23262000,0.0324,0.013523,0.002678,0.000431,0.000353
23263000,0.0324,0.013523,0.002678,0.000431,0.000235
23264000,0.0324,0.013523,0.002678,0.000431,0.000353
23265000,0.0324,0.013523,0.002678,0.000431,0.000470
23266000,0.0324,0.013523,0.002678,0.000431,0.000235
23267000,0.0324,0.013523,0.002678,0.000431,0.000235
23268000,0.0324,0.013523,0.002678,0.000431,0.000470
23269000,0.0324,0.013523,0.002678,0.000431,0.000353
23270000,0.0324,0.013523,0.002678,0.000431,0.000235
23271000,0.0324,0.013523,0.002678,0.000431,0.000353
23272000,0.0324,0.013523,0.002678,0.000431,0.000470
23273000,0.0324,0.013523,0.002678,0.000431,0.000235
23274000,0.0324,0.013523,0.002678,0.000431,0.000235
23275000,0.0324,0.013523,0.002678,0.000431,0.000470
23276000,0.0324,0.013523,0.002678,0.000431,0.000353
23277000,0.0324,0.013523,0.002678,0.000431,0.000235
23278000,0.0324,0.013523,0.002678,0.000431,0.000353
23279000,0.0324,0.013523,0.002678,0.000431,0.000470
23280000,0.0324,0.013523,0.002678,0.000431,0.000235
23281000,0.0324,0.013523,0.002678,0.000431,0.000235
23282000,0.0324,0.013523,0.002678,0.000431,0.000470
23283000,0.0324,0.013523,0.002678,0.000431,0.000353
23284000,0.0324,0.013523,0.002678,0.000431,0.000235
23285000,0.0324,0.013523,0.002678,0.000431,0.000353
23286000,0.0324,0.013523,0.002678,0.000431,0.000470
23287000,0.0324,0.013523,0.002678,0.000431,0.000235
23288000,0.0324,0.013523,0.002678,0.000431,0.000235
23289000,0.0324,0.013523,0.002678,0.000431,0.000470
23290000,0.0324,0.013523,0.002678,0.000431,0.000353
23291000,0.0324,0.013523,0.002678,0.000431,0.000235
23292000,0.0324,0.013523,0.002678,0.000431,0.000353
23293000,0.0324,0.013523,0.002678,0.000431,0.000470
23294000,0.0324,0.013523,0.002678,0.000431,0.000235
23295000,0.0324,0.013523,0.002678,0.000431,0.000235
23296000,0.0324,0.013523,0.002678,0.000431,0.000470
23297000,0.0324,0.013523,0.002678,0.000431,0.000353
23298000,0.0324,0.013523,0.002678,0.000431,0.000235
23299000,0.0324,0.013523,0.002678,0.000431,0.000353
23300000,0.0324,0.013523,0.002678,0.000431,0.000470
23301000,0.0324,0.013523,0.002678,0.000431,0.000118
23302000,0.0324,0.013523,0.002678,0.000431,0.000353
23303000,0.0324,0.013523,0.002678,0.000431,0.000470
23304000,0.0324,0.013523,0.002678,0.000431,0.000353
23305000,0.0324,0.013523,0.002678,0.000431,0.000235
23306000,0.0324,0.013523,0.002678,0.000431,0.000353
23307000,0.0324,0.013523,0.002678,0.000431,0.000470
23308000,0.0324,0.013523,0.002678,0.000431,0.000118
23309000,0.0324,0.013523,0.002678,0.000431,0.000353
23310000,0.0324,0.013523,0.002678,0.000431,0.000470
23311000,0.0324,0.013523,0.002678,0.000431,0.000353
23312000,0.0324,0.013523,0.002678,0.000431,0.000235
23313000,0.0324,0.013523,0.002678,0.000431,0.000353
23314000,0.0324,0.013523,0.002678,0.000431,0.000470
23315000,0.0324,0.013523,0.002678,0.000431,0.000118
23316000,0.0324,0.013523,0.002678,0.000431,0.000353
23317000,0.0324,0.013523,0.002678,0.000431,0.000470
23318000,0.0324,0.013523,0.002678,0.000431,0.000353
23319000,0.0324,0.013523,0.002678,0.000431,0.000235
23320000,0.0324,0.013523,0.002678,0.000431,0.000353
23321000,0.0324,0.013523,0.002678,0.000431,0.000353
23322000,0.0324,0.013523,0.002678,0.000431,0.000235
23323000,0.0324,0.013523,0.002678,0.000431,0.000353
23324000,0.0324,0.013523,0.002678,0.000431,0.000470
23325000,0.0324,0.013523,0.002678,0.000431,0.000353
23326000,0.0324,0.013523,0.002678,0.000431,0.000235
23327000,0.0324,0.013523,0.002678,0.000431,0.000353
23328000,0.0324,0.013523,0.002678,0.000431,0.000353
23329000,0.0324,0.013523,0.002678,0.000431,0.000235
23330000,0.0324,0.013523,0.002678,0.000431,0.000353
23331000,0.0324,0.013523,0.002678,0.000431,0.000470
23332000,0.0324,0.013523,0.002678,0.000431,0.000353
23333000,0.0324,0.013523,0.002678,0.000431,0.000235
23334000,0.0324,0.013523,0.002678,0.000431,0.000353
23335000,0.0324,0.013523,0.002678,0.000431,0.000353
23336000,0.0324,0.013523,0.002678,0.000431,0.000235
23337000,0.0324,0.013523,0.002678,0.000431,0.000353
23338000,0.0324,0.013523,0.002678,0.000431,0.000470
23339000,0.0324,0.013523,0.002678,0.000431,0.000353
23340000,0.0324,0.013523,0.002678,0.000431,0.000235
23341000,0.0324,0.013523,0.002678,0.000431,0.000353
23342000,0.0324,0.013523,0.002678,0.000431,0.000353
23343000,0.0324,0.013523,0.002678,0.000431,0.000235
23344000,0.0324,0.013523,0.002678,0.000431,0.000353
23345000,0.0324,0.013523,0.002678,0.000431,0.000470
23346000,0.0324,0.013523,0.002678,0.000431,0.000353
23347000,0.0324,0.013523,0.002678,0.000431,0.000235
23348000,0.0324,0.013523,0.002678,0.000431,0.000353
23349000,0.0324,0.013523,0.002678,0.000431,0.000353
23350000,0.0324,0.013523,0.002678,0.000431,0.000235
23351000,0.0324,0.013523,0.002678,0.000431,0.000353
23352000,0.0324,0.013523,0.002678,0.000431,0.000470
23353000,0.0324,0.013523,0.002678,0.000431,0.000353
23354000,0.0324,0.013523,0.002678,0.000431,0.000235
23355000,0.0324,0.013523,0.002678,0.000431,0.000353
23356000,0.0324,0.013523,0.002678,0.000431,0.000353
23357000,0.0324,0.013523,0.002678,0.000431,0.000235
23358000,0.0324,0.013523,0.002678,0.000431,0.000353
23359000,0.0324,0.013523,0.002678,0.000431,0.000470
23360000,0.0324,0.013523,0.002678,0.000431,0.000353
23361000,0.0324,0.013523,0.002678,0.000431,0.000235
23362000,0.0324,0.013523,0.002678,0.000431,0.000353
23363000,0.0324,0.013523,0.002678,0.000431,0.000353
23364000,0.0324,0.013523,0.002678,0.000431,0.000235
23365000,0.0324,0.013523,0.002678,0.000431,0.000353
23366000,0.0324,0.013523,0.002678,0.000431,0.000470
23367000,0.0324,0.013523,0.002678,0.000431,0.000353
23368000,0.0324,0.013523,0.002678,0.000431,0.000235
23369000,0.0324,0.013523,0.002678,0.000431,0.000353
23370000,0.0324,0.013523,0.002678,0.000431,0.000353
23371000,0.0324,0.013523,0.002678,0.000431,0.000235
23372000,0.0324,0.013523,0.002678,0.000431,0.000353
23373000,0.0324,0.013523,0.002678,0.000431,0.000470
23374000,0.0324,0.013523,0.002678,0.000431,0.000353
23375000,0.0324,0.013523,0.002678,0.000431,0.000118
23376000,0.0324,0.013523,0.002678,0.000431,0.000470
23377000,0.0324,0.013523,0.002678,0.000431,0.000353
23378000,0.0324,0.013523,0.002678,0.000431,0.000235
23379000,0.0324,0.013523,0.002678,0.000431,0.000353
23380000,0.0324,0.013523,0.002678,0.000431,0.000470
23381000,0.0324,0.013523,0.002678,0.000431,0.000353
23382000,0.0324,0.013523,0.002678,0.000431,0.000118
23383000,0.0324,0.013523,0.002678,0.000431,0.000470
23384000,0.0324,0.013523,0.002678,0.000431,0.000353
23385000,0.0324,0.013523,0.002678,0.000431,0.000235
23386000,0.0324,0.013523,0.002678,0.000431,0.000353
23387000,0.0324,0.013523,0.002678,0.000431,0.000470
23388000,0.0324,0.013523,0.002678,0.000431,0.000353
23389000,0.0324,0.013523,0.002678,0.000431,0.000118
23390000,0.0324,0.013523,0.002678,0.000431,0.000470
23391000,0.0324,0.013523,0.002678,0.000431,0.000353
23392000,0.0324,0.013523,0.002678,0.000431,0.000235
23393000,0.0324,0.013523,0.002678,0.000431,0.000353
23394000,0.0324,0.013523,0.002678,0.000431,0.000470
23395000,0.0324,0.013523,0.002678,0.000431,0.000353
23396000,0.0324,0.013523,0.002678,0.000431,0.000118
23397000,0.0324,0.013523,0.002678,0.000431,0.000470
23398000,0.0324,0.013523,0.002678,0.000431,0.000353
23399000,0.0324,0.013523,0.002678,0.000431,0.000235
23400000,0.0324,0.013523,0.002678,0.000431,0.000353
23401000,0.0324,0.013523,0.002678,0.000431,0.000470
23402000,0.0324,0.013523,0.002678,0.000431,0.000235
23403000,0.0324,0.013523,0.002678,0.000431,0.000235
23404000,0.0324,0.013523,0.002678,0.000431,0.000470
23405000,0.0324,0.013523,0.002678,0.000431,0.000353
23406000,0.0324,0.013523,0.002678,0.000431,0.000235
23407000,0.0324,0.013523,0.002678,0.000431,0.000353
23408000,0.0324,0.013523,0.002678,0.000431,0.000470
23409000,0.0324,0.013523,0.002678,0.000431,0.000235
23410000,0.0324,0.013523,0.002678,0.000431,0.000235
23411000,0.0324,0.013523,0.002678,0.000431,0.000470
23412000,0.0324,0.013523,0.002678,0.000431,0.000353
23413000,0.0324,0.013523,0.002678,0.000431,0.000235
23414000,0.0324,0.013523,0.002678,0.000431,0.000353
23415000,0.0324,0.013523,0.002678,0.000431,0.000470
23416000,0.0324,0.013523,0.002678,0.000431,0.000235
23417000,0.0324,0.013523,0.002678,0.000431,0.000235
23418000,0.0324,0.013523,0.002678,0.000431,0.000470
23419000,0.0324,0.013523,0.002678,0.000431,0.000353
23420000,0.0324,0.013523,0.002678,0.000431,0.000235
23421000,0.0324,0.013523,0.002678,0.000431,0.000353
23422000,0.0324,0.013523,0.002678,0.000431,0.000470
23423000,0.0324,0.013523,0.002678,0.000431,0.000235
23424000,0.0324,0.013523,0.002678,0.000431,0.000235
23425000,0.0324,0.013523,0.002678,0.000431,0.000470
23426000,0.0324,0.013523,0.002678,0.000431,0.000353
23427000,0.0324,0.013523,0.002678,0.000431,0.000235
23428000,0.0324,0.013523,0.002678,0.000431,0.000353
23429000,0.0324,0.013523,0.002678,0.000431,0.000470
23430000,0.0324,0.013523,0.002678,0.000431,0.000235
23431000,0.0324,0.013523,0.002678,0.000431,0.000235
23432000,0.0324,0.013523,0.002678,0.000431,0.000470
23433000,0.0324,0.013523,0.002678,0.000431,0.000353
23434000,0.0324,0.013523,0.002678,0.000431,0.000235
23435000,0.0324,0.013523,0.002678,0.000431,0.000353
23436000,0.0324,0.013523,0.002678,0.000431,0.000470
23437000,0.0324,0.013523,0.002678,0.000431,0.000235
23438000,0.0324,0.013523,0.002678,0.000431,0.000235
23439000,0.0324,0.013523,0.002678,0.000431,0.000470
23440000,0.0324,0.013523,0.002678,0.000431,0.000353
23441000,0.0324,0.013523,0.002678,0.000431,0.000235
23442000,0.0324,0.013523,0.002678,0.000431,0.000353
23443000,0.0324,0.013523,0.002678,0.000431,0.000470
23444000,0.0324,0.013523,0.002678,0.000431,0.000118
23445000,0.0324,0.013523,0.002678,0.000431,0.000353
23446000,0.0324,0.013523,0.002678,0.000431,0.000470
23447000,0.0324,0.013523,0.002678,0.000431,0.000353
23448000,0.0324,0.013523,0.002678,0.000431,0.000235
23449000,0.0324,0.013523,0.002678,0.000431,0.000353
23450000,0.0324,0.013523,0.002678,0.000431,0.000470
23451000,0.0324,0.013523,0.002678,0.000431,0.000118
23452000,0.0324,0.013523,0.002678,0.000431,0.000353
23453000,0.0324,0.013523,0.002678,0.000431,0.000470
23454000,0.0324,0.013523,0.002678,0.000431,0.000353
23455000,0.0324,0.013523,0.002678,0.000431,0.000235
23456000,0.0324,0.013523,0.002678,0.000431,0.000353
23457000,0.0324,0.013523,0.002678,0.000431,0.000470
23458000,0.0324,0.013523,0.002678,0.000431,0.000118
23459000,0.0324,0.013523,0.002678,0.000431,0.000353
23460000,0.0324,0.013523,0.002678,0.000431,0.000470
23461000,0.0324,0.013523,0.002678,0.000431,0.000353
23462000,0.0324,0.013523,0.002678,0.000431,0.000235
23463000,0.0324,0.013523,0.002678,0.000431,0.000353
23464000,0.0324,0.013523,0.002678,0.000431,0.000353
23465000,0.0324,0.013523,0.002678,0.000431,0.000235
23466000,0.0324,0.013523,0.002678,0.000431,0.000353
23467000,0.0324,0.013523,0.002678,0.000431,0.000470
23468000,0.0324,0.013523,0.002678,0.000431,0.000353
23469000,0.0324,0.013523,0.002678,0.000431,0.000235
23470000,0.0324,0.013523,0.002678,0.000431,0.000353
23471000,0.0324,0.013523,0.002678,0.000431,0.000353
23472000,0.0324,0.013523,0.002678,0.000431,0.000235
23473000,0.0324,0.013523,0.002678,0.000431,0.000353
23474000,0.0324,0.013523,0.002678,0.000431,0.000470
23475000,0.0324,0.013523,0.002678,0.000431,0.000353
23476000,0.0324,0.013523,0.002678,0.000431,0.000235
23477000,0.0324,0.013523,0.002678,0.000431,0.000353
23478000,0.0324,0.013523,0.002678,0.000431,0.000353
23479000,0.0324,0.013523,0.002678,0.000431,0.000235
23480000,0.0324,0.013523,0.002678,0.000431,0.000353
23481000,0.0324,0.013523,0.002678,0.000431,0.000470
23482000,0.0324,0.013523,0.002678,0.000431,0.000353
23483000,0.0324,0.013523,0.002678,0.000431,0.000235
23484000,0.0324,0.013523,0.002678,0.000431,0.000353
23485000,0.0324,0.013523,0.002678,0.000431,0.000353
23486000,0.0324,0.013523,0.002678,0.000431,0.000235
23487000,0.0324,0.013523,0.002678,0.000431,0.000353
23488000,0.0324,0.013523,0.002678,0.000431,0.000470
23489000,0.0324,0.013523,0.002678,0.000431,0.000353
23490000,0.0324,0.013523,0.002678,0.000431,0.000118
23491000,0.0324,0.013523,0.002678,0.000431,0.000470
23492000,0.0324,0.013523,0.002678,0.000431,0.000353
23493000,0.0324,0.013523,0.002678,0.000431,0.000235
23494000,0.0324,0.013523,0.002678,0.000431,0.000353
23495000,0.0324,0.013523,0.002678,0.000431,0.000470
23496000,0.0324,0.013523,0.002678,0.000431,0.000353
23497000,0.0324,0.013523,0.002678,0.000431,0.000118
23498000,0.0324,0.013523,0.002678,0.000431,0.000470
23499000,0.0324,0.013523,0.002678,0.000431,0.000353
23500000,0.0324,0.013523,0.002678,0.000431,0.000235
23501000,0.0324,0.013523,0.002678,0.000431,0.000353
23502000,0.0324,0.013523,0.002678,0.000431,0.000470
23503000,0.0324,0.013523,0.002678,0.000431,0.000235
23504000,0.0324,0.013523,0.002678,0.000431,0.000235
23505000,0.0324,0.013523,0.002678,0.000431,0.000470
23506000,0.0324,0.013523,0.002678,0.000431,0.000353
23507000,0.0324,0.013523,0.002678,0.000431,0.000235
23508000,0.0324,0.013523,0.002678,0.000431,0.000353
23509000,0.0324,0.013523,0.002678,0.000431,0.000470
23510000,0.0324,0.013523,0.002678,0.000431,0.000235
23511000,0.0324,0.013523,0.002678,0.000431,0.000235
23512000,0.0324,0.013523,0.002678,0.000431,0.000470
23513000,0.0324,0.013523,0.002678,0.000431,0.000353
23514000,0.0324,0.013523,0.002678,0.000431,0.000235
23515000,0.0324,0.013523,0.002678,0.000431,0.000353
23516000,0.0324,0.013523,0.002678,0.000431,0.000353
23517000,0.0324,0.013523,0.002678,0.000431,0.000235
23518000,0.0324,0.013523,0.002678,0.000431,0.000353
23519000,0.0324,0.013523,0.002678,0.000431,0.000470
23520000,0.0324,0.013523,0.002678,0.000431,0.000353
23521000,0.0324,0.013523,0.002678,0.000431,0.000235
23522000,0.0324,0.013523,0.002678,0.000431,0.000353
23523000,0.0324,0.013523,0.002678,0.000431,0.000353
23524000,0.0324,0.013523,0.002678,0.000431,0.000235
23525000,0.0324,0.013523,0.002678,0.000431,0.000353
23526000,0.0324,0.013523,0.002678,0.000431,0.000470
23527000,0.0324,0.013523,0.002678,0.000431,0.000353
23528000,0.0324,0.013523,0.002678,0.000431,0.000235
23529000,0.0324,0.013523,0.002678,0.000431,0.000353
23530000,0.0324,0.013523,0.002678,0.000431,0.000353
23531000,0.0324,0.013523,0.002678,0.000431,0.000235
23532000,0.0324,0.013523,0.002678,0.000431,0.000353
23533000,0.0324,0.013523,0.002678,0.000431,0.000470
23534000,0.0324,0.013523,0.002678,0.000431,0.000353
23535000,0.0324,0.013523,0.002678,0.000431,0.000118
23536000,0.0324,0.013523,0.002678,0.000431,0.000470
23537000,0.0324,0.013523,0.002678,0.000431,0.000353
23538000,0.0324,0.013523,0.002678,0.000431,0.000235
23539000,0.0324,0.013523,0.002678,0.000431,0.000353
23540000,0.0324,0.013523,0.002678,0.000431,0.000470
23541000,0.0324,0.013523,0.002678,0.000431,0.000235
23542000,0.0324,0.013523,0.002678,0.000431,0.000235
23543000,0.0324,0.013523,0.002678,0.000431,0.000470
23544000,0.0324,0.013523,0.002678,0.000431,0.000353
23545000,0.0324,0.013523,0.002678,0.000431,0.000235
23546000,0.0324,0.013523,0.002678,0.000431,0.000353
23547000,0.0324,0.013523,0.002678,0.000431,0.000470
23548000,0.0324,0.013523,0.002678,0.000431,0.000235
23549000,0.0324,0.013523,0.002678,0.000431,0.000235
23550000,0.0324,0.013523,0.002678,0.000431,0.000470
23551000,0.0324,0.013523,0.002678,0.000431,0.000353
23552000,0.0324,0.013523,0.002678,0.000431,0.000235
23553000,0.0324,0.013523,0.002678,0.000431,0.000353
23554000,0.0324,0.013523,0.002678,0.000431,0.000470
23555000,0.0324,0.013523,0.002678,0.000431,0.000118
23556000,0.0324,0.013523,0.002678,0.000431,0.000353
23557000,0.0324,0.013523,0.002678,0.000431,0.000470
23558000,0.0324,0.013523,0.002678,0.000431,0.000353
23559000,0.0324,0.013523,0.002678,0.000431,0.000235
23560000,0.0324,0.013523,0.002678,0.000431,0.000353
23561000,0.0324,0.013523,0.002678,0.000431,0.000353
23562000,0.0324,0.013523,0.002678,0.000431,0.000235
23563000,0.0324,0.013523,0.002678,0.000431,0.000353
23564000,0.0324,0.013523,0.002678,0.000431,0.000470
23565000,0.0324,0.013523,0.002678,0.000431,0.000353
23566000,0.0324,0.013523,0.002678,0.000431,0.000235
23567000,0.0324,0.013523,0.002678,0.000431,0.000353
23568000,0.0324,0.013523,0.002678,0.000431,0.000353
23569000,0.0324,0.013523,0.002678,0.000431,0.000235
23570000,0.0324,0.013523,0.002678,0.000431,0.000353
23571000,0.0324,0.013523,0.002678,0.000431,0.000470
23572000,0.0324,0.013523,0.002678,0.000431,0.000353
23573000,0.0324,0.013523,0.002678,0.000431,0.000118
23574000,0.0324,0.013523,0.002678,0.000431,0.000470
23575000,0.0324,0.013523,0.002678,0.000431,0.000353
23576000,0.0324,0.013523,0.002678,0.000431,0.000235
23577000,0.0324,0.013523,0.002678,0.000431,0.000353
23578000,0.0324,0.013523,0.002678,0.000431,0.000470
23579000,0.0324,0.013523,0.002678,0.000431,0.000353
23580000,0.0324,0.013523,0.002678,0.000431,0.000118
23581000,0.0324,0.013523,0.002678,0.000431,0.000470
23582000,0.0324,0.013523,0.002678,0.000431,0.000353
23583000,0.0324,0.013523,0.002678,0.000431,0.000235
23584000,0.0324,0.013523,0.002678,0.000431,0.000353
23585000,0.0324,0.013523,0.002678,0.000431,0.000470
23586000,0.0324,0.013523,0.002678,0.000431,0.000235
23587000,0.0324,0.013523,0.002678,0.000431,0.000235
23588000,0.0324,0.013523,0.002678,0.000431,0.000470
23589000,0.0324,0.013523,0.002678,0.000431,0.000353
23590000,0.0324,0.013523,0.002678,0.000431,0.000235
23591000,0.0324,0.013523,0.002678,0.000431,0.000353
23592000,0.0324,0.013523,0.002678,0.000431,0.000470
23593000,0.0324,0.013523,0.002678,0.000431,0.000235
23594000,0.0324,0.013523,0.002678,0.000431,0.000235
23595000,0.0324,0.013523,0.002678,0.000431,0.000470
23596000,0.0324,0.013523,0.002678,0.000431,0.000353
23597000,0.0324,0.013523,0.002678,0.000431,0.000235
23598000,0.0324,0.013523,0.002678,0.000431,0.000353
23599000,0.0324,0.013523,0.002678,0.000431,0.000470
23600000,0.0324,0.013523,0.002678,0.000431,0.000118
23601000,0.0324,0.013523,0.002678,0.000431,0.000353
23602000,0.0324,0.013523,0.002678,0.000431,0.000470
23603000,0.0324,0.013523,0.002678,0.000431,0.000353
23604000,0.0324,0.013523,0.002678,0.000431,0.000235
23605000,0.0324,0.013523,0.002678,0.000431,0.000353
23606000,0.0324,0.013523,0.002678,0.000431,0.000353
23607000,0.0324,0.013523,0.002678,0.000431,0.000235
23608000,0.0324,0.013523,0.002678,0.000431,0.000353
23609000,0.0324,0.013523,0.002678,0.000431,0.000470
23610000,0.0324,0.013523,0.002678,0.000431,0.000353
23611000,0.0324,0.013523,0.002678,0.000431,0.000235
23612000,0.0324,0.013523,0.002678,0.000431,0.000353
23613000,0.0324,0.013523,0.002678,0.000431,0.000353
23614000,0.0324,0.013523,0.002678,0.000431,0.000235
23615000,0.0324,0.013523,0.002678,0.000431,0.000353
23616000,0.0324,0.013523,0.002678,0.000431,0.000470
23617000,0.0324,0.013523,0.002678,0.000431,0.000353
23618000,0.0324,0.013523,0.002678,0.000431,0.000235
23619000,0.0324,0.013523,0.002678,0.000431,0.000353
23620000,0.0324,0.013523,0.002678,0.000431,0.000353
23621000,0.0324,0.013523,0.002678,0.000431,0.000235
23622000,0.0324,0.013523,0.002678,0.000431,0.000353
23623000,0.0324,0.013523,0.002678,0.000431,0.000470
23624000,0.0324,0.013523,0.002678,0.000431,0.000353
23625000,0.0324,0.013523,0.002678,0.000431,0.000118
23626000,0.0324,0.013523,0.002678,0.000431,0.000470
23627000,0.0324,0.013523,0.002678,0.000431,0.000353
23628000,0.0324,0.013523,0.002678,0.000431,0.000235
23629000,0.0324,0.013523,0.002678,0.000431,0.000353
23630000,0.0324,0.013523,0.002678,0.000431,0.000470
23631000,0.0324,0.013523,0.002678,0.000431,0.000353
23632000,0.0324,0.013523,0.002678,0.000431,0.000118
23633000,0.0324,0.013523,0.002678,0.000431,0.000470
23634000,0.0324,0.013523,0.002678,0.000431,0.000353
23635000,0.0324,0.013523,0.002678,0.000431,0.000235
23636000,0.0324,0.013523,0.002678,0.000431,0.000353
23637000,0.0324,0.013523,0.002678,0.000431,0.000470
23638000,0.0324,0.013523,0.002678,0.000431,0.000353
23639000,0.0324,0.013523,0.002678,0.000431,0.000118
23640000,0.0324,0.013523,0.002678,0.000431,0.000470
23641000,0.0324,0.013523,0.002678,0.000431,0.000353
23642000,0.0324,0.013523,0.002678,0.000431,0.000235
23643000,0.0324,0.013523,0.002678,0.000431,0.000353
23644000,0.0324,0.013523,0.002678,0.000431,0.000470
23645000,0.0324,0.013523,0.002678,0.000431,0.000353
23646000,0.0324,0.013523,0.002678,0.000431,0.000118
23647000,0.0324,0.013523,0.002678,0.000431,0.000470
23648000,0.0324,0.013523,0.002678,0.000431,0.000353
23649000,0.0324,0.013523,0.002678,0.000431,0.000235
23650000,0.0324,0.013523,0.002678,0.000431,0.000353
23651000,0.0324,0.013523,0.002678,0.000431,0.000470
23652000,0.0324,0.013523,0.002678,0.000431,0.000235
23653000,0.0324,0.013523,0.002678,0.000431,0.000235
23654000,0.0324,0.013523,0.002678,0.000431,0.000470
23655000,0.0324,0.013523,0.002678,0.000431,0.000353
23656000,0.0324,0.013523,0.002678,0.000431,0.000235
23657000,0.0324,0.013523,0.002678,0.000431,0.000353
23658000,0.0324,0.013523,0.002678,0.000431,0.000470
23659000,0.0324,0.013523,0.002678,0.000431,0.000235
23660000,0.0324,0.013523,0.002678,0.000431,0.000235
23661000,0.0324,0.013523,0.002678,0.000431,0.000470
23662000,0.0324,0.013523,0.002678,0.000431,0.000353
23663000,0.0324,0.013523,0.002678,0.000431,0.000235
23664000,0.0324,0.013523,0.002678,0.000431,0.000353
23665000,0.0324,0.013523,0.002678,0.000431,0.000470
23666000,0.0324,0.013523,0.002678,0.000431,0.000235
23667000,0.0324,0.013523,0.002678,0.000431,0.000235
23668000,0.0324,0.013523,0.002678,0.000431,0.000470
23669000,0.0324,0.013523,0.002678,0.000431,0.000353
23670000,0.0324,0.013523,0.002678,0.000431,0.000235
23671000,0.0324,0.013523,0.002678,0.000431,0.000353
23672000,0.0324,0.013523,0.002678,0.000431,0.000470
23673000,0.0324,0.013523,0.002678,0.000431,0.000235
23674000,0.0324,0.013523,0.002678,0.000431,0.000235
23675000,0.0324,0.013523,0.002678,0.000431,0.000470
23676000,0.0324,0.013523,0.002678,0.000431,0.000353
23677000,0.0324,0.013523,0.002678,0.000431,0.000235
23678000,0.0324,0.013523,0.002678,0.000431,0.000353
23679000,0.0324,0.013523,0.002678,0.000431,0.000470
23680000,0.0324,0.013523,0.002678,0.000431,0.000235
23681000,0.0324,0.013523,0.002678,0.000431,0.000235
23682000,0.0324,0.013523,0.002678,0.000431,0.000470
23683000,0.0324,0.013523,0.002678,0.000431,0.000353
23684000,0.0324,0.013523,0.002678,0.000431,0.000235
23685000,0.0324,0.013523,0.002678,0.000431,0.000353
23686000,0.0324,0.013523,0.002678,0.000431,0.000470
23687000,0.0324,0.013523,0.002678,0.000431,0.000235
23688000,0.0324,0.013523,0.002678,0.000431,0.000235
23689000,0.0324,0.013523,0.002678,0.000431,0.000470
23690000,0.0324,0.013523,0.002678,0.000431,0.000353
23691000,0.0324,0.013523,0.002678,0.000431,0.000235
23692000,0.0324,0.013523,0.002678,0.000431,0.000353
23693000,0.0324,0.013523,0.002678,0.000431,0.000470
23694000,0.0324,0.013523,0.002678,0.000431,0.000118
23695000,0.0324,0.013523,0.002678,0.000431,0.000353
23696000,0.0324,0.013523,0.002678,0.000431,0.000470
23697000,0.0324,0.013523,0.002678,0.000431,0.000353
23698000,0.0324,0.013523,0.002678,0.000431,0.000235
23699000,0.0324,0.013523,0.002678,0.000431,0.000353
23700000,0.0324,0.013523,0.002678,0.000431,0.000470
23701000,0.0324,0.013523,0.002678,0.000431,0.000118
23702000,0.0324,0.013523,0.002678,0.000431,0.000353
23703000,0.0324,0.013523,0.002678,0.000431,0.000470
23704000,0.0324,0.013523,0.002678,0.000431,0.000353
23705000,0.0324,0.013523,0.002678,0.000431,0.000235
23706000,0.0324,0.013523,0.002678,0.000431,0.000353
23707000,0.0324,0.013523,0.002678,0.000431,0.000470
23708000,0.0324,0.013523,0.002678,0.000431,0.000118
23709000,0.0324,0.013523,0.002678,0.000431,0.000353
23710000,0.0324,0.013523,0.002678,0.000431,0.000470
23711000,0.0324,0.013523,0.002678,0.000431,0.000353
23712000,0.0324,0.013523,0.002678,0.000431,0.000235
23713000,0.0324,0.013523,0.002678,0.000431,0.000353
23714000,0.0324,0.013523,0.002678,0.000431,0.000353
23715000,0.0324,0.013523,0.002678,0.000431,0.000235
23716000,0.0324,0.013523,0.002678,0.000431,0.000353
23717000,0.0324,0.013523,0.002678,0.000431,0.000470
23718000,0.0324,0.013523,0.002678,0.000431,0.000353
23719000,0.0324,0.013523,0.002678,0.000431,0.000235
23720000,0.0324,0.013523,0.002678,0.000431,0.000353
23721000,0.0324,0.013523,0.002678,0.000431,0.000353
23722000,0.0324,0.013523,0.002678,0.000431,0.000235
23723000,0.0324,0.013523,0.002678,0.000431,0.000353
23724000,0.0324,0.013523,0.002678,0.000431,0.000470
23725000,0.0324,0.013523,0.002678,0.000431,0.000353
23726000,0.0324,0.013523,0.002678,0.000431,0.000235
23727000,0.0324,0.013523,0.002678,0.000431,0.000353
23728000,0.0324,0.013523,0.002678,0.000431,0.000353
23729000,0.0324,0.013523,0.002678,0.000431,0.000235
23730000,0.0324,0.013523,0.002678,0.000431,0.000353
23731000,0.0324,0.013523,0.002678,0.000431,0.000470
23732000,0.0324,0.013523,0.002678,0.000431,0.000353
23733000,0.0324,0.013523,0.002678,0.000431,0.000235
23734000,0.0324,0.013523,0.002678,0.000431,0.000353
23735000,0.0324,0.013523,0.002678,0.000431,0.000353
23736000,0.0324,0.013523,0.002678,0.000431,0.000235
23737000,0.0324,0.013523,0.002678,0.000431,0.000353
23738000,0.0324,0.013523,0.002678,0.000431,0.000470
23739000,0.0324,0.013523,0.002678,0.000431,0.000353
23740000,0.0324,0.013523,0.002678,0.000431,0.000235
23741000,0.0324,0.013523,0.002678,0.000431,0.000353
23742000,0.0324,0.013523,0.002678,0.000431,0.000353
23743000,0.0324,0.013523,0.002678,0.000431,0.000235
23744000,0.0324,0.013523,0.002678,0.000431,0.000353
23745000,0.0324,0.013523,0.002678,0.000431,0.000470
23746000,0.0324,0.013523,0.002678,0.000431,0.000353
23747000,0.0324,0.013523,0.002678,0.000431,0.000235
23748000,0.0324,0.013523,0.002678,0.000431,0.000353
23749000,0.0324,0.013523,0.002678,0.000431,0.000353
23750000,0.0324,0.013523,0.002678,0.000431,0.000235
23751000,0.0324,0.013523,0.002678,0.000431,0.000353
23752000,0.0324,0.013523,0.002678,0.000431,0.000470
23753000,0.0324,0.013523,0.002678,0.000431,0.000353
23754000,0.0324,0.013523,0.002678,0.000431,0.000235
23755000,0.0324,0.013523,0.002678,0.000431,0.000353
23756000,0.0324,0.013523,0.002678,0.000431,0.000353
23757000,0.0324,0.013523,0.002678,0.000431,0.000235
23758000,0.0324,0.013523,0.002678,0.000431,0.000353
23759000,0.0324,0.013523,0.002678,0.000431,0.000470
23760000,0.0324,0.013523,0.002678,0.000431,0.000353
23761000,0.0324,0.013523,0.002678,0.000431,0.000235
23762000,0.0324,0.013523,0.002678,0.000431,0.000353
23763000,0.0324,0.013523,0.002678,0.000431,0.000353
23764000,0.0324,0.013523,0.002678,0.000431,0.000235
23765000,0.0324,0.013523,0.002678,0.000431,0.000353
23766000,0.0324,0.013523,0.002678,0.000431,0.000470
23767000,0.0324,0.013523,0.002678,0.000431,0.000353
23768000,0.0324,0.013523,0.002678,0.000431,0.000118
23769000,0.0324,0.013523,0.002678,0.000431,0.000470
23770000,0.0324,0.013523,0.002678,0.000431,0.000353
23771000,0.0324,0.013523,0.002678,0.000431,0.000235
23772000,0.0324,0.013523,0.002678,0.000431,0.000353
23773000,0.0324,0.013523,0.002678,0.000431,0.000470
23774000,0.0324,0.013523,0.002678,0.000431,0.000235
23775000,0.0324,0.013523,0.002678,0.000431,0.000235
23776000,0.0324,0.013523,0.002678,0.000431,0.000470
23777000,0.0324,0.013523,0.002678,0.000431,0.000353
23778000,0.0324,0.013523,0.002678,0.000431,0.000235
23779000,0.0324,0.013523,0.002678,0.000431,0.000353
23780000,0.0324,0.013523,0.002678,0.000431,0.000470
23781000,0.0324,0.013523,0.002678,0.000431,0.000118
23782000,0.0324,0.013523,0.002678,0.000431,0.000353
23783000,0.0324,0.013523,0.002678,0.000431,0.000470
23784000,0.0324,0.013523,0.002678,0.000431,0.000353
23785000,0.0324,0.013523,0.002678,0.000431,0.000235
23786000,0.0324,0.013523,0.002678,0.000431,0.000353
23787000,0.0324,0.013523,0.002678,0.000431,0.000353
23788000,0.0324,0.013523,0.002678,0.000431,0.000235
23789000,0.0324,0.013523,0.002678,0.000431,0.000353
23790000,0.0324,0.013523,0.002678,0.000431,0.000470
23791000,0.0324,0.013523,0.002678,0.000431,0.000353
23792000,0.0324,0.013523,0.002678,0.000431,0.000235
23793000,0.0324,0.013523,0.002678,0.000431,0.000353
23794000,0.0324,0.013523,0.002678,0.000431,0.000353
23795000,0.0324,0.013523,0.002678,0.000431,0.000235
23796000,0.0324,0.013523,0.002678,0.000431,0.000353
23797000,0.0324,0.013523,0.002678,0.000431,0.000470
23798000,0.0324,0.013523,0.002678,0.000431,0.000353
23799000,0.0324,0.013523,0.002678,0.000431,0.000235
23800000,0.0324,0.013523,0.002678,0.000431,0.000353
23801000,0.0324,0.013523,0.002678,0.000431,0.000353
23802000,0.0324,0.013523,0.002678,0.000431,0.000235
23803000,0.0324,0.013523,0.002678,0.000431,0.000353
23804000,0.0324,0.013523,0.002678,0.000431,0.000470
23805000,0.0324,0.013523,0.002678,0.000431,0.000353
23806000,0.0324,0.013523,0.002678,0.000431,0.000118
23807000,0.0324,0.013523,0.002678,0.000431,0.000470
23808000,0.0324,0.013523,0.002678,0.000431,0.000353
23809000,0.0324,0.013523,0.002678,0.000431,0.000235
23810000,0.0324,0.013523,0.002678,0.000431,0.000353
23811000,0.0324,0.013523,0.002678,0.000431,0.000470
23812000,0.0324,0.013523,0.002678,0.000431,0.000235
23813000,0.0324,0.013523,0.002678,0.000431,0.000235
23814000,0.0324,0.013523,0.002678,0.000431,0.000470
23815000,0.0324,0.013523,0.002678,0.000431,0.000353
23816000,0.0324,0.013523,0.002678,0.000431,0.000235
23817000,0.0324,0.013523,0.002678,0.000431,0.000353
23818000,0.0324,0.013523,0.002678,0.000431,0.000470
23819000,0.0324,0.013523,0.002678,0.000431,0.000235
23820000,0.0324,0.013523,0.002678,0.000431,0.000235
23821000,0.0324,0.013523,0.002678,0.000431,0.000470
23822000,0.0324,0.013523,0.002678,0.000431,0.000353
23823000,0.0324,0.013523,0.002678,0.000431,0.000235
23824000,0.0324,0.013523,0.002678,0.000431,0.000353
23825000,0.0324,0.013523,0.002678,0.000431,0.000470
23826000,0.0324,0.013523,0.002678,0.000431,0.000118
23827000,0.0324,0.013523,0.002678,0.000431,0.000353
23828000,0.0324,0.013523,0.002678,0.000431,0.000470
23829000,0.0324,0.013523,0.002678,0.000431,0.000353
23830000,0.0324,0.013523,0.002678,0.000431,0.000235
23831000,0.0324,0.013523,0.002678,0.000431,0.000353
23832000,0.0324,0.013523,0.002678,0.000431,0.000353
23833000,0.0324,0.013523,0.002678,0.000431,0.000235
23834000,0.0324,0.013523,0.002678,0.000431,0.000353
23835000,0.0324,0.013523,0.002678,0.000431,0.000470
23836000,0.0324,0.013523,0.002678,0.000431,0.000353
23837000,0.0324,0.013523,0.002678,0.000431,0.000235
23838000,0.0324,0.013523,0.002678,0.000431,0.000353
23839000,0.0324,0.013523,0.002678,0.000431,0.000353
23840000,0.0324,0.013523,0.002678,0.000431,0.000235
23841000,0.0324,0.013523,0.002678,0.000431,0.000353
23842000,0.0324,0.013523,0.002678,0.000431,0.000470
23843000,0.0324,0.013523,0.002678,0.000431,0.000353
23844000,0.0324,0.013523,0.002678,0.000431,0.000235
23845000,0.0324,0.013523,0.002678,0.000431,0.000353
23846000,0.0324,0.013523,0.002678,0.000431,0.000353
23847000,0.0324,0.013523,0.002678,0.000431,0.000235
23848000,0.0324,0.013523,0.002678,0.000431,0.000353
23849000,0.0324,0.013523,0.002678,0.000431,0.000470
23850000,0.0324,0.013523,0.002678,0.000431,0.000353
23851000,0.0324,0.013523,0.002678,0.000431,0.000118
23852000,0.0324,0.013523,0.002678,0.000431,0.000470
23853000,0.0324,0.013523,0.002678,0.000431,0.000353
23854000,0.0324,0.013523,0.002678,0.000431,0.000235
23855000,0.0324,0.013523,0.002678,0.000431,0.000353
23856000,0.0324,0.013523,0.002678,0.000431,0.000470
23857000,0.0324,0.013523,0.002678,0.000431,0.000235
23858000,0.0324,0.013523,0.002678,0.000431,0.000235
23859000,0.0324,0.013523,0.002678,0.000431,0.000470
23860000,0.0324,0.013523,0.002678,0.000431,0.000353
23861000,0.0324,0.013523,0.002678,0.000431,0.000235
23862000,0.0324,0.013523,0.002678,0.000431,0.000353
23863000,0.0324,0.013523,0.002678,0.000431,0.000470
23864000,0.0324,0.013523,0.002678,0.000431,0.000118
23865000,0.0324,0.013523,0.002678,0.000431,0.000353
23866000,0.0324,0.013523,0.002678,0.000431,0.000470
23867000,0.0324,0.013523,0.002678,0.000431,0.000353
23868000,0.0324,0.013523,0.002678,0.000431,0.000235
23869000,0.0324,0.013523,0.002678,0.000431,0.000353
23870000,0.0324,0.013523,0.002678,0.000431,0.000470
23871000,0.0324,0.013523,0.002678,0.000431,0.000118
23872000,0.0324,0.013523,0.002678,0.000431,0.000353
23873000,0.0324,0.013523,0.002678,0.000431,0.000470
23874000,0.0324,0.013523,0.002678,0.000431,0.000353
23875000,0.0324,0.013523,0.002678,0.000431,0.000235
23876000,0.0324,0.013523,0.002678,0.000431,0.000353
23877000,0.0324,0.013523,0.002678,0.000431,0.000353
23878000,0.0324,0.013523,0.002678,0.000431,0.000235
23879000,0.0324,0.013523,0.002678,0.000431,0.000353
23880000,0.0324,0.013523,0.002678,0.000431,0.000470
23881000,0.0324,0.013523,0.002678,0.000431,0.000353
23882000,0.0324,0.013523,0.002678,0.000431,0.000235
23883000,0.0324,0.013523,0.002678,0.000431,0.000353
23884000,0.0324,0.013523,0.002678,0.000431,0.000353
23885000,0.0324,0.013523,0.002678,0.000431,0.000235
23886000,0.0324,0.013523,0.002678,0.000431,0.000353
23887000,0.0324,0.013523,0.002678,0.000431,0.000470
23888000,0.0324,0.013523,0.002678,0.000431,0.000353
23889000,0.0324,0.013523,0.002678,0.000431,0.000118
23890000,0.0324,0.013523,0.002678,0.000431,0.000470
23891000,0.0324,0.013523,0.002678,0.000431,0.000353
23892000,0.0324,0.013523,0.002678,0.000431,0.000235
23893000,0.0324,0.013523,0.002678,0.000431,0.000353
23894000,0.0324,0.013523,0.002678,0.000431,0.000470
23895000,0.0324,0.013523,0.002678,0.000431,0.000235
23896000,0.0324,0.013523,0.002678,0.000431,0.000235
23897000,0.0324,0.013523,0.002678,0.000431,0.000470
23898000,0.0324,0.013523,0.002678,0.000431,0.000353
23899000,0.0324,0.013523,0.002678,0.000431,0.000235
23900000,0.0324,0.013523,0.002678,0.000431,0.000353
23901000,0.0324,0.013523,0.002678,0.000431,0.000470
23902000,0.0324,0.013523,0.002678,0.000431,0.000235
23903000,0.0324,0.013523,0.002678,0.000431,0.000235
23904000,0.0324,0.013523,0.002678,0.000431,0.000470
23905000,0.0324,0.013523,0.002678,0.000431,0.000353
23906000,0.0324,0.013523,0.002678,0.000431,0.000235
23907000,0.0324,0.013523,0.002678,0.000431,0.000353
23908000,0.0324,0.013523,0.002678,0.000431,0.000470
23909000,0.0324,0.013523,0.002678,0.000431,0.000235
23910000,0.0324,0.013523,0.002678,0.000431,0.000235
23911000,0.0324,0.013523,0.002678,0.000431,0.000470
23912000,0.0324,0.013523,0.002678,0.000431,0.000353
23913000,0.0324,0.013523,0.002678,0.000431,0.000235
23914000,0.0324,0.013523,0.002678,0.000431,0.000353
23915000,0.0324,0.013523,0.002678,0.000431,0.000470
23916000,0.0324,0.013523,0.002678,0.000431,0.000235
23917000,0.0324,0.013523,0.002678,0.000431,0.000235
23918000,0.0324,0.013523,0.002678,0.000431,0.000470
23919000,0.0324,0.013523,0.002678,0.000431,0.000353
23920000,0.0324,0.013523,0.002678,0.000431,0.000235
23921000,0.0324,0.013523,0.002678,0.000431,0.000353
23922000,0.0324,0.013523,0.002678,0.000431,0.000470
23923000,0.0324,0.013523,0.002678,0.000431,0.000118
23924000,0.0324,0.013523,0.002678,0.000431,0.000353
23925000,0.0324,0.013523,0.002678,0.000431,0.000470
23926000,0.0324,0.013523,0.002678,0.000431,0.000353
23927000,0.0324,0.013523,0.002678,0.000431,0.000235
23928000,0.0324,0.013523,0.002678,0.000431,0.000353
23929000,0.0324,0.013523,0.002678,0.000431,0.000470
23930000,0.0324,0.013523,0.002678,0.000431,0.000118
23931000,0.0324,0.013523,0.002678,0.000431,0.000353
23932000,0.0324,0.013523,0.002678,0.000431,0.000470
23933000,0.0324,0.013523,0.002678,0.000431,0.000353
23934000,0.0324,0.013523,0.002678,0.000431,0.000235
23935000,0.0324,0.013523,0.002678,0.000431,0.000353
23936000,0.0324,0.013523,0.002678,0.000431,0.000470
23937000,0.0324,0.013523,0.002678,0.000431,0.000118
23938000,0.0324,0.013523,0.002678,0.000431,0.000353
23939000,0.0324,0.013523,0.002678,0.000431,0.000470
23940000,0.0324,0.013523,0.002678,0.000431,0.000353
23941000,0.0324,0.013523,0.002678,0.000431,0.000235
23942000,0.0324,0.013523,0.002678,0.000431,0.000353
23943000,0.0324,0.013523,0.002678,0.000431,0.000470
23944000,0.0324,0.013523,0.002678,0.000431,0.000118
23945000,0.0324,0.013523,0.002678,0.000431,0.000353
23946000,0.0324,0.013523,0.002678,0.000431,0.000470
23947000,0.0324,0.013523,0.002678,0.000431,0.000353
23948000,0.0324,0.013523,0.002678,0.000431,0.000235
23949000,0.0324,0.013523,0.002678,0.000431,0.000353
23950000,0.0324,0.013523,0.002678,0.000431,0.000353
23951000,0.0324,0.013523,0.002678,0.000431,0.000235
23952000,0.0324,0.013523,0.002678,0.000431,0.000353
23953000,0.0324,0.013523,0.002678,0.000431,0.000470
23954000,0.0324,0.013523,0.002678,0.000431,0.000353
23955000,0.0324,0.013523,0.002678,0.000431,0.000235
23956000,0.0324,0.013523,0.002678,0.000431,0.000353
23957000,0.0324,0.013523,0.002678,0.000431,0.000353
23958000,0.0324,0.013523,0.002678,0.000431,0.000235
23959000,0.0324,0.013523,0.002678,0.000431,0.000353
23960000,0.0324,0.013523,0.002678,0.000431,0.000470
23961000,0.0324,0.013523,0.002678,0.000431,0.000353
23962000,0.0324,0.013523,0.002678,0.000431,0.000235
23963000,0.0324,0.013523,0.002678,0.000431,0.000353
23964000,0.0324,0.013523,0.002678,0.000431,0.000353
23965000,0.0324,0.013523,0.002678,0.000431,0.000235
23966000,0.0324,0.013523,0.002678,0.000431,0.000353
23967000,0.0324,0.013523,0.002678,0.000431,0.000470
23968000,0.0324,0.013523,0.002678,0.000431,0.000353
23969000,0.0324,0.013523,0.002678,0.000431,0.000235
23970000,0.0324,0.013523,0.002678,0.000431,0.000353
23971000,0.0324,0.013523,0.002678,0.000431,0.000353
23972000,0.0324,0.013523,0.002678,0.000431,0.000235
23973000,0.0324,0.013523,0.002678,0.000431,0.000353
23974000,0.0324,0.013523,0.002678,0.000431,0.000470
23975000,0.0324,0.013523,0.002678,0.000431,0.000353
23976000,0.0324,0.013523,0.002678,0.000431,0.000235
23977000,0.0324,0.013523,0.002678,0.000431,0.000353
23978000,0.0324,0.013523,0.002678,0.000431,0.000353
23979000,0.0324,0.013523,0.002678,0.000431,0.000235
23980000,0.0324,0.013523,0.002678,0.000431,0.000353
23981000,0.0324,0.013523,0.002678,0.000431,0.000470
23982000,0.0324,0.013523,0.002678,0.000431,0.000353
23983000,0.0324,0.013523,0.002678,0.000431,0.000235
23984000,0.0324,0.013523,0.002678,0.000431,0.000353
23985000,0.0324,0.013523,0.002678,0.000431,0.000353
23986000,0.0324,0.013523,0.002678,0.000431,0.000235
23987000,0.0324,0.013523,0.002678,0.000431,0.000353
23988000,0.0324,0.013523,0.002678,0.000431,0.000470
23989000,0.0324,0.013523,0.002678,0.000431,0.000353
23990000,0.0324,0.013523,0.002678,0.000431,0.000235
23991000,0.0324,0.013523,0.002678,0.000431,0.000353
23992000,0.0324,0.013523,0.002678,0.000431,0.000353
23993000,0.0324,0.013523,0.002678,0.000431,0.000235
23994000,0.0324,0.013523,0.002678,0.000431,0.000353
23995000,0.0324,0.013523,0.002678,0.000431,0.000470
23996000,0.0324,0.013523,0.002678,0.000431,0.000353
23997000,0.0324,0.013523,0.002678,0.000431,0.000235
23998000,0.0324,0.013523,0.002678,0.000431,0.000353
23999000,0.0324,0.013523,0.002678,0.000431,0.000353
