Cycle,Area(mm^2),PeakDynamic(W),SubthresholdLeakage(W),GateLeakage(W),RunTimeDynamic(W)
34000000,0.0324,0.013523,0.002678,0.000431,0.000353
34001000,0.0324,0.013523,0.002678,0.000431,0.000118
34002000,0.0324,0.013523,0.002678,0.000431,0.000470
34003000,0.0324,0.013523,0.002678,0.000431,0.000353
34004000,0.0324,0.013523,0.002678,0.000431,0.000235
34005000,0.0324,0.013523,0.002678,0.000431,0.000353
34006000,0.0324,0.013523,0.002678,0.000431,0.000470
34007000,0.0324,0.013523,0.002678,0.000431,0.000353
34008000,0.0324,0.013523,0.002678,0.000431,0.000118
34009000,0.0324,0.013523,0.002678,0.000431,0.000470
34010000,0.0324,0.013523,0.002678,0.000431,0.000353
34011000,0.0324,0.013523,0.002678,0.000431,0.000235
34012000,0.0324,0.013523,0.002678,0.000431,0.000353
34013000,0.0324,0.013523,0.002678,0.000431,0.000470
34014000,0.0324,0.013523,0.002678,0.000431,0.000235
34015000,0.0324,0.013523,0.002678,0.000431,0.000235
34016000,0.0324,0.013523,0.002678,0.000431,0.000470
34017000,0.0324,0.013523,0.002678,0.000431,0.000353
34018000,0.0324,0.013523,0.002678,0.000431,0.000235
34019000,0.0324,0.013523,0.002678,0.000431,0.000353
34020000,0.0324,0.013523,0.002678,0.000431,0.000470
34021000,0.0324,0.013523,0.002678,0.000431,0.000235
34022000,0.0324,0.013523,0.002678,0.000431,0.000235
34023000,0.0324,0.013523,0.002678,0.000431,0.000470
34024000,0.0324,0.013523,0.002678,0.000431,0.000353
34025000,0.0324,0.013523,0.002678,0.000431,0.000235
34026000,0.0324,0.013523,0.002678,0.000431,0.000353
34027000,0.0324,0.013523,0.002678,0.000431,0.000470
34028000,0.0324,0.013523,0.002678,0.000431,0.000235
34029000,0.0324,0.013523,0.002678,0.000431,0.000235
34030000,0.0324,0.013523,0.002678,0.000431,0.000470
34031000,0.0324,0.013523,0.002678,0.000431,0.000353
34032000,0.0324,0.013523,0.002678,0.000431,0.000235
34033000,0.0324,0.013523,0.002678,0.000431,0.000353
34034000,0.0324,0.013523,0.002678,0.000431,0.000470
34035000,0.0324,0.013523,0.002678,0.000431,0.000235
34036000,0.0324,0.013523,0.002678,0.000431,0.000235
34037000,0.0324,0.013523,0.002678,0.000431,0.000470
34038000,0.0324,0.013523,0.002678,0.000431,0.000353
34039000,0.0324,0.013523,0.002678,0.000431,0.000235
34040000,0.0324,0.013523,0.002678,0.000431,0.000353
34041000,0.0324,0.013523,0.002678,0.000431,0.000470
34042000,0.0324,0.013523,0.002678,0.000431,0.000235
34043000,0.0324,0.013523,0.002678,0.000431,0.000235
34044000,0.0324,0.013523,0.002678,0.000431,0.000470
34045000,0.0324,0.013523,0.002678,0.000431,0.000353
34046000,0.0324,0.013523,0.002678,0.000431,0.000235
34047000,0.0324,0.013523,0.002678,0.000431,0.000353
34048000,0.0324,0.013523,0.002678,0.000431,0.000470
34049000,0.0324,0.013523,0.002678,0.000431,0.000235
34050000,0.0324,0.013523,0.002678,0.000431,0.000235
34051000,0.0324,0.013523,0.002678,0.000431,0.000470
34052000,0.0324,0.013523,0.002678,0.000431,0.000353
34053000,0.0324,0.013523,0.002678,0.000431,0.000235
34054000,0.0324,0.013523,0.002678,0.000431,0.000353
34055000,0.0324,0.013523,0.002678,0.000431,0.000470
34056000,0.0324,0.013523,0.002678,0.000431,0.000118
34057000,0.0324,0.013523,0.002678,0.000431,0.000353
34058000,0.0324,0.013523,0.002678,0.000431,0.000470
34059000,0.0324,0.013523,0.002678,0.000431,0.000353
34060000,0.0324,0.013523,0.002678,0.000431,0.000235
34061000,0.0324,0.013523,0.002678,0.000431,0.000353
34062000,0.0324,0.013523,0.002678,0.000431,0.000470
34063000,0.0324,0.013523,0.002678,0.000431,0.000118
34064000,0.0324,0.013523,0.002678,0.000431,0.000353
34065000,0.0324,0.013523,0.002678,0.000431,0.000470
34066000,0.0324,0.013523,0.002678,0.000431,0.000353
34067000,0.0324,0.013523,0.002678,0.000431,0.000235
34068000,0.0324,0.013523,0.002678,0.000431,0.000353
34069000,0.0324,0.013523,0.002678,0.000431,0.000470
34070000,0.0324,0.013523,0.002678,0.000431,0.000118
34071000,0.0324,0.013523,0.002678,0.000431,0.000353
34072000,0.0324,0.013523,0.002678,0.000431,0.000470
34073000,0.0324,0.013523,0.002678,0.000431,0.000353
34074000,0.0324,0.013523,0.002678,0.000431,0.000235
34075000,0.0324,0.013523,0.002678,0.000431,0.000353
34076000,0.0324,0.013523,0.002678,0.000431,0.000353
34077000,0.0324,0.013523,0.002678,0.000431,0.000235
34078000,0.0324,0.013523,0.002678,0.000431,0.000353
34079000,0.0324,0.013523,0.002678,0.000431,0.000470
34080000,0.0324,0.013523,0.002678,0.000431,0.000353
34081000,0.0324,0.013523,0.002678,0.000431,0.000235
34082000,0.0324,0.013523,0.002678,0.000431,0.000353
34083000,0.0324,0.013523,0.002678,0.000431,0.000353
34084000,0.0324,0.013523,0.002678,0.000431,0.000235
34085000,0.0324,0.013523,0.002678,0.000431,0.000353
34086000,0.0324,0.013523,0.002678,0.000431,0.000470
34087000,0.0324,0.013523,0.002678,0.000431,0.000353
34088000,0.0324,0.013523,0.002678,0.000431,0.000235
34089000,0.0324,0.013523,0.002678,0.000431,0.000353
34090000,0.0324,0.013523,0.002678,0.000431,0.000353
34091000,0.0324,0.013523,0.002678,0.000431,0.000235
34092000,0.0324,0.013523,0.002678,0.000431,0.000353
34093000,0.0324,0.013523,0.002678,0.000431,0.000470
34094000,0.0324,0.013523,0.002678,0.000431,0.000353
34095000,0.0324,0.013523,0.002678,0.000431,0.000235
34096000,0.0324,0.013523,0.002678,0.000431,0.000353
34097000,0.0324,0.013523,0.002678,0.000431,0.000353
34098000,0.0324,0.013523,0.002678,0.000431,0.000235
34099000,0.0324,0.013523,0.002678,0.000431,0.000353
34100000,0.0324,0.013523,0.002678,0.000431,0.000470
34101000,0.0324,0.013523,0.002678,0.000431,0.000353
34102000,0.0324,0.013523,0.002678,0.000431,0.000235
34103000,0.0324,0.013523,0.002678,0.000431,0.000353
34104000,0.0324,0.013523,0.002678,0.000431,0.000353
34105000,0.0324,0.013523,0.002678,0.000431,0.000235
34106000,0.0324,0.013523,0.002678,0.000431,0.000353
34107000,0.0324,0.013523,0.002678,0.000431,0.000470
34108000,0.0324,0.013523,0.002678,0.000431,0.000353
34109000,0.0324,0.013523,0.002678,0.000431,0.000235
34110000,0.0324,0.013523,0.002678,0.000431,0.000353
34111000,0.0324,0.013523,0.002678,0.000431,0.000353
34112000,0.0324,0.013523,0.002678,0.000431,0.000235
34113000,0.0324,0.013523,0.002678,0.000431,0.000353
34114000,0.0324,0.013523,0.002678,0.000431,0.000470
34115000,0.0324,0.013523,0.002678,0.000431,0.000353
34116000,0.0324,0.013523,0.002678,0.000431,0.000235
34117000,0.0324,0.013523,0.002678,0.000431,0.000353
34118000,0.0324,0.013523,0.002678,0.000431,0.000353
34119000,0.0324,0.013523,0.002678,0.000431,0.000235
34120000,0.0324,0.013523,0.002678,0.000431,0.000353
34121000,0.0324,0.013523,0.002678,0.000431,0.000470
34122000,0.0324,0.013523,0.002678,0.000431,0.000353
34123000,0.0324,0.013523,0.002678,0.000431,0.000235
34124000,0.0324,0.013523,0.002678,0.000431,0.000353
34125000,0.0324,0.013523,0.002678,0.000431,0.000353
34126000,0.0324,0.013523,0.002678,0.000431,0.000235
34127000,0.0324,0.013523,0.002678,0.000431,0.000353
34128000,0.0324,0.013523,0.002678,0.000431,0.000470
34129000,0.0324,0.013523,0.002678,0.000431,0.000353
34130000,0.0324,0.013523,0.002678,0.000431,0.000118
34131000,0.0324,0.013523,0.002678,0.000431,0.000470
34132000,0.0324,0.013523,0.002678,0.000431,0.000353
34133000,0.0324,0.013523,0.002678,0.000431,0.000235
34134000,0.0324,0.013523,0.002678,0.000431,0.000353
34135000,0.0324,0.013523,0.002678,0.000431,0.000470
34136000,0.0324,0.013523,0.002678,0.000431,0.000353
34137000,0.0324,0.013523,0.002678,0.000431,0.000118
34138000,0.0324,0.013523,0.002678,0.000431,0.000470
34139000,0.0324,0.013523,0.002678,0.000431,0.000353
34140000,0.0324,0.013523,0.002678,0.000431,0.000235
34141000,0.0324,0.013523,0.002678,0.000431,0.000353
34142000,0.0324,0.013523,0.002678,0.000431,0.000470
34143000,0.0324,0.013523,0.002678,0.000431,0.000353
34144000,0.0324,0.013523,0.002678,0.000431,0.000118
34145000,0.0324,0.013523,0.002678,0.000431,0.000470
34146000,0.0324,0.013523,0.002678,0.000431,0.000353
34147000,0.0324,0.013523,0.002678,0.000431,0.000235
34148000,0.0324,0.013523,0.002678,0.000431,0.000353
34149000,0.0324,0.013523,0.002678,0.000431,0.000470
34150000,0.0324,0.013523,0.002678,0.000431,0.000235
34151000,0.0324,0.013523,0.002678,0.000431,0.000235
34152000,0.0324,0.013523,0.002678,0.000431,0.000470
34153000,0.0324,0.013523,0.002678,0.000431,0.000353
34154000,0.0324,0.013523,0.002678,0.000431,0.000235
34155000,0.0324,0.013523,0.002678,0.000431,0.000353
34156000,0.0324,0.013523,0.002678,0.000431,0.000470
34157000,0.0324,0.013523,0.002678,0.000431,0.000235
34158000,0.0324,0.013523,0.002678,0.000431,0.000235
34159000,0.0324,0.013523,0.002678,0.000431,0.000470
34160000,0.0324,0.013523,0.002678,0.000431,0.000353
34161000,0.0324,0.013523,0.002678,0.000431,0.000235
34162000,0.0324,0.013523,0.002678,0.000431,0.000353
34163000,0.0324,0.013523,0.002678,0.000431,0.000470
34164000,0.0324,0.013523,0.002678,0.000431,0.000235
34165000,0.0324,0.013523,0.002678,0.000431,0.000235
34166000,0.0324,0.013523,0.002678,0.000431,0.000470
34167000,0.0324,0.013523,0.002678,0.000431,0.000353
34168000,0.0324,0.013523,0.002678,0.000431,0.000235
34169000,0.0324,0.013523,0.002678,0.000431,0.000353
34170000,0.0324,0.013523,0.002678,0.000431,0.000470
34171000,0.0324,0.013523,0.002678,0.000431,0.000235
34172000,0.0324,0.013523,0.002678,0.000431,0.000235
34173000,0.0324,0.013523,0.002678,0.000431,0.000470
34174000,0.0324,0.013523,0.002678,0.000431,0.000353
34175000,0.0324,0.013523,0.002678,0.000431,0.000235
34176000,0.0324,0.013523,0.002678,0.000431,0.000353
34177000,0.0324,0.013523,0.002678,0.000431,0.000470
34178000,0.0324,0.013523,0.002678,0.000431,0.000235
34179000,0.0324,0.013523,0.002678,0.000431,0.000235
34180000,0.0324,0.013523,0.002678,0.000431,0.000470
34181000,0.0324,0.013523,0.002678,0.000431,0.000353
34182000,0.0324,0.013523,0.002678,0.000431,0.000235
34183000,0.0324,0.013523,0.002678,0.000431,0.000353
34184000,0.0324,0.013523,0.002678,0.000431,0.000470
34185000,0.0324,0.013523,0.002678,0.000431,0.000235
34186000,0.0324,0.013523,0.002678,0.000431,0.000235
34187000,0.0324,0.013523,0.002678,0.000431,0.000470
34188000,0.0324,0.013523,0.002678,0.000431,0.000353
34189000,0.0324,0.013523,0.002678,0.000431,0.000235
34190000,0.0324,0.013523,0.002678,0.000431,0.000353
34191000,0.0324,0.013523,0.002678,0.000431,0.000470
34192000,0.0324,0.013523,0.002678,0.000431,0.000118
34193000,0.0324,0.013523,0.002678,0.000431,0.000353
34194000,0.0324,0.013523,0.002678,0.000431,0.000470
34195000,0.0324,0.013523,0.002678,0.000431,0.000353
34196000,0.0324,0.013523,0.002678,0.000431,0.000235
34197000,0.0324,0.013523,0.002678,0.000431,0.000353
34198000,0.0324,0.013523,0.002678,0.000431,0.000470
34199000,0.0324,0.013523,0.002678,0.000431,0.000118
34200000,0.0324,0.013523,0.002678,0.000431,0.000353
34201000,0.0324,0.013523,0.002678,0.000431,0.000470
34202000,0.0324,0.013523,0.002678,0.000431,0.000353
34203000,0.0324,0.013523,0.002678,0.000431,0.000235
34204000,0.0324,0.013523,0.002678,0.000431,0.000353
34205000,0.0324,0.013523,0.002678,0.000431,0.000470
34206000,0.0324,0.013523,0.002678,0.000431,0.000118
34207000,0.0324,0.013523,0.002678,0.000431,0.000353
34208000,0.0324,0.013523,0.002678,0.000431,0.000470
34209000,0.0324,0.013523,0.002678,0.000431,0.000353
34210000,0.0324,0.013523,0.002678,0.000431,0.000235
34211000,0.0324,0.013523,0.002678,0.000431,0.000353
34212000,0.0324,0.013523,0.002678,0.000431,0.000470
34213000,0.0324,0.013523,0.002678,0.000431,0.000118
34214000,0.0324,0.013523,0.002678,0.000431,0.000353
34215000,0.0324,0.013523,0.002678,0.000431,0.000470
34216000,0.0324,0.013523,0.002678,0.000431,0.000353
34217000,0.0324,0.013523,0.002678,0.000431,0.000235
34218000,0.0324,0.013523,0.002678,0.000431,0.000353
34219000,0.0324,0.013523,0.002678,0.000431,0.000353
34220000,0.0324,0.013523,0.002678,0.000431,0.000235
34221000,0.0324,0.013523,0.002678,0.000431,0.000353
34222000,0.0324,0.013523,0.002678,0.000431,0.000470
34223000,0.0324,0.013523,0.002678,0.000431,0.000353
34224000,0.0324,0.013523,0.002678,0.000431,0.000235
34225000,0.0324,0.013523,0.002678,0.000431,0.000353
34226000,0.0324,0.013523,0.002678,0.000431,0.000353
34227000,0.0324,0.013523,0.002678,0.000431,0.000235
34228000,0.0324,0.013523,0.002678,0.000431,0.000353
34229000,0.0324,0.013523,0.002678,0.000431,0.000470
34230000,0.0324,0.013523,0.002678,0.000431,0.000353
34231000,0.0324,0.013523,0.002678,0.000431,0.000235
34232000,0.0324,0.013523,0.002678,0.000431,0.000353
34233000,0.0324,0.013523,0.002678,0.000431,0.000353
34234000,0.0324,0.013523,0.002678,0.000431,0.000235
34235000,0.0324,0.013523,0.002678,0.000431,0.000353
34236000,0.0324,0.013523,0.002678,0.000431,0.000470
34237000,0.0324,0.013523,0.002678,0.000431,0.000353
34238000,0.0324,0.013523,0.002678,0.000431,0.000235
34239000,0.0324,0.013523,0.002678,0.000431,0.000353
34240000,0.0324,0.013523,0.002678,0.000431,0.000353
34241000,0.0324,0.013523,0.002678,0.000431,0.000235
34242000,0.0324,0.013523,0.002678,0.000431,0.000353
34243000,0.0324,0.013523,0.002678,0.000431,0.000470
34244000,0.0324,0.013523,0.002678,0.000431,0.000353
34245000,0.0324,0.013523,0.002678,0.000431,0.000235
34246000,0.0324,0.013523,0.002678,0.000431,0.000353
34247000,0.0324,0.013523,0.002678,0.000431,0.000353
34248000,0.0324,0.013523,0.002678,0.000431,0.000235
34249000,0.0324,0.013523,0.002678,0.000431,0.000353
34250000,0.0324,0.013523,0.002678,0.000431,0.000470
34251000,0.0324,0.013523,0.002678,0.000431,0.000353
34252000,0.0324,0.013523,0.002678,0.000431,0.000235
34253000,0.0324,0.013523,0.002678,0.000431,0.000353
34254000,0.0324,0.013523,0.002678,0.000431,0.000353
34255000,0.0324,0.013523,0.002678,0.000431,0.000235
34256000,0.0324,0.013523,0.002678,0.000431,0.000353
34257000,0.0324,0.013523,0.002678,0.000431,0.000470
34258000,0.0324,0.013523,0.002678,0.000431,0.000353
34259000,0.0324,0.013523,0.002678,0.000431,0.000118
34260000,0.0324,0.013523,0.002678,0.000431,0.000470
34261000,0.0324,0.013523,0.002678,0.000431,0.000353
34262000,0.0324,0.013523,0.002678,0.000431,0.000235
34263000,0.0324,0.013523,0.002678,0.000431,0.000353
34264000,0.0324,0.013523,0.002678,0.000431,0.000470
34265000,0.0324,0.013523,0.002678,0.000431,0.000235
34266000,0.0324,0.013523,0.002678,0.000431,0.000235
34267000,0.0324,0.013523,0.002678,0.000431,0.000470
34268000,0.0324,0.013523,0.002678,0.000431,0.000353
34269000,0.0324,0.013523,0.002678,0.000431,0.000235
34270000,0.0324,0.013523,0.002678,0.000431,0.000353
34271000,0.0324,0.013523,0.002678,0.000431,0.000470
34272000,0.0324,0.013523,0.002678,0.000431,0.000235
34273000,0.0324,0.013523,0.002678,0.000431,0.000235
34274000,0.0324,0.013523,0.002678,0.000431,0.000470
34275000,0.0324,0.013523,0.002678,0.000431,0.000353
34276000,0.0324,0.013523,0.002678,0.000431,0.000235
34277000,0.0324,0.013523,0.002678,0.000431,0.000353
34278000,0.0324,0.013523,0.002678,0.000431,0.000470
34279000,0.0324,0.013523,0.002678,0.000431,0.000118
34280000,0.0324,0.013523,0.002678,0.000431,0.000353
34281000,0.0324,0.013523,0.002678,0.000431,0.000470
34282000,0.0324,0.013523,0.002678,0.000431,0.000353
34283000,0.0324,0.013523,0.002678,0.000431,0.000235
34284000,0.0324,0.013523,0.002678,0.000431,0.000353
34285000,0.0324,0.013523,0.002678,0.000431,0.000353
34286000,0.0324,0.013523,0.002678,0.000431,0.000235
34287000,0.0324,0.013523,0.002678,0.000431,0.000353
34288000,0.0324,0.013523,0.002678,0.000431,0.000470
34289000,0.0324,0.013523,0.002678,0.000431,0.000353
34290000,0.0324,0.013523,0.002678,0.000431,0.000235
34291000,0.0324,0.013523,0.002678,0.000431,0.000353
34292000,0.0324,0.013523,0.002678,0.000431,0.000353
34293000,0.0324,0.013523,0.002678,0.000431,0.000235
34294000,0.0324,0.013523,0.002678,0.000431,0.000353
34295000,0.0324,0.013523,0.002678,0.000431,0.000470
34296000,0.0324,0.013523,0.002678,0.000431,0.000353
34297000,0.0324,0.013523,0.002678,0.000431,0.000235
34298000,0.0324,0.013523,0.002678,0.000431,0.000353
34299000,0.0324,0.013523,0.002678,0.000431,0.000353
34300000,0.0324,0.013523,0.002678,0.000431,0.000235
34301000,0.0324,0.013523,0.002678,0.000431,0.000353
34302000,0.0324,0.013523,0.002678,0.000431,0.000470
34303000,0.0324,0.013523,0.002678,0.000431,0.000353
34304000,0.0324,0.013523,0.002678,0.000431,0.000118
34305000,0.0324,0.013523,0.002678,0.000431,0.000470
34306000,0.0324,0.013523,0.002678,0.000431,0.000353
34307000,0.0324,0.013523,0.002678,0.000431,0.000235
34308000,0.0324,0.013523,0.002678,0.000431,0.000353
34309000,0.0324,0.013523,0.002678,0.000431,0.000470
34310000,0.0324,0.013523,0.002678,0.000431,0.000235
34311000,0.0324,0.013523,0.002678,0.000431,0.000235
34312000,0.0324,0.013523,0.002678,0.000431,0.000470
34313000,0.0324,0.013523,0.002678,0.000431,0.000353
34314000,0.0324,0.013523,0.002678,0.000431,0.000235
34315000,0.0324,0.013523,0.002678,0.000431,0.000353
34316000,0.0324,0.013523,0.002678,0.000431,0.000470
34317000,0.0324,0.013523,0.002678,0.000431,0.000118
34318000,0.0324,0.013523,0.002678,0.000431,0.000353
34319000,0.0324,0.013523,0.002678,0.000431,0.000470
34320000,0.0324,0.013523,0.002678,0.000431,0.000353
34321000,0.0324,0.013523,0.002678,0.000431,0.000235
34322000,0.0324,0.013523,0.002678,0.000431,0.000353
34323000,0.0324,0.013523,0.002678,0.000431,0.000470
34324000,0.0324,0.013523,0.002678,0.000431,0.000118
34325000,0.0324,0.013523,0.002678,0.000431,0.000353
34326000,0.0324,0.013523,0.002678,0.000431,0.000470
34327000,0.0324,0.013523,0.002678,0.000431,0.000353
34328000,0.0324,0.013523,0.002678,0.000431,0.000235
34329000,0.0324,0.013523,0.002678,0.000431,0.000353
34330000,0.0324,0.013523,0.002678,0.000431,0.000353
34331000,0.0324,0.013523,0.002678,0.000431,0.000235
34332000,0.0324,0.013523,0.002678,0.000431,0.000353
34333000,0.0324,0.013523,0.002678,0.000431,0.000470
34334000,0.0324,0.013523,0.002678,0.000431,0.000353
34335000,0.0324,0.013523,0.002678,0.000431,0.000235
34336000,0.0324,0.013523,0.002678,0.000431,0.000353
34337000,0.0324,0.013523,0.002678,0.000431,0.000353
34338000,0.0324,0.013523,0.002678,0.000431,0.000235
34339000,0.0324,0.013523,0.002678,0.000431,0.000353
34340000,0.0324,0.013523,0.002678,0.000431,0.000470
34341000,0.0324,0.013523,0.002678,0.000431,0.000353
34342000,0.0324,0.013523,0.002678,0.000431,0.000118
34343000,0.0324,0.013523,0.002678,0.000431,0.000470
34344000,0.0324,0.013523,0.002678,0.000431,0.000353
34345000,0.0324,0.013523,0.002678,0.000431,0.000235
34346000,0.0324,0.013523,0.002678,0.000431,0.000353
34347000,0.0324,0.013523,0.002678,0.000431,0.000470
34348000,0.0324,0.013523,0.002678,0.000431,0.000353
34349000,0.0324,0.013523,0.002678,0.000431,0.000118
34350000,0.0324,0.013523,0.002678,0.000431,0.000470
34351000,0.0324,0.013523,0.002678,0.000431,0.000353
34352000,0.0324,0.013523,0.002678,0.000431,0.000235
34353000,0.0324,0.013523,0.002678,0.000431,0.000353
34354000,0.0324,0.013523,0.002678,0.000431,0.000470
34355000,0.0324,0.013523,0.002678,0.000431,0.000235
34356000,0.0324,0.013523,0.002678,0.000431,0.000235
34357000,0.0324,0.013523,0.002678,0.000431,0.000470
34358000,0.0324,0.013523,0.002678,0.000431,0.000353
34359000,0.0324,0.013523,0.002678,0.000431,0.000235
34360000,0.0324,0.013523,0.002678,0.000431,0.000353
34361000,0.0324,0.013523,0.002678,0.000431,0.000470
34362000,0.0324,0.013523,0.002678,0.000431,0.000118
34363000,0.0324,0.013523,0.002678,0.000431,0.000353
34364000,0.0324,0.013523,0.002678,0.000431,0.000470
34365000,0.0324,0.013523,0.002678,0.000431,0.000353
34366000,0.0324,0.013523,0.002678,0.000431,0.000235
34367000,0.0324,0.013523,0.002678,0.000431,0.000353
34368000,0.0324,0.013523,0.002678,0.000431,0.000353
34369000,0.0324,0.013523,0.002678,0.000431,0.000235
34370000,0.0324,0.013523,0.002678,0.000431,0.000353
34371000,0.0324,0.013523,0.002678,0.000431,0.000470
34372000,0.0324,0.013523,0.002678,0.000431,0.000353
34373000,0.0324,0.013523,0.002678,0.000431,0.000235
34374000,0.0324,0.013523,0.002678,0.000431,0.000353
34375000,0.0324,0.013523,0.002678,0.000431,0.000353
34376000,0.0324,0.013523,0.002678,0.000431,0.000235
34377000,0.0324,0.013523,0.002678,0.000431,0.000353
34378000,0.0324,0.013523,0.002678,0.000431,0.000470
34379000,0.0324,0.013523,0.002678,0.000431,0.000353
34380000,0.0324,0.013523,0.002678,0.000431,0.000235
34381000,0.0324,0.013523,0.002678,0.000431,0.000353
34382000,0.0324,0.013523,0.002678,0.000431,0.000353
34383000,0.0324,0.013523,0.002678,0.000431,0.000235
34384000,0.0324,0.013523,0.002678,0.000431,0.000353
34385000,0.0324,0.013523,0.002678,0.000431,0.000470
34386000,0.0324,0.013523,0.002678,0.000431,0.000353
34387000,0.0324,0.013523,0.002678,0.000431,0.000118
34388000,0.0324,0.013523,0.002678,0.000431,0.000470
34389000,0.0324,0.013523,0.002678,0.000431,0.000353
34390000,0.0324,0.013523,0.002678,0.000431,0.000235
34391000,0.0324,0.013523,0.002678,0.000431,0.000353
34392000,0.0324,0.013523,0.002678,0.000431,0.000470
34393000,0.0324,0.013523,0.002678,0.000431,0.000353
34394000,0.0324,0.013523,0.002678,0.000431,0.000118
34395000,0.0324,0.013523,0.002678,0.000431,0.000470
34396000,0.0324,0.013523,0.002678,0.000431,0.000353
34397000,0.0324,0.013523,0.002678,0.000431,0.000235
34398000,0.0324,0.013523,0.002678,0.000431,0.000353
34399000,0.0324,0.013523,0.002678,0.000431,0.000470
34400000,0.0324,0.013523,0.002678,0.000431,0.000235
34401000,0.0324,0.013523,0.002678,0.000431,0.000235
34402000,0.0324,0.013523,0.002678,0.000431,0.000470
34403000,0.0324,0.013523,0.002678,0.000431,0.000353
34404000,0.0324,0.013523,0.002678,0.000431,0.000235
34405000,0.0324,0.013523,0.002678,0.000431,0.000353
34406000,0.0324,0.013523,0.002678,0.000431,0.000470
34407000,0.0324,0.013523,0.002678,0.000431,0.000235
34408000,0.0324,0.013523,0.002678,0.000431,0.000235
34409000,0.0324,0.013523,0.002678,0.000431,0.000470
34410000,0.0324,0.013523,0.002678,0.000431,0.000353
34411000,0.0324,0.013523,0.002678,0.000431,0.000235
34412000,0.0324,0.013523,0.002678,0.000431,0.000353
34413000,0.0324,0.013523,0.002678,0.000431,0.000470
34414000,0.0324,0.013523,0.002678,0.000431,0.000235
34415000,0.0324,0.013523,0.002678,0.000431,0.000235
34416000,0.0324,0.013523,0.002678,0.000431,0.000470
34417000,0.0324,0.013523,0.002678,0.000431,0.000353
34418000,0.0324,0.013523,0.002678,0.000431,0.000235
34419000,0.0324,0.013523,0.002678,0.000431,0.000353
34420000,0.0324,0.013523,0.002678,0.000431,0.000470
34421000,0.0324,0.013523,0.002678,0.000431,0.000235
34422000,0.0324,0.013523,0.002678,0.000431,0.000235
34423000,0.0324,0.013523,0.002678,0.000431,0.000470
34424000,0.0324,0.013523,0.002678,0.000431,0.000353
34425000,0.0324,0.013523,0.002678,0.000431,0.000235
34426000,0.0324,0.013523,0.002678,0.000431,0.000353
34427000,0.0324,0.013523,0.002678,0.000431,0.000470
34428000,0.0324,0.013523,0.002678,0.000431,0.000235
34429000,0.0324,0.013523,0.002678,0.000431,0.000235
34430000,0.0324,0.013523,0.002678,0.000431,0.000470
34431000,0.0324,0.013523,0.002678,0.000431,0.000353
34432000,0.0324,0.013523,0.002678,0.000431,0.000235
34433000,0.0324,0.013523,0.002678,0.000431,0.000353
34434000,0.0324,0.013523,0.002678,0.000431,0.000470
34435000,0.0324,0.013523,0.002678,0.000431,0.000235
34436000,0.0324,0.013523,0.002678,0.000431,0.000235
34437000,0.0324,0.013523,0.002678,0.000431,0.000470
34438000,0.0324,0.013523,0.002678,0.000431,0.000353
34439000,0.0324,0.013523,0.002678,0.000431,0.000235
34440000,0.0324,0.013523,0.002678,0.000431,0.000353
34441000,0.0324,0.013523,0.002678,0.000431,0.000470
34442000,0.0324,0.013523,0.002678,0.000431,0.000118
34443000,0.0324,0.013523,0.002678,0.000431,0.000353
34444000,0.0324,0.013523,0.002678,0.000431,0.000470
34445000,0.0324,0.013523,0.002678,0.000431,0.000353
34446000,0.0324,0.013523,0.002678,0.000431,0.000235
34447000,0.0324,0.013523,0.002678,0.000431,0.000353
34448000,0.0324,0.013523,0.002678,0.000431,0.000470
34449000,0.0324,0.013523,0.002678,0.000431,0.000118
34450000,0.0324,0.013523,0.002678,0.000431,0.000353
34451000,0.0324,0.013523,0.002678,0.000431,0.000470
34452000,0.0324,0.013523,0.002678,0.000431,0.000353
34453000,0.0324,0.013523,0.002678,0.000431,0.000235
34454000,0.0324,0.013523,0.002678,0.000431,0.000353
34455000,0.0324,0.013523,0.002678,0.000431,0.000470
34456000,0.0324,0.013523,0.002678,0.000431,0.000118
34457000,0.0324,0.013523,0.002678,0.000431,0.000353
34458000,0.0324,0.013523,0.002678,0.000431,0.000470
34459000,0.0324,0.013523,0.002678,0.000431,0.000353
34460000,0.0324,0.013523,0.002678,0.000431,0.000235
34461000,0.0324,0.013523,0.002678,0.000431,0.000353
34462000,0.0324,0.013523,0.002678,0.000431,0.000470
34463000,0.0324,0.013523,0.002678,0.000431,0.000118
34464000,0.0324,0.013523,0.002678,0.000431,0.000353
34465000,0.0324,0.013523,0.002678,0.000431,0.000470
34466000,0.0324,0.013523,0.002678,0.000431,0.000353
34467000,0.0324,0.013523,0.002678,0.000431,0.000235
34468000,0.0324,0.013523,0.002678,0.000431,0.000353
34469000,0.0324,0.013523,0.002678,0.000431,0.000353
34470000,0.0324,0.013523,0.002678,0.000431,0.000235
34471000,0.0324,0.013523,0.002678,0.000431,0.000353
34472000,0.0324,0.013523,0.002678,0.000431,0.000470
34473000,0.0324,0.013523,0.002678,0.000431,0.000353
34474000,0.0324,0.013523,0.002678,0.000431,0.000235
34475000,0.0324,0.013523,0.002678,0.000431,0.000353
34476000,0.0324,0.013523,0.002678,0.000431,0.000353
34477000,0.0324,0.013523,0.002678,0.000431,0.000235
34478000,0.0324,0.013523,0.002678,0.000431,0.000353
34479000,0.0324,0.013523,0.002678,0.000431,0.000470
34480000,0.0324,0.013523,0.002678,0.000431,0.000353
34481000,0.0324,0.013523,0.002678,0.000431,0.000235
34482000,0.0324,0.013523,0.002678,0.000431,0.000353
34483000,0.0324,0.013523,0.002678,0.000431,0.000353
34484000,0.0324,0.013523,0.002678,0.000431,0.000235
34485000,0.0324,0.013523,0.002678,0.000431,0.000353
34486000,0.0324,0.013523,0.002678,0.000431,0.000470
34487000,0.0324,0.013523,0.002678,0.000431,0.000353
34488000,0.0324,0.013523,0.002678,0.000431,0.000235
34489000,0.0324,0.013523,0.002678,0.000431,0.000353
34490000,0.0324,0.013523,0.002678,0.000431,0.000353
34491000,0.0324,0.013523,0.002678,0.000431,0.000235
34492000,0.0324,0.013523,0.002678,0.000431,0.000353
34493000,0.0324,0.013523,0.002678,0.000431,0.000470
34494000,0.0324,0.013523,0.002678,0.000431,0.000353
34495000,0.0324,0.013523,0.002678,0.000431,0.000235
34496000,0.0324,0.013523,0.002678,0.000431,0.000353
34497000,0.0324,0.013523,0.002678,0.000431,0.000353
34498000,0.0324,0.013523,0.002678,0.000431,0.000235
34499000,0.0324,0.013523,0.002678,0.000431,0.000353
34500000,0.0324,0.013523,0.002678,0.000431,0.000470
34501000,0.0324,0.013523,0.002678,0.000431,0.000353
34502000,0.0324,0.013523,0.002678,0.000431,0.000235
34503000,0.0324,0.013523,0.002678,0.000431,0.000353
34504000,0.0324,0.013523,0.002678,0.000431,0.000353
34505000,0.0324,0.013523,0.002678,0.000431,0.000235
34506000,0.0324,0.013523,0.002678,0.000431,0.000353
34507000,0.0324,0.013523,0.002678,0.000431,0.000470
34508000,0.0324,0.013523,0.002678,0.000431,0.000353
34509000,0.0324,0.013523,0.002678,0.000431,0.000235
34510000,0.0324,0.013523,0.002678,0.000431,0.000353
34511000,0.0324,0.013523,0.002678,0.000431,0.000353
34512000,0.0324,0.013523,0.002678,0.000431,0.000235
34513000,0.0324,0.013523,0.002678,0.000431,0.000353
34514000,0.0324,0.013523,0.002678,0.000431,0.000470
34515000,0.0324,0.013523,0.002678,0.000431,0.000353
34516000,0.0324,0.013523,0.002678,0.000431,0.000118
34517000,0.0324,0.013523,0.002678,0.000431,0.000470
34518000,0.0324,0.013523,0.002678,0.000431,0.000353
34519000,0.0324,0.013523,0.002678,0.000431,0.000235
34520000,0.0324,0.013523,0.002678,0.000431,0.000353
34521000,0.0324,0.013523,0.002678,0.000431,0.000470
34522000,0.0324,0.013523,0.002678,0.000431,0.000353
34523000,0.0324,0.013523,0.002678,0.000431,0.000118
34524000,0.0324,0.013523,0.002678,0.000431,0.000470
34525000,0.0324,0.013523,0.002678,0.000431,0.000353
34526000,0.0324,0.013523,0.002678,0.000431,0.000235
34527000,0.0324,0.013523,0.002678,0.000431,0.000353
34528000,0.0324,0.013523,0.002678,0.000431,0.000470
34529000,0.0324,0.013523,0.002678,0.000431,0.000353
34530000,0.0324,0.013523,0.002678,0.000431,0.000118
34531000,0.0324,0.013523,0.002678,0.000431,0.000470
34532000,0.0324,0.013523,0.002678,0.000431,0.000353
34533000,0.0324,0.013523,0.002678,0.000431,0.000235
34534000,0.0324,0.013523,0.002678,0.000431,0.000353
34535000,0.0324,0.013523,0.002678,0.000431,0.000470
34536000,0.0324,0.013523,0.002678,0.000431,0.000235
34537000,0.0324,0.013523,0.002678,0.000431,0.000235
34538000,0.0324,0.013523,0.002678,0.000431,0.000470
34539000,0.0324,0.013523,0.002678,0.000431,0.000353
34540000,0.0324,0.013523,0.002678,0.000431,0.000235
34541000,0.0324,0.013523,0.002678,0.000431,0.000353
34542000,0.0324,0.013523,0.002678,0.000431,0.000470
34543000,0.0324,0.013523,0.002678,0.000431,0.000235
34544000,0.0324,0.013523,0.002678,0.000431,0.000235
34545000,0.0324,0.013523,0.002678,0.000431,0.000470
34546000,0.0324,0.013523,0.002678,0.000431,0.000353
34547000,0.0324,0.013523,0.002678,0.000431,0.000235
34548000,0.0324,0.013523,0.002678,0.000431,0.000353
34549000,0.0324,0.013523,0.002678,0.000431,0.000470
34550000,0.0324,0.013523,0.002678,0.000431,0.000118
34551000,0.0324,0.013523,0.002678,0.000431,0.000353
34552000,0.0324,0.013523,0.002678,0.000431,0.000470
34553000,0.0324,0.013523,0.002678,0.000431,0.000353
34554000,0.0324,0.013523,0.002678,0.000431,0.000235
34555000,0.0324,0.013523,0.002678,0.000431,0.000353
34556000,0.0324,0.013523,0.002678,0.000431,0.000353
34557000,0.0324,0.013523,0.002678,0.000431,0.000235
34558000,0.0324,0.013523,0.002678,0.000431,0.000353
34559000,0.0324,0.013523,0.002678,0.000431,0.000470
34560000,0.0324,0.013523,0.002678,0.000431,0.000353
34561000,0.0324,0.013523,0.002678,0.000431,0.000235
34562000,0.0324,0.013523,0.002678,0.000431,0.000353
34563000,0.0324,0.013523,0.002678,0.000431,0.000353
34564000,0.0324,0.013523,0.002678,0.000431,0.000235
34565000,0.0324,0.013523,0.002678,0.000431,0.000353
34566000,0.0324,0.013523,0.002678,0.000431,0.000470
34567000,0.0324,0.013523,0.002678,0.000431,0.000353
34568000,0.0324,0.013523,0.002678,0.000431,0.000235
34569000,0.0324,0.013523,0.002678,0.000431,0.000353
34570000,0.0324,0.013523,0.002678,0.000431,0.000353
34571000,0.0324,0.013523,0.002678,0.000431,0.000235
34572000,0.0324,0.013523,0.002678,0.000431,0.000353
34573000,0.0324,0.013523,0.002678,0.000431,0.000470
34574000,0.0324,0.013523,0.002678,0.000431,0.000353
34575000,0.0324,0.013523,0.002678,0.000431,0.000118
34576000,0.0324,0.013523,0.002678,0.000431,0.000470
34577000,0.0324,0.013523,0.002678,0.000431,0.000353
34578000,0.0324,0.013523,0.002678,0.000431,0.000235
34579000,0.0324,0.013523,0.002678,0.000431,0.000353
34580000,0.0324,0.013523,0.002678,0.000431,0.000470
34581000,0.0324,0.013523,0.002678,0.000431,0.000235
34582000,0.0324,0.013523,0.002678,0.000431,0.000235
34583000,0.0324,0.013523,0.002678,0.000431,0.000470
34584000,0.0324,0.013523,0.002678,0.000431,0.000353
34585000,0.0324,0.013523,0.002678,0.000431,0.000235
34586000,0.0324,0.013523,0.002678,0.000431,0.000353
34587000,0.0324,0.013523,0.002678,0.000431,0.000470
34588000,0.0324,0.013523,0.002678,0.000431,0.000235
34589000,0.0324,0.013523,0.002678,0.000431,0.000235
34590000,0.0324,0.013523,0.002678,0.000431,0.000470
34591000,0.0324,0.013523,0.002678,0.000431,0.000353
34592000,0.0324,0.013523,0.002678,0.000431,0.000235
34593000,0.0324,0.013523,0.002678,0.000431,0.000353
34594000,0.0324,0.013523,0.002678,0.000431,0.000470
34595000,0.0324,0.013523,0.002678,0.000431,0.000118
34596000,0.0324,0.013523,0.002678,0.000431,0.000353
34597000,0.0324,0.013523,0.002678,0.000431,0.000470
34598000,0.0324,0.013523,0.002678,0.000431,0.000353
34599000,0.0324,0.013523,0.002678,0.000431,0.000235
34600000,0.0324,0.013523,0.002678,0.000431,0.000353
34601000,0.0324,0.013523,0.002678,0.000431,0.000353
34602000,0.0324,0.013523,0.002678,0.000431,0.000235
34603000,0.0324,0.013523,0.002678,0.000431,0.000353
34604000,0.0324,0.013523,0.002678,0.000431,0.000470
34605000,0.0324,0.013523,0.002678,0.000431,0.000353
34606000,0.0324,0.013523,0.002678,0.000431,0.000235
34607000,0.0324,0.013523,0.002678,0.000431,0.000353
34608000,0.0324,0.013523,0.002678,0.000431,0.000353
34609000,0.0324,0.013523,0.002678,0.000431,0.000235
34610000,0.0324,0.013523,0.002678,0.000431,0.000353
34611000,0.0324,0.013523,0.002678,0.000431,0.000470
34612000,0.0324,0.013523,0.002678,0.000431,0.000353
34613000,0.0324,0.013523,0.002678,0.000431,0.000235
34614000,0.0324,0.013523,0.002678,0.000431,0.000353
34615000,0.0324,0.013523,0.002678,0.000431,0.000353
34616000,0.0324,0.013523,0.002678,0.000431,0.000235
34617000,0.0324,0.013523,0.002678,0.000431,0.000353
34618000,0.0324,0.013523,0.002678,0.000431,0.000470
34619000,0.0324,0.013523,0.002678,0.000431,0.000235
34620000,0.0324,0.013523,0.002678,0.000431,0.000235
34621000,0.0324,0.013523,0.002678,0.000431,0.000470
34622000,0.0324,0.013523,0.002678,0.000431,0.000353
34623000,0.0324,0.013523,0.002678,0.000431,0.000235
34624000,0.0324,0.013523,0.002678,0.000431,0.000353
34625000,0.0324,0.013523,0.002678,0.000431,0.000470
34626000,0.0324,0.013523,0.002678,0.000431,0.000235
34627000,0.0324,0.013523,0.002678,0.000431,0.000235
34628000,0.0324,0.013523,0.002678,0.000431,0.000470
34629000,0.0324,0.013523,0.002678,0.000431,0.000353
34630000,0.0324,0.013523,0.002678,0.000431,0.000235
34631000,0.0324,0.013523,0.002678,0.000431,0.000353
34632000,0.0324,0.013523,0.002678,0.000431,0.000470
34633000,0.0324,0.013523,0.002678,0.000431,0.000118
34634000,0.0324,0.013523,0.002678,0.000431,0.000353
34635000,0.0324,0.013523,0.002678,0.000431,0.000470
34636000,0.0324,0.013523,0.002678,0.000431,0.000353
34637000,0.0324,0.013523,0.002678,0.000431,0.000235
34638000,0.0324,0.013523,0.002678,0.000431,0.000353
34639000,0.0324,0.013523,0.002678,0.000431,0.000353
34640000,0.0324,0.013523,0.002678,0.000431,0.000235
34641000,0.0324,0.013523,0.002678,0.000431,0.000353
34642000,0.0324,0.013523,0.002678,0.000431,0.000470
34643000,0.0324,0.013523,0.002678,0.000431,0.000353
34644000,0.0324,0.013523,0.002678,0.000431,0.000235
34645000,0.0324,0.013523,0.002678,0.000431,0.000353
34646000,0.0324,0.013523,0.002678,0.000431,0.000353
34647000,0.0324,0.013523,0.002678,0.000431,0.000235
34648000,0.0324,0.013523,0.002678,0.000431,0.000353
34649000,0.0324,0.013523,0.002678,0.000431,0.000470
34650000,0.0324,0.013523,0.002678,0.000431,0.000353
34651000,0.0324,0.013523,0.002678,0.000431,0.000235
34652000,0.0324,0.013523,0.002678,0.000431,0.000353
34653000,0.0324,0.013523,0.002678,0.000431,0.000353
34654000,0.0324,0.013523,0.002678,0.000431,0.000235
34655000,0.0324,0.013523,0.002678,0.000431,0.000353
34656000,0.0324,0.013523,0.002678,0.000431,0.000470
34657000,0.0324,0.013523,0.002678,0.000431,0.000353
34658000,0.0324,0.013523,0.002678,0.000431,0.000118
34659000,0.0324,0.013523,0.002678,0.000431,0.000470
34660000,0.0324,0.013523,0.002678,0.000431,0.000353
34661000,0.0324,0.013523,0.002678,0.000431,0.000235
34662000,0.0324,0.013523,0.002678,0.000431,0.000353
34663000,0.0324,0.013523,0.002678,0.000431,0.000470
34664000,0.0324,0.013523,0.002678,0.000431,0.000235
34665000,0.0324,0.013523,0.002678,0.000431,0.000235
34666000,0.0324,0.013523,0.002678,0.000431,0.000470
34667000,0.0324,0.013523,0.002678,0.000431,0.000353
34668000,0.0324,0.013523,0.002678,0.000431,0.000235
34669000,0.0324,0.013523,0.002678,0.000431,0.000353
34670000,0.0324,0.013523,0.002678,0.000431,0.000470
34671000,0.0324,0.013523,0.002678,0.000431,0.000235
34672000,0.0324,0.013523,0.002678,0.000431,0.000235
34673000,0.0324,0.013523,0.002678,0.000431,0.000470
34674000,0.0324,0.013523,0.002678,0.000431,0.000353
34675000,0.0324,0.013523,0.002678,0.000431,0.000235
34676000,0.0324,0.013523,0.002678,0.000431,0.000353
34677000,0.0324,0.013523,0.002678,0.000431,0.000470
34678000,0.0324,0.013523,0.002678,0.000431,0.000235
34679000,0.0324,0.013523,0.002678,0.000431,0.000235
34680000,0.0324,0.013523,0.002678,0.000431,0.000470
34681000,0.0324,0.013523,0.002678,0.000431,0.000353
34682000,0.0324,0.013523,0.002678,0.000431,0.000235
34683000,0.0324,0.013523,0.002678,0.000431,0.000353
34684000,0.0324,0.013523,0.002678,0.000431,0.000470
34685000,0.0324,0.013523,0.002678,0.000431,0.000235
34686000,0.0324,0.013523,0.002678,0.000431,0.000235
34687000,0.0324,0.013523,0.002678,0.000431,0.000470
34688000,0.0324,0.013523,0.002678,0.000431,0.000353
34689000,0.0324,0.013523,0.002678,0.000431,0.000235
34690000,0.0324,0.013523,0.002678,0.000431,0.000353
34691000,0.0324,0.013523,0.002678,0.000431,0.000470
34692000,0.0324,0.013523,0.002678,0.000431,0.000118
34693000,0.0324,0.013523,0.002678,0.000431,0.000353
34694000,0.0324,0.013523,0.002678,0.000431,0.000470
34695000,0.0324,0.013523,0.002678,0.000431,0.000353
34696000,0.0324,0.013523,0.002678,0.000431,0.000235
34697000,0.0324,0.013523,0.002678,0.000431,0.000353
34698000,0.0324,0.013523,0.002678,0.000431,0.000470
34699000,0.0324,0.013523,0.002678,0.000431,0.000118
34700000,0.0324,0.013523,0.002678,0.000431,0.000353
34701000,0.0324,0.013523,0.002678,0.000431,0.000470
34702000,0.0324,0.013523,0.002678,0.000431,0.000353
34703000,0.0324,0.013523,0.002678,0.000431,0.000235
34704000,0.0324,0.013523,0.002678,0.000431,0.000353
34705000,0.0324,0.013523,0.002678,0.000431,0.000470
34706000,0.0324,0.013523,0.002678,0.000431,0.000118
34707000,0.0324,0.013523,0.002678,0.000431,0.000353
34708000,0.0324,0.013523,0.002678,0.000431,0.000470
34709000,0.0324,0.013523,0.002678,0.000431,0.000353
34710000,0.0324,0.013523,0.002678,0.000431,0.000235
34711000,0.0324,0.013523,0.002678,0.000431,0.000353
34712000,0.0324,0.013523,0.002678,0.000431,0.000470
34713000,0.0324,0.013523,0.002678,0.000431,0.000118
34714000,0.0324,0.013523,0.002678,0.000431,0.000353
34715000,0.0324,0.013523,0.002678,0.000431,0.000470
34716000,0.0324,0.013523,0.002678,0.000431,0.000353
34717000,0.0324,0.013523,0.002678,0.000431,0.000235
34718000,0.0324,0.013523,0.002678,0.000431,0.000353
34719000,0.0324,0.013523,0.002678,0.000431,0.000353
34720000,0.0324,0.013523,0.002678,0.000431,0.000235
34721000,0.0324,0.013523,0.002678,0.000431,0.000353
34722000,0.0324,0.013523,0.002678,0.000431,0.000470
34723000,0.0324,0.013523,0.002678,0.000431,0.000353
34724000,0.0324,0.013523,0.002678,0.000431,0.000235
34725000,0.0324,0.013523,0.002678,0.000431,0.000353
34726000,0.0324,0.013523,0.002678,0.000431,0.000353
34727000,0.0324,0.013523,0.002678,0.000431,0.000235
34728000,0.0324,0.013523,0.002678,0.000431,0.000353
34729000,0.0324,0.013523,0.002678,0.000431,0.000470
34730000,0.0324,0.013523,0.002678,0.000431,0.000353
34731000,0.0324,0.013523,0.002678,0.000431,0.000235
34732000,0.0324,0.013523,0.002678,0.000431,0.000353
34733000,0.0324,0.013523,0.002678,0.000431,0.000353
34734000,0.0324,0.013523,0.002678,0.000431,0.000235
34735000,0.0324,0.013523,0.002678,0.000431,0.000353
34736000,0.0324,0.013523,0.002678,0.000431,0.000470
34737000,0.0324,0.013523,0.002678,0.000431,0.000353
34738000,0.0324,0.013523,0.002678,0.000431,0.000235
34739000,0.0324,0.013523,0.002678,0.000431,0.000353
34740000,0.0324,0.013523,0.002678,0.000431,0.000353
34741000,0.0324,0.013523,0.002678,0.000431,0.000235
34742000,0.0324,0.013523,0.002678,0.000431,0.000353
34743000,0.0324,0.013523,0.002678,0.000431,0.000470
34744000,0.0324,0.013523,0.002678,0.000431,0.000353
34745000,0.0324,0.013523,0.002678,0.000431,0.000235
34746000,0.0324,0.013523,0.002678,0.000431,0.000353
34747000,0.0324,0.013523,0.002678,0.000431,0.000353
34748000,0.0324,0.013523,0.002678,0.000431,0.000235
34749000,0.0324,0.013523,0.002678,0.000431,0.000353
34750000,0.0324,0.013523,0.002678,0.000431,0.000470
34751000,0.0324,0.013523,0.002678,0.000431,0.000353
34752000,0.0324,0.013523,0.002678,0.000431,0.000235
34753000,0.0324,0.013523,0.002678,0.000431,0.000353
34754000,0.0324,0.013523,0.002678,0.000431,0.000353
34755000,0.0324,0.013523,0.002678,0.000431,0.000235
34756000,0.0324,0.013523,0.002678,0.000431,0.000353
34757000,0.0324,0.013523,0.002678,0.000431,0.000470
34758000,0.0324,0.013523,0.002678,0.000431,0.000353
34759000,0.0324,0.013523,0.002678,0.000431,0.000235
34760000,0.0324,0.013523,0.002678,0.000431,0.000353
34761000,0.0324,0.013523,0.002678,0.000431,0.000353
34762000,0.0324,0.013523,0.002678,0.000431,0.000235
34763000,0.0324,0.013523,0.002678,0.000431,0.000353
34764000,0.0324,0.013523,0.002678,0.000431,0.000470
34765000,0.0324,0.013523,0.002678,0.000431,0.000353
34766000,0.0324,0.013523,0.002678,0.000431,0.000118
34767000,0.0324,0.013523,0.002678,0.000431,0.000470
34768000,0.0324,0.013523,0.002678,0.000431,0.000353
34769000,0.0324,0.013523,0.002678,0.000431,0.000235
34770000,0.0324,0.013523,0.002678,0.000431,0.000353
34771000,0.0324,0.013523,0.002678,0.000431,0.000470
34772000,0.0324,0.013523,0.002678,0.000431,0.000353
34773000,0.0324,0.013523,0.002678,0.000431,0.000118
34774000,0.0324,0.013523,0.002678,0.000431,0.000470
34775000,0.0324,0.013523,0.002678,0.000431,0.000353
34776000,0.0324,0.013523,0.002678,0.000431,0.000235
34777000,0.0324,0.013523,0.002678,0.000431,0.000353
34778000,0.0324,0.013523,0.002678,0.000431,0.000470
34779000,0.0324,0.013523,0.002678,0.000431,0.000353
34780000,0.0324,0.013523,0.002678,0.000431,0.000118
34781000,0.0324,0.013523,0.002678,0.000431,0.000470
34782000,0.0324,0.013523,0.002678,0.000431,0.000353
34783000,0.0324,0.013523,0.002678,0.000431,0.000235
34784000,0.0324,0.013523,0.002678,0.000431,0.000353
34785000,0.0324,0.013523,0.002678,0.000431,0.000470
34786000,0.0324,0.013523,0.002678,0.000431,0.000353
34787000,0.0324,0.013523,0.002678,0.000431,0.000118
34788000,0.0324,0.013523,0.002678,0.000431,0.000470
34789000,0.0324,0.013523,0.002678,0.000431,0.000353
34790000,0.0324,0.013523,0.002678,0.000431,0.000235
34791000,0.0324,0.013523,0.002678,0.000431,0.000353
34792000,0.0324,0.013523,0.002678,0.000431,0.000470
34793000,0.0324,0.013523,0.002678,0.000431,0.000235
34794000,0.0324,0.013523,0.002678,0.000431,0.000235
34795000,0.0324,0.013523,0.002678,0.000431,0.000470
34796000,0.0324,0.013523,0.002678,0.000431,0.000353
34797000,0.0324,0.013523,0.002678,0.000431,0.000235
34798000,0.0324,0.013523,0.002678,0.000431,0.000353
34799000,0.0324,0.013523,0.002678,0.000431,0.000470
34800000,0.0324,0.013523,0.002678,0.000431,0.000235
34801000,0.0324,0.013523,0.002678,0.000431,0.000235
34802000,0.0324,0.013523,0.002678,0.000431,0.000470
34803000,0.0324,0.013523,0.002678,0.000431,0.000353
34804000,0.0324,0.013523,0.002678,0.000431,0.000235
34805000,0.0324,0.013523,0.002678,0.000431,0.000353
34806000,0.0324,0.013523,0.002678,0.000431,0.000470
34807000,0.0324,0.013523,0.002678,0.000431,0.000235
34808000,0.0324,0.013523,0.002678,0.000431,0.000235
34809000,0.0324,0.013523,0.002678,0.000431,0.000470
34810000,0.0324,0.013523,0.002678,0.000431,0.000353
34811000,0.0324,0.013523,0.002678,0.000431,0.000235
34812000,0.0324,0.013523,0.002678,0.000431,0.000353
34813000,0.0324,0.013523,0.002678,0.000431,0.000470
34814000,0.0324,0.013523,0.002678,0.000431,0.000235
34815000,0.0324,0.013523,0.002678,0.000431,0.000235
34816000,0.0324,0.013523,0.002678,0.000431,0.000470
34817000,0.0324,0.013523,0.002678,0.000431,0.000353
34818000,0.0324,0.013523,0.002678,0.000431,0.000235
34819000,0.0324,0.013523,0.002678,0.000431,0.000353
34820000,0.0324,0.013523,0.002678,0.000431,0.000470
34821000,0.0324,0.013523,0.002678,0.000431,0.000235
34822000,0.0324,0.013523,0.002678,0.000431,0.000235
34823000,0.0324,0.013523,0.002678,0.000431,0.000470
34824000,0.0324,0.013523,0.002678,0.000431,0.000353
34825000,0.0324,0.013523,0.002678,0.000431,0.000235
34826000,0.0324,0.013523,0.002678,0.000431,0.000353
34827000,0.0324,0.013523,0.002678,0.000431,0.000470
34828000,0.0324,0.013523,0.002678,0.000431,0.000235
34829000,0.0324,0.013523,0.002678,0.000431,0.000235
34830000,0.0324,0.013523,0.002678,0.000431,0.000470
34831000,0.0324,0.013523,0.002678,0.000431,0.000353
34832000,0.0324,0.013523,0.002678,0.000431,0.000235
34833000,0.0324,0.013523,0.002678,0.000431,0.000353
34834000,0.0324,0.013523,0.002678,0.000431,0.000470
34835000,0.0324,0.013523,0.002678,0.000431,0.000118
34836000,0.0324,0.013523,0.002678,0.000431,0.000353
34837000,0.0324,0.013523,0.002678,0.000431,0.000470
34838000,0.0324,0.013523,0.002678,0.000431,0.000353
34839000,0.0324,0.013523,0.002678,0.000431,0.000235
34840000,0.0324,0.013523,0.002678,0.000431,0.000353
34841000,0.0324,0.013523,0.002678,0.000431,0.000470
34842000,0.0324,0.013523,0.002678,0.000431,0.000118
34843000,0.0324,0.013523,0.002678,0.000431,0.000353
34844000,0.0324,0.013523,0.002678,0.000431,0.000470
34845000,0.0324,0.013523,0.002678,0.000431,0.000353
34846000,0.0324,0.013523,0.002678,0.000431,0.000235
34847000,0.0324,0.013523,0.002678,0.000431,0.000353
34848000,0.0324,0.013523,0.002678,0.000431,0.000470
34849000,0.0324,0.013523,0.002678,0.000431,0.000118
34850000,0.0324,0.013523,0.002678,0.000431,0.000353
34851000,0.0324,0.013523,0.002678,0.000431,0.000470
34852000,0.0324,0.013523,0.002678,0.000431,0.000353
34853000,0.0324,0.013523,0.002678,0.000431,0.000235
34854000,0.0324,0.013523,0.002678,0.000431,0.000353
34855000,0.0324,0.013523,0.002678,0.000431,0.000353
34856000,0.0324,0.013523,0.002678,0.000431,0.000235
34857000,0.0324,0.013523,0.002678,0.000431,0.000353
34858000,0.0324,0.013523,0.002678,0.000431,0.000470
34859000,0.0324,0.013523,0.002678,0.000431,0.000353
34860000,0.0324,0.013523,0.002678,0.000431,0.000235
34861000,0.0324,0.013523,0.002678,0.000431,0.000353
34862000,0.0324,0.013523,0.002678,0.000431,0.000353
34863000,0.0324,0.013523,0.002678,0.000431,0.000235
34864000,0.0324,0.013523,0.002678,0.000431,0.000353
34865000,0.0324,0.013523,0.002678,0.000431,0.000470
34866000,0.0324,0.013523,0.002678,0.000431,0.000353
34867000,0.0324,0.013523,0.002678,0.000431,0.000235
34868000,0.0324,0.013523,0.002678,0.000431,0.000353
34869000,0.0324,0.013523,0.002678,0.000431,0.000353
34870000,0.0324,0.013523,0.002678,0.000431,0.000235
34871000,0.0324,0.013523,0.002678,0.000431,0.000353
34872000,0.0324,0.013523,0.002678,0.000431,0.000470
34873000,0.0324,0.013523,0.002678,0.000431,0.000353
34874000,0.0324,0.013523,0.002678,0.000431,0.000235
34875000,0.0324,0.013523,0.002678,0.000431,0.000353
34876000,0.0324,0.013523,0.002678,0.000431,0.000353
34877000,0.0324,0.013523,0.002678,0.000431,0.000235
34878000,0.0324,0.013523,0.002678,0.000431,0.000353
34879000,0.0324,0.013523,0.002678,0.000431,0.000470
34880000,0.0324,0.013523,0.002678,0.000431,0.000353
34881000,0.0324,0.013523,0.002678,0.000431,0.000235
34882000,0.0324,0.013523,0.002678,0.000431,0.000353
34883000,0.0324,0.013523,0.002678,0.000431,0.000353
34884000,0.0324,0.013523,0.002678,0.000431,0.000235
34885000,0.0324,0.013523,0.002678,0.000431,0.000353
34886000,0.0324,0.013523,0.002678,0.000431,0.000470
34887000,0.0324,0.013523,0.002678,0.000431,0.000353
34888000,0.0324,0.013523,0.002678,0.000431,0.000235
34889000,0.0324,0.013523,0.002678,0.000431,0.000353
34890000,0.0324,0.013523,0.002678,0.000431,0.000353
34891000,0.0324,0.013523,0.002678,0.000431,0.000235
34892000,0.0324,0.013523,0.002678,0.000431,0.000353
34893000,0.0324,0.013523,0.002678,0.000431,0.000470
34894000,0.0324,0.013523,0.002678,0.000431,0.000353
34895000,0.0324,0.013523,0.002678,0.000431,0.000235
34896000,0.0324,0.013523,0.002678,0.000431,0.000353
34897000,0.0324,0.013523,0.002678,0.000431,0.000353
34898000,0.0324,0.013523,0.002678,0.000431,0.000235
34899000,0.0324,0.013523,0.002678,0.000431,0.000353
34900000,0.0324,0.013523,0.002678,0.000431,0.000470
34901000,0.0324,0.013523,0.002678,0.000431,0.000353
34902000,0.0324,0.013523,0.002678,0.000431,0.000235
34903000,0.0324,0.013523,0.002678,0.000431,0.000353
34904000,0.0324,0.013523,0.002678,0.000431,0.000353
34905000,0.0324,0.013523,0.002678,0.000431,0.000235
34906000,0.0324,0.013523,0.002678,0.000431,0.000353
34907000,0.0324,0.013523,0.002678,0.000431,0.000470
34908000,0.0324,0.013523,0.002678,0.000431,0.000353
34909000,0.0324,0.013523,0.002678,0.000431,0.000118
34910000,0.0324,0.013523,0.002678,0.000431,0.000470
34911000,0.0324,0.013523,0.002678,0.000431,0.000353
34912000,0.0324,0.013523,0.002678,0.000431,0.000235
34913000,0.0324,0.013523,0.002678,0.000431,0.000353
34914000,0.0324,0.013523,0.002678,0.000431,0.000470
34915000,0.0324,0.013523,0.002678,0.000431,0.000353
34916000,0.0324,0.013523,0.002678,0.000431,0.000118
34917000,0.0324,0.013523,0.002678,0.000431,0.000470
34918000,0.0324,0.013523,0.002678,0.000431,0.000353
34919000,0.0324,0.013523,0.002678,0.000431,0.000235
34920000,0.0324,0.013523,0.002678,0.000431,0.000353
34921000,0.0324,0.013523,0.002678,0.000431,0.000470
34922000,0.0324,0.013523,0.002678,0.000431,0.000353
34923000,0.0324,0.013523,0.002678,0.000431,0.000118
34924000,0.0324,0.013523,0.002678,0.000431,0.000470
34925000,0.0324,0.013523,0.002678,0.000431,0.000353
34926000,0.0324,0.013523,0.002678,0.000431,0.000235
34927000,0.0324,0.013523,0.002678,0.000431,0.000353
34928000,0.0324,0.013523,0.002678,0.000431,0.000470
34929000,0.0324,0.013523,0.002678,0.000431,0.000235
34930000,0.0324,0.013523,0.002678,0.000431,0.000235
34931000,0.0324,0.013523,0.002678,0.000431,0.000470
34932000,0.0324,0.013523,0.002678,0.000431,0.000353
34933000,0.0324,0.013523,0.002678,0.000431,0.000235
34934000,0.0324,0.013523,0.002678,0.000431,0.000353
34935000,0.0324,0.013523,0.002678,0.000431,0.000470
34936000,0.0324,0.013523,0.002678,0.000431,0.000235
34937000,0.0324,0.013523,0.002678,0.000431,0.000235
34938000,0.0324,0.013523,0.002678,0.000431,0.000470
34939000,0.0324,0.013523,0.002678,0.000431,0.000353
34940000,0.0324,0.013523,0.002678,0.000431,0.000235
34941000,0.0324,0.013523,0.002678,0.000431,0.000353
34942000,0.0324,0.013523,0.002678,0.000431,0.000470
34943000,0.0324,0.013523,0.002678,0.000431,0.000235
34944000,0.0324,0.013523,0.002678,0.000431,0.000235
34945000,0.0324,0.013523,0.002678,0.000431,0.000470
34946000,0.0324,0.013523,0.002678,0.000431,0.000353
34947000,0.0324,0.013523,0.002678,0.000431,0.000235
34948000,0.0324,0.013523,0.002678,0.000431,0.000353
34949000,0.0324,0.013523,0.002678,0.000431,0.000470
34950000,0.0324,0.013523,0.002678,0.000431,0.000235
34951000,0.0324,0.013523,0.002678,0.000431,0.000235
34952000,0.0324,0.013523,0.002678,0.000431,0.000470
34953000,0.0324,0.013523,0.002678,0.000431,0.000353
34954000,0.0324,0.013523,0.002678,0.000431,0.000235
34955000,0.0324,0.013523,0.002678,0.000431,0.000353
34956000,0.0324,0.013523,0.002678,0.000431,0.000470
34957000,0.0324,0.013523,0.002678,0.000431,0.000235
34958000,0.0324,0.013523,0.002678,0.000431,0.000235
34959000,0.0324,0.013523,0.002678,0.000431,0.000470
34960000,0.0324,0.013523,0.002678,0.000431,0.000353
34961000,0.0324,0.013523,0.002678,0.000431,0.000235
34962000,0.0324,0.013523,0.002678,0.000431,0.000353
34963000,0.0324,0.013523,0.002678,0.000431,0.000470
34964000,0.0324,0.013523,0.002678,0.000431,0.000235
34965000,0.0324,0.013523,0.002678,0.000431,0.000235
34966000,0.0324,0.013523,0.002678,0.000431,0.000470
34967000,0.0324,0.013523,0.002678,0.000431,0.000353
34968000,0.0324,0.013523,0.002678,0.000431,0.000235
34969000,0.0324,0.013523,0.002678,0.000431,0.000353
34970000,0.0324,0.013523,0.002678,0.000431,0.000470
34971000,0.0324,0.013523,0.002678,0.000431,0.000118
34972000,0.0324,0.013523,0.002678,0.000431,0.000353
34973000,0.0324,0.013523,0.002678,0.000431,0.000470
34974000,0.0324,0.013523,0.002678,0.000431,0.000353
34975000,0.0324,0.013523,0.002678,0.000431,0.000235
34976000,0.0324,0.013523,0.002678,0.000431,0.000353
34977000,0.0324,0.013523,0.002678,0.000431,0.000470
34978000,0.0324,0.013523,0.002678,0.000431,0.000118
34979000,0.0324,0.013523,0.002678,0.000431,0.000353
34980000,0.0324,0.013523,0.002678,0.000431,0.000470
34981000,0.0324,0.013523,0.002678,0.000431,0.000353
34982000,0.0324,0.013523,0.002678,0.000431,0.000235
34983000,0.0324,0.013523,0.002678,0.000431,0.000353
34984000,0.0324,0.013523,0.002678,0.000431,0.000470
34985000,0.0324,0.013523,0.002678,0.000431,0.000118
34986000,0.0324,0.013523,0.002678,0.000431,0.000353
34987000,0.0324,0.013523,0.002678,0.000431,0.000470
34988000,0.0324,0.013523,0.002678,0.000431,0.000353
34989000,0.0324,0.013523,0.002678,0.000431,0.000235
34990000,0.0324,0.013523,0.002678,0.000431,0.000353
34991000,0.0324,0.013523,0.002678,0.000431,0.000470
34992000,0.0324,0.013523,0.002678,0.000431,0.000118
34993000,0.0324,0.013523,0.002678,0.000431,0.000353
34994000,0.0324,0.013523,0.002678,0.000431,0.000470
34995000,0.0324,0.013523,0.002678,0.000431,0.000353
34996000,0.0324,0.013523,0.002678,0.000431,0.000235
34997000,0.0324,0.013523,0.002678,0.000431,0.000353
34998000,0.0324,0.013523,0.002678,0.000431,0.000353
34999000,0.0324,0.013523,0.002678,0.000431,0.000235
