Cycle,Area(mm^2),PeakDynamic(W),SubthresholdLeakage(W),GateLeakage(W),RunTimeDynamic(W)
13000000,0.0324,0.013523,0.002678,0.000431,0.000470
13001000,0.0324,0.013523,0.002678,0.000431,0.000118
13002000,0.0324,0.013523,0.002678,0.000431,0.000353
13003000,0.0324,0.013523,0.002678,0.000431,0.000470
13004000,0.0324,0.013523,0.002678,0.000431,0.000353
13005000,0.0324,0.013523,0.002678,0.000431,0.000235
13006000,0.0324,0.013523,0.002678,0.000431,0.000353
13007000,0.0324,0.013523,0.002678,0.000431,0.000470
13008000,0.0324,0.013523,0.002678,0.000431,0.000118
13009000,0.0324,0.013523,0.002678,0.000431,0.000353
13010000,0.0324,0.013523,0.002678,0.000431,0.000470
13011000,0.0324,0.013523,0.002678,0.000431,0.000353
13012000,0.0324,0.013523,0.002678,0.000431,0.000235
13013000,0.0324,0.013523,0.002678,0.000431,0.000353
13014000,0.0324,0.013523,0.002678,0.000431,0.000353
13015000,0.0324,0.013523,0.002678,0.000431,0.000235
13016000,0.0324,0.013523,0.002678,0.000431,0.000353
13017000,0.0324,0.013523,0.002678,0.000431,0.000470
13018000,0.0324,0.013523,0.002678,0.000431,0.000353
13019000,0.0324,0.013523,0.002678,0.000431,0.000235
13020000,0.0324,0.013523,0.002678,0.000431,0.000353
13021000,0.0324,0.013523,0.002678,0.000431,0.000353
13022000,0.0324,0.013523,0.002678,0.000431,0.000235
13023000,0.0324,0.013523,0.002678,0.000431,0.000353
13024000,0.0324,0.013523,0.002678,0.000431,0.000470
13025000,0.0324,0.013523,0.002678,0.000431,0.000353
13026000,0.0324,0.013523,0.002678,0.000431,0.000118
13027000,0.0324,0.013523,0.002678,0.000431,0.000470
13028000,0.0324,0.013523,0.002678,0.000431,0.000353
13029000,0.0324,0.013523,0.002678,0.000431,0.000235
13030000,0.0324,0.013523,0.002678,0.000431,0.000353
13031000,0.0324,0.013523,0.002678,0.000431,0.000470
13032000,0.0324,0.013523,0.002678,0.000431,0.000353
13033000,0.0324,0.013523,0.002678,0.000431,0.000118
13034000,0.0324,0.013523,0.002678,0.000431,0.000470
13035000,0.0324,0.013523,0.002678,0.000431,0.000353
13036000,0.0324,0.013523,0.002678,0.000431,0.000235
13037000,0.0324,0.013523,0.002678,0.000431,0.000353
13038000,0.0324,0.013523,0.002678,0.000431,0.000470
13039000,0.0324,0.013523,0.002678,0.000431,0.000235
13040000,0.0324,0.013523,0.002678,0.000431,0.000235
13041000,0.0324,0.013523,0.002678,0.000431,0.000470
13042000,0.0324,0.013523,0.002678,0.000431,0.000353
13043000,0.0324,0.013523,0.002678,0.000431,0.000235
13044000,0.0324,0.013523,0.002678,0.000431,0.000353
13045000,0.0324,0.013523,0.002678,0.000431,0.000470
13046000,0.0324,0.013523,0.002678,0.000431,0.000118
13047000,0.0324,0.013523,0.002678,0.000431,0.000353
13048000,0.0324,0.013523,0.002678,0.000431,0.000470
13049000,0.0324,0.013523,0.002678,0.000431,0.000353
13050000,0.0324,0.013523,0.002678,0.000431,0.000235
13051000,0.0324,0.013523,0.002678,0.000431,0.000353
13052000,0.0324,0.013523,0.002678,0.000431,0.000353
13053000,0.0324,0.013523,0.002678,0.000431,0.000235
13054000,0.0324,0.013523,0.002678,0.000431,0.000353
13055000,0.0324,0.013523,0.002678,0.000431,0.000470
13056000,0.0324,0.013523,0.002678,0.000431,0.000353
13057000,0.0324,0.013523,0.002678,0.000431,0.000235
13058000,0.0324,0.013523,0.002678,0.000431,0.000353
13059000,0.0324,0.013523,0.002678,0.000431,0.000353
13060000,0.0324,0.013523,0.002678,0.000431,0.000235
13061000,0.0324,0.013523,0.002678,0.000431,0.000353
13062000,0.0324,0.013523,0.002678,0.000431,0.000470
13063000,0.0324,0.013523,0.002678,0.000431,0.000353
13064000,0.0324,0.013523,0.002678,0.000431,0.000235
13065000,0.0324,0.013523,0.002678,0.000431,0.000353
13066000,0.0324,0.013523,0.002678,0.000431,0.000353
13067000,0.0324,0.013523,0.002678,0.000431,0.000235
13068000,0.0324,0.013523,0.002678,0.000431,0.000353
13069000,0.0324,0.013523,0.002678,0.000431,0.000470
13070000,0.0324,0.013523,0.002678,0.000431,0.000353
13071000,0.0324,0.013523,0.002678,0.000431,0.000118
13072000,0.0324,0.013523,0.002678,0.000431,0.000470
13073000,0.0324,0.013523,0.002678,0.000431,0.000353
13074000,0.0324,0.013523,0.002678,0.000431,0.000235
13075000,0.0324,0.013523,0.002678,0.000431,0.000353
13076000,0.0324,0.013523,0.002678,0.000431,0.000470
13077000,0.0324,0.013523,0.002678,0.000431,0.000235
13078000,0.0324,0.013523,0.002678,0.000431,0.000235
13079000,0.0324,0.013523,0.002678,0.000431,0.000470
13080000,0.0324,0.013523,0.002678,0.000431,0.000353
13081000,0.0324,0.013523,0.002678,0.000431,0.000235
13082000,0.0324,0.013523,0.002678,0.000431,0.000353
13083000,0.0324,0.013523,0.002678,0.000431,0.000470
13084000,0.0324,0.013523,0.002678,0.000431,0.000235
13085000,0.0324,0.013523,0.002678,0.000431,0.000235
13086000,0.0324,0.013523,0.002678,0.000431,0.000470
13087000,0.0324,0.013523,0.002678,0.000431,0.000353
13088000,0.0324,0.013523,0.002678,0.000431,0.000235
13089000,0.0324,0.013523,0.002678,0.000431,0.000353
13090000,0.0324,0.013523,0.002678,0.000431,0.000470
13091000,0.0324,0.013523,0.002678,0.000431,0.000118
13092000,0.0324,0.013523,0.002678,0.000431,0.000353
13093000,0.0324,0.013523,0.002678,0.000431,0.000470
13094000,0.0324,0.013523,0.002678,0.000431,0.000353
13095000,0.0324,0.013523,0.002678,0.000431,0.000235
13096000,0.0324,0.013523,0.002678,0.000431,0.000353
13097000,0.0324,0.013523,0.002678,0.000431,0.000353
13098000,0.0324,0.013523,0.002678,0.000431,0.000235
13099000,0.0324,0.013523,0.002678,0.000431,0.000353
13100000,0.0324,0.013523,0.002678,0.000431,0.000470
13101000,0.0324,0.013523,0.002678,0.000431,0.000353
13102000,0.0324,0.013523,0.002678,0.000431,0.000235
13103000,0.0324,0.013523,0.002678,0.000431,0.000353
13104000,0.0324,0.013523,0.002678,0.000431,0.000353
13105000,0.0324,0.013523,0.002678,0.000431,0.000235
13106000,0.0324,0.013523,0.002678,0.000431,0.000353
13107000,0.0324,0.013523,0.002678,0.000431,0.000470
13108000,0.0324,0.013523,0.002678,0.000431,0.000353
13109000,0.0324,0.013523,0.002678,0.000431,0.000118
13110000,0.0324,0.013523,0.002678,0.000431,0.000470
13111000,0.0324,0.013523,0.002678,0.000431,0.000353
13112000,0.0324,0.013523,0.002678,0.000431,0.000235
13113000,0.0324,0.013523,0.002678,0.000431,0.000353
13114000,0.0324,0.013523,0.002678,0.000431,0.000470
13115000,0.0324,0.013523,0.002678,0.000431,0.000353
13116000,0.0324,0.013523,0.002678,0.000431,0.000118
13117000,0.0324,0.013523,0.002678,0.000431,0.000470
13118000,0.0324,0.013523,0.002678,0.000431,0.000353
13119000,0.0324,0.013523,0.002678,0.000431,0.000235
13120000,0.0324,0.013523,0.002678,0.000431,0.000353
13121000,0.0324,0.013523,0.002678,0.000431,0.000470
13122000,0.0324,0.013523,0.002678,0.000431,0.000235
13123000,0.0324,0.013523,0.002678,0.000431,0.000235
13124000,0.0324,0.013523,0.002678,0.000431,0.000470
13125000,0.0324,0.013523,0.002678,0.000431,0.000353
13126000,0.0324,0.013523,0.002678,0.000431,0.000235
13127000,0.0324,0.013523,0.002678,0.000431,0.000353
13128000,0.0324,0.013523,0.002678,0.000431,0.000470
13129000,0.0324,0.013523,0.002678,0.000431,0.000235
13130000,0.0324,0.013523,0.002678,0.000431,0.000235
13131000,0.0324,0.013523,0.002678,0.000431,0.000470
13132000,0.0324,0.013523,0.002678,0.000431,0.000353
13133000,0.0324,0.013523,0.002678,0.000431,0.000235
13134000,0.0324,0.013523,0.002678,0.000431,0.000353
13135000,0.0324,0.013523,0.002678,0.000431,0.000470
13136000,0.0324,0.013523,0.002678,0.000431,0.000235
13137000,0.0324,0.013523,0.002678,0.000431,0.000235
13138000,0.0324,0.013523,0.002678,0.000431,0.000470
13139000,0.0324,0.013523,0.002678,0.000431,0.000353
13140000,0.0324,0.013523,0.002678,0.000431,0.000235
13141000,0.0324,0.013523,0.002678,0.000431,0.000353
13142000,0.0324,0.013523,0.002678,0.000431,0.000470
13143000,0.0324,0.013523,0.002678,0.000431,0.000235
13144000,0.0324,0.013523,0.002678,0.000431,0.000235
13145000,0.0324,0.013523,0.002678,0.000431,0.000470
13146000,0.0324,0.013523,0.002678,0.000431,0.000353
13147000,0.0324,0.013523,0.002678,0.000431,0.000235
13148000,0.0324,0.013523,0.002678,0.000431,0.000353
13149000,0.0324,0.013523,0.002678,0.000431,0.000470
13150000,0.0324,0.013523,0.002678,0.000431,0.000118
13151000,0.0324,0.013523,0.002678,0.000431,0.000353
13152000,0.0324,0.013523,0.002678,0.000431,0.000470
13153000,0.0324,0.013523,0.002678,0.000431,0.000353
13154000,0.0324,0.013523,0.002678,0.000431,0.000235
13155000,0.0324,0.013523,0.002678,0.000431,0.000353
13156000,0.0324,0.013523,0.002678,0.000431,0.000470
13157000,0.0324,0.013523,0.002678,0.000431,0.000118
13158000,0.0324,0.013523,0.002678,0.000431,0.000353
13159000,0.0324,0.013523,0.002678,0.000431,0.000470
13160000,0.0324,0.013523,0.002678,0.000431,0.000353
13161000,0.0324,0.013523,0.002678,0.000431,0.000235
13162000,0.0324,0.013523,0.002678,0.000431,0.000353
13163000,0.0324,0.013523,0.002678,0.000431,0.000470
13164000,0.0324,0.013523,0.002678,0.000431,0.000118
13165000,0.0324,0.013523,0.002678,0.000431,0.000353
13166000,0.0324,0.013523,0.002678,0.000431,0.000470
13167000,0.0324,0.013523,0.002678,0.000431,0.000353
13168000,0.0324,0.013523,0.002678,0.000431,0.000235
13169000,0.0324,0.013523,0.002678,0.000431,0.000353
13170000,0.0324,0.013523,0.002678,0.000431,0.000470
13171000,0.0324,0.013523,0.002678,0.000431,0.000118
13172000,0.0324,0.013523,0.002678,0.000431,0.000353
13173000,0.0324,0.013523,0.002678,0.000431,0.000470
13174000,0.0324,0.013523,0.002678,0.000431,0.000353
13175000,0.0324,0.013523,0.002678,0.000431,0.000235
13176000,0.0324,0.013523,0.002678,0.000431,0.000353
13177000,0.0324,0.013523,0.002678,0.000431,0.000353
13178000,0.0324,0.013523,0.002678,0.000431,0.000235
13179000,0.0324,0.013523,0.002678,0.000431,0.000353
13180000,0.0324,0.013523,0.002678,0.000431,0.000470
13181000,0.0324,0.013523,0.002678,0.000431,0.000353
13182000,0.0324,0.013523,0.002678,0.000431,0.000235
13183000,0.0324,0.013523,0.002678,0.000431,0.000353
13184000,0.0324,0.013523,0.002678,0.000431,0.000353
13185000,0.0324,0.013523,0.002678,0.000431,0.000235
13186000,0.0324,0.013523,0.002678,0.000431,0.000353
13187000,0.0324,0.013523,0.002678,0.000431,0.000470
13188000,0.0324,0.013523,0.002678,0.000431,0.000353
13189000,0.0324,0.013523,0.002678,0.000431,0.000235
13190000,0.0324,0.013523,0.002678,0.000431,0.000353
13191000,0.0324,0.013523,0.002678,0.000431,0.000353
13192000,0.0324,0.013523,0.002678,0.000431,0.000235
13193000,0.0324,0.013523,0.002678,0.000431,0.000353
13194000,0.0324,0.013523,0.002678,0.000431,0.000470
13195000,0.0324,0.013523,0.002678,0.000431,0.000353
13196000,0.0324,0.013523,0.002678,0.000431,0.000235
13197000,0.0324,0.013523,0.002678,0.000431,0.000353
13198000,0.0324,0.013523,0.002678,0.000431,0.000353
13199000,0.0324,0.013523,0.002678,0.000431,0.000235
13200000,0.0324,0.013523,0.002678,0.000431,0.000353
13201000,0.0324,0.013523,0.002678,0.000431,0.000470
13202000,0.0324,0.013523,0.002678,0.000431,0.000353
13203000,0.0324,0.013523,0.002678,0.000431,0.000235
13204000,0.0324,0.013523,0.002678,0.000431,0.000353
13205000,0.0324,0.013523,0.002678,0.000431,0.000353
13206000,0.0324,0.013523,0.002678,0.000431,0.000235
13207000,0.0324,0.013523,0.002678,0.000431,0.000353
13208000,0.0324,0.013523,0.002678,0.000431,0.000470
13209000,0.0324,0.013523,0.002678,0.000431,0.000353
13210000,0.0324,0.013523,0.002678,0.000431,0.000235
13211000,0.0324,0.013523,0.002678,0.000431,0.000353
13212000,0.0324,0.013523,0.002678,0.000431,0.000353
13213000,0.0324,0.013523,0.002678,0.000431,0.000235
13214000,0.0324,0.013523,0.002678,0.000431,0.000353
13215000,0.0324,0.013523,0.002678,0.000431,0.000470
13216000,0.0324,0.013523,0.002678,0.000431,0.000353
13217000,0.0324,0.013523,0.002678,0.000431,0.000235
13218000,0.0324,0.013523,0.002678,0.000431,0.000353
13219000,0.0324,0.013523,0.002678,0.000431,0.000353
13220000,0.0324,0.013523,0.002678,0.000431,0.000235
13221000,0.0324,0.013523,0.002678,0.000431,0.000353
13222000,0.0324,0.013523,0.002678,0.000431,0.000470
13223000,0.0324,0.013523,0.002678,0.000431,0.000353
13224000,0.0324,0.013523,0.002678,0.000431,0.000118
13225000,0.0324,0.013523,0.002678,0.000431,0.000470
13226000,0.0324,0.013523,0.002678,0.000431,0.000353
13227000,0.0324,0.013523,0.002678,0.000431,0.000235
13228000,0.0324,0.013523,0.002678,0.000431,0.000353
13229000,0.0324,0.013523,0.002678,0.000431,0.000470
13230000,0.0324,0.013523,0.002678,0.000431,0.000353
13231000,0.0324,0.013523,0.002678,0.000431,0.000118
13232000,0.0324,0.013523,0.002678,0.000431,0.000470
13233000,0.0324,0.013523,0.002678,0.000431,0.000353
13234000,0.0324,0.013523,0.002678,0.000431,0.000235
13235000,0.0324,0.013523,0.002678,0.000431,0.000353
13236000,0.0324,0.013523,0.002678,0.000431,0.000470
13237000,0.0324,0.013523,0.002678,0.000431,0.000353
13238000,0.0324,0.013523,0.002678,0.000431,0.000118
13239000,0.0324,0.013523,0.002678,0.000431,0.000470
13240000,0.0324,0.013523,0.002678,0.000431,0.000353
13241000,0.0324,0.013523,0.002678,0.000431,0.000235
13242000,0.0324,0.013523,0.002678,0.000431,0.000353
13243000,0.0324,0.013523,0.002678,0.000431,0.000470
13244000,0.0324,0.013523,0.002678,0.000431,0.000353
13245000,0.0324,0.013523,0.002678,0.000431,0.000118
13246000,0.0324,0.013523,0.002678,0.000431,0.000470
13247000,0.0324,0.013523,0.002678,0.000431,0.000353
13248000,0.0324,0.013523,0.002678,0.000431,0.000235
13249000,0.0324,0.013523,0.002678,0.000431,0.000353
13250000,0.0324,0.013523,0.002678,0.000431,0.000470
13251000,0.0324,0.013523,0.002678,0.000431,0.000235
13252000,0.0324,0.013523,0.002678,0.000431,0.000235
13253000,0.0324,0.013523,0.002678,0.000431,0.000470
13254000,0.0324,0.013523,0.002678,0.000431,0.000353
13255000,0.0324,0.013523,0.002678,0.000431,0.000235
13256000,0.0324,0.013523,0.002678,0.000431,0.000353
13257000,0.0324,0.013523,0.002678,0.000431,0.000470
13258000,0.0324,0.013523,0.002678,0.000431,0.000235
13259000,0.0324,0.013523,0.002678,0.000431,0.000235
13260000,0.0324,0.013523,0.002678,0.000431,0.000470
13261000,0.0324,0.013523,0.002678,0.000431,0.000353
13262000,0.0324,0.013523,0.002678,0.000431,0.000235
13263000,0.0324,0.013523,0.002678,0.000431,0.000353
13264000,0.0324,0.013523,0.002678,0.000431,0.000470
13265000,0.0324,0.013523,0.002678,0.000431,0.000235
13266000,0.0324,0.013523,0.002678,0.000431,0.000235
13267000,0.0324,0.013523,0.002678,0.000431,0.000470
13268000,0.0324,0.013523,0.002678,0.000431,0.000353
13269000,0.0324,0.013523,0.002678,0.000431,0.000235
13270000,0.0324,0.013523,0.002678,0.000431,0.000353
13271000,0.0324,0.013523,0.002678,0.000431,0.000470
13272000,0.0324,0.013523,0.002678,0.000431,0.000235
13273000,0.0324,0.013523,0.002678,0.000431,0.000235
13274000,0.0324,0.013523,0.002678,0.000431,0.000470
13275000,0.0324,0.013523,0.002678,0.000431,0.000353
13276000,0.0324,0.013523,0.002678,0.000431,0.000235
13277000,0.0324,0.013523,0.002678,0.000431,0.000353
13278000,0.0324,0.013523,0.002678,0.000431,0.000470
13279000,0.0324,0.013523,0.002678,0.000431,0.000235
13280000,0.0324,0.013523,0.002678,0.000431,0.000235
13281000,0.0324,0.013523,0.002678,0.000431,0.000470
13282000,0.0324,0.013523,0.002678,0.000431,0.000353
13283000,0.0324,0.013523,0.002678,0.000431,0.000235
13284000,0.0324,0.013523,0.002678,0.000431,0.000353
13285000,0.0324,0.013523,0.002678,0.000431,0.000470
13286000,0.0324,0.013523,0.002678,0.000431,0.000235
13287000,0.0324,0.013523,0.002678,0.000431,0.000235
13288000,0.0324,0.013523,0.002678,0.000431,0.000470
13289000,0.0324,0.013523,0.002678,0.000431,0.000353
13290000,0.0324,0.013523,0.002678,0.000431,0.000235
13291000,0.0324,0.013523,0.002678,0.000431,0.000353
13292000,0.0324,0.013523,0.002678,0.000431,0.000470
13293000,0.0324,0.013523,0.002678,0.000431,0.000118
13294000,0.0324,0.013523,0.002678,0.000431,0.000353
13295000,0.0324,0.013523,0.002678,0.000431,0.000470
13296000,0.0324,0.013523,0.002678,0.000431,0.000353
13297000,0.0324,0.013523,0.002678,0.000431,0.000235
13298000,0.0324,0.013523,0.002678,0.000431,0.000353
13299000,0.0324,0.013523,0.002678,0.000431,0.000470
13300000,0.0324,0.013523,0.002678,0.000431,0.000118
13301000,0.0324,0.013523,0.002678,0.000431,0.000353
13302000,0.0324,0.013523,0.002678,0.000431,0.000470
13303000,0.0324,0.013523,0.002678,0.000431,0.000353
13304000,0.0324,0.013523,0.002678,0.000431,0.000235
13305000,0.0324,0.013523,0.002678,0.000431,0.000353
13306000,0.0324,0.013523,0.002678,0.000431,0.000470
13307000,0.0324,0.013523,0.002678,0.000431,0.000118
13308000,0.0324,0.013523,0.002678,0.000431,0.000353
13309000,0.0324,0.013523,0.002678,0.000431,0.000470
13310000,0.0324,0.013523,0.002678,0.000431,0.000353
13311000,0.0324,0.013523,0.002678,0.000431,0.000235
13312000,0.0324,0.013523,0.002678,0.000431,0.000353
13313000,0.0324,0.013523,0.002678,0.000431,0.000353
13314000,0.0324,0.013523,0.002678,0.000431,0.000235
13315000,0.0324,0.013523,0.002678,0.000431,0.000353
13316000,0.0324,0.013523,0.002678,0.000431,0.000470
13317000,0.0324,0.013523,0.002678,0.000431,0.000353
13318000,0.0324,0.013523,0.002678,0.000431,0.000235
13319000,0.0324,0.013523,0.002678,0.000431,0.000353
13320000,0.0324,0.013523,0.002678,0.000431,0.000353
13321000,0.0324,0.013523,0.002678,0.000431,0.000235
13322000,0.0324,0.013523,0.002678,0.000431,0.000353
13323000,0.0324,0.013523,0.002678,0.000431,0.000470
13324000,0.0324,0.013523,0.002678,0.000431,0.000353
13325000,0.0324,0.013523,0.002678,0.000431,0.000235
13326000,0.0324,0.013523,0.002678,0.000431,0.000353
13327000,0.0324,0.013523,0.002678,0.000431,0.000353
13328000,0.0324,0.013523,0.002678,0.000431,0.000235
13329000,0.0324,0.013523,0.002678,0.000431,0.000353
13330000,0.0324,0.013523,0.002678,0.000431,0.000470
13331000,0.0324,0.013523,0.002678,0.000431,0.000353
13332000,0.0324,0.013523,0.002678,0.000431,0.000235
13333000,0.0324,0.013523,0.002678,0.000431,0.000353
13334000,0.0324,0.013523,0.002678,0.000431,0.000353
13335000,0.0324,0.013523,0.002678,0.000431,0.000235
13336000,0.0324,0.013523,0.002678,0.000431,0.000353
13337000,0.0324,0.013523,0.002678,0.000431,0.000470
13338000,0.0324,0.013523,0.002678,0.000431,0.000353
13339000,0.0324,0.013523,0.002678,0.000431,0.000235
13340000,0.0324,0.013523,0.002678,0.000431,0.000353
13341000,0.0324,0.013523,0.002678,0.000431,0.000353
13342000,0.0324,0.013523,0.002678,0.000431,0.000235
13343000,0.0324,0.013523,0.002678,0.000431,0.000353
13344000,0.0324,0.013523,0.002678,0.000431,0.000470
13345000,0.0324,0.013523,0.002678,0.000431,0.000353
13346000,0.0324,0.013523,0.002678,0.000431,0.000235
13347000,0.0324,0.013523,0.002678,0.000431,0.000353
13348000,0.0324,0.013523,0.002678,0.000431,0.000353
13349000,0.0324,0.013523,0.002678,0.000431,0.000235
13350000,0.0324,0.013523,0.002678,0.000431,0.000353
13351000,0.0324,0.013523,0.002678,0.000431,0.000470
13352000,0.0324,0.013523,0.002678,0.000431,0.000353
13353000,0.0324,0.013523,0.002678,0.000431,0.000235
13354000,0.0324,0.013523,0.002678,0.000431,0.000353
13355000,0.0324,0.013523,0.002678,0.000431,0.000353
13356000,0.0324,0.013523,0.002678,0.000431,0.000235
13357000,0.0324,0.013523,0.002678,0.000431,0.000353
13358000,0.0324,0.013523,0.002678,0.000431,0.000470
13359000,0.0324,0.013523,0.002678,0.000431,0.000353
13360000,0.0324,0.013523,0.002678,0.000431,0.000235
13361000,0.0324,0.013523,0.002678,0.000431,0.000353
13362000,0.0324,0.013523,0.002678,0.000431,0.000353
13363000,0.0324,0.013523,0.002678,0.000431,0.000235
13364000,0.0324,0.013523,0.002678,0.000431,0.000353
13365000,0.0324,0.013523,0.002678,0.000431,0.000470
13366000,0.0324,0.013523,0.002678,0.000431,0.000353
13367000,0.0324,0.013523,0.002678,0.000431,0.000118
13368000,0.0324,0.013523,0.002678,0.000431,0.000470
13369000,0.0324,0.013523,0.002678,0.000431,0.000353
13370000,0.0324,0.013523,0.002678,0.000431,0.000235
13371000,0.0324,0.013523,0.002678,0.000431,0.000353
13372000,0.0324,0.013523,0.002678,0.000431,0.000470
13373000,0.0324,0.013523,0.002678,0.000431,0.000353
13374000,0.0324,0.013523,0.002678,0.000431,0.000118
13375000,0.0324,0.013523,0.002678,0.000431,0.000470
13376000,0.0324,0.013523,0.002678,0.000431,0.000353
13377000,0.0324,0.013523,0.002678,0.000431,0.000235
13378000,0.0324,0.013523,0.002678,0.000431,0.000353
13379000,0.0324,0.013523,0.002678,0.000431,0.000470
13380000,0.0324,0.013523,0.002678,0.000431,0.000353
13381000,0.0324,0.013523,0.002678,0.000431,0.000118
13382000,0.0324,0.013523,0.002678,0.000431,0.000470
13383000,0.0324,0.013523,0.002678,0.000431,0.000353
13384000,0.0324,0.013523,0.002678,0.000431,0.000235
13385000,0.0324,0.013523,0.002678,0.000431,0.000353
13386000,0.0324,0.013523,0.002678,0.000431,0.000470
13387000,0.0324,0.013523,0.002678,0.000431,0.000235
13388000,0.0324,0.013523,0.002678,0.000431,0.000235
13389000,0.0324,0.013523,0.002678,0.000431,0.000470
13390000,0.0324,0.013523,0.002678,0.000431,0.000353
13391000,0.0324,0.013523,0.002678,0.000431,0.000235
13392000,0.0324,0.013523,0.002678,0.000431,0.000353
13393000,0.0324,0.013523,0.002678,0.000431,0.000470
13394000,0.0324,0.013523,0.002678,0.000431,0.000235
13395000,0.0324,0.013523,0.002678,0.000431,0.000235
13396000,0.0324,0.013523,0.002678,0.000431,0.000470
13397000,0.0324,0.013523,0.002678,0.000431,0.000353
13398000,0.0324,0.013523,0.002678,0.000431,0.000235
13399000,0.0324,0.013523,0.002678,0.000431,0.000353
13400000,0.0324,0.013523,0.002678,0.000431,0.000470
13401000,0.0324,0.013523,0.002678,0.000431,0.000235
13402000,0.0324,0.013523,0.002678,0.000431,0.000235
13403000,0.0324,0.013523,0.002678,0.000431,0.000470
13404000,0.0324,0.013523,0.002678,0.000431,0.000353
13405000,0.0324,0.013523,0.002678,0.000431,0.000235
13406000,0.0324,0.013523,0.002678,0.000431,0.000353
13407000,0.0324,0.013523,0.002678,0.000431,0.000470
13408000,0.0324,0.013523,0.002678,0.000431,0.000235
13409000,0.0324,0.013523,0.002678,0.000431,0.000235
13410000,0.0324,0.013523,0.002678,0.000431,0.000470
13411000,0.0324,0.013523,0.002678,0.000431,0.000353
13412000,0.0324,0.013523,0.002678,0.000431,0.000235
13413000,0.0324,0.013523,0.002678,0.000431,0.000353
13414000,0.0324,0.013523,0.002678,0.000431,0.000470
13415000,0.0324,0.013523,0.002678,0.000431,0.000235
13416000,0.0324,0.013523,0.002678,0.000431,0.000235
13417000,0.0324,0.013523,0.002678,0.000431,0.000470
13418000,0.0324,0.013523,0.002678,0.000431,0.000353
13419000,0.0324,0.013523,0.002678,0.000431,0.000235
13420000,0.0324,0.013523,0.002678,0.000431,0.000353
13421000,0.0324,0.013523,0.002678,0.000431,0.000470
13422000,0.0324,0.013523,0.002678,0.000431,0.000235
13423000,0.0324,0.013523,0.002678,0.000431,0.000235
13424000,0.0324,0.013523,0.002678,0.000431,0.000470
13425000,0.0324,0.013523,0.002678,0.000431,0.000353
13426000,0.0324,0.013523,0.002678,0.000431,0.000235
13427000,0.0324,0.013523,0.002678,0.000431,0.000353
13428000,0.0324,0.013523,0.002678,0.000431,0.000470
13429000,0.0324,0.013523,0.002678,0.000431,0.000118
13430000,0.0324,0.013523,0.002678,0.000431,0.000353
13431000,0.0324,0.013523,0.002678,0.000431,0.000470
13432000,0.0324,0.013523,0.002678,0.000431,0.000353
13433000,0.0324,0.013523,0.002678,0.000431,0.000235
13434000,0.0324,0.013523,0.002678,0.000431,0.000353
13435000,0.0324,0.013523,0.002678,0.000431,0.000470
13436000,0.0324,0.013523,0.002678,0.000431,0.000118
13437000,0.0324,0.013523,0.002678,0.000431,0.000353
13438000,0.0324,0.013523,0.002678,0.000431,0.000470
13439000,0.0324,0.013523,0.002678,0.000431,0.000353
13440000,0.0324,0.013523,0.002678,0.000431,0.000235
13441000,0.0324,0.013523,0.002678,0.000431,0.000353
13442000,0.0324,0.013523,0.002678,0.000431,0.000470
13443000,0.0324,0.013523,0.002678,0.000431,0.000118
13444000,0.0324,0.013523,0.002678,0.000431,0.000353
13445000,0.0324,0.013523,0.002678,0.000431,0.000470
13446000,0.0324,0.013523,0.002678,0.000431,0.000353
13447000,0.0324,0.013523,0.002678,0.000431,0.000235
13448000,0.0324,0.013523,0.002678,0.000431,0.000353
13449000,0.0324,0.013523,0.002678,0.000431,0.000470
13450000,0.0324,0.013523,0.002678,0.000431,0.000118
13451000,0.0324,0.013523,0.002678,0.000431,0.000353
13452000,0.0324,0.013523,0.002678,0.000431,0.000470
13453000,0.0324,0.013523,0.002678,0.000431,0.000353
13454000,0.0324,0.013523,0.002678,0.000431,0.000235
13455000,0.0324,0.013523,0.002678,0.000431,0.000353
13456000,0.0324,0.013523,0.002678,0.000431,0.000353
13457000,0.0324,0.013523,0.002678,0.000431,0.000235
13458000,0.0324,0.013523,0.002678,0.000431,0.000353
13459000,0.0324,0.013523,0.002678,0.000431,0.000470
13460000,0.0324,0.013523,0.002678,0.000431,0.000353
13461000,0.0324,0.013523,0.002678,0.000431,0.000235
13462000,0.0324,0.013523,0.002678,0.000431,0.000353
13463000,0.0324,0.013523,0.002678,0.000431,0.000353
13464000,0.0324,0.013523,0.002678,0.000431,0.000235
13465000,0.0324,0.013523,0.002678,0.000431,0.000353
13466000,0.0324,0.013523,0.002678,0.000431,0.000470
13467000,0.0324,0.013523,0.002678,0.000431,0.000353
13468000,0.0324,0.013523,0.002678,0.000431,0.000235
13469000,0.0324,0.013523,0.002678,0.000431,0.000353
13470000,0.0324,0.013523,0.002678,0.000431,0.000353
13471000,0.0324,0.013523,0.002678,0.000431,0.000235
13472000,0.0324,0.013523,0.002678,0.000431,0.000353
13473000,0.0324,0.013523,0.002678,0.000431,0.000470
13474000,0.0324,0.013523,0.002678,0.000431,0.000353
13475000,0.0324,0.013523,0.002678,0.000431,0.000235
13476000,0.0324,0.013523,0.002678,0.000431,0.000353
13477000,0.0324,0.013523,0.002678,0.000431,0.000353
13478000,0.0324,0.013523,0.002678,0.000431,0.000235
13479000,0.0324,0.013523,0.002678,0.000431,0.000353
13480000,0.0324,0.013523,0.002678,0.000431,0.000470
13481000,0.0324,0.013523,0.002678,0.000431,0.000353
13482000,0.0324,0.013523,0.002678,0.000431,0.000235
13483000,0.0324,0.013523,0.002678,0.000431,0.000353
13484000,0.0324,0.013523,0.002678,0.000431,0.000353
13485000,0.0324,0.013523,0.002678,0.000431,0.000235
13486000,0.0324,0.013523,0.002678,0.000431,0.000353
13487000,0.0324,0.013523,0.002678,0.000431,0.000470
13488000,0.0324,0.013523,0.002678,0.000431,0.000353
13489000,0.0324,0.013523,0.002678,0.000431,0.000235
13490000,0.0324,0.013523,0.002678,0.000431,0.000353
13491000,0.0324,0.013523,0.002678,0.000431,0.000353
13492000,0.0324,0.013523,0.002678,0.000431,0.000235
13493000,0.0324,0.013523,0.002678,0.000431,0.000353
13494000,0.0324,0.013523,0.002678,0.000431,0.000470
13495000,0.0324,0.013523,0.002678,0.000431,0.000353
13496000,0.0324,0.013523,0.002678,0.000431,0.000235
13497000,0.0324,0.013523,0.002678,0.000431,0.000353
13498000,0.0324,0.013523,0.002678,0.000431,0.000353
13499000,0.0324,0.013523,0.002678,0.000431,0.000235
13500000,0.0324,0.013523,0.002678,0.000431,0.000353
13501000,0.0324,0.013523,0.002678,0.000431,0.000470
13502000,0.0324,0.013523,0.002678,0.000431,0.000353
13503000,0.0324,0.013523,0.002678,0.000431,0.000235
13504000,0.0324,0.013523,0.002678,0.000431,0.000353
13505000,0.0324,0.013523,0.002678,0.000431,0.000353
13506000,0.0324,0.013523,0.002678,0.000431,0.000235
13507000,0.0324,0.013523,0.002678,0.000431,0.000353
13508000,0.0324,0.013523,0.002678,0.000431,0.000470
13509000,0.0324,0.013523,0.002678,0.000431,0.000353
13510000,0.0324,0.013523,0.002678,0.000431,0.000118
13511000,0.0324,0.013523,0.002678,0.000431,0.000470
13512000,0.0324,0.013523,0.002678,0.000431,0.000353
13513000,0.0324,0.013523,0.002678,0.000431,0.000235
13514000,0.0324,0.013523,0.002678,0.000431,0.000353
13515000,0.0324,0.013523,0.002678,0.000431,0.000470
13516000,0.0324,0.013523,0.002678,0.000431,0.000353
13517000,0.0324,0.013523,0.002678,0.000431,0.000118
13518000,0.0324,0.013523,0.002678,0.000431,0.000470
13519000,0.0324,0.013523,0.002678,0.000431,0.000353
13520000,0.0324,0.013523,0.002678,0.000431,0.000235
13521000,0.0324,0.013523,0.002678,0.000431,0.000353
13522000,0.0324,0.013523,0.002678,0.000431,0.000470
13523000,0.0324,0.013523,0.002678,0.000431,0.000353
13524000,0.0324,0.013523,0.002678,0.000431,0.000118
13525000,0.0324,0.013523,0.002678,0.000431,0.000470
13526000,0.0324,0.013523,0.002678,0.000431,0.000353
13527000,0.0324,0.013523,0.002678,0.000431,0.000235
13528000,0.0324,0.013523,0.002678,0.000431,0.000353
13529000,0.0324,0.013523,0.002678,0.000431,0.000470
13530000,0.0324,0.013523,0.002678,0.000431,0.000235
13531000,0.0324,0.013523,0.002678,0.000431,0.000235
13532000,0.0324,0.013523,0.002678,0.000431,0.000470
13533000,0.0324,0.013523,0.002678,0.000431,0.000353
13534000,0.0324,0.013523,0.002678,0.000431,0.000235
13535000,0.0324,0.013523,0.002678,0.000431,0.000353
13536000,0.0324,0.013523,0.002678,0.000431,0.000470
13537000,0.0324,0.013523,0.002678,0.000431,0.000235
13538000,0.0324,0.013523,0.002678,0.000431,0.000235
13539000,0.0324,0.013523,0.002678,0.000431,0.000470
13540000,0.0324,0.013523,0.002678,0.000431,0.000353
13541000,0.0324,0.013523,0.002678,0.000431,0.000235
13542000,0.0324,0.013523,0.002678,0.000431,0.000353
13543000,0.0324,0.013523,0.002678,0.000431,0.000470
13544000,0.0324,0.013523,0.002678,0.000431,0.000235
13545000,0.0324,0.013523,0.002678,0.000431,0.000235
13546000,0.0324,0.013523,0.002678,0.000431,0.000470
13547000,0.0324,0.013523,0.002678,0.000431,0.000353
13548000,0.0324,0.013523,0.002678,0.000431,0.000235
13549000,0.0324,0.013523,0.002678,0.000431,0.000353
13550000,0.0324,0.013523,0.002678,0.000431,0.000470
13551000,0.0324,0.013523,0.002678,0.000431,0.000235
13552000,0.0324,0.013523,0.002678,0.000431,0.000235
13553000,0.0324,0.013523,0.002678,0.000431,0.000470
13554000,0.0324,0.013523,0.002678,0.000431,0.000353
13555000,0.0324,0.013523,0.002678,0.000431,0.000235
13556000,0.0324,0.013523,0.002678,0.000431,0.000353
13557000,0.0324,0.013523,0.002678,0.000431,0.000470
13558000,0.0324,0.013523,0.002678,0.000431,0.000235
13559000,0.0324,0.013523,0.002678,0.000431,0.000235
13560000,0.0324,0.013523,0.002678,0.000431,0.000470
13561000,0.0324,0.013523,0.002678,0.000431,0.000353
13562000,0.0324,0.013523,0.002678,0.000431,0.000235
13563000,0.0324,0.013523,0.002678,0.000431,0.000353
13564000,0.0324,0.013523,0.002678,0.000431,0.000470
13565000,0.0324,0.013523,0.002678,0.000431,0.000235
13566000,0.0324,0.013523,0.002678,0.000431,0.000235
13567000,0.0324,0.013523,0.002678,0.000431,0.000470
13568000,0.0324,0.013523,0.002678,0.000431,0.000353
13569000,0.0324,0.013523,0.002678,0.000431,0.000235
13570000,0.0324,0.013523,0.002678,0.000431,0.000353
13571000,0.0324,0.013523,0.002678,0.000431,0.000470
13572000,0.0324,0.013523,0.002678,0.000431,0.000118
13573000,0.0324,0.013523,0.002678,0.000431,0.000353
13574000,0.0324,0.013523,0.002678,0.000431,0.000470
13575000,0.0324,0.013523,0.002678,0.000431,0.000353
13576000,0.0324,0.013523,0.002678,0.000431,0.000235
13577000,0.0324,0.013523,0.002678,0.000431,0.000353
13578000,0.0324,0.013523,0.002678,0.000431,0.000470
13579000,0.0324,0.013523,0.002678,0.000431,0.000118
13580000,0.0324,0.013523,0.002678,0.000431,0.000353
13581000,0.0324,0.013523,0.002678,0.000431,0.000470
13582000,0.0324,0.013523,0.002678,0.000431,0.000353
13583000,0.0324,0.013523,0.002678,0.000431,0.000235
13584000,0.0324,0.013523,0.002678,0.000431,0.000353
13585000,0.0324,0.013523,0.002678,0.000431,0.000470
13586000,0.0324,0.013523,0.002678,0.000431,0.000118
13587000,0.0324,0.013523,0.002678,0.000431,0.000353
13588000,0.0324,0.013523,0.002678,0.000431,0.000470
13589000,0.0324,0.013523,0.002678,0.000431,0.000353
13590000,0.0324,0.013523,0.002678,0.000431,0.000235
13591000,0.0324,0.013523,0.002678,0.000431,0.000353
13592000,0.0324,0.013523,0.002678,0.000431,0.000353
13593000,0.0324,0.013523,0.002678,0.000431,0.000235
13594000,0.0324,0.013523,0.002678,0.000431,0.000353
13595000,0.0324,0.013523,0.002678,0.000431,0.000470
13596000,0.0324,0.013523,0.002678,0.000431,0.000353
13597000,0.0324,0.013523,0.002678,0.000431,0.000235
13598000,0.0324,0.013523,0.002678,0.000431,0.000353
13599000,0.0324,0.013523,0.002678,0.000431,0.000353
13600000,0.0324,0.013523,0.002678,0.000431,0.000235
13601000,0.0324,0.013523,0.002678,0.000431,0.000353
13602000,0.0324,0.013523,0.002678,0.000431,0.000470
13603000,0.0324,0.013523,0.002678,0.000431,0.000353
13604000,0.0324,0.013523,0.002678,0.000431,0.000235
13605000,0.0324,0.013523,0.002678,0.000431,0.000353
13606000,0.0324,0.013523,0.002678,0.000431,0.000353
13607000,0.0324,0.013523,0.002678,0.000431,0.000235
13608000,0.0324,0.013523,0.002678,0.000431,0.000353
13609000,0.0324,0.013523,0.002678,0.000431,0.000470
13610000,0.0324,0.013523,0.002678,0.000431,0.000353
13611000,0.0324,0.013523,0.002678,0.000431,0.000235
13612000,0.0324,0.013523,0.002678,0.000431,0.000353
13613000,0.0324,0.013523,0.002678,0.000431,0.000353
13614000,0.0324,0.013523,0.002678,0.000431,0.000235
13615000,0.0324,0.013523,0.002678,0.000431,0.000353
13616000,0.0324,0.013523,0.002678,0.000431,0.000470
13617000,0.0324,0.013523,0.002678,0.000431,0.000353
13618000,0.0324,0.013523,0.002678,0.000431,0.000235
13619000,0.0324,0.013523,0.002678,0.000431,0.000353
13620000,0.0324,0.013523,0.002678,0.000431,0.000353
13621000,0.0324,0.013523,0.002678,0.000431,0.000235
13622000,0.0324,0.013523,0.002678,0.000431,0.000353
13623000,0.0324,0.013523,0.002678,0.000431,0.000470
13624000,0.0324,0.013523,0.002678,0.000431,0.000353
13625000,0.0324,0.013523,0.002678,0.000431,0.000235
13626000,0.0324,0.013523,0.002678,0.000431,0.000353
13627000,0.0324,0.013523,0.002678,0.000431,0.000353
13628000,0.0324,0.013523,0.002678,0.000431,0.000235
13629000,0.0324,0.013523,0.002678,0.000431,0.000353
13630000,0.0324,0.013523,0.002678,0.000431,0.000470
13631000,0.0324,0.013523,0.002678,0.000431,0.000353
13632000,0.0324,0.013523,0.002678,0.000431,0.000235
13633000,0.0324,0.013523,0.002678,0.000431,0.000353
13634000,0.0324,0.013523,0.002678,0.000431,0.000353
13635000,0.0324,0.013523,0.002678,0.000431,0.000235
13636000,0.0324,0.013523,0.002678,0.000431,0.000353
13637000,0.0324,0.013523,0.002678,0.000431,0.000470
13638000,0.0324,0.013523,0.002678,0.000431,0.000353
13639000,0.0324,0.013523,0.002678,0.000431,0.000235
13640000,0.0324,0.013523,0.002678,0.000431,0.000353
13641000,0.0324,0.013523,0.002678,0.000431,0.000353
13642000,0.0324,0.013523,0.002678,0.000431,0.000235
13643000,0.0324,0.013523,0.002678,0.000431,0.000353
13644000,0.0324,0.013523,0.002678,0.000431,0.000470
13645000,0.0324,0.013523,0.002678,0.000431,0.000353
13646000,0.0324,0.013523,0.002678,0.000431,0.000118
13647000,0.0324,0.013523,0.002678,0.000431,0.000470
13648000,0.0324,0.013523,0.002678,0.000431,0.000353
13649000,0.0324,0.013523,0.002678,0.000431,0.000235
13650000,0.0324,0.013523,0.002678,0.000431,0.000353
13651000,0.0324,0.013523,0.002678,0.000431,0.000470
13652000,0.0324,0.013523,0.002678,0.000431,0.000353
13653000,0.0324,0.013523,0.002678,0.000431,0.000118
13654000,0.0324,0.013523,0.002678,0.000431,0.000470
13655000,0.0324,0.013523,0.002678,0.000431,0.000353
13656000,0.0324,0.013523,0.002678,0.000431,0.000235
13657000,0.0324,0.013523,0.002678,0.000431,0.000353
13658000,0.0324,0.013523,0.002678,0.000431,0.000470
13659000,0.0324,0.013523,0.002678,0.000431,0.000353
13660000,0.0324,0.013523,0.002678,0.000431,0.000118
13661000,0.0324,0.013523,0.002678,0.000431,0.000470
13662000,0.0324,0.013523,0.002678,0.000431,0.000353
13663000,0.0324,0.013523,0.002678,0.000431,0.000235
13664000,0.0324,0.013523,0.002678,0.000431,0.000353
13665000,0.0324,0.013523,0.002678,0.000431,0.000470
13666000,0.0324,0.013523,0.002678,0.000431,0.000353
13667000,0.0324,0.013523,0.002678,0.000431,0.000118
13668000,0.0324,0.013523,0.002678,0.000431,0.000470
13669000,0.0324,0.013523,0.002678,0.000431,0.000353
13670000,0.0324,0.013523,0.002678,0.000431,0.000235
13671000,0.0324,0.013523,0.002678,0.000431,0.000353
13672000,0.0324,0.013523,0.002678,0.000431,0.000470
13673000,0.0324,0.013523,0.002678,0.000431,0.000235
13674000,0.0324,0.013523,0.002678,0.000431,0.000235
13675000,0.0324,0.013523,0.002678,0.000431,0.000470
13676000,0.0324,0.013523,0.002678,0.000431,0.000353
13677000,0.0324,0.013523,0.002678,0.000431,0.000235
13678000,0.0324,0.013523,0.002678,0.000431,0.000353
13679000,0.0324,0.013523,0.002678,0.000431,0.000470
13680000,0.0324,0.013523,0.002678,0.000431,0.000235
13681000,0.0324,0.013523,0.002678,0.000431,0.000235
13682000,0.0324,0.013523,0.002678,0.000431,0.000470
13683000,0.0324,0.013523,0.002678,0.000431,0.000353
13684000,0.0324,0.013523,0.002678,0.000431,0.000235
13685000,0.0324,0.013523,0.002678,0.000431,0.000353
13686000,0.0324,0.013523,0.002678,0.000431,0.000470
13687000,0.0324,0.013523,0.002678,0.000431,0.000235
13688000,0.0324,0.013523,0.002678,0.000431,0.000235
13689000,0.0324,0.013523,0.002678,0.000431,0.000470
13690000,0.0324,0.013523,0.002678,0.000431,0.000353
13691000,0.0324,0.013523,0.002678,0.000431,0.000235
13692000,0.0324,0.013523,0.002678,0.000431,0.000353
13693000,0.0324,0.013523,0.002678,0.000431,0.000470
13694000,0.0324,0.013523,0.002678,0.000431,0.000235
13695000,0.0324,0.013523,0.002678,0.000431,0.000235
13696000,0.0324,0.013523,0.002678,0.000431,0.000470
13697000,0.0324,0.013523,0.002678,0.000431,0.000353
13698000,0.0324,0.013523,0.002678,0.000431,0.000235
13699000,0.0324,0.013523,0.002678,0.000431,0.000353
13700000,0.0324,0.013523,0.002678,0.000431,0.000470
13701000,0.0324,0.013523,0.002678,0.000431,0.000235
13702000,0.0324,0.013523,0.002678,0.000431,0.000235
13703000,0.0324,0.013523,0.002678,0.000431,0.000470
13704000,0.0324,0.013523,0.002678,0.000431,0.000353
13705000,0.0324,0.013523,0.002678,0.000431,0.000235
13706000,0.0324,0.013523,0.002678,0.000431,0.000353
13707000,0.0324,0.013523,0.002678,0.000431,0.000470
13708000,0.0324,0.013523,0.002678,0.000431,0.000235
13709000,0.0324,0.013523,0.002678,0.000431,0.000235
13710000,0.0324,0.013523,0.002678,0.000431,0.000470
13711000,0.0324,0.013523,0.002678,0.000431,0.000353
13712000,0.0324,0.013523,0.002678,0.000431,0.000235
13713000,0.0324,0.013523,0.002678,0.000431,0.000353
13714000,0.0324,0.013523,0.002678,0.000431,0.000470
13715000,0.0324,0.013523,0.002678,0.000431,0.000118
13716000,0.0324,0.013523,0.002678,0.000431,0.000353
13717000,0.0324,0.013523,0.002678,0.000431,0.000470
13718000,0.0324,0.013523,0.002678,0.000431,0.000353
13719000,0.0324,0.013523,0.002678,0.000431,0.000235
13720000,0.0324,0.013523,0.002678,0.000431,0.000353
13721000,0.0324,0.013523,0.002678,0.000431,0.000353
13722000,0.0324,0.013523,0.002678,0.000431,0.000235
13723000,0.0324,0.013523,0.002678,0.000431,0.000353
13724000,0.0324,0.013523,0.002678,0.000431,0.000470
13725000,0.0324,0.013523,0.002678,0.000431,0.000353
13726000,0.0324,0.013523,0.002678,0.000431,0.000235
13727000,0.0324,0.013523,0.002678,0.000431,0.000353
13728000,0.0324,0.013523,0.002678,0.000431,0.000353
13729000,0.0324,0.013523,0.002678,0.000431,0.000235
13730000,0.0324,0.013523,0.002678,0.000431,0.000353
13731000,0.0324,0.013523,0.002678,0.000431,0.000470
13732000,0.0324,0.013523,0.002678,0.000431,0.000353
13733000,0.0324,0.013523,0.002678,0.000431,0.000235
13734000,0.0324,0.013523,0.002678,0.000431,0.000353
13735000,0.0324,0.013523,0.002678,0.000431,0.000353
13736000,0.0324,0.013523,0.002678,0.000431,0.000235
13737000,0.0324,0.013523,0.002678,0.000431,0.000353
13738000,0.0324,0.013523,0.002678,0.000431,0.000470
13739000,0.0324,0.013523,0.002678,0.000431,0.000353
13740000,0.0324,0.013523,0.002678,0.000431,0.000235
13741000,0.0324,0.013523,0.002678,0.000431,0.000353
13742000,0.0324,0.013523,0.002678,0.000431,0.000353
13743000,0.0324,0.013523,0.002678,0.000431,0.000235
13744000,0.0324,0.013523,0.002678,0.000431,0.000353
13745000,0.0324,0.013523,0.002678,0.000431,0.000470
13746000,0.0324,0.013523,0.002678,0.000431,0.000353
13747000,0.0324,0.013523,0.002678,0.000431,0.000235
13748000,0.0324,0.013523,0.002678,0.000431,0.000353
13749000,0.0324,0.013523,0.002678,0.000431,0.000353
13750000,0.0324,0.013523,0.002678,0.000431,0.000235
13751000,0.0324,0.013523,0.002678,0.000431,0.000353
13752000,0.0324,0.013523,0.002678,0.000431,0.000470
13753000,0.0324,0.013523,0.002678,0.000431,0.000353
13754000,0.0324,0.013523,0.002678,0.000431,0.000235
13755000,0.0324,0.013523,0.002678,0.000431,0.000353
13756000,0.0324,0.013523,0.002678,0.000431,0.000353
13757000,0.0324,0.013523,0.002678,0.000431,0.000235
13758000,0.0324,0.013523,0.002678,0.000431,0.000353
13759000,0.0324,0.013523,0.002678,0.000431,0.000470
13760000,0.0324,0.013523,0.002678,0.000431,0.000353
13761000,0.0324,0.013523,0.002678,0.000431,0.000235
13762000,0.0324,0.013523,0.002678,0.000431,0.000353
13763000,0.0324,0.013523,0.002678,0.000431,0.000353
13764000,0.0324,0.013523,0.002678,0.000431,0.000235
13765000,0.0324,0.013523,0.002678,0.000431,0.000353
13766000,0.0324,0.013523,0.002678,0.000431,0.000470
13767000,0.0324,0.013523,0.002678,0.000431,0.000353
13768000,0.0324,0.013523,0.002678,0.000431,0.000235
13769000,0.0324,0.013523,0.002678,0.000431,0.000353
13770000,0.0324,0.013523,0.002678,0.000431,0.000353
13771000,0.0324,0.013523,0.002678,0.000431,0.000235
13772000,0.0324,0.013523,0.002678,0.000431,0.000353
13773000,0.0324,0.013523,0.002678,0.000431,0.000470
13774000,0.0324,0.013523,0.002678,0.000431,0.000353
13775000,0.0324,0.013523,0.002678,0.000431,0.000118
13776000,0.0324,0.013523,0.002678,0.000431,0.000470
13777000,0.0324,0.013523,0.002678,0.000431,0.000353
13778000,0.0324,0.013523,0.002678,0.000431,0.000235
13779000,0.0324,0.013523,0.002678,0.000431,0.000353
13780000,0.0324,0.013523,0.002678,0.000431,0.000470
13781000,0.0324,0.013523,0.002678,0.000431,0.000353
13782000,0.0324,0.013523,0.002678,0.000431,0.000118
13783000,0.0324,0.013523,0.002678,0.000431,0.000470
13784000,0.0324,0.013523,0.002678,0.000431,0.000353
13785000,0.0324,0.013523,0.002678,0.000431,0.000235
13786000,0.0324,0.013523,0.002678,0.000431,0.000353
13787000,0.0324,0.013523,0.002678,0.000431,0.000470
13788000,0.0324,0.013523,0.002678,0.000431,0.000353
13789000,0.0324,0.013523,0.002678,0.000431,0.000118
13790000,0.0324,0.013523,0.002678,0.000431,0.000470
13791000,0.0324,0.013523,0.002678,0.000431,0.000353
13792000,0.0324,0.013523,0.002678,0.000431,0.000235
13793000,0.0324,0.013523,0.002678,0.000431,0.000353
13794000,0.0324,0.013523,0.002678,0.000431,0.000470
13795000,0.0324,0.013523,0.002678,0.000431,0.000235
13796000,0.0324,0.013523,0.002678,0.000431,0.000235
13797000,0.0324,0.013523,0.002678,0.000431,0.000470
13798000,0.0324,0.013523,0.002678,0.000431,0.000353
13799000,0.0324,0.013523,0.002678,0.000431,0.000235
13800000,0.0324,0.013523,0.002678,0.000431,0.000353
13801000,0.0324,0.013523,0.002678,0.000431,0.000470
13802000,0.0324,0.013523,0.002678,0.000431,0.000235
13803000,0.0324,0.013523,0.002678,0.000431,0.000235
13804000,0.0324,0.013523,0.002678,0.000431,0.000470
13805000,0.0324,0.013523,0.002678,0.000431,0.000353
13806000,0.0324,0.013523,0.002678,0.000431,0.000235
13807000,0.0324,0.013523,0.002678,0.000431,0.000353
13808000,0.0324,0.013523,0.002678,0.000431,0.000470
13809000,0.0324,0.013523,0.002678,0.000431,0.000235
13810000,0.0324,0.013523,0.002678,0.000431,0.000235
13811000,0.0324,0.013523,0.002678,0.000431,0.000470
13812000,0.0324,0.013523,0.002678,0.000431,0.000353
13813000,0.0324,0.013523,0.002678,0.000431,0.000235
13814000,0.0324,0.013523,0.002678,0.000431,0.000353
13815000,0.0324,0.013523,0.002678,0.000431,0.000470
13816000,0.0324,0.013523,0.002678,0.000431,0.000235
13817000,0.0324,0.013523,0.002678,0.000431,0.000235
13818000,0.0324,0.013523,0.002678,0.000431,0.000470
13819000,0.0324,0.013523,0.002678,0.000431,0.000353
13820000,0.0324,0.013523,0.002678,0.000431,0.000235
13821000,0.0324,0.013523,0.002678,0.000431,0.000353
13822000,0.0324,0.013523,0.002678,0.000431,0.000470
13823000,0.0324,0.013523,0.002678,0.000431,0.000235
13824000,0.0324,0.013523,0.002678,0.000431,0.000235
13825000,0.0324,0.013523,0.002678,0.000431,0.000470
13826000,0.0324,0.013523,0.002678,0.000431,0.000353
13827000,0.0324,0.013523,0.002678,0.000431,0.000235
13828000,0.0324,0.013523,0.002678,0.000431,0.000353
13829000,0.0324,0.013523,0.002678,0.000431,0.000470
13830000,0.0324,0.013523,0.002678,0.000431,0.000235
13831000,0.0324,0.013523,0.002678,0.000431,0.000235
13832000,0.0324,0.013523,0.002678,0.000431,0.000470
13833000,0.0324,0.013523,0.002678,0.000431,0.000353
13834000,0.0324,0.013523,0.002678,0.000431,0.000235
13835000,0.0324,0.013523,0.002678,0.000431,0.000353
13836000,0.0324,0.013523,0.002678,0.000431,0.000470
13837000,0.0324,0.013523,0.002678,0.000431,0.000118
13838000,0.0324,0.013523,0.002678,0.000431,0.000353
13839000,0.0324,0.013523,0.002678,0.000431,0.000470
13840000,0.0324,0.013523,0.002678,0.000431,0.000353
13841000,0.0324,0.013523,0.002678,0.000431,0.000235
13842000,0.0324,0.013523,0.002678,0.000431,0.000353
13843000,0.0324,0.013523,0.002678,0.000431,0.000470
13844000,0.0324,0.013523,0.002678,0.000431,0.000118
13845000,0.0324,0.013523,0.002678,0.000431,0.000353
13846000,0.0324,0.013523,0.002678,0.000431,0.000470
13847000,0.0324,0.013523,0.002678,0.000431,0.000353
13848000,0.0324,0.013523,0.002678,0.000431,0.000235
13849000,0.0324,0.013523,0.002678,0.000431,0.000353
13850000,0.0324,0.013523,0.002678,0.000431,0.000470
13851000,0.0324,0.013523,0.002678,0.000431,0.000118
13852000,0.0324,0.013523,0.002678,0.000431,0.000353
13853000,0.0324,0.013523,0.002678,0.000431,0.000470
13854000,0.0324,0.013523,0.002678,0.000431,0.000353
13855000,0.0324,0.013523,0.002678,0.000431,0.000235
13856000,0.0324,0.013523,0.002678,0.000431,0.000353
13857000,0.0324,0.013523,0.002678,0.000431,0.000470
13858000,0.0324,0.013523,0.002678,0.000431,0.000118
13859000,0.0324,0.013523,0.002678,0.000431,0.000353
13860000,0.0324,0.013523,0.002678,0.000431,0.000470
13861000,0.0324,0.013523,0.002678,0.000431,0.000353
13862000,0.0324,0.013523,0.002678,0.000431,0.000235
13863000,0.0324,0.013523,0.002678,0.000431,0.000353
13864000,0.0324,0.013523,0.002678,0.000431,0.000353
13865000,0.0324,0.013523,0.002678,0.000431,0.000235
13866000,0.0324,0.013523,0.002678,0.000431,0.000353
13867000,0.0324,0.013523,0.002678,0.000431,0.000470
13868000,0.0324,0.013523,0.002678,0.000431,0.000353
13869000,0.0324,0.013523,0.002678,0.000431,0.000235
13870000,0.0324,0.013523,0.002678,0.000431,0.000353
13871000,0.0324,0.013523,0.002678,0.000431,0.000353
13872000,0.0324,0.013523,0.002678,0.000431,0.000235
13873000,0.0324,0.013523,0.002678,0.000431,0.000353
13874000,0.0324,0.013523,0.002678,0.000431,0.000470
13875000,0.0324,0.013523,0.002678,0.000431,0.000353
13876000,0.0324,0.013523,0.002678,0.000431,0.000235
13877000,0.0324,0.013523,0.002678,0.000431,0.000353
13878000,0.0324,0.013523,0.002678,0.000431,0.000353
13879000,0.0324,0.013523,0.002678,0.000431,0.000235
13880000,0.0324,0.013523,0.002678,0.000431,0.000353
13881000,0.0324,0.013523,0.002678,0.000431,0.000470
13882000,0.0324,0.013523,0.002678,0.000431,0.000353
13883000,0.0324,0.013523,0.002678,0.000431,0.000235
13884000,0.0324,0.013523,0.002678,0.000431,0.000353
13885000,0.0324,0.013523,0.002678,0.000431,0.000353
13886000,0.0324,0.013523,0.002678,0.000431,0.000235
13887000,0.0324,0.013523,0.002678,0.000431,0.000353
13888000,0.0324,0.013523,0.002678,0.000431,0.000470
13889000,0.0324,0.013523,0.002678,0.000431,0.000353
13890000,0.0324,0.013523,0.002678,0.000431,0.000235
13891000,0.0324,0.013523,0.002678,0.000431,0.000353
13892000,0.0324,0.013523,0.002678,0.000431,0.000353
13893000,0.0324,0.013523,0.002678,0.000431,0.000235
13894000,0.0324,0.013523,0.002678,0.000431,0.000353
13895000,0.0324,0.013523,0.002678,0.000431,0.000470
13896000,0.0324,0.013523,0.002678,0.000431,0.000353
13897000,0.0324,0.013523,0.002678,0.000431,0.000235
13898000,0.0324,0.013523,0.002678,0.000431,0.000353
13899000,0.0324,0.013523,0.002678,0.000431,0.000353
13900000,0.0324,0.013523,0.002678,0.000431,0.000235
13901000,0.0324,0.013523,0.002678,0.000431,0.000353
13902000,0.0324,0.013523,0.002678,0.000431,0.000470
13903000,0.0324,0.013523,0.002678,0.000431,0.000353
13904000,0.0324,0.013523,0.002678,0.000431,0.000235
13905000,0.0324,0.013523,0.002678,0.000431,0.000353
13906000,0.0324,0.013523,0.002678,0.000431,0.000353
13907000,0.0324,0.013523,0.002678,0.000431,0.000235
13908000,0.0324,0.013523,0.002678,0.000431,0.000353
13909000,0.0324,0.013523,0.002678,0.000431,0.000470
13910000,0.0324,0.013523,0.002678,0.000431,0.000353
13911000,0.0324,0.013523,0.002678,0.000431,0.000118
13912000,0.0324,0.013523,0.002678,0.000431,0.000470
13913000,0.0324,0.013523,0.002678,0.000431,0.000353
13914000,0.0324,0.013523,0.002678,0.000431,0.000235
13915000,0.0324,0.013523,0.002678,0.000431,0.000353
13916000,0.0324,0.013523,0.002678,0.000431,0.000470
13917000,0.0324,0.013523,0.002678,0.000431,0.000353
13918000,0.0324,0.013523,0.002678,0.000431,0.000118
13919000,0.0324,0.013523,0.002678,0.000431,0.000470
13920000,0.0324,0.013523,0.002678,0.000431,0.000353
13921000,0.0324,0.013523,0.002678,0.000431,0.000235
13922000,0.0324,0.013523,0.002678,0.000431,0.000353
13923000,0.0324,0.013523,0.002678,0.000431,0.000470
13924000,0.0324,0.013523,0.002678,0.000431,0.000353
13925000,0.0324,0.013523,0.002678,0.000431,0.000118
13926000,0.0324,0.013523,0.002678,0.000431,0.000470
13927000,0.0324,0.013523,0.002678,0.000431,0.000353
13928000,0.0324,0.013523,0.002678,0.000431,0.000235
13929000,0.0324,0.013523,0.002678,0.000431,0.000353
13930000,0.0324,0.013523,0.002678,0.000431,0.000470
13931000,0.0324,0.013523,0.002678,0.000431,0.000353
13932000,0.0324,0.013523,0.002678,0.000431,0.000118
13933000,0.0324,0.013523,0.002678,0.000431,0.000470
13934000,0.0324,0.013523,0.002678,0.000431,0.000353
13935000,0.0324,0.013523,0.002678,0.000431,0.000235
13936000,0.0324,0.013523,0.002678,0.000431,0.000353
13937000,0.0324,0.013523,0.002678,0.000431,0.000470
13938000,0.0324,0.013523,0.002678,0.000431,0.000235
13939000,0.0324,0.013523,0.002678,0.000431,0.000235
13940000,0.0324,0.013523,0.002678,0.000431,0.000470
13941000,0.0324,0.013523,0.002678,0.000431,0.000353
13942000,0.0324,0.013523,0.002678,0.000431,0.000235
13943000,0.0324,0.013523,0.002678,0.000431,0.000353
13944000,0.0324,0.013523,0.002678,0.000431,0.000470
13945000,0.0324,0.013523,0.002678,0.000431,0.000235
13946000,0.0324,0.013523,0.002678,0.000431,0.000235
13947000,0.0324,0.013523,0.002678,0.000431,0.000470
13948000,0.0324,0.013523,0.002678,0.000431,0.000353
13949000,0.0324,0.013523,0.002678,0.000431,0.000235
13950000,0.0324,0.013523,0.002678,0.000431,0.000353
13951000,0.0324,0.013523,0.002678,0.000431,0.000470
13952000,0.0324,0.013523,0.002678,0.000431,0.000235
13953000,0.0324,0.013523,0.002678,0.000431,0.000235
13954000,0.0324,0.013523,0.002678,0.000431,0.000470
13955000,0.0324,0.013523,0.002678,0.000431,0.000353
13956000,0.0324,0.013523,0.002678,0.000431,0.000235
13957000,0.0324,0.013523,0.002678,0.000431,0.000353
13958000,0.0324,0.013523,0.002678,0.000431,0.000470
13959000,0.0324,0.013523,0.002678,0.000431,0.000235
13960000,0.0324,0.013523,0.002678,0.000431,0.000235
13961000,0.0324,0.013523,0.002678,0.000431,0.000470
13962000,0.0324,0.013523,0.002678,0.000431,0.000353
13963000,0.0324,0.013523,0.002678,0.000431,0.000235
13964000,0.0324,0.013523,0.002678,0.000431,0.000353
13965000,0.0324,0.013523,0.002678,0.000431,0.000470
13966000,0.0324,0.013523,0.002678,0.000431,0.000235
13967000,0.0324,0.013523,0.002678,0.000431,0.000235
13968000,0.0324,0.013523,0.002678,0.000431,0.000470
13969000,0.0324,0.013523,0.002678,0.000431,0.000353
13970000,0.0324,0.013523,0.002678,0.000431,0.000235
13971000,0.0324,0.013523,0.002678,0.000431,0.000353
13972000,0.0324,0.013523,0.002678,0.000431,0.000470
13973000,0.0324,0.013523,0.002678,0.000431,0.000235
13974000,0.0324,0.013523,0.002678,0.000431,0.000235
13975000,0.0324,0.013523,0.002678,0.000431,0.000470
13976000,0.0324,0.013523,0.002678,0.000431,0.000353
13977000,0.0324,0.013523,0.002678,0.000431,0.000235
13978000,0.0324,0.013523,0.002678,0.000431,0.000353
13979000,0.0324,0.013523,0.002678,0.000431,0.000470
13980000,0.0324,0.013523,0.002678,0.000431,0.000118
13981000,0.0324,0.013523,0.002678,0.000431,0.000353
13982000,0.0324,0.013523,0.002678,0.000431,0.000470
13983000,0.0324,0.013523,0.002678,0.000431,0.000353
13984000,0.0324,0.013523,0.002678,0.000431,0.000235
13985000,0.0324,0.013523,0.002678,0.000431,0.000353
13986000,0.0324,0.013523,0.002678,0.000431,0.000470
13987000,0.0324,0.013523,0.002678,0.000431,0.000118
13988000,0.0324,0.013523,0.002678,0.000431,0.000353
13989000,0.0324,0.013523,0.002678,0.000431,0.000470
13990000,0.0324,0.013523,0.002678,0.000431,0.000353
13991000,0.0324,0.013523,0.002678,0.000431,0.000235
13992000,0.0324,0.013523,0.002678,0.000431,0.000353
13993000,0.0324,0.013523,0.002678,0.000431,0.000470
13994000,0.0324,0.013523,0.002678,0.000431,0.000118
13995000,0.0324,0.013523,0.002678,0.000431,0.000353
13996000,0.0324,0.013523,0.002678,0.000431,0.000470
13997000,0.0324,0.013523,0.002678,0.000431,0.000353
13998000,0.0324,0.013523,0.002678,0.000431,0.000235
13999000,0.0324,0.013523,0.002678,0.000431,0.000353
