Cycle,Area(mm^2),PeakDynamic(W),SubthresholdLeakage(W),GateLeakage(W),RunTimeDynamic(W)
26000000,0.0324,0.013523,0.002678,0.000431,0.000235
26001000,0.0324,0.013523,0.002678,0.000431,0.000353
26002000,0.0324,0.013523,0.002678,0.000431,0.000470
26003000,0.0324,0.013523,0.002678,0.000431,0.000353
26004000,0.0324,0.013523,0.002678,0.000431,0.000118
26005000,0.0324,0.013523,0.002678,0.000431,0.000470
26006000,0.0324,0.013523,0.002678,0.000431,0.000353
26007000,0.0324,0.013523,0.002678,0.000431,0.000235
26008000,0.0324,0.013523,0.002678,0.000431,0.000353
26009000,0.0324,0.013523,0.002678,0.000431,0.000470
26010000,0.0324,0.013523,0.002678,0.000431,0.000353
26011000,0.0324,0.013523,0.002678,0.000431,0.000118
26012000,0.0324,0.013523,0.002678,0.000431,0.000470
26013000,0.0324,0.013523,0.002678,0.000431,0.000353
26014000,0.0324,0.013523,0.002678,0.000431,0.000235
26015000,0.0324,0.013523,0.002678,0.000431,0.000353
26016000,0.0324,0.013523,0.002678,0.000431,0.000470
26017000,0.0324,0.013523,0.002678,0.000431,0.000235
26018000,0.0324,0.013523,0.002678,0.000431,0.000235
26019000,0.0324,0.013523,0.002678,0.000431,0.000470
26020000,0.0324,0.013523,0.002678,0.000431,0.000353
26021000,0.0324,0.013523,0.002678,0.000431,0.000235
26022000,0.0324,0.013523,0.002678,0.000431,0.000353
26023000,0.0324,0.013523,0.002678,0.000431,0.000470
26024000,0.0324,0.013523,0.002678,0.000431,0.000118
26025000,0.0324,0.013523,0.002678,0.000431,0.000353
26026000,0.0324,0.013523,0.002678,0.000431,0.000470
26027000,0.0324,0.013523,0.002678,0.000431,0.000353
26028000,0.0324,0.013523,0.002678,0.000431,0.000235
26029000,0.0324,0.013523,0.002678,0.000431,0.000353
26030000,0.0324,0.013523,0.002678,0.000431,0.000353
26031000,0.0324,0.013523,0.002678,0.000431,0.000235
26032000,0.0324,0.013523,0.002678,0.000431,0.000353
26033000,0.0324,0.013523,0.002678,0.000431,0.000470
26034000,0.0324,0.013523,0.002678,0.000431,0.000353
26035000,0.0324,0.013523,0.002678,0.000431,0.000235
26036000,0.0324,0.013523,0.002678,0.000431,0.000353
26037000,0.0324,0.013523,0.002678,0.000431,0.000353
26038000,0.0324,0.013523,0.002678,0.000431,0.000235
26039000,0.0324,0.013523,0.002678,0.000431,0.000353
26040000,0.0324,0.013523,0.002678,0.000431,0.000470
26041000,0.0324,0.013523,0.002678,0.000431,0.000353
26042000,0.0324,0.013523,0.002678,0.000431,0.000235
26043000,0.0324,0.013523,0.002678,0.000431,0.000353
26044000,0.0324,0.013523,0.002678,0.000431,0.000353
26045000,0.0324,0.013523,0.002678,0.000431,0.000235
26046000,0.0324,0.013523,0.002678,0.000431,0.000353
26047000,0.0324,0.013523,0.002678,0.000431,0.000470
26048000,0.0324,0.013523,0.002678,0.000431,0.000353
26049000,0.0324,0.013523,0.002678,0.000431,0.000118
26050000,0.0324,0.013523,0.002678,0.000431,0.000470
26051000,0.0324,0.013523,0.002678,0.000431,0.000353
26052000,0.0324,0.013523,0.002678,0.000431,0.000235
26053000,0.0324,0.013523,0.002678,0.000431,0.000353
26054000,0.0324,0.013523,0.002678,0.000431,0.000470
26055000,0.0324,0.013523,0.002678,0.000431,0.000353
26056000,0.0324,0.013523,0.002678,0.000431,0.000118
26057000,0.0324,0.013523,0.002678,0.000431,0.000470
26058000,0.0324,0.013523,0.002678,0.000431,0.000353
26059000,0.0324,0.013523,0.002678,0.000431,0.000235
26060000,0.0324,0.013523,0.002678,0.000431,0.000353
26061000,0.0324,0.013523,0.002678,0.000431,0.000470
26062000,0.0324,0.013523,0.002678,0.000431,0.000353
26063000,0.0324,0.013523,0.002678,0.000431,0.000118
26064000,0.0324,0.013523,0.002678,0.000431,0.000470
26065000,0.0324,0.013523,0.002678,0.000431,0.000353
26066000,0.0324,0.013523,0.002678,0.000431,0.000235
26067000,0.0324,0.013523,0.002678,0.000431,0.000353
26068000,0.0324,0.013523,0.002678,0.000431,0.000470
26069000,0.0324,0.013523,0.002678,0.000431,0.000235
26070000,0.0324,0.013523,0.002678,0.000431,0.000235
26071000,0.0324,0.013523,0.002678,0.000431,0.000470
26072000,0.0324,0.013523,0.002678,0.000431,0.000353
26073000,0.0324,0.013523,0.002678,0.000431,0.000235
26074000,0.0324,0.013523,0.002678,0.000431,0.000353
26075000,0.0324,0.013523,0.002678,0.000431,0.000470
26076000,0.0324,0.013523,0.002678,0.000431,0.000235
26077000,0.0324,0.013523,0.002678,0.000431,0.000235
26078000,0.0324,0.013523,0.002678,0.000431,0.000470
26079000,0.0324,0.013523,0.002678,0.000431,0.000353
26080000,0.0324,0.013523,0.002678,0.000431,0.000235
26081000,0.0324,0.013523,0.002678,0.000431,0.000353
26082000,0.0324,0.013523,0.002678,0.000431,0.000470
26083000,0.0324,0.013523,0.002678,0.000431,0.000235
26084000,0.0324,0.013523,0.002678,0.000431,0.000235
26085000,0.0324,0.013523,0.002678,0.000431,0.000470
26086000,0.0324,0.013523,0.002678,0.000431,0.000353
26087000,0.0324,0.013523,0.002678,0.000431,0.000235
26088000,0.0324,0.013523,0.002678,0.000431,0.000353
26089000,0.0324,0.013523,0.002678,0.000431,0.000470
26090000,0.0324,0.013523,0.002678,0.000431,0.000235
26091000,0.0324,0.013523,0.002678,0.000431,0.000235
26092000,0.0324,0.013523,0.002678,0.000431,0.000470
26093000,0.0324,0.013523,0.002678,0.000431,0.000353
26094000,0.0324,0.013523,0.002678,0.000431,0.000235
26095000,0.0324,0.013523,0.002678,0.000431,0.000353
26096000,0.0324,0.013523,0.002678,0.000431,0.000470
26097000,0.0324,0.013523,0.002678,0.000431,0.000235
26098000,0.0324,0.013523,0.002678,0.000431,0.000235
26099000,0.0324,0.013523,0.002678,0.000431,0.000470
26100000,0.0324,0.013523,0.002678,0.000431,0.000353
26101000,0.0324,0.013523,0.002678,0.000431,0.000235
26102000,0.0324,0.013523,0.002678,0.000431,0.000353
26103000,0.0324,0.013523,0.002678,0.000431,0.000470
26104000,0.0324,0.013523,0.002678,0.000431,0.000235
26105000,0.0324,0.013523,0.002678,0.000431,0.000235
26106000,0.0324,0.013523,0.002678,0.000431,0.000470
26107000,0.0324,0.013523,0.002678,0.000431,0.000353
26108000,0.0324,0.013523,0.002678,0.000431,0.000235
26109000,0.0324,0.013523,0.002678,0.000431,0.000353
26110000,0.0324,0.013523,0.002678,0.000431,0.000470
26111000,0.0324,0.013523,0.002678,0.000431,0.000118
26112000,0.0324,0.013523,0.002678,0.000431,0.000353
26113000,0.0324,0.013523,0.002678,0.000431,0.000470
26114000,0.0324,0.013523,0.002678,0.000431,0.000353
26115000,0.0324,0.013523,0.002678,0.000431,0.000235
26116000,0.0324,0.013523,0.002678,0.000431,0.000353
26117000,0.0324,0.013523,0.002678,0.000431,0.000470
26118000,0.0324,0.013523,0.002678,0.000431,0.000118
26119000,0.0324,0.013523,0.002678,0.000431,0.000353
26120000,0.0324,0.013523,0.002678,0.000431,0.000470
26121000,0.0324,0.013523,0.002678,0.000431,0.000353
26122000,0.0324,0.013523,0.002678,0.000431,0.000235
26123000,0.0324,0.013523,0.002678,0.000431,0.000353
26124000,0.0324,0.013523,0.002678,0.000431,0.000470
26125000,0.0324,0.013523,0.002678,0.000431,0.000118
26126000,0.0324,0.013523,0.002678,0.000431,0.000353
26127000,0.0324,0.013523,0.002678,0.000431,0.000470
26128000,0.0324,0.013523,0.002678,0.000431,0.000353
26129000,0.0324,0.013523,0.002678,0.000431,0.000235
26130000,0.0324,0.013523,0.002678,0.000431,0.000353
26131000,0.0324,0.013523,0.002678,0.000431,0.000353
26132000,0.0324,0.013523,0.002678,0.000431,0.000235
26133000,0.0324,0.013523,0.002678,0.000431,0.000353
26134000,0.0324,0.013523,0.002678,0.000431,0.000470
26135000,0.0324,0.013523,0.002678,0.000431,0.000353
26136000,0.0324,0.013523,0.002678,0.000431,0.000235
26137000,0.0324,0.013523,0.002678,0.000431,0.000353
26138000,0.0324,0.013523,0.002678,0.000431,0.000353
26139000,0.0324,0.013523,0.002678,0.000431,0.000235
26140000,0.0324,0.013523,0.002678,0.000431,0.000353
26141000,0.0324,0.013523,0.002678,0.000431,0.000470
26142000,0.0324,0.013523,0.002678,0.000431,0.000353
26143000,0.0324,0.013523,0.002678,0.000431,0.000235
26144000,0.0324,0.013523,0.002678,0.000431,0.000353
26145000,0.0324,0.013523,0.002678,0.000431,0.000353
26146000,0.0324,0.013523,0.002678,0.000431,0.000235
26147000,0.0324,0.013523,0.002678,0.000431,0.000353
26148000,0.0324,0.013523,0.002678,0.000431,0.000470
26149000,0.0324,0.013523,0.002678,0.000431,0.000353
26150000,0.0324,0.013523,0.002678,0.000431,0.000235
26151000,0.0324,0.013523,0.002678,0.000431,0.000353
26152000,0.0324,0.013523,0.002678,0.000431,0.000353
26153000,0.0324,0.013523,0.002678,0.000431,0.000235
26154000,0.0324,0.013523,0.002678,0.000431,0.000353
26155000,0.0324,0.013523,0.002678,0.000431,0.000470
26156000,0.0324,0.013523,0.002678,0.000431,0.000353
26157000,0.0324,0.013523,0.002678,0.000431,0.000235
26158000,0.0324,0.013523,0.002678,0.000431,0.000353
26159000,0.0324,0.013523,0.002678,0.000431,0.000353
26160000,0.0324,0.013523,0.002678,0.000431,0.000235
26161000,0.0324,0.013523,0.002678,0.000431,0.000353
26162000,0.0324,0.013523,0.002678,0.000431,0.000470
26163000,0.0324,0.013523,0.002678,0.000431,0.000353
26164000,0.0324,0.013523,0.002678,0.000431,0.000235
26165000,0.0324,0.013523,0.002678,0.000431,0.000353
26166000,0.0324,0.013523,0.002678,0.000431,0.000353
26167000,0.0324,0.013523,0.002678,0.000431,0.000235
26168000,0.0324,0.013523,0.002678,0.000431,0.000353
26169000,0.0324,0.013523,0.002678,0.000431,0.000470
26170000,0.0324,0.013523,0.002678,0.000431,0.000353
26171000,0.0324,0.013523,0.002678,0.000431,0.000235
26172000,0.0324,0.013523,0.002678,0.000431,0.000353
26173000,0.0324,0.013523,0.002678,0.000431,0.000353
26174000,0.0324,0.013523,0.002678,0.000431,0.000235
26175000,0.0324,0.013523,0.002678,0.000431,0.000353
26176000,0.0324,0.013523,0.002678,0.000431,0.000470
26177000,0.0324,0.013523,0.002678,0.000431,0.000353
26178000,0.0324,0.013523,0.002678,0.000431,0.000235
26179000,0.0324,0.013523,0.002678,0.000431,0.000353
26180000,0.0324,0.013523,0.002678,0.000431,0.000353
26181000,0.0324,0.013523,0.002678,0.000431,0.000235
26182000,0.0324,0.013523,0.002678,0.000431,0.000353
26183000,0.0324,0.013523,0.002678,0.000431,0.000470
26184000,0.0324,0.013523,0.002678,0.000431,0.000353
26185000,0.0324,0.013523,0.002678,0.000431,0.000118
26186000,0.0324,0.013523,0.002678,0.000431,0.000470
26187000,0.0324,0.013523,0.002678,0.000431,0.000353
26188000,0.0324,0.013523,0.002678,0.000431,0.000235
26189000,0.0324,0.013523,0.002678,0.000431,0.000353
26190000,0.0324,0.013523,0.002678,0.000431,0.000470
26191000,0.0324,0.013523,0.002678,0.000431,0.000353
26192000,0.0324,0.013523,0.002678,0.000431,0.000118
26193000,0.0324,0.013523,0.002678,0.000431,0.000470
26194000,0.0324,0.013523,0.002678,0.000431,0.000353
26195000,0.0324,0.013523,0.002678,0.000431,0.000235
26196000,0.0324,0.013523,0.002678,0.000431,0.000353
26197000,0.0324,0.013523,0.002678,0.000431,0.000470
26198000,0.0324,0.013523,0.002678,0.000431,0.000353
26199000,0.0324,0.013523,0.002678,0.000431,0.000118
26200000,0.0324,0.013523,0.002678,0.000431,0.000470
26201000,0.0324,0.013523,0.002678,0.000431,0.000353
26202000,0.0324,0.013523,0.002678,0.000431,0.000235
26203000,0.0324,0.013523,0.002678,0.000431,0.000353
26204000,0.0324,0.013523,0.002678,0.000431,0.000470
26205000,0.0324,0.013523,0.002678,0.000431,0.000235
26206000,0.0324,0.013523,0.002678,0.000431,0.000235
26207000,0.0324,0.013523,0.002678,0.000431,0.000470
26208000,0.0324,0.013523,0.002678,0.000431,0.000353
26209000,0.0324,0.013523,0.002678,0.000431,0.000235
26210000,0.0324,0.013523,0.002678,0.000431,0.000353
26211000,0.0324,0.013523,0.002678,0.000431,0.000470
26212000,0.0324,0.013523,0.002678,0.000431,0.000235
26213000,0.0324,0.013523,0.002678,0.000431,0.000235
26214000,0.0324,0.013523,0.002678,0.000431,0.000470
26215000,0.0324,0.013523,0.002678,0.000431,0.000353
26216000,0.0324,0.013523,0.002678,0.000431,0.000235
26217000,0.0324,0.013523,0.002678,0.000431,0.000353
26218000,0.0324,0.013523,0.002678,0.000431,0.000470
26219000,0.0324,0.013523,0.002678,0.000431,0.000235
26220000,0.0324,0.013523,0.002678,0.000431,0.000235
26221000,0.0324,0.013523,0.002678,0.000431,0.000470
26222000,0.0324,0.013523,0.002678,0.000431,0.000353
26223000,0.0324,0.013523,0.002678,0.000431,0.000235
26224000,0.0324,0.013523,0.002678,0.000431,0.000353
26225000,0.0324,0.013523,0.002678,0.000431,0.000470
26226000,0.0324,0.013523,0.002678,0.000431,0.000235
26227000,0.0324,0.013523,0.002678,0.000431,0.000235
26228000,0.0324,0.013523,0.002678,0.000431,0.000470
26229000,0.0324,0.013523,0.002678,0.000431,0.000353
26230000,0.0324,0.013523,0.002678,0.000431,0.000235
26231000,0.0324,0.013523,0.002678,0.000431,0.000353
26232000,0.0324,0.013523,0.002678,0.000431,0.000470
26233000,0.0324,0.013523,0.002678,0.000431,0.000235
26234000,0.0324,0.013523,0.002678,0.000431,0.000235
26235000,0.0324,0.013523,0.002678,0.000431,0.000470
26236000,0.0324,0.013523,0.002678,0.000431,0.000353
26237000,0.0324,0.013523,0.002678,0.000431,0.000235
26238000,0.0324,0.013523,0.002678,0.000431,0.000353
26239000,0.0324,0.013523,0.002678,0.000431,0.000470
26240000,0.0324,0.013523,0.002678,0.000431,0.000235
26241000,0.0324,0.013523,0.002678,0.000431,0.000235
26242000,0.0324,0.013523,0.002678,0.000431,0.000470
26243000,0.0324,0.013523,0.002678,0.000431,0.000353
26244000,0.0324,0.013523,0.002678,0.000431,0.000235
26245000,0.0324,0.013523,0.002678,0.000431,0.000353
26246000,0.0324,0.013523,0.002678,0.000431,0.000470
26247000,0.0324,0.013523,0.002678,0.000431,0.000118
26248000,0.0324,0.013523,0.002678,0.000431,0.000353
26249000,0.0324,0.013523,0.002678,0.000431,0.000470
26250000,0.0324,0.013523,0.002678,0.000431,0.000353
26251000,0.0324,0.013523,0.002678,0.000431,0.000235
26252000,0.0324,0.013523,0.002678,0.000431,0.000353
26253000,0.0324,0.013523,0.002678,0.000431,0.000470
26254000,0.0324,0.013523,0.002678,0.000431,0.000118
26255000,0.0324,0.013523,0.002678,0.000431,0.000353
26256000,0.0324,0.013523,0.002678,0.000431,0.000470
26257000,0.0324,0.013523,0.002678,0.000431,0.000353
26258000,0.0324,0.013523,0.002678,0.000431,0.000235
26259000,0.0324,0.013523,0.002678,0.000431,0.000353
26260000,0.0324,0.013523,0.002678,0.000431,0.000470
26261000,0.0324,0.013523,0.002678,0.000431,0.000118
26262000,0.0324,0.013523,0.002678,0.000431,0.000353
26263000,0.0324,0.013523,0.002678,0.000431,0.000470
26264000,0.0324,0.013523,0.002678,0.000431,0.000353
26265000,0.0324,0.013523,0.002678,0.000431,0.000235
26266000,0.0324,0.013523,0.002678,0.000431,0.000353
26267000,0.0324,0.013523,0.002678,0.000431,0.000470
26268000,0.0324,0.013523,0.002678,0.000431,0.000118
26269000,0.0324,0.013523,0.002678,0.000431,0.000353
26270000,0.0324,0.013523,0.002678,0.000431,0.000470
26271000,0.0324,0.013523,0.002678,0.000431,0.000353
26272000,0.0324,0.013523,0.002678,0.000431,0.000235
26273000,0.0324,0.013523,0.002678,0.000431,0.000353
26274000,0.0324,0.013523,0.002678,0.000431,0.000353
26275000,0.0324,0.013523,0.002678,0.000431,0.000235
26276000,0.0324,0.013523,0.002678,0.000431,0.000353
26277000,0.0324,0.013523,0.002678,0.000431,0.000470
26278000,0.0324,0.013523,0.002678,0.000431,0.000353
26279000,0.0324,0.013523,0.002678,0.000431,0.000235
26280000,0.0324,0.013523,0.002678,0.000431,0.000353
26281000,0.0324,0.013523,0.002678,0.000431,0.000353
26282000,0.0324,0.013523,0.002678,0.000431,0.000235
26283000,0.0324,0.013523,0.002678,0.000431,0.000353
26284000,0.0324,0.013523,0.002678,0.000431,0.000470
26285000,0.0324,0.013523,0.002678,0.000431,0.000353
26286000,0.0324,0.013523,0.002678,0.000431,0.000235
26287000,0.0324,0.013523,0.002678,0.000431,0.000353
26288000,0.0324,0.013523,0.002678,0.000431,0.000353
26289000,0.0324,0.013523,0.002678,0.000431,0.000235
26290000,0.0324,0.013523,0.002678,0.000431,0.000353
26291000,0.0324,0.013523,0.002678,0.000431,0.000470
26292000,0.0324,0.013523,0.002678,0.000431,0.000353
26293000,0.0324,0.013523,0.002678,0.000431,0.000235
26294000,0.0324,0.013523,0.002678,0.000431,0.000353
26295000,0.0324,0.013523,0.002678,0.000431,0.000353
26296000,0.0324,0.013523,0.002678,0.000431,0.000235
26297000,0.0324,0.013523,0.002678,0.000431,0.000353
26298000,0.0324,0.013523,0.002678,0.000431,0.000470
26299000,0.0324,0.013523,0.002678,0.000431,0.000353
26300000,0.0324,0.013523,0.002678,0.000431,0.000235
26301000,0.0324,0.013523,0.002678,0.000431,0.000353
26302000,0.0324,0.013523,0.002678,0.000431,0.000353
26303000,0.0324,0.013523,0.002678,0.000431,0.000235
26304000,0.0324,0.013523,0.002678,0.000431,0.000353
26305000,0.0324,0.013523,0.002678,0.000431,0.000470
26306000,0.0324,0.013523,0.002678,0.000431,0.000353
26307000,0.0324,0.013523,0.002678,0.000431,0.000235
26308000,0.0324,0.013523,0.002678,0.000431,0.000353
26309000,0.0324,0.013523,0.002678,0.000431,0.000353
26310000,0.0324,0.013523,0.002678,0.000431,0.000235
26311000,0.0324,0.013523,0.002678,0.000431,0.000353
26312000,0.0324,0.013523,0.002678,0.000431,0.000470
26313000,0.0324,0.013523,0.002678,0.000431,0.000353
26314000,0.0324,0.013523,0.002678,0.000431,0.000235
26315000,0.0324,0.013523,0.002678,0.000431,0.000353
26316000,0.0324,0.013523,0.002678,0.000431,0.000353
26317000,0.0324,0.013523,0.002678,0.000431,0.000235
26318000,0.0324,0.013523,0.002678,0.000431,0.000353
26319000,0.0324,0.013523,0.002678,0.000431,0.000470
26320000,0.0324,0.013523,0.002678,0.000431,0.000353
26321000,0.0324,0.013523,0.002678,0.000431,0.000118
26322000,0.0324,0.013523,0.002678,0.000431,0.000470
26323000,0.0324,0.013523,0.002678,0.000431,0.000353
26324000,0.0324,0.013523,0.002678,0.000431,0.000235
26325000,0.0324,0.013523,0.002678,0.000431,0.000353
26326000,0.0324,0.013523,0.002678,0.000431,0.000470
26327000,0.0324,0.013523,0.002678,0.000431,0.000353
26328000,0.0324,0.013523,0.002678,0.000431,0.000118
26329000,0.0324,0.013523,0.002678,0.000431,0.000470
26330000,0.0324,0.013523,0.002678,0.000431,0.000353
26331000,0.0324,0.013523,0.002678,0.000431,0.000235
26332000,0.0324,0.013523,0.002678,0.000431,0.000353
26333000,0.0324,0.013523,0.002678,0.000431,0.000470
26334000,0.0324,0.013523,0.002678,0.000431,0.000353
26335000,0.0324,0.013523,0.002678,0.000431,0.000118
26336000,0.0324,0.013523,0.002678,0.000431,0.000470
26337000,0.0324,0.013523,0.002678,0.000431,0.000353
26338000,0.0324,0.013523,0.002678,0.000431,0.000235
26339000,0.0324,0.013523,0.002678,0.000431,0.000353
26340000,0.0324,0.013523,0.002678,0.000431,0.000470
26341000,0.0324,0.013523,0.002678,0.000431,0.000353
26342000,0.0324,0.013523,0.002678,0.000431,0.000118
26343000,0.0324,0.013523,0.002678,0.000431,0.000470
26344000,0.0324,0.013523,0.002678,0.000431,0.000353
26345000,0.0324,0.013523,0.002678,0.000431,0.000235
26346000,0.0324,0.013523,0.002678,0.000431,0.000353
26347000,0.0324,0.013523,0.002678,0.000431,0.000470
26348000,0.0324,0.013523,0.002678,0.000431,0.000235
26349000,0.0324,0.013523,0.002678,0.000431,0.000235
26350000,0.0324,0.013523,0.002678,0.000431,0.000470
26351000,0.0324,0.013523,0.002678,0.000431,0.000353
26352000,0.0324,0.013523,0.002678,0.000431,0.000235
26353000,0.0324,0.013523,0.002678,0.000431,0.000353
26354000,0.0324,0.013523,0.002678,0.000431,0.000470
26355000,0.0324,0.013523,0.002678,0.000431,0.000235
26356000,0.0324,0.013523,0.002678,0.000431,0.000235
26357000,0.0324,0.013523,0.002678,0.000431,0.000470
26358000,0.0324,0.013523,0.002678,0.000431,0.000353
26359000,0.0324,0.013523,0.002678,0.000431,0.000235
26360000,0.0324,0.013523,0.002678,0.000431,0.000353
26361000,0.0324,0.013523,0.002678,0.000431,0.000470
26362000,0.0324,0.013523,0.002678,0.000431,0.000235
26363000,0.0324,0.013523,0.002678,0.000431,0.000235
26364000,0.0324,0.013523,0.002678,0.000431,0.000470
26365000,0.0324,0.013523,0.002678,0.000431,0.000353
26366000,0.0324,0.013523,0.002678,0.000431,0.000235
26367000,0.0324,0.013523,0.002678,0.000431,0.000353
26368000,0.0324,0.013523,0.002678,0.000431,0.000470
26369000,0.0324,0.013523,0.002678,0.000431,0.000235
26370000,0.0324,0.013523,0.002678,0.000431,0.000235
26371000,0.0324,0.013523,0.002678,0.000431,0.000470
26372000,0.0324,0.013523,0.002678,0.000431,0.000353
26373000,0.0324,0.013523,0.002678,0.000431,0.000235
26374000,0.0324,0.013523,0.002678,0.000431,0.000353
26375000,0.0324,0.013523,0.002678,0.000431,0.000470
26376000,0.0324,0.013523,0.002678,0.000431,0.000235
26377000,0.0324,0.013523,0.002678,0.000431,0.000235
26378000,0.0324,0.013523,0.002678,0.000431,0.000470
26379000,0.0324,0.013523,0.002678,0.000431,0.000353
26380000,0.0324,0.013523,0.002678,0.000431,0.000235
26381000,0.0324,0.013523,0.002678,0.000431,0.000353
26382000,0.0324,0.013523,0.002678,0.000431,0.000470
26383000,0.0324,0.013523,0.002678,0.000431,0.000235
26384000,0.0324,0.013523,0.002678,0.000431,0.000235
26385000,0.0324,0.013523,0.002678,0.000431,0.000470
26386000,0.0324,0.013523,0.002678,0.000431,0.000353
26387000,0.0324,0.013523,0.002678,0.000431,0.000235
26388000,0.0324,0.013523,0.002678,0.000431,0.000353
26389000,0.0324,0.013523,0.002678,0.000431,0.000470
26390000,0.0324,0.013523,0.002678,0.000431,0.000118
26391000,0.0324,0.013523,0.002678,0.000431,0.000353
26392000,0.0324,0.013523,0.002678,0.000431,0.000470
26393000,0.0324,0.013523,0.002678,0.000431,0.000353
26394000,0.0324,0.013523,0.002678,0.000431,0.000235
26395000,0.0324,0.013523,0.002678,0.000431,0.000353
26396000,0.0324,0.013523,0.002678,0.000431,0.000470
26397000,0.0324,0.013523,0.002678,0.000431,0.000118
26398000,0.0324,0.013523,0.002678,0.000431,0.000353
26399000,0.0324,0.013523,0.002678,0.000431,0.000470
26400000,0.0324,0.013523,0.002678,0.000431,0.000353
26401000,0.0324,0.013523,0.002678,0.000431,0.000235
26402000,0.0324,0.013523,0.002678,0.000431,0.000353
26403000,0.0324,0.013523,0.002678,0.000431,0.000470
26404000,0.0324,0.013523,0.002678,0.000431,0.000118
26405000,0.0324,0.013523,0.002678,0.000431,0.000353
26406000,0.0324,0.013523,0.002678,0.000431,0.000470
26407000,0.0324,0.013523,0.002678,0.000431,0.000353
26408000,0.0324,0.013523,0.002678,0.000431,0.000235
26409000,0.0324,0.013523,0.002678,0.000431,0.000353
26410000,0.0324,0.013523,0.002678,0.000431,0.000353
26411000,0.0324,0.013523,0.002678,0.000431,0.000235
26412000,0.0324,0.013523,0.002678,0.000431,0.000353
26413000,0.0324,0.013523,0.002678,0.000431,0.000470
26414000,0.0324,0.013523,0.002678,0.000431,0.000353
26415000,0.0324,0.013523,0.002678,0.000431,0.000235
26416000,0.0324,0.013523,0.002678,0.000431,0.000353
26417000,0.0324,0.013523,0.002678,0.000431,0.000353
26418000,0.0324,0.013523,0.002678,0.000431,0.000235
26419000,0.0324,0.013523,0.002678,0.000431,0.000353
26420000,0.0324,0.013523,0.002678,0.000431,0.000470
26421000,0.0324,0.013523,0.002678,0.000431,0.000353
26422000,0.0324,0.013523,0.002678,0.000431,0.000235
26423000,0.0324,0.013523,0.002678,0.000431,0.000353
26424000,0.0324,0.013523,0.002678,0.000431,0.000353
26425000,0.0324,0.013523,0.002678,0.000431,0.000235
26426000,0.0324,0.013523,0.002678,0.000431,0.000353
26427000,0.0324,0.013523,0.002678,0.000431,0.000470
26428000,0.0324,0.013523,0.002678,0.000431,0.000353
26429000,0.0324,0.013523,0.002678,0.000431,0.000235
26430000,0.0324,0.013523,0.002678,0.000431,0.000353
26431000,0.0324,0.013523,0.002678,0.000431,0.000353
26432000,0.0324,0.013523,0.002678,0.000431,0.000235
26433000,0.0324,0.013523,0.002678,0.000431,0.000353
26434000,0.0324,0.013523,0.002678,0.000431,0.000470
26435000,0.0324,0.013523,0.002678,0.000431,0.000353
26436000,0.0324,0.013523,0.002678,0.000431,0.000235
26437000,0.0324,0.013523,0.002678,0.000431,0.000353
26438000,0.0324,0.013523,0.002678,0.000431,0.000353
26439000,0.0324,0.013523,0.002678,0.000431,0.000235
26440000,0.0324,0.013523,0.002678,0.000431,0.000353
26441000,0.0324,0.013523,0.002678,0.000431,0.000470
26442000,0.0324,0.013523,0.002678,0.000431,0.000353
26443000,0.0324,0.013523,0.002678,0.000431,0.000235
26444000,0.0324,0.013523,0.002678,0.000431,0.000353
26445000,0.0324,0.013523,0.002678,0.000431,0.000353
26446000,0.0324,0.013523,0.002678,0.000431,0.000235
26447000,0.0324,0.013523,0.002678,0.000431,0.000353
26448000,0.0324,0.013523,0.002678,0.000431,0.000470
26449000,0.0324,0.013523,0.002678,0.000431,0.000353
26450000,0.0324,0.013523,0.002678,0.000431,0.000235
26451000,0.0324,0.013523,0.002678,0.000431,0.000353
26452000,0.0324,0.013523,0.002678,0.000431,0.000353
26453000,0.0324,0.013523,0.002678,0.000431,0.000235
26454000,0.0324,0.013523,0.002678,0.000431,0.000353
26455000,0.0324,0.013523,0.002678,0.000431,0.000470
26456000,0.0324,0.013523,0.002678,0.000431,0.000353
26457000,0.0324,0.013523,0.002678,0.000431,0.000235
26458000,0.0324,0.013523,0.002678,0.000431,0.000353
26459000,0.0324,0.013523,0.002678,0.000431,0.000353
26460000,0.0324,0.013523,0.002678,0.000431,0.000235
26461000,0.0324,0.013523,0.002678,0.000431,0.000353
26462000,0.0324,0.013523,0.002678,0.000431,0.000470
26463000,0.0324,0.013523,0.002678,0.000431,0.000353
26464000,0.0324,0.013523,0.002678,0.000431,0.000118
26465000,0.0324,0.013523,0.002678,0.000431,0.000470
26466000,0.0324,0.013523,0.002678,0.000431,0.000353
26467000,0.0324,0.013523,0.002678,0.000431,0.000235
26468000,0.0324,0.013523,0.002678,0.000431,0.000353
26469000,0.0324,0.013523,0.002678,0.000431,0.000470
26470000,0.0324,0.013523,0.002678,0.000431,0.000353
26471000,0.0324,0.013523,0.002678,0.000431,0.000118
26472000,0.0324,0.013523,0.002678,0.000431,0.000470
26473000,0.0324,0.013523,0.002678,0.000431,0.000353
26474000,0.0324,0.013523,0.002678,0.000431,0.000235
26475000,0.0324,0.013523,0.002678,0.000431,0.000353
26476000,0.0324,0.013523,0.002678,0.000431,0.000470
26477000,0.0324,0.013523,0.002678,0.000431,0.000353
26478000,0.0324,0.013523,0.002678,0.000431,0.000118
26479000,0.0324,0.013523,0.002678,0.000431,0.000470
26480000,0.0324,0.013523,0.002678,0.000431,0.000353
26481000,0.0324,0.013523,0.002678,0.000431,0.000235
26482000,0.0324,0.013523,0.002678,0.000431,0.000353
26483000,0.0324,0.013523,0.002678,0.000431,0.000470
26484000,0.0324,0.013523,0.002678,0.000431,0.000235
26485000,0.0324,0.013523,0.002678,0.000431,0.000235
26486000,0.0324,0.013523,0.002678,0.000431,0.000470
26487000,0.0324,0.013523,0.002678,0.000431,0.000353
26488000,0.0324,0.013523,0.002678,0.000431,0.000235
26489000,0.0324,0.013523,0.002678,0.000431,0.000353
26490000,0.0324,0.013523,0.002678,0.000431,0.000470
26491000,0.0324,0.013523,0.002678,0.000431,0.000235
26492000,0.0324,0.013523,0.002678,0.000431,0.000235
26493000,0.0324,0.013523,0.002678,0.000431,0.000470
26494000,0.0324,0.013523,0.002678,0.000431,0.000353
26495000,0.0324,0.013523,0.002678,0.000431,0.000235
26496000,0.0324,0.013523,0.002678,0.000431,0.000353
26497000,0.0324,0.013523,0.002678,0.000431,0.000470
26498000,0.0324,0.013523,0.002678,0.000431,0.000235
26499000,0.0324,0.013523,0.002678,0.000431,0.000235
26500000,0.0324,0.013523,0.002678,0.000431,0.000470
26501000,0.0324,0.013523,0.002678,0.000431,0.000353
26502000,0.0324,0.013523,0.002678,0.000431,0.000235
26503000,0.0324,0.013523,0.002678,0.000431,0.000353
26504000,0.0324,0.013523,0.002678,0.000431,0.000470
26505000,0.0324,0.013523,0.002678,0.000431,0.000235
26506000,0.0324,0.013523,0.002678,0.000431,0.000235
26507000,0.0324,0.013523,0.002678,0.000431,0.000470
26508000,0.0324,0.013523,0.002678,0.000431,0.000353
26509000,0.0324,0.013523,0.002678,0.000431,0.000235
26510000,0.0324,0.013523,0.002678,0.000431,0.000353
26511000,0.0324,0.013523,0.002678,0.000431,0.000470
26512000,0.0324,0.013523,0.002678,0.000431,0.000235
26513000,0.0324,0.013523,0.002678,0.000431,0.000235
26514000,0.0324,0.013523,0.002678,0.000431,0.000470
26515000,0.0324,0.013523,0.002678,0.000431,0.000353
26516000,0.0324,0.013523,0.002678,0.000431,0.000235
26517000,0.0324,0.013523,0.002678,0.000431,0.000353
26518000,0.0324,0.013523,0.002678,0.000431,0.000470
26519000,0.0324,0.013523,0.002678,0.000431,0.000235
26520000,0.0324,0.013523,0.002678,0.000431,0.000235
26521000,0.0324,0.013523,0.002678,0.000431,0.000470
26522000,0.0324,0.013523,0.002678,0.000431,0.000353
26523000,0.0324,0.013523,0.002678,0.000431,0.000235
26524000,0.0324,0.013523,0.002678,0.000431,0.000353
26525000,0.0324,0.013523,0.002678,0.000431,0.000470
26526000,0.0324,0.013523,0.002678,0.000431,0.000118
26527000,0.0324,0.013523,0.002678,0.000431,0.000353
26528000,0.0324,0.013523,0.002678,0.000431,0.000470
26529000,0.0324,0.013523,0.002678,0.000431,0.000353
26530000,0.0324,0.013523,0.002678,0.000431,0.000235
26531000,0.0324,0.013523,0.002678,0.000431,0.000353
26532000,0.0324,0.013523,0.002678,0.000431,0.000470
26533000,0.0324,0.013523,0.002678,0.000431,0.000118
26534000,0.0324,0.013523,0.002678,0.000431,0.000353
26535000,0.0324,0.013523,0.002678,0.000431,0.000470
26536000,0.0324,0.013523,0.002678,0.000431,0.000353
26537000,0.0324,0.013523,0.002678,0.000431,0.000235
26538000,0.0324,0.013523,0.002678,0.000431,0.000353
26539000,0.0324,0.013523,0.002678,0.000431,0.000470
26540000,0.0324,0.013523,0.002678,0.000431,0.000118
26541000,0.0324,0.013523,0.002678,0.000431,0.000353
26542000,0.0324,0.013523,0.002678,0.000431,0.000470
26543000,0.0324,0.013523,0.002678,0.000431,0.000353
26544000,0.0324,0.013523,0.002678,0.000431,0.000235
26545000,0.0324,0.013523,0.002678,0.000431,0.000353
26546000,0.0324,0.013523,0.002678,0.000431,0.000470
26547000,0.0324,0.013523,0.002678,0.000431,0.000118
26548000,0.0324,0.013523,0.002678,0.000431,0.000353
26549000,0.0324,0.013523,0.002678,0.000431,0.000470
26550000,0.0324,0.013523,0.002678,0.000431,0.000353
26551000,0.0324,0.013523,0.002678,0.000431,0.000235
26552000,0.0324,0.013523,0.002678,0.000431,0.000353
26553000,0.0324,0.013523,0.002678,0.000431,0.000353
26554000,0.0324,0.013523,0.002678,0.000431,0.000235
26555000,0.0324,0.013523,0.002678,0.000431,0.000353
26556000,0.0324,0.013523,0.002678,0.000431,0.000470
26557000,0.0324,0.013523,0.002678,0.000431,0.000353
26558000,0.0324,0.013523,0.002678,0.000431,0.000235
26559000,0.0324,0.013523,0.002678,0.000431,0.000353
26560000,0.0324,0.013523,0.002678,0.000431,0.000353
26561000,0.0324,0.013523,0.002678,0.000431,0.000235
26562000,0.0324,0.013523,0.002678,0.000431,0.000353
26563000,0.0324,0.013523,0.002678,0.000431,0.000470
26564000,0.0324,0.013523,0.002678,0.000431,0.000353
26565000,0.0324,0.013523,0.002678,0.000431,0.000235
26566000,0.0324,0.013523,0.002678,0.000431,0.000353
26567000,0.0324,0.013523,0.002678,0.000431,0.000353
26568000,0.0324,0.013523,0.002678,0.000431,0.000235
26569000,0.0324,0.013523,0.002678,0.000431,0.000353
26570000,0.0324,0.013523,0.002678,0.000431,0.000470
26571000,0.0324,0.013523,0.002678,0.000431,0.000353
26572000,0.0324,0.013523,0.002678,0.000431,0.000235
26573000,0.0324,0.013523,0.002678,0.000431,0.000353
26574000,0.0324,0.013523,0.002678,0.000431,0.000353
26575000,0.0324,0.013523,0.002678,0.000431,0.000235
26576000,0.0324,0.013523,0.002678,0.000431,0.000353
26577000,0.0324,0.013523,0.002678,0.000431,0.000470
26578000,0.0324,0.013523,0.002678,0.000431,0.000353
26579000,0.0324,0.013523,0.002678,0.000431,0.000235
26580000,0.0324,0.013523,0.002678,0.000431,0.000353
26581000,0.0324,0.013523,0.002678,0.000431,0.000353
26582000,0.0324,0.013523,0.002678,0.000431,0.000235
26583000,0.0324,0.013523,0.002678,0.000431,0.000353
26584000,0.0324,0.013523,0.002678,0.000431,0.000470
26585000,0.0324,0.013523,0.002678,0.000431,0.000353
26586000,0.0324,0.013523,0.002678,0.000431,0.000235
26587000,0.0324,0.013523,0.002678,0.000431,0.000353
26588000,0.0324,0.013523,0.002678,0.000431,0.000353
26589000,0.0324,0.013523,0.002678,0.000431,0.000235
26590000,0.0324,0.013523,0.002678,0.000431,0.000353
26591000,0.0324,0.013523,0.002678,0.000431,0.000470
26592000,0.0324,0.013523,0.002678,0.000431,0.000353
26593000,0.0324,0.013523,0.002678,0.000431,0.000235
26594000,0.0324,0.013523,0.002678,0.000431,0.000353
26595000,0.0324,0.013523,0.002678,0.000431,0.000353
26596000,0.0324,0.013523,0.002678,0.000431,0.000235
26597000,0.0324,0.013523,0.002678,0.000431,0.000353
26598000,0.0324,0.013523,0.002678,0.000431,0.000470
26599000,0.0324,0.013523,0.002678,0.000431,0.000353
26600000,0.0324,0.013523,0.002678,0.000431,0.000235
26601000,0.0324,0.013523,0.002678,0.000431,0.000353
26602000,0.0324,0.013523,0.002678,0.000431,0.000353
26603000,0.0324,0.013523,0.002678,0.000431,0.000235
26604000,0.0324,0.013523,0.002678,0.000431,0.000353
26605000,0.0324,0.013523,0.002678,0.000431,0.000470
26606000,0.0324,0.013523,0.002678,0.000431,0.000353
26607000,0.0324,0.013523,0.002678,0.000431,0.000118
26608000,0.0324,0.013523,0.002678,0.000431,0.000470
26609000,0.0324,0.013523,0.002678,0.000431,0.000353
26610000,0.0324,0.013523,0.002678,0.000431,0.000235
26611000,0.0324,0.013523,0.002678,0.000431,0.000353
26612000,0.0324,0.013523,0.002678,0.000431,0.000470
26613000,0.0324,0.013523,0.002678,0.000431,0.000353
26614000,0.0324,0.013523,0.002678,0.000431,0.000118
26615000,0.0324,0.013523,0.002678,0.000431,0.000470
26616000,0.0324,0.013523,0.002678,0.000431,0.000353
26617000,0.0324,0.013523,0.002678,0.000431,0.000235
26618000,0.0324,0.013523,0.002678,0.000431,0.000353
26619000,0.0324,0.013523,0.002678,0.000431,0.000470
26620000,0.0324,0.013523,0.002678,0.000431,0.000353
26621000,0.0324,0.013523,0.002678,0.000431,0.000118
26622000,0.0324,0.013523,0.002678,0.000431,0.000470
26623000,0.0324,0.013523,0.002678,0.000431,0.000353
26624000,0.0324,0.013523,0.002678,0.000431,0.000235
26625000,0.0324,0.013523,0.002678,0.000431,0.000353
26626000,0.0324,0.013523,0.002678,0.000431,0.000470
26627000,0.0324,0.013523,0.002678,0.000431,0.000235
26628000,0.0324,0.013523,0.002678,0.000431,0.000235
26629000,0.0324,0.013523,0.002678,0.000431,0.000470
26630000,0.0324,0.013523,0.002678,0.000431,0.000353
26631000,0.0324,0.013523,0.002678,0.000431,0.000235
26632000,0.0324,0.013523,0.002678,0.000431,0.000353
26633000,0.0324,0.013523,0.002678,0.000431,0.000470
26634000,0.0324,0.013523,0.002678,0.000431,0.000235
26635000,0.0324,0.013523,0.002678,0.000431,0.000235
26636000,0.0324,0.013523,0.002678,0.000431,0.000470
26637000,0.0324,0.013523,0.002678,0.000431,0.000353
26638000,0.0324,0.013523,0.002678,0.000431,0.000235
26639000,0.0324,0.013523,0.002678,0.000431,0.000353
26640000,0.0324,0.013523,0.002678,0.000431,0.000470
26641000,0.0324,0.013523,0.002678,0.000431,0.000235
26642000,0.0324,0.013523,0.002678,0.000431,0.000235
26643000,0.0324,0.013523,0.002678,0.000431,0.000470
26644000,0.0324,0.013523,0.002678,0.000431,0.000353
26645000,0.0324,0.013523,0.002678,0.000431,0.000235
26646000,0.0324,0.013523,0.002678,0.000431,0.000353
26647000,0.0324,0.013523,0.002678,0.000431,0.000470
26648000,0.0324,0.013523,0.002678,0.000431,0.000235
26649000,0.0324,0.013523,0.002678,0.000431,0.000235
26650000,0.0324,0.013523,0.002678,0.000431,0.000470
26651000,0.0324,0.013523,0.002678,0.000431,0.000353
26652000,0.0324,0.013523,0.002678,0.000431,0.000235
26653000,0.0324,0.013523,0.002678,0.000431,0.000353
26654000,0.0324,0.013523,0.002678,0.000431,0.000470
26655000,0.0324,0.013523,0.002678,0.000431,0.000235
26656000,0.0324,0.013523,0.002678,0.000431,0.000235
26657000,0.0324,0.013523,0.002678,0.000431,0.000470
26658000,0.0324,0.013523,0.002678,0.000431,0.000353
26659000,0.0324,0.013523,0.002678,0.000431,0.000235
26660000,0.0324,0.013523,0.002678,0.000431,0.000353
26661000,0.0324,0.013523,0.002678,0.000431,0.000470
26662000,0.0324,0.013523,0.002678,0.000431,0.000235
26663000,0.0324,0.013523,0.002678,0.000431,0.000235
26664000,0.0324,0.013523,0.002678,0.000431,0.000470
26665000,0.0324,0.013523,0.002678,0.000431,0.000353
26666000,0.0324,0.013523,0.002678,0.000431,0.000235
26667000,0.0324,0.013523,0.002678,0.000431,0.000353
26668000,0.0324,0.013523,0.002678,0.000431,0.000470
26669000,0.0324,0.013523,0.002678,0.000431,0.000118
26670000,0.0324,0.013523,0.002678,0.000431,0.000353
26671000,0.0324,0.013523,0.002678,0.000431,0.000470
26672000,0.0324,0.013523,0.002678,0.000431,0.000353
26673000,0.0324,0.013523,0.002678,0.000431,0.000235
26674000,0.0324,0.013523,0.002678,0.000431,0.000353
26675000,0.0324,0.013523,0.002678,0.000431,0.000470
26676000,0.0324,0.013523,0.002678,0.000431,0.000118
26677000,0.0324,0.013523,0.002678,0.000431,0.000353
26678000,0.0324,0.013523,0.002678,0.000431,0.000470
26679000,0.0324,0.013523,0.002678,0.000431,0.000353
26680000,0.0324,0.013523,0.002678,0.000431,0.000235
26681000,0.0324,0.013523,0.002678,0.000431,0.000353
26682000,0.0324,0.013523,0.002678,0.000431,0.000470
26683000,0.0324,0.013523,0.002678,0.000431,0.000118
26684000,0.0324,0.013523,0.002678,0.000431,0.000353
26685000,0.0324,0.013523,0.002678,0.000431,0.000470
26686000,0.0324,0.013523,0.002678,0.000431,0.000353
26687000,0.0324,0.013523,0.002678,0.000431,0.000235
26688000,0.0324,0.013523,0.002678,0.000431,0.000353
26689000,0.0324,0.013523,0.002678,0.000431,0.000353
26690000,0.0324,0.013523,0.002678,0.000431,0.000235
26691000,0.0324,0.013523,0.002678,0.000431,0.000353
26692000,0.0324,0.013523,0.002678,0.000431,0.000470
26693000,0.0324,0.013523,0.002678,0.000431,0.000353
26694000,0.0324,0.013523,0.002678,0.000431,0.000235
26695000,0.0324,0.013523,0.002678,0.000431,0.000353
26696000,0.0324,0.013523,0.002678,0.000431,0.000353
26697000,0.0324,0.013523,0.002678,0.000431,0.000235
26698000,0.0324,0.013523,0.002678,0.000431,0.000353
26699000,0.0324,0.013523,0.002678,0.000431,0.000470
26700000,0.0324,0.013523,0.002678,0.000431,0.000353
26701000,0.0324,0.013523,0.002678,0.000431,0.000235
26702000,0.0324,0.013523,0.002678,0.000431,0.000353
26703000,0.0324,0.013523,0.002678,0.000431,0.000353
26704000,0.0324,0.013523,0.002678,0.000431,0.000235
26705000,0.0324,0.013523,0.002678,0.000431,0.000353
26706000,0.0324,0.013523,0.002678,0.000431,0.000470
26707000,0.0324,0.013523,0.002678,0.000431,0.000353
26708000,0.0324,0.013523,0.002678,0.000431,0.000235
26709000,0.0324,0.013523,0.002678,0.000431,0.000353
26710000,0.0324,0.013523,0.002678,0.000431,0.000353
26711000,0.0324,0.013523,0.002678,0.000431,0.000235
26712000,0.0324,0.013523,0.002678,0.000431,0.000353
26713000,0.0324,0.013523,0.002678,0.000431,0.000470
26714000,0.0324,0.013523,0.002678,0.000431,0.000353
26715000,0.0324,0.013523,0.002678,0.000431,0.000235
26716000,0.0324,0.013523,0.002678,0.000431,0.000353
26717000,0.0324,0.013523,0.002678,0.000431,0.000353
26718000,0.0324,0.013523,0.002678,0.000431,0.000235
26719000,0.0324,0.013523,0.002678,0.000431,0.000353
26720000,0.0324,0.013523,0.002678,0.000431,0.000470
26721000,0.0324,0.013523,0.002678,0.000431,0.000353
26722000,0.0324,0.013523,0.002678,0.000431,0.000235
26723000,0.0324,0.013523,0.002678,0.000431,0.000353
26724000,0.0324,0.013523,0.002678,0.000431,0.000353
26725000,0.0324,0.013523,0.002678,0.000431,0.000235
26726000,0.0324,0.013523,0.002678,0.000431,0.000353
26727000,0.0324,0.013523,0.002678,0.000431,0.000470
26728000,0.0324,0.013523,0.002678,0.000431,0.000353
26729000,0.0324,0.013523,0.002678,0.000431,0.000235
26730000,0.0324,0.013523,0.002678,0.000431,0.000353
26731000,0.0324,0.013523,0.002678,0.000431,0.000353
26732000,0.0324,0.013523,0.002678,0.000431,0.000235
26733000,0.0324,0.013523,0.002678,0.000431,0.000353
26734000,0.0324,0.013523,0.002678,0.000431,0.000470
26735000,0.0324,0.013523,0.002678,0.000431,0.000353
26736000,0.0324,0.013523,0.002678,0.000431,0.000235
26737000,0.0324,0.013523,0.002678,0.000431,0.000353
26738000,0.0324,0.013523,0.002678,0.000431,0.000353
26739000,0.0324,0.013523,0.002678,0.000431,0.000235
26740000,0.0324,0.013523,0.002678,0.000431,0.000353
26741000,0.0324,0.013523,0.002678,0.000431,0.000470
26742000,0.0324,0.013523,0.002678,0.000431,0.000353
26743000,0.0324,0.013523,0.002678,0.000431,0.000118
26744000,0.0324,0.013523,0.002678,0.000431,0.000470
26745000,0.0324,0.013523,0.002678,0.000431,0.000353
26746000,0.0324,0.013523,0.002678,0.000431,0.000235
26747000,0.0324,0.013523,0.002678,0.000431,0.000353
26748000,0.0324,0.013523,0.002678,0.000431,0.000470
26749000,0.0324,0.013523,0.002678,0.000431,0.000353
26750000,0.0324,0.013523,0.002678,0.000431,0.000118
26751000,0.0324,0.013523,0.002678,0.000431,0.000470
26752000,0.0324,0.013523,0.002678,0.000431,0.000353
26753000,0.0324,0.013523,0.002678,0.000431,0.000235
26754000,0.0324,0.013523,0.002678,0.000431,0.000353
26755000,0.0324,0.013523,0.002678,0.000431,0.000470
26756000,0.0324,0.013523,0.002678,0.000431,0.000353
26757000,0.0324,0.013523,0.002678,0.000431,0.000118
26758000,0.0324,0.013523,0.002678,0.000431,0.000470
26759000,0.0324,0.013523,0.002678,0.000431,0.000353
26760000,0.0324,0.013523,0.002678,0.000431,0.000235
26761000,0.0324,0.013523,0.002678,0.000431,0.000353
26762000,0.0324,0.013523,0.002678,0.000431,0.000470
26763000,0.0324,0.013523,0.002678,0.000431,0.000353
26764000,0.0324,0.013523,0.002678,0.000431,0.000118
26765000,0.0324,0.013523,0.002678,0.000431,0.000470
26766000,0.0324,0.013523,0.002678,0.000431,0.000353
26767000,0.0324,0.013523,0.002678,0.000431,0.000235
26768000,0.0324,0.013523,0.002678,0.000431,0.000353
26769000,0.0324,0.013523,0.002678,0.000431,0.000470
26770000,0.0324,0.013523,0.002678,0.000431,0.000235
26771000,0.0324,0.013523,0.002678,0.000431,0.000235
26772000,0.0324,0.013523,0.002678,0.000431,0.000470
26773000,0.0324,0.013523,0.002678,0.000431,0.000353
26774000,0.0324,0.013523,0.002678,0.000431,0.000235
26775000,0.0324,0.013523,0.002678,0.000431,0.000353
26776000,0.0324,0.013523,0.002678,0.000431,0.000470
26777000,0.0324,0.013523,0.002678,0.000431,0.000235
26778000,0.0324,0.013523,0.002678,0.000431,0.000235
26779000,0.0324,0.013523,0.002678,0.000431,0.000470
26780000,0.0324,0.013523,0.002678,0.000431,0.000353
26781000,0.0324,0.013523,0.002678,0.000431,0.000235
26782000,0.0324,0.013523,0.002678,0.000431,0.000353
26783000,0.0324,0.013523,0.002678,0.000431,0.000470
26784000,0.0324,0.013523,0.002678,0.000431,0.000235
26785000,0.0324,0.013523,0.002678,0.000431,0.000235
26786000,0.0324,0.013523,0.002678,0.000431,0.000470
26787000,0.0324,0.013523,0.002678,0.000431,0.000353
26788000,0.0324,0.013523,0.002678,0.000431,0.000235
26789000,0.0324,0.013523,0.002678,0.000431,0.000353
26790000,0.0324,0.013523,0.002678,0.000431,0.000470
26791000,0.0324,0.013523,0.002678,0.000431,0.000235
26792000,0.0324,0.013523,0.002678,0.000431,0.000235
26793000,0.0324,0.013523,0.002678,0.000431,0.000470
26794000,0.0324,0.013523,0.002678,0.000431,0.000353
26795000,0.0324,0.013523,0.002678,0.000431,0.000235
26796000,0.0324,0.013523,0.002678,0.000431,0.000353
26797000,0.0324,0.013523,0.002678,0.000431,0.000470
26798000,0.0324,0.013523,0.002678,0.000431,0.000235
26799000,0.0324,0.013523,0.002678,0.000431,0.000235
26800000,0.0324,0.013523,0.002678,0.000431,0.000470
26801000,0.0324,0.013523,0.002678,0.000431,0.000353
26802000,0.0324,0.013523,0.002678,0.000431,0.000235
26803000,0.0324,0.013523,0.002678,0.000431,0.000353
26804000,0.0324,0.013523,0.002678,0.000431,0.000470
26805000,0.0324,0.013523,0.002678,0.000431,0.000235
26806000,0.0324,0.013523,0.002678,0.000431,0.000235
26807000,0.0324,0.013523,0.002678,0.000431,0.000470
26808000,0.0324,0.013523,0.002678,0.000431,0.000353
26809000,0.0324,0.013523,0.002678,0.000431,0.000235
26810000,0.0324,0.013523,0.002678,0.000431,0.000353
26811000,0.0324,0.013523,0.002678,0.000431,0.000470
26812000,0.0324,0.013523,0.002678,0.000431,0.000118
26813000,0.0324,0.013523,0.002678,0.000431,0.000353
26814000,0.0324,0.013523,0.002678,0.000431,0.000470
26815000,0.0324,0.013523,0.002678,0.000431,0.000353
26816000,0.0324,0.013523,0.002678,0.000431,0.000235
26817000,0.0324,0.013523,0.002678,0.000431,0.000353
26818000,0.0324,0.013523,0.002678,0.000431,0.000470
26819000,0.0324,0.013523,0.002678,0.000431,0.000118
26820000,0.0324,0.013523,0.002678,0.000431,0.000353
26821000,0.0324,0.013523,0.002678,0.000431,0.000470
26822000,0.0324,0.013523,0.002678,0.000431,0.000353
26823000,0.0324,0.013523,0.002678,0.000431,0.000235
26824000,0.0324,0.013523,0.002678,0.000431,0.000353
26825000,0.0324,0.013523,0.002678,0.000431,0.000470
26826000,0.0324,0.013523,0.002678,0.000431,0.000118
26827000,0.0324,0.013523,0.002678,0.000431,0.000353
26828000,0.0324,0.013523,0.002678,0.000431,0.000470
26829000,0.0324,0.013523,0.002678,0.000431,0.000353
26830000,0.0324,0.013523,0.002678,0.000431,0.000235
26831000,0.0324,0.013523,0.002678,0.000431,0.000353
26832000,0.0324,0.013523,0.002678,0.000431,0.000353
26833000,0.0324,0.013523,0.002678,0.000431,0.000235
26834000,0.0324,0.013523,0.002678,0.000431,0.000353
26835000,0.0324,0.013523,0.002678,0.000431,0.000470
26836000,0.0324,0.013523,0.002678,0.000431,0.000353
26837000,0.0324,0.013523,0.002678,0.000431,0.000235
26838000,0.0324,0.013523,0.002678,0.000431,0.000353
26839000,0.0324,0.013523,0.002678,0.000431,0.000353
26840000,0.0324,0.013523,0.002678,0.000431,0.000235
26841000,0.0324,0.013523,0.002678,0.000431,0.000353
26842000,0.0324,0.013523,0.002678,0.000431,0.000470
26843000,0.0324,0.013523,0.002678,0.000431,0.000353
26844000,0.0324,0.013523,0.002678,0.000431,0.000235
26845000,0.0324,0.013523,0.002678,0.000431,0.000353
26846000,0.0324,0.013523,0.002678,0.000431,0.000353
26847000,0.0324,0.013523,0.002678,0.000431,0.000235
26848000,0.0324,0.013523,0.002678,0.000431,0.000353
26849000,0.0324,0.013523,0.002678,0.000431,0.000470
26850000,0.0324,0.013523,0.002678,0.000431,0.000353
26851000,0.0324,0.013523,0.002678,0.000431,0.000235
26852000,0.0324,0.013523,0.002678,0.000431,0.000353
26853000,0.0324,0.013523,0.002678,0.000431,0.000353
26854000,0.0324,0.013523,0.002678,0.000431,0.000235
26855000,0.0324,0.013523,0.002678,0.000431,0.000353
26856000,0.0324,0.013523,0.002678,0.000431,0.000470
26857000,0.0324,0.013523,0.002678,0.000431,0.000353
26858000,0.0324,0.013523,0.002678,0.000431,0.000235
26859000,0.0324,0.013523,0.002678,0.000431,0.000353
26860000,0.0324,0.013523,0.002678,0.000431,0.000353
26861000,0.0324,0.013523,0.002678,0.000431,0.000235
26862000,0.0324,0.013523,0.002678,0.000431,0.000353
26863000,0.0324,0.013523,0.002678,0.000431,0.000470
26864000,0.0324,0.013523,0.002678,0.000431,0.000353
26865000,0.0324,0.013523,0.002678,0.000431,0.000235
26866000,0.0324,0.013523,0.002678,0.000431,0.000353
26867000,0.0324,0.013523,0.002678,0.000431,0.000353
26868000,0.0324,0.013523,0.002678,0.000431,0.000235
26869000,0.0324,0.013523,0.002678,0.000431,0.000353
26870000,0.0324,0.013523,0.002678,0.000431,0.000470
26871000,0.0324,0.013523,0.002678,0.000431,0.000353
26872000,0.0324,0.013523,0.002678,0.000431,0.000235
26873000,0.0324,0.013523,0.002678,0.000431,0.000353
26874000,0.0324,0.013523,0.002678,0.000431,0.000353
26875000,0.0324,0.013523,0.002678,0.000431,0.000235
26876000,0.0324,0.013523,0.002678,0.000431,0.000353
26877000,0.0324,0.013523,0.002678,0.000431,0.000470
26878000,0.0324,0.013523,0.002678,0.000431,0.000353
26879000,0.0324,0.013523,0.002678,0.000431,0.000235
26880000,0.0324,0.013523,0.002678,0.000431,0.000353
26881000,0.0324,0.013523,0.002678,0.000431,0.000353
26882000,0.0324,0.013523,0.002678,0.000431,0.000235
26883000,0.0324,0.013523,0.002678,0.000431,0.000353
26884000,0.0324,0.013523,0.002678,0.000431,0.000470
26885000,0.0324,0.013523,0.002678,0.000431,0.000353
26886000,0.0324,0.013523,0.002678,0.000431,0.000118
26887000,0.0324,0.013523,0.002678,0.000431,0.000470
26888000,0.0324,0.013523,0.002678,0.000431,0.000353
26889000,0.0324,0.013523,0.002678,0.000431,0.000235
26890000,0.0324,0.013523,0.002678,0.000431,0.000353
26891000,0.0324,0.013523,0.002678,0.000431,0.000470
26892000,0.0324,0.013523,0.002678,0.000431,0.000353
26893000,0.0324,0.013523,0.002678,0.000431,0.000118
26894000,0.0324,0.013523,0.002678,0.000431,0.000470
26895000,0.0324,0.013523,0.002678,0.000431,0.000353
26896000,0.0324,0.013523,0.002678,0.000431,0.000235
26897000,0.0324,0.013523,0.002678,0.000431,0.000353
26898000,0.0324,0.013523,0.002678,0.000431,0.000470
26899000,0.0324,0.013523,0.002678,0.000431,0.000353
26900000,0.0324,0.013523,0.002678,0.000431,0.000118
26901000,0.0324,0.013523,0.002678,0.000431,0.000470
26902000,0.0324,0.013523,0.002678,0.000431,0.000353
26903000,0.0324,0.013523,0.002678,0.000431,0.000235
26904000,0.0324,0.013523,0.002678,0.000431,0.000353
26905000,0.0324,0.013523,0.002678,0.000431,0.000470
26906000,0.0324,0.013523,0.002678,0.000431,0.000235
26907000,0.0324,0.013523,0.002678,0.000431,0.000235
26908000,0.0324,0.013523,0.002678,0.000431,0.000470
26909000,0.0324,0.013523,0.002678,0.000431,0.000353
26910000,0.0324,0.013523,0.002678,0.000431,0.000235
26911000,0.0324,0.013523,0.002678,0.000431,0.000353
26912000,0.0324,0.013523,0.002678,0.000431,0.000470
26913000,0.0324,0.013523,0.002678,0.000431,0.000235
26914000,0.0324,0.013523,0.002678,0.000431,0.000235
26915000,0.0324,0.013523,0.002678,0.000431,0.000470
26916000,0.0324,0.013523,0.002678,0.000431,0.000353
26917000,0.0324,0.013523,0.002678,0.000431,0.000235
26918000,0.0324,0.013523,0.002678,0.000431,0.000353
26919000,0.0324,0.013523,0.002678,0.000431,0.000470
26920000,0.0324,0.013523,0.002678,0.000431,0.000235
26921000,0.0324,0.013523,0.002678,0.000431,0.000235
26922000,0.0324,0.013523,0.002678,0.000431,0.000470
26923000,0.0324,0.013523,0.002678,0.000431,0.000353
26924000,0.0324,0.013523,0.002678,0.000431,0.000235
26925000,0.0324,0.013523,0.002678,0.000431,0.000353
26926000,0.0324,0.013523,0.002678,0.000431,0.000470
26927000,0.0324,0.013523,0.002678,0.000431,0.000235
26928000,0.0324,0.013523,0.002678,0.000431,0.000235
26929000,0.0324,0.013523,0.002678,0.000431,0.000470
26930000,0.0324,0.013523,0.002678,0.000431,0.000353
26931000,0.0324,0.013523,0.002678,0.000431,0.000235
26932000,0.0324,0.013523,0.002678,0.000431,0.000353
26933000,0.0324,0.013523,0.002678,0.000431,0.000470
26934000,0.0324,0.013523,0.002678,0.000431,0.000235
26935000,0.0324,0.013523,0.002678,0.000431,0.000235
26936000,0.0324,0.013523,0.002678,0.000431,0.000470
26937000,0.0324,0.013523,0.002678,0.000431,0.000353
26938000,0.0324,0.013523,0.002678,0.000431,0.000235
26939000,0.0324,0.013523,0.002678,0.000431,0.000353
26940000,0.0324,0.013523,0.002678,0.000431,0.000470
26941000,0.0324,0.013523,0.002678,0.000431,0.000235
26942000,0.0324,0.013523,0.002678,0.000431,0.000235
26943000,0.0324,0.013523,0.002678,0.000431,0.000470
26944000,0.0324,0.013523,0.002678,0.000431,0.000353
26945000,0.0324,0.013523,0.002678,0.000431,0.000235
26946000,0.0324,0.013523,0.002678,0.000431,0.000353
26947000,0.0324,0.013523,0.002678,0.000431,0.000470
26948000,0.0324,0.013523,0.002678,0.000431,0.000118
26949000,0.0324,0.013523,0.002678,0.000431,0.000353
26950000,0.0324,0.013523,0.002678,0.000431,0.000470
26951000,0.0324,0.013523,0.002678,0.000431,0.000353
26952000,0.0324,0.013523,0.002678,0.000431,0.000235
26953000,0.0324,0.013523,0.002678,0.000431,0.000353
26954000,0.0324,0.013523,0.002678,0.000431,0.000470
26955000,0.0324,0.013523,0.002678,0.000431,0.000118
26956000,0.0324,0.013523,0.002678,0.000431,0.000353
26957000,0.0324,0.013523,0.002678,0.000431,0.000470
26958000,0.0324,0.013523,0.002678,0.000431,0.000353
26959000,0.0324,0.013523,0.002678,0.000431,0.000235
26960000,0.0324,0.013523,0.002678,0.000431,0.000353
26961000,0.0324,0.013523,0.002678,0.000431,0.000470
26962000,0.0324,0.013523,0.002678,0.000431,0.000118
26963000,0.0324,0.013523,0.002678,0.000431,0.000353
26964000,0.0324,0.013523,0.002678,0.000431,0.000470
26965000,0.0324,0.013523,0.002678,0.000431,0.000353
26966000,0.0324,0.013523,0.002678,0.000431,0.000235
26967000,0.0324,0.013523,0.002678,0.000431,0.000353
26968000,0.0324,0.013523,0.002678,0.000431,0.000470
26969000,0.0324,0.013523,0.002678,0.000431,0.000118
26970000,0.0324,0.013523,0.002678,0.000431,0.000353
26971000,0.0324,0.013523,0.002678,0.000431,0.000470
26972000,0.0324,0.013523,0.002678,0.000431,0.000353
26973000,0.0324,0.013523,0.002678,0.000431,0.000235
26974000,0.0324,0.013523,0.002678,0.000431,0.000353
26975000,0.0324,0.013523,0.002678,0.000431,0.000353
26976000,0.0324,0.013523,0.002678,0.000431,0.000235
26977000,0.0324,0.013523,0.002678,0.000431,0.000353
26978000,0.0324,0.013523,0.002678,0.000431,0.000470
26979000,0.0324,0.013523,0.002678,0.000431,0.000353
26980000,0.0324,0.013523,0.002678,0.000431,0.000235
26981000,0.0324,0.013523,0.002678,0.000431,0.000353
26982000,0.0324,0.013523,0.002678,0.000431,0.000353
26983000,0.0324,0.013523,0.002678,0.000431,0.000235
26984000,0.0324,0.013523,0.002678,0.000431,0.000353
26985000,0.0324,0.013523,0.002678,0.000431,0.000470
26986000,0.0324,0.013523,0.002678,0.000431,0.000353
26987000,0.0324,0.013523,0.002678,0.000431,0.000235
26988000,0.0324,0.013523,0.002678,0.000431,0.000353
26989000,0.0324,0.013523,0.002678,0.000431,0.000353
26990000,0.0324,0.013523,0.002678,0.000431,0.000235
26991000,0.0324,0.013523,0.002678,0.000431,0.000353
26992000,0.0324,0.013523,0.002678,0.000431,0.000470
26993000,0.0324,0.013523,0.002678,0.000431,0.000353
26994000,0.0324,0.013523,0.002678,0.000431,0.000235
26995000,0.0324,0.013523,0.002678,0.000431,0.000353
26996000,0.0324,0.013523,0.002678,0.000431,0.000353
26997000,0.0324,0.013523,0.002678,0.000431,0.000235
26998000,0.0324,0.013523,0.002678,0.000431,0.000353
26999000,0.0324,0.013523,0.002678,0.000431,0.000470
