Cycle,Area(mm^2),PeakDynamic(W),SubthresholdLeakage(W),GateLeakage(W),RunTimeDynamic(W)
20000000,0.0324,0.013523,0.002678,0.000431,0.000353
20001000,0.0324,0.013523,0.002678,0.000431,0.000235
20002000,0.0324,0.013523,0.002678,0.000431,0.000353
20003000,0.0324,0.013523,0.002678,0.000431,0.000470
20004000,0.0324,0.013523,0.002678,0.000431,0.000118
20005000,0.0324,0.013523,0.002678,0.000431,0.000353
20006000,0.0324,0.013523,0.002678,0.000431,0.000470
20007000,0.0324,0.013523,0.002678,0.000431,0.000353
20008000,0.0324,0.013523,0.002678,0.000431,0.000235
20009000,0.0324,0.013523,0.002678,0.000431,0.000353
20010000,0.0324,0.013523,0.002678,0.000431,0.000470
20011000,0.0324,0.013523,0.002678,0.000431,0.000118
20012000,0.0324,0.013523,0.002678,0.000431,0.000353
20013000,0.0324,0.013523,0.002678,0.000431,0.000470
20014000,0.0324,0.013523,0.002678,0.000431,0.000353
20015000,0.0324,0.013523,0.002678,0.000431,0.000235
20016000,0.0324,0.013523,0.002678,0.000431,0.000353
20017000,0.0324,0.013523,0.002678,0.000431,0.000470
20018000,0.0324,0.013523,0.002678,0.000431,0.000118
20019000,0.0324,0.013523,0.002678,0.000431,0.000353
20020000,0.0324,0.013523,0.002678,0.000431,0.000470
20021000,0.0324,0.013523,0.002678,0.000431,0.000353
20022000,0.0324,0.013523,0.002678,0.000431,0.000235
20023000,0.0324,0.013523,0.002678,0.000431,0.000353
20024000,0.0324,0.013523,0.002678,0.000431,0.000353
20025000,0.0324,0.013523,0.002678,0.000431,0.000235
20026000,0.0324,0.013523,0.002678,0.000431,0.000353
20027000,0.0324,0.013523,0.002678,0.000431,0.000470
20028000,0.0324,0.013523,0.002678,0.000431,0.000353
20029000,0.0324,0.013523,0.002678,0.000431,0.000235
20030000,0.0324,0.013523,0.002678,0.000431,0.000353
20031000,0.0324,0.013523,0.002678,0.000431,0.000353
20032000,0.0324,0.013523,0.002678,0.000431,0.000235
20033000,0.0324,0.013523,0.002678,0.000431,0.000353
20034000,0.0324,0.013523,0.002678,0.000431,0.000470
20035000,0.0324,0.013523,0.002678,0.000431,0.000353
20036000,0.0324,0.013523,0.002678,0.000431,0.000235
20037000,0.0324,0.013523,0.002678,0.000431,0.000353
20038000,0.0324,0.013523,0.002678,0.000431,0.000353
20039000,0.0324,0.013523,0.002678,0.000431,0.000235
20040000,0.0324,0.013523,0.002678,0.000431,0.000353
20041000,0.0324,0.013523,0.002678,0.000431,0.000470
20042000,0.0324,0.013523,0.002678,0.000431,0.000353
20043000,0.0324,0.013523,0.002678,0.000431,0.000235
20044000,0.0324,0.013523,0.002678,0.000431,0.000353
20045000,0.0324,0.013523,0.002678,0.000431,0.000353
20046000,0.0324,0.013523,0.002678,0.000431,0.000235
20047000,0.0324,0.013523,0.002678,0.000431,0.000353
20048000,0.0324,0.013523,0.002678,0.000431,0.000470
20049000,0.0324,0.013523,0.002678,0.000431,0.000353
20050000,0.0324,0.013523,0.002678,0.000431,0.000235
20051000,0.0324,0.013523,0.002678,0.000431,0.000353
20052000,0.0324,0.013523,0.002678,0.000431,0.000353
20053000,0.0324,0.013523,0.002678,0.000431,0.000235
20054000,0.0324,0.013523,0.002678,0.000431,0.000353
20055000,0.0324,0.013523,0.002678,0.000431,0.000470
20056000,0.0324,0.013523,0.002678,0.000431,0.000353
20057000,0.0324,0.013523,0.002678,0.000431,0.000235
20058000,0.0324,0.013523,0.002678,0.000431,0.000353
20059000,0.0324,0.013523,0.002678,0.000431,0.000353
20060000,0.0324,0.013523,0.002678,0.000431,0.000235
20061000,0.0324,0.013523,0.002678,0.000431,0.000353
20062000,0.0324,0.013523,0.002678,0.000431,0.000470
20063000,0.0324,0.013523,0.002678,0.000431,0.000353
20064000,0.0324,0.013523,0.002678,0.000431,0.000235
20065000,0.0324,0.013523,0.002678,0.000431,0.000353
20066000,0.0324,0.013523,0.002678,0.000431,0.000353
20067000,0.0324,0.013523,0.002678,0.000431,0.000235
20068000,0.0324,0.013523,0.002678,0.000431,0.000353
20069000,0.0324,0.013523,0.002678,0.000431,0.000470
20070000,0.0324,0.013523,0.002678,0.000431,0.000353
20071000,0.0324,0.013523,0.002678,0.000431,0.000118
20072000,0.0324,0.013523,0.002678,0.000431,0.000470
20073000,0.0324,0.013523,0.002678,0.000431,0.000353
20074000,0.0324,0.013523,0.002678,0.000431,0.000235
20075000,0.0324,0.013523,0.002678,0.000431,0.000353
20076000,0.0324,0.013523,0.002678,0.000431,0.000470
20077000,0.0324,0.013523,0.002678,0.000431,0.000353
20078000,0.0324,0.013523,0.002678,0.000431,0.000118
20079000,0.0324,0.013523,0.002678,0.000431,0.000470
20080000,0.0324,0.013523,0.002678,0.000431,0.000353
20081000,0.0324,0.013523,0.002678,0.000431,0.000235
20082000,0.0324,0.013523,0.002678,0.000431,0.000353
20083000,0.0324,0.013523,0.002678,0.000431,0.000470
20084000,0.0324,0.013523,0.002678,0.000431,0.000353
20085000,0.0324,0.013523,0.002678,0.000431,0.000118
20086000,0.0324,0.013523,0.002678,0.000431,0.000470
20087000,0.0324,0.013523,0.002678,0.000431,0.000353
20088000,0.0324,0.013523,0.002678,0.000431,0.000235
20089000,0.0324,0.013523,0.002678,0.000431,0.000353
20090000,0.0324,0.013523,0.002678,0.000431,0.000470
20091000,0.0324,0.013523,0.002678,0.000431,0.000353
20092000,0.0324,0.013523,0.002678,0.000431,0.000118
20093000,0.0324,0.013523,0.002678,0.000431,0.000470
20094000,0.0324,0.013523,0.002678,0.000431,0.000353
20095000,0.0324,0.013523,0.002678,0.000431,0.000235
20096000,0.0324,0.013523,0.002678,0.000431,0.000353
20097000,0.0324,0.013523,0.002678,0.000431,0.000470
20098000,0.0324,0.013523,0.002678,0.000431,0.000235
20099000,0.0324,0.013523,0.002678,0.000431,0.000235
20100000,0.0324,0.013523,0.002678,0.000431,0.000470
20101000,0.0324,0.013523,0.002678,0.000431,0.000353
20102000,0.0324,0.013523,0.002678,0.000431,0.000235
20103000,0.0324,0.013523,0.002678,0.000431,0.000353
20104000,0.0324,0.013523,0.002678,0.000431,0.000470
20105000,0.0324,0.013523,0.002678,0.000431,0.000235
20106000,0.0324,0.013523,0.002678,0.000431,0.000235
20107000,0.0324,0.013523,0.002678,0.000431,0.000470
20108000,0.0324,0.013523,0.002678,0.000431,0.000353
20109000,0.0324,0.013523,0.002678,0.000431,0.000235
20110000,0.0324,0.013523,0.002678,0.000431,0.000353
20111000,0.0324,0.013523,0.002678,0.000431,0.000470
20112000,0.0324,0.013523,0.002678,0.000431,0.000235
20113000,0.0324,0.013523,0.002678,0.000431,0.000235
20114000,0.0324,0.013523,0.002678,0.000431,0.000470
20115000,0.0324,0.013523,0.002678,0.000431,0.000353
20116000,0.0324,0.013523,0.002678,0.000431,0.000235
20117000,0.0324,0.013523,0.002678,0.000431,0.000353
20118000,0.0324,0.013523,0.002678,0.000431,0.000470
20119000,0.0324,0.013523,0.002678,0.000431,0.000235
20120000,0.0324,0.013523,0.002678,0.000431,0.000235
20121000,0.0324,0.013523,0.002678,0.000431,0.000470
20122000,0.0324,0.013523,0.002678,0.000431,0.000353
20123000,0.0324,0.013523,0.002678,0.000431,0.000235
20124000,0.0324,0.013523,0.002678,0.000431,0.000353
20125000,0.0324,0.013523,0.002678,0.000431,0.000470
20126000,0.0324,0.013523,0.002678,0.000431,0.000235
20127000,0.0324,0.013523,0.002678,0.000431,0.000235
20128000,0.0324,0.013523,0.002678,0.000431,0.000470
20129000,0.0324,0.013523,0.002678,0.000431,0.000353
20130000,0.0324,0.013523,0.002678,0.000431,0.000235
20131000,0.0324,0.013523,0.002678,0.000431,0.000353
20132000,0.0324,0.013523,0.002678,0.000431,0.000470
20133000,0.0324,0.013523,0.002678,0.000431,0.000235
20134000,0.0324,0.013523,0.002678,0.000431,0.000235
20135000,0.0324,0.013523,0.002678,0.000431,0.000470
20136000,0.0324,0.013523,0.002678,0.000431,0.000353
20137000,0.0324,0.013523,0.002678,0.000431,0.000235
20138000,0.0324,0.013523,0.002678,0.000431,0.000353
20139000,0.0324,0.013523,0.002678,0.000431,0.000470
20140000,0.0324,0.013523,0.002678,0.000431,0.000118
20141000,0.0324,0.013523,0.002678,0.000431,0.000353
20142000,0.0324,0.013523,0.002678,0.000431,0.000470
20143000,0.0324,0.013523,0.002678,0.000431,0.000353
20144000,0.0324,0.013523,0.002678,0.000431,0.000235
20145000,0.0324,0.013523,0.002678,0.000431,0.000353
20146000,0.0324,0.013523,0.002678,0.000431,0.000470
20147000,0.0324,0.013523,0.002678,0.000431,0.000118
20148000,0.0324,0.013523,0.002678,0.000431,0.000353
20149000,0.0324,0.013523,0.002678,0.000431,0.000470
20150000,0.0324,0.013523,0.002678,0.000431,0.000353
20151000,0.0324,0.013523,0.002678,0.000431,0.000235
20152000,0.0324,0.013523,0.002678,0.000431,0.000353
20153000,0.0324,0.013523,0.002678,0.000431,0.000470
20154000,0.0324,0.013523,0.002678,0.000431,0.000118
20155000,0.0324,0.013523,0.002678,0.000431,0.000353
20156000,0.0324,0.013523,0.002678,0.000431,0.000470
20157000,0.0324,0.013523,0.002678,0.000431,0.000353
20158000,0.0324,0.013523,0.002678,0.000431,0.000235
20159000,0.0324,0.013523,0.002678,0.000431,0.000353
20160000,0.0324,0.013523,0.002678,0.000431,0.000353
20161000,0.0324,0.013523,0.002678,0.000431,0.000235
20162000,0.0324,0.013523,0.002678,0.000431,0.000353
20163000,0.0324,0.013523,0.002678,0.000431,0.000470
20164000,0.0324,0.013523,0.002678,0.000431,0.000353
20165000,0.0324,0.013523,0.002678,0.000431,0.000235
20166000,0.0324,0.013523,0.002678,0.000431,0.000353
20167000,0.0324,0.013523,0.002678,0.000431,0.000353
20168000,0.0324,0.013523,0.002678,0.000431,0.000235
20169000,0.0324,0.013523,0.002678,0.000431,0.000353
20170000,0.0324,0.013523,0.002678,0.000431,0.000470
20171000,0.0324,0.013523,0.002678,0.000431,0.000353
20172000,0.0324,0.013523,0.002678,0.000431,0.000235
20173000,0.0324,0.013523,0.002678,0.000431,0.000353
20174000,0.0324,0.013523,0.002678,0.000431,0.000353
20175000,0.0324,0.013523,0.002678,0.000431,0.000235
20176000,0.0324,0.013523,0.002678,0.000431,0.000353
20177000,0.0324,0.013523,0.002678,0.000431,0.000470
20178000,0.0324,0.013523,0.002678,0.000431,0.000353
20179000,0.0324,0.013523,0.002678,0.000431,0.000235
20180000,0.0324,0.013523,0.002678,0.000431,0.000353
20181000,0.0324,0.013523,0.002678,0.000431,0.000353
20182000,0.0324,0.013523,0.002678,0.000431,0.000235
20183000,0.0324,0.013523,0.002678,0.000431,0.000353
20184000,0.0324,0.013523,0.002678,0.000431,0.000470
20185000,0.0324,0.013523,0.002678,0.000431,0.000353
20186000,0.0324,0.013523,0.002678,0.000431,0.000235
20187000,0.0324,0.013523,0.002678,0.000431,0.000353
20188000,0.0324,0.013523,0.002678,0.000431,0.000353
20189000,0.0324,0.013523,0.002678,0.000431,0.000235
20190000,0.0324,0.013523,0.002678,0.000431,0.000353
20191000,0.0324,0.013523,0.002678,0.000431,0.000470
20192000,0.0324,0.013523,0.002678,0.000431,0.000353
20193000,0.0324,0.013523,0.002678,0.000431,0.000235
20194000,0.0324,0.013523,0.002678,0.000431,0.000353
20195000,0.0324,0.013523,0.002678,0.000431,0.000353
20196000,0.0324,0.013523,0.002678,0.000431,0.000235
20197000,0.0324,0.013523,0.002678,0.000431,0.000353
20198000,0.0324,0.013523,0.002678,0.000431,0.000470
20199000,0.0324,0.013523,0.002678,0.000431,0.000353
20200000,0.0324,0.013523,0.002678,0.000431,0.000235
20201000,0.0324,0.013523,0.002678,0.000431,0.000353
20202000,0.0324,0.013523,0.002678,0.000431,0.000353
20203000,0.0324,0.013523,0.002678,0.000431,0.000235
20204000,0.0324,0.013523,0.002678,0.000431,0.000353
20205000,0.0324,0.013523,0.002678,0.000431,0.000470
20206000,0.0324,0.013523,0.002678,0.000431,0.000353
20207000,0.0324,0.013523,0.002678,0.000431,0.000235
20208000,0.0324,0.013523,0.002678,0.000431,0.000353
20209000,0.0324,0.013523,0.002678,0.000431,0.000353
20210000,0.0324,0.013523,0.002678,0.000431,0.000235
20211000,0.0324,0.013523,0.002678,0.000431,0.000353
20212000,0.0324,0.013523,0.002678,0.000431,0.000470
20213000,0.0324,0.013523,0.002678,0.000431,0.000353
20214000,0.0324,0.013523,0.002678,0.000431,0.000118
20215000,0.0324,0.013523,0.002678,0.000431,0.000470
20216000,0.0324,0.013523,0.002678,0.000431,0.000353
20217000,0.0324,0.013523,0.002678,0.000431,0.000235
20218000,0.0324,0.013523,0.002678,0.000431,0.000353
20219000,0.0324,0.013523,0.002678,0.000431,0.000470
20220000,0.0324,0.013523,0.002678,0.000431,0.000353
20221000,0.0324,0.013523,0.002678,0.000431,0.000118
20222000,0.0324,0.013523,0.002678,0.000431,0.000470
20223000,0.0324,0.013523,0.002678,0.000431,0.000353
20224000,0.0324,0.013523,0.002678,0.000431,0.000235
20225000,0.0324,0.013523,0.002678,0.000431,0.000353
20226000,0.0324,0.013523,0.002678,0.000431,0.000470
20227000,0.0324,0.013523,0.002678,0.000431,0.000353
20228000,0.0324,0.013523,0.002678,0.000431,0.000118
20229000,0.0324,0.013523,0.002678,0.000431,0.000470
20230000,0.0324,0.013523,0.002678,0.000431,0.000353
20231000,0.0324,0.013523,0.002678,0.000431,0.000235
20232000,0.0324,0.013523,0.002678,0.000431,0.000353
20233000,0.0324,0.013523,0.002678,0.000431,0.000470
20234000,0.0324,0.013523,0.002678,0.000431,0.000235
20235000,0.0324,0.013523,0.002678,0.000431,0.000235
20236000,0.0324,0.013523,0.002678,0.000431,0.000470
20237000,0.0324,0.013523,0.002678,0.000431,0.000353
20238000,0.0324,0.013523,0.002678,0.000431,0.000235
20239000,0.0324,0.013523,0.002678,0.000431,0.000353
20240000,0.0324,0.013523,0.002678,0.000431,0.000470
20241000,0.0324,0.013523,0.002678,0.000431,0.000235
20242000,0.0324,0.013523,0.002678,0.000431,0.000235
20243000,0.0324,0.013523,0.002678,0.000431,0.000470
20244000,0.0324,0.013523,0.002678,0.000431,0.000353
20245000,0.0324,0.013523,0.002678,0.000431,0.000235
20246000,0.0324,0.013523,0.002678,0.000431,0.000353
20247000,0.0324,0.013523,0.002678,0.000431,0.000470
20248000,0.0324,0.013523,0.002678,0.000431,0.000235
20249000,0.0324,0.013523,0.002678,0.000431,0.000235
20250000,0.0324,0.013523,0.002678,0.000431,0.000470
20251000,0.0324,0.013523,0.002678,0.000431,0.000353
20252000,0.0324,0.013523,0.002678,0.000431,0.000235
20253000,0.0324,0.013523,0.002678,0.000431,0.000353
20254000,0.0324,0.013523,0.002678,0.000431,0.000470
20255000,0.0324,0.013523,0.002678,0.000431,0.000235
20256000,0.0324,0.013523,0.002678,0.000431,0.000235
20257000,0.0324,0.013523,0.002678,0.000431,0.000470
20258000,0.0324,0.013523,0.002678,0.000431,0.000353
20259000,0.0324,0.013523,0.002678,0.000431,0.000235
20260000,0.0324,0.013523,0.002678,0.000431,0.000353
20261000,0.0324,0.013523,0.002678,0.000431,0.000470
20262000,0.0324,0.013523,0.002678,0.000431,0.000235
20263000,0.0324,0.013523,0.002678,0.000431,0.000235
20264000,0.0324,0.013523,0.002678,0.000431,0.000470
20265000,0.0324,0.013523,0.002678,0.000431,0.000353
20266000,0.0324,0.013523,0.002678,0.000431,0.000235
20267000,0.0324,0.013523,0.002678,0.000431,0.000353
20268000,0.0324,0.013523,0.002678,0.000431,0.000470
20269000,0.0324,0.013523,0.002678,0.000431,0.000235
20270000,0.0324,0.013523,0.002678,0.000431,0.000235
20271000,0.0324,0.013523,0.002678,0.000431,0.000470
20272000,0.0324,0.013523,0.002678,0.000431,0.000353
20273000,0.0324,0.013523,0.002678,0.000431,0.000235
20274000,0.0324,0.013523,0.002678,0.000431,0.000353
20275000,0.0324,0.013523,0.002678,0.000431,0.000470
20276000,0.0324,0.013523,0.002678,0.000431,0.000118
20277000,0.0324,0.013523,0.002678,0.000431,0.000353
20278000,0.0324,0.013523,0.002678,0.000431,0.000470
20279000,0.0324,0.013523,0.002678,0.000431,0.000353
20280000,0.0324,0.013523,0.002678,0.000431,0.000235
20281000,0.0324,0.013523,0.002678,0.000431,0.000353
20282000,0.0324,0.013523,0.002678,0.000431,0.000470
20283000,0.0324,0.013523,0.002678,0.000431,0.000118
20284000,0.0324,0.013523,0.002678,0.000431,0.000353
20285000,0.0324,0.013523,0.002678,0.000431,0.000470
20286000,0.0324,0.013523,0.002678,0.000431,0.000353
20287000,0.0324,0.013523,0.002678,0.000431,0.000235
20288000,0.0324,0.013523,0.002678,0.000431,0.000353
20289000,0.0324,0.013523,0.002678,0.000431,0.000470
20290000,0.0324,0.013523,0.002678,0.000431,0.000118
20291000,0.0324,0.013523,0.002678,0.000431,0.000353
20292000,0.0324,0.013523,0.002678,0.000431,0.000470
20293000,0.0324,0.013523,0.002678,0.000431,0.000353
20294000,0.0324,0.013523,0.002678,0.000431,0.000235
20295000,0.0324,0.013523,0.002678,0.000431,0.000353
20296000,0.0324,0.013523,0.002678,0.000431,0.000470
20297000,0.0324,0.013523,0.002678,0.000431,0.000118
20298000,0.0324,0.013523,0.002678,0.000431,0.000353
20299000,0.0324,0.013523,0.002678,0.000431,0.000470
20300000,0.0324,0.013523,0.002678,0.000431,0.000353
20301000,0.0324,0.013523,0.002678,0.000431,0.000235
20302000,0.0324,0.013523,0.002678,0.000431,0.000353
20303000,0.0324,0.013523,0.002678,0.000431,0.000353
20304000,0.0324,0.013523,0.002678,0.000431,0.000235
20305000,0.0324,0.013523,0.002678,0.000431,0.000353
20306000,0.0324,0.013523,0.002678,0.000431,0.000470
20307000,0.0324,0.013523,0.002678,0.000431,0.000353
20308000,0.0324,0.013523,0.002678,0.000431,0.000235
20309000,0.0324,0.013523,0.002678,0.000431,0.000353
20310000,0.0324,0.013523,0.002678,0.000431,0.000353
20311000,0.0324,0.013523,0.002678,0.000431,0.000235
20312000,0.0324,0.013523,0.002678,0.000431,0.000353
20313000,0.0324,0.013523,0.002678,0.000431,0.000470
20314000,0.0324,0.013523,0.002678,0.000431,0.000353
20315000,0.0324,0.013523,0.002678,0.000431,0.000235
20316000,0.0324,0.013523,0.002678,0.000431,0.000353
20317000,0.0324,0.013523,0.002678,0.000431,0.000353
20318000,0.0324,0.013523,0.002678,0.000431,0.000235
20319000,0.0324,0.013523,0.002678,0.000431,0.000353
20320000,0.0324,0.013523,0.002678,0.000431,0.000470
20321000,0.0324,0.013523,0.002678,0.000431,0.000353
20322000,0.0324,0.013523,0.002678,0.000431,0.000235
20323000,0.0324,0.013523,0.002678,0.000431,0.000353
20324000,0.0324,0.013523,0.002678,0.000431,0.000353
20325000,0.0324,0.013523,0.002678,0.000431,0.000235
20326000,0.0324,0.013523,0.002678,0.000431,0.000353
20327000,0.0324,0.013523,0.002678,0.000431,0.000470
20328000,0.0324,0.013523,0.002678,0.000431,0.000353
20329000,0.0324,0.013523,0.002678,0.000431,0.000235
20330000,0.0324,0.013523,0.002678,0.000431,0.000353
20331000,0.0324,0.013523,0.002678,0.000431,0.000353
20332000,0.0324,0.013523,0.002678,0.000431,0.000235
20333000,0.0324,0.013523,0.002678,0.000431,0.000353
20334000,0.0324,0.013523,0.002678,0.000431,0.000470
20335000,0.0324,0.013523,0.002678,0.000431,0.000353
20336000,0.0324,0.013523,0.002678,0.000431,0.000235
20337000,0.0324,0.013523,0.002678,0.000431,0.000353
20338000,0.0324,0.013523,0.002678,0.000431,0.000353
20339000,0.0324,0.013523,0.002678,0.000431,0.000235
20340000,0.0324,0.013523,0.002678,0.000431,0.000353
20341000,0.0324,0.013523,0.002678,0.000431,0.000470
20342000,0.0324,0.013523,0.002678,0.000431,0.000353
20343000,0.0324,0.013523,0.002678,0.000431,0.000235
20344000,0.0324,0.013523,0.002678,0.000431,0.000353
20345000,0.0324,0.013523,0.002678,0.000431,0.000353
20346000,0.0324,0.013523,0.002678,0.000431,0.000235
20347000,0.0324,0.013523,0.002678,0.000431,0.000353
20348000,0.0324,0.013523,0.002678,0.000431,0.000470
20349000,0.0324,0.013523,0.002678,0.000431,0.000353
20350000,0.0324,0.013523,0.002678,0.000431,0.000235
20351000,0.0324,0.013523,0.002678,0.000431,0.000353
20352000,0.0324,0.013523,0.002678,0.000431,0.000353
20353000,0.0324,0.013523,0.002678,0.000431,0.000235
20354000,0.0324,0.013523,0.002678,0.000431,0.000353
20355000,0.0324,0.013523,0.002678,0.000431,0.000470
20356000,0.0324,0.013523,0.002678,0.000431,0.000353
20357000,0.0324,0.013523,0.002678,0.000431,0.000118
20358000,0.0324,0.013523,0.002678,0.000431,0.000470
20359000,0.0324,0.013523,0.002678,0.000431,0.000353
20360000,0.0324,0.013523,0.002678,0.000431,0.000235
20361000,0.0324,0.013523,0.002678,0.000431,0.000353
20362000,0.0324,0.013523,0.002678,0.000431,0.000470
20363000,0.0324,0.013523,0.002678,0.000431,0.000353
20364000,0.0324,0.013523,0.002678,0.000431,0.000118
20365000,0.0324,0.013523,0.002678,0.000431,0.000470
20366000,0.0324,0.013523,0.002678,0.000431,0.000353
20367000,0.0324,0.013523,0.002678,0.000431,0.000235
20368000,0.0324,0.013523,0.002678,0.000431,0.000353
20369000,0.0324,0.013523,0.002678,0.000431,0.000470
20370000,0.0324,0.013523,0.002678,0.000431,0.000353
20371000,0.0324,0.013523,0.002678,0.000431,0.000118
20372000,0.0324,0.013523,0.002678,0.000431,0.000470
20373000,0.0324,0.013523,0.002678,0.000431,0.000353
20374000,0.0324,0.013523,0.002678,0.000431,0.000235
20375000,0.0324,0.013523,0.002678,0.000431,0.000353
20376000,0.0324,0.013523,0.002678,0.000431,0.000470
20377000,0.0324,0.013523,0.002678,0.000431,0.000235
20378000,0.0324,0.013523,0.002678,0.000431,0.000235
20379000,0.0324,0.013523,0.002678,0.000431,0.000470
20380000,0.0324,0.013523,0.002678,0.000431,0.000353
20381000,0.0324,0.013523,0.002678,0.000431,0.000235
20382000,0.0324,0.013523,0.002678,0.000431,0.000353
20383000,0.0324,0.013523,0.002678,0.000431,0.000470
20384000,0.0324,0.013523,0.002678,0.000431,0.000235
20385000,0.0324,0.013523,0.002678,0.000431,0.000235
20386000,0.0324,0.013523,0.002678,0.000431,0.000470
20387000,0.0324,0.013523,0.002678,0.000431,0.000353
20388000,0.0324,0.013523,0.002678,0.000431,0.000235
20389000,0.0324,0.013523,0.002678,0.000431,0.000353
20390000,0.0324,0.013523,0.002678,0.000431,0.000470
20391000,0.0324,0.013523,0.002678,0.000431,0.000235
20392000,0.0324,0.013523,0.002678,0.000431,0.000235
20393000,0.0324,0.013523,0.002678,0.000431,0.000470
20394000,0.0324,0.013523,0.002678,0.000431,0.000353
20395000,0.0324,0.013523,0.002678,0.000431,0.000235
20396000,0.0324,0.013523,0.002678,0.000431,0.000353
20397000,0.0324,0.013523,0.002678,0.000431,0.000470
20398000,0.0324,0.013523,0.002678,0.000431,0.000235
20399000,0.0324,0.013523,0.002678,0.000431,0.000235
20400000,0.0324,0.013523,0.002678,0.000431,0.000470
20401000,0.0324,0.013523,0.002678,0.000431,0.000353
20402000,0.0324,0.013523,0.002678,0.000431,0.000235
20403000,0.0324,0.013523,0.002678,0.000431,0.000353
20404000,0.0324,0.013523,0.002678,0.000431,0.000470
20405000,0.0324,0.013523,0.002678,0.000431,0.000235
20406000,0.0324,0.013523,0.002678,0.000431,0.000235
20407000,0.0324,0.013523,0.002678,0.000431,0.000470
20408000,0.0324,0.013523,0.002678,0.000431,0.000353
20409000,0.0324,0.013523,0.002678,0.000431,0.000235
20410000,0.0324,0.013523,0.002678,0.000431,0.000353
20411000,0.0324,0.013523,0.002678,0.000431,0.000470
20412000,0.0324,0.013523,0.002678,0.000431,0.000235
20413000,0.0324,0.013523,0.002678,0.000431,0.000235
20414000,0.0324,0.013523,0.002678,0.000431,0.000470
20415000,0.0324,0.013523,0.002678,0.000431,0.000353
20416000,0.0324,0.013523,0.002678,0.000431,0.000235
20417000,0.0324,0.013523,0.002678,0.000431,0.000353
20418000,0.0324,0.013523,0.002678,0.000431,0.000470
20419000,0.0324,0.013523,0.002678,0.000431,0.000118
20420000,0.0324,0.013523,0.002678,0.000431,0.000353
20421000,0.0324,0.013523,0.002678,0.000431,0.000470
20422000,0.0324,0.013523,0.002678,0.000431,0.000353
20423000,0.0324,0.013523,0.002678,0.000431,0.000235
20424000,0.0324,0.013523,0.002678,0.000431,0.000353
20425000,0.0324,0.013523,0.002678,0.000431,0.000470
20426000,0.0324,0.013523,0.002678,0.000431,0.000118
20427000,0.0324,0.013523,0.002678,0.000431,0.000353
20428000,0.0324,0.013523,0.002678,0.000431,0.000470
20429000,0.0324,0.013523,0.002678,0.000431,0.000353
20430000,0.0324,0.013523,0.002678,0.000431,0.000235
20431000,0.0324,0.013523,0.002678,0.000431,0.000353
20432000,0.0324,0.013523,0.002678,0.000431,0.000470
20433000,0.0324,0.013523,0.002678,0.000431,0.000118
20434000,0.0324,0.013523,0.002678,0.000431,0.000353
20435000,0.0324,0.013523,0.002678,0.000431,0.000470
20436000,0.0324,0.013523,0.002678,0.000431,0.000353
20437000,0.0324,0.013523,0.002678,0.000431,0.000235
20438000,0.0324,0.013523,0.002678,0.000431,0.000353
20439000,0.0324,0.013523,0.002678,0.000431,0.000353
20440000,0.0324,0.013523,0.002678,0.000431,0.000235
20441000,0.0324,0.013523,0.002678,0.000431,0.000353
20442000,0.0324,0.013523,0.002678,0.000431,0.000470
20443000,0.0324,0.013523,0.002678,0.000431,0.000353
20444000,0.0324,0.013523,0.002678,0.000431,0.000235
20445000,0.0324,0.013523,0.002678,0.000431,0.000353
20446000,0.0324,0.013523,0.002678,0.000431,0.000353
20447000,0.0324,0.013523,0.002678,0.000431,0.000235
20448000,0.0324,0.013523,0.002678,0.000431,0.000353
20449000,0.0324,0.013523,0.002678,0.000431,0.000470
20450000,0.0324,0.013523,0.002678,0.000431,0.000353
20451000,0.0324,0.013523,0.002678,0.000431,0.000235
20452000,0.0324,0.013523,0.002678,0.000431,0.000353
20453000,0.0324,0.013523,0.002678,0.000431,0.000353
20454000,0.0324,0.013523,0.002678,0.000431,0.000235
20455000,0.0324,0.013523,0.002678,0.000431,0.000353
20456000,0.0324,0.013523,0.002678,0.000431,0.000470
20457000,0.0324,0.013523,0.002678,0.000431,0.000353
20458000,0.0324,0.013523,0.002678,0.000431,0.000235
20459000,0.0324,0.013523,0.002678,0.000431,0.000353
20460000,0.0324,0.013523,0.002678,0.000431,0.000353
20461000,0.0324,0.013523,0.002678,0.000431,0.000235
20462000,0.0324,0.013523,0.002678,0.000431,0.000353
20463000,0.0324,0.013523,0.002678,0.000431,0.000470
20464000,0.0324,0.013523,0.002678,0.000431,0.000353
20465000,0.0324,0.013523,0.002678,0.000431,0.000235
20466000,0.0324,0.013523,0.002678,0.000431,0.000353
20467000,0.0324,0.013523,0.002678,0.000431,0.000353
20468000,0.0324,0.013523,0.002678,0.000431,0.000235
20469000,0.0324,0.013523,0.002678,0.000431,0.000353
20470000,0.0324,0.013523,0.002678,0.000431,0.000470
20471000,0.0324,0.013523,0.002678,0.000431,0.000353
20472000,0.0324,0.013523,0.002678,0.000431,0.000235
20473000,0.0324,0.013523,0.002678,0.000431,0.000353
20474000,0.0324,0.013523,0.002678,0.000431,0.000353
20475000,0.0324,0.013523,0.002678,0.000431,0.000235
20476000,0.0324,0.013523,0.002678,0.000431,0.000353
20477000,0.0324,0.013523,0.002678,0.000431,0.000470
20478000,0.0324,0.013523,0.002678,0.000431,0.000353
20479000,0.0324,0.013523,0.002678,0.000431,0.000235
20480000,0.0324,0.013523,0.002678,0.000431,0.000353
20481000,0.0324,0.013523,0.002678,0.000431,0.000353
20482000,0.0324,0.013523,0.002678,0.000431,0.000235
20483000,0.0324,0.013523,0.002678,0.000431,0.000353
20484000,0.0324,0.013523,0.002678,0.000431,0.000470
20485000,0.0324,0.013523,0.002678,0.000431,0.000353
20486000,0.0324,0.013523,0.002678,0.000431,0.000235
20487000,0.0324,0.013523,0.002678,0.000431,0.000353
20488000,0.0324,0.013523,0.002678,0.000431,0.000353
20489000,0.0324,0.013523,0.002678,0.000431,0.000235
20490000,0.0324,0.013523,0.002678,0.000431,0.000353
20491000,0.0324,0.013523,0.002678,0.000431,0.000470
20492000,0.0324,0.013523,0.002678,0.000431,0.000353
20493000,0.0324,0.013523,0.002678,0.000431,0.000118
20494000,0.0324,0.013523,0.002678,0.000431,0.000470
20495000,0.0324,0.013523,0.002678,0.000431,0.000353
20496000,0.0324,0.013523,0.002678,0.000431,0.000235
20497000,0.0324,0.013523,0.002678,0.000431,0.000353
20498000,0.0324,0.013523,0.002678,0.000431,0.000470
20499000,0.0324,0.013523,0.002678,0.000431,0.000353
20500000,0.0324,0.013523,0.002678,0.000431,0.000118
20501000,0.0324,0.013523,0.002678,0.000431,0.000470
20502000,0.0324,0.013523,0.002678,0.000431,0.000353
20503000,0.0324,0.013523,0.002678,0.000431,0.000235
20504000,0.0324,0.013523,0.002678,0.000431,0.000353
20505000,0.0324,0.013523,0.002678,0.000431,0.000470
20506000,0.0324,0.013523,0.002678,0.000431,0.000353
20507000,0.0324,0.013523,0.002678,0.000431,0.000118
20508000,0.0324,0.013523,0.002678,0.000431,0.000470
20509000,0.0324,0.013523,0.002678,0.000431,0.000353
20510000,0.0324,0.013523,0.002678,0.000431,0.000235
20511000,0.0324,0.013523,0.002678,0.000431,0.000353
20512000,0.0324,0.013523,0.002678,0.000431,0.000470
20513000,0.0324,0.013523,0.002678,0.000431,0.000353
20514000,0.0324,0.013523,0.002678,0.000431,0.000118
20515000,0.0324,0.013523,0.002678,0.000431,0.000470
20516000,0.0324,0.013523,0.002678,0.000431,0.000353
20517000,0.0324,0.013523,0.002678,0.000431,0.000235
20518000,0.0324,0.013523,0.002678,0.000431,0.000353
20519000,0.0324,0.013523,0.002678,0.000431,0.000470
20520000,0.0324,0.013523,0.002678,0.000431,0.000235
20521000,0.0324,0.013523,0.002678,0.000431,0.000235
20522000,0.0324,0.013523,0.002678,0.000431,0.000470
20523000,0.0324,0.013523,0.002678,0.000431,0.000353
20524000,0.0324,0.013523,0.002678,0.000431,0.000235
20525000,0.0324,0.013523,0.002678,0.000431,0.000353
20526000,0.0324,0.013523,0.002678,0.000431,0.000470
20527000,0.0324,0.013523,0.002678,0.000431,0.000235
20528000,0.0324,0.013523,0.002678,0.000431,0.000235
20529000,0.0324,0.013523,0.002678,0.000431,0.000470
20530000,0.0324,0.013523,0.002678,0.000431,0.000353
20531000,0.0324,0.013523,0.002678,0.000431,0.000235
20532000,0.0324,0.013523,0.002678,0.000431,0.000353
20533000,0.0324,0.013523,0.002678,0.000431,0.000470
20534000,0.0324,0.013523,0.002678,0.000431,0.000235
20535000,0.0324,0.013523,0.002678,0.000431,0.000235
20536000,0.0324,0.013523,0.002678,0.000431,0.000470
20537000,0.0324,0.013523,0.002678,0.000431,0.000353
20538000,0.0324,0.013523,0.002678,0.000431,0.000235
20539000,0.0324,0.013523,0.002678,0.000431,0.000353
20540000,0.0324,0.013523,0.002678,0.000431,0.000470
20541000,0.0324,0.013523,0.002678,0.000431,0.000235
20542000,0.0324,0.013523,0.002678,0.000431,0.000235
20543000,0.0324,0.013523,0.002678,0.000431,0.000470
20544000,0.0324,0.013523,0.002678,0.000431,0.000353
20545000,0.0324,0.013523,0.002678,0.000431,0.000235
20546000,0.0324,0.013523,0.002678,0.000431,0.000353
20547000,0.0324,0.013523,0.002678,0.000431,0.000470
20548000,0.0324,0.013523,0.002678,0.000431,0.000235
20549000,0.0324,0.013523,0.002678,0.000431,0.000235
20550000,0.0324,0.013523,0.002678,0.000431,0.000470
20551000,0.0324,0.013523,0.002678,0.000431,0.000353
20552000,0.0324,0.013523,0.002678,0.000431,0.000235
20553000,0.0324,0.013523,0.002678,0.000431,0.000353
20554000,0.0324,0.013523,0.002678,0.000431,0.000470
20555000,0.0324,0.013523,0.002678,0.000431,0.000235
20556000,0.0324,0.013523,0.002678,0.000431,0.000235
20557000,0.0324,0.013523,0.002678,0.000431,0.000470
20558000,0.0324,0.013523,0.002678,0.000431,0.000353
20559000,0.0324,0.013523,0.002678,0.000431,0.000235
20560000,0.0324,0.013523,0.002678,0.000431,0.000353
20561000,0.0324,0.013523,0.002678,0.000431,0.000470
20562000,0.0324,0.013523,0.002678,0.000431,0.000118
20563000,0.0324,0.013523,0.002678,0.000431,0.000353
20564000,0.0324,0.013523,0.002678,0.000431,0.000470
20565000,0.0324,0.013523,0.002678,0.000431,0.000353
20566000,0.0324,0.013523,0.002678,0.000431,0.000235
20567000,0.0324,0.013523,0.002678,0.000431,0.000353
20568000,0.0324,0.013523,0.002678,0.000431,0.000470
20569000,0.0324,0.013523,0.002678,0.000431,0.000118
20570000,0.0324,0.013523,0.002678,0.000431,0.000353
20571000,0.0324,0.013523,0.002678,0.000431,0.000470
20572000,0.0324,0.013523,0.002678,0.000431,0.000353
20573000,0.0324,0.013523,0.002678,0.000431,0.000235
20574000,0.0324,0.013523,0.002678,0.000431,0.000353
20575000,0.0324,0.013523,0.002678,0.000431,0.000470
20576000,0.0324,0.013523,0.002678,0.000431,0.000118
20577000,0.0324,0.013523,0.002678,0.000431,0.000353
20578000,0.0324,0.013523,0.002678,0.000431,0.000470
20579000,0.0324,0.013523,0.002678,0.000431,0.000353
20580000,0.0324,0.013523,0.002678,0.000431,0.000235
20581000,0.0324,0.013523,0.002678,0.000431,0.000353
20582000,0.0324,0.013523,0.002678,0.000431,0.000353
20583000,0.0324,0.013523,0.002678,0.000431,0.000235
20584000,0.0324,0.013523,0.002678,0.000431,0.000353
20585000,0.0324,0.013523,0.002678,0.000431,0.000470
20586000,0.0324,0.013523,0.002678,0.000431,0.000353
20587000,0.0324,0.013523,0.002678,0.000431,0.000235
20588000,0.0324,0.013523,0.002678,0.000431,0.000353
20589000,0.0324,0.013523,0.002678,0.000431,0.000353
20590000,0.0324,0.013523,0.002678,0.000431,0.000235
20591000,0.0324,0.013523,0.002678,0.000431,0.000353
20592000,0.0324,0.013523,0.002678,0.000431,0.000470
20593000,0.0324,0.013523,0.002678,0.000431,0.000353
20594000,0.0324,0.013523,0.002678,0.000431,0.000235
20595000,0.0324,0.013523,0.002678,0.000431,0.000353
20596000,0.0324,0.013523,0.002678,0.000431,0.000353
20597000,0.0324,0.013523,0.002678,0.000431,0.000235
20598000,0.0324,0.013523,0.002678,0.000431,0.000353
20599000,0.0324,0.013523,0.002678,0.000431,0.000470
20600000,0.0324,0.013523,0.002678,0.000431,0.000353
20601000,0.0324,0.013523,0.002678,0.000431,0.000235
20602000,0.0324,0.013523,0.002678,0.000431,0.000353
20603000,0.0324,0.013523,0.002678,0.000431,0.000353
20604000,0.0324,0.013523,0.002678,0.000431,0.000235
20605000,0.0324,0.013523,0.002678,0.000431,0.000353
20606000,0.0324,0.013523,0.002678,0.000431,0.000470
20607000,0.0324,0.013523,0.002678,0.000431,0.000353
20608000,0.0324,0.013523,0.002678,0.000431,0.000235
20609000,0.0324,0.013523,0.002678,0.000431,0.000353
20610000,0.0324,0.013523,0.002678,0.000431,0.000353
20611000,0.0324,0.013523,0.002678,0.000431,0.000235
20612000,0.0324,0.013523,0.002678,0.000431,0.000353
20613000,0.0324,0.013523,0.002678,0.000431,0.000470
20614000,0.0324,0.013523,0.002678,0.000431,0.000353
20615000,0.0324,0.013523,0.002678,0.000431,0.000235
20616000,0.0324,0.013523,0.002678,0.000431,0.000353
20617000,0.0324,0.013523,0.002678,0.000431,0.000353
20618000,0.0324,0.013523,0.002678,0.000431,0.000235
20619000,0.0324,0.013523,0.002678,0.000431,0.000353
20620000,0.0324,0.013523,0.002678,0.000431,0.000470
20621000,0.0324,0.013523,0.002678,0.000431,0.000353
20622000,0.0324,0.013523,0.002678,0.000431,0.000235
20623000,0.0324,0.013523,0.002678,0.000431,0.000353
20624000,0.0324,0.013523,0.002678,0.000431,0.000353
20625000,0.0324,0.013523,0.002678,0.000431,0.000235
20626000,0.0324,0.013523,0.002678,0.000431,0.000353
20627000,0.0324,0.013523,0.002678,0.000431,0.000470
20628000,0.0324,0.013523,0.002678,0.000431,0.000353
20629000,0.0324,0.013523,0.002678,0.000431,0.000235
20630000,0.0324,0.013523,0.002678,0.000431,0.000353
20631000,0.0324,0.013523,0.002678,0.000431,0.000353
20632000,0.0324,0.013523,0.002678,0.000431,0.000235
20633000,0.0324,0.013523,0.002678,0.000431,0.000353
20634000,0.0324,0.013523,0.002678,0.000431,0.000470
20635000,0.0324,0.013523,0.002678,0.000431,0.000353
20636000,0.0324,0.013523,0.002678,0.000431,0.000118
20637000,0.0324,0.013523,0.002678,0.000431,0.000470
20638000,0.0324,0.013523,0.002678,0.000431,0.000353
20639000,0.0324,0.013523,0.002678,0.000431,0.000235
20640000,0.0324,0.013523,0.002678,0.000431,0.000353
20641000,0.0324,0.013523,0.002678,0.000431,0.000470
20642000,0.0324,0.013523,0.002678,0.000431,0.000353
20643000,0.0324,0.013523,0.002678,0.000431,0.000118
20644000,0.0324,0.013523,0.002678,0.000431,0.000470
20645000,0.0324,0.013523,0.002678,0.000431,0.000353
20646000,0.0324,0.013523,0.002678,0.000431,0.000235
20647000,0.0324,0.013523,0.002678,0.000431,0.000353
20648000,0.0324,0.013523,0.002678,0.000431,0.000470
20649000,0.0324,0.013523,0.002678,0.000431,0.000353
20650000,0.0324,0.013523,0.002678,0.000431,0.000118
20651000,0.0324,0.013523,0.002678,0.000431,0.000470
20652000,0.0324,0.013523,0.002678,0.000431,0.000353
20653000,0.0324,0.013523,0.002678,0.000431,0.000235
20654000,0.0324,0.013523,0.002678,0.000431,0.000353
20655000,0.0324,0.013523,0.002678,0.000431,0.000470
20656000,0.0324,0.013523,0.002678,0.000431,0.000235
20657000,0.0324,0.013523,0.002678,0.000431,0.000235
20658000,0.0324,0.013523,0.002678,0.000431,0.000470
20659000,0.0324,0.013523,0.002678,0.000431,0.000353
20660000,0.0324,0.013523,0.002678,0.000431,0.000235
20661000,0.0324,0.013523,0.002678,0.000431,0.000353
20662000,0.0324,0.013523,0.002678,0.000431,0.000470
20663000,0.0324,0.013523,0.002678,0.000431,0.000235
20664000,0.0324,0.013523,0.002678,0.000431,0.000235
20665000,0.0324,0.013523,0.002678,0.000431,0.000470
20666000,0.0324,0.013523,0.002678,0.000431,0.000353
20667000,0.0324,0.013523,0.002678,0.000431,0.000235
20668000,0.0324,0.013523,0.002678,0.000431,0.000353
20669000,0.0324,0.013523,0.002678,0.000431,0.000470
20670000,0.0324,0.013523,0.002678,0.000431,0.000235
20671000,0.0324,0.013523,0.002678,0.000431,0.000235
20672000,0.0324,0.013523,0.002678,0.000431,0.000470
20673000,0.0324,0.013523,0.002678,0.000431,0.000353
20674000,0.0324,0.013523,0.002678,0.000431,0.000235
20675000,0.0324,0.013523,0.002678,0.000431,0.000353
20676000,0.0324,0.013523,0.002678,0.000431,0.000470
20677000,0.0324,0.013523,0.002678,0.000431,0.000235
20678000,0.0324,0.013523,0.002678,0.000431,0.000235
20679000,0.0324,0.013523,0.002678,0.000431,0.000470
20680000,0.0324,0.013523,0.002678,0.000431,0.000353
20681000,0.0324,0.013523,0.002678,0.000431,0.000235
20682000,0.0324,0.013523,0.002678,0.000431,0.000353
20683000,0.0324,0.013523,0.002678,0.000431,0.000470
20684000,0.0324,0.013523,0.002678,0.000431,0.000235
20685000,0.0324,0.013523,0.002678,0.000431,0.000235
20686000,0.0324,0.013523,0.002678,0.000431,0.000470
20687000,0.0324,0.013523,0.002678,0.000431,0.000353
20688000,0.0324,0.013523,0.002678,0.000431,0.000235
20689000,0.0324,0.013523,0.002678,0.000431,0.000353
20690000,0.0324,0.013523,0.002678,0.000431,0.000470
20691000,0.0324,0.013523,0.002678,0.000431,0.000235
20692000,0.0324,0.013523,0.002678,0.000431,0.000235
20693000,0.0324,0.013523,0.002678,0.000431,0.000470
20694000,0.0324,0.013523,0.002678,0.000431,0.000353
20695000,0.0324,0.013523,0.002678,0.000431,0.000235
20696000,0.0324,0.013523,0.002678,0.000431,0.000353
20697000,0.0324,0.013523,0.002678,0.000431,0.000470
20698000,0.0324,0.013523,0.002678,0.000431,0.000118
20699000,0.0324,0.013523,0.002678,0.000431,0.000353
20700000,0.0324,0.013523,0.002678,0.000431,0.000470
20701000,0.0324,0.013523,0.002678,0.000431,0.000353
20702000,0.0324,0.013523,0.002678,0.000431,0.000235
20703000,0.0324,0.013523,0.002678,0.000431,0.000353
20704000,0.0324,0.013523,0.002678,0.000431,0.000470
20705000,0.0324,0.013523,0.002678,0.000431,0.000118
20706000,0.0324,0.013523,0.002678,0.000431,0.000353
20707000,0.0324,0.013523,0.002678,0.000431,0.000470
20708000,0.0324,0.013523,0.002678,0.000431,0.000353
20709000,0.0324,0.013523,0.002678,0.000431,0.000235
20710000,0.0324,0.013523,0.002678,0.000431,0.000353
20711000,0.0324,0.013523,0.002678,0.000431,0.000470
20712000,0.0324,0.013523,0.002678,0.000431,0.000118
20713000,0.0324,0.013523,0.002678,0.000431,0.000353
20714000,0.0324,0.013523,0.002678,0.000431,0.000470
20715000,0.0324,0.013523,0.002678,0.000431,0.000353
20716000,0.0324,0.013523,0.002678,0.000431,0.000235
20717000,0.0324,0.013523,0.002678,0.000431,0.000353
20718000,0.0324,0.013523,0.002678,0.000431,0.000470
20719000,0.0324,0.013523,0.002678,0.000431,0.000118
20720000,0.0324,0.013523,0.002678,0.000431,0.000353
20721000,0.0324,0.013523,0.002678,0.000431,0.000470
20722000,0.0324,0.013523,0.002678,0.000431,0.000353
20723000,0.0324,0.013523,0.002678,0.000431,0.000235
20724000,0.0324,0.013523,0.002678,0.000431,0.000353
20725000,0.0324,0.013523,0.002678,0.000431,0.000353
20726000,0.0324,0.013523,0.002678,0.000431,0.000235
20727000,0.0324,0.013523,0.002678,0.000431,0.000353
20728000,0.0324,0.013523,0.002678,0.000431,0.000470
20729000,0.0324,0.013523,0.002678,0.000431,0.000353
20730000,0.0324,0.013523,0.002678,0.000431,0.000235
20731000,0.0324,0.013523,0.002678,0.000431,0.000353
20732000,0.0324,0.013523,0.002678,0.000431,0.000353
20733000,0.0324,0.013523,0.002678,0.000431,0.000235
20734000,0.0324,0.013523,0.002678,0.000431,0.000353
20735000,0.0324,0.013523,0.002678,0.000431,0.000470
20736000,0.0324,0.013523,0.002678,0.000431,0.000353
20737000,0.0324,0.013523,0.002678,0.000431,0.000235
20738000,0.0324,0.013523,0.002678,0.000431,0.000353
20739000,0.0324,0.013523,0.002678,0.000431,0.000353
20740000,0.0324,0.013523,0.002678,0.000431,0.000235
20741000,0.0324,0.013523,0.002678,0.000431,0.000353
20742000,0.0324,0.013523,0.002678,0.000431,0.000470
20743000,0.0324,0.013523,0.002678,0.000431,0.000353
20744000,0.0324,0.013523,0.002678,0.000431,0.000235
20745000,0.0324,0.013523,0.002678,0.000431,0.000353
20746000,0.0324,0.013523,0.002678,0.000431,0.000353
20747000,0.0324,0.013523,0.002678,0.000431,0.000235
20748000,0.0324,0.013523,0.002678,0.000431,0.000353
20749000,0.0324,0.013523,0.002678,0.000431,0.000470
20750000,0.0324,0.013523,0.002678,0.000431,0.000353
20751000,0.0324,0.013523,0.002678,0.000431,0.000235
20752000,0.0324,0.013523,0.002678,0.000431,0.000353
20753000,0.0324,0.013523,0.002678,0.000431,0.000353
20754000,0.0324,0.013523,0.002678,0.000431,0.000235
20755000,0.0324,0.013523,0.002678,0.000431,0.000353
20756000,0.0324,0.013523,0.002678,0.000431,0.000470
20757000,0.0324,0.013523,0.002678,0.000431,0.000353
20758000,0.0324,0.013523,0.002678,0.000431,0.000235
20759000,0.0324,0.013523,0.002678,0.000431,0.000353
20760000,0.0324,0.013523,0.002678,0.000431,0.000353
20761000,0.0324,0.013523,0.002678,0.000431,0.000235
20762000,0.0324,0.013523,0.002678,0.000431,0.000353
20763000,0.0324,0.013523,0.002678,0.000431,0.000470
20764000,0.0324,0.013523,0.002678,0.000431,0.000353
20765000,0.0324,0.013523,0.002678,0.000431,0.000235
20766000,0.0324,0.013523,0.002678,0.000431,0.000353
20767000,0.0324,0.013523,0.002678,0.000431,0.000353
20768000,0.0324,0.013523,0.002678,0.000431,0.000235
20769000,0.0324,0.013523,0.002678,0.000431,0.000353
20770000,0.0324,0.013523,0.002678,0.000431,0.000470
20771000,0.0324,0.013523,0.002678,0.000431,0.000353
20772000,0.0324,0.013523,0.002678,0.000431,0.000118
20773000,0.0324,0.013523,0.002678,0.000431,0.000470
20774000,0.0324,0.013523,0.002678,0.000431,0.000353
20775000,0.0324,0.013523,0.002678,0.000431,0.000235
20776000,0.0324,0.013523,0.002678,0.000431,0.000353
20777000,0.0324,0.013523,0.002678,0.000431,0.000470
20778000,0.0324,0.013523,0.002678,0.000431,0.000353
20779000,0.0324,0.013523,0.002678,0.000431,0.000118
20780000,0.0324,0.013523,0.002678,0.000431,0.000470
20781000,0.0324,0.013523,0.002678,0.000431,0.000353
20782000,0.0324,0.013523,0.002678,0.000431,0.000235
20783000,0.0324,0.013523,0.002678,0.000431,0.000353
20784000,0.0324,0.013523,0.002678,0.000431,0.000470
20785000,0.0324,0.013523,0.002678,0.000431,0.000353
20786000,0.0324,0.013523,0.002678,0.000431,0.000118
20787000,0.0324,0.013523,0.002678,0.000431,0.000470
20788000,0.0324,0.013523,0.002678,0.000431,0.000353
20789000,0.0324,0.013523,0.002678,0.000431,0.000235
20790000,0.0324,0.013523,0.002678,0.000431,0.000353
20791000,0.0324,0.013523,0.002678,0.000431,0.000470
20792000,0.0324,0.013523,0.002678,0.000431,0.000353
20793000,0.0324,0.013523,0.002678,0.000431,0.000118
20794000,0.0324,0.013523,0.002678,0.000431,0.000470
20795000,0.0324,0.013523,0.002678,0.000431,0.000353
20796000,0.0324,0.013523,0.002678,0.000431,0.000235
20797000,0.0324,0.013523,0.002678,0.000431,0.000353
20798000,0.0324,0.013523,0.002678,0.000431,0.000470
20799000,0.0324,0.013523,0.002678,0.000431,0.000235
20800000,0.0324,0.013523,0.002678,0.000431,0.000235
20801000,0.0324,0.013523,0.002678,0.000431,0.000470
20802000,0.0324,0.013523,0.002678,0.000431,0.000353
20803000,0.0324,0.013523,0.002678,0.000431,0.000235
20804000,0.0324,0.013523,0.002678,0.000431,0.000353
20805000,0.0324,0.013523,0.002678,0.000431,0.000470
20806000,0.0324,0.013523,0.002678,0.000431,0.000235
20807000,0.0324,0.013523,0.002678,0.000431,0.000235
20808000,0.0324,0.013523,0.002678,0.000431,0.000470
20809000,0.0324,0.013523,0.002678,0.000431,0.000353
20810000,0.0324,0.013523,0.002678,0.000431,0.000235
20811000,0.0324,0.013523,0.002678,0.000431,0.000353
20812000,0.0324,0.013523,0.002678,0.000431,0.000470
20813000,0.0324,0.013523,0.002678,0.000431,0.000235
20814000,0.0324,0.013523,0.002678,0.000431,0.000235
20815000,0.0324,0.013523,0.002678,0.000431,0.000470
20816000,0.0324,0.013523,0.002678,0.000431,0.000353
20817000,0.0324,0.013523,0.002678,0.000431,0.000235
20818000,0.0324,0.013523,0.002678,0.000431,0.000353
20819000,0.0324,0.013523,0.002678,0.000431,0.000470
20820000,0.0324,0.013523,0.002678,0.000431,0.000235
20821000,0.0324,0.013523,0.002678,0.000431,0.000235
20822000,0.0324,0.013523,0.002678,0.000431,0.000470
20823000,0.0324,0.013523,0.002678,0.000431,0.000353
20824000,0.0324,0.013523,0.002678,0.000431,0.000235
20825000,0.0324,0.013523,0.002678,0.000431,0.000353
20826000,0.0324,0.013523,0.002678,0.000431,0.000470
20827000,0.0324,0.013523,0.002678,0.000431,0.000235
20828000,0.0324,0.013523,0.002678,0.000431,0.000235
20829000,0.0324,0.013523,0.002678,0.000431,0.000470
20830000,0.0324,0.013523,0.002678,0.000431,0.000353
20831000,0.0324,0.013523,0.002678,0.000431,0.000235
20832000,0.0324,0.013523,0.002678,0.000431,0.000353
20833000,0.0324,0.013523,0.002678,0.000431,0.000470
20834000,0.0324,0.013523,0.002678,0.000431,0.000235
20835000,0.0324,0.013523,0.002678,0.000431,0.000235
20836000,0.0324,0.013523,0.002678,0.000431,0.000470
20837000,0.0324,0.013523,0.002678,0.000431,0.000353
20838000,0.0324,0.013523,0.002678,0.000431,0.000235
20839000,0.0324,0.013523,0.002678,0.000431,0.000353
20840000,0.0324,0.013523,0.002678,0.000431,0.000470
20841000,0.0324,0.013523,0.002678,0.000431,0.000118
20842000,0.0324,0.013523,0.002678,0.000431,0.000353
20843000,0.0324,0.013523,0.002678,0.000431,0.000470
20844000,0.0324,0.013523,0.002678,0.000431,0.000353
20845000,0.0324,0.013523,0.002678,0.000431,0.000235
20846000,0.0324,0.013523,0.002678,0.000431,0.000353
20847000,0.0324,0.013523,0.002678,0.000431,0.000470
20848000,0.0324,0.013523,0.002678,0.000431,0.000118
20849000,0.0324,0.013523,0.002678,0.000431,0.000353
20850000,0.0324,0.013523,0.002678,0.000431,0.000470
20851000,0.0324,0.013523,0.002678,0.000431,0.000353
20852000,0.0324,0.013523,0.002678,0.000431,0.000235
20853000,0.0324,0.013523,0.002678,0.000431,0.000353
20854000,0.0324,0.013523,0.002678,0.000431,0.000470
20855000,0.0324,0.013523,0.002678,0.000431,0.000118
20856000,0.0324,0.013523,0.002678,0.000431,0.000353
20857000,0.0324,0.013523,0.002678,0.000431,0.000470
20858000,0.0324,0.013523,0.002678,0.000431,0.000353
20859000,0.0324,0.013523,0.002678,0.000431,0.000235
20860000,0.0324,0.013523,0.002678,0.000431,0.000353
20861000,0.0324,0.013523,0.002678,0.000431,0.000353
20862000,0.0324,0.013523,0.002678,0.000431,0.000235
20863000,0.0324,0.013523,0.002678,0.000431,0.000353
20864000,0.0324,0.013523,0.002678,0.000431,0.000470
20865000,0.0324,0.013523,0.002678,0.000431,0.000353
20866000,0.0324,0.013523,0.002678,0.000431,0.000235
20867000,0.0324,0.013523,0.002678,0.000431,0.000353
20868000,0.0324,0.013523,0.002678,0.000431,0.000353
20869000,0.0324,0.013523,0.002678,0.000431,0.000235
20870000,0.0324,0.013523,0.002678,0.000431,0.000353
20871000,0.0324,0.013523,0.002678,0.000431,0.000470
20872000,0.0324,0.013523,0.002678,0.000431,0.000353
20873000,0.0324,0.013523,0.002678,0.000431,0.000235
20874000,0.0324,0.013523,0.002678,0.000431,0.000353
20875000,0.0324,0.013523,0.002678,0.000431,0.000353
20876000,0.0324,0.013523,0.002678,0.000431,0.000235
20877000,0.0324,0.013523,0.002678,0.000431,0.000353
20878000,0.0324,0.013523,0.002678,0.000431,0.000470
20879000,0.0324,0.013523,0.002678,0.000431,0.000353
20880000,0.0324,0.013523,0.002678,0.000431,0.000235
20881000,0.0324,0.013523,0.002678,0.000431,0.000353
20882000,0.0324,0.013523,0.002678,0.000431,0.000353
20883000,0.0324,0.013523,0.002678,0.000431,0.000235
20884000,0.0324,0.013523,0.002678,0.000431,0.000353
20885000,0.0324,0.013523,0.002678,0.000431,0.000470
20886000,0.0324,0.013523,0.002678,0.000431,0.000353
20887000,0.0324,0.013523,0.002678,0.000431,0.000235
20888000,0.0324,0.013523,0.002678,0.000431,0.000353
20889000,0.0324,0.013523,0.002678,0.000431,0.000353
20890000,0.0324,0.013523,0.002678,0.000431,0.000235
20891000,0.0324,0.013523,0.002678,0.000431,0.000353
20892000,0.0324,0.013523,0.002678,0.000431,0.000470
20893000,0.0324,0.013523,0.002678,0.000431,0.000353
20894000,0.0324,0.013523,0.002678,0.000431,0.000235
20895000,0.0324,0.013523,0.002678,0.000431,0.000353
20896000,0.0324,0.013523,0.002678,0.000431,0.000353
20897000,0.0324,0.013523,0.002678,0.000431,0.000235
20898000,0.0324,0.013523,0.002678,0.000431,0.000353
20899000,0.0324,0.013523,0.002678,0.000431,0.000470
20900000,0.0324,0.013523,0.002678,0.000431,0.000353
20901000,0.0324,0.013523,0.002678,0.000431,0.000235
20902000,0.0324,0.013523,0.002678,0.000431,0.000353
20903000,0.0324,0.013523,0.002678,0.000431,0.000353
20904000,0.0324,0.013523,0.002678,0.000431,0.000235
20905000,0.0324,0.013523,0.002678,0.000431,0.000353
20906000,0.0324,0.013523,0.002678,0.000431,0.000470
20907000,0.0324,0.013523,0.002678,0.000431,0.000353
20908000,0.0324,0.013523,0.002678,0.000431,0.000235
20909000,0.0324,0.013523,0.002678,0.000431,0.000353
20910000,0.0324,0.013523,0.002678,0.000431,0.000353
20911000,0.0324,0.013523,0.002678,0.000431,0.000235
20912000,0.0324,0.013523,0.002678,0.000431,0.000353
20913000,0.0324,0.013523,0.002678,0.000431,0.000470
20914000,0.0324,0.013523,0.002678,0.000431,0.000353
20915000,0.0324,0.013523,0.002678,0.000431,0.000118
20916000,0.0324,0.013523,0.002678,0.000431,0.000470
20917000,0.0324,0.013523,0.002678,0.000431,0.000353
20918000,0.0324,0.013523,0.002678,0.000431,0.000235
20919000,0.0324,0.013523,0.002678,0.000431,0.000353
20920000,0.0324,0.013523,0.002678,0.000431,0.000470
20921000,0.0324,0.013523,0.002678,0.000431,0.000353
20922000,0.0324,0.013523,0.002678,0.000431,0.000118
20923000,0.0324,0.013523,0.002678,0.000431,0.000470
20924000,0.0324,0.013523,0.002678,0.000431,0.000353
20925000,0.0324,0.013523,0.002678,0.000431,0.000235
20926000,0.0324,0.013523,0.002678,0.000431,0.000353
20927000,0.0324,0.013523,0.002678,0.000431,0.000470
20928000,0.0324,0.013523,0.002678,0.000431,0.000353
20929000,0.0324,0.013523,0.002678,0.000431,0.000118
20930000,0.0324,0.013523,0.002678,0.000431,0.000470
20931000,0.0324,0.013523,0.002678,0.000431,0.000353
20932000,0.0324,0.013523,0.002678,0.000431,0.000235
20933000,0.0324,0.013523,0.002678,0.000431,0.000353
20934000,0.0324,0.013523,0.002678,0.000431,0.000470
20935000,0.0324,0.013523,0.002678,0.000431,0.000235
20936000,0.0324,0.013523,0.002678,0.000431,0.000235
20937000,0.0324,0.013523,0.002678,0.000431,0.000470
20938000,0.0324,0.013523,0.002678,0.000431,0.000353
20939000,0.0324,0.013523,0.002678,0.000431,0.000235
20940000,0.0324,0.013523,0.002678,0.000431,0.000353
20941000,0.0324,0.013523,0.002678,0.000431,0.000470
20942000,0.0324,0.013523,0.002678,0.000431,0.000235
20943000,0.0324,0.013523,0.002678,0.000431,0.000235
20944000,0.0324,0.013523,0.002678,0.000431,0.000470
20945000,0.0324,0.013523,0.002678,0.000431,0.000353
20946000,0.0324,0.013523,0.002678,0.000431,0.000235
20947000,0.0324,0.013523,0.002678,0.000431,0.000353
20948000,0.0324,0.013523,0.002678,0.000431,0.000470
20949000,0.0324,0.013523,0.002678,0.000431,0.000235
20950000,0.0324,0.013523,0.002678,0.000431,0.000235
20951000,0.0324,0.013523,0.002678,0.000431,0.000470
20952000,0.0324,0.013523,0.002678,0.000431,0.000353
20953000,0.0324,0.013523,0.002678,0.000431,0.000235
20954000,0.0324,0.013523,0.002678,0.000431,0.000353
20955000,0.0324,0.013523,0.002678,0.000431,0.000470
20956000,0.0324,0.013523,0.002678,0.000431,0.000235
20957000,0.0324,0.013523,0.002678,0.000431,0.000235
20958000,0.0324,0.013523,0.002678,0.000431,0.000470
20959000,0.0324,0.013523,0.002678,0.000431,0.000353
20960000,0.0324,0.013523,0.002678,0.000431,0.000235
20961000,0.0324,0.013523,0.002678,0.000431,0.000353
20962000,0.0324,0.013523,0.002678,0.000431,0.000470
20963000,0.0324,0.013523,0.002678,0.000431,0.000235
20964000,0.0324,0.013523,0.002678,0.000431,0.000235
20965000,0.0324,0.013523,0.002678,0.000431,0.000470
20966000,0.0324,0.013523,0.002678,0.000431,0.000353
20967000,0.0324,0.013523,0.002678,0.000431,0.000235
20968000,0.0324,0.013523,0.002678,0.000431,0.000353
20969000,0.0324,0.013523,0.002678,0.000431,0.000470
20970000,0.0324,0.013523,0.002678,0.000431,0.000235
20971000,0.0324,0.013523,0.002678,0.000431,0.000235
20972000,0.0324,0.013523,0.002678,0.000431,0.000470
20973000,0.0324,0.013523,0.002678,0.000431,0.000353
20974000,0.0324,0.013523,0.002678,0.000431,0.000235
20975000,0.0324,0.013523,0.002678,0.000431,0.000353
20976000,0.0324,0.013523,0.002678,0.000431,0.000470
20977000,0.0324,0.013523,0.002678,0.000431,0.000118
20978000,0.0324,0.013523,0.002678,0.000431,0.000353
20979000,0.0324,0.013523,0.002678,0.000431,0.000470
20980000,0.0324,0.013523,0.002678,0.000431,0.000353
20981000,0.0324,0.013523,0.002678,0.000431,0.000235
20982000,0.0324,0.013523,0.002678,0.000431,0.000353
20983000,0.0324,0.013523,0.002678,0.000431,0.000470
20984000,0.0324,0.013523,0.002678,0.000431,0.000118
20985000,0.0324,0.013523,0.002678,0.000431,0.000353
20986000,0.0324,0.013523,0.002678,0.000431,0.000470
20987000,0.0324,0.013523,0.002678,0.000431,0.000353
20988000,0.0324,0.013523,0.002678,0.000431,0.000235
20989000,0.0324,0.013523,0.002678,0.000431,0.000353
20990000,0.0324,0.013523,0.002678,0.000431,0.000470
20991000,0.0324,0.013523,0.002678,0.000431,0.000118
20992000,0.0324,0.013523,0.002678,0.000431,0.000353
20993000,0.0324,0.013523,0.002678,0.000431,0.000470
20994000,0.0324,0.013523,0.002678,0.000431,0.000353
20995000,0.0324,0.013523,0.002678,0.000431,0.000235
20996000,0.0324,0.013523,0.002678,0.000431,0.000353
20997000,0.0324,0.013523,0.002678,0.000431,0.000470
20998000,0.0324,0.013523,0.002678,0.000431,0.000118
20999000,0.0324,0.013523,0.002678,0.000431,0.000353
