Cycle,Area(mm^2),PeakDynamic(W),SubthresholdLeakage(W),GateLeakage(W),RunTimeDynamic(W)
32000000,0.0324,0.013523,0.002678,0.000431,0.000353
32001000,0.0324,0.013523,0.002678,0.000431,0.000235
32002000,0.0324,0.013523,0.002678,0.000431,0.000353
32003000,0.0324,0.013523,0.002678,0.000431,0.000470
32004000,0.0324,0.013523,0.002678,0.000431,0.000235
32005000,0.0324,0.013523,0.002678,0.000431,0.000235
32006000,0.0324,0.013523,0.002678,0.000431,0.000470
32007000,0.0324,0.013523,0.002678,0.000431,0.000353
32008000,0.0324,0.013523,0.002678,0.000431,0.000235
32009000,0.0324,0.013523,0.002678,0.000431,0.000353
32010000,0.0324,0.013523,0.002678,0.000431,0.000470
32011000,0.0324,0.013523,0.002678,0.000431,0.000118
32012000,0.0324,0.013523,0.002678,0.000431,0.000353
32013000,0.0324,0.013523,0.002678,0.000431,0.000470
32014000,0.0324,0.013523,0.002678,0.000431,0.000353
32015000,0.0324,0.013523,0.002678,0.000431,0.000235
32016000,0.0324,0.013523,0.002678,0.000431,0.000353
32017000,0.0324,0.013523,0.002678,0.000431,0.000470
32018000,0.0324,0.013523,0.002678,0.000431,0.000118
32019000,0.0324,0.013523,0.002678,0.000431,0.000353
32020000,0.0324,0.013523,0.002678,0.000431,0.000470
32021000,0.0324,0.013523,0.002678,0.000431,0.000353
32022000,0.0324,0.013523,0.002678,0.000431,0.000235
32023000,0.0324,0.013523,0.002678,0.000431,0.000353
32024000,0.0324,0.013523,0.002678,0.000431,0.000470
32025000,0.0324,0.013523,0.002678,0.000431,0.000118
32026000,0.0324,0.013523,0.002678,0.000431,0.000353
32027000,0.0324,0.013523,0.002678,0.000431,0.000470
32028000,0.0324,0.013523,0.002678,0.000431,0.000353
32029000,0.0324,0.013523,0.002678,0.000431,0.000235
32030000,0.0324,0.013523,0.002678,0.000431,0.000353
32031000,0.0324,0.013523,0.002678,0.000431,0.000470
32032000,0.0324,0.013523,0.002678,0.000431,0.000118
32033000,0.0324,0.013523,0.002678,0.000431,0.000353
32034000,0.0324,0.013523,0.002678,0.000431,0.000470
32035000,0.0324,0.013523,0.002678,0.000431,0.000353
32036000,0.0324,0.013523,0.002678,0.000431,0.000235
32037000,0.0324,0.013523,0.002678,0.000431,0.000353
32038000,0.0324,0.013523,0.002678,0.000431,0.000353
32039000,0.0324,0.013523,0.002678,0.000431,0.000235
32040000,0.0324,0.013523,0.002678,0.000431,0.000353
32041000,0.0324,0.013523,0.002678,0.000431,0.000470
32042000,0.0324,0.013523,0.002678,0.000431,0.000353
32043000,0.0324,0.013523,0.002678,0.000431,0.000235
32044000,0.0324,0.013523,0.002678,0.000431,0.000353
32045000,0.0324,0.013523,0.002678,0.000431,0.000353
32046000,0.0324,0.013523,0.002678,0.000431,0.000235
32047000,0.0324,0.013523,0.002678,0.000431,0.000353
32048000,0.0324,0.013523,0.002678,0.000431,0.000470
32049000,0.0324,0.013523,0.002678,0.000431,0.000353
32050000,0.0324,0.013523,0.002678,0.000431,0.000235
32051000,0.0324,0.013523,0.002678,0.000431,0.000353
32052000,0.0324,0.013523,0.002678,0.000431,0.000353
32053000,0.0324,0.013523,0.002678,0.000431,0.000235
32054000,0.0324,0.013523,0.002678,0.000431,0.000353
32055000,0.0324,0.013523,0.002678,0.000431,0.000470
32056000,0.0324,0.013523,0.002678,0.000431,0.000353
32057000,0.0324,0.013523,0.002678,0.000431,0.000235
32058000,0.0324,0.013523,0.002678,0.000431,0.000353
32059000,0.0324,0.013523,0.002678,0.000431,0.000353
32060000,0.0324,0.013523,0.002678,0.000431,0.000235
32061000,0.0324,0.013523,0.002678,0.000431,0.000353
32062000,0.0324,0.013523,0.002678,0.000431,0.000470
32063000,0.0324,0.013523,0.002678,0.000431,0.000353
32064000,0.0324,0.013523,0.002678,0.000431,0.000235
32065000,0.0324,0.013523,0.002678,0.000431,0.000353
32066000,0.0324,0.013523,0.002678,0.000431,0.000353
32067000,0.0324,0.013523,0.002678,0.000431,0.000235
32068000,0.0324,0.013523,0.002678,0.000431,0.000353
32069000,0.0324,0.013523,0.002678,0.000431,0.000470
32070000,0.0324,0.013523,0.002678,0.000431,0.000353
32071000,0.0324,0.013523,0.002678,0.000431,0.000235
32072000,0.0324,0.013523,0.002678,0.000431,0.000353
32073000,0.0324,0.013523,0.002678,0.000431,0.000353
32074000,0.0324,0.013523,0.002678,0.000431,0.000235
32075000,0.0324,0.013523,0.002678,0.000431,0.000353
32076000,0.0324,0.013523,0.002678,0.000431,0.000470
32077000,0.0324,0.013523,0.002678,0.000431,0.000353
32078000,0.0324,0.013523,0.002678,0.000431,0.000235
32079000,0.0324,0.013523,0.002678,0.000431,0.000353
32080000,0.0324,0.013523,0.002678,0.000431,0.000353
32081000,0.0324,0.013523,0.002678,0.000431,0.000235
32082000,0.0324,0.013523,0.002678,0.000431,0.000353
32083000,0.0324,0.013523,0.002678,0.000431,0.000470
32084000,0.0324,0.013523,0.002678,0.000431,0.000353
32085000,0.0324,0.013523,0.002678,0.000431,0.000118
32086000,0.0324,0.013523,0.002678,0.000431,0.000470
32087000,0.0324,0.013523,0.002678,0.000431,0.000353
32088000,0.0324,0.013523,0.002678,0.000431,0.000235
32089000,0.0324,0.013523,0.002678,0.000431,0.000353
32090000,0.0324,0.013523,0.002678,0.000431,0.000470
32091000,0.0324,0.013523,0.002678,0.000431,0.000353
32092000,0.0324,0.013523,0.002678,0.000431,0.000118
32093000,0.0324,0.013523,0.002678,0.000431,0.000470
32094000,0.0324,0.013523,0.002678,0.000431,0.000353
32095000,0.0324,0.013523,0.002678,0.000431,0.000235
32096000,0.0324,0.013523,0.002678,0.000431,0.000353
32097000,0.0324,0.013523,0.002678,0.000431,0.000470
32098000,0.0324,0.013523,0.002678,0.000431,0.000353
32099000,0.0324,0.013523,0.002678,0.000431,0.000118
32100000,0.0324,0.013523,0.002678,0.000431,0.000470
32101000,0.0324,0.013523,0.002678,0.000431,0.000353
32102000,0.0324,0.013523,0.002678,0.000431,0.000235
32103000,0.0324,0.013523,0.002678,0.000431,0.000353
32104000,0.0324,0.013523,0.002678,0.000431,0.000470
32105000,0.0324,0.013523,0.002678,0.000431,0.000235
32106000,0.0324,0.013523,0.002678,0.000431,0.000235
32107000,0.0324,0.013523,0.002678,0.000431,0.000470
32108000,0.0324,0.013523,0.002678,0.000431,0.000353
32109000,0.0324,0.013523,0.002678,0.000431,0.000235
32110000,0.0324,0.013523,0.002678,0.000431,0.000353
32111000,0.0324,0.013523,0.002678,0.000431,0.000470
32112000,0.0324,0.013523,0.002678,0.000431,0.000118
32113000,0.0324,0.013523,0.002678,0.000431,0.000353
32114000,0.0324,0.013523,0.002678,0.000431,0.000470
32115000,0.0324,0.013523,0.002678,0.000431,0.000353
32116000,0.0324,0.013523,0.002678,0.000431,0.000235
32117000,0.0324,0.013523,0.002678,0.000431,0.000353
32118000,0.0324,0.013523,0.002678,0.000431,0.000470
32119000,0.0324,0.013523,0.002678,0.000431,0.000118
32120000,0.0324,0.013523,0.002678,0.000431,0.000353
32121000,0.0324,0.013523,0.002678,0.000431,0.000470
32122000,0.0324,0.013523,0.002678,0.000431,0.000353
32123000,0.0324,0.013523,0.002678,0.000431,0.000235
32124000,0.0324,0.013523,0.002678,0.000431,0.000353
32125000,0.0324,0.013523,0.002678,0.000431,0.000353
32126000,0.0324,0.013523,0.002678,0.000431,0.000235
32127000,0.0324,0.013523,0.002678,0.000431,0.000353
32128000,0.0324,0.013523,0.002678,0.000431,0.000470
32129000,0.0324,0.013523,0.002678,0.000431,0.000353
32130000,0.0324,0.013523,0.002678,0.000431,0.000235
32131000,0.0324,0.013523,0.002678,0.000431,0.000353
32132000,0.0324,0.013523,0.002678,0.000431,0.000353
32133000,0.0324,0.013523,0.002678,0.000431,0.000235
32134000,0.0324,0.013523,0.002678,0.000431,0.000353
32135000,0.0324,0.013523,0.002678,0.000431,0.000470
32136000,0.0324,0.013523,0.002678,0.000431,0.000353
32137000,0.0324,0.013523,0.002678,0.000431,0.000118
32138000,0.0324,0.013523,0.002678,0.000431,0.000470
32139000,0.0324,0.013523,0.002678,0.000431,0.000353
32140000,0.0324,0.013523,0.002678,0.000431,0.000235
32141000,0.0324,0.013523,0.002678,0.000431,0.000353
32142000,0.0324,0.013523,0.002678,0.000431,0.000470
32143000,0.0324,0.013523,0.002678,0.000431,0.000353
32144000,0.0324,0.013523,0.002678,0.000431,0.000118
32145000,0.0324,0.013523,0.002678,0.000431,0.000470
32146000,0.0324,0.013523,0.002678,0.000431,0.000353
32147000,0.0324,0.013523,0.002678,0.000431,0.000235
32148000,0.0324,0.013523,0.002678,0.000431,0.000353
32149000,0.0324,0.013523,0.002678,0.000431,0.000470
32150000,0.0324,0.013523,0.002678,0.000431,0.000235
32151000,0.0324,0.013523,0.002678,0.000431,0.000235
32152000,0.0324,0.013523,0.002678,0.000431,0.000470
32153000,0.0324,0.013523,0.002678,0.000431,0.000353
32154000,0.0324,0.013523,0.002678,0.000431,0.000235
32155000,0.0324,0.013523,0.002678,0.000431,0.000353
32156000,0.0324,0.013523,0.002678,0.000431,0.000470
32157000,0.0324,0.013523,0.002678,0.000431,0.000118
32158000,0.0324,0.013523,0.002678,0.000431,0.000353
32159000,0.0324,0.013523,0.002678,0.000431,0.000470
32160000,0.0324,0.013523,0.002678,0.000431,0.000353
32161000,0.0324,0.013523,0.002678,0.000431,0.000235
32162000,0.0324,0.013523,0.002678,0.000431,0.000353
32163000,0.0324,0.013523,0.002678,0.000431,0.000353
32164000,0.0324,0.013523,0.002678,0.000431,0.000235
32165000,0.0324,0.013523,0.002678,0.000431,0.000353
32166000,0.0324,0.013523,0.002678,0.000431,0.000470
32167000,0.0324,0.013523,0.002678,0.000431,0.000353
32168000,0.0324,0.013523,0.002678,0.000431,0.000235
32169000,0.0324,0.013523,0.002678,0.000431,0.000353
32170000,0.0324,0.013523,0.002678,0.000431,0.000353
32171000,0.0324,0.013523,0.002678,0.000431,0.000235
32172000,0.0324,0.013523,0.002678,0.000431,0.000353
32173000,0.0324,0.013523,0.002678,0.000431,0.000470
32174000,0.0324,0.013523,0.002678,0.000431,0.000353
32175000,0.0324,0.013523,0.002678,0.000431,0.000235
32176000,0.0324,0.013523,0.002678,0.000431,0.000353
32177000,0.0324,0.013523,0.002678,0.000431,0.000353
32178000,0.0324,0.013523,0.002678,0.000431,0.000235
32179000,0.0324,0.013523,0.002678,0.000431,0.000353
32180000,0.0324,0.013523,0.002678,0.000431,0.000470
32181000,0.0324,0.013523,0.002678,0.000431,0.000353
32182000,0.0324,0.013523,0.002678,0.000431,0.000118
32183000,0.0324,0.013523,0.002678,0.000431,0.000470
32184000,0.0324,0.013523,0.002678,0.000431,0.000353
32185000,0.0324,0.013523,0.002678,0.000431,0.000235
32186000,0.0324,0.013523,0.002678,0.000431,0.000353
32187000,0.0324,0.013523,0.002678,0.000431,0.000470
32188000,0.0324,0.013523,0.002678,0.000431,0.000235
32189000,0.0324,0.013523,0.002678,0.000431,0.000235
32190000,0.0324,0.013523,0.002678,0.000431,0.000470
32191000,0.0324,0.013523,0.002678,0.000431,0.000353
32192000,0.0324,0.013523,0.002678,0.000431,0.000235
32193000,0.0324,0.013523,0.002678,0.000431,0.000353
32194000,0.0324,0.013523,0.002678,0.000431,0.000470
32195000,0.0324,0.013523,0.002678,0.000431,0.000235
32196000,0.0324,0.013523,0.002678,0.000431,0.000235
32197000,0.0324,0.013523,0.002678,0.000431,0.000470
32198000,0.0324,0.013523,0.002678,0.000431,0.000353
32199000,0.0324,0.013523,0.002678,0.000431,0.000235
32200000,0.0324,0.013523,0.002678,0.000431,0.000353
32201000,0.0324,0.013523,0.002678,0.000431,0.000470
32202000,0.0324,0.013523,0.002678,0.000431,0.000118
32203000,0.0324,0.013523,0.002678,0.000431,0.000353
32204000,0.0324,0.013523,0.002678,0.000431,0.000470
32205000,0.0324,0.013523,0.002678,0.000431,0.000353
32206000,0.0324,0.013523,0.002678,0.000431,0.000235
32207000,0.0324,0.013523,0.002678,0.000431,0.000353
32208000,0.0324,0.013523,0.002678,0.000431,0.000353
32209000,0.0324,0.013523,0.002678,0.000431,0.000235
32210000,0.0324,0.013523,0.002678,0.000431,0.000353
32211000,0.0324,0.013523,0.002678,0.000431,0.000470
32212000,0.0324,0.013523,0.002678,0.000431,0.000353
32213000,0.0324,0.013523,0.002678,0.000431,0.000235
32214000,0.0324,0.013523,0.002678,0.000431,0.000353
32215000,0.0324,0.013523,0.002678,0.000431,0.000353
32216000,0.0324,0.013523,0.002678,0.000431,0.000235
32217000,0.0324,0.013523,0.002678,0.000431,0.000353
32218000,0.0324,0.013523,0.002678,0.000431,0.000470
32219000,0.0324,0.013523,0.002678,0.000431,0.000353
32220000,0.0324,0.013523,0.002678,0.000431,0.000118
32221000,0.0324,0.013523,0.002678,0.000431,0.000470
32222000,0.0324,0.013523,0.002678,0.000431,0.000353
32223000,0.0324,0.013523,0.002678,0.000431,0.000235
32224000,0.0324,0.013523,0.002678,0.000431,0.000353
32225000,0.0324,0.013523,0.002678,0.000431,0.000470
32226000,0.0324,0.013523,0.002678,0.000431,0.000353
32227000,0.0324,0.013523,0.002678,0.000431,0.000118
32228000,0.0324,0.013523,0.002678,0.000431,0.000470
32229000,0.0324,0.013523,0.002678,0.000431,0.000353
32230000,0.0324,0.013523,0.002678,0.000431,0.000235
32231000,0.0324,0.013523,0.002678,0.000431,0.000353
32232000,0.0324,0.013523,0.002678,0.000431,0.000470
32233000,0.0324,0.013523,0.002678,0.000431,0.000235
32234000,0.0324,0.013523,0.002678,0.000431,0.000235
32235000,0.0324,0.013523,0.002678,0.000431,0.000470
32236000,0.0324,0.013523,0.002678,0.000431,0.000353
32237000,0.0324,0.013523,0.002678,0.000431,0.000235
32238000,0.0324,0.013523,0.002678,0.000431,0.000353
32239000,0.0324,0.013523,0.002678,0.000431,0.000470
32240000,0.0324,0.013523,0.002678,0.000431,0.000235
32241000,0.0324,0.013523,0.002678,0.000431,0.000235
32242000,0.0324,0.013523,0.002678,0.000431,0.000470
32243000,0.0324,0.013523,0.002678,0.000431,0.000353
32244000,0.0324,0.013523,0.002678,0.000431,0.000235
32245000,0.0324,0.013523,0.002678,0.000431,0.000353
32246000,0.0324,0.013523,0.002678,0.000431,0.000470
32247000,0.0324,0.013523,0.002678,0.000431,0.000235
32248000,0.0324,0.013523,0.002678,0.000431,0.000235
32249000,0.0324,0.013523,0.002678,0.000431,0.000470
32250000,0.0324,0.013523,0.002678,0.000431,0.000353
32251000,0.0324,0.013523,0.002678,0.000431,0.000235
32252000,0.0324,0.013523,0.002678,0.000431,0.000353
32253000,0.0324,0.013523,0.002678,0.000431,0.000470
32254000,0.0324,0.013523,0.002678,0.000431,0.000235
32255000,0.0324,0.013523,0.002678,0.000431,0.000235
32256000,0.0324,0.013523,0.002678,0.000431,0.000470
32257000,0.0324,0.013523,0.002678,0.000431,0.000353
32258000,0.0324,0.013523,0.002678,0.000431,0.000235
32259000,0.0324,0.013523,0.002678,0.000431,0.000353
32260000,0.0324,0.013523,0.002678,0.000431,0.000470
32261000,0.0324,0.013523,0.002678,0.000431,0.000118
32262000,0.0324,0.013523,0.002678,0.000431,0.000353
32263000,0.0324,0.013523,0.002678,0.000431,0.000470
32264000,0.0324,0.013523,0.002678,0.000431,0.000353
32265000,0.0324,0.013523,0.002678,0.000431,0.000235
32266000,0.0324,0.013523,0.002678,0.000431,0.000353
32267000,0.0324,0.013523,0.002678,0.000431,0.000470
32268000,0.0324,0.013523,0.002678,0.000431,0.000118
32269000,0.0324,0.013523,0.002678,0.000431,0.000353
32270000,0.0324,0.013523,0.002678,0.000431,0.000470
32271000,0.0324,0.013523,0.002678,0.000431,0.000353
32272000,0.0324,0.013523,0.002678,0.000431,0.000235
32273000,0.0324,0.013523,0.002678,0.000431,0.000353
32274000,0.0324,0.013523,0.002678,0.000431,0.000470
32275000,0.0324,0.013523,0.002678,0.000431,0.000118
32276000,0.0324,0.013523,0.002678,0.000431,0.000353
32277000,0.0324,0.013523,0.002678,0.000431,0.000470
32278000,0.0324,0.013523,0.002678,0.000431,0.000353
32279000,0.0324,0.013523,0.002678,0.000431,0.000235
32280000,0.0324,0.013523,0.002678,0.000431,0.000353
32281000,0.0324,0.013523,0.002678,0.000431,0.000470
32282000,0.0324,0.013523,0.002678,0.000431,0.000118
32283000,0.0324,0.013523,0.002678,0.000431,0.000353
32284000,0.0324,0.013523,0.002678,0.000431,0.000470
32285000,0.0324,0.013523,0.002678,0.000431,0.000353
32286000,0.0324,0.013523,0.002678,0.000431,0.000235
32287000,0.0324,0.013523,0.002678,0.000431,0.000353
32288000,0.0324,0.013523,0.002678,0.000431,0.000353
32289000,0.0324,0.013523,0.002678,0.000431,0.000235
32290000,0.0324,0.013523,0.002678,0.000431,0.000353
32291000,0.0324,0.013523,0.002678,0.000431,0.000470
32292000,0.0324,0.013523,0.002678,0.000431,0.000353
32293000,0.0324,0.013523,0.002678,0.000431,0.000235
32294000,0.0324,0.013523,0.002678,0.000431,0.000353
32295000,0.0324,0.013523,0.002678,0.000431,0.000353
32296000,0.0324,0.013523,0.002678,0.000431,0.000235
32297000,0.0324,0.013523,0.002678,0.000431,0.000353
32298000,0.0324,0.013523,0.002678,0.000431,0.000470
32299000,0.0324,0.013523,0.002678,0.000431,0.000353
32300000,0.0324,0.013523,0.002678,0.000431,0.000235
32301000,0.0324,0.013523,0.002678,0.000431,0.000353
32302000,0.0324,0.013523,0.002678,0.000431,0.000353
32303000,0.0324,0.013523,0.002678,0.000431,0.000235
32304000,0.0324,0.013523,0.002678,0.000431,0.000353
32305000,0.0324,0.013523,0.002678,0.000431,0.000470
32306000,0.0324,0.013523,0.002678,0.000431,0.000353
32307000,0.0324,0.013523,0.002678,0.000431,0.000235
32308000,0.0324,0.013523,0.002678,0.000431,0.000353
32309000,0.0324,0.013523,0.002678,0.000431,0.000353
32310000,0.0324,0.013523,0.002678,0.000431,0.000235
32311000,0.0324,0.013523,0.002678,0.000431,0.000353
32312000,0.0324,0.013523,0.002678,0.000431,0.000470
32313000,0.0324,0.013523,0.002678,0.000431,0.000353
32314000,0.0324,0.013523,0.002678,0.000431,0.000235
32315000,0.0324,0.013523,0.002678,0.000431,0.000353
32316000,0.0324,0.013523,0.002678,0.000431,0.000353
32317000,0.0324,0.013523,0.002678,0.000431,0.000235
32318000,0.0324,0.013523,0.002678,0.000431,0.000353
32319000,0.0324,0.013523,0.002678,0.000431,0.000470
32320000,0.0324,0.013523,0.002678,0.000431,0.000353
32321000,0.0324,0.013523,0.002678,0.000431,0.000235
32322000,0.0324,0.013523,0.002678,0.000431,0.000353
32323000,0.0324,0.013523,0.002678,0.000431,0.000353
32324000,0.0324,0.013523,0.002678,0.000431,0.000235
32325000,0.0324,0.013523,0.002678,0.000431,0.000353
32326000,0.0324,0.013523,0.002678,0.000431,0.000470
32327000,0.0324,0.013523,0.002678,0.000431,0.000353
32328000,0.0324,0.013523,0.002678,0.000431,0.000235
32329000,0.0324,0.013523,0.002678,0.000431,0.000353
32330000,0.0324,0.013523,0.002678,0.000431,0.000353
32331000,0.0324,0.013523,0.002678,0.000431,0.000235
32332000,0.0324,0.013523,0.002678,0.000431,0.000353
32333000,0.0324,0.013523,0.002678,0.000431,0.000470
32334000,0.0324,0.013523,0.002678,0.000431,0.000353
32335000,0.0324,0.013523,0.002678,0.000431,0.000118
32336000,0.0324,0.013523,0.002678,0.000431,0.000470
32337000,0.0324,0.013523,0.002678,0.000431,0.000353
32338000,0.0324,0.013523,0.002678,0.000431,0.000235
32339000,0.0324,0.013523,0.002678,0.000431,0.000353
32340000,0.0324,0.013523,0.002678,0.000431,0.000470
32341000,0.0324,0.013523,0.002678,0.000431,0.000353
32342000,0.0324,0.013523,0.002678,0.000431,0.000118
32343000,0.0324,0.013523,0.002678,0.000431,0.000470
32344000,0.0324,0.013523,0.002678,0.000431,0.000353
32345000,0.0324,0.013523,0.002678,0.000431,0.000235
32346000,0.0324,0.013523,0.002678,0.000431,0.000353
32347000,0.0324,0.013523,0.002678,0.000431,0.000470
32348000,0.0324,0.013523,0.002678,0.000431,0.000353
32349000,0.0324,0.013523,0.002678,0.000431,0.000118
32350000,0.0324,0.013523,0.002678,0.000431,0.000470
32351000,0.0324,0.013523,0.002678,0.000431,0.000353
32352000,0.0324,0.013523,0.002678,0.000431,0.000235
32353000,0.0324,0.013523,0.002678,0.000431,0.000353
32354000,0.0324,0.013523,0.002678,0.000431,0.000470
32355000,0.0324,0.013523,0.002678,0.000431,0.000353
32356000,0.0324,0.013523,0.002678,0.000431,0.000118
32357000,0.0324,0.013523,0.002678,0.000431,0.000470
32358000,0.0324,0.013523,0.002678,0.000431,0.000353
32359000,0.0324,0.013523,0.002678,0.000431,0.000235
32360000,0.0324,0.013523,0.002678,0.000431,0.000353
32361000,0.0324,0.013523,0.002678,0.000431,0.000470
32362000,0.0324,0.013523,0.002678,0.000431,0.000235
32363000,0.0324,0.013523,0.002678,0.000431,0.000235
32364000,0.0324,0.013523,0.002678,0.000431,0.000470
32365000,0.0324,0.013523,0.002678,0.000431,0.000353
32366000,0.0324,0.013523,0.002678,0.000431,0.000235
32367000,0.0324,0.013523,0.002678,0.000431,0.000353
32368000,0.0324,0.013523,0.002678,0.000431,0.000470
32369000,0.0324,0.013523,0.002678,0.000431,0.000235
32370000,0.0324,0.013523,0.002678,0.000431,0.000235
32371000,0.0324,0.013523,0.002678,0.000431,0.000470
32372000,0.0324,0.013523,0.002678,0.000431,0.000353
32373000,0.0324,0.013523,0.002678,0.000431,0.000235
32374000,0.0324,0.013523,0.002678,0.000431,0.000353
32375000,0.0324,0.013523,0.002678,0.000431,0.000470
32376000,0.0324,0.013523,0.002678,0.000431,0.000235
32377000,0.0324,0.013523,0.002678,0.000431,0.000235
32378000,0.0324,0.013523,0.002678,0.000431,0.000470
32379000,0.0324,0.013523,0.002678,0.000431,0.000353
32380000,0.0324,0.013523,0.002678,0.000431,0.000235
32381000,0.0324,0.013523,0.002678,0.000431,0.000353
32382000,0.0324,0.013523,0.002678,0.000431,0.000470
32383000,0.0324,0.013523,0.002678,0.000431,0.000235
32384000,0.0324,0.013523,0.002678,0.000431,0.000235
32385000,0.0324,0.013523,0.002678,0.000431,0.000470
32386000,0.0324,0.013523,0.002678,0.000431,0.000353
32387000,0.0324,0.013523,0.002678,0.000431,0.000235
32388000,0.0324,0.013523,0.002678,0.000431,0.000353
32389000,0.0324,0.013523,0.002678,0.000431,0.000470
32390000,0.0324,0.013523,0.002678,0.000431,0.000118
32391000,0.0324,0.013523,0.002678,0.000431,0.000353
32392000,0.0324,0.013523,0.002678,0.000431,0.000470
32393000,0.0324,0.013523,0.002678,0.000431,0.000353
32394000,0.0324,0.013523,0.002678,0.000431,0.000235
32395000,0.0324,0.013523,0.002678,0.000431,0.000353
32396000,0.0324,0.013523,0.002678,0.000431,0.000353
32397000,0.0324,0.013523,0.002678,0.000431,0.000235
32398000,0.0324,0.013523,0.002678,0.000431,0.000353
32399000,0.0324,0.013523,0.002678,0.000431,0.000470
32400000,0.0324,0.013523,0.002678,0.000431,0.000353
32401000,0.0324,0.013523,0.002678,0.000431,0.000235
32402000,0.0324,0.013523,0.002678,0.000431,0.000353
32403000,0.0324,0.013523,0.002678,0.000431,0.000353
32404000,0.0324,0.013523,0.002678,0.000431,0.000235
32405000,0.0324,0.013523,0.002678,0.000431,0.000353
32406000,0.0324,0.013523,0.002678,0.000431,0.000470
32407000,0.0324,0.013523,0.002678,0.000431,0.000353
32408000,0.0324,0.013523,0.002678,0.000431,0.000235
32409000,0.0324,0.013523,0.002678,0.000431,0.000353
32410000,0.0324,0.013523,0.002678,0.000431,0.000353
32411000,0.0324,0.013523,0.002678,0.000431,0.000235
32412000,0.0324,0.013523,0.002678,0.000431,0.000353
32413000,0.0324,0.013523,0.002678,0.000431,0.000470
32414000,0.0324,0.013523,0.002678,0.000431,0.000235
32415000,0.0324,0.013523,0.002678,0.000431,0.000235
32416000,0.0324,0.013523,0.002678,0.000431,0.000470
32417000,0.0324,0.013523,0.002678,0.000431,0.000353
32418000,0.0324,0.013523,0.002678,0.000431,0.000235
32419000,0.0324,0.013523,0.002678,0.000431,0.000353
32420000,0.0324,0.013523,0.002678,0.000431,0.000470
32421000,0.0324,0.013523,0.002678,0.000431,0.000235
32422000,0.0324,0.013523,0.002678,0.000431,0.000235
32423000,0.0324,0.013523,0.002678,0.000431,0.000470
32424000,0.0324,0.013523,0.002678,0.000431,0.000353
32425000,0.0324,0.013523,0.002678,0.000431,0.000235
32426000,0.0324,0.013523,0.002678,0.000431,0.000353
32427000,0.0324,0.013523,0.002678,0.000431,0.000470
32428000,0.0324,0.013523,0.002678,0.000431,0.000118
32429000,0.0324,0.013523,0.002678,0.000431,0.000353
32430000,0.0324,0.013523,0.002678,0.000431,0.000470
32431000,0.0324,0.013523,0.002678,0.000431,0.000353
32432000,0.0324,0.013523,0.002678,0.000431,0.000235
32433000,0.0324,0.013523,0.002678,0.000431,0.000353
32434000,0.0324,0.013523,0.002678,0.000431,0.000353
32435000,0.0324,0.013523,0.002678,0.000431,0.000235
32436000,0.0324,0.013523,0.002678,0.000431,0.000353
32437000,0.0324,0.013523,0.002678,0.000431,0.000470
32438000,0.0324,0.013523,0.002678,0.000431,0.000353
32439000,0.0324,0.013523,0.002678,0.000431,0.000235
32440000,0.0324,0.013523,0.002678,0.000431,0.000353
32441000,0.0324,0.013523,0.002678,0.000431,0.000353
32442000,0.0324,0.013523,0.002678,0.000431,0.000235
32443000,0.0324,0.013523,0.002678,0.000431,0.000353
32444000,0.0324,0.013523,0.002678,0.000431,0.000470
32445000,0.0324,0.013523,0.002678,0.000431,0.000353
32446000,0.0324,0.013523,0.002678,0.000431,0.000235
32447000,0.0324,0.013523,0.002678,0.000431,0.000353
32448000,0.0324,0.013523,0.002678,0.000431,0.000353
32449000,0.0324,0.013523,0.002678,0.000431,0.000235
32450000,0.0324,0.013523,0.002678,0.000431,0.000353
32451000,0.0324,0.013523,0.002678,0.000431,0.000470
32452000,0.0324,0.013523,0.002678,0.000431,0.000353
32453000,0.0324,0.013523,0.002678,0.000431,0.000118
32454000,0.0324,0.013523,0.002678,0.000431,0.000470
32455000,0.0324,0.013523,0.002678,0.000431,0.000353
32456000,0.0324,0.013523,0.002678,0.000431,0.000235
32457000,0.0324,0.013523,0.002678,0.000431,0.000353
32458000,0.0324,0.013523,0.002678,0.000431,0.000470
32459000,0.0324,0.013523,0.002678,0.000431,0.000235
32460000,0.0324,0.013523,0.002678,0.000431,0.000235
32461000,0.0324,0.013523,0.002678,0.000431,0.000470
32462000,0.0324,0.013523,0.002678,0.000431,0.000353
32463000,0.0324,0.013523,0.002678,0.000431,0.000235
32464000,0.0324,0.013523,0.002678,0.000431,0.000353
32465000,0.0324,0.013523,0.002678,0.000431,0.000470
32466000,0.0324,0.013523,0.002678,0.000431,0.000235
32467000,0.0324,0.013523,0.002678,0.000431,0.000235
32468000,0.0324,0.013523,0.002678,0.000431,0.000470
32469000,0.0324,0.013523,0.002678,0.000431,0.000353
32470000,0.0324,0.013523,0.002678,0.000431,0.000235
32471000,0.0324,0.013523,0.002678,0.000431,0.000353
32472000,0.0324,0.013523,0.002678,0.000431,0.000470
32473000,0.0324,0.013523,0.002678,0.000431,0.000118
32474000,0.0324,0.013523,0.002678,0.000431,0.000353
32475000,0.0324,0.013523,0.002678,0.000431,0.000470
32476000,0.0324,0.013523,0.002678,0.000431,0.000353
32477000,0.0324,0.013523,0.002678,0.000431,0.000235
32478000,0.0324,0.013523,0.002678,0.000431,0.000353
32479000,0.0324,0.013523,0.002678,0.000431,0.000353
32480000,0.0324,0.013523,0.002678,0.000431,0.000235
32481000,0.0324,0.013523,0.002678,0.000431,0.000353
32482000,0.0324,0.013523,0.002678,0.000431,0.000470
32483000,0.0324,0.013523,0.002678,0.000431,0.000353
32484000,0.0324,0.013523,0.002678,0.000431,0.000235
32485000,0.0324,0.013523,0.002678,0.000431,0.000353
32486000,0.0324,0.013523,0.002678,0.000431,0.000353
32487000,0.0324,0.013523,0.002678,0.000431,0.000235
32488000,0.0324,0.013523,0.002678,0.000431,0.000353
32489000,0.0324,0.013523,0.002678,0.000431,0.000470
32490000,0.0324,0.013523,0.002678,0.000431,0.000353
32491000,0.0324,0.013523,0.002678,0.000431,0.000235
32492000,0.0324,0.013523,0.002678,0.000431,0.000353
32493000,0.0324,0.013523,0.002678,0.000431,0.000353
32494000,0.0324,0.013523,0.002678,0.000431,0.000235
32495000,0.0324,0.013523,0.002678,0.000431,0.000353
32496000,0.0324,0.013523,0.002678,0.000431,0.000470
32497000,0.0324,0.013523,0.002678,0.000431,0.000353
32498000,0.0324,0.013523,0.002678,0.000431,0.000118
32499000,0.0324,0.013523,0.002678,0.000431,0.000470
32500000,0.0324,0.013523,0.002678,0.000431,0.000353
32501000,0.0324,0.013523,0.002678,0.000431,0.000235
32502000,0.0324,0.013523,0.002678,0.000431,0.000353
32503000,0.0324,0.013523,0.002678,0.000431,0.000470
32504000,0.0324,0.013523,0.002678,0.000431,0.000235
32505000,0.0324,0.013523,0.002678,0.000431,0.000235
32506000,0.0324,0.013523,0.002678,0.000431,0.000470
32507000,0.0324,0.013523,0.002678,0.000431,0.000353
32508000,0.0324,0.013523,0.002678,0.000431,0.000235
32509000,0.0324,0.013523,0.002678,0.000431,0.000353
32510000,0.0324,0.013523,0.002678,0.000431,0.000470
32511000,0.0324,0.013523,0.002678,0.000431,0.000118
32512000,0.0324,0.013523,0.002678,0.000431,0.000353
32513000,0.0324,0.013523,0.002678,0.000431,0.000470
32514000,0.0324,0.013523,0.002678,0.000431,0.000353
32515000,0.0324,0.013523,0.002678,0.000431,0.000235
32516000,0.0324,0.013523,0.002678,0.000431,0.000353
32517000,0.0324,0.013523,0.002678,0.000431,0.000470
32518000,0.0324,0.013523,0.002678,0.000431,0.000118
32519000,0.0324,0.013523,0.002678,0.000431,0.000353
32520000,0.0324,0.013523,0.002678,0.000431,0.000470
32521000,0.0324,0.013523,0.002678,0.000431,0.000353
32522000,0.0324,0.013523,0.002678,0.000431,0.000235
32523000,0.0324,0.013523,0.002678,0.000431,0.000353
32524000,0.0324,0.013523,0.002678,0.000431,0.000470
32525000,0.0324,0.013523,0.002678,0.000431,0.000118
32526000,0.0324,0.013523,0.002678,0.000431,0.000353
32527000,0.0324,0.013523,0.002678,0.000431,0.000470
32528000,0.0324,0.013523,0.002678,0.000431,0.000353
32529000,0.0324,0.013523,0.002678,0.000431,0.000235
32530000,0.0324,0.013523,0.002678,0.000431,0.000353
32531000,0.0324,0.013523,0.002678,0.000431,0.000470
32532000,0.0324,0.013523,0.002678,0.000431,0.000118
32533000,0.0324,0.013523,0.002678,0.000431,0.000353
32534000,0.0324,0.013523,0.002678,0.000431,0.000470
32535000,0.0324,0.013523,0.002678,0.000431,0.000353
32536000,0.0324,0.013523,0.002678,0.000431,0.000235
32537000,0.0324,0.013523,0.002678,0.000431,0.000353
32538000,0.0324,0.013523,0.002678,0.000431,0.000353
32539000,0.0324,0.013523,0.002678,0.000431,0.000235
32540000,0.0324,0.013523,0.002678,0.000431,0.000353
32541000,0.0324,0.013523,0.002678,0.000431,0.000470
32542000,0.0324,0.013523,0.002678,0.000431,0.000353
32543000,0.0324,0.013523,0.002678,0.000431,0.000235
32544000,0.0324,0.013523,0.002678,0.000431,0.000353
32545000,0.0324,0.013523,0.002678,0.000431,0.000353
32546000,0.0324,0.013523,0.002678,0.000431,0.000235
32547000,0.0324,0.013523,0.002678,0.000431,0.000353
32548000,0.0324,0.013523,0.002678,0.000431,0.000470
32549000,0.0324,0.013523,0.002678,0.000431,0.000353
32550000,0.0324,0.013523,0.002678,0.000431,0.000235
32551000,0.0324,0.013523,0.002678,0.000431,0.000353
32552000,0.0324,0.013523,0.002678,0.000431,0.000353
32553000,0.0324,0.013523,0.002678,0.000431,0.000235
32554000,0.0324,0.013523,0.002678,0.000431,0.000353
32555000,0.0324,0.013523,0.002678,0.000431,0.000470
32556000,0.0324,0.013523,0.002678,0.000431,0.000353
32557000,0.0324,0.013523,0.002678,0.000431,0.000235
32558000,0.0324,0.013523,0.002678,0.000431,0.000353
32559000,0.0324,0.013523,0.002678,0.000431,0.000353
32560000,0.0324,0.013523,0.002678,0.000431,0.000235
32561000,0.0324,0.013523,0.002678,0.000431,0.000353
32562000,0.0324,0.013523,0.002678,0.000431,0.000470
32563000,0.0324,0.013523,0.002678,0.000431,0.000353
32564000,0.0324,0.013523,0.002678,0.000431,0.000235
32565000,0.0324,0.013523,0.002678,0.000431,0.000353
32566000,0.0324,0.013523,0.002678,0.000431,0.000353
32567000,0.0324,0.013523,0.002678,0.000431,0.000235
32568000,0.0324,0.013523,0.002678,0.000431,0.000353
32569000,0.0324,0.013523,0.002678,0.000431,0.000470
32570000,0.0324,0.013523,0.002678,0.000431,0.000353
32571000,0.0324,0.013523,0.002678,0.000431,0.000235
32572000,0.0324,0.013523,0.002678,0.000431,0.000353
32573000,0.0324,0.013523,0.002678,0.000431,0.000353
32574000,0.0324,0.013523,0.002678,0.000431,0.000235
32575000,0.0324,0.013523,0.002678,0.000431,0.000353
32576000,0.0324,0.013523,0.002678,0.000431,0.000470
32577000,0.0324,0.013523,0.002678,0.000431,0.000353
32578000,0.0324,0.013523,0.002678,0.000431,0.000235
32579000,0.0324,0.013523,0.002678,0.000431,0.000353
32580000,0.0324,0.013523,0.002678,0.000431,0.000353
32581000,0.0324,0.013523,0.002678,0.000431,0.000235
32582000,0.0324,0.013523,0.002678,0.000431,0.000353
32583000,0.0324,0.013523,0.002678,0.000431,0.000470
32584000,0.0324,0.013523,0.002678,0.000431,0.000353
32585000,0.0324,0.013523,0.002678,0.000431,0.000118
32586000,0.0324,0.013523,0.002678,0.000431,0.000470
32587000,0.0324,0.013523,0.002678,0.000431,0.000353
32588000,0.0324,0.013523,0.002678,0.000431,0.000235
32589000,0.0324,0.013523,0.002678,0.000431,0.000353
32590000,0.0324,0.013523,0.002678,0.000431,0.000470
32591000,0.0324,0.013523,0.002678,0.000431,0.000353
32592000,0.0324,0.013523,0.002678,0.000431,0.000118
32593000,0.0324,0.013523,0.002678,0.000431,0.000470
32594000,0.0324,0.013523,0.002678,0.000431,0.000353
32595000,0.0324,0.013523,0.002678,0.000431,0.000235
32596000,0.0324,0.013523,0.002678,0.000431,0.000353
32597000,0.0324,0.013523,0.002678,0.000431,0.000470
32598000,0.0324,0.013523,0.002678,0.000431,0.000353
32599000,0.0324,0.013523,0.002678,0.000431,0.000118
32600000,0.0324,0.013523,0.002678,0.000431,0.000470
32601000,0.0324,0.013523,0.002678,0.000431,0.000353
32602000,0.0324,0.013523,0.002678,0.000431,0.000235
32603000,0.0324,0.013523,0.002678,0.000431,0.000353
32604000,0.0324,0.013523,0.002678,0.000431,0.000470
32605000,0.0324,0.013523,0.002678,0.000431,0.000353
32606000,0.0324,0.013523,0.002678,0.000431,0.000118
32607000,0.0324,0.013523,0.002678,0.000431,0.000470
32608000,0.0324,0.013523,0.002678,0.000431,0.000353
32609000,0.0324,0.013523,0.002678,0.000431,0.000235
32610000,0.0324,0.013523,0.002678,0.000431,0.000353
32611000,0.0324,0.013523,0.002678,0.000431,0.000470
32612000,0.0324,0.013523,0.002678,0.000431,0.000235
32613000,0.0324,0.013523,0.002678,0.000431,0.000235
32614000,0.0324,0.013523,0.002678,0.000431,0.000470
32615000,0.0324,0.013523,0.002678,0.000431,0.000353
32616000,0.0324,0.013523,0.002678,0.000431,0.000235
32617000,0.0324,0.013523,0.002678,0.000431,0.000353
32618000,0.0324,0.013523,0.002678,0.000431,0.000470
32619000,0.0324,0.013523,0.002678,0.000431,0.000235
32620000,0.0324,0.013523,0.002678,0.000431,0.000235
32621000,0.0324,0.013523,0.002678,0.000431,0.000470
32622000,0.0324,0.013523,0.002678,0.000431,0.000353
32623000,0.0324,0.013523,0.002678,0.000431,0.000235
32624000,0.0324,0.013523,0.002678,0.000431,0.000353
32625000,0.0324,0.013523,0.002678,0.000431,0.000470
32626000,0.0324,0.013523,0.002678,0.000431,0.000235
32627000,0.0324,0.013523,0.002678,0.000431,0.000235
32628000,0.0324,0.013523,0.002678,0.000431,0.000470
32629000,0.0324,0.013523,0.002678,0.000431,0.000353
32630000,0.0324,0.013523,0.002678,0.000431,0.000235
32631000,0.0324,0.013523,0.002678,0.000431,0.000353
32632000,0.0324,0.013523,0.002678,0.000431,0.000470
32633000,0.0324,0.013523,0.002678,0.000431,0.000235
32634000,0.0324,0.013523,0.002678,0.000431,0.000235
32635000,0.0324,0.013523,0.002678,0.000431,0.000470
32636000,0.0324,0.013523,0.002678,0.000431,0.000353
32637000,0.0324,0.013523,0.002678,0.000431,0.000235
32638000,0.0324,0.013523,0.002678,0.000431,0.000353
32639000,0.0324,0.013523,0.002678,0.000431,0.000470
32640000,0.0324,0.013523,0.002678,0.000431,0.000235
32641000,0.0324,0.013523,0.002678,0.000431,0.000235
32642000,0.0324,0.013523,0.002678,0.000431,0.000470
32643000,0.0324,0.013523,0.002678,0.000431,0.000353
32644000,0.0324,0.013523,0.002678,0.000431,0.000235
32645000,0.0324,0.013523,0.002678,0.000431,0.000353
32646000,0.0324,0.013523,0.002678,0.000431,0.000470
32647000,0.0324,0.013523,0.002678,0.000431,0.000235
32648000,0.0324,0.013523,0.002678,0.000431,0.000235
32649000,0.0324,0.013523,0.002678,0.000431,0.000470
32650000,0.0324,0.013523,0.002678,0.000431,0.000353
32651000,0.0324,0.013523,0.002678,0.000431,0.000235
32652000,0.0324,0.013523,0.002678,0.000431,0.000353
32653000,0.0324,0.013523,0.002678,0.000431,0.000470
32654000,0.0324,0.013523,0.002678,0.000431,0.000118
32655000,0.0324,0.013523,0.002678,0.000431,0.000353
32656000,0.0324,0.013523,0.002678,0.000431,0.000470
32657000,0.0324,0.013523,0.002678,0.000431,0.000353
32658000,0.0324,0.013523,0.002678,0.000431,0.000235
32659000,0.0324,0.013523,0.002678,0.000431,0.000353
32660000,0.0324,0.013523,0.002678,0.000431,0.000470
32661000,0.0324,0.013523,0.002678,0.000431,0.000118
32662000,0.0324,0.013523,0.002678,0.000431,0.000353
32663000,0.0324,0.013523,0.002678,0.000431,0.000470
32664000,0.0324,0.013523,0.002678,0.000431,0.000353
32665000,0.0324,0.013523,0.002678,0.000431,0.000235
32666000,0.0324,0.013523,0.002678,0.000431,0.000353
32667000,0.0324,0.013523,0.002678,0.000431,0.000470
32668000,0.0324,0.013523,0.002678,0.000431,0.000118
32669000,0.0324,0.013523,0.002678,0.000431,0.000353
32670000,0.0324,0.013523,0.002678,0.000431,0.000470
32671000,0.0324,0.013523,0.002678,0.000431,0.000353
32672000,0.0324,0.013523,0.002678,0.000431,0.000235
32673000,0.0324,0.013523,0.002678,0.000431,0.000353
32674000,0.0324,0.013523,0.002678,0.000431,0.000353
32675000,0.0324,0.013523,0.002678,0.000431,0.000235
32676000,0.0324,0.013523,0.002678,0.000431,0.000353
32677000,0.0324,0.013523,0.002678,0.000431,0.000470
32678000,0.0324,0.013523,0.002678,0.000431,0.000353
32679000,0.0324,0.013523,0.002678,0.000431,0.000235
32680000,0.0324,0.013523,0.002678,0.000431,0.000353
32681000,0.0324,0.013523,0.002678,0.000431,0.000353
32682000,0.0324,0.013523,0.002678,0.000431,0.000235
32683000,0.0324,0.013523,0.002678,0.000431,0.000353
32684000,0.0324,0.013523,0.002678,0.000431,0.000470
32685000,0.0324,0.013523,0.002678,0.000431,0.000353
32686000,0.0324,0.013523,0.002678,0.000431,0.000235
32687000,0.0324,0.013523,0.002678,0.000431,0.000353
32688000,0.0324,0.013523,0.002678,0.000431,0.000353
32689000,0.0324,0.013523,0.002678,0.000431,0.000235
32690000,0.0324,0.013523,0.002678,0.000431,0.000353
32691000,0.0324,0.013523,0.002678,0.000431,0.000470
32692000,0.0324,0.013523,0.002678,0.000431,0.000353
32693000,0.0324,0.013523,0.002678,0.000431,0.000235
32694000,0.0324,0.013523,0.002678,0.000431,0.000353
32695000,0.0324,0.013523,0.002678,0.000431,0.000353
32696000,0.0324,0.013523,0.002678,0.000431,0.000235
32697000,0.0324,0.013523,0.002678,0.000431,0.000353
32698000,0.0324,0.013523,0.002678,0.000431,0.000470
32699000,0.0324,0.013523,0.002678,0.000431,0.000353
32700000,0.0324,0.013523,0.002678,0.000431,0.000235
32701000,0.0324,0.013523,0.002678,0.000431,0.000353
32702000,0.0324,0.013523,0.002678,0.000431,0.000353
32703000,0.0324,0.013523,0.002678,0.000431,0.000235
32704000,0.0324,0.013523,0.002678,0.000431,0.000353
32705000,0.0324,0.013523,0.002678,0.000431,0.000470
32706000,0.0324,0.013523,0.002678,0.000431,0.000353
32707000,0.0324,0.013523,0.002678,0.000431,0.000235
32708000,0.0324,0.013523,0.002678,0.000431,0.000353
32709000,0.0324,0.013523,0.002678,0.000431,0.000353
32710000,0.0324,0.013523,0.002678,0.000431,0.000235
32711000,0.0324,0.013523,0.002678,0.000431,0.000353
32712000,0.0324,0.013523,0.002678,0.000431,0.000470
32713000,0.0324,0.013523,0.002678,0.000431,0.000353
32714000,0.0324,0.013523,0.002678,0.000431,0.000235
32715000,0.0324,0.013523,0.002678,0.000431,0.000353
32716000,0.0324,0.013523,0.002678,0.000431,0.000353
32717000,0.0324,0.013523,0.002678,0.000431,0.000235
32718000,0.0324,0.013523,0.002678,0.000431,0.000353
32719000,0.0324,0.013523,0.002678,0.000431,0.000470
32720000,0.0324,0.013523,0.002678,0.000431,0.000353
32721000,0.0324,0.013523,0.002678,0.000431,0.000235
32722000,0.0324,0.013523,0.002678,0.000431,0.000353
32723000,0.0324,0.013523,0.002678,0.000431,0.000353
32724000,0.0324,0.013523,0.002678,0.000431,0.000235
32725000,0.0324,0.013523,0.002678,0.000431,0.000353
32726000,0.0324,0.013523,0.002678,0.000431,0.000470
32727000,0.0324,0.013523,0.002678,0.000431,0.000353
32728000,0.0324,0.013523,0.002678,0.000431,0.000118
32729000,0.0324,0.013523,0.002678,0.000431,0.000470
32730000,0.0324,0.013523,0.002678,0.000431,0.000353
32731000,0.0324,0.013523,0.002678,0.000431,0.000235
32732000,0.0324,0.013523,0.002678,0.000431,0.000353
32733000,0.0324,0.013523,0.002678,0.000431,0.000470
32734000,0.0324,0.013523,0.002678,0.000431,0.000353
32735000,0.0324,0.013523,0.002678,0.000431,0.000118
32736000,0.0324,0.013523,0.002678,0.000431,0.000470
32737000,0.0324,0.013523,0.002678,0.000431,0.000353
32738000,0.0324,0.013523,0.002678,0.000431,0.000235
32739000,0.0324,0.013523,0.002678,0.000431,0.000353
32740000,0.0324,0.013523,0.002678,0.000431,0.000470
32741000,0.0324,0.013523,0.002678,0.000431,0.000353
32742000,0.0324,0.013523,0.002678,0.000431,0.000118
32743000,0.0324,0.013523,0.002678,0.000431,0.000470
32744000,0.0324,0.013523,0.002678,0.000431,0.000353
32745000,0.0324,0.013523,0.002678,0.000431,0.000235
32746000,0.0324,0.013523,0.002678,0.000431,0.000353
32747000,0.0324,0.013523,0.002678,0.000431,0.000470
32748000,0.0324,0.013523,0.002678,0.000431,0.000235
32749000,0.0324,0.013523,0.002678,0.000431,0.000235
32750000,0.0324,0.013523,0.002678,0.000431,0.000470
32751000,0.0324,0.013523,0.002678,0.000431,0.000353
32752000,0.0324,0.013523,0.002678,0.000431,0.000235
32753000,0.0324,0.013523,0.002678,0.000431,0.000353
32754000,0.0324,0.013523,0.002678,0.000431,0.000470
32755000,0.0324,0.013523,0.002678,0.000431,0.000235
32756000,0.0324,0.013523,0.002678,0.000431,0.000235
32757000,0.0324,0.013523,0.002678,0.000431,0.000470
32758000,0.0324,0.013523,0.002678,0.000431,0.000353
32759000,0.0324,0.013523,0.002678,0.000431,0.000235
32760000,0.0324,0.013523,0.002678,0.000431,0.000353
32761000,0.0324,0.013523,0.002678,0.000431,0.000470
32762000,0.0324,0.013523,0.002678,0.000431,0.000235
32763000,0.0324,0.013523,0.002678,0.000431,0.000235
32764000,0.0324,0.013523,0.002678,0.000431,0.000470
32765000,0.0324,0.013523,0.002678,0.000431,0.000353
32766000,0.0324,0.013523,0.002678,0.000431,0.000235
32767000,0.0324,0.013523,0.002678,0.000431,0.000353
32768000,0.0324,0.013523,0.002678,0.000431,0.000470
32769000,0.0324,0.013523,0.002678,0.000431,0.000235
32770000,0.0324,0.013523,0.002678,0.000431,0.000235
32771000,0.0324,0.013523,0.002678,0.000431,0.000470
32772000,0.0324,0.013523,0.002678,0.000431,0.000353
32773000,0.0324,0.013523,0.002678,0.000431,0.000235
32774000,0.0324,0.013523,0.002678,0.000431,0.000353
32775000,0.0324,0.013523,0.002678,0.000431,0.000470
32776000,0.0324,0.013523,0.002678,0.000431,0.000235
32777000,0.0324,0.013523,0.002678,0.000431,0.000235
32778000,0.0324,0.013523,0.002678,0.000431,0.000470
32779000,0.0324,0.013523,0.002678,0.000431,0.000353
32780000,0.0324,0.013523,0.002678,0.000431,0.000235
32781000,0.0324,0.013523,0.002678,0.000431,0.000353
32782000,0.0324,0.013523,0.002678,0.000431,0.000470
32783000,0.0324,0.013523,0.002678,0.000431,0.000235
32784000,0.0324,0.013523,0.002678,0.000431,0.000235
32785000,0.0324,0.013523,0.002678,0.000431,0.000470
32786000,0.0324,0.013523,0.002678,0.000431,0.000353
32787000,0.0324,0.013523,0.002678,0.000431,0.000235
32788000,0.0324,0.013523,0.002678,0.000431,0.000353
32789000,0.0324,0.013523,0.002678,0.000431,0.000470
32790000,0.0324,0.013523,0.002678,0.000431,0.000118
32791000,0.0324,0.013523,0.002678,0.000431,0.000353
32792000,0.0324,0.013523,0.002678,0.000431,0.000470
32793000,0.0324,0.013523,0.002678,0.000431,0.000353
32794000,0.0324,0.013523,0.002678,0.000431,0.000235
32795000,0.0324,0.013523,0.002678,0.000431,0.000353
32796000,0.0324,0.013523,0.002678,0.000431,0.000470
32797000,0.0324,0.013523,0.002678,0.000431,0.000118
32798000,0.0324,0.013523,0.002678,0.000431,0.000353
32799000,0.0324,0.013523,0.002678,0.000431,0.000470
32800000,0.0324,0.013523,0.002678,0.000431,0.000353
32801000,0.0324,0.013523,0.002678,0.000431,0.000235
32802000,0.0324,0.013523,0.002678,0.000431,0.000353
32803000,0.0324,0.013523,0.002678,0.000431,0.000470
32804000,0.0324,0.013523,0.002678,0.000431,0.000118
32805000,0.0324,0.013523,0.002678,0.000431,0.000353
32806000,0.0324,0.013523,0.002678,0.000431,0.000470
32807000,0.0324,0.013523,0.002678,0.000431,0.000353
32808000,0.0324,0.013523,0.002678,0.000431,0.000235
32809000,0.0324,0.013523,0.002678,0.000431,0.000353
32810000,0.0324,0.013523,0.002678,0.000431,0.000470
32811000,0.0324,0.013523,0.002678,0.000431,0.000118
32812000,0.0324,0.013523,0.002678,0.000431,0.000353
32813000,0.0324,0.013523,0.002678,0.000431,0.000470
32814000,0.0324,0.013523,0.002678,0.000431,0.000353
32815000,0.0324,0.013523,0.002678,0.000431,0.000235
32816000,0.0324,0.013523,0.002678,0.000431,0.000353
32817000,0.0324,0.013523,0.002678,0.000431,0.000353
32818000,0.0324,0.013523,0.002678,0.000431,0.000235
32819000,0.0324,0.013523,0.002678,0.000431,0.000353
32820000,0.0324,0.013523,0.002678,0.000431,0.000470
32821000,0.0324,0.013523,0.002678,0.000431,0.000353
32822000,0.0324,0.013523,0.002678,0.000431,0.000235
32823000,0.0324,0.013523,0.002678,0.000431,0.000353
32824000,0.0324,0.013523,0.002678,0.000431,0.000353
32825000,0.0324,0.013523,0.002678,0.000431,0.000235
32826000,0.0324,0.013523,0.002678,0.000431,0.000353
32827000,0.0324,0.013523,0.002678,0.000431,0.000470
32828000,0.0324,0.013523,0.002678,0.000431,0.000353
32829000,0.0324,0.013523,0.002678,0.000431,0.000235
32830000,0.0324,0.013523,0.002678,0.000431,0.000353
32831000,0.0324,0.013523,0.002678,0.000431,0.000353
32832000,0.0324,0.013523,0.002678,0.000431,0.000235
32833000,0.0324,0.013523,0.002678,0.000431,0.000353
32834000,0.0324,0.013523,0.002678,0.000431,0.000470
32835000,0.0324,0.013523,0.002678,0.000431,0.000353
32836000,0.0324,0.013523,0.002678,0.000431,0.000235
32837000,0.0324,0.013523,0.002678,0.000431,0.000353
32838000,0.0324,0.013523,0.002678,0.000431,0.000353
32839000,0.0324,0.013523,0.002678,0.000431,0.000235
32840000,0.0324,0.013523,0.002678,0.000431,0.000353
32841000,0.0324,0.013523,0.002678,0.000431,0.000470
32842000,0.0324,0.013523,0.002678,0.000431,0.000353
32843000,0.0324,0.013523,0.002678,0.000431,0.000235
32844000,0.0324,0.013523,0.002678,0.000431,0.000353
32845000,0.0324,0.013523,0.002678,0.000431,0.000353
32846000,0.0324,0.013523,0.002678,0.000431,0.000235
32847000,0.0324,0.013523,0.002678,0.000431,0.000353
32848000,0.0324,0.013523,0.002678,0.000431,0.000470
32849000,0.0324,0.013523,0.002678,0.000431,0.000353
32850000,0.0324,0.013523,0.002678,0.000431,0.000235
32851000,0.0324,0.013523,0.002678,0.000431,0.000353
32852000,0.0324,0.013523,0.002678,0.000431,0.000353
32853000,0.0324,0.013523,0.002678,0.000431,0.000235
32854000,0.0324,0.013523,0.002678,0.000431,0.000353
32855000,0.0324,0.013523,0.002678,0.000431,0.000470
32856000,0.0324,0.013523,0.002678,0.000431,0.000353
32857000,0.0324,0.013523,0.002678,0.000431,0.000235
32858000,0.0324,0.013523,0.002678,0.000431,0.000353
32859000,0.0324,0.013523,0.002678,0.000431,0.000353
32860000,0.0324,0.013523,0.002678,0.000431,0.000235
32861000,0.0324,0.013523,0.002678,0.000431,0.000353
32862000,0.0324,0.013523,0.002678,0.000431,0.000470
32863000,0.0324,0.013523,0.002678,0.000431,0.000353
32864000,0.0324,0.013523,0.002678,0.000431,0.000235
32865000,0.0324,0.013523,0.002678,0.000431,0.000353
32866000,0.0324,0.013523,0.002678,0.000431,0.000353
32867000,0.0324,0.013523,0.002678,0.000431,0.000235
32868000,0.0324,0.013523,0.002678,0.000431,0.000353
32869000,0.0324,0.013523,0.002678,0.000431,0.000470
32870000,0.0324,0.013523,0.002678,0.000431,0.000353
32871000,0.0324,0.013523,0.002678,0.000431,0.000118
32872000,0.0324,0.013523,0.002678,0.000431,0.000470
32873000,0.0324,0.013523,0.002678,0.000431,0.000353
32874000,0.0324,0.013523,0.002678,0.000431,0.000235
32875000,0.0324,0.013523,0.002678,0.000431,0.000353
32876000,0.0324,0.013523,0.002678,0.000431,0.000470
32877000,0.0324,0.013523,0.002678,0.000431,0.000353
32878000,0.0324,0.013523,0.002678,0.000431,0.000118
32879000,0.0324,0.013523,0.002678,0.000431,0.000470
32880000,0.0324,0.013523,0.002678,0.000431,0.000353
32881000,0.0324,0.013523,0.002678,0.000431,0.000235
32882000,0.0324,0.013523,0.002678,0.000431,0.000353
32883000,0.0324,0.013523,0.002678,0.000431,0.000470
32884000,0.0324,0.013523,0.002678,0.000431,0.000353
32885000,0.0324,0.013523,0.002678,0.000431,0.000118
32886000,0.0324,0.013523,0.002678,0.000431,0.000470
32887000,0.0324,0.013523,0.002678,0.000431,0.000353
32888000,0.0324,0.013523,0.002678,0.000431,0.000235
32889000,0.0324,0.013523,0.002678,0.000431,0.000353
32890000,0.0324,0.013523,0.002678,0.000431,0.000470
32891000,0.0324,0.013523,0.002678,0.000431,0.000235
32892000,0.0324,0.013523,0.002678,0.000431,0.000235
32893000,0.0324,0.013523,0.002678,0.000431,0.000470
32894000,0.0324,0.013523,0.002678,0.000431,0.000353
32895000,0.0324,0.013523,0.002678,0.000431,0.000235
32896000,0.0324,0.013523,0.002678,0.000431,0.000353
32897000,0.0324,0.013523,0.002678,0.000431,0.000470
32898000,0.0324,0.013523,0.002678,0.000431,0.000235
32899000,0.0324,0.013523,0.002678,0.000431,0.000235
32900000,0.0324,0.013523,0.002678,0.000431,0.000470
32901000,0.0324,0.013523,0.002678,0.000431,0.000353
32902000,0.0324,0.013523,0.002678,0.000431,0.000235
32903000,0.0324,0.013523,0.002678,0.000431,0.000353
32904000,0.0324,0.013523,0.002678,0.000431,0.000470
32905000,0.0324,0.013523,0.002678,0.000431,0.000235
32906000,0.0324,0.013523,0.002678,0.000431,0.000235
32907000,0.0324,0.013523,0.002678,0.000431,0.000470
32908000,0.0324,0.013523,0.002678,0.000431,0.000353
32909000,0.0324,0.013523,0.002678,0.000431,0.000235
32910000,0.0324,0.013523,0.002678,0.000431,0.000353
32911000,0.0324,0.013523,0.002678,0.000431,0.000470
32912000,0.0324,0.013523,0.002678,0.000431,0.000235
32913000,0.0324,0.013523,0.002678,0.000431,0.000235
32914000,0.0324,0.013523,0.002678,0.000431,0.000470
32915000,0.0324,0.013523,0.002678,0.000431,0.000353
32916000,0.0324,0.013523,0.002678,0.000431,0.000235
32917000,0.0324,0.013523,0.002678,0.000431,0.000353
32918000,0.0324,0.013523,0.002678,0.000431,0.000470
32919000,0.0324,0.013523,0.002678,0.000431,0.000235
32920000,0.0324,0.013523,0.002678,0.000431,0.000235
32921000,0.0324,0.013523,0.002678,0.000431,0.000470
32922000,0.0324,0.013523,0.002678,0.000431,0.000353
32923000,0.0324,0.013523,0.002678,0.000431,0.000235
32924000,0.0324,0.013523,0.002678,0.000431,0.000353
32925000,0.0324,0.013523,0.002678,0.000431,0.000470
32926000,0.0324,0.013523,0.002678,0.000431,0.000235
32927000,0.0324,0.013523,0.002678,0.000431,0.000235
32928000,0.0324,0.013523,0.002678,0.000431,0.000470
32929000,0.0324,0.013523,0.002678,0.000431,0.000353
32930000,0.0324,0.013523,0.002678,0.000431,0.000235
32931000,0.0324,0.013523,0.002678,0.000431,0.000353
32932000,0.0324,0.013523,0.002678,0.000431,0.000470
32933000,0.0324,0.013523,0.002678,0.000431,0.000118
32934000,0.0324,0.013523,0.002678,0.000431,0.000353
32935000,0.0324,0.013523,0.002678,0.000431,0.000470
32936000,0.0324,0.013523,0.002678,0.000431,0.000353
32937000,0.0324,0.013523,0.002678,0.000431,0.000235
32938000,0.0324,0.013523,0.002678,0.000431,0.000353
32939000,0.0324,0.013523,0.002678,0.000431,0.000470
32940000,0.0324,0.013523,0.002678,0.000431,0.000118
32941000,0.0324,0.013523,0.002678,0.000431,0.000353
32942000,0.0324,0.013523,0.002678,0.000431,0.000470
32943000,0.0324,0.013523,0.002678,0.000431,0.000353
32944000,0.0324,0.013523,0.002678,0.000431,0.000235
32945000,0.0324,0.013523,0.002678,0.000431,0.000353
32946000,0.0324,0.013523,0.002678,0.000431,0.000470
32947000,0.0324,0.013523,0.002678,0.000431,0.000118
32948000,0.0324,0.013523,0.002678,0.000431,0.000353
32949000,0.0324,0.013523,0.002678,0.000431,0.000470
32950000,0.0324,0.013523,0.002678,0.000431,0.000353
32951000,0.0324,0.013523,0.002678,0.000431,0.000235
32952000,0.0324,0.013523,0.002678,0.000431,0.000353
32953000,0.0324,0.013523,0.002678,0.000431,0.000353
32954000,0.0324,0.013523,0.002678,0.000431,0.000235
32955000,0.0324,0.013523,0.002678,0.000431,0.000353
32956000,0.0324,0.013523,0.002678,0.000431,0.000470
32957000,0.0324,0.013523,0.002678,0.000431,0.000353
32958000,0.0324,0.013523,0.002678,0.000431,0.000235
32959000,0.0324,0.013523,0.002678,0.000431,0.000353
32960000,0.0324,0.013523,0.002678,0.000431,0.000353
32961000,0.0324,0.013523,0.002678,0.000431,0.000235
32962000,0.0324,0.013523,0.002678,0.000431,0.000353
32963000,0.0324,0.013523,0.002678,0.000431,0.000470
32964000,0.0324,0.013523,0.002678,0.000431,0.000353
32965000,0.0324,0.013523,0.002678,0.000431,0.000235
32966000,0.0324,0.013523,0.002678,0.000431,0.000353
32967000,0.0324,0.013523,0.002678,0.000431,0.000353
32968000,0.0324,0.013523,0.002678,0.000431,0.000235
32969000,0.0324,0.013523,0.002678,0.000431,0.000353
32970000,0.0324,0.013523,0.002678,0.000431,0.000470
32971000,0.0324,0.013523,0.002678,0.000431,0.000353
32972000,0.0324,0.013523,0.002678,0.000431,0.000235
32973000,0.0324,0.013523,0.002678,0.000431,0.000353
32974000,0.0324,0.013523,0.002678,0.000431,0.000353
32975000,0.0324,0.013523,0.002678,0.000431,0.000235
32976000,0.0324,0.013523,0.002678,0.000431,0.000353
32977000,0.0324,0.013523,0.002678,0.000431,0.000470
32978000,0.0324,0.013523,0.002678,0.000431,0.000353
32979000,0.0324,0.013523,0.002678,0.000431,0.000235
32980000,0.0324,0.013523,0.002678,0.000431,0.000353
32981000,0.0324,0.013523,0.002678,0.000431,0.000353
32982000,0.0324,0.013523,0.002678,0.000431,0.000235
32983000,0.0324,0.013523,0.002678,0.000431,0.000353
32984000,0.0324,0.013523,0.002678,0.000431,0.000470
32985000,0.0324,0.013523,0.002678,0.000431,0.000353
32986000,0.0324,0.013523,0.002678,0.000431,0.000235
32987000,0.0324,0.013523,0.002678,0.000431,0.000353
32988000,0.0324,0.013523,0.002678,0.000431,0.000353
32989000,0.0324,0.013523,0.002678,0.000431,0.000235
32990000,0.0324,0.013523,0.002678,0.000431,0.000353
32991000,0.0324,0.013523,0.002678,0.000431,0.000470
32992000,0.0324,0.013523,0.002678,0.000431,0.000353
32993000,0.0324,0.013523,0.002678,0.000431,0.000235
32994000,0.0324,0.013523,0.002678,0.000431,0.000353
32995000,0.0324,0.013523,0.002678,0.000431,0.000353
32996000,0.0324,0.013523,0.002678,0.000431,0.000235
32997000,0.0324,0.013523,0.002678,0.000431,0.000353
32998000,0.0324,0.013523,0.002678,0.000431,0.000470
32999000,0.0324,0.013523,0.002678,0.000431,0.000353
