Cycle,Area(mm^2),PeakDynamic(W),SubthresholdLeakage(W),GateLeakage(W),RunTimeDynamic(W)
42000000,0.0324,0.013523,0.002678,0.000431,0.000353
42001000,0.0324,0.013523,0.002678,0.000431,0.000235
42002000,0.0324,0.013523,0.002678,0.000431,0.000353
42003000,0.0324,0.013523,0.002678,0.000431,0.000353
42004000,0.0324,0.013523,0.002678,0.000431,0.000235
42005000,0.0324,0.013523,0.002678,0.000431,0.000353
42006000,0.0324,0.013523,0.002678,0.000431,0.000470
42007000,0.0324,0.013523,0.002678,0.000431,0.000353
42008000,0.0324,0.013523,0.002678,0.000431,0.000235
42009000,0.0324,0.013523,0.002678,0.000431,0.000353
42010000,0.0324,0.013523,0.002678,0.000431,0.000353
42011000,0.0324,0.013523,0.002678,0.000431,0.000235
42012000,0.0324,0.013523,0.002678,0.000431,0.000353
42013000,0.0324,0.013523,0.002678,0.000431,0.000470
42014000,0.0324,0.013523,0.002678,0.000431,0.000353
42015000,0.0324,0.013523,0.002678,0.000431,0.000235
42016000,0.0324,0.013523,0.002678,0.000431,0.000353
42017000,0.0324,0.013523,0.002678,0.000431,0.000353
42018000,0.0324,0.013523,0.002678,0.000431,0.000235
42019000,0.0324,0.013523,0.002678,0.000431,0.000353
42020000,0.0324,0.013523,0.002678,0.000431,0.000470
42021000,0.0324,0.013523,0.002678,0.000431,0.000353
42022000,0.0324,0.013523,0.002678,0.000431,0.000235
42023000,0.0324,0.013523,0.002678,0.000431,0.000353
42024000,0.0324,0.013523,0.002678,0.000431,0.000353
42025000,0.0324,0.013523,0.002678,0.000431,0.000235
42026000,0.0324,0.013523,0.002678,0.000431,0.000353
42027000,0.0324,0.013523,0.002678,0.000431,0.000470
42028000,0.0324,0.013523,0.002678,0.000431,0.000353
42029000,0.0324,0.013523,0.002678,0.000431,0.000118
42030000,0.0324,0.013523,0.002678,0.000431,0.000470
42031000,0.0324,0.013523,0.002678,0.000431,0.000353
42032000,0.0324,0.013523,0.002678,0.000431,0.000235
42033000,0.0324,0.013523,0.002678,0.000431,0.000353
42034000,0.0324,0.013523,0.002678,0.000431,0.000470
42035000,0.0324,0.013523,0.002678,0.000431,0.000353
42036000,0.0324,0.013523,0.002678,0.000431,0.000118
42037000,0.0324,0.013523,0.002678,0.000431,0.000470
42038000,0.0324,0.013523,0.002678,0.000431,0.000353
42039000,0.0324,0.013523,0.002678,0.000431,0.000235
42040000,0.0324,0.013523,0.002678,0.000431,0.000353
42041000,0.0324,0.013523,0.002678,0.000431,0.000470
42042000,0.0324,0.013523,0.002678,0.000431,0.000353
42043000,0.0324,0.013523,0.002678,0.000431,0.000118
42044000,0.0324,0.013523,0.002678,0.000431,0.000470
42045000,0.0324,0.013523,0.002678,0.000431,0.000353
42046000,0.0324,0.013523,0.002678,0.000431,0.000235
42047000,0.0324,0.013523,0.002678,0.000431,0.000353
42048000,0.0324,0.013523,0.002678,0.000431,0.000470
42049000,0.0324,0.013523,0.002678,0.000431,0.000353
42050000,0.0324,0.013523,0.002678,0.000431,0.000118
42051000,0.0324,0.013523,0.002678,0.000431,0.000470
42052000,0.0324,0.013523,0.002678,0.000431,0.000353
42053000,0.0324,0.013523,0.002678,0.000431,0.000235
42054000,0.0324,0.013523,0.002678,0.000431,0.000353
42055000,0.0324,0.013523,0.002678,0.000431,0.000470
42056000,0.0324,0.013523,0.002678,0.000431,0.000235
42057000,0.0324,0.013523,0.002678,0.000431,0.000235
42058000,0.0324,0.013523,0.002678,0.000431,0.000470
42059000,0.0324,0.013523,0.002678,0.000431,0.000353
42060000,0.0324,0.013523,0.002678,0.000431,0.000235
42061000,0.0324,0.013523,0.002678,0.000431,0.000353
42062000,0.0324,0.013523,0.002678,0.000431,0.000470
42063000,0.0324,0.013523,0.002678,0.000431,0.000235
42064000,0.0324,0.013523,0.002678,0.000431,0.000235
42065000,0.0324,0.013523,0.002678,0.000431,0.000470
42066000,0.0324,0.013523,0.002678,0.000431,0.000353
42067000,0.0324,0.013523,0.002678,0.000431,0.000235
42068000,0.0324,0.013523,0.002678,0.000431,0.000353
42069000,0.0324,0.013523,0.002678,0.000431,0.000470
42070000,0.0324,0.013523,0.002678,0.000431,0.000235
42071000,0.0324,0.013523,0.002678,0.000431,0.000235
42072000,0.0324,0.013523,0.002678,0.000431,0.000470
42073000,0.0324,0.013523,0.002678,0.000431,0.000353
42074000,0.0324,0.013523,0.002678,0.000431,0.000235
42075000,0.0324,0.013523,0.002678,0.000431,0.000353
42076000,0.0324,0.013523,0.002678,0.000431,0.000470
42077000,0.0324,0.013523,0.002678,0.000431,0.000235
42078000,0.0324,0.013523,0.002678,0.000431,0.000235
42079000,0.0324,0.013523,0.002678,0.000431,0.000470
42080000,0.0324,0.013523,0.002678,0.000431,0.000353
42081000,0.0324,0.013523,0.002678,0.000431,0.000235
42082000,0.0324,0.013523,0.002678,0.000431,0.000353
42083000,0.0324,0.013523,0.002678,0.000431,0.000470
42084000,0.0324,0.013523,0.002678,0.000431,0.000235
42085000,0.0324,0.013523,0.002678,0.000431,0.000235
42086000,0.0324,0.013523,0.002678,0.000431,0.000470
42087000,0.0324,0.013523,0.002678,0.000431,0.000353
42088000,0.0324,0.013523,0.002678,0.000431,0.000235
42089000,0.0324,0.013523,0.002678,0.000431,0.000353
42090000,0.0324,0.013523,0.002678,0.000431,0.000470
42091000,0.0324,0.013523,0.002678,0.000431,0.000235
42092000,0.0324,0.013523,0.002678,0.000431,0.000235
42093000,0.0324,0.013523,0.002678,0.000431,0.000470
42094000,0.0324,0.013523,0.002678,0.000431,0.000353
42095000,0.0324,0.013523,0.002678,0.000431,0.000235
42096000,0.0324,0.013523,0.002678,0.000431,0.000353
42097000,0.0324,0.013523,0.002678,0.000431,0.000470
42098000,0.0324,0.013523,0.002678,0.000431,0.000118
42099000,0.0324,0.013523,0.002678,0.000431,0.000353
42100000,0.0324,0.013523,0.002678,0.000431,0.000470
42101000,0.0324,0.013523,0.002678,0.000431,0.000353
42102000,0.0324,0.013523,0.002678,0.000431,0.000235
42103000,0.0324,0.013523,0.002678,0.000431,0.000353
42104000,0.0324,0.013523,0.002678,0.000431,0.000470
42105000,0.0324,0.013523,0.002678,0.000431,0.000118
42106000,0.0324,0.013523,0.002678,0.000431,0.000353
42107000,0.0324,0.013523,0.002678,0.000431,0.000470
42108000,0.0324,0.013523,0.002678,0.000431,0.000353
42109000,0.0324,0.013523,0.002678,0.000431,0.000235
42110000,0.0324,0.013523,0.002678,0.000431,0.000353
42111000,0.0324,0.013523,0.002678,0.000431,0.000470
42112000,0.0324,0.013523,0.002678,0.000431,0.000118
42113000,0.0324,0.013523,0.002678,0.000431,0.000353
42114000,0.0324,0.013523,0.002678,0.000431,0.000470
42115000,0.0324,0.013523,0.002678,0.000431,0.000353
42116000,0.0324,0.013523,0.002678,0.000431,0.000235
42117000,0.0324,0.013523,0.002678,0.000431,0.000353
42118000,0.0324,0.013523,0.002678,0.000431,0.000353
42119000,0.0324,0.013523,0.002678,0.000431,0.000235
42120000,0.0324,0.013523,0.002678,0.000431,0.000353
42121000,0.0324,0.013523,0.002678,0.000431,0.000470
42122000,0.0324,0.013523,0.002678,0.000431,0.000353
42123000,0.0324,0.013523,0.002678,0.000431,0.000235
42124000,0.0324,0.013523,0.002678,0.000431,0.000353
42125000,0.0324,0.013523,0.002678,0.000431,0.000353
42126000,0.0324,0.013523,0.002678,0.000431,0.000235
42127000,0.0324,0.013523,0.002678,0.000431,0.000353
42128000,0.0324,0.013523,0.002678,0.000431,0.000470
42129000,0.0324,0.013523,0.002678,0.000431,0.000353
42130000,0.0324,0.013523,0.002678,0.000431,0.000235
42131000,0.0324,0.013523,0.002678,0.000431,0.000353
42132000,0.0324,0.013523,0.002678,0.000431,0.000353
42133000,0.0324,0.013523,0.002678,0.000431,0.000235
42134000,0.0324,0.013523,0.002678,0.000431,0.000353
42135000,0.0324,0.013523,0.002678,0.000431,0.000470
42136000,0.0324,0.013523,0.002678,0.000431,0.000353
42137000,0.0324,0.013523,0.002678,0.000431,0.000235
42138000,0.0324,0.013523,0.002678,0.000431,0.000353
42139000,0.0324,0.013523,0.002678,0.000431,0.000353
42140000,0.0324,0.013523,0.002678,0.000431,0.000235
42141000,0.0324,0.013523,0.002678,0.000431,0.000353
42142000,0.0324,0.013523,0.002678,0.000431,0.000470
42143000,0.0324,0.013523,0.002678,0.000431,0.000353
42144000,0.0324,0.013523,0.002678,0.000431,0.000235
42145000,0.0324,0.013523,0.002678,0.000431,0.000353
42146000,0.0324,0.013523,0.002678,0.000431,0.000353
42147000,0.0324,0.013523,0.002678,0.000431,0.000235
42148000,0.0324,0.013523,0.002678,0.000431,0.000353
42149000,0.0324,0.013523,0.002678,0.000431,0.000470
42150000,0.0324,0.013523,0.002678,0.000431,0.000353
42151000,0.0324,0.013523,0.002678,0.000431,0.000235
42152000,0.0324,0.013523,0.002678,0.000431,0.000353
42153000,0.0324,0.013523,0.002678,0.000431,0.000353
42154000,0.0324,0.013523,0.002678,0.000431,0.000235
42155000,0.0324,0.013523,0.002678,0.000431,0.000353
42156000,0.0324,0.013523,0.002678,0.000431,0.000470
42157000,0.0324,0.013523,0.002678,0.000431,0.000353
42158000,0.0324,0.013523,0.002678,0.000431,0.000235
42159000,0.0324,0.013523,0.002678,0.000431,0.000353
42160000,0.0324,0.013523,0.002678,0.000431,0.000353
42161000,0.0324,0.013523,0.002678,0.000431,0.000235
42162000,0.0324,0.013523,0.002678,0.000431,0.000353
42163000,0.0324,0.013523,0.002678,0.000431,0.000470
42164000,0.0324,0.013523,0.002678,0.000431,0.000353
42165000,0.0324,0.013523,0.002678,0.000431,0.000235
42166000,0.0324,0.013523,0.002678,0.000431,0.000353
42167000,0.0324,0.013523,0.002678,0.000431,0.000353
42168000,0.0324,0.013523,0.002678,0.000431,0.000235
42169000,0.0324,0.013523,0.002678,0.000431,0.000353
42170000,0.0324,0.013523,0.002678,0.000431,0.000470
42171000,0.0324,0.013523,0.002678,0.000431,0.000353
42172000,0.0324,0.013523,0.002678,0.000431,0.000118
42173000,0.0324,0.013523,0.002678,0.000431,0.000470
42174000,0.0324,0.013523,0.002678,0.000431,0.000353
42175000,0.0324,0.013523,0.002678,0.000431,0.000235
42176000,0.0324,0.013523,0.002678,0.000431,0.000353
42177000,0.0324,0.013523,0.002678,0.000431,0.000470
42178000,0.0324,0.013523,0.002678,0.000431,0.000353
42179000,0.0324,0.013523,0.002678,0.000431,0.000118
42180000,0.0324,0.013523,0.002678,0.000431,0.000470
42181000,0.0324,0.013523,0.002678,0.000431,0.000353
42182000,0.0324,0.013523,0.002678,0.000431,0.000235
42183000,0.0324,0.013523,0.002678,0.000431,0.000353
42184000,0.0324,0.013523,0.002678,0.000431,0.000470
42185000,0.0324,0.013523,0.002678,0.000431,0.000353
42186000,0.0324,0.013523,0.002678,0.000431,0.000118
42187000,0.0324,0.013523,0.002678,0.000431,0.000470
42188000,0.0324,0.013523,0.002678,0.000431,0.000353
42189000,0.0324,0.013523,0.002678,0.000431,0.000235
42190000,0.0324,0.013523,0.002678,0.000431,0.000353
42191000,0.0324,0.013523,0.002678,0.000431,0.000470
42192000,0.0324,0.013523,0.002678,0.000431,0.000235
42193000,0.0324,0.013523,0.002678,0.000431,0.000235
42194000,0.0324,0.013523,0.002678,0.000431,0.000470
42195000,0.0324,0.013523,0.002678,0.000431,0.000353
42196000,0.0324,0.013523,0.002678,0.000431,0.000235
42197000,0.0324,0.013523,0.002678,0.000431,0.000353
42198000,0.0324,0.013523,0.002678,0.000431,0.000470
42199000,0.0324,0.013523,0.002678,0.000431,0.000235
42200000,0.0324,0.013523,0.002678,0.000431,0.000235
42201000,0.0324,0.013523,0.002678,0.000431,0.000470
42202000,0.0324,0.013523,0.002678,0.000431,0.000353
42203000,0.0324,0.013523,0.002678,0.000431,0.000235
42204000,0.0324,0.013523,0.002678,0.000431,0.000353
42205000,0.0324,0.013523,0.002678,0.000431,0.000470
42206000,0.0324,0.013523,0.002678,0.000431,0.000235
42207000,0.0324,0.013523,0.002678,0.000431,0.000235
42208000,0.0324,0.013523,0.002678,0.000431,0.000470
42209000,0.0324,0.013523,0.002678,0.000431,0.000353
42210000,0.0324,0.013523,0.002678,0.000431,0.000235
42211000,0.0324,0.013523,0.002678,0.000431,0.000353
42212000,0.0324,0.013523,0.002678,0.000431,0.000470
42213000,0.0324,0.013523,0.002678,0.000431,0.000235
42214000,0.0324,0.013523,0.002678,0.000431,0.000235
42215000,0.0324,0.013523,0.002678,0.000431,0.000470
42216000,0.0324,0.013523,0.002678,0.000431,0.000353
42217000,0.0324,0.013523,0.002678,0.000431,0.000235
42218000,0.0324,0.013523,0.002678,0.000431,0.000353
42219000,0.0324,0.013523,0.002678,0.000431,0.000470
42220000,0.0324,0.013523,0.002678,0.000431,0.000235
42221000,0.0324,0.013523,0.002678,0.000431,0.000235
42222000,0.0324,0.013523,0.002678,0.000431,0.000470
42223000,0.0324,0.013523,0.002678,0.000431,0.000353
42224000,0.0324,0.013523,0.002678,0.000431,0.000235
42225000,0.0324,0.013523,0.002678,0.000431,0.000353
42226000,0.0324,0.013523,0.002678,0.000431,0.000470
42227000,0.0324,0.013523,0.002678,0.000431,0.000235
42228000,0.0324,0.013523,0.002678,0.000431,0.000235
42229000,0.0324,0.013523,0.002678,0.000431,0.000470
42230000,0.0324,0.013523,0.002678,0.000431,0.000353
42231000,0.0324,0.013523,0.002678,0.000431,0.000235
42232000,0.0324,0.013523,0.002678,0.000431,0.000353
42233000,0.0324,0.013523,0.002678,0.000431,0.000470
42234000,0.0324,0.013523,0.002678,0.000431,0.000118
42235000,0.0324,0.013523,0.002678,0.000431,0.000353
42236000,0.0324,0.013523,0.002678,0.000431,0.000470
42237000,0.0324,0.013523,0.002678,0.000431,0.000353
42238000,0.0324,0.013523,0.002678,0.000431,0.000235
42239000,0.0324,0.013523,0.002678,0.000431,0.000353
42240000,0.0324,0.013523,0.002678,0.000431,0.000470
42241000,0.0324,0.013523,0.002678,0.000431,0.000118
42242000,0.0324,0.013523,0.002678,0.000431,0.000353
42243000,0.0324,0.013523,0.002678,0.000431,0.000470
42244000,0.0324,0.013523,0.002678,0.000431,0.000353
42245000,0.0324,0.013523,0.002678,0.000431,0.000235
42246000,0.0324,0.013523,0.002678,0.000431,0.000353
42247000,0.0324,0.013523,0.002678,0.000431,0.000470
42248000,0.0324,0.013523,0.002678,0.000431,0.000118
42249000,0.0324,0.013523,0.002678,0.000431,0.000353
42250000,0.0324,0.013523,0.002678,0.000431,0.000470
42251000,0.0324,0.013523,0.002678,0.000431,0.000353
42252000,0.0324,0.013523,0.002678,0.000431,0.000235
42253000,0.0324,0.013523,0.002678,0.000431,0.000353
42254000,0.0324,0.013523,0.002678,0.000431,0.000470
42255000,0.0324,0.013523,0.002678,0.000431,0.000118
42256000,0.0324,0.013523,0.002678,0.000431,0.000353
42257000,0.0324,0.013523,0.002678,0.000431,0.000470
42258000,0.0324,0.013523,0.002678,0.000431,0.000353
42259000,0.0324,0.013523,0.002678,0.000431,0.000235
42260000,0.0324,0.013523,0.002678,0.000431,0.000353
42261000,0.0324,0.013523,0.002678,0.000431,0.000353
42262000,0.0324,0.013523,0.002678,0.000431,0.000235
42263000,0.0324,0.013523,0.002678,0.000431,0.000353
42264000,0.0324,0.013523,0.002678,0.000431,0.000470
42265000,0.0324,0.013523,0.002678,0.000431,0.000353
42266000,0.0324,0.013523,0.002678,0.000431,0.000235
42267000,0.0324,0.013523,0.002678,0.000431,0.000353
42268000,0.0324,0.013523,0.002678,0.000431,0.000353
42269000,0.0324,0.013523,0.002678,0.000431,0.000235
42270000,0.0324,0.013523,0.002678,0.000431,0.000353
42271000,0.0324,0.013523,0.002678,0.000431,0.000470
42272000,0.0324,0.013523,0.002678,0.000431,0.000353
42273000,0.0324,0.013523,0.002678,0.000431,0.000235
42274000,0.0324,0.013523,0.002678,0.000431,0.000353
42275000,0.0324,0.013523,0.002678,0.000431,0.000353
42276000,0.0324,0.013523,0.002678,0.000431,0.000235
42277000,0.0324,0.013523,0.002678,0.000431,0.000353
42278000,0.0324,0.013523,0.002678,0.000431,0.000470
42279000,0.0324,0.013523,0.002678,0.000431,0.000353
42280000,0.0324,0.013523,0.002678,0.000431,0.000235
42281000,0.0324,0.013523,0.002678,0.000431,0.000353
42282000,0.0324,0.013523,0.002678,0.000431,0.000353
42283000,0.0324,0.013523,0.002678,0.000431,0.000235
42284000,0.0324,0.013523,0.002678,0.000431,0.000353
42285000,0.0324,0.013523,0.002678,0.000431,0.000470
42286000,0.0324,0.013523,0.002678,0.000431,0.000353
42287000,0.0324,0.013523,0.002678,0.000431,0.000235
42288000,0.0324,0.013523,0.002678,0.000431,0.000353
42289000,0.0324,0.013523,0.002678,0.000431,0.000353
42290000,0.0324,0.013523,0.002678,0.000431,0.000235
42291000,0.0324,0.013523,0.002678,0.000431,0.000353
42292000,0.0324,0.013523,0.002678,0.000431,0.000470
42293000,0.0324,0.013523,0.002678,0.000431,0.000353
42294000,0.0324,0.013523,0.002678,0.000431,0.000235
42295000,0.0324,0.013523,0.002678,0.000431,0.000353
42296000,0.0324,0.013523,0.002678,0.000431,0.000353
42297000,0.0324,0.013523,0.002678,0.000431,0.000235
42298000,0.0324,0.013523,0.002678,0.000431,0.000353
42299000,0.0324,0.013523,0.002678,0.000431,0.000470
42300000,0.0324,0.013523,0.002678,0.000431,0.000353
42301000,0.0324,0.013523,0.002678,0.000431,0.000235
42302000,0.0324,0.013523,0.002678,0.000431,0.000353
42303000,0.0324,0.013523,0.002678,0.000431,0.000353
42304000,0.0324,0.013523,0.002678,0.000431,0.000235
42305000,0.0324,0.013523,0.002678,0.000431,0.000353
42306000,0.0324,0.013523,0.002678,0.000431,0.000470
42307000,0.0324,0.013523,0.002678,0.000431,0.000353
42308000,0.0324,0.013523,0.002678,0.000431,0.000235
42309000,0.0324,0.013523,0.002678,0.000431,0.000353
42310000,0.0324,0.013523,0.002678,0.000431,0.000353
42311000,0.0324,0.013523,0.002678,0.000431,0.000235
42312000,0.0324,0.013523,0.002678,0.000431,0.000353
42313000,0.0324,0.013523,0.002678,0.000431,0.000470
42314000,0.0324,0.013523,0.002678,0.000431,0.000353
42315000,0.0324,0.013523,0.002678,0.000431,0.000118
42316000,0.0324,0.013523,0.002678,0.000431,0.000470
42317000,0.0324,0.013523,0.002678,0.000431,0.000353
42318000,0.0324,0.013523,0.002678,0.000431,0.000235
42319000,0.0324,0.013523,0.002678,0.000431,0.000353
42320000,0.0324,0.013523,0.002678,0.000431,0.000470
42321000,0.0324,0.013523,0.002678,0.000431,0.000353
42322000,0.0324,0.013523,0.002678,0.000431,0.000118
42323000,0.0324,0.013523,0.002678,0.000431,0.000470
42324000,0.0324,0.013523,0.002678,0.000431,0.000353
42325000,0.0324,0.013523,0.002678,0.000431,0.000235
42326000,0.0324,0.013523,0.002678,0.000431,0.000353
42327000,0.0324,0.013523,0.002678,0.000431,0.000470
42328000,0.0324,0.013523,0.002678,0.000431,0.000353
42329000,0.0324,0.013523,0.002678,0.000431,0.000118
42330000,0.0324,0.013523,0.002678,0.000431,0.000470
42331000,0.0324,0.013523,0.002678,0.000431,0.000353
42332000,0.0324,0.013523,0.002678,0.000431,0.000235
42333000,0.0324,0.013523,0.002678,0.000431,0.000353
42334000,0.0324,0.013523,0.002678,0.000431,0.000470
42335000,0.0324,0.013523,0.002678,0.000431,0.000235
42336000,0.0324,0.013523,0.002678,0.000431,0.000235
42337000,0.0324,0.013523,0.002678,0.000431,0.000470
42338000,0.0324,0.013523,0.002678,0.000431,0.000353
42339000,0.0324,0.013523,0.002678,0.000431,0.000235
42340000,0.0324,0.013523,0.002678,0.000431,0.000353
42341000,0.0324,0.013523,0.002678,0.000431,0.000470
42342000,0.0324,0.013523,0.002678,0.000431,0.000235
42343000,0.0324,0.013523,0.002678,0.000431,0.000235
42344000,0.0324,0.013523,0.002678,0.000431,0.000470
42345000,0.0324,0.013523,0.002678,0.000431,0.000353
42346000,0.0324,0.013523,0.002678,0.000431,0.000235
42347000,0.0324,0.013523,0.002678,0.000431,0.000353
42348000,0.0324,0.013523,0.002678,0.000431,0.000470
42349000,0.0324,0.013523,0.002678,0.000431,0.000235
42350000,0.0324,0.013523,0.002678,0.000431,0.000235
42351000,0.0324,0.013523,0.002678,0.000431,0.000470
42352000,0.0324,0.013523,0.002678,0.000431,0.000353
42353000,0.0324,0.013523,0.002678,0.000431,0.000235
42354000,0.0324,0.013523,0.002678,0.000431,0.000353
42355000,0.0324,0.013523,0.002678,0.000431,0.000470
42356000,0.0324,0.013523,0.002678,0.000431,0.000235
42357000,0.0324,0.013523,0.002678,0.000431,0.000235
42358000,0.0324,0.013523,0.002678,0.000431,0.000470
42359000,0.0324,0.013523,0.002678,0.000431,0.000353
42360000,0.0324,0.013523,0.002678,0.000431,0.000235
42361000,0.0324,0.013523,0.002678,0.000431,0.000353
42362000,0.0324,0.013523,0.002678,0.000431,0.000470
42363000,0.0324,0.013523,0.002678,0.000431,0.000235
42364000,0.0324,0.013523,0.002678,0.000431,0.000235
42365000,0.0324,0.013523,0.002678,0.000431,0.000470
42366000,0.0324,0.013523,0.002678,0.000431,0.000353
42367000,0.0324,0.013523,0.002678,0.000431,0.000235
42368000,0.0324,0.013523,0.002678,0.000431,0.000353
42369000,0.0324,0.013523,0.002678,0.000431,0.000470
42370000,0.0324,0.013523,0.002678,0.000431,0.000235
42371000,0.0324,0.013523,0.002678,0.000431,0.000235
42372000,0.0324,0.013523,0.002678,0.000431,0.000470
42373000,0.0324,0.013523,0.002678,0.000431,0.000353
42374000,0.0324,0.013523,0.002678,0.000431,0.000235
42375000,0.0324,0.013523,0.002678,0.000431,0.000353
42376000,0.0324,0.013523,0.002678,0.000431,0.000470
42377000,0.0324,0.013523,0.002678,0.000431,0.000118
42378000,0.0324,0.013523,0.002678,0.000431,0.000353
42379000,0.0324,0.013523,0.002678,0.000431,0.000470
42380000,0.0324,0.013523,0.002678,0.000431,0.000353
42381000,0.0324,0.013523,0.002678,0.000431,0.000235
42382000,0.0324,0.013523,0.002678,0.000431,0.000353
42383000,0.0324,0.013523,0.002678,0.000431,0.000470
42384000,0.0324,0.013523,0.002678,0.000431,0.000118
42385000,0.0324,0.013523,0.002678,0.000431,0.000353
42386000,0.0324,0.013523,0.002678,0.000431,0.000470
42387000,0.0324,0.013523,0.002678,0.000431,0.000353
42388000,0.0324,0.013523,0.002678,0.000431,0.000235
42389000,0.0324,0.013523,0.002678,0.000431,0.000353
42390000,0.0324,0.013523,0.002678,0.000431,0.000470
42391000,0.0324,0.013523,0.002678,0.000431,0.000118
42392000,0.0324,0.013523,0.002678,0.000431,0.000353
42393000,0.0324,0.013523,0.002678,0.000431,0.000470
42394000,0.0324,0.013523,0.002678,0.000431,0.000353
42395000,0.0324,0.013523,0.002678,0.000431,0.000235
42396000,0.0324,0.013523,0.002678,0.000431,0.000353
42397000,0.0324,0.013523,0.002678,0.000431,0.000353
42398000,0.0324,0.013523,0.002678,0.000431,0.000235
42399000,0.0324,0.013523,0.002678,0.000431,0.000353
42400000,0.0324,0.013523,0.002678,0.000431,0.000470
42401000,0.0324,0.013523,0.002678,0.000431,0.000353
42402000,0.0324,0.013523,0.002678,0.000431,0.000235
42403000,0.0324,0.013523,0.002678,0.000431,0.000353
42404000,0.0324,0.013523,0.002678,0.000431,0.000353
42405000,0.0324,0.013523,0.002678,0.000431,0.000235
42406000,0.0324,0.013523,0.002678,0.000431,0.000353
42407000,0.0324,0.013523,0.002678,0.000431,0.000470
42408000,0.0324,0.013523,0.002678,0.000431,0.000353
42409000,0.0324,0.013523,0.002678,0.000431,0.000235
42410000,0.0324,0.013523,0.002678,0.000431,0.000353
42411000,0.0324,0.013523,0.002678,0.000431,0.000353
42412000,0.0324,0.013523,0.002678,0.000431,0.000235
42413000,0.0324,0.013523,0.002678,0.000431,0.000353
42414000,0.0324,0.013523,0.002678,0.000431,0.000470
42415000,0.0324,0.013523,0.002678,0.000431,0.000353
42416000,0.0324,0.013523,0.002678,0.000431,0.000235
42417000,0.0324,0.013523,0.002678,0.000431,0.000353
42418000,0.0324,0.013523,0.002678,0.000431,0.000353
42419000,0.0324,0.013523,0.002678,0.000431,0.000235
42420000,0.0324,0.013523,0.002678,0.000431,0.000353
42421000,0.0324,0.013523,0.002678,0.000431,0.000470
42422000,0.0324,0.013523,0.002678,0.000431,0.000353
42423000,0.0324,0.013523,0.002678,0.000431,0.000235
42424000,0.0324,0.013523,0.002678,0.000431,0.000353
42425000,0.0324,0.013523,0.002678,0.000431,0.000353
42426000,0.0324,0.013523,0.002678,0.000431,0.000235
42427000,0.0324,0.013523,0.002678,0.000431,0.000353
42428000,0.0324,0.013523,0.002678,0.000431,0.000470
42429000,0.0324,0.013523,0.002678,0.000431,0.000353
42430000,0.0324,0.013523,0.002678,0.000431,0.000235
42431000,0.0324,0.013523,0.002678,0.000431,0.000353
42432000,0.0324,0.013523,0.002678,0.000431,0.000353
42433000,0.0324,0.013523,0.002678,0.000431,0.000235
42434000,0.0324,0.013523,0.002678,0.000431,0.000353
42435000,0.0324,0.013523,0.002678,0.000431,0.000470
42436000,0.0324,0.013523,0.002678,0.000431,0.000353
42437000,0.0324,0.013523,0.002678,0.000431,0.000235
42438000,0.0324,0.013523,0.002678,0.000431,0.000353
42439000,0.0324,0.013523,0.002678,0.000431,0.000353
42440000,0.0324,0.013523,0.002678,0.000431,0.000235
42441000,0.0324,0.013523,0.002678,0.000431,0.000353
42442000,0.0324,0.013523,0.002678,0.000431,0.000470
42443000,0.0324,0.013523,0.002678,0.000431,0.000353
42444000,0.0324,0.013523,0.002678,0.000431,0.000235
42445000,0.0324,0.013523,0.002678,0.000431,0.000353
42446000,0.0324,0.013523,0.002678,0.000431,0.000353
42447000,0.0324,0.013523,0.002678,0.000431,0.000235
42448000,0.0324,0.013523,0.002678,0.000431,0.000353
42449000,0.0324,0.013523,0.002678,0.000431,0.000470
42450000,0.0324,0.013523,0.002678,0.000431,0.000353
42451000,0.0324,0.013523,0.002678,0.000431,0.000118
42452000,0.0324,0.013523,0.002678,0.000431,0.000470
42453000,0.0324,0.013523,0.002678,0.000431,0.000353
42454000,0.0324,0.013523,0.002678,0.000431,0.000235
42455000,0.0324,0.013523,0.002678,0.000431,0.000353
42456000,0.0324,0.013523,0.002678,0.000431,0.000470
42457000,0.0324,0.013523,0.002678,0.000431,0.000353
42458000,0.0324,0.013523,0.002678,0.000431,0.000118
42459000,0.0324,0.013523,0.002678,0.000431,0.000470
42460000,0.0324,0.013523,0.002678,0.000431,0.000353
42461000,0.0324,0.013523,0.002678,0.000431,0.000235
42462000,0.0324,0.013523,0.002678,0.000431,0.000353
42463000,0.0324,0.013523,0.002678,0.000431,0.000470
42464000,0.0324,0.013523,0.002678,0.000431,0.000353
42465000,0.0324,0.013523,0.002678,0.000431,0.000118
42466000,0.0324,0.013523,0.002678,0.000431,0.000470
42467000,0.0324,0.013523,0.002678,0.000431,0.000353
42468000,0.0324,0.013523,0.002678,0.000431,0.000235
42469000,0.0324,0.013523,0.002678,0.000431,0.000353
42470000,0.0324,0.013523,0.002678,0.000431,0.000470
42471000,0.0324,0.013523,0.002678,0.000431,0.000353
42472000,0.0324,0.013523,0.002678,0.000431,0.000118
42473000,0.0324,0.013523,0.002678,0.000431,0.000470
42474000,0.0324,0.013523,0.002678,0.000431,0.000353
42475000,0.0324,0.013523,0.002678,0.000431,0.000235
42476000,0.0324,0.013523,0.002678,0.000431,0.000353
42477000,0.0324,0.013523,0.002678,0.000431,0.000470
42478000,0.0324,0.013523,0.002678,0.000431,0.000235
42479000,0.0324,0.013523,0.002678,0.000431,0.000235
42480000,0.0324,0.013523,0.002678,0.000431,0.000470
42481000,0.0324,0.013523,0.002678,0.000431,0.000353
42482000,0.0324,0.013523,0.002678,0.000431,0.000235
42483000,0.0324,0.013523,0.002678,0.000431,0.000353
42484000,0.0324,0.013523,0.002678,0.000431,0.000470
42485000,0.0324,0.013523,0.002678,0.000431,0.000235
42486000,0.0324,0.013523,0.002678,0.000431,0.000235
42487000,0.0324,0.013523,0.002678,0.000431,0.000470
42488000,0.0324,0.013523,0.002678,0.000431,0.000353
42489000,0.0324,0.013523,0.002678,0.000431,0.000235
42490000,0.0324,0.013523,0.002678,0.000431,0.000353
42491000,0.0324,0.013523,0.002678,0.000431,0.000470
42492000,0.0324,0.013523,0.002678,0.000431,0.000235
42493000,0.0324,0.013523,0.002678,0.000431,0.000235
42494000,0.0324,0.013523,0.002678,0.000431,0.000470
42495000,0.0324,0.013523,0.002678,0.000431,0.000353
42496000,0.0324,0.013523,0.002678,0.000431,0.000235
42497000,0.0324,0.013523,0.002678,0.000431,0.000353
42498000,0.0324,0.013523,0.002678,0.000431,0.000470
42499000,0.0324,0.013523,0.002678,0.000431,0.000235
42500000,0.0324,0.013523,0.002678,0.000431,0.000235
42501000,0.0324,0.013523,0.002678,0.000431,0.000470
42502000,0.0324,0.013523,0.002678,0.000431,0.000353
42503000,0.0324,0.013523,0.002678,0.000431,0.000235
42504000,0.0324,0.013523,0.002678,0.000431,0.000353
42505000,0.0324,0.013523,0.002678,0.000431,0.000470
42506000,0.0324,0.013523,0.002678,0.000431,0.000235
42507000,0.0324,0.013523,0.002678,0.000431,0.000235
42508000,0.0324,0.013523,0.002678,0.000431,0.000470
42509000,0.0324,0.013523,0.002678,0.000431,0.000353
42510000,0.0324,0.013523,0.002678,0.000431,0.000235
42511000,0.0324,0.013523,0.002678,0.000431,0.000353
42512000,0.0324,0.013523,0.002678,0.000431,0.000470
42513000,0.0324,0.013523,0.002678,0.000431,0.000235
42514000,0.0324,0.013523,0.002678,0.000431,0.000235
42515000,0.0324,0.013523,0.002678,0.000431,0.000470
42516000,0.0324,0.013523,0.002678,0.000431,0.000353
42517000,0.0324,0.013523,0.002678,0.000431,0.000235
42518000,0.0324,0.013523,0.002678,0.000431,0.000353
42519000,0.0324,0.013523,0.002678,0.000431,0.000470
42520000,0.0324,0.013523,0.002678,0.000431,0.000118
42521000,0.0324,0.013523,0.002678,0.000431,0.000353
42522000,0.0324,0.013523,0.002678,0.000431,0.000470
42523000,0.0324,0.013523,0.002678,0.000431,0.000353
42524000,0.0324,0.013523,0.002678,0.000431,0.000235
42525000,0.0324,0.013523,0.002678,0.000431,0.000353
42526000,0.0324,0.013523,0.002678,0.000431,0.000470
42527000,0.0324,0.013523,0.002678,0.000431,0.000118
42528000,0.0324,0.013523,0.002678,0.000431,0.000353
42529000,0.0324,0.013523,0.002678,0.000431,0.000470
42530000,0.0324,0.013523,0.002678,0.000431,0.000353
42531000,0.0324,0.013523,0.002678,0.000431,0.000235
42532000,0.0324,0.013523,0.002678,0.000431,0.000353
42533000,0.0324,0.013523,0.002678,0.000431,0.000470
42534000,0.0324,0.013523,0.002678,0.000431,0.000118
42535000,0.0324,0.013523,0.002678,0.000431,0.000353
42536000,0.0324,0.013523,0.002678,0.000431,0.000470
42537000,0.0324,0.013523,0.002678,0.000431,0.000353
42538000,0.0324,0.013523,0.002678,0.000431,0.000235
42539000,0.0324,0.013523,0.002678,0.000431,0.000353
42540000,0.0324,0.013523,0.002678,0.000431,0.000353
42541000,0.0324,0.013523,0.002678,0.000431,0.000235
42542000,0.0324,0.013523,0.002678,0.000431,0.000353
42543000,0.0324,0.013523,0.002678,0.000431,0.000470
42544000,0.0324,0.013523,0.002678,0.000431,0.000353
42545000,0.0324,0.013523,0.002678,0.000431,0.000235
42546000,0.0324,0.013523,0.002678,0.000431,0.000353
42547000,0.0324,0.013523,0.002678,0.000431,0.000353
42548000,0.0324,0.013523,0.002678,0.000431,0.000235
42549000,0.0324,0.013523,0.002678,0.000431,0.000353
42550000,0.0324,0.013523,0.002678,0.000431,0.000470
42551000,0.0324,0.013523,0.002678,0.000431,0.000353
42552000,0.0324,0.013523,0.002678,0.000431,0.000235
42553000,0.0324,0.013523,0.002678,0.000431,0.000353
42554000,0.0324,0.013523,0.002678,0.000431,0.000353
42555000,0.0324,0.013523,0.002678,0.000431,0.000235
42556000,0.0324,0.013523,0.002678,0.000431,0.000353
42557000,0.0324,0.013523,0.002678,0.000431,0.000470
42558000,0.0324,0.013523,0.002678,0.000431,0.000353
42559000,0.0324,0.013523,0.002678,0.000431,0.000235
42560000,0.0324,0.013523,0.002678,0.000431,0.000353
42561000,0.0324,0.013523,0.002678,0.000431,0.000353
42562000,0.0324,0.013523,0.002678,0.000431,0.000235
42563000,0.0324,0.013523,0.002678,0.000431,0.000353
42564000,0.0324,0.013523,0.002678,0.000431,0.000470
42565000,0.0324,0.013523,0.002678,0.000431,0.000353
42566000,0.0324,0.013523,0.002678,0.000431,0.000235
42567000,0.0324,0.013523,0.002678,0.000431,0.000353
42568000,0.0324,0.013523,0.002678,0.000431,0.000353
42569000,0.0324,0.013523,0.002678,0.000431,0.000235
42570000,0.0324,0.013523,0.002678,0.000431,0.000353
42571000,0.0324,0.013523,0.002678,0.000431,0.000470
42572000,0.0324,0.013523,0.002678,0.000431,0.000353
42573000,0.0324,0.013523,0.002678,0.000431,0.000235
42574000,0.0324,0.013523,0.002678,0.000431,0.000353
42575000,0.0324,0.013523,0.002678,0.000431,0.000353
42576000,0.0324,0.013523,0.002678,0.000431,0.000235
42577000,0.0324,0.013523,0.002678,0.000431,0.000353
42578000,0.0324,0.013523,0.002678,0.000431,0.000470
42579000,0.0324,0.013523,0.002678,0.000431,0.000353
42580000,0.0324,0.013523,0.002678,0.000431,0.000235
42581000,0.0324,0.013523,0.002678,0.000431,0.000353
42582000,0.0324,0.013523,0.002678,0.000431,0.000353
42583000,0.0324,0.013523,0.002678,0.000431,0.000235
42584000,0.0324,0.013523,0.002678,0.000431,0.000353
42585000,0.0324,0.013523,0.002678,0.000431,0.000470
42586000,0.0324,0.013523,0.002678,0.000431,0.000353
42587000,0.0324,0.013523,0.002678,0.000431,0.000235
42588000,0.0324,0.013523,0.002678,0.000431,0.000353
42589000,0.0324,0.013523,0.002678,0.000431,0.000353
42590000,0.0324,0.013523,0.002678,0.000431,0.000235
42591000,0.0324,0.013523,0.002678,0.000431,0.000353
42592000,0.0324,0.013523,0.002678,0.000431,0.000470
42593000,0.0324,0.013523,0.002678,0.000431,0.000353
42594000,0.0324,0.013523,0.002678,0.000431,0.000118
42595000,0.0324,0.013523,0.002678,0.000431,0.000470
42596000,0.0324,0.013523,0.002678,0.000431,0.000353
42597000,0.0324,0.013523,0.002678,0.000431,0.000235
42598000,0.0324,0.013523,0.002678,0.000431,0.000353
42599000,0.0324,0.013523,0.002678,0.000431,0.000470
42600000,0.0324,0.013523,0.002678,0.000431,0.000353
42601000,0.0324,0.013523,0.002678,0.000431,0.000118
42602000,0.0324,0.013523,0.002678,0.000431,0.000470
42603000,0.0324,0.013523,0.002678,0.000431,0.000353
42604000,0.0324,0.013523,0.002678,0.000431,0.000235
42605000,0.0324,0.013523,0.002678,0.000431,0.000353
42606000,0.0324,0.013523,0.002678,0.000431,0.000470
42607000,0.0324,0.013523,0.002678,0.000431,0.000353
42608000,0.0324,0.013523,0.002678,0.000431,0.000118
42609000,0.0324,0.013523,0.002678,0.000431,0.000470
42610000,0.0324,0.013523,0.002678,0.000431,0.000353
42611000,0.0324,0.013523,0.002678,0.000431,0.000235
42612000,0.0324,0.013523,0.002678,0.000431,0.000353
42613000,0.0324,0.013523,0.002678,0.000431,0.000470
42614000,0.0324,0.013523,0.002678,0.000431,0.000235
42615000,0.0324,0.013523,0.002678,0.000431,0.000235
42616000,0.0324,0.013523,0.002678,0.000431,0.000470
42617000,0.0324,0.013523,0.002678,0.000431,0.000353
42618000,0.0324,0.013523,0.002678,0.000431,0.000235
42619000,0.0324,0.013523,0.002678,0.000431,0.000353
42620000,0.0324,0.013523,0.002678,0.000431,0.000470
42621000,0.0324,0.013523,0.002678,0.000431,0.000235
42622000,0.0324,0.013523,0.002678,0.000431,0.000235
42623000,0.0324,0.013523,0.002678,0.000431,0.000470
42624000,0.0324,0.013523,0.002678,0.000431,0.000353
42625000,0.0324,0.013523,0.002678,0.000431,0.000235
42626000,0.0324,0.013523,0.002678,0.000431,0.000353
42627000,0.0324,0.013523,0.002678,0.000431,0.000470
42628000,0.0324,0.013523,0.002678,0.000431,0.000235
42629000,0.0324,0.013523,0.002678,0.000431,0.000235
42630000,0.0324,0.013523,0.002678,0.000431,0.000470
42631000,0.0324,0.013523,0.002678,0.000431,0.000353
42632000,0.0324,0.013523,0.002678,0.000431,0.000235
42633000,0.0324,0.013523,0.002678,0.000431,0.000353
42634000,0.0324,0.013523,0.002678,0.000431,0.000470
42635000,0.0324,0.013523,0.002678,0.000431,0.000235
42636000,0.0324,0.013523,0.002678,0.000431,0.000235
42637000,0.0324,0.013523,0.002678,0.000431,0.000470
42638000,0.0324,0.013523,0.002678,0.000431,0.000353
42639000,0.0324,0.013523,0.002678,0.000431,0.000235
42640000,0.0324,0.013523,0.002678,0.000431,0.000353
42641000,0.0324,0.013523,0.002678,0.000431,0.000470
42642000,0.0324,0.013523,0.002678,0.000431,0.000235
42643000,0.0324,0.013523,0.002678,0.000431,0.000235
42644000,0.0324,0.013523,0.002678,0.000431,0.000470
42645000,0.0324,0.013523,0.002678,0.000431,0.000353
42646000,0.0324,0.013523,0.002678,0.000431,0.000235
42647000,0.0324,0.013523,0.002678,0.000431,0.000353
42648000,0.0324,0.013523,0.002678,0.000431,0.000470
42649000,0.0324,0.013523,0.002678,0.000431,0.000235
42650000,0.0324,0.013523,0.002678,0.000431,0.000235
42651000,0.0324,0.013523,0.002678,0.000431,0.000470
42652000,0.0324,0.013523,0.002678,0.000431,0.000353
42653000,0.0324,0.013523,0.002678,0.000431,0.000235
42654000,0.0324,0.013523,0.002678,0.000431,0.000353
42655000,0.0324,0.013523,0.002678,0.000431,0.000470
42656000,0.0324,0.013523,0.002678,0.000431,0.000118
42657000,0.0324,0.013523,0.002678,0.000431,0.000353
42658000,0.0324,0.013523,0.002678,0.000431,0.000470
42659000,0.0324,0.013523,0.002678,0.000431,0.000353
42660000,0.0324,0.013523,0.002678,0.000431,0.000235
42661000,0.0324,0.013523,0.002678,0.000431,0.000353
42662000,0.0324,0.013523,0.002678,0.000431,0.000470
42663000,0.0324,0.013523,0.002678,0.000431,0.000118
42664000,0.0324,0.013523,0.002678,0.000431,0.000353
42665000,0.0324,0.013523,0.002678,0.000431,0.000470
42666000,0.0324,0.013523,0.002678,0.000431,0.000353
42667000,0.0324,0.013523,0.002678,0.000431,0.000235
42668000,0.0324,0.013523,0.002678,0.000431,0.000353
42669000,0.0324,0.013523,0.002678,0.000431,0.000470
42670000,0.0324,0.013523,0.002678,0.000431,0.000118
42671000,0.0324,0.013523,0.002678,0.000431,0.000353
42672000,0.0324,0.013523,0.002678,0.000431,0.000470
42673000,0.0324,0.013523,0.002678,0.000431,0.000353
42674000,0.0324,0.013523,0.002678,0.000431,0.000235
42675000,0.0324,0.013523,0.002678,0.000431,0.000353
42676000,0.0324,0.013523,0.002678,0.000431,0.000470
42677000,0.0324,0.013523,0.002678,0.000431,0.000118
42678000,0.0324,0.013523,0.002678,0.000431,0.000353
42679000,0.0324,0.013523,0.002678,0.000431,0.000470
42680000,0.0324,0.013523,0.002678,0.000431,0.000353
42681000,0.0324,0.013523,0.002678,0.000431,0.000235
42682000,0.0324,0.013523,0.002678,0.000431,0.000353
42683000,0.0324,0.013523,0.002678,0.000431,0.000353
42684000,0.0324,0.013523,0.002678,0.000431,0.000235
42685000,0.0324,0.013523,0.002678,0.000431,0.000353
42686000,0.0324,0.013523,0.002678,0.000431,0.000470
42687000,0.0324,0.013523,0.002678,0.000431,0.000353
42688000,0.0324,0.013523,0.002678,0.000431,0.000235
42689000,0.0324,0.013523,0.002678,0.000431,0.000353
42690000,0.0324,0.013523,0.002678,0.000431,0.000353
42691000,0.0324,0.013523,0.002678,0.000431,0.000235
42692000,0.0324,0.013523,0.002678,0.000431,0.000353
42693000,0.0324,0.013523,0.002678,0.000431,0.000470
42694000,0.0324,0.013523,0.002678,0.000431,0.000353
42695000,0.0324,0.013523,0.002678,0.000431,0.000235
42696000,0.0324,0.013523,0.002678,0.000431,0.000353
42697000,0.0324,0.013523,0.002678,0.000431,0.000353
42698000,0.0324,0.013523,0.002678,0.000431,0.000235
42699000,0.0324,0.013523,0.002678,0.000431,0.000353
42700000,0.0324,0.013523,0.002678,0.000431,0.000470
42701000,0.0324,0.013523,0.002678,0.000431,0.000353
42702000,0.0324,0.013523,0.002678,0.000431,0.000235
42703000,0.0324,0.013523,0.002678,0.000431,0.000353
42704000,0.0324,0.013523,0.002678,0.000431,0.000353
42705000,0.0324,0.013523,0.002678,0.000431,0.000235
42706000,0.0324,0.013523,0.002678,0.000431,0.000353
42707000,0.0324,0.013523,0.002678,0.000431,0.000470
42708000,0.0324,0.013523,0.002678,0.000431,0.000353
42709000,0.0324,0.013523,0.002678,0.000431,0.000235
42710000,0.0324,0.013523,0.002678,0.000431,0.000353
42711000,0.0324,0.013523,0.002678,0.000431,0.000353
42712000,0.0324,0.013523,0.002678,0.000431,0.000235
42713000,0.0324,0.013523,0.002678,0.000431,0.000353
42714000,0.0324,0.013523,0.002678,0.000431,0.000470
42715000,0.0324,0.013523,0.002678,0.000431,0.000353
42716000,0.0324,0.013523,0.002678,0.000431,0.000235
42717000,0.0324,0.013523,0.002678,0.000431,0.000353
42718000,0.0324,0.013523,0.002678,0.000431,0.000353
42719000,0.0324,0.013523,0.002678,0.000431,0.000235
42720000,0.0324,0.013523,0.002678,0.000431,0.000353
42721000,0.0324,0.013523,0.002678,0.000431,0.000470
42722000,0.0324,0.013523,0.002678,0.000431,0.000353
42723000,0.0324,0.013523,0.002678,0.000431,0.000235
42724000,0.0324,0.013523,0.002678,0.000431,0.000353
42725000,0.0324,0.013523,0.002678,0.000431,0.000353
42726000,0.0324,0.013523,0.002678,0.000431,0.000235
42727000,0.0324,0.013523,0.002678,0.000431,0.000353
42728000,0.0324,0.013523,0.002678,0.000431,0.000470
42729000,0.0324,0.013523,0.002678,0.000431,0.000353
42730000,0.0324,0.013523,0.002678,0.000431,0.000118
42731000,0.0324,0.013523,0.002678,0.000431,0.000470
42732000,0.0324,0.013523,0.002678,0.000431,0.000353
42733000,0.0324,0.013523,0.002678,0.000431,0.000235
42734000,0.0324,0.013523,0.002678,0.000431,0.000353
42735000,0.0324,0.013523,0.002678,0.000431,0.000470
42736000,0.0324,0.013523,0.002678,0.000431,0.000353
42737000,0.0324,0.013523,0.002678,0.000431,0.000118
42738000,0.0324,0.013523,0.002678,0.000431,0.000470
42739000,0.0324,0.013523,0.002678,0.000431,0.000353
42740000,0.0324,0.013523,0.002678,0.000431,0.000235
42741000,0.0324,0.013523,0.002678,0.000431,0.000353
42742000,0.0324,0.013523,0.002678,0.000431,0.000470
42743000,0.0324,0.013523,0.002678,0.000431,0.000353
42744000,0.0324,0.013523,0.002678,0.000431,0.000118
42745000,0.0324,0.013523,0.002678,0.000431,0.000470
42746000,0.0324,0.013523,0.002678,0.000431,0.000353
42747000,0.0324,0.013523,0.002678,0.000431,0.000235
42748000,0.0324,0.013523,0.002678,0.000431,0.000353
42749000,0.0324,0.013523,0.002678,0.000431,0.000470
42750000,0.0324,0.013523,0.002678,0.000431,0.000353
42751000,0.0324,0.013523,0.002678,0.000431,0.000118
42752000,0.0324,0.013523,0.002678,0.000431,0.000470
42753000,0.0324,0.013523,0.002678,0.000431,0.000353
42754000,0.0324,0.013523,0.002678,0.000431,0.000235
42755000,0.0324,0.013523,0.002678,0.000431,0.000353
42756000,0.0324,0.013523,0.002678,0.000431,0.000470
42757000,0.0324,0.013523,0.002678,0.000431,0.000235
42758000,0.0324,0.013523,0.002678,0.000431,0.000235
42759000,0.0324,0.013523,0.002678,0.000431,0.000470
42760000,0.0324,0.013523,0.002678,0.000431,0.000353
42761000,0.0324,0.013523,0.002678,0.000431,0.000235
42762000,0.0324,0.013523,0.002678,0.000431,0.000353
42763000,0.0324,0.013523,0.002678,0.000431,0.000470
42764000,0.0324,0.013523,0.002678,0.000431,0.000235
42765000,0.0324,0.013523,0.002678,0.000431,0.000235
42766000,0.0324,0.013523,0.002678,0.000431,0.000470
42767000,0.0324,0.013523,0.002678,0.000431,0.000353
42768000,0.0324,0.013523,0.002678,0.000431,0.000235
42769000,0.0324,0.013523,0.002678,0.000431,0.000353
42770000,0.0324,0.013523,0.002678,0.000431,0.000470
42771000,0.0324,0.013523,0.002678,0.000431,0.000235
42772000,0.0324,0.013523,0.002678,0.000431,0.000235
42773000,0.0324,0.013523,0.002678,0.000431,0.000470
42774000,0.0324,0.013523,0.002678,0.000431,0.000353
42775000,0.0324,0.013523,0.002678,0.000431,0.000235
42776000,0.0324,0.013523,0.002678,0.000431,0.000353
42777000,0.0324,0.013523,0.002678,0.000431,0.000470
42778000,0.0324,0.013523,0.002678,0.000431,0.000235
42779000,0.0324,0.013523,0.002678,0.000431,0.000235
42780000,0.0324,0.013523,0.002678,0.000431,0.000470
42781000,0.0324,0.013523,0.002678,0.000431,0.000353
42782000,0.0324,0.013523,0.002678,0.000431,0.000235
42783000,0.0324,0.013523,0.002678,0.000431,0.000353
42784000,0.0324,0.013523,0.002678,0.000431,0.000470
42785000,0.0324,0.013523,0.002678,0.000431,0.000235
42786000,0.0324,0.013523,0.002678,0.000431,0.000235
42787000,0.0324,0.013523,0.002678,0.000431,0.000470
42788000,0.0324,0.013523,0.002678,0.000431,0.000353
42789000,0.0324,0.013523,0.002678,0.000431,0.000235
42790000,0.0324,0.013523,0.002678,0.000431,0.000353
42791000,0.0324,0.013523,0.002678,0.000431,0.000470
42792000,0.0324,0.013523,0.002678,0.000431,0.000235
42793000,0.0324,0.013523,0.002678,0.000431,0.000235
42794000,0.0324,0.013523,0.002678,0.000431,0.000470
42795000,0.0324,0.013523,0.002678,0.000431,0.000353
42796000,0.0324,0.013523,0.002678,0.000431,0.000235
42797000,0.0324,0.013523,0.002678,0.000431,0.000353
42798000,0.0324,0.013523,0.002678,0.000431,0.000470
42799000,0.0324,0.013523,0.002678,0.000431,0.000118
42800000,0.0324,0.013523,0.002678,0.000431,0.000353
42801000,0.0324,0.013523,0.002678,0.000431,0.000470
42802000,0.0324,0.013523,0.002678,0.000431,0.000353
42803000,0.0324,0.013523,0.002678,0.000431,0.000235
42804000,0.0324,0.013523,0.002678,0.000431,0.000353
42805000,0.0324,0.013523,0.002678,0.000431,0.000470
42806000,0.0324,0.013523,0.002678,0.000431,0.000118
42807000,0.0324,0.013523,0.002678,0.000431,0.000353
42808000,0.0324,0.013523,0.002678,0.000431,0.000470
42809000,0.0324,0.013523,0.002678,0.000431,0.000353
42810000,0.0324,0.013523,0.002678,0.000431,0.000235
42811000,0.0324,0.013523,0.002678,0.000431,0.000353
42812000,0.0324,0.013523,0.002678,0.000431,0.000470
42813000,0.0324,0.013523,0.002678,0.000431,0.000118
42814000,0.0324,0.013523,0.002678,0.000431,0.000353
42815000,0.0324,0.013523,0.002678,0.000431,0.000470
42816000,0.0324,0.013523,0.002678,0.000431,0.000353
42817000,0.0324,0.013523,0.002678,0.000431,0.000235
42818000,0.0324,0.013523,0.002678,0.000431,0.000353
42819000,0.0324,0.013523,0.002678,0.000431,0.000353
42820000,0.0324,0.013523,0.002678,0.000431,0.000235
42821000,0.0324,0.013523,0.002678,0.000431,0.000353
42822000,0.0324,0.013523,0.002678,0.000431,0.000470
42823000,0.0324,0.013523,0.002678,0.000431,0.000353
42824000,0.0324,0.013523,0.002678,0.000431,0.000235
42825000,0.0324,0.013523,0.002678,0.000431,0.000353
42826000,0.0324,0.013523,0.002678,0.000431,0.000353
42827000,0.0324,0.013523,0.002678,0.000431,0.000235
42828000,0.0324,0.013523,0.002678,0.000431,0.000353
42829000,0.0324,0.013523,0.002678,0.000431,0.000470
42830000,0.0324,0.013523,0.002678,0.000431,0.000353
42831000,0.0324,0.013523,0.002678,0.000431,0.000235
42832000,0.0324,0.013523,0.002678,0.000431,0.000353
42833000,0.0324,0.013523,0.002678,0.000431,0.000353
42834000,0.0324,0.013523,0.002678,0.000431,0.000235
42835000,0.0324,0.013523,0.002678,0.000431,0.000353
42836000,0.0324,0.013523,0.002678,0.000431,0.000470
42837000,0.0324,0.013523,0.002678,0.000431,0.000353
42838000,0.0324,0.013523,0.002678,0.000431,0.000235
42839000,0.0324,0.013523,0.002678,0.000431,0.000353
42840000,0.0324,0.013523,0.002678,0.000431,0.000353
42841000,0.0324,0.013523,0.002678,0.000431,0.000235
42842000,0.0324,0.013523,0.002678,0.000431,0.000353
42843000,0.0324,0.013523,0.002678,0.000431,0.000470
42844000,0.0324,0.013523,0.002678,0.000431,0.000353
42845000,0.0324,0.013523,0.002678,0.000431,0.000235
42846000,0.0324,0.013523,0.002678,0.000431,0.000353
42847000,0.0324,0.013523,0.002678,0.000431,0.000353
42848000,0.0324,0.013523,0.002678,0.000431,0.000235
42849000,0.0324,0.013523,0.002678,0.000431,0.000353
42850000,0.0324,0.013523,0.002678,0.000431,0.000470
42851000,0.0324,0.013523,0.002678,0.000431,0.000353
42852000,0.0324,0.013523,0.002678,0.000431,0.000235
42853000,0.0324,0.013523,0.002678,0.000431,0.000353
42854000,0.0324,0.013523,0.002678,0.000431,0.000353
42855000,0.0324,0.013523,0.002678,0.000431,0.000235
42856000,0.0324,0.013523,0.002678,0.000431,0.000353
42857000,0.0324,0.013523,0.002678,0.000431,0.000470
42858000,0.0324,0.013523,0.002678,0.000431,0.000353
42859000,0.0324,0.013523,0.002678,0.000431,0.000235
42860000,0.0324,0.013523,0.002678,0.000431,0.000353
42861000,0.0324,0.013523,0.002678,0.000431,0.000353
42862000,0.0324,0.013523,0.002678,0.000431,0.000235
42863000,0.0324,0.013523,0.002678,0.000431,0.000353
42864000,0.0324,0.013523,0.002678,0.000431,0.000470
42865000,0.0324,0.013523,0.002678,0.000431,0.000353
42866000,0.0324,0.013523,0.002678,0.000431,0.000235
42867000,0.0324,0.013523,0.002678,0.000431,0.000353
42868000,0.0324,0.013523,0.002678,0.000431,0.000353
42869000,0.0324,0.013523,0.002678,0.000431,0.000235
42870000,0.0324,0.013523,0.002678,0.000431,0.000353
42871000,0.0324,0.013523,0.002678,0.000431,0.000470
42872000,0.0324,0.013523,0.002678,0.000431,0.000353
42873000,0.0324,0.013523,0.002678,0.000431,0.000118
42874000,0.0324,0.013523,0.002678,0.000431,0.000470
42875000,0.0324,0.013523,0.002678,0.000431,0.000353
42876000,0.0324,0.013523,0.002678,0.000431,0.000235
42877000,0.0324,0.013523,0.002678,0.000431,0.000353
42878000,0.0324,0.013523,0.002678,0.000431,0.000470
42879000,0.0324,0.013523,0.002678,0.000431,0.000235
42880000,0.0324,0.013523,0.002678,0.000431,0.000235
42881000,0.0324,0.013523,0.002678,0.000431,0.000470
42882000,0.0324,0.013523,0.002678,0.000431,0.000353
42883000,0.0324,0.013523,0.002678,0.000431,0.000235
42884000,0.0324,0.013523,0.002678,0.000431,0.000353
42885000,0.0324,0.013523,0.002678,0.000431,0.000470
42886000,0.0324,0.013523,0.002678,0.000431,0.000235
42887000,0.0324,0.013523,0.002678,0.000431,0.000235
42888000,0.0324,0.013523,0.002678,0.000431,0.000470
42889000,0.0324,0.013523,0.002678,0.000431,0.000353
42890000,0.0324,0.013523,0.002678,0.000431,0.000235
42891000,0.0324,0.013523,0.002678,0.000431,0.000353
42892000,0.0324,0.013523,0.002678,0.000431,0.000470
42893000,0.0324,0.013523,0.002678,0.000431,0.000118
42894000,0.0324,0.013523,0.002678,0.000431,0.000353
42895000,0.0324,0.013523,0.002678,0.000431,0.000470
42896000,0.0324,0.013523,0.002678,0.000431,0.000353
42897000,0.0324,0.013523,0.002678,0.000431,0.000235
42898000,0.0324,0.013523,0.002678,0.000431,0.000353
42899000,0.0324,0.013523,0.002678,0.000431,0.000353
42900000,0.0324,0.013523,0.002678,0.000431,0.000235
42901000,0.0324,0.013523,0.002678,0.000431,0.000353
42902000,0.0324,0.013523,0.002678,0.000431,0.000470
42903000,0.0324,0.013523,0.002678,0.000431,0.000353
42904000,0.0324,0.013523,0.002678,0.000431,0.000235
42905000,0.0324,0.013523,0.002678,0.000431,0.000353
42906000,0.0324,0.013523,0.002678,0.000431,0.000353
42907000,0.0324,0.013523,0.002678,0.000431,0.000235
42908000,0.0324,0.013523,0.002678,0.000431,0.000353
42909000,0.0324,0.013523,0.002678,0.000431,0.000470
42910000,0.0324,0.013523,0.002678,0.000431,0.000353
42911000,0.0324,0.013523,0.002678,0.000431,0.000235
42912000,0.0324,0.013523,0.002678,0.000431,0.000353
42913000,0.0324,0.013523,0.002678,0.000431,0.000353
42914000,0.0324,0.013523,0.002678,0.000431,0.000235
42915000,0.0324,0.013523,0.002678,0.000431,0.000353
42916000,0.0324,0.013523,0.002678,0.000431,0.000470
42917000,0.0324,0.013523,0.002678,0.000431,0.000353
42918000,0.0324,0.013523,0.002678,0.000431,0.000118
42919000,0.0324,0.013523,0.002678,0.000431,0.000470
42920000,0.0324,0.013523,0.002678,0.000431,0.000353
42921000,0.0324,0.013523,0.002678,0.000431,0.000235
42922000,0.0324,0.013523,0.002678,0.000431,0.000353
42923000,0.0324,0.013523,0.002678,0.000431,0.000470
42924000,0.0324,0.013523,0.002678,0.000431,0.000235
42925000,0.0324,0.013523,0.002678,0.000431,0.000235
42926000,0.0324,0.013523,0.002678,0.000431,0.000470
42927000,0.0324,0.013523,0.002678,0.000431,0.000353
42928000,0.0324,0.013523,0.002678,0.000431,0.000235
42929000,0.0324,0.013523,0.002678,0.000431,0.000353
42930000,0.0324,0.013523,0.002678,0.000431,0.000470
42931000,0.0324,0.013523,0.002678,0.000431,0.000235
42932000,0.0324,0.013523,0.002678,0.000431,0.000235
42933000,0.0324,0.013523,0.002678,0.000431,0.000470
42934000,0.0324,0.013523,0.002678,0.000431,0.000353
42935000,0.0324,0.013523,0.002678,0.000431,0.000235
42936000,0.0324,0.013523,0.002678,0.000431,0.000353
42937000,0.0324,0.013523,0.002678,0.000431,0.000470
42938000,0.0324,0.013523,0.002678,0.000431,0.000118
42939000,0.0324,0.013523,0.002678,0.000431,0.000353
42940000,0.0324,0.013523,0.002678,0.000431,0.000470
42941000,0.0324,0.013523,0.002678,0.000431,0.000353
42942000,0.0324,0.013523,0.002678,0.000431,0.000235
42943000,0.0324,0.013523,0.002678,0.000431,0.000353
42944000,0.0324,0.013523,0.002678,0.000431,0.000353
42945000,0.0324,0.013523,0.002678,0.000431,0.000235
42946000,0.0324,0.013523,0.002678,0.000431,0.000353
42947000,0.0324,0.013523,0.002678,0.000431,0.000470
42948000,0.0324,0.013523,0.002678,0.000431,0.000353
42949000,0.0324,0.013523,0.002678,0.000431,0.000235
42950000,0.0324,0.013523,0.002678,0.000431,0.000353
42951000,0.0324,0.013523,0.002678,0.000431,0.000353
42952000,0.0324,0.013523,0.002678,0.000431,0.000235
42953000,0.0324,0.013523,0.002678,0.000431,0.000353
42954000,0.0324,0.013523,0.002678,0.000431,0.000470
42955000,0.0324,0.013523,0.002678,0.000431,0.000353
42956000,0.0324,0.013523,0.002678,0.000431,0.000118
42957000,0.0324,0.013523,0.002678,0.000431,0.000470
42958000,0.0324,0.013523,0.002678,0.000431,0.000353
42959000,0.0324,0.013523,0.002678,0.000431,0.000235
42960000,0.0324,0.013523,0.002678,0.000431,0.000353
42961000,0.0324,0.013523,0.002678,0.000431,0.000470
42962000,0.0324,0.013523,0.002678,0.000431,0.000353
42963000,0.0324,0.013523,0.002678,0.000431,0.000118
42964000,0.0324,0.013523,0.002678,0.000431,0.000470
42965000,0.0324,0.013523,0.002678,0.000431,0.000353
42966000,0.0324,0.013523,0.002678,0.000431,0.000235
42967000,0.0324,0.013523,0.002678,0.000431,0.000353
42968000,0.0324,0.013523,0.002678,0.000431,0.000470
42969000,0.0324,0.013523,0.002678,0.000431,0.000235
42970000,0.0324,0.013523,0.002678,0.000431,0.000235
42971000,0.0324,0.013523,0.002678,0.000431,0.000470
42972000,0.0324,0.013523,0.002678,0.000431,0.000353
42973000,0.0324,0.013523,0.002678,0.000431,0.000235
42974000,0.0324,0.013523,0.002678,0.000431,0.000353
42975000,0.0324,0.013523,0.002678,0.000431,0.000470
42976000,0.0324,0.013523,0.002678,0.000431,0.000118
42977000,0.0324,0.013523,0.002678,0.000431,0.000353
42978000,0.0324,0.013523,0.002678,0.000431,0.000470
42979000,0.0324,0.013523,0.002678,0.000431,0.000353
42980000,0.0324,0.013523,0.002678,0.000431,0.000235
42981000,0.0324,0.013523,0.002678,0.000431,0.000353
42982000,0.0324,0.013523,0.002678,0.000431,0.000353
42983000,0.0324,0.013523,0.002678,0.000431,0.000235
42984000,0.0324,0.013523,0.002678,0.000431,0.000353
42985000,0.0324,0.013523,0.002678,0.000431,0.000470
42986000,0.0324,0.013523,0.002678,0.000431,0.000353
42987000,0.0324,0.013523,0.002678,0.000431,0.000235
42988000,0.0324,0.013523,0.002678,0.000431,0.000353
42989000,0.0324,0.013523,0.002678,0.000431,0.000353
42990000,0.0324,0.013523,0.002678,0.000431,0.000235
42991000,0.0324,0.013523,0.002678,0.000431,0.000353
42992000,0.0324,0.013523,0.002678,0.000431,0.000470
42993000,0.0324,0.013523,0.002678,0.000431,0.000353
42994000,0.0324,0.013523,0.002678,0.000431,0.000118
42995000,0.0324,0.013523,0.002678,0.000431,0.000470
42996000,0.0324,0.013523,0.002678,0.000431,0.000353
42997000,0.0324,0.013523,0.002678,0.000431,0.000235
42998000,0.0324,0.013523,0.002678,0.000431,0.000353
42999000,0.0324,0.013523,0.002678,0.000431,0.000470
