Cycle,Area(mm^2),PeakDynamic(W),SubthresholdLeakage(W),GateLeakage(W),RunTimeDynamic(W)
33000000,0.0324,0.013523,0.002678,0.000431,0.000235
33001000,0.0324,0.013523,0.002678,0.000431,0.000353
33002000,0.0324,0.013523,0.002678,0.000431,0.000353
33003000,0.0324,0.013523,0.002678,0.000431,0.000235
33004000,0.0324,0.013523,0.002678,0.000431,0.000353
33005000,0.0324,0.013523,0.002678,0.000431,0.000470
33006000,0.0324,0.013523,0.002678,0.000431,0.000353
33007000,0.0324,0.013523,0.002678,0.000431,0.000118
33008000,0.0324,0.013523,0.002678,0.000431,0.000470
33009000,0.0324,0.013523,0.002678,0.000431,0.000353
33010000,0.0324,0.013523,0.002678,0.000431,0.000235
33011000,0.0324,0.013523,0.002678,0.000431,0.000353
33012000,0.0324,0.013523,0.002678,0.000431,0.000470
33013000,0.0324,0.013523,0.002678,0.000431,0.000353
33014000,0.0324,0.013523,0.002678,0.000431,0.000118
33015000,0.0324,0.013523,0.002678,0.000431,0.000470
33016000,0.0324,0.013523,0.002678,0.000431,0.000353
33017000,0.0324,0.013523,0.002678,0.000431,0.000235
33018000,0.0324,0.013523,0.002678,0.000431,0.000353
33019000,0.0324,0.013523,0.002678,0.000431,0.000470
33020000,0.0324,0.013523,0.002678,0.000431,0.000353
33021000,0.0324,0.013523,0.002678,0.000431,0.000118
33022000,0.0324,0.013523,0.002678,0.000431,0.000470
33023000,0.0324,0.013523,0.002678,0.000431,0.000353
33024000,0.0324,0.013523,0.002678,0.000431,0.000235
33025000,0.0324,0.013523,0.002678,0.000431,0.000353
33026000,0.0324,0.013523,0.002678,0.000431,0.000470
33027000,0.0324,0.013523,0.002678,0.000431,0.000353
33028000,0.0324,0.013523,0.002678,0.000431,0.000118
33029000,0.0324,0.013523,0.002678,0.000431,0.000470
33030000,0.0324,0.013523,0.002678,0.000431,0.000353
33031000,0.0324,0.013523,0.002678,0.000431,0.000235
33032000,0.0324,0.013523,0.002678,0.000431,0.000353
33033000,0.0324,0.013523,0.002678,0.000431,0.000470
33034000,0.0324,0.013523,0.002678,0.000431,0.000235
33035000,0.0324,0.013523,0.002678,0.000431,0.000235
33036000,0.0324,0.013523,0.002678,0.000431,0.000470
33037000,0.0324,0.013523,0.002678,0.000431,0.000353
33038000,0.0324,0.013523,0.002678,0.000431,0.000235
33039000,0.0324,0.013523,0.002678,0.000431,0.000353
33040000,0.0324,0.013523,0.002678,0.000431,0.000470
33041000,0.0324,0.013523,0.002678,0.000431,0.000235
33042000,0.0324,0.013523,0.002678,0.000431,0.000235
33043000,0.0324,0.013523,0.002678,0.000431,0.000470
33044000,0.0324,0.013523,0.002678,0.000431,0.000353
33045000,0.0324,0.013523,0.002678,0.000431,0.000235
33046000,0.0324,0.013523,0.002678,0.000431,0.000353
33047000,0.0324,0.013523,0.002678,0.000431,0.000470
33048000,0.0324,0.013523,0.002678,0.000431,0.000235
33049000,0.0324,0.013523,0.002678,0.000431,0.000235
33050000,0.0324,0.013523,0.002678,0.000431,0.000470
33051000,0.0324,0.013523,0.002678,0.000431,0.000353
33052000,0.0324,0.013523,0.002678,0.000431,0.000235
33053000,0.0324,0.013523,0.002678,0.000431,0.000353
33054000,0.0324,0.013523,0.002678,0.000431,0.000470
33055000,0.0324,0.013523,0.002678,0.000431,0.000235
33056000,0.0324,0.013523,0.002678,0.000431,0.000235
33057000,0.0324,0.013523,0.002678,0.000431,0.000470
33058000,0.0324,0.013523,0.002678,0.000431,0.000353
33059000,0.0324,0.013523,0.002678,0.000431,0.000235
33060000,0.0324,0.013523,0.002678,0.000431,0.000353
33061000,0.0324,0.013523,0.002678,0.000431,0.000470
33062000,0.0324,0.013523,0.002678,0.000431,0.000235
33063000,0.0324,0.013523,0.002678,0.000431,0.000235
33064000,0.0324,0.013523,0.002678,0.000431,0.000470
33065000,0.0324,0.013523,0.002678,0.000431,0.000353
33066000,0.0324,0.013523,0.002678,0.000431,0.000235
33067000,0.0324,0.013523,0.002678,0.000431,0.000353
33068000,0.0324,0.013523,0.002678,0.000431,0.000470
33069000,0.0324,0.013523,0.002678,0.000431,0.000235
33070000,0.0324,0.013523,0.002678,0.000431,0.000235
33071000,0.0324,0.013523,0.002678,0.000431,0.000470
33072000,0.0324,0.013523,0.002678,0.000431,0.000353
33073000,0.0324,0.013523,0.002678,0.000431,0.000235
33074000,0.0324,0.013523,0.002678,0.000431,0.000353
33075000,0.0324,0.013523,0.002678,0.000431,0.000470
33076000,0.0324,0.013523,0.002678,0.000431,0.000118
33077000,0.0324,0.013523,0.002678,0.000431,0.000353
33078000,0.0324,0.013523,0.002678,0.000431,0.000470
33079000,0.0324,0.013523,0.002678,0.000431,0.000353
33080000,0.0324,0.013523,0.002678,0.000431,0.000235
33081000,0.0324,0.013523,0.002678,0.000431,0.000353
33082000,0.0324,0.013523,0.002678,0.000431,0.000470
33083000,0.0324,0.013523,0.002678,0.000431,0.000118
33084000,0.0324,0.013523,0.002678,0.000431,0.000353
33085000,0.0324,0.013523,0.002678,0.000431,0.000470
33086000,0.0324,0.013523,0.002678,0.000431,0.000353
33087000,0.0324,0.013523,0.002678,0.000431,0.000235
33088000,0.0324,0.013523,0.002678,0.000431,0.000353
33089000,0.0324,0.013523,0.002678,0.000431,0.000470
33090000,0.0324,0.013523,0.002678,0.000431,0.000118
33091000,0.0324,0.013523,0.002678,0.000431,0.000353
33092000,0.0324,0.013523,0.002678,0.000431,0.000470
33093000,0.0324,0.013523,0.002678,0.000431,0.000353
33094000,0.0324,0.013523,0.002678,0.000431,0.000235
33095000,0.0324,0.013523,0.002678,0.000431,0.000353
33096000,0.0324,0.013523,0.002678,0.000431,0.000353
33097000,0.0324,0.013523,0.002678,0.000431,0.000235
33098000,0.0324,0.013523,0.002678,0.000431,0.000353
33099000,0.0324,0.013523,0.002678,0.000431,0.000470
33100000,0.0324,0.013523,0.002678,0.000431,0.000353
33101000,0.0324,0.013523,0.002678,0.000431,0.000235
33102000,0.0324,0.013523,0.002678,0.000431,0.000353
33103000,0.0324,0.013523,0.002678,0.000431,0.000353
33104000,0.0324,0.013523,0.002678,0.000431,0.000235
33105000,0.0324,0.013523,0.002678,0.000431,0.000353
33106000,0.0324,0.013523,0.002678,0.000431,0.000470
33107000,0.0324,0.013523,0.002678,0.000431,0.000353
33108000,0.0324,0.013523,0.002678,0.000431,0.000235
33109000,0.0324,0.013523,0.002678,0.000431,0.000353
33110000,0.0324,0.013523,0.002678,0.000431,0.000353
33111000,0.0324,0.013523,0.002678,0.000431,0.000235
33112000,0.0324,0.013523,0.002678,0.000431,0.000353
33113000,0.0324,0.013523,0.002678,0.000431,0.000470
33114000,0.0324,0.013523,0.002678,0.000431,0.000353
33115000,0.0324,0.013523,0.002678,0.000431,0.000235
33116000,0.0324,0.013523,0.002678,0.000431,0.000353
33117000,0.0324,0.013523,0.002678,0.000431,0.000353
33118000,0.0324,0.013523,0.002678,0.000431,0.000235
33119000,0.0324,0.013523,0.002678,0.000431,0.000353
33120000,0.0324,0.013523,0.002678,0.000431,0.000470
33121000,0.0324,0.013523,0.002678,0.000431,0.000353
33122000,0.0324,0.013523,0.002678,0.000431,0.000235
33123000,0.0324,0.013523,0.002678,0.000431,0.000353
33124000,0.0324,0.013523,0.002678,0.000431,0.000353
33125000,0.0324,0.013523,0.002678,0.000431,0.000235
33126000,0.0324,0.013523,0.002678,0.000431,0.000353
33127000,0.0324,0.013523,0.002678,0.000431,0.000470
33128000,0.0324,0.013523,0.002678,0.000431,0.000353
33129000,0.0324,0.013523,0.002678,0.000431,0.000235
33130000,0.0324,0.013523,0.002678,0.000431,0.000353
33131000,0.0324,0.013523,0.002678,0.000431,0.000353
33132000,0.0324,0.013523,0.002678,0.000431,0.000235
33133000,0.0324,0.013523,0.002678,0.000431,0.000353
33134000,0.0324,0.013523,0.002678,0.000431,0.000470
33135000,0.0324,0.013523,0.002678,0.000431,0.000353
33136000,0.0324,0.013523,0.002678,0.000431,0.000235
33137000,0.0324,0.013523,0.002678,0.000431,0.000353
33138000,0.0324,0.013523,0.002678,0.000431,0.000353
33139000,0.0324,0.013523,0.002678,0.000431,0.000235
33140000,0.0324,0.013523,0.002678,0.000431,0.000353
33141000,0.0324,0.013523,0.002678,0.000431,0.000470
33142000,0.0324,0.013523,0.002678,0.000431,0.000353
33143000,0.0324,0.013523,0.002678,0.000431,0.000235
33144000,0.0324,0.013523,0.002678,0.000431,0.000353
33145000,0.0324,0.013523,0.002678,0.000431,0.000353
33146000,0.0324,0.013523,0.002678,0.000431,0.000235
33147000,0.0324,0.013523,0.002678,0.000431,0.000353
33148000,0.0324,0.013523,0.002678,0.000431,0.000470
33149000,0.0324,0.013523,0.002678,0.000431,0.000353
33150000,0.0324,0.013523,0.002678,0.000431,0.000118
33151000,0.0324,0.013523,0.002678,0.000431,0.000470
33152000,0.0324,0.013523,0.002678,0.000431,0.000353
33153000,0.0324,0.013523,0.002678,0.000431,0.000235
33154000,0.0324,0.013523,0.002678,0.000431,0.000353
33155000,0.0324,0.013523,0.002678,0.000431,0.000470
33156000,0.0324,0.013523,0.002678,0.000431,0.000353
33157000,0.0324,0.013523,0.002678,0.000431,0.000118
33158000,0.0324,0.013523,0.002678,0.000431,0.000470
33159000,0.0324,0.013523,0.002678,0.000431,0.000353
33160000,0.0324,0.013523,0.002678,0.000431,0.000235
33161000,0.0324,0.013523,0.002678,0.000431,0.000353
33162000,0.0324,0.013523,0.002678,0.000431,0.000470
33163000,0.0324,0.013523,0.002678,0.000431,0.000353
33164000,0.0324,0.013523,0.002678,0.000431,0.000118
33165000,0.0324,0.013523,0.002678,0.000431,0.000470
33166000,0.0324,0.013523,0.002678,0.000431,0.000353
33167000,0.0324,0.013523,0.002678,0.000431,0.000235
33168000,0.0324,0.013523,0.002678,0.000431,0.000353
33169000,0.0324,0.013523,0.002678,0.000431,0.000470
33170000,0.0324,0.013523,0.002678,0.000431,0.000235
33171000,0.0324,0.013523,0.002678,0.000431,0.000235
33172000,0.0324,0.013523,0.002678,0.000431,0.000470
33173000,0.0324,0.013523,0.002678,0.000431,0.000353
33174000,0.0324,0.013523,0.002678,0.000431,0.000235
33175000,0.0324,0.013523,0.002678,0.000431,0.000353
33176000,0.0324,0.013523,0.002678,0.000431,0.000470
33177000,0.0324,0.013523,0.002678,0.000431,0.000235
33178000,0.0324,0.013523,0.002678,0.000431,0.000235
33179000,0.0324,0.013523,0.002678,0.000431,0.000470
33180000,0.0324,0.013523,0.002678,0.000431,0.000353
33181000,0.0324,0.013523,0.002678,0.000431,0.000235
33182000,0.0324,0.013523,0.002678,0.000431,0.000353
33183000,0.0324,0.013523,0.002678,0.000431,0.000470
33184000,0.0324,0.013523,0.002678,0.000431,0.000235
33185000,0.0324,0.013523,0.002678,0.000431,0.000235
33186000,0.0324,0.013523,0.002678,0.000431,0.000470
33187000,0.0324,0.013523,0.002678,0.000431,0.000353
33188000,0.0324,0.013523,0.002678,0.000431,0.000235
33189000,0.0324,0.013523,0.002678,0.000431,0.000353
33190000,0.0324,0.013523,0.002678,0.000431,0.000470
33191000,0.0324,0.013523,0.002678,0.000431,0.000235
33192000,0.0324,0.013523,0.002678,0.000431,0.000235
33193000,0.0324,0.013523,0.002678,0.000431,0.000470
33194000,0.0324,0.013523,0.002678,0.000431,0.000353
33195000,0.0324,0.013523,0.002678,0.000431,0.000235
33196000,0.0324,0.013523,0.002678,0.000431,0.000353
33197000,0.0324,0.013523,0.002678,0.000431,0.000470
33198000,0.0324,0.013523,0.002678,0.000431,0.000235
33199000,0.0324,0.013523,0.002678,0.000431,0.000235
33200000,0.0324,0.013523,0.002678,0.000431,0.000470
33201000,0.0324,0.013523,0.002678,0.000431,0.000353
33202000,0.0324,0.013523,0.002678,0.000431,0.000235
33203000,0.0324,0.013523,0.002678,0.000431,0.000353
33204000,0.0324,0.013523,0.002678,0.000431,0.000470
33205000,0.0324,0.013523,0.002678,0.000431,0.000235
33206000,0.0324,0.013523,0.002678,0.000431,0.000235
33207000,0.0324,0.013523,0.002678,0.000431,0.000470
33208000,0.0324,0.013523,0.002678,0.000431,0.000353
33209000,0.0324,0.013523,0.002678,0.000431,0.000235
33210000,0.0324,0.013523,0.002678,0.000431,0.000353
33211000,0.0324,0.013523,0.002678,0.000431,0.000470
33212000,0.0324,0.013523,0.002678,0.000431,0.000118
33213000,0.0324,0.013523,0.002678,0.000431,0.000353
33214000,0.0324,0.013523,0.002678,0.000431,0.000470
33215000,0.0324,0.013523,0.002678,0.000431,0.000353
33216000,0.0324,0.013523,0.002678,0.000431,0.000235
33217000,0.0324,0.013523,0.002678,0.000431,0.000353
33218000,0.0324,0.013523,0.002678,0.000431,0.000470
33219000,0.0324,0.013523,0.002678,0.000431,0.000118
33220000,0.0324,0.013523,0.002678,0.000431,0.000353
33221000,0.0324,0.013523,0.002678,0.000431,0.000470
33222000,0.0324,0.013523,0.002678,0.000431,0.000353
33223000,0.0324,0.013523,0.002678,0.000431,0.000235
33224000,0.0324,0.013523,0.002678,0.000431,0.000353
33225000,0.0324,0.013523,0.002678,0.000431,0.000470
33226000,0.0324,0.013523,0.002678,0.000431,0.000118
33227000,0.0324,0.013523,0.002678,0.000431,0.000353
33228000,0.0324,0.013523,0.002678,0.000431,0.000470
33229000,0.0324,0.013523,0.002678,0.000431,0.000353
33230000,0.0324,0.013523,0.002678,0.000431,0.000235
33231000,0.0324,0.013523,0.002678,0.000431,0.000353
33232000,0.0324,0.013523,0.002678,0.000431,0.000470
33233000,0.0324,0.013523,0.002678,0.000431,0.000118
33234000,0.0324,0.013523,0.002678,0.000431,0.000353
33235000,0.0324,0.013523,0.002678,0.000431,0.000470
33236000,0.0324,0.013523,0.002678,0.000431,0.000353
33237000,0.0324,0.013523,0.002678,0.000431,0.000235
33238000,0.0324,0.013523,0.002678,0.000431,0.000353
33239000,0.0324,0.013523,0.002678,0.000431,0.000353
33240000,0.0324,0.013523,0.002678,0.000431,0.000235
33241000,0.0324,0.013523,0.002678,0.000431,0.000353
33242000,0.0324,0.013523,0.002678,0.000431,0.000470
33243000,0.0324,0.013523,0.002678,0.000431,0.000353
33244000,0.0324,0.013523,0.002678,0.000431,0.000235
33245000,0.0324,0.013523,0.002678,0.000431,0.000353
33246000,0.0324,0.013523,0.002678,0.000431,0.000353
33247000,0.0324,0.013523,0.002678,0.000431,0.000235
33248000,0.0324,0.013523,0.002678,0.000431,0.000353
33249000,0.0324,0.013523,0.002678,0.000431,0.000470
33250000,0.0324,0.013523,0.002678,0.000431,0.000353
33251000,0.0324,0.013523,0.002678,0.000431,0.000235
33252000,0.0324,0.013523,0.002678,0.000431,0.000353
33253000,0.0324,0.013523,0.002678,0.000431,0.000353
33254000,0.0324,0.013523,0.002678,0.000431,0.000235
33255000,0.0324,0.013523,0.002678,0.000431,0.000353
33256000,0.0324,0.013523,0.002678,0.000431,0.000470
33257000,0.0324,0.013523,0.002678,0.000431,0.000353
33258000,0.0324,0.013523,0.002678,0.000431,0.000235
33259000,0.0324,0.013523,0.002678,0.000431,0.000353
33260000,0.0324,0.013523,0.002678,0.000431,0.000353
33261000,0.0324,0.013523,0.002678,0.000431,0.000235
33262000,0.0324,0.013523,0.002678,0.000431,0.000353
33263000,0.0324,0.013523,0.002678,0.000431,0.000470
33264000,0.0324,0.013523,0.002678,0.000431,0.000353
33265000,0.0324,0.013523,0.002678,0.000431,0.000235
33266000,0.0324,0.013523,0.002678,0.000431,0.000353
33267000,0.0324,0.013523,0.002678,0.000431,0.000353
33268000,0.0324,0.013523,0.002678,0.000431,0.000235
33269000,0.0324,0.013523,0.002678,0.000431,0.000353
33270000,0.0324,0.013523,0.002678,0.000431,0.000470
33271000,0.0324,0.013523,0.002678,0.000431,0.000353
33272000,0.0324,0.013523,0.002678,0.000431,0.000235
33273000,0.0324,0.013523,0.002678,0.000431,0.000353
33274000,0.0324,0.013523,0.002678,0.000431,0.000353
33275000,0.0324,0.013523,0.002678,0.000431,0.000235
33276000,0.0324,0.013523,0.002678,0.000431,0.000353
33277000,0.0324,0.013523,0.002678,0.000431,0.000470
33278000,0.0324,0.013523,0.002678,0.000431,0.000353
33279000,0.0324,0.013523,0.002678,0.000431,0.000235
33280000,0.0324,0.013523,0.002678,0.000431,0.000353
33281000,0.0324,0.013523,0.002678,0.000431,0.000353
33282000,0.0324,0.013523,0.002678,0.000431,0.000235
33283000,0.0324,0.013523,0.002678,0.000431,0.000353
33284000,0.0324,0.013523,0.002678,0.000431,0.000470
33285000,0.0324,0.013523,0.002678,0.000431,0.000353
33286000,0.0324,0.013523,0.002678,0.000431,0.000118
33287000,0.0324,0.013523,0.002678,0.000431,0.000470
33288000,0.0324,0.013523,0.002678,0.000431,0.000353
33289000,0.0324,0.013523,0.002678,0.000431,0.000235
33290000,0.0324,0.013523,0.002678,0.000431,0.000353
33291000,0.0324,0.013523,0.002678,0.000431,0.000470
33292000,0.0324,0.013523,0.002678,0.000431,0.000353
33293000,0.0324,0.013523,0.002678,0.000431,0.000118
33294000,0.0324,0.013523,0.002678,0.000431,0.000470
33295000,0.0324,0.013523,0.002678,0.000431,0.000353
33296000,0.0324,0.013523,0.002678,0.000431,0.000235
33297000,0.0324,0.013523,0.002678,0.000431,0.000353
33298000,0.0324,0.013523,0.002678,0.000431,0.000470
33299000,0.0324,0.013523,0.002678,0.000431,0.000353
33300000,0.0324,0.013523,0.002678,0.000431,0.000118
33301000,0.0324,0.013523,0.002678,0.000431,0.000470
33302000,0.0324,0.013523,0.002678,0.000431,0.000353
33303000,0.0324,0.013523,0.002678,0.000431,0.000235
33304000,0.0324,0.013523,0.002678,0.000431,0.000353
33305000,0.0324,0.013523,0.002678,0.000431,0.000470
33306000,0.0324,0.013523,0.002678,0.000431,0.000353
33307000,0.0324,0.013523,0.002678,0.000431,0.000118
33308000,0.0324,0.013523,0.002678,0.000431,0.000470
33309000,0.0324,0.013523,0.002678,0.000431,0.000353
33310000,0.0324,0.013523,0.002678,0.000431,0.000235
33311000,0.0324,0.013523,0.002678,0.000431,0.000353
33312000,0.0324,0.013523,0.002678,0.000431,0.000470
33313000,0.0324,0.013523,0.002678,0.000431,0.000235
33314000,0.0324,0.013523,0.002678,0.000431,0.000235
33315000,0.0324,0.013523,0.002678,0.000431,0.000470
33316000,0.0324,0.013523,0.002678,0.000431,0.000353
33317000,0.0324,0.013523,0.002678,0.000431,0.000235
33318000,0.0324,0.013523,0.002678,0.000431,0.000353
33319000,0.0324,0.013523,0.002678,0.000431,0.000470
33320000,0.0324,0.013523,0.002678,0.000431,0.000235
33321000,0.0324,0.013523,0.002678,0.000431,0.000235
33322000,0.0324,0.013523,0.002678,0.000431,0.000470
33323000,0.0324,0.013523,0.002678,0.000431,0.000353
33324000,0.0324,0.013523,0.002678,0.000431,0.000235
33325000,0.0324,0.013523,0.002678,0.000431,0.000353
33326000,0.0324,0.013523,0.002678,0.000431,0.000470
33327000,0.0324,0.013523,0.002678,0.000431,0.000235
33328000,0.0324,0.013523,0.002678,0.000431,0.000235
33329000,0.0324,0.013523,0.002678,0.000431,0.000470
33330000,0.0324,0.013523,0.002678,0.000431,0.000353
33331000,0.0324,0.013523,0.002678,0.000431,0.000235
33332000,0.0324,0.013523,0.002678,0.000431,0.000353
33333000,0.0324,0.013523,0.002678,0.000431,0.000470
33334000,0.0324,0.013523,0.002678,0.000431,0.000235
33335000,0.0324,0.013523,0.002678,0.000431,0.000235
33336000,0.0324,0.013523,0.002678,0.000431,0.000470
33337000,0.0324,0.013523,0.002678,0.000431,0.000353
33338000,0.0324,0.013523,0.002678,0.000431,0.000235
33339000,0.0324,0.013523,0.002678,0.000431,0.000353
33340000,0.0324,0.013523,0.002678,0.000431,0.000470
33341000,0.0324,0.013523,0.002678,0.000431,0.000235
33342000,0.0324,0.013523,0.002678,0.000431,0.000235
33343000,0.0324,0.013523,0.002678,0.000431,0.000470
33344000,0.0324,0.013523,0.002678,0.000431,0.000353
33345000,0.0324,0.013523,0.002678,0.000431,0.000235
33346000,0.0324,0.013523,0.002678,0.000431,0.000353
33347000,0.0324,0.013523,0.002678,0.000431,0.000470
33348000,0.0324,0.013523,0.002678,0.000431,0.000235
33349000,0.0324,0.013523,0.002678,0.000431,0.000235
33350000,0.0324,0.013523,0.002678,0.000431,0.000470
33351000,0.0324,0.013523,0.002678,0.000431,0.000353
33352000,0.0324,0.013523,0.002678,0.000431,0.000235
33353000,0.0324,0.013523,0.002678,0.000431,0.000353
33354000,0.0324,0.013523,0.002678,0.000431,0.000470
33355000,0.0324,0.013523,0.002678,0.000431,0.000118
33356000,0.0324,0.013523,0.002678,0.000431,0.000353
33357000,0.0324,0.013523,0.002678,0.000431,0.000470
33358000,0.0324,0.013523,0.002678,0.000431,0.000353
33359000,0.0324,0.013523,0.002678,0.000431,0.000235
33360000,0.0324,0.013523,0.002678,0.000431,0.000353
33361000,0.0324,0.013523,0.002678,0.000431,0.000470
33362000,0.0324,0.013523,0.002678,0.000431,0.000118
33363000,0.0324,0.013523,0.002678,0.000431,0.000353
33364000,0.0324,0.013523,0.002678,0.000431,0.000470
33365000,0.0324,0.013523,0.002678,0.000431,0.000353
33366000,0.0324,0.013523,0.002678,0.000431,0.000235
33367000,0.0324,0.013523,0.002678,0.000431,0.000353
33368000,0.0324,0.013523,0.002678,0.000431,0.000470
33369000,0.0324,0.013523,0.002678,0.000431,0.000118
33370000,0.0324,0.013523,0.002678,0.000431,0.000353
33371000,0.0324,0.013523,0.002678,0.000431,0.000470
33372000,0.0324,0.013523,0.002678,0.000431,0.000353
33373000,0.0324,0.013523,0.002678,0.000431,0.000235
33374000,0.0324,0.013523,0.002678,0.000431,0.000353
33375000,0.0324,0.013523,0.002678,0.000431,0.000353
33376000,0.0324,0.013523,0.002678,0.000431,0.000235
33377000,0.0324,0.013523,0.002678,0.000431,0.000353
33378000,0.0324,0.013523,0.002678,0.000431,0.000470
33379000,0.0324,0.013523,0.002678,0.000431,0.000353
33380000,0.0324,0.013523,0.002678,0.000431,0.000235
33381000,0.0324,0.013523,0.002678,0.000431,0.000353
33382000,0.0324,0.013523,0.002678,0.000431,0.000353
33383000,0.0324,0.013523,0.002678,0.000431,0.000235
33384000,0.0324,0.013523,0.002678,0.000431,0.000353
33385000,0.0324,0.013523,0.002678,0.000431,0.000470
33386000,0.0324,0.013523,0.002678,0.000431,0.000353
33387000,0.0324,0.013523,0.002678,0.000431,0.000235
33388000,0.0324,0.013523,0.002678,0.000431,0.000353
33389000,0.0324,0.013523,0.002678,0.000431,0.000353
33390000,0.0324,0.013523,0.002678,0.000431,0.000235
33391000,0.0324,0.013523,0.002678,0.000431,0.000353
33392000,0.0324,0.013523,0.002678,0.000431,0.000470
33393000,0.0324,0.013523,0.002678,0.000431,0.000353
33394000,0.0324,0.013523,0.002678,0.000431,0.000235
33395000,0.0324,0.013523,0.002678,0.000431,0.000353
33396000,0.0324,0.013523,0.002678,0.000431,0.000353
33397000,0.0324,0.013523,0.002678,0.000431,0.000235
33398000,0.0324,0.013523,0.002678,0.000431,0.000353
33399000,0.0324,0.013523,0.002678,0.000431,0.000470
33400000,0.0324,0.013523,0.002678,0.000431,0.000353
33401000,0.0324,0.013523,0.002678,0.000431,0.000235
33402000,0.0324,0.013523,0.002678,0.000431,0.000353
33403000,0.0324,0.013523,0.002678,0.000431,0.000353
33404000,0.0324,0.013523,0.002678,0.000431,0.000235
33405000,0.0324,0.013523,0.002678,0.000431,0.000353
33406000,0.0324,0.013523,0.002678,0.000431,0.000470
33407000,0.0324,0.013523,0.002678,0.000431,0.000353
33408000,0.0324,0.013523,0.002678,0.000431,0.000235
33409000,0.0324,0.013523,0.002678,0.000431,0.000353
33410000,0.0324,0.013523,0.002678,0.000431,0.000353
33411000,0.0324,0.013523,0.002678,0.000431,0.000235
33412000,0.0324,0.013523,0.002678,0.000431,0.000353
33413000,0.0324,0.013523,0.002678,0.000431,0.000470
33414000,0.0324,0.013523,0.002678,0.000431,0.000353
33415000,0.0324,0.013523,0.002678,0.000431,0.000235
33416000,0.0324,0.013523,0.002678,0.000431,0.000353
33417000,0.0324,0.013523,0.002678,0.000431,0.000353
33418000,0.0324,0.013523,0.002678,0.000431,0.000235
33419000,0.0324,0.013523,0.002678,0.000431,0.000353
33420000,0.0324,0.013523,0.002678,0.000431,0.000470
33421000,0.0324,0.013523,0.002678,0.000431,0.000353
33422000,0.0324,0.013523,0.002678,0.000431,0.000235
33423000,0.0324,0.013523,0.002678,0.000431,0.000353
33424000,0.0324,0.013523,0.002678,0.000431,0.000353
33425000,0.0324,0.013523,0.002678,0.000431,0.000235
33426000,0.0324,0.013523,0.002678,0.000431,0.000353
33427000,0.0324,0.013523,0.002678,0.000431,0.000470
33428000,0.0324,0.013523,0.002678,0.000431,0.000353
33429000,0.0324,0.013523,0.002678,0.000431,0.000118
33430000,0.0324,0.013523,0.002678,0.000431,0.000470
33431000,0.0324,0.013523,0.002678,0.000431,0.000353
33432000,0.0324,0.013523,0.002678,0.000431,0.000235
33433000,0.0324,0.013523,0.002678,0.000431,0.000353
33434000,0.0324,0.013523,0.002678,0.000431,0.000470
33435000,0.0324,0.013523,0.002678,0.000431,0.000353
33436000,0.0324,0.013523,0.002678,0.000431,0.000118
33437000,0.0324,0.013523,0.002678,0.000431,0.000470
33438000,0.0324,0.013523,0.002678,0.000431,0.000353
33439000,0.0324,0.013523,0.002678,0.000431,0.000235
33440000,0.0324,0.013523,0.002678,0.000431,0.000353
33441000,0.0324,0.013523,0.002678,0.000431,0.000470
33442000,0.0324,0.013523,0.002678,0.000431,0.000353
33443000,0.0324,0.013523,0.002678,0.000431,0.000118
33444000,0.0324,0.013523,0.002678,0.000431,0.000470
33445000,0.0324,0.013523,0.002678,0.000431,0.000353
33446000,0.0324,0.013523,0.002678,0.000431,0.000235
33447000,0.0324,0.013523,0.002678,0.000431,0.000353
33448000,0.0324,0.013523,0.002678,0.000431,0.000470
33449000,0.0324,0.013523,0.002678,0.000431,0.000235
33450000,0.0324,0.013523,0.002678,0.000431,0.000235
33451000,0.0324,0.013523,0.002678,0.000431,0.000470
33452000,0.0324,0.013523,0.002678,0.000431,0.000353
33453000,0.0324,0.013523,0.002678,0.000431,0.000235
33454000,0.0324,0.013523,0.002678,0.000431,0.000353
33455000,0.0324,0.013523,0.002678,0.000431,0.000470
33456000,0.0324,0.013523,0.002678,0.000431,0.000235
33457000,0.0324,0.013523,0.002678,0.000431,0.000235
33458000,0.0324,0.013523,0.002678,0.000431,0.000470
33459000,0.0324,0.013523,0.002678,0.000431,0.000353
33460000,0.0324,0.013523,0.002678,0.000431,0.000235
33461000,0.0324,0.013523,0.002678,0.000431,0.000353
33462000,0.0324,0.013523,0.002678,0.000431,0.000470
33463000,0.0324,0.013523,0.002678,0.000431,0.000235
33464000,0.0324,0.013523,0.002678,0.000431,0.000235
33465000,0.0324,0.013523,0.002678,0.000431,0.000470
33466000,0.0324,0.013523,0.002678,0.000431,0.000353
33467000,0.0324,0.013523,0.002678,0.000431,0.000235
33468000,0.0324,0.013523,0.002678,0.000431,0.000353
33469000,0.0324,0.013523,0.002678,0.000431,0.000470
33470000,0.0324,0.013523,0.002678,0.000431,0.000235
33471000,0.0324,0.013523,0.002678,0.000431,0.000235
33472000,0.0324,0.013523,0.002678,0.000431,0.000470
33473000,0.0324,0.013523,0.002678,0.000431,0.000353
33474000,0.0324,0.013523,0.002678,0.000431,0.000235
33475000,0.0324,0.013523,0.002678,0.000431,0.000353
33476000,0.0324,0.013523,0.002678,0.000431,0.000470
33477000,0.0324,0.013523,0.002678,0.000431,0.000235
33478000,0.0324,0.013523,0.002678,0.000431,0.000235
33479000,0.0324,0.013523,0.002678,0.000431,0.000470
33480000,0.0324,0.013523,0.002678,0.000431,0.000353
33481000,0.0324,0.013523,0.002678,0.000431,0.000235
33482000,0.0324,0.013523,0.002678,0.000431,0.000353
33483000,0.0324,0.013523,0.002678,0.000431,0.000470
33484000,0.0324,0.013523,0.002678,0.000431,0.000235
33485000,0.0324,0.013523,0.002678,0.000431,0.000235
33486000,0.0324,0.013523,0.002678,0.000431,0.000470
33487000,0.0324,0.013523,0.002678,0.000431,0.000353
33488000,0.0324,0.013523,0.002678,0.000431,0.000235
33489000,0.0324,0.013523,0.002678,0.000431,0.000353
33490000,0.0324,0.013523,0.002678,0.000431,0.000470
33491000,0.0324,0.013523,0.002678,0.000431,0.000118
33492000,0.0324,0.013523,0.002678,0.000431,0.000353
33493000,0.0324,0.013523,0.002678,0.000431,0.000470
33494000,0.0324,0.013523,0.002678,0.000431,0.000353
33495000,0.0324,0.013523,0.002678,0.000431,0.000235
33496000,0.0324,0.013523,0.002678,0.000431,0.000353
33497000,0.0324,0.013523,0.002678,0.000431,0.000470
33498000,0.0324,0.013523,0.002678,0.000431,0.000118
33499000,0.0324,0.013523,0.002678,0.000431,0.000353
33500000,0.0324,0.013523,0.002678,0.000431,0.000470
33501000,0.0324,0.013523,0.002678,0.000431,0.000353
33502000,0.0324,0.013523,0.002678,0.000431,0.000235
33503000,0.0324,0.013523,0.002678,0.000431,0.000353
33504000,0.0324,0.013523,0.002678,0.000431,0.000470
33505000,0.0324,0.013523,0.002678,0.000431,0.000118
33506000,0.0324,0.013523,0.002678,0.000431,0.000353
33507000,0.0324,0.013523,0.002678,0.000431,0.000470
33508000,0.0324,0.013523,0.002678,0.000431,0.000353
33509000,0.0324,0.013523,0.002678,0.000431,0.000235
33510000,0.0324,0.013523,0.002678,0.000431,0.000353
33511000,0.0324,0.013523,0.002678,0.000431,0.000470
33512000,0.0324,0.013523,0.002678,0.000431,0.000118
33513000,0.0324,0.013523,0.002678,0.000431,0.000353
33514000,0.0324,0.013523,0.002678,0.000431,0.000470
33515000,0.0324,0.013523,0.002678,0.000431,0.000353
33516000,0.0324,0.013523,0.002678,0.000431,0.000235
33517000,0.0324,0.013523,0.002678,0.000431,0.000353
33518000,0.0324,0.013523,0.002678,0.000431,0.000353
33519000,0.0324,0.013523,0.002678,0.000431,0.000235
33520000,0.0324,0.013523,0.002678,0.000431,0.000353
33521000,0.0324,0.013523,0.002678,0.000431,0.000470
33522000,0.0324,0.013523,0.002678,0.000431,0.000353
33523000,0.0324,0.013523,0.002678,0.000431,0.000235
33524000,0.0324,0.013523,0.002678,0.000431,0.000353
33525000,0.0324,0.013523,0.002678,0.000431,0.000353
33526000,0.0324,0.013523,0.002678,0.000431,0.000235
33527000,0.0324,0.013523,0.002678,0.000431,0.000353
33528000,0.0324,0.013523,0.002678,0.000431,0.000470
33529000,0.0324,0.013523,0.002678,0.000431,0.000353
33530000,0.0324,0.013523,0.002678,0.000431,0.000235
33531000,0.0324,0.013523,0.002678,0.000431,0.000353
33532000,0.0324,0.013523,0.002678,0.000431,0.000353
33533000,0.0324,0.013523,0.002678,0.000431,0.000235
33534000,0.0324,0.013523,0.002678,0.000431,0.000353
33535000,0.0324,0.013523,0.002678,0.000431,0.000470
33536000,0.0324,0.013523,0.002678,0.000431,0.000353
33537000,0.0324,0.013523,0.002678,0.000431,0.000235
33538000,0.0324,0.013523,0.002678,0.000431,0.000353
33539000,0.0324,0.013523,0.002678,0.000431,0.000353
33540000,0.0324,0.013523,0.002678,0.000431,0.000235
33541000,0.0324,0.013523,0.002678,0.000431,0.000353
33542000,0.0324,0.013523,0.002678,0.000431,0.000470
33543000,0.0324,0.013523,0.002678,0.000431,0.000353
33544000,0.0324,0.013523,0.002678,0.000431,0.000235
33545000,0.0324,0.013523,0.002678,0.000431,0.000353
33546000,0.0324,0.013523,0.002678,0.000431,0.000353
33547000,0.0324,0.013523,0.002678,0.000431,0.000235
33548000,0.0324,0.013523,0.002678,0.000431,0.000353
33549000,0.0324,0.013523,0.002678,0.000431,0.000470
33550000,0.0324,0.013523,0.002678,0.000431,0.000353
33551000,0.0324,0.013523,0.002678,0.000431,0.000235
33552000,0.0324,0.013523,0.002678,0.000431,0.000353
33553000,0.0324,0.013523,0.002678,0.000431,0.000353
33554000,0.0324,0.013523,0.002678,0.000431,0.000235
33555000,0.0324,0.013523,0.002678,0.000431,0.000353
33556000,0.0324,0.013523,0.002678,0.000431,0.000470
33557000,0.0324,0.013523,0.002678,0.000431,0.000353
33558000,0.0324,0.013523,0.002678,0.000431,0.000235
33559000,0.0324,0.013523,0.002678,0.000431,0.000353
33560000,0.0324,0.013523,0.002678,0.000431,0.000353
33561000,0.0324,0.013523,0.002678,0.000431,0.000235
33562000,0.0324,0.013523,0.002678,0.000431,0.000353
33563000,0.0324,0.013523,0.002678,0.000431,0.000470
33564000,0.0324,0.013523,0.002678,0.000431,0.000353
33565000,0.0324,0.013523,0.002678,0.000431,0.000235
33566000,0.0324,0.013523,0.002678,0.000431,0.000353
33567000,0.0324,0.013523,0.002678,0.000431,0.000353
33568000,0.0324,0.013523,0.002678,0.000431,0.000235
33569000,0.0324,0.013523,0.002678,0.000431,0.000353
33570000,0.0324,0.013523,0.002678,0.000431,0.000470
33571000,0.0324,0.013523,0.002678,0.000431,0.000353
33572000,0.0324,0.013523,0.002678,0.000431,0.000118
33573000,0.0324,0.013523,0.002678,0.000431,0.000470
33574000,0.0324,0.013523,0.002678,0.000431,0.000353
33575000,0.0324,0.013523,0.002678,0.000431,0.000235
33576000,0.0324,0.013523,0.002678,0.000431,0.000353
33577000,0.0324,0.013523,0.002678,0.000431,0.000470
33578000,0.0324,0.013523,0.002678,0.000431,0.000353
33579000,0.0324,0.013523,0.002678,0.000431,0.000118
33580000,0.0324,0.013523,0.002678,0.000431,0.000470
33581000,0.0324,0.013523,0.002678,0.000431,0.000353
33582000,0.0324,0.013523,0.002678,0.000431,0.000235
33583000,0.0324,0.013523,0.002678,0.000431,0.000353
33584000,0.0324,0.013523,0.002678,0.000431,0.000470
33585000,0.0324,0.013523,0.002678,0.000431,0.000353
33586000,0.0324,0.013523,0.002678,0.000431,0.000118
33587000,0.0324,0.013523,0.002678,0.000431,0.000470
33588000,0.0324,0.013523,0.002678,0.000431,0.000353
33589000,0.0324,0.013523,0.002678,0.000431,0.000235
33590000,0.0324,0.013523,0.002678,0.000431,0.000353
33591000,0.0324,0.013523,0.002678,0.000431,0.000470
33592000,0.0324,0.013523,0.002678,0.000431,0.000235
33593000,0.0324,0.013523,0.002678,0.000431,0.000235
33594000,0.0324,0.013523,0.002678,0.000431,0.000470
33595000,0.0324,0.013523,0.002678,0.000431,0.000353
33596000,0.0324,0.013523,0.002678,0.000431,0.000235
33597000,0.0324,0.013523,0.002678,0.000431,0.000353
33598000,0.0324,0.013523,0.002678,0.000431,0.000470
33599000,0.0324,0.013523,0.002678,0.000431,0.000235
33600000,0.0324,0.013523,0.002678,0.000431,0.000235
33601000,0.0324,0.013523,0.002678,0.000431,0.000470
33602000,0.0324,0.013523,0.002678,0.000431,0.000353
33603000,0.0324,0.013523,0.002678,0.000431,0.000235
33604000,0.0324,0.013523,0.002678,0.000431,0.000353
33605000,0.0324,0.013523,0.002678,0.000431,0.000470
33606000,0.0324,0.013523,0.002678,0.000431,0.000235
33607000,0.0324,0.013523,0.002678,0.000431,0.000235
33608000,0.0324,0.013523,0.002678,0.000431,0.000470
33609000,0.0324,0.013523,0.002678,0.000431,0.000353
33610000,0.0324,0.013523,0.002678,0.000431,0.000235
33611000,0.0324,0.013523,0.002678,0.000431,0.000353
33612000,0.0324,0.013523,0.002678,0.000431,0.000470
33613000,0.0324,0.013523,0.002678,0.000431,0.000235
33614000,0.0324,0.013523,0.002678,0.000431,0.000235
33615000,0.0324,0.013523,0.002678,0.000431,0.000470
33616000,0.0324,0.013523,0.002678,0.000431,0.000353
33617000,0.0324,0.013523,0.002678,0.000431,0.000235
33618000,0.0324,0.013523,0.002678,0.000431,0.000353
33619000,0.0324,0.013523,0.002678,0.000431,0.000470
33620000,0.0324,0.013523,0.002678,0.000431,0.000235
33621000,0.0324,0.013523,0.002678,0.000431,0.000235
33622000,0.0324,0.013523,0.002678,0.000431,0.000470
33623000,0.0324,0.013523,0.002678,0.000431,0.000353
33624000,0.0324,0.013523,0.002678,0.000431,0.000235
33625000,0.0324,0.013523,0.002678,0.000431,0.000353
33626000,0.0324,0.013523,0.002678,0.000431,0.000470
33627000,0.0324,0.013523,0.002678,0.000431,0.000235
33628000,0.0324,0.013523,0.002678,0.000431,0.000235
33629000,0.0324,0.013523,0.002678,0.000431,0.000470
33630000,0.0324,0.013523,0.002678,0.000431,0.000353
33631000,0.0324,0.013523,0.002678,0.000431,0.000235
33632000,0.0324,0.013523,0.002678,0.000431,0.000353
33633000,0.0324,0.013523,0.002678,0.000431,0.000470
33634000,0.0324,0.013523,0.002678,0.000431,0.000118
33635000,0.0324,0.013523,0.002678,0.000431,0.000353
33636000,0.0324,0.013523,0.002678,0.000431,0.000470
33637000,0.0324,0.013523,0.002678,0.000431,0.000353
33638000,0.0324,0.013523,0.002678,0.000431,0.000235
33639000,0.0324,0.013523,0.002678,0.000431,0.000353
33640000,0.0324,0.013523,0.002678,0.000431,0.000470
33641000,0.0324,0.013523,0.002678,0.000431,0.000118
33642000,0.0324,0.013523,0.002678,0.000431,0.000353
33643000,0.0324,0.013523,0.002678,0.000431,0.000470
33644000,0.0324,0.013523,0.002678,0.000431,0.000353
33645000,0.0324,0.013523,0.002678,0.000431,0.000235
33646000,0.0324,0.013523,0.002678,0.000431,0.000353
33647000,0.0324,0.013523,0.002678,0.000431,0.000470
33648000,0.0324,0.013523,0.002678,0.000431,0.000118
33649000,0.0324,0.013523,0.002678,0.000431,0.000353
33650000,0.0324,0.013523,0.002678,0.000431,0.000470
33651000,0.0324,0.013523,0.002678,0.000431,0.000353
33652000,0.0324,0.013523,0.002678,0.000431,0.000235
33653000,0.0324,0.013523,0.002678,0.000431,0.000353
33654000,0.0324,0.013523,0.002678,0.000431,0.000353
33655000,0.0324,0.013523,0.002678,0.000431,0.000235
33656000,0.0324,0.013523,0.002678,0.000431,0.000353
33657000,0.0324,0.013523,0.002678,0.000431,0.000470
33658000,0.0324,0.013523,0.002678,0.000431,0.000353
33659000,0.0324,0.013523,0.002678,0.000431,0.000235
33660000,0.0324,0.013523,0.002678,0.000431,0.000353
33661000,0.0324,0.013523,0.002678,0.000431,0.000353
33662000,0.0324,0.013523,0.002678,0.000431,0.000235
33663000,0.0324,0.013523,0.002678,0.000431,0.000353
33664000,0.0324,0.013523,0.002678,0.000431,0.000470
33665000,0.0324,0.013523,0.002678,0.000431,0.000353
33666000,0.0324,0.013523,0.002678,0.000431,0.000235
33667000,0.0324,0.013523,0.002678,0.000431,0.000353
33668000,0.0324,0.013523,0.002678,0.000431,0.000353
33669000,0.0324,0.013523,0.002678,0.000431,0.000235
33670000,0.0324,0.013523,0.002678,0.000431,0.000353
33671000,0.0324,0.013523,0.002678,0.000431,0.000470
33672000,0.0324,0.013523,0.002678,0.000431,0.000353
33673000,0.0324,0.013523,0.002678,0.000431,0.000235
33674000,0.0324,0.013523,0.002678,0.000431,0.000353
33675000,0.0324,0.013523,0.002678,0.000431,0.000353
33676000,0.0324,0.013523,0.002678,0.000431,0.000235
33677000,0.0324,0.013523,0.002678,0.000431,0.000353
33678000,0.0324,0.013523,0.002678,0.000431,0.000470
33679000,0.0324,0.013523,0.002678,0.000431,0.000353
33680000,0.0324,0.013523,0.002678,0.000431,0.000235
33681000,0.0324,0.013523,0.002678,0.000431,0.000353
33682000,0.0324,0.013523,0.002678,0.000431,0.000353
33683000,0.0324,0.013523,0.002678,0.000431,0.000235
33684000,0.0324,0.013523,0.002678,0.000431,0.000353
33685000,0.0324,0.013523,0.002678,0.000431,0.000470
33686000,0.0324,0.013523,0.002678,0.000431,0.000353
33687000,0.0324,0.013523,0.002678,0.000431,0.000235
33688000,0.0324,0.013523,0.002678,0.000431,0.000353
33689000,0.0324,0.013523,0.002678,0.000431,0.000353
33690000,0.0324,0.013523,0.002678,0.000431,0.000235
33691000,0.0324,0.013523,0.002678,0.000431,0.000353
33692000,0.0324,0.013523,0.002678,0.000431,0.000470
33693000,0.0324,0.013523,0.002678,0.000431,0.000353
33694000,0.0324,0.013523,0.002678,0.000431,0.000235
33695000,0.0324,0.013523,0.002678,0.000431,0.000353
33696000,0.0324,0.013523,0.002678,0.000431,0.000353
33697000,0.0324,0.013523,0.002678,0.000431,0.000235
33698000,0.0324,0.013523,0.002678,0.000431,0.000353
33699000,0.0324,0.013523,0.002678,0.000431,0.000470
33700000,0.0324,0.013523,0.002678,0.000431,0.000353
33701000,0.0324,0.013523,0.002678,0.000431,0.000235
33702000,0.0324,0.013523,0.002678,0.000431,0.000353
33703000,0.0324,0.013523,0.002678,0.000431,0.000353
33704000,0.0324,0.013523,0.002678,0.000431,0.000235
33705000,0.0324,0.013523,0.002678,0.000431,0.000353
33706000,0.0324,0.013523,0.002678,0.000431,0.000470
33707000,0.0324,0.013523,0.002678,0.000431,0.000353
33708000,0.0324,0.013523,0.002678,0.000431,0.000118
33709000,0.0324,0.013523,0.002678,0.000431,0.000470
33710000,0.0324,0.013523,0.002678,0.000431,0.000353
33711000,0.0324,0.013523,0.002678,0.000431,0.000235
33712000,0.0324,0.013523,0.002678,0.000431,0.000353
33713000,0.0324,0.013523,0.002678,0.000431,0.000470
33714000,0.0324,0.013523,0.002678,0.000431,0.000353
33715000,0.0324,0.013523,0.002678,0.000431,0.000118
33716000,0.0324,0.013523,0.002678,0.000431,0.000470
33717000,0.0324,0.013523,0.002678,0.000431,0.000353
33718000,0.0324,0.013523,0.002678,0.000431,0.000235
33719000,0.0324,0.013523,0.002678,0.000431,0.000353
33720000,0.0324,0.013523,0.002678,0.000431,0.000470
33721000,0.0324,0.013523,0.002678,0.000431,0.000353
33722000,0.0324,0.013523,0.002678,0.000431,0.000118
33723000,0.0324,0.013523,0.002678,0.000431,0.000470
33724000,0.0324,0.013523,0.002678,0.000431,0.000353
33725000,0.0324,0.013523,0.002678,0.000431,0.000235
33726000,0.0324,0.013523,0.002678,0.000431,0.000353
33727000,0.0324,0.013523,0.002678,0.000431,0.000470
33728000,0.0324,0.013523,0.002678,0.000431,0.000353
33729000,0.0324,0.013523,0.002678,0.000431,0.000118
33730000,0.0324,0.013523,0.002678,0.000431,0.000470
33731000,0.0324,0.013523,0.002678,0.000431,0.000353
33732000,0.0324,0.013523,0.002678,0.000431,0.000235
33733000,0.0324,0.013523,0.002678,0.000431,0.000353
33734000,0.0324,0.013523,0.002678,0.000431,0.000470
33735000,0.0324,0.013523,0.002678,0.000431,0.000235
33736000,0.0324,0.013523,0.002678,0.000431,0.000235
33737000,0.0324,0.013523,0.002678,0.000431,0.000470
33738000,0.0324,0.013523,0.002678,0.000431,0.000353
33739000,0.0324,0.013523,0.002678,0.000431,0.000235
33740000,0.0324,0.013523,0.002678,0.000431,0.000353
33741000,0.0324,0.013523,0.002678,0.000431,0.000470
33742000,0.0324,0.013523,0.002678,0.000431,0.000235
33743000,0.0324,0.013523,0.002678,0.000431,0.000235
33744000,0.0324,0.013523,0.002678,0.000431,0.000470
33745000,0.0324,0.013523,0.002678,0.000431,0.000353
33746000,0.0324,0.013523,0.002678,0.000431,0.000235
33747000,0.0324,0.013523,0.002678,0.000431,0.000353
33748000,0.0324,0.013523,0.002678,0.000431,0.000470
33749000,0.0324,0.013523,0.002678,0.000431,0.000235
33750000,0.0324,0.013523,0.002678,0.000431,0.000235
33751000,0.0324,0.013523,0.002678,0.000431,0.000470
33752000,0.0324,0.013523,0.002678,0.000431,0.000353
33753000,0.0324,0.013523,0.002678,0.000431,0.000235
33754000,0.0324,0.013523,0.002678,0.000431,0.000353
33755000,0.0324,0.013523,0.002678,0.000431,0.000470
33756000,0.0324,0.013523,0.002678,0.000431,0.000235
33757000,0.0324,0.013523,0.002678,0.000431,0.000235
33758000,0.0324,0.013523,0.002678,0.000431,0.000470
33759000,0.0324,0.013523,0.002678,0.000431,0.000353
33760000,0.0324,0.013523,0.002678,0.000431,0.000235
33761000,0.0324,0.013523,0.002678,0.000431,0.000353
33762000,0.0324,0.013523,0.002678,0.000431,0.000470
33763000,0.0324,0.013523,0.002678,0.000431,0.000235
33764000,0.0324,0.013523,0.002678,0.000431,0.000235
33765000,0.0324,0.013523,0.002678,0.000431,0.000470
33766000,0.0324,0.013523,0.002678,0.000431,0.000353
33767000,0.0324,0.013523,0.002678,0.000431,0.000235
33768000,0.0324,0.013523,0.002678,0.000431,0.000353
33769000,0.0324,0.013523,0.002678,0.000431,0.000470
33770000,0.0324,0.013523,0.002678,0.000431,0.000235
33771000,0.0324,0.013523,0.002678,0.000431,0.000235
33772000,0.0324,0.013523,0.002678,0.000431,0.000470
33773000,0.0324,0.013523,0.002678,0.000431,0.000353
33774000,0.0324,0.013523,0.002678,0.000431,0.000235
33775000,0.0324,0.013523,0.002678,0.000431,0.000353
33776000,0.0324,0.013523,0.002678,0.000431,0.000470
33777000,0.0324,0.013523,0.002678,0.000431,0.000118
33778000,0.0324,0.013523,0.002678,0.000431,0.000353
33779000,0.0324,0.013523,0.002678,0.000431,0.000470
33780000,0.0324,0.013523,0.002678,0.000431,0.000353
33781000,0.0324,0.013523,0.002678,0.000431,0.000235
33782000,0.0324,0.013523,0.002678,0.000431,0.000353
33783000,0.0324,0.013523,0.002678,0.000431,0.000470
33784000,0.0324,0.013523,0.002678,0.000431,0.000118
33785000,0.0324,0.013523,0.002678,0.000431,0.000353
33786000,0.0324,0.013523,0.002678,0.000431,0.000470
33787000,0.0324,0.013523,0.002678,0.000431,0.000353
33788000,0.0324,0.013523,0.002678,0.000431,0.000235
33789000,0.0324,0.013523,0.002678,0.000431,0.000353
33790000,0.0324,0.013523,0.002678,0.000431,0.000470
33791000,0.0324,0.013523,0.002678,0.000431,0.000118
33792000,0.0324,0.013523,0.002678,0.000431,0.000353
33793000,0.0324,0.013523,0.002678,0.000431,0.000470
33794000,0.0324,0.013523,0.002678,0.000431,0.000353
33795000,0.0324,0.013523,0.002678,0.000431,0.000235
33796000,0.0324,0.013523,0.002678,0.000431,0.000353
33797000,0.0324,0.013523,0.002678,0.000431,0.000353
33798000,0.0324,0.013523,0.002678,0.000431,0.000235
33799000,0.0324,0.013523,0.002678,0.000431,0.000353
33800000,0.0324,0.013523,0.002678,0.000431,0.000470
33801000,0.0324,0.013523,0.002678,0.000431,0.000353
33802000,0.0324,0.013523,0.002678,0.000431,0.000235
33803000,0.0324,0.013523,0.002678,0.000431,0.000353
33804000,0.0324,0.013523,0.002678,0.000431,0.000353
33805000,0.0324,0.013523,0.002678,0.000431,0.000235
33806000,0.0324,0.013523,0.002678,0.000431,0.000353
33807000,0.0324,0.013523,0.002678,0.000431,0.000470
33808000,0.0324,0.013523,0.002678,0.000431,0.000353
33809000,0.0324,0.013523,0.002678,0.000431,0.000235
33810000,0.0324,0.013523,0.002678,0.000431,0.000353
33811000,0.0324,0.013523,0.002678,0.000431,0.000353
33812000,0.0324,0.013523,0.002678,0.000431,0.000235
33813000,0.0324,0.013523,0.002678,0.000431,0.000353
33814000,0.0324,0.013523,0.002678,0.000431,0.000470
33815000,0.0324,0.013523,0.002678,0.000431,0.000353
33816000,0.0324,0.013523,0.002678,0.000431,0.000235
33817000,0.0324,0.013523,0.002678,0.000431,0.000353
33818000,0.0324,0.013523,0.002678,0.000431,0.000353
33819000,0.0324,0.013523,0.002678,0.000431,0.000235
33820000,0.0324,0.013523,0.002678,0.000431,0.000353
33821000,0.0324,0.013523,0.002678,0.000431,0.000470
33822000,0.0324,0.013523,0.002678,0.000431,0.000353
33823000,0.0324,0.013523,0.002678,0.000431,0.000235
33824000,0.0324,0.013523,0.002678,0.000431,0.000353
33825000,0.0324,0.013523,0.002678,0.000431,0.000353
33826000,0.0324,0.013523,0.002678,0.000431,0.000235
33827000,0.0324,0.013523,0.002678,0.000431,0.000353
33828000,0.0324,0.013523,0.002678,0.000431,0.000470
33829000,0.0324,0.013523,0.002678,0.000431,0.000353
33830000,0.0324,0.013523,0.002678,0.000431,0.000235
33831000,0.0324,0.013523,0.002678,0.000431,0.000353
33832000,0.0324,0.013523,0.002678,0.000431,0.000353
33833000,0.0324,0.013523,0.002678,0.000431,0.000235
33834000,0.0324,0.013523,0.002678,0.000431,0.000353
33835000,0.0324,0.013523,0.002678,0.000431,0.000470
33836000,0.0324,0.013523,0.002678,0.000431,0.000353
33837000,0.0324,0.013523,0.002678,0.000431,0.000235
33838000,0.0324,0.013523,0.002678,0.000431,0.000353
33839000,0.0324,0.013523,0.002678,0.000431,0.000353
33840000,0.0324,0.013523,0.002678,0.000431,0.000235
33841000,0.0324,0.013523,0.002678,0.000431,0.000353
33842000,0.0324,0.013523,0.002678,0.000431,0.000470
33843000,0.0324,0.013523,0.002678,0.000431,0.000353
33844000,0.0324,0.013523,0.002678,0.000431,0.000235
33845000,0.0324,0.013523,0.002678,0.000431,0.000353
33846000,0.0324,0.013523,0.002678,0.000431,0.000353
33847000,0.0324,0.013523,0.002678,0.000431,0.000235
33848000,0.0324,0.013523,0.002678,0.000431,0.000353
33849000,0.0324,0.013523,0.002678,0.000431,0.000470
33850000,0.0324,0.013523,0.002678,0.000431,0.000353
33851000,0.0324,0.013523,0.002678,0.000431,0.000118
33852000,0.0324,0.013523,0.002678,0.000431,0.000470
33853000,0.0324,0.013523,0.002678,0.000431,0.000353
33854000,0.0324,0.013523,0.002678,0.000431,0.000235
33855000,0.0324,0.013523,0.002678,0.000431,0.000353
33856000,0.0324,0.013523,0.002678,0.000431,0.000470
33857000,0.0324,0.013523,0.002678,0.000431,0.000353
33858000,0.0324,0.013523,0.002678,0.000431,0.000118
33859000,0.0324,0.013523,0.002678,0.000431,0.000470
33860000,0.0324,0.013523,0.002678,0.000431,0.000353
33861000,0.0324,0.013523,0.002678,0.000431,0.000235
33862000,0.0324,0.013523,0.002678,0.000431,0.000353
33863000,0.0324,0.013523,0.002678,0.000431,0.000470
33864000,0.0324,0.013523,0.002678,0.000431,0.000353
33865000,0.0324,0.013523,0.002678,0.000431,0.000118
33866000,0.0324,0.013523,0.002678,0.000431,0.000470
33867000,0.0324,0.013523,0.002678,0.000431,0.000353
33868000,0.0324,0.013523,0.002678,0.000431,0.000235
33869000,0.0324,0.013523,0.002678,0.000431,0.000353
33870000,0.0324,0.013523,0.002678,0.000431,0.000470
33871000,0.0324,0.013523,0.002678,0.000431,0.000235
33872000,0.0324,0.013523,0.002678,0.000431,0.000235
33873000,0.0324,0.013523,0.002678,0.000431,0.000470
33874000,0.0324,0.013523,0.002678,0.000431,0.000353
33875000,0.0324,0.013523,0.002678,0.000431,0.000235
33876000,0.0324,0.013523,0.002678,0.000431,0.000353
33877000,0.0324,0.013523,0.002678,0.000431,0.000470
33878000,0.0324,0.013523,0.002678,0.000431,0.000235
33879000,0.0324,0.013523,0.002678,0.000431,0.000235
33880000,0.0324,0.013523,0.002678,0.000431,0.000470
33881000,0.0324,0.013523,0.002678,0.000431,0.000353
33882000,0.0324,0.013523,0.002678,0.000431,0.000235
33883000,0.0324,0.013523,0.002678,0.000431,0.000353
33884000,0.0324,0.013523,0.002678,0.000431,0.000470
33885000,0.0324,0.013523,0.002678,0.000431,0.000235
33886000,0.0324,0.013523,0.002678,0.000431,0.000235
33887000,0.0324,0.013523,0.002678,0.000431,0.000470
33888000,0.0324,0.013523,0.002678,0.000431,0.000353
33889000,0.0324,0.013523,0.002678,0.000431,0.000235
33890000,0.0324,0.013523,0.002678,0.000431,0.000353
33891000,0.0324,0.013523,0.002678,0.000431,0.000470
33892000,0.0324,0.013523,0.002678,0.000431,0.000235
33893000,0.0324,0.013523,0.002678,0.000431,0.000235
33894000,0.0324,0.013523,0.002678,0.000431,0.000470
33895000,0.0324,0.013523,0.002678,0.000431,0.000353
33896000,0.0324,0.013523,0.002678,0.000431,0.000235
33897000,0.0324,0.013523,0.002678,0.000431,0.000353
33898000,0.0324,0.013523,0.002678,0.000431,0.000470
33899000,0.0324,0.013523,0.002678,0.000431,0.000235
33900000,0.0324,0.013523,0.002678,0.000431,0.000235
33901000,0.0324,0.013523,0.002678,0.000431,0.000470
33902000,0.0324,0.013523,0.002678,0.000431,0.000353
33903000,0.0324,0.013523,0.002678,0.000431,0.000235
33904000,0.0324,0.013523,0.002678,0.000431,0.000353
33905000,0.0324,0.013523,0.002678,0.000431,0.000470
33906000,0.0324,0.013523,0.002678,0.000431,0.000235
33907000,0.0324,0.013523,0.002678,0.000431,0.000235
33908000,0.0324,0.013523,0.002678,0.000431,0.000470
33909000,0.0324,0.013523,0.002678,0.000431,0.000353
33910000,0.0324,0.013523,0.002678,0.000431,0.000235
33911000,0.0324,0.013523,0.002678,0.000431,0.000353
33912000,0.0324,0.013523,0.002678,0.000431,0.000470
33913000,0.0324,0.013523,0.002678,0.000431,0.000118
33914000,0.0324,0.013523,0.002678,0.000431,0.000353
33915000,0.0324,0.013523,0.002678,0.000431,0.000470
33916000,0.0324,0.013523,0.002678,0.000431,0.000353
33917000,0.0324,0.013523,0.002678,0.000431,0.000235
33918000,0.0324,0.013523,0.002678,0.000431,0.000353
33919000,0.0324,0.013523,0.002678,0.000431,0.000470
33920000,0.0324,0.013523,0.002678,0.000431,0.000118
33921000,0.0324,0.013523,0.002678,0.000431,0.000353
33922000,0.0324,0.013523,0.002678,0.000431,0.000470
33923000,0.0324,0.013523,0.002678,0.000431,0.000353
33924000,0.0324,0.013523,0.002678,0.000431,0.000235
33925000,0.0324,0.013523,0.002678,0.000431,0.000353
33926000,0.0324,0.013523,0.002678,0.000431,0.000470
33927000,0.0324,0.013523,0.002678,0.000431,0.000118
33928000,0.0324,0.013523,0.002678,0.000431,0.000353
33929000,0.0324,0.013523,0.002678,0.000431,0.000470
33930000,0.0324,0.013523,0.002678,0.000431,0.000353
33931000,0.0324,0.013523,0.002678,0.000431,0.000235
33932000,0.0324,0.013523,0.002678,0.000431,0.000353
33933000,0.0324,0.013523,0.002678,0.000431,0.000470
33934000,0.0324,0.013523,0.002678,0.000431,0.000118
33935000,0.0324,0.013523,0.002678,0.000431,0.000353
33936000,0.0324,0.013523,0.002678,0.000431,0.000470
33937000,0.0324,0.013523,0.002678,0.000431,0.000353
33938000,0.0324,0.013523,0.002678,0.000431,0.000235
33939000,0.0324,0.013523,0.002678,0.000431,0.000353
33940000,0.0324,0.013523,0.002678,0.000431,0.000353
33941000,0.0324,0.013523,0.002678,0.000431,0.000235
33942000,0.0324,0.013523,0.002678,0.000431,0.000353
33943000,0.0324,0.013523,0.002678,0.000431,0.000470
33944000,0.0324,0.013523,0.002678,0.000431,0.000353
33945000,0.0324,0.013523,0.002678,0.000431,0.000235
33946000,0.0324,0.013523,0.002678,0.000431,0.000353
33947000,0.0324,0.013523,0.002678,0.000431,0.000353
33948000,0.0324,0.013523,0.002678,0.000431,0.000235
33949000,0.0324,0.013523,0.002678,0.000431,0.000353
33950000,0.0324,0.013523,0.002678,0.000431,0.000470
33951000,0.0324,0.013523,0.002678,0.000431,0.000353
33952000,0.0324,0.013523,0.002678,0.000431,0.000235
33953000,0.0324,0.013523,0.002678,0.000431,0.000353
33954000,0.0324,0.013523,0.002678,0.000431,0.000353
33955000,0.0324,0.013523,0.002678,0.000431,0.000235
33956000,0.0324,0.013523,0.002678,0.000431,0.000353
33957000,0.0324,0.013523,0.002678,0.000431,0.000470
33958000,0.0324,0.013523,0.002678,0.000431,0.000353
33959000,0.0324,0.013523,0.002678,0.000431,0.000235
33960000,0.0324,0.013523,0.002678,0.000431,0.000353
33961000,0.0324,0.013523,0.002678,0.000431,0.000353
33962000,0.0324,0.013523,0.002678,0.000431,0.000235
33963000,0.0324,0.013523,0.002678,0.000431,0.000353
33964000,0.0324,0.013523,0.002678,0.000431,0.000470
33965000,0.0324,0.013523,0.002678,0.000431,0.000353
33966000,0.0324,0.013523,0.002678,0.000431,0.000235
33967000,0.0324,0.013523,0.002678,0.000431,0.000353
33968000,0.0324,0.013523,0.002678,0.000431,0.000353
33969000,0.0324,0.013523,0.002678,0.000431,0.000235
33970000,0.0324,0.013523,0.002678,0.000431,0.000353
33971000,0.0324,0.013523,0.002678,0.000431,0.000470
33972000,0.0324,0.013523,0.002678,0.000431,0.000353
33973000,0.0324,0.013523,0.002678,0.000431,0.000235
33974000,0.0324,0.013523,0.002678,0.000431,0.000353
33975000,0.0324,0.013523,0.002678,0.000431,0.000353
33976000,0.0324,0.013523,0.002678,0.000431,0.000235
33977000,0.0324,0.013523,0.002678,0.000431,0.000353
33978000,0.0324,0.013523,0.002678,0.000431,0.000470
33979000,0.0324,0.013523,0.002678,0.000431,0.000353
33980000,0.0324,0.013523,0.002678,0.000431,0.000235
33981000,0.0324,0.013523,0.002678,0.000431,0.000353
33982000,0.0324,0.013523,0.002678,0.000431,0.000353
33983000,0.0324,0.013523,0.002678,0.000431,0.000235
33984000,0.0324,0.013523,0.002678,0.000431,0.000353
33985000,0.0324,0.013523,0.002678,0.000431,0.000470
33986000,0.0324,0.013523,0.002678,0.000431,0.000353
33987000,0.0324,0.013523,0.002678,0.000431,0.000118
33988000,0.0324,0.013523,0.002678,0.000431,0.000470
33989000,0.0324,0.013523,0.002678,0.000431,0.000353
33990000,0.0324,0.013523,0.002678,0.000431,0.000235
33991000,0.0324,0.013523,0.002678,0.000431,0.000353
33992000,0.0324,0.013523,0.002678,0.000431,0.000470
33993000,0.0324,0.013523,0.002678,0.000431,0.000353
33994000,0.0324,0.013523,0.002678,0.000431,0.000118
33995000,0.0324,0.013523,0.002678,0.000431,0.000470
33996000,0.0324,0.013523,0.002678,0.000431,0.000353
33997000,0.0324,0.013523,0.002678,0.000431,0.000235
33998000,0.0324,0.013523,0.002678,0.000431,0.000353
33999000,0.0324,0.013523,0.002678,0.000431,0.000470
