Cycle,Area(mm^2),PeakDynamic(W),SubthresholdLeakage(W),GateLeakage(W),RunTimeDynamic(W)
10000000,0.0324,0.013523,0.002678,0.000431,0.000353
10001000,0.0324,0.013523,0.002678,0.000431,0.000470
10002000,0.0324,0.013523,0.002678,0.000431,0.000353
10003000,0.0324,0.013523,0.002678,0.000431,0.000235
10004000,0.0324,0.013523,0.002678,0.000431,0.000353
10005000,0.0324,0.013523,0.002678,0.000431,0.000353
10006000,0.0324,0.013523,0.002678,0.000431,0.000235
10007000,0.0324,0.013523,0.002678,0.000431,0.000353
10008000,0.0324,0.013523,0.002678,0.000431,0.000470
10009000,0.0324,0.013523,0.002678,0.000431,0.000353
10010000,0.0324,0.013523,0.002678,0.000431,0.000235
10011000,0.0324,0.013523,0.002678,0.000431,0.000353
10012000,0.0324,0.013523,0.002678,0.000431,0.000353
10013000,0.0324,0.013523,0.002678,0.000431,0.000235
10014000,0.0324,0.013523,0.002678,0.000431,0.000353
10015000,0.0324,0.013523,0.002678,0.000431,0.000470
10016000,0.0324,0.013523,0.002678,0.000431,0.000353
10017000,0.0324,0.013523,0.002678,0.000431,0.000118
10018000,0.0324,0.013523,0.002678,0.000431,0.000470
10019000,0.0324,0.013523,0.002678,0.000431,0.000353
10020000,0.0324,0.013523,0.002678,0.000431,0.000235
10021000,0.0324,0.013523,0.002678,0.000431,0.000353
10022000,0.0324,0.013523,0.002678,0.000431,0.000470
10023000,0.0324,0.013523,0.002678,0.000431,0.000353
10024000,0.0324,0.013523,0.002678,0.000431,0.000118
10025000,0.0324,0.013523,0.002678,0.000431,0.000470
10026000,0.0324,0.013523,0.002678,0.000431,0.000353
10027000,0.0324,0.013523,0.002678,0.000431,0.000235
10028000,0.0324,0.013523,0.002678,0.000431,0.000353
10029000,0.0324,0.013523,0.002678,0.000431,0.000470
10030000,0.0324,0.013523,0.002678,0.000431,0.000353
10031000,0.0324,0.013523,0.002678,0.000431,0.000118
10032000,0.0324,0.013523,0.002678,0.000431,0.000470
10033000,0.0324,0.013523,0.002678,0.000431,0.000353
10034000,0.0324,0.013523,0.002678,0.000431,0.000235
10035000,0.0324,0.013523,0.002678,0.000431,0.000353
10036000,0.0324,0.013523,0.002678,0.000431,0.000470
10037000,0.0324,0.013523,0.002678,0.000431,0.000353
10038000,0.0324,0.013523,0.002678,0.000431,0.000118
10039000,0.0324,0.013523,0.002678,0.000431,0.000470
10040000,0.0324,0.013523,0.002678,0.000431,0.000353
10041000,0.0324,0.013523,0.002678,0.000431,0.000235
10042000,0.0324,0.013523,0.002678,0.000431,0.000353
10043000,0.0324,0.013523,0.002678,0.000431,0.000470
10044000,0.0324,0.013523,0.002678,0.000431,0.000235
10045000,0.0324,0.013523,0.002678,0.000431,0.000235
10046000,0.0324,0.013523,0.002678,0.000431,0.000470
10047000,0.0324,0.013523,0.002678,0.000431,0.000353
10048000,0.0324,0.013523,0.002678,0.000431,0.000235
10049000,0.0324,0.013523,0.002678,0.000431,0.000353
10050000,0.0324,0.013523,0.002678,0.000431,0.000470
10051000,0.0324,0.013523,0.002678,0.000431,0.000235
10052000,0.0324,0.013523,0.002678,0.000431,0.000235
10053000,0.0324,0.013523,0.002678,0.000431,0.000470
10054000,0.0324,0.013523,0.002678,0.000431,0.000353
10055000,0.0324,0.013523,0.002678,0.000431,0.000235
10056000,0.0324,0.013523,0.002678,0.000431,0.000353
10057000,0.0324,0.013523,0.002678,0.000431,0.000470
10058000,0.0324,0.013523,0.002678,0.000431,0.000235
10059000,0.0324,0.013523,0.002678,0.000431,0.000235
10060000,0.0324,0.013523,0.002678,0.000431,0.000470
10061000,0.0324,0.013523,0.002678,0.000431,0.000353
10062000,0.0324,0.013523,0.002678,0.000431,0.000235
10063000,0.0324,0.013523,0.002678,0.000431,0.000353
10064000,0.0324,0.013523,0.002678,0.000431,0.000470
10065000,0.0324,0.013523,0.002678,0.000431,0.000235
10066000,0.0324,0.013523,0.002678,0.000431,0.000235
10067000,0.0324,0.013523,0.002678,0.000431,0.000470
10068000,0.0324,0.013523,0.002678,0.000431,0.000353
10069000,0.0324,0.013523,0.002678,0.000431,0.000235
10070000,0.0324,0.013523,0.002678,0.000431,0.000353
10071000,0.0324,0.013523,0.002678,0.000431,0.000470
10072000,0.0324,0.013523,0.002678,0.000431,0.000235
10073000,0.0324,0.013523,0.002678,0.000431,0.000235
10074000,0.0324,0.013523,0.002678,0.000431,0.000470
10075000,0.0324,0.013523,0.002678,0.000431,0.000353
10076000,0.0324,0.013523,0.002678,0.000431,0.000235
10077000,0.0324,0.013523,0.002678,0.000431,0.000353
10078000,0.0324,0.013523,0.002678,0.000431,0.000470
10079000,0.0324,0.013523,0.002678,0.000431,0.000118
10080000,0.0324,0.013523,0.002678,0.000431,0.000353
10081000,0.0324,0.013523,0.002678,0.000431,0.000470
10082000,0.0324,0.013523,0.002678,0.000431,0.000353
10083000,0.0324,0.013523,0.002678,0.000431,0.000235
10084000,0.0324,0.013523,0.002678,0.000431,0.000353
10085000,0.0324,0.013523,0.002678,0.000431,0.000470
10086000,0.0324,0.013523,0.002678,0.000431,0.000118
10087000,0.0324,0.013523,0.002678,0.000431,0.000353
10088000,0.0324,0.013523,0.002678,0.000431,0.000470
10089000,0.0324,0.013523,0.002678,0.000431,0.000353
10090000,0.0324,0.013523,0.002678,0.000431,0.000235
10091000,0.0324,0.013523,0.002678,0.000431,0.000353
10092000,0.0324,0.013523,0.002678,0.000431,0.000470
10093000,0.0324,0.013523,0.002678,0.000431,0.000118
10094000,0.0324,0.013523,0.002678,0.000431,0.000353
10095000,0.0324,0.013523,0.002678,0.000431,0.000470
10096000,0.0324,0.013523,0.002678,0.000431,0.000353
10097000,0.0324,0.013523,0.002678,0.000431,0.000235
10098000,0.0324,0.013523,0.002678,0.000431,0.000353
10099000,0.0324,0.013523,0.002678,0.000431,0.000470
10100000,0.0324,0.013523,0.002678,0.000431,0.000118
10101000,0.0324,0.013523,0.002678,0.000431,0.000353
10102000,0.0324,0.013523,0.002678,0.000431,0.000470
10103000,0.0324,0.013523,0.002678,0.000431,0.000353
10104000,0.0324,0.013523,0.002678,0.000431,0.000235
10105000,0.0324,0.013523,0.002678,0.000431,0.000353
10106000,0.0324,0.013523,0.002678,0.000431,0.000353
10107000,0.0324,0.013523,0.002678,0.000431,0.000235
10108000,0.0324,0.013523,0.002678,0.000431,0.000353
10109000,0.0324,0.013523,0.002678,0.000431,0.000470
10110000,0.0324,0.013523,0.002678,0.000431,0.000353
10111000,0.0324,0.013523,0.002678,0.000431,0.000235
10112000,0.0324,0.013523,0.002678,0.000431,0.000353
10113000,0.0324,0.013523,0.002678,0.000431,0.000353
10114000,0.0324,0.013523,0.002678,0.000431,0.000235
10115000,0.0324,0.013523,0.002678,0.000431,0.000353
10116000,0.0324,0.013523,0.002678,0.000431,0.000470
10117000,0.0324,0.013523,0.002678,0.000431,0.000353
10118000,0.0324,0.013523,0.002678,0.000431,0.000235
10119000,0.0324,0.013523,0.002678,0.000431,0.000353
10120000,0.0324,0.013523,0.002678,0.000431,0.000353
10121000,0.0324,0.013523,0.002678,0.000431,0.000235
10122000,0.0324,0.013523,0.002678,0.000431,0.000353
10123000,0.0324,0.013523,0.002678,0.000431,0.000470
10124000,0.0324,0.013523,0.002678,0.000431,0.000353
10125000,0.0324,0.013523,0.002678,0.000431,0.000235
10126000,0.0324,0.013523,0.002678,0.000431,0.000353
10127000,0.0324,0.013523,0.002678,0.000431,0.000353
10128000,0.0324,0.013523,0.002678,0.000431,0.000235
10129000,0.0324,0.013523,0.002678,0.000431,0.000353
10130000,0.0324,0.013523,0.002678,0.000431,0.000470
10131000,0.0324,0.013523,0.002678,0.000431,0.000353
10132000,0.0324,0.013523,0.002678,0.000431,0.000235
10133000,0.0324,0.013523,0.002678,0.000431,0.000353
10134000,0.0324,0.013523,0.002678,0.000431,0.000353
10135000,0.0324,0.013523,0.002678,0.000431,0.000235
10136000,0.0324,0.013523,0.002678,0.000431,0.000353
10137000,0.0324,0.013523,0.002678,0.000431,0.000470
10138000,0.0324,0.013523,0.002678,0.000431,0.000353
10139000,0.0324,0.013523,0.002678,0.000431,0.000235
10140000,0.0324,0.013523,0.002678,0.000431,0.000353
10141000,0.0324,0.013523,0.002678,0.000431,0.000353
10142000,0.0324,0.013523,0.002678,0.000431,0.000235
10143000,0.0324,0.013523,0.002678,0.000431,0.000353
10144000,0.0324,0.013523,0.002678,0.000431,0.000470
10145000,0.0324,0.013523,0.002678,0.000431,0.000353
10146000,0.0324,0.013523,0.002678,0.000431,0.000235
10147000,0.0324,0.013523,0.002678,0.000431,0.000353
10148000,0.0324,0.013523,0.002678,0.000431,0.000353
10149000,0.0324,0.013523,0.002678,0.000431,0.000235
10150000,0.0324,0.013523,0.002678,0.000431,0.000353
10151000,0.0324,0.013523,0.002678,0.000431,0.000470
10152000,0.0324,0.013523,0.002678,0.000431,0.000353
10153000,0.0324,0.013523,0.002678,0.000431,0.000235
10154000,0.0324,0.013523,0.002678,0.000431,0.000353
10155000,0.0324,0.013523,0.002678,0.000431,0.000353
10156000,0.0324,0.013523,0.002678,0.000431,0.000235
10157000,0.0324,0.013523,0.002678,0.000431,0.000353
10158000,0.0324,0.013523,0.002678,0.000431,0.000470
10159000,0.0324,0.013523,0.002678,0.000431,0.000353
10160000,0.0324,0.013523,0.002678,0.000431,0.000118
10161000,0.0324,0.013523,0.002678,0.000431,0.000470
10162000,0.0324,0.013523,0.002678,0.000431,0.000353
10163000,0.0324,0.013523,0.002678,0.000431,0.000235
10164000,0.0324,0.013523,0.002678,0.000431,0.000353
10165000,0.0324,0.013523,0.002678,0.000431,0.000470
10166000,0.0324,0.013523,0.002678,0.000431,0.000353
10167000,0.0324,0.013523,0.002678,0.000431,0.000118
10168000,0.0324,0.013523,0.002678,0.000431,0.000470
10169000,0.0324,0.013523,0.002678,0.000431,0.000353
10170000,0.0324,0.013523,0.002678,0.000431,0.000235
10171000,0.0324,0.013523,0.002678,0.000431,0.000353
10172000,0.0324,0.013523,0.002678,0.000431,0.000470
10173000,0.0324,0.013523,0.002678,0.000431,0.000353
10174000,0.0324,0.013523,0.002678,0.000431,0.000118
10175000,0.0324,0.013523,0.002678,0.000431,0.000470
10176000,0.0324,0.013523,0.002678,0.000431,0.000353
10177000,0.0324,0.013523,0.002678,0.000431,0.000235
10178000,0.0324,0.013523,0.002678,0.000431,0.000353
10179000,0.0324,0.013523,0.002678,0.000431,0.000470
10180000,0.0324,0.013523,0.002678,0.000431,0.000235
10181000,0.0324,0.013523,0.002678,0.000431,0.000235
10182000,0.0324,0.013523,0.002678,0.000431,0.000470
10183000,0.0324,0.013523,0.002678,0.000431,0.000353
10184000,0.0324,0.013523,0.002678,0.000431,0.000235
10185000,0.0324,0.013523,0.002678,0.000431,0.000353
10186000,0.0324,0.013523,0.002678,0.000431,0.000470
10187000,0.0324,0.013523,0.002678,0.000431,0.000235
10188000,0.0324,0.013523,0.002678,0.000431,0.000235
10189000,0.0324,0.013523,0.002678,0.000431,0.000470
10190000,0.0324,0.013523,0.002678,0.000431,0.000353
10191000,0.0324,0.013523,0.002678,0.000431,0.000235
10192000,0.0324,0.013523,0.002678,0.000431,0.000353
10193000,0.0324,0.013523,0.002678,0.000431,0.000470
10194000,0.0324,0.013523,0.002678,0.000431,0.000235
10195000,0.0324,0.013523,0.002678,0.000431,0.000235
10196000,0.0324,0.013523,0.002678,0.000431,0.000470
10197000,0.0324,0.013523,0.002678,0.000431,0.000353
10198000,0.0324,0.013523,0.002678,0.000431,0.000235
10199000,0.0324,0.013523,0.002678,0.000431,0.000353
10200000,0.0324,0.013523,0.002678,0.000431,0.000470
10201000,0.0324,0.013523,0.002678,0.000431,0.000235
10202000,0.0324,0.013523,0.002678,0.000431,0.000235
10203000,0.0324,0.013523,0.002678,0.000431,0.000470
10204000,0.0324,0.013523,0.002678,0.000431,0.000353
10205000,0.0324,0.013523,0.002678,0.000431,0.000235
10206000,0.0324,0.013523,0.002678,0.000431,0.000353
10207000,0.0324,0.013523,0.002678,0.000431,0.000470
10208000,0.0324,0.013523,0.002678,0.000431,0.000235
10209000,0.0324,0.013523,0.002678,0.000431,0.000235
10210000,0.0324,0.013523,0.002678,0.000431,0.000470
10211000,0.0324,0.013523,0.002678,0.000431,0.000353
10212000,0.0324,0.013523,0.002678,0.000431,0.000235
10213000,0.0324,0.013523,0.002678,0.000431,0.000353
10214000,0.0324,0.013523,0.002678,0.000431,0.000470
10215000,0.0324,0.013523,0.002678,0.000431,0.000235
10216000,0.0324,0.013523,0.002678,0.000431,0.000235
10217000,0.0324,0.013523,0.002678,0.000431,0.000470
10218000,0.0324,0.013523,0.002678,0.000431,0.000353
10219000,0.0324,0.013523,0.002678,0.000431,0.000235
10220000,0.0324,0.013523,0.002678,0.000431,0.000353
10221000,0.0324,0.013523,0.002678,0.000431,0.000470
10222000,0.0324,0.013523,0.002678,0.000431,0.000118
10223000,0.0324,0.013523,0.002678,0.000431,0.000353
10224000,0.0324,0.013523,0.002678,0.000431,0.000470
10225000,0.0324,0.013523,0.002678,0.000431,0.000353
10226000,0.0324,0.013523,0.002678,0.000431,0.000235
10227000,0.0324,0.013523,0.002678,0.000431,0.000353
10228000,0.0324,0.013523,0.002678,0.000431,0.000470
10229000,0.0324,0.013523,0.002678,0.000431,0.000118
10230000,0.0324,0.013523,0.002678,0.000431,0.000353
10231000,0.0324,0.013523,0.002678,0.000431,0.000470
10232000,0.0324,0.013523,0.002678,0.000431,0.000353
10233000,0.0324,0.013523,0.002678,0.000431,0.000235
10234000,0.0324,0.013523,0.002678,0.000431,0.000353
10235000,0.0324,0.013523,0.002678,0.000431,0.000470
10236000,0.0324,0.013523,0.002678,0.000431,0.000118
10237000,0.0324,0.013523,0.002678,0.000431,0.000353
10238000,0.0324,0.013523,0.002678,0.000431,0.000470
10239000,0.0324,0.013523,0.002678,0.000431,0.000353
10240000,0.0324,0.013523,0.002678,0.000431,0.000235
10241000,0.0324,0.013523,0.002678,0.000431,0.000353
10242000,0.0324,0.013523,0.002678,0.000431,0.000470
10243000,0.0324,0.013523,0.002678,0.000431,0.000118
10244000,0.0324,0.013523,0.002678,0.000431,0.000353
10245000,0.0324,0.013523,0.002678,0.000431,0.000470
10246000,0.0324,0.013523,0.002678,0.000431,0.000353
10247000,0.0324,0.013523,0.002678,0.000431,0.000235
10248000,0.0324,0.013523,0.002678,0.000431,0.000353
10249000,0.0324,0.013523,0.002678,0.000431,0.000353
10250000,0.0324,0.013523,0.002678,0.000431,0.000235
10251000,0.0324,0.013523,0.002678,0.000431,0.000353
10252000,0.0324,0.013523,0.002678,0.000431,0.000470
10253000,0.0324,0.013523,0.002678,0.000431,0.000353
10254000,0.0324,0.013523,0.002678,0.000431,0.000235
10255000,0.0324,0.013523,0.002678,0.000431,0.000353
10256000,0.0324,0.013523,0.002678,0.000431,0.000353
10257000,0.0324,0.013523,0.002678,0.000431,0.000235
10258000,0.0324,0.013523,0.002678,0.000431,0.000353
10259000,0.0324,0.013523,0.002678,0.000431,0.000470
10260000,0.0324,0.013523,0.002678,0.000431,0.000353
10261000,0.0324,0.013523,0.002678,0.000431,0.000235
10262000,0.0324,0.013523,0.002678,0.000431,0.000353
10263000,0.0324,0.013523,0.002678,0.000431,0.000353
10264000,0.0324,0.013523,0.002678,0.000431,0.000235
10265000,0.0324,0.013523,0.002678,0.000431,0.000353
10266000,0.0324,0.013523,0.002678,0.000431,0.000470
10267000,0.0324,0.013523,0.002678,0.000431,0.000353
10268000,0.0324,0.013523,0.002678,0.000431,0.000235
10269000,0.0324,0.013523,0.002678,0.000431,0.000353
10270000,0.0324,0.013523,0.002678,0.000431,0.000353
10271000,0.0324,0.013523,0.002678,0.000431,0.000235
10272000,0.0324,0.013523,0.002678,0.000431,0.000353
10273000,0.0324,0.013523,0.002678,0.000431,0.000470
10274000,0.0324,0.013523,0.002678,0.000431,0.000353
10275000,0.0324,0.013523,0.002678,0.000431,0.000235
10276000,0.0324,0.013523,0.002678,0.000431,0.000353
10277000,0.0324,0.013523,0.002678,0.000431,0.000353
10278000,0.0324,0.013523,0.002678,0.000431,0.000235
10279000,0.0324,0.013523,0.002678,0.000431,0.000353
10280000,0.0324,0.013523,0.002678,0.000431,0.000470
10281000,0.0324,0.013523,0.002678,0.000431,0.000353
10282000,0.0324,0.013523,0.002678,0.000431,0.000235
10283000,0.0324,0.013523,0.002678,0.000431,0.000353
10284000,0.0324,0.013523,0.002678,0.000431,0.000353
10285000,0.0324,0.013523,0.002678,0.000431,0.000235
10286000,0.0324,0.013523,0.002678,0.000431,0.000353
10287000,0.0324,0.013523,0.002678,0.000431,0.000470
10288000,0.0324,0.013523,0.002678,0.000431,0.000353
10289000,0.0324,0.013523,0.002678,0.000431,0.000235
10290000,0.0324,0.013523,0.002678,0.000431,0.000353
10291000,0.0324,0.013523,0.002678,0.000431,0.000353
10292000,0.0324,0.013523,0.002678,0.000431,0.000235
10293000,0.0324,0.013523,0.002678,0.000431,0.000353
10294000,0.0324,0.013523,0.002678,0.000431,0.000470
10295000,0.0324,0.013523,0.002678,0.000431,0.000353
10296000,0.0324,0.013523,0.002678,0.000431,0.000118
10297000,0.0324,0.013523,0.002678,0.000431,0.000470
10298000,0.0324,0.013523,0.002678,0.000431,0.000353
10299000,0.0324,0.013523,0.002678,0.000431,0.000235
10300000,0.0324,0.013523,0.002678,0.000431,0.000353
10301000,0.0324,0.013523,0.002678,0.000431,0.000470
10302000,0.0324,0.013523,0.002678,0.000431,0.000353
10303000,0.0324,0.013523,0.002678,0.000431,0.000118
10304000,0.0324,0.013523,0.002678,0.000431,0.000470
10305000,0.0324,0.013523,0.002678,0.000431,0.000353
10306000,0.0324,0.013523,0.002678,0.000431,0.000235
10307000,0.0324,0.013523,0.002678,0.000431,0.000353
10308000,0.0324,0.013523,0.002678,0.000431,0.000470
10309000,0.0324,0.013523,0.002678,0.000431,0.000353
10310000,0.0324,0.013523,0.002678,0.000431,0.000118
10311000,0.0324,0.013523,0.002678,0.000431,0.000470
10312000,0.0324,0.013523,0.002678,0.000431,0.000353
10313000,0.0324,0.013523,0.002678,0.000431,0.000235
10314000,0.0324,0.013523,0.002678,0.000431,0.000353
10315000,0.0324,0.013523,0.002678,0.000431,0.000470
10316000,0.0324,0.013523,0.002678,0.000431,0.000353
10317000,0.0324,0.013523,0.002678,0.000431,0.000118
10318000,0.0324,0.013523,0.002678,0.000431,0.000470
10319000,0.0324,0.013523,0.002678,0.000431,0.000353
10320000,0.0324,0.013523,0.002678,0.000431,0.000235
10321000,0.0324,0.013523,0.002678,0.000431,0.000353
10322000,0.0324,0.013523,0.002678,0.000431,0.000470
10323000,0.0324,0.013523,0.002678,0.000431,0.000235
10324000,0.0324,0.013523,0.002678,0.000431,0.000235
10325000,0.0324,0.013523,0.002678,0.000431,0.000470
10326000,0.0324,0.013523,0.002678,0.000431,0.000353
10327000,0.0324,0.013523,0.002678,0.000431,0.000235
10328000,0.0324,0.013523,0.002678,0.000431,0.000353
10329000,0.0324,0.013523,0.002678,0.000431,0.000470
10330000,0.0324,0.013523,0.002678,0.000431,0.000235
10331000,0.0324,0.013523,0.002678,0.000431,0.000235
10332000,0.0324,0.013523,0.002678,0.000431,0.000470
10333000,0.0324,0.013523,0.002678,0.000431,0.000353
10334000,0.0324,0.013523,0.002678,0.000431,0.000235
10335000,0.0324,0.013523,0.002678,0.000431,0.000353
10336000,0.0324,0.013523,0.002678,0.000431,0.000470
10337000,0.0324,0.013523,0.002678,0.000431,0.000235
10338000,0.0324,0.013523,0.002678,0.000431,0.000235
10339000,0.0324,0.013523,0.002678,0.000431,0.000470
10340000,0.0324,0.013523,0.002678,0.000431,0.000353
10341000,0.0324,0.013523,0.002678,0.000431,0.000235
10342000,0.0324,0.013523,0.002678,0.000431,0.000353
10343000,0.0324,0.013523,0.002678,0.000431,0.000470
10344000,0.0324,0.013523,0.002678,0.000431,0.000235
10345000,0.0324,0.013523,0.002678,0.000431,0.000235
10346000,0.0324,0.013523,0.002678,0.000431,0.000470
10347000,0.0324,0.013523,0.002678,0.000431,0.000353
10348000,0.0324,0.013523,0.002678,0.000431,0.000235
10349000,0.0324,0.013523,0.002678,0.000431,0.000353
10350000,0.0324,0.013523,0.002678,0.000431,0.000470
10351000,0.0324,0.013523,0.002678,0.000431,0.000235
10352000,0.0324,0.013523,0.002678,0.000431,0.000235
10353000,0.0324,0.013523,0.002678,0.000431,0.000470
10354000,0.0324,0.013523,0.002678,0.000431,0.000353
10355000,0.0324,0.013523,0.002678,0.000431,0.000235
10356000,0.0324,0.013523,0.002678,0.000431,0.000353
10357000,0.0324,0.013523,0.002678,0.000431,0.000470
10358000,0.0324,0.013523,0.002678,0.000431,0.000235
10359000,0.0324,0.013523,0.002678,0.000431,0.000235
10360000,0.0324,0.013523,0.002678,0.000431,0.000470
10361000,0.0324,0.013523,0.002678,0.000431,0.000353
10362000,0.0324,0.013523,0.002678,0.000431,0.000235
10363000,0.0324,0.013523,0.002678,0.000431,0.000353
10364000,0.0324,0.013523,0.002678,0.000431,0.000470
10365000,0.0324,0.013523,0.002678,0.000431,0.000118
10366000,0.0324,0.013523,0.002678,0.000431,0.000353
10367000,0.0324,0.013523,0.002678,0.000431,0.000470
10368000,0.0324,0.013523,0.002678,0.000431,0.000353
10369000,0.0324,0.013523,0.002678,0.000431,0.000235
10370000,0.0324,0.013523,0.002678,0.000431,0.000353
10371000,0.0324,0.013523,0.002678,0.000431,0.000470
10372000,0.0324,0.013523,0.002678,0.000431,0.000118
10373000,0.0324,0.013523,0.002678,0.000431,0.000353
10374000,0.0324,0.013523,0.002678,0.000431,0.000470
10375000,0.0324,0.013523,0.002678,0.000431,0.000353
10376000,0.0324,0.013523,0.002678,0.000431,0.000235
10377000,0.0324,0.013523,0.002678,0.000431,0.000353
10378000,0.0324,0.013523,0.002678,0.000431,0.000470
10379000,0.0324,0.013523,0.002678,0.000431,0.000118
10380000,0.0324,0.013523,0.002678,0.000431,0.000353
10381000,0.0324,0.013523,0.002678,0.000431,0.000470
10382000,0.0324,0.013523,0.002678,0.000431,0.000353
10383000,0.0324,0.013523,0.002678,0.000431,0.000235
10384000,0.0324,0.013523,0.002678,0.000431,0.000353
10385000,0.0324,0.013523,0.002678,0.000431,0.000353
10386000,0.0324,0.013523,0.002678,0.000431,0.000235
10387000,0.0324,0.013523,0.002678,0.000431,0.000353
10388000,0.0324,0.013523,0.002678,0.000431,0.000470
10389000,0.0324,0.013523,0.002678,0.000431,0.000353
10390000,0.0324,0.013523,0.002678,0.000431,0.000235
10391000,0.0324,0.013523,0.002678,0.000431,0.000353
10392000,0.0324,0.013523,0.002678,0.000431,0.000353
10393000,0.0324,0.013523,0.002678,0.000431,0.000235
10394000,0.0324,0.013523,0.002678,0.000431,0.000353
10395000,0.0324,0.013523,0.002678,0.000431,0.000470
10396000,0.0324,0.013523,0.002678,0.000431,0.000353
10397000,0.0324,0.013523,0.002678,0.000431,0.000235
10398000,0.0324,0.013523,0.002678,0.000431,0.000353
10399000,0.0324,0.013523,0.002678,0.000431,0.000353
10400000,0.0324,0.013523,0.002678,0.000431,0.000235
10401000,0.0324,0.013523,0.002678,0.000431,0.000353
10402000,0.0324,0.013523,0.002678,0.000431,0.000470
10403000,0.0324,0.013523,0.002678,0.000431,0.000353
10404000,0.0324,0.013523,0.002678,0.000431,0.000235
10405000,0.0324,0.013523,0.002678,0.000431,0.000353
10406000,0.0324,0.013523,0.002678,0.000431,0.000353
10407000,0.0324,0.013523,0.002678,0.000431,0.000235
10408000,0.0324,0.013523,0.002678,0.000431,0.000353
10409000,0.0324,0.013523,0.002678,0.000431,0.000470
10410000,0.0324,0.013523,0.002678,0.000431,0.000353
10411000,0.0324,0.013523,0.002678,0.000431,0.000235
10412000,0.0324,0.013523,0.002678,0.000431,0.000353
10413000,0.0324,0.013523,0.002678,0.000431,0.000353
10414000,0.0324,0.013523,0.002678,0.000431,0.000235
10415000,0.0324,0.013523,0.002678,0.000431,0.000353
10416000,0.0324,0.013523,0.002678,0.000431,0.000470
10417000,0.0324,0.013523,0.002678,0.000431,0.000353
10418000,0.0324,0.013523,0.002678,0.000431,0.000235
10419000,0.0324,0.013523,0.002678,0.000431,0.000353
10420000,0.0324,0.013523,0.002678,0.000431,0.000353
10421000,0.0324,0.013523,0.002678,0.000431,0.000235
10422000,0.0324,0.013523,0.002678,0.000431,0.000353
10423000,0.0324,0.013523,0.002678,0.000431,0.000470
10424000,0.0324,0.013523,0.002678,0.000431,0.000353
10425000,0.0324,0.013523,0.002678,0.000431,0.000235
10426000,0.0324,0.013523,0.002678,0.000431,0.000353
10427000,0.0324,0.013523,0.002678,0.000431,0.000353
10428000,0.0324,0.013523,0.002678,0.000431,0.000235
10429000,0.0324,0.013523,0.002678,0.000431,0.000353
10430000,0.0324,0.013523,0.002678,0.000431,0.000470
10431000,0.0324,0.013523,0.002678,0.000431,0.000353
10432000,0.0324,0.013523,0.002678,0.000431,0.000235
10433000,0.0324,0.013523,0.002678,0.000431,0.000353
10434000,0.0324,0.013523,0.002678,0.000431,0.000353
10435000,0.0324,0.013523,0.002678,0.000431,0.000235
10436000,0.0324,0.013523,0.002678,0.000431,0.000353
10437000,0.0324,0.013523,0.002678,0.000431,0.000470
10438000,0.0324,0.013523,0.002678,0.000431,0.000353
10439000,0.0324,0.013523,0.002678,0.000431,0.000118
10440000,0.0324,0.013523,0.002678,0.000431,0.000470
10441000,0.0324,0.013523,0.002678,0.000431,0.000353
10442000,0.0324,0.013523,0.002678,0.000431,0.000235
10443000,0.0324,0.013523,0.002678,0.000431,0.000353
10444000,0.0324,0.013523,0.002678,0.000431,0.000470
10445000,0.0324,0.013523,0.002678,0.000431,0.000353
10446000,0.0324,0.013523,0.002678,0.000431,0.000118
10447000,0.0324,0.013523,0.002678,0.000431,0.000470
10448000,0.0324,0.013523,0.002678,0.000431,0.000353
10449000,0.0324,0.013523,0.002678,0.000431,0.000235
10450000,0.0324,0.013523,0.002678,0.000431,0.000353
10451000,0.0324,0.013523,0.002678,0.000431,0.000470
10452000,0.0324,0.013523,0.002678,0.000431,0.000353
10453000,0.0324,0.013523,0.002678,0.000431,0.000118
10454000,0.0324,0.013523,0.002678,0.000431,0.000470
10455000,0.0324,0.013523,0.002678,0.000431,0.000353
10456000,0.0324,0.013523,0.002678,0.000431,0.000235
10457000,0.0324,0.013523,0.002678,0.000431,0.000353
10458000,0.0324,0.013523,0.002678,0.000431,0.000470
10459000,0.0324,0.013523,0.002678,0.000431,0.000235
10460000,0.0324,0.013523,0.002678,0.000431,0.000235
10461000,0.0324,0.013523,0.002678,0.000431,0.000470
10462000,0.0324,0.013523,0.002678,0.000431,0.000353
10463000,0.0324,0.013523,0.002678,0.000431,0.000235
10464000,0.0324,0.013523,0.002678,0.000431,0.000353
10465000,0.0324,0.013523,0.002678,0.000431,0.000470
10466000,0.0324,0.013523,0.002678,0.000431,0.000235
10467000,0.0324,0.013523,0.002678,0.000431,0.000235
10468000,0.0324,0.013523,0.002678,0.000431,0.000470
10469000,0.0324,0.013523,0.002678,0.000431,0.000353
10470000,0.0324,0.013523,0.002678,0.000431,0.000235
10471000,0.0324,0.013523,0.002678,0.000431,0.000353
10472000,0.0324,0.013523,0.002678,0.000431,0.000470
10473000,0.0324,0.013523,0.002678,0.000431,0.000235
10474000,0.0324,0.013523,0.002678,0.000431,0.000235
10475000,0.0324,0.013523,0.002678,0.000431,0.000470
10476000,0.0324,0.013523,0.002678,0.000431,0.000353
10477000,0.0324,0.013523,0.002678,0.000431,0.000235
10478000,0.0324,0.013523,0.002678,0.000431,0.000353
10479000,0.0324,0.013523,0.002678,0.000431,0.000470
10480000,0.0324,0.013523,0.002678,0.000431,0.000235
10481000,0.0324,0.013523,0.002678,0.000431,0.000235
10482000,0.0324,0.013523,0.002678,0.000431,0.000470
10483000,0.0324,0.013523,0.002678,0.000431,0.000353
10484000,0.0324,0.013523,0.002678,0.000431,0.000235
10485000,0.0324,0.013523,0.002678,0.000431,0.000353
10486000,0.0324,0.013523,0.002678,0.000431,0.000470
10487000,0.0324,0.013523,0.002678,0.000431,0.000235
10488000,0.0324,0.013523,0.002678,0.000431,0.000235
10489000,0.0324,0.013523,0.002678,0.000431,0.000470
10490000,0.0324,0.013523,0.002678,0.000431,0.000353
10491000,0.0324,0.013523,0.002678,0.000431,0.000235
10492000,0.0324,0.013523,0.002678,0.000431,0.000353
10493000,0.0324,0.013523,0.002678,0.000431,0.000470
10494000,0.0324,0.013523,0.002678,0.000431,0.000235
10495000,0.0324,0.013523,0.002678,0.000431,0.000235
10496000,0.0324,0.013523,0.002678,0.000431,0.000470
10497000,0.0324,0.013523,0.002678,0.000431,0.000353
10498000,0.0324,0.013523,0.002678,0.000431,0.000235
10499000,0.0324,0.013523,0.002678,0.000431,0.000353
10500000,0.0324,0.013523,0.002678,0.000431,0.000470
10501000,0.0324,0.013523,0.002678,0.000431,0.000118
10502000,0.0324,0.013523,0.002678,0.000431,0.000353
10503000,0.0324,0.013523,0.002678,0.000431,0.000470
10504000,0.0324,0.013523,0.002678,0.000431,0.000353
10505000,0.0324,0.013523,0.002678,0.000431,0.000235
10506000,0.0324,0.013523,0.002678,0.000431,0.000353
10507000,0.0324,0.013523,0.002678,0.000431,0.000470
10508000,0.0324,0.013523,0.002678,0.000431,0.000118
10509000,0.0324,0.013523,0.002678,0.000431,0.000353
10510000,0.0324,0.013523,0.002678,0.000431,0.000470
10511000,0.0324,0.013523,0.002678,0.000431,0.000353
10512000,0.0324,0.013523,0.002678,0.000431,0.000235
10513000,0.0324,0.013523,0.002678,0.000431,0.000353
10514000,0.0324,0.013523,0.002678,0.000431,0.000470
10515000,0.0324,0.013523,0.002678,0.000431,0.000118
10516000,0.0324,0.013523,0.002678,0.000431,0.000353
10517000,0.0324,0.013523,0.002678,0.000431,0.000470
10518000,0.0324,0.013523,0.002678,0.000431,0.000353
10519000,0.0324,0.013523,0.002678,0.000431,0.000235
10520000,0.0324,0.013523,0.002678,0.000431,0.000353
10521000,0.0324,0.013523,0.002678,0.000431,0.000470
10522000,0.0324,0.013523,0.002678,0.000431,0.000118
10523000,0.0324,0.013523,0.002678,0.000431,0.000353
10524000,0.0324,0.013523,0.002678,0.000431,0.000470
10525000,0.0324,0.013523,0.002678,0.000431,0.000353
10526000,0.0324,0.013523,0.002678,0.000431,0.000235
10527000,0.0324,0.013523,0.002678,0.000431,0.000353
10528000,0.0324,0.013523,0.002678,0.000431,0.000353
10529000,0.0324,0.013523,0.002678,0.000431,0.000235
10530000,0.0324,0.013523,0.002678,0.000431,0.000353
10531000,0.0324,0.013523,0.002678,0.000431,0.000470
10532000,0.0324,0.013523,0.002678,0.000431,0.000353
10533000,0.0324,0.013523,0.002678,0.000431,0.000235
10534000,0.0324,0.013523,0.002678,0.000431,0.000353
10535000,0.0324,0.013523,0.002678,0.000431,0.000353
10536000,0.0324,0.013523,0.002678,0.000431,0.000235
10537000,0.0324,0.013523,0.002678,0.000431,0.000353
10538000,0.0324,0.013523,0.002678,0.000431,0.000470
10539000,0.0324,0.013523,0.002678,0.000431,0.000353
10540000,0.0324,0.013523,0.002678,0.000431,0.000235
10541000,0.0324,0.013523,0.002678,0.000431,0.000353
10542000,0.0324,0.013523,0.002678,0.000431,0.000353
10543000,0.0324,0.013523,0.002678,0.000431,0.000235
10544000,0.0324,0.013523,0.002678,0.000431,0.000353
10545000,0.0324,0.013523,0.002678,0.000431,0.000470
10546000,0.0324,0.013523,0.002678,0.000431,0.000353
10547000,0.0324,0.013523,0.002678,0.000431,0.000235
10548000,0.0324,0.013523,0.002678,0.000431,0.000353
10549000,0.0324,0.013523,0.002678,0.000431,0.000353
10550000,0.0324,0.013523,0.002678,0.000431,0.000235
10551000,0.0324,0.013523,0.002678,0.000431,0.000353
10552000,0.0324,0.013523,0.002678,0.000431,0.000470
10553000,0.0324,0.013523,0.002678,0.000431,0.000353
10554000,0.0324,0.013523,0.002678,0.000431,0.000235
10555000,0.0324,0.013523,0.002678,0.000431,0.000353
10556000,0.0324,0.013523,0.002678,0.000431,0.000353
10557000,0.0324,0.013523,0.002678,0.000431,0.000235
10558000,0.0324,0.013523,0.002678,0.000431,0.000353
10559000,0.0324,0.013523,0.002678,0.000431,0.000470
10560000,0.0324,0.013523,0.002678,0.000431,0.000353
10561000,0.0324,0.013523,0.002678,0.000431,0.000118
10562000,0.0324,0.013523,0.002678,0.000431,0.000470
10563000,0.0324,0.013523,0.002678,0.000431,0.000353
10564000,0.0324,0.013523,0.002678,0.000431,0.000235
10565000,0.0324,0.013523,0.002678,0.000431,0.000353
10566000,0.0324,0.013523,0.002678,0.000431,0.000470
10567000,0.0324,0.013523,0.002678,0.000431,0.000235
10568000,0.0324,0.013523,0.002678,0.000431,0.000235
10569000,0.0324,0.013523,0.002678,0.000431,0.000470
10570000,0.0324,0.013523,0.002678,0.000431,0.000353
10571000,0.0324,0.013523,0.002678,0.000431,0.000235
10572000,0.0324,0.013523,0.002678,0.000431,0.000353
10573000,0.0324,0.013523,0.002678,0.000431,0.000470
10574000,0.0324,0.013523,0.002678,0.000431,0.000235
10575000,0.0324,0.013523,0.002678,0.000431,0.000235
10576000,0.0324,0.013523,0.002678,0.000431,0.000470
10577000,0.0324,0.013523,0.002678,0.000431,0.000353
10578000,0.0324,0.013523,0.002678,0.000431,0.000235
10579000,0.0324,0.013523,0.002678,0.000431,0.000353
10580000,0.0324,0.013523,0.002678,0.000431,0.000470
10581000,0.0324,0.013523,0.002678,0.000431,0.000118
10582000,0.0324,0.013523,0.002678,0.000431,0.000353
10583000,0.0324,0.013523,0.002678,0.000431,0.000470
10584000,0.0324,0.013523,0.002678,0.000431,0.000353
10585000,0.0324,0.013523,0.002678,0.000431,0.000235
10586000,0.0324,0.013523,0.002678,0.000431,0.000353
10587000,0.0324,0.013523,0.002678,0.000431,0.000353
10588000,0.0324,0.013523,0.002678,0.000431,0.000235
10589000,0.0324,0.013523,0.002678,0.000431,0.000353
10590000,0.0324,0.013523,0.002678,0.000431,0.000470
10591000,0.0324,0.013523,0.002678,0.000431,0.000353
10592000,0.0324,0.013523,0.002678,0.000431,0.000235
10593000,0.0324,0.013523,0.002678,0.000431,0.000353
10594000,0.0324,0.013523,0.002678,0.000431,0.000353
10595000,0.0324,0.013523,0.002678,0.000431,0.000235
10596000,0.0324,0.013523,0.002678,0.000431,0.000353
10597000,0.0324,0.013523,0.002678,0.000431,0.000470
10598000,0.0324,0.013523,0.002678,0.000431,0.000353
10599000,0.0324,0.013523,0.002678,0.000431,0.000235
10600000,0.0324,0.013523,0.002678,0.000431,0.000353
10601000,0.0324,0.013523,0.002678,0.000431,0.000353
10602000,0.0324,0.013523,0.002678,0.000431,0.000235
10603000,0.0324,0.013523,0.002678,0.000431,0.000353
10604000,0.0324,0.013523,0.002678,0.000431,0.000470
10605000,0.0324,0.013523,0.002678,0.000431,0.000353
10606000,0.0324,0.013523,0.002678,0.000431,0.000118
10607000,0.0324,0.013523,0.002678,0.000431,0.000470
10608000,0.0324,0.013523,0.002678,0.000431,0.000353
10609000,0.0324,0.013523,0.002678,0.000431,0.000235
10610000,0.0324,0.013523,0.002678,0.000431,0.000353
10611000,0.0324,0.013523,0.002678,0.000431,0.000470
10612000,0.0324,0.013523,0.002678,0.000431,0.000235
10613000,0.0324,0.013523,0.002678,0.000431,0.000235
10614000,0.0324,0.013523,0.002678,0.000431,0.000470
10615000,0.0324,0.013523,0.002678,0.000431,0.000353
10616000,0.0324,0.013523,0.002678,0.000431,0.000235
10617000,0.0324,0.013523,0.002678,0.000431,0.000353
10618000,0.0324,0.013523,0.002678,0.000431,0.000470
10619000,0.0324,0.013523,0.002678,0.000431,0.000235
10620000,0.0324,0.013523,0.002678,0.000431,0.000235
10621000,0.0324,0.013523,0.002678,0.000431,0.000470
10622000,0.0324,0.013523,0.002678,0.000431,0.000353
10623000,0.0324,0.013523,0.002678,0.000431,0.000235
10624000,0.0324,0.013523,0.002678,0.000431,0.000353
10625000,0.0324,0.013523,0.002678,0.000431,0.000470
10626000,0.0324,0.013523,0.002678,0.000431,0.000118
10627000,0.0324,0.013523,0.002678,0.000431,0.000353
10628000,0.0324,0.013523,0.002678,0.000431,0.000470
10629000,0.0324,0.013523,0.002678,0.000431,0.000353
10630000,0.0324,0.013523,0.002678,0.000431,0.000235
10631000,0.0324,0.013523,0.002678,0.000431,0.000353
10632000,0.0324,0.013523,0.002678,0.000431,0.000353
10633000,0.0324,0.013523,0.002678,0.000431,0.000235
10634000,0.0324,0.013523,0.002678,0.000431,0.000353
10635000,0.0324,0.013523,0.002678,0.000431,0.000470
10636000,0.0324,0.013523,0.002678,0.000431,0.000353
10637000,0.0324,0.013523,0.002678,0.000431,0.000235
10638000,0.0324,0.013523,0.002678,0.000431,0.000353
10639000,0.0324,0.013523,0.002678,0.000431,0.000353
10640000,0.0324,0.013523,0.002678,0.000431,0.000235
10641000,0.0324,0.013523,0.002678,0.000431,0.000353
10642000,0.0324,0.013523,0.002678,0.000431,0.000470
10643000,0.0324,0.013523,0.002678,0.000431,0.000353
10644000,0.0324,0.013523,0.002678,0.000431,0.000235
10645000,0.0324,0.013523,0.002678,0.000431,0.000353
10646000,0.0324,0.013523,0.002678,0.000431,0.000353
10647000,0.0324,0.013523,0.002678,0.000431,0.000235
10648000,0.0324,0.013523,0.002678,0.000431,0.000353
10649000,0.0324,0.013523,0.002678,0.000431,0.000470
10650000,0.0324,0.013523,0.002678,0.000431,0.000353
10651000,0.0324,0.013523,0.002678,0.000431,0.000118
10652000,0.0324,0.013523,0.002678,0.000431,0.000470
10653000,0.0324,0.013523,0.002678,0.000431,0.000353
10654000,0.0324,0.013523,0.002678,0.000431,0.000235
10655000,0.0324,0.013523,0.002678,0.000431,0.000353
10656000,0.0324,0.013523,0.002678,0.000431,0.000470
10657000,0.0324,0.013523,0.002678,0.000431,0.000235
10658000,0.0324,0.013523,0.002678,0.000431,0.000235
10659000,0.0324,0.013523,0.002678,0.000431,0.000470
10660000,0.0324,0.013523,0.002678,0.000431,0.000353
10661000,0.0324,0.013523,0.002678,0.000431,0.000235
10662000,0.0324,0.013523,0.002678,0.000431,0.000353
10663000,0.0324,0.013523,0.002678,0.000431,0.000470
10664000,0.0324,0.013523,0.002678,0.000431,0.000118
10665000,0.0324,0.013523,0.002678,0.000431,0.000353
10666000,0.0324,0.013523,0.002678,0.000431,0.000470
10667000,0.0324,0.013523,0.002678,0.000431,0.000353
10668000,0.0324,0.013523,0.002678,0.000431,0.000235
10669000,0.0324,0.013523,0.002678,0.000431,0.000353
10670000,0.0324,0.013523,0.002678,0.000431,0.000470
10671000,0.0324,0.013523,0.002678,0.000431,0.000118
10672000,0.0324,0.013523,0.002678,0.000431,0.000353
10673000,0.0324,0.013523,0.002678,0.000431,0.000470
10674000,0.0324,0.013523,0.002678,0.000431,0.000353
10675000,0.0324,0.013523,0.002678,0.000431,0.000235
10676000,0.0324,0.013523,0.002678,0.000431,0.000353
10677000,0.0324,0.013523,0.002678,0.000431,0.000353
10678000,0.0324,0.013523,0.002678,0.000431,0.000235
10679000,0.0324,0.013523,0.002678,0.000431,0.000353
10680000,0.0324,0.013523,0.002678,0.000431,0.000470
10681000,0.0324,0.013523,0.002678,0.000431,0.000353
10682000,0.0324,0.013523,0.002678,0.000431,0.000235
10683000,0.0324,0.013523,0.002678,0.000431,0.000353
10684000,0.0324,0.013523,0.002678,0.000431,0.000353
10685000,0.0324,0.013523,0.002678,0.000431,0.000235
10686000,0.0324,0.013523,0.002678,0.000431,0.000353
10687000,0.0324,0.013523,0.002678,0.000431,0.000470
10688000,0.0324,0.013523,0.002678,0.000431,0.000353
10689000,0.0324,0.013523,0.002678,0.000431,0.000118
10690000,0.0324,0.013523,0.002678,0.000431,0.000470
10691000,0.0324,0.013523,0.002678,0.000431,0.000353
10692000,0.0324,0.013523,0.002678,0.000431,0.000235
10693000,0.0324,0.013523,0.002678,0.000431,0.000353
10694000,0.0324,0.013523,0.002678,0.000431,0.000470
10695000,0.0324,0.013523,0.002678,0.000431,0.000353
10696000,0.0324,0.013523,0.002678,0.000431,0.000118
10697000,0.0324,0.013523,0.002678,0.000431,0.000470
10698000,0.0324,0.013523,0.002678,0.000431,0.000353
10699000,0.0324,0.013523,0.002678,0.000431,0.000235
10700000,0.0324,0.013523,0.002678,0.000431,0.000353
10701000,0.0324,0.013523,0.002678,0.000431,0.000470
10702000,0.0324,0.013523,0.002678,0.000431,0.000353
10703000,0.0324,0.013523,0.002678,0.000431,0.000118
10704000,0.0324,0.013523,0.002678,0.000431,0.000470
10705000,0.0324,0.013523,0.002678,0.000431,0.000353
10706000,0.0324,0.013523,0.002678,0.000431,0.000235
10707000,0.0324,0.013523,0.002678,0.000431,0.000353
10708000,0.0324,0.013523,0.002678,0.000431,0.000470
10709000,0.0324,0.013523,0.002678,0.000431,0.000235
10710000,0.0324,0.013523,0.002678,0.000431,0.000235
10711000,0.0324,0.013523,0.002678,0.000431,0.000470
10712000,0.0324,0.013523,0.002678,0.000431,0.000353
10713000,0.0324,0.013523,0.002678,0.000431,0.000235
10714000,0.0324,0.013523,0.002678,0.000431,0.000353
10715000,0.0324,0.013523,0.002678,0.000431,0.000470
10716000,0.0324,0.013523,0.002678,0.000431,0.000235
10717000,0.0324,0.013523,0.002678,0.000431,0.000235
10718000,0.0324,0.013523,0.002678,0.000431,0.000470
10719000,0.0324,0.013523,0.002678,0.000431,0.000353
10720000,0.0324,0.013523,0.002678,0.000431,0.000235
10721000,0.0324,0.013523,0.002678,0.000431,0.000353
10722000,0.0324,0.013523,0.002678,0.000431,0.000470
10723000,0.0324,0.013523,0.002678,0.000431,0.000235
10724000,0.0324,0.013523,0.002678,0.000431,0.000235
10725000,0.0324,0.013523,0.002678,0.000431,0.000470
10726000,0.0324,0.013523,0.002678,0.000431,0.000353
10727000,0.0324,0.013523,0.002678,0.000431,0.000235
10728000,0.0324,0.013523,0.002678,0.000431,0.000353
10729000,0.0324,0.013523,0.002678,0.000431,0.000470
10730000,0.0324,0.013523,0.002678,0.000431,0.000235
10731000,0.0324,0.013523,0.002678,0.000431,0.000235
10732000,0.0324,0.013523,0.002678,0.000431,0.000470
10733000,0.0324,0.013523,0.002678,0.000431,0.000353
10734000,0.0324,0.013523,0.002678,0.000431,0.000235
10735000,0.0324,0.013523,0.002678,0.000431,0.000353
10736000,0.0324,0.013523,0.002678,0.000431,0.000470
10737000,0.0324,0.013523,0.002678,0.000431,0.000235
10738000,0.0324,0.013523,0.002678,0.000431,0.000235
10739000,0.0324,0.013523,0.002678,0.000431,0.000470
10740000,0.0324,0.013523,0.002678,0.000431,0.000353
10741000,0.0324,0.013523,0.002678,0.000431,0.000235
10742000,0.0324,0.013523,0.002678,0.000431,0.000353
10743000,0.0324,0.013523,0.002678,0.000431,0.000470
10744000,0.0324,0.013523,0.002678,0.000431,0.000235
10745000,0.0324,0.013523,0.002678,0.000431,0.000235
10746000,0.0324,0.013523,0.002678,0.000431,0.000470
10747000,0.0324,0.013523,0.002678,0.000431,0.000353
10748000,0.0324,0.013523,0.002678,0.000431,0.000235
10749000,0.0324,0.013523,0.002678,0.000431,0.000353
10750000,0.0324,0.013523,0.002678,0.000431,0.000470
10751000,0.0324,0.013523,0.002678,0.000431,0.000118
10752000,0.0324,0.013523,0.002678,0.000431,0.000353
10753000,0.0324,0.013523,0.002678,0.000431,0.000470
10754000,0.0324,0.013523,0.002678,0.000431,0.000353
10755000,0.0324,0.013523,0.002678,0.000431,0.000235
10756000,0.0324,0.013523,0.002678,0.000431,0.000353
10757000,0.0324,0.013523,0.002678,0.000431,0.000470
10758000,0.0324,0.013523,0.002678,0.000431,0.000118
10759000,0.0324,0.013523,0.002678,0.000431,0.000353
10760000,0.0324,0.013523,0.002678,0.000431,0.000470
10761000,0.0324,0.013523,0.002678,0.000431,0.000353
10762000,0.0324,0.013523,0.002678,0.000431,0.000235
10763000,0.0324,0.013523,0.002678,0.000431,0.000353
10764000,0.0324,0.013523,0.002678,0.000431,0.000470
10765000,0.0324,0.013523,0.002678,0.000431,0.000118
10766000,0.0324,0.013523,0.002678,0.000431,0.000353
10767000,0.0324,0.013523,0.002678,0.000431,0.000470
10768000,0.0324,0.013523,0.002678,0.000431,0.000353
10769000,0.0324,0.013523,0.002678,0.000431,0.000235
10770000,0.0324,0.013523,0.002678,0.000431,0.000353
10771000,0.0324,0.013523,0.002678,0.000431,0.000470
10772000,0.0324,0.013523,0.002678,0.000431,0.000118
10773000,0.0324,0.013523,0.002678,0.000431,0.000353
10774000,0.0324,0.013523,0.002678,0.000431,0.000470
10775000,0.0324,0.013523,0.002678,0.000431,0.000353
10776000,0.0324,0.013523,0.002678,0.000431,0.000235
10777000,0.0324,0.013523,0.002678,0.000431,0.000353
10778000,0.0324,0.013523,0.002678,0.000431,0.000353
10779000,0.0324,0.013523,0.002678,0.000431,0.000235
10780000,0.0324,0.013523,0.002678,0.000431,0.000353
10781000,0.0324,0.013523,0.002678,0.000431,0.000470
10782000,0.0324,0.013523,0.002678,0.000431,0.000353
10783000,0.0324,0.013523,0.002678,0.000431,0.000235
10784000,0.0324,0.013523,0.002678,0.000431,0.000353
10785000,0.0324,0.013523,0.002678,0.000431,0.000353
10786000,0.0324,0.013523,0.002678,0.000431,0.000235
10787000,0.0324,0.013523,0.002678,0.000431,0.000353
10788000,0.0324,0.013523,0.002678,0.000431,0.000470
10789000,0.0324,0.013523,0.002678,0.000431,0.000353
10790000,0.0324,0.013523,0.002678,0.000431,0.000235
10791000,0.0324,0.013523,0.002678,0.000431,0.000353
10792000,0.0324,0.013523,0.002678,0.000431,0.000353
10793000,0.0324,0.013523,0.002678,0.000431,0.000235
10794000,0.0324,0.013523,0.002678,0.000431,0.000353
10795000,0.0324,0.013523,0.002678,0.000431,0.000470
10796000,0.0324,0.013523,0.002678,0.000431,0.000353
10797000,0.0324,0.013523,0.002678,0.000431,0.000235
10798000,0.0324,0.013523,0.002678,0.000431,0.000353
10799000,0.0324,0.013523,0.002678,0.000431,0.000353
10800000,0.0324,0.013523,0.002678,0.000431,0.000235
10801000,0.0324,0.013523,0.002678,0.000431,0.000353
10802000,0.0324,0.013523,0.002678,0.000431,0.000470
10803000,0.0324,0.013523,0.002678,0.000431,0.000353
10804000,0.0324,0.013523,0.002678,0.000431,0.000235
10805000,0.0324,0.013523,0.002678,0.000431,0.000353
10806000,0.0324,0.013523,0.002678,0.000431,0.000353
10807000,0.0324,0.013523,0.002678,0.000431,0.000235
10808000,0.0324,0.013523,0.002678,0.000431,0.000353
10809000,0.0324,0.013523,0.002678,0.000431,0.000470
10810000,0.0324,0.013523,0.002678,0.000431,0.000353
10811000,0.0324,0.013523,0.002678,0.000431,0.000235
10812000,0.0324,0.013523,0.002678,0.000431,0.000353
10813000,0.0324,0.013523,0.002678,0.000431,0.000353
10814000,0.0324,0.013523,0.002678,0.000431,0.000235
10815000,0.0324,0.013523,0.002678,0.000431,0.000353
10816000,0.0324,0.013523,0.002678,0.000431,0.000470
10817000,0.0324,0.013523,0.002678,0.000431,0.000353
10818000,0.0324,0.013523,0.002678,0.000431,0.000235
10819000,0.0324,0.013523,0.002678,0.000431,0.000353
10820000,0.0324,0.013523,0.002678,0.000431,0.000353
10821000,0.0324,0.013523,0.002678,0.000431,0.000235
10822000,0.0324,0.013523,0.002678,0.000431,0.000353
10823000,0.0324,0.013523,0.002678,0.000431,0.000470
10824000,0.0324,0.013523,0.002678,0.000431,0.000353
10825000,0.0324,0.013523,0.002678,0.000431,0.000118
10826000,0.0324,0.013523,0.002678,0.000431,0.000470
10827000,0.0324,0.013523,0.002678,0.000431,0.000353
10828000,0.0324,0.013523,0.002678,0.000431,0.000235
10829000,0.0324,0.013523,0.002678,0.000431,0.000353
10830000,0.0324,0.013523,0.002678,0.000431,0.000470
10831000,0.0324,0.013523,0.002678,0.000431,0.000353
10832000,0.0324,0.013523,0.002678,0.000431,0.000118
10833000,0.0324,0.013523,0.002678,0.000431,0.000470
10834000,0.0324,0.013523,0.002678,0.000431,0.000353
10835000,0.0324,0.013523,0.002678,0.000431,0.000235
10836000,0.0324,0.013523,0.002678,0.000431,0.000353
10837000,0.0324,0.013523,0.002678,0.000431,0.000470
10838000,0.0324,0.013523,0.002678,0.000431,0.000235
10839000,0.0324,0.013523,0.002678,0.000431,0.000235
10840000,0.0324,0.013523,0.002678,0.000431,0.000470
10841000,0.0324,0.013523,0.002678,0.000431,0.000353
10842000,0.0324,0.013523,0.002678,0.000431,0.000235
10843000,0.0324,0.013523,0.002678,0.000431,0.000353
10844000,0.0324,0.013523,0.002678,0.000431,0.000470
10845000,0.0324,0.013523,0.002678,0.000431,0.000235
10846000,0.0324,0.013523,0.002678,0.000431,0.000235
10847000,0.0324,0.013523,0.002678,0.000431,0.000470
10848000,0.0324,0.013523,0.002678,0.000431,0.000353
10849000,0.0324,0.013523,0.002678,0.000431,0.000235
10850000,0.0324,0.013523,0.002678,0.000431,0.000353
10851000,0.0324,0.013523,0.002678,0.000431,0.000470
10852000,0.0324,0.013523,0.002678,0.000431,0.000118
10853000,0.0324,0.013523,0.002678,0.000431,0.000353
10854000,0.0324,0.013523,0.002678,0.000431,0.000470
10855000,0.0324,0.013523,0.002678,0.000431,0.000353
10856000,0.0324,0.013523,0.002678,0.000431,0.000235
10857000,0.0324,0.013523,0.002678,0.000431,0.000353
10858000,0.0324,0.013523,0.002678,0.000431,0.000353
10859000,0.0324,0.013523,0.002678,0.000431,0.000235
10860000,0.0324,0.013523,0.002678,0.000431,0.000353
10861000,0.0324,0.013523,0.002678,0.000431,0.000470
10862000,0.0324,0.013523,0.002678,0.000431,0.000353
10863000,0.0324,0.013523,0.002678,0.000431,0.000235
10864000,0.0324,0.013523,0.002678,0.000431,0.000353
10865000,0.0324,0.013523,0.002678,0.000431,0.000353
10866000,0.0324,0.013523,0.002678,0.000431,0.000235
10867000,0.0324,0.013523,0.002678,0.000431,0.000353
10868000,0.0324,0.013523,0.002678,0.000431,0.000470
10869000,0.0324,0.013523,0.002678,0.000431,0.000353
10870000,0.0324,0.013523,0.002678,0.000431,0.000235
10871000,0.0324,0.013523,0.002678,0.000431,0.000353
10872000,0.0324,0.013523,0.002678,0.000431,0.000353
10873000,0.0324,0.013523,0.002678,0.000431,0.000235
10874000,0.0324,0.013523,0.002678,0.000431,0.000353
10875000,0.0324,0.013523,0.002678,0.000431,0.000470
10876000,0.0324,0.013523,0.002678,0.000431,0.000353
10877000,0.0324,0.013523,0.002678,0.000431,0.000118
10878000,0.0324,0.013523,0.002678,0.000431,0.000470
10879000,0.0324,0.013523,0.002678,0.000431,0.000353
10880000,0.0324,0.013523,0.002678,0.000431,0.000235
10881000,0.0324,0.013523,0.002678,0.000431,0.000353
10882000,0.0324,0.013523,0.002678,0.000431,0.000470
10883000,0.0324,0.013523,0.002678,0.000431,0.000235
10884000,0.0324,0.013523,0.002678,0.000431,0.000235
10885000,0.0324,0.013523,0.002678,0.000431,0.000470
10886000,0.0324,0.013523,0.002678,0.000431,0.000353
10887000,0.0324,0.013523,0.002678,0.000431,0.000235
10888000,0.0324,0.013523,0.002678,0.000431,0.000353
10889000,0.0324,0.013523,0.002678,0.000431,0.000470
10890000,0.0324,0.013523,0.002678,0.000431,0.000235
10891000,0.0324,0.013523,0.002678,0.000431,0.000235
10892000,0.0324,0.013523,0.002678,0.000431,0.000470
10893000,0.0324,0.013523,0.002678,0.000431,0.000353
10894000,0.0324,0.013523,0.002678,0.000431,0.000235
10895000,0.0324,0.013523,0.002678,0.000431,0.000353
10896000,0.0324,0.013523,0.002678,0.000431,0.000470
10897000,0.0324,0.013523,0.002678,0.000431,0.000118
10898000,0.0324,0.013523,0.002678,0.000431,0.000353
10899000,0.0324,0.013523,0.002678,0.000431,0.000470
10900000,0.0324,0.013523,0.002678,0.000431,0.000353
10901000,0.0324,0.013523,0.002678,0.000431,0.000235
10902000,0.0324,0.013523,0.002678,0.000431,0.000353
10903000,0.0324,0.013523,0.002678,0.000431,0.000353
10904000,0.0324,0.013523,0.002678,0.000431,0.000235
10905000,0.0324,0.013523,0.002678,0.000431,0.000353
10906000,0.0324,0.013523,0.002678,0.000431,0.000470
10907000,0.0324,0.013523,0.002678,0.000431,0.000353
10908000,0.0324,0.013523,0.002678,0.000431,0.000235
10909000,0.0324,0.013523,0.002678,0.000431,0.000353
10910000,0.0324,0.013523,0.002678,0.000431,0.000353
10911000,0.0324,0.013523,0.002678,0.000431,0.000235
10912000,0.0324,0.013523,0.002678,0.000431,0.000353
10913000,0.0324,0.013523,0.002678,0.000431,0.000470
10914000,0.0324,0.013523,0.002678,0.000431,0.000353
10915000,0.0324,0.013523,0.002678,0.000431,0.000118
10916000,0.0324,0.013523,0.002678,0.000431,0.000470
10917000,0.0324,0.013523,0.002678,0.000431,0.000353
10918000,0.0324,0.013523,0.002678,0.000431,0.000235
10919000,0.0324,0.013523,0.002678,0.000431,0.000353
10920000,0.0324,0.013523,0.002678,0.000431,0.000470
10921000,0.0324,0.013523,0.002678,0.000431,0.000235
10922000,0.0324,0.013523,0.002678,0.000431,0.000235
10923000,0.0324,0.013523,0.002678,0.000431,0.000470
10924000,0.0324,0.013523,0.002678,0.000431,0.000353
10925000,0.0324,0.013523,0.002678,0.000431,0.000235
10926000,0.0324,0.013523,0.002678,0.000431,0.000353
10927000,0.0324,0.013523,0.002678,0.000431,0.000470
10928000,0.0324,0.013523,0.002678,0.000431,0.000235
10929000,0.0324,0.013523,0.002678,0.000431,0.000235
10930000,0.0324,0.013523,0.002678,0.000431,0.000470
10931000,0.0324,0.013523,0.002678,0.000431,0.000353
10932000,0.0324,0.013523,0.002678,0.000431,0.000235
10933000,0.0324,0.013523,0.002678,0.000431,0.000353
10934000,0.0324,0.013523,0.002678,0.000431,0.000470
10935000,0.0324,0.013523,0.002678,0.000431,0.000235
10936000,0.0324,0.013523,0.002678,0.000431,0.000235
10937000,0.0324,0.013523,0.002678,0.000431,0.000470
10938000,0.0324,0.013523,0.002678,0.000431,0.000353
10939000,0.0324,0.013523,0.002678,0.000431,0.000235
10940000,0.0324,0.013523,0.002678,0.000431,0.000353
10941000,0.0324,0.013523,0.002678,0.000431,0.000470
10942000,0.0324,0.013523,0.002678,0.000431,0.000118
10943000,0.0324,0.013523,0.002678,0.000431,0.000353
10944000,0.0324,0.013523,0.002678,0.000431,0.000470
10945000,0.0324,0.013523,0.002678,0.000431,0.000353
10946000,0.0324,0.013523,0.002678,0.000431,0.000235
10947000,0.0324,0.013523,0.002678,0.000431,0.000353
10948000,0.0324,0.013523,0.002678,0.000431,0.000353
10949000,0.0324,0.013523,0.002678,0.000431,0.000235
10950000,0.0324,0.013523,0.002678,0.000431,0.000353
10951000,0.0324,0.013523,0.002678,0.000431,0.000470
10952000,0.0324,0.013523,0.002678,0.000431,0.000353
10953000,0.0324,0.013523,0.002678,0.000431,0.000235
10954000,0.0324,0.013523,0.002678,0.000431,0.000353
10955000,0.0324,0.013523,0.002678,0.000431,0.000353
10956000,0.0324,0.013523,0.002678,0.000431,0.000235
10957000,0.0324,0.013523,0.002678,0.000431,0.000353
10958000,0.0324,0.013523,0.002678,0.000431,0.000470
10959000,0.0324,0.013523,0.002678,0.000431,0.000353
10960000,0.0324,0.013523,0.002678,0.000431,0.000118
10961000,0.0324,0.013523,0.002678,0.000431,0.000470
10962000,0.0324,0.013523,0.002678,0.000431,0.000353
10963000,0.0324,0.013523,0.002678,0.000431,0.000235
10964000,0.0324,0.013523,0.002678,0.000431,0.000353
10965000,0.0324,0.013523,0.002678,0.000431,0.000470
10966000,0.0324,0.013523,0.002678,0.000431,0.000235
10967000,0.0324,0.013523,0.002678,0.000431,0.000235
10968000,0.0324,0.013523,0.002678,0.000431,0.000470
10969000,0.0324,0.013523,0.002678,0.000431,0.000353
10970000,0.0324,0.013523,0.002678,0.000431,0.000235
10971000,0.0324,0.013523,0.002678,0.000431,0.000353
10972000,0.0324,0.013523,0.002678,0.000431,0.000470
10973000,0.0324,0.013523,0.002678,0.000431,0.000235
10974000,0.0324,0.013523,0.002678,0.000431,0.000235
10975000,0.0324,0.013523,0.002678,0.000431,0.000470
10976000,0.0324,0.013523,0.002678,0.000431,0.000353
10977000,0.0324,0.013523,0.002678,0.000431,0.000235
10978000,0.0324,0.013523,0.002678,0.000431,0.000353
10979000,0.0324,0.013523,0.002678,0.000431,0.000470
10980000,0.0324,0.013523,0.002678,0.000431,0.000235
10981000,0.0324,0.013523,0.002678,0.000431,0.000235
10982000,0.0324,0.013523,0.002678,0.000431,0.000470
10983000,0.0324,0.013523,0.002678,0.000431,0.000353
10984000,0.0324,0.013523,0.002678,0.000431,0.000235
10985000,0.0324,0.013523,0.002678,0.000431,0.000353
10986000,0.0324,0.013523,0.002678,0.000431,0.000470
10987000,0.0324,0.013523,0.002678,0.000431,0.000235
10988000,0.0324,0.013523,0.002678,0.000431,0.000235
10989000,0.0324,0.013523,0.002678,0.000431,0.000470
10990000,0.0324,0.013523,0.002678,0.000431,0.000353
10991000,0.0324,0.013523,0.002678,0.000431,0.000235
10992000,0.0324,0.013523,0.002678,0.000431,0.000353
10993000,0.0324,0.013523,0.002678,0.000431,0.000470
10994000,0.0324,0.013523,0.002678,0.000431,0.000235
10995000,0.0324,0.013523,0.002678,0.000431,0.000235
10996000,0.0324,0.013523,0.002678,0.000431,0.000470
10997000,0.0324,0.013523,0.002678,0.000431,0.000353
10998000,0.0324,0.013523,0.002678,0.000431,0.000235
10999000,0.0324,0.013523,0.002678,0.000431,0.000353
