Cycle,Area(mm^2),PeakDynamic(W),SubthresholdLeakage(W),GateLeakage(W),RunTimeDynamic(W)
28000000,0.0324,0.013523,0.002678,0.000431,0.000235
28001000,0.0324,0.013523,0.002678,0.000431,0.000235
28002000,0.0324,0.013523,0.002678,0.000431,0.000470
28003000,0.0324,0.013523,0.002678,0.000431,0.000353
28004000,0.0324,0.013523,0.002678,0.000431,0.000235
28005000,0.0324,0.013523,0.002678,0.000431,0.000353
28006000,0.0324,0.013523,0.002678,0.000431,0.000470
28007000,0.0324,0.013523,0.002678,0.000431,0.000235
28008000,0.0324,0.013523,0.002678,0.000431,0.000235
28009000,0.0324,0.013523,0.002678,0.000431,0.000470
28010000,0.0324,0.013523,0.002678,0.000431,0.000353
28011000,0.0324,0.013523,0.002678,0.000431,0.000235
28012000,0.0324,0.013523,0.002678,0.000431,0.000353
28013000,0.0324,0.013523,0.002678,0.000431,0.000470
28014000,0.0324,0.013523,0.002678,0.000431,0.000235
28015000,0.0324,0.013523,0.002678,0.000431,0.000235
28016000,0.0324,0.013523,0.002678,0.000431,0.000470
28017000,0.0324,0.013523,0.002678,0.000431,0.000353
28018000,0.0324,0.013523,0.002678,0.000431,0.000235
28019000,0.0324,0.013523,0.002678,0.000431,0.000353
28020000,0.0324,0.013523,0.002678,0.000431,0.000470
28021000,0.0324,0.013523,0.002678,0.000431,0.000235
28022000,0.0324,0.013523,0.002678,0.000431,0.000235
28023000,0.0324,0.013523,0.002678,0.000431,0.000470
28024000,0.0324,0.013523,0.002678,0.000431,0.000353
28025000,0.0324,0.013523,0.002678,0.000431,0.000235
28026000,0.0324,0.013523,0.002678,0.000431,0.000353
28027000,0.0324,0.013523,0.002678,0.000431,0.000470
28028000,0.0324,0.013523,0.002678,0.000431,0.000235
28029000,0.0324,0.013523,0.002678,0.000431,0.000235
28030000,0.0324,0.013523,0.002678,0.000431,0.000470
28031000,0.0324,0.013523,0.002678,0.000431,0.000353
28032000,0.0324,0.013523,0.002678,0.000431,0.000235
28033000,0.0324,0.013523,0.002678,0.000431,0.000353
28034000,0.0324,0.013523,0.002678,0.000431,0.000470
28035000,0.0324,0.013523,0.002678,0.000431,0.000235
28036000,0.0324,0.013523,0.002678,0.000431,0.000235
28037000,0.0324,0.013523,0.002678,0.000431,0.000470
28038000,0.0324,0.013523,0.002678,0.000431,0.000353
28039000,0.0324,0.013523,0.002678,0.000431,0.000235
28040000,0.0324,0.013523,0.002678,0.000431,0.000353
28041000,0.0324,0.013523,0.002678,0.000431,0.000470
28042000,0.0324,0.013523,0.002678,0.000431,0.000118
28043000,0.0324,0.013523,0.002678,0.000431,0.000353
28044000,0.0324,0.013523,0.002678,0.000431,0.000470
28045000,0.0324,0.013523,0.002678,0.000431,0.000353
28046000,0.0324,0.013523,0.002678,0.000431,0.000235
28047000,0.0324,0.013523,0.002678,0.000431,0.000353
28048000,0.0324,0.013523,0.002678,0.000431,0.000470
28049000,0.0324,0.013523,0.002678,0.000431,0.000118
28050000,0.0324,0.013523,0.002678,0.000431,0.000353
28051000,0.0324,0.013523,0.002678,0.000431,0.000470
28052000,0.0324,0.013523,0.002678,0.000431,0.000353
28053000,0.0324,0.013523,0.002678,0.000431,0.000235
28054000,0.0324,0.013523,0.002678,0.000431,0.000353
28055000,0.0324,0.013523,0.002678,0.000431,0.000470
28056000,0.0324,0.013523,0.002678,0.000431,0.000118
28057000,0.0324,0.013523,0.002678,0.000431,0.000353
28058000,0.0324,0.013523,0.002678,0.000431,0.000470
28059000,0.0324,0.013523,0.002678,0.000431,0.000353
28060000,0.0324,0.013523,0.002678,0.000431,0.000235
28061000,0.0324,0.013523,0.002678,0.000431,0.000353
28062000,0.0324,0.013523,0.002678,0.000431,0.000353
28063000,0.0324,0.013523,0.002678,0.000431,0.000235
28064000,0.0324,0.013523,0.002678,0.000431,0.000353
28065000,0.0324,0.013523,0.002678,0.000431,0.000470
28066000,0.0324,0.013523,0.002678,0.000431,0.000353
28067000,0.0324,0.013523,0.002678,0.000431,0.000235
28068000,0.0324,0.013523,0.002678,0.000431,0.000353
28069000,0.0324,0.013523,0.002678,0.000431,0.000353
28070000,0.0324,0.013523,0.002678,0.000431,0.000235
28071000,0.0324,0.013523,0.002678,0.000431,0.000353
28072000,0.0324,0.013523,0.002678,0.000431,0.000470
28073000,0.0324,0.013523,0.002678,0.000431,0.000353
28074000,0.0324,0.013523,0.002678,0.000431,0.000235
28075000,0.0324,0.013523,0.002678,0.000431,0.000353
28076000,0.0324,0.013523,0.002678,0.000431,0.000353
28077000,0.0324,0.013523,0.002678,0.000431,0.000235
28078000,0.0324,0.013523,0.002678,0.000431,0.000353
28079000,0.0324,0.013523,0.002678,0.000431,0.000470
28080000,0.0324,0.013523,0.002678,0.000431,0.000353
28081000,0.0324,0.013523,0.002678,0.000431,0.000235
28082000,0.0324,0.013523,0.002678,0.000431,0.000353
28083000,0.0324,0.013523,0.002678,0.000431,0.000353
28084000,0.0324,0.013523,0.002678,0.000431,0.000235
28085000,0.0324,0.013523,0.002678,0.000431,0.000353
28086000,0.0324,0.013523,0.002678,0.000431,0.000470
28087000,0.0324,0.013523,0.002678,0.000431,0.000353
28088000,0.0324,0.013523,0.002678,0.000431,0.000118
28089000,0.0324,0.013523,0.002678,0.000431,0.000470
28090000,0.0324,0.013523,0.002678,0.000431,0.000353
28091000,0.0324,0.013523,0.002678,0.000431,0.000235
28092000,0.0324,0.013523,0.002678,0.000431,0.000353
28093000,0.0324,0.013523,0.002678,0.000431,0.000470
28094000,0.0324,0.013523,0.002678,0.000431,0.000235
28095000,0.0324,0.013523,0.002678,0.000431,0.000235
28096000,0.0324,0.013523,0.002678,0.000431,0.000470
28097000,0.0324,0.013523,0.002678,0.000431,0.000353
28098000,0.0324,0.013523,0.002678,0.000431,0.000235
28099000,0.0324,0.013523,0.002678,0.000431,0.000353
28100000,0.0324,0.013523,0.002678,0.000431,0.000470
28101000,0.0324,0.013523,0.002678,0.000431,0.000118
28102000,0.0324,0.013523,0.002678,0.000431,0.000353
28103000,0.0324,0.013523,0.002678,0.000431,0.000470
28104000,0.0324,0.013523,0.002678,0.000431,0.000353
28105000,0.0324,0.013523,0.002678,0.000431,0.000235
28106000,0.0324,0.013523,0.002678,0.000431,0.000353
28107000,0.0324,0.013523,0.002678,0.000431,0.000470
28108000,0.0324,0.013523,0.002678,0.000431,0.000118
28109000,0.0324,0.013523,0.002678,0.000431,0.000353
28110000,0.0324,0.013523,0.002678,0.000431,0.000470
28111000,0.0324,0.013523,0.002678,0.000431,0.000353
28112000,0.0324,0.013523,0.002678,0.000431,0.000235
28113000,0.0324,0.013523,0.002678,0.000431,0.000353
28114000,0.0324,0.013523,0.002678,0.000431,0.000353
28115000,0.0324,0.013523,0.002678,0.000431,0.000235
28116000,0.0324,0.013523,0.002678,0.000431,0.000353
28117000,0.0324,0.013523,0.002678,0.000431,0.000470
28118000,0.0324,0.013523,0.002678,0.000431,0.000353
28119000,0.0324,0.013523,0.002678,0.000431,0.000235
28120000,0.0324,0.013523,0.002678,0.000431,0.000353
28121000,0.0324,0.013523,0.002678,0.000431,0.000353
28122000,0.0324,0.013523,0.002678,0.000431,0.000235
28123000,0.0324,0.013523,0.002678,0.000431,0.000353
28124000,0.0324,0.013523,0.002678,0.000431,0.000470
28125000,0.0324,0.013523,0.002678,0.000431,0.000353
28126000,0.0324,0.013523,0.002678,0.000431,0.000118
28127000,0.0324,0.013523,0.002678,0.000431,0.000470
28128000,0.0324,0.013523,0.002678,0.000431,0.000353
28129000,0.0324,0.013523,0.002678,0.000431,0.000235
28130000,0.0324,0.013523,0.002678,0.000431,0.000353
28131000,0.0324,0.013523,0.002678,0.000431,0.000470
28132000,0.0324,0.013523,0.002678,0.000431,0.000353
28133000,0.0324,0.013523,0.002678,0.000431,0.000118
28134000,0.0324,0.013523,0.002678,0.000431,0.000470
28135000,0.0324,0.013523,0.002678,0.000431,0.000353
28136000,0.0324,0.013523,0.002678,0.000431,0.000235
28137000,0.0324,0.013523,0.002678,0.000431,0.000353
28138000,0.0324,0.013523,0.002678,0.000431,0.000470
28139000,0.0324,0.013523,0.002678,0.000431,0.000235
28140000,0.0324,0.013523,0.002678,0.000431,0.000235
28141000,0.0324,0.013523,0.002678,0.000431,0.000470
28142000,0.0324,0.013523,0.002678,0.000431,0.000353
28143000,0.0324,0.013523,0.002678,0.000431,0.000235
28144000,0.0324,0.013523,0.002678,0.000431,0.000353
28145000,0.0324,0.013523,0.002678,0.000431,0.000470
28146000,0.0324,0.013523,0.002678,0.000431,0.000118
28147000,0.0324,0.013523,0.002678,0.000431,0.000353
28148000,0.0324,0.013523,0.002678,0.000431,0.000470
28149000,0.0324,0.013523,0.002678,0.000431,0.000353
28150000,0.0324,0.013523,0.002678,0.000431,0.000235
28151000,0.0324,0.013523,0.002678,0.000431,0.000353
28152000,0.0324,0.013523,0.002678,0.000431,0.000353
28153000,0.0324,0.013523,0.002678,0.000431,0.000235
28154000,0.0324,0.013523,0.002678,0.000431,0.000353
28155000,0.0324,0.013523,0.002678,0.000431,0.000470
28156000,0.0324,0.013523,0.002678,0.000431,0.000353
28157000,0.0324,0.013523,0.002678,0.000431,0.000235
28158000,0.0324,0.013523,0.002678,0.000431,0.000353
28159000,0.0324,0.013523,0.002678,0.000431,0.000353
28160000,0.0324,0.013523,0.002678,0.000431,0.000235
28161000,0.0324,0.013523,0.002678,0.000431,0.000353
28162000,0.0324,0.013523,0.002678,0.000431,0.000470
28163000,0.0324,0.013523,0.002678,0.000431,0.000353
28164000,0.0324,0.013523,0.002678,0.000431,0.000235
28165000,0.0324,0.013523,0.002678,0.000431,0.000353
28166000,0.0324,0.013523,0.002678,0.000431,0.000353
28167000,0.0324,0.013523,0.002678,0.000431,0.000235
28168000,0.0324,0.013523,0.002678,0.000431,0.000353
28169000,0.0324,0.013523,0.002678,0.000431,0.000470
28170000,0.0324,0.013523,0.002678,0.000431,0.000353
28171000,0.0324,0.013523,0.002678,0.000431,0.000118
28172000,0.0324,0.013523,0.002678,0.000431,0.000470
28173000,0.0324,0.013523,0.002678,0.000431,0.000353
28174000,0.0324,0.013523,0.002678,0.000431,0.000235
28175000,0.0324,0.013523,0.002678,0.000431,0.000353
28176000,0.0324,0.013523,0.002678,0.000431,0.000470
28177000,0.0324,0.013523,0.002678,0.000431,0.000235
28178000,0.0324,0.013523,0.002678,0.000431,0.000235
28179000,0.0324,0.013523,0.002678,0.000431,0.000470
28180000,0.0324,0.013523,0.002678,0.000431,0.000353
28181000,0.0324,0.013523,0.002678,0.000431,0.000235
28182000,0.0324,0.013523,0.002678,0.000431,0.000353
28183000,0.0324,0.013523,0.002678,0.000431,0.000470
28184000,0.0324,0.013523,0.002678,0.000431,0.000235
28185000,0.0324,0.013523,0.002678,0.000431,0.000235
28186000,0.0324,0.013523,0.002678,0.000431,0.000470
28187000,0.0324,0.013523,0.002678,0.000431,0.000353
28188000,0.0324,0.013523,0.002678,0.000431,0.000235
28189000,0.0324,0.013523,0.002678,0.000431,0.000353
28190000,0.0324,0.013523,0.002678,0.000431,0.000470
28191000,0.0324,0.013523,0.002678,0.000431,0.000118
28192000,0.0324,0.013523,0.002678,0.000431,0.000353
28193000,0.0324,0.013523,0.002678,0.000431,0.000470
28194000,0.0324,0.013523,0.002678,0.000431,0.000353
28195000,0.0324,0.013523,0.002678,0.000431,0.000235
28196000,0.0324,0.013523,0.002678,0.000431,0.000353
28197000,0.0324,0.013523,0.002678,0.000431,0.000353
28198000,0.0324,0.013523,0.002678,0.000431,0.000235
28199000,0.0324,0.013523,0.002678,0.000431,0.000353
28200000,0.0324,0.013523,0.002678,0.000431,0.000470
28201000,0.0324,0.013523,0.002678,0.000431,0.000353
28202000,0.0324,0.013523,0.002678,0.000431,0.000235
28203000,0.0324,0.013523,0.002678,0.000431,0.000353
28204000,0.0324,0.013523,0.002678,0.000431,0.000353
28205000,0.0324,0.013523,0.002678,0.000431,0.000235
28206000,0.0324,0.013523,0.002678,0.000431,0.000353
28207000,0.0324,0.013523,0.002678,0.000431,0.000470
28208000,0.0324,0.013523,0.002678,0.000431,0.000353
28209000,0.0324,0.013523,0.002678,0.000431,0.000235
28210000,0.0324,0.013523,0.002678,0.000431,0.000353
28211000,0.0324,0.013523,0.002678,0.000431,0.000353
28212000,0.0324,0.013523,0.002678,0.000431,0.000235
28213000,0.0324,0.013523,0.002678,0.000431,0.000353
28214000,0.0324,0.013523,0.002678,0.000431,0.000470
28215000,0.0324,0.013523,0.002678,0.000431,0.000353
28216000,0.0324,0.013523,0.002678,0.000431,0.000235
28217000,0.0324,0.013523,0.002678,0.000431,0.000353
28218000,0.0324,0.013523,0.002678,0.000431,0.000353
28219000,0.0324,0.013523,0.002678,0.000431,0.000235
28220000,0.0324,0.013523,0.002678,0.000431,0.000353
28221000,0.0324,0.013523,0.002678,0.000431,0.000470
28222000,0.0324,0.013523,0.002678,0.000431,0.000353
28223000,0.0324,0.013523,0.002678,0.000431,0.000118
28224000,0.0324,0.013523,0.002678,0.000431,0.000470
28225000,0.0324,0.013523,0.002678,0.000431,0.000353
28226000,0.0324,0.013523,0.002678,0.000431,0.000235
28227000,0.0324,0.013523,0.002678,0.000431,0.000353
28228000,0.0324,0.013523,0.002678,0.000431,0.000470
28229000,0.0324,0.013523,0.002678,0.000431,0.000353
28230000,0.0324,0.013523,0.002678,0.000431,0.000118
28231000,0.0324,0.013523,0.002678,0.000431,0.000470
28232000,0.0324,0.013523,0.002678,0.000431,0.000353
28233000,0.0324,0.013523,0.002678,0.000431,0.000235
28234000,0.0324,0.013523,0.002678,0.000431,0.000353
28235000,0.0324,0.013523,0.002678,0.000431,0.000470
28236000,0.0324,0.013523,0.002678,0.000431,0.000353
28237000,0.0324,0.013523,0.002678,0.000431,0.000118
28238000,0.0324,0.013523,0.002678,0.000431,0.000470
28239000,0.0324,0.013523,0.002678,0.000431,0.000353
28240000,0.0324,0.013523,0.002678,0.000431,0.000235
28241000,0.0324,0.013523,0.002678,0.000431,0.000353
28242000,0.0324,0.013523,0.002678,0.000431,0.000470
28243000,0.0324,0.013523,0.002678,0.000431,0.000353
28244000,0.0324,0.013523,0.002678,0.000431,0.000118
28245000,0.0324,0.013523,0.002678,0.000431,0.000470
28246000,0.0324,0.013523,0.002678,0.000431,0.000353
28247000,0.0324,0.013523,0.002678,0.000431,0.000235
28248000,0.0324,0.013523,0.002678,0.000431,0.000353
28249000,0.0324,0.013523,0.002678,0.000431,0.000470
28250000,0.0324,0.013523,0.002678,0.000431,0.000235
28251000,0.0324,0.013523,0.002678,0.000431,0.000235
28252000,0.0324,0.013523,0.002678,0.000431,0.000470
28253000,0.0324,0.013523,0.002678,0.000431,0.000353
28254000,0.0324,0.013523,0.002678,0.000431,0.000235
28255000,0.0324,0.013523,0.002678,0.000431,0.000353
28256000,0.0324,0.013523,0.002678,0.000431,0.000470
28257000,0.0324,0.013523,0.002678,0.000431,0.000235
28258000,0.0324,0.013523,0.002678,0.000431,0.000235
28259000,0.0324,0.013523,0.002678,0.000431,0.000470
28260000,0.0324,0.013523,0.002678,0.000431,0.000353
28261000,0.0324,0.013523,0.002678,0.000431,0.000235
28262000,0.0324,0.013523,0.002678,0.000431,0.000353
28263000,0.0324,0.013523,0.002678,0.000431,0.000470
28264000,0.0324,0.013523,0.002678,0.000431,0.000235
28265000,0.0324,0.013523,0.002678,0.000431,0.000235
28266000,0.0324,0.013523,0.002678,0.000431,0.000470
28267000,0.0324,0.013523,0.002678,0.000431,0.000353
28268000,0.0324,0.013523,0.002678,0.000431,0.000235
28269000,0.0324,0.013523,0.002678,0.000431,0.000353
28270000,0.0324,0.013523,0.002678,0.000431,0.000470
28271000,0.0324,0.013523,0.002678,0.000431,0.000235
28272000,0.0324,0.013523,0.002678,0.000431,0.000235
28273000,0.0324,0.013523,0.002678,0.000431,0.000470
28274000,0.0324,0.013523,0.002678,0.000431,0.000353
28275000,0.0324,0.013523,0.002678,0.000431,0.000235
28276000,0.0324,0.013523,0.002678,0.000431,0.000353
28277000,0.0324,0.013523,0.002678,0.000431,0.000470
28278000,0.0324,0.013523,0.002678,0.000431,0.000235
28279000,0.0324,0.013523,0.002678,0.000431,0.000235
28280000,0.0324,0.013523,0.002678,0.000431,0.000470
28281000,0.0324,0.013523,0.002678,0.000431,0.000353
28282000,0.0324,0.013523,0.002678,0.000431,0.000235
28283000,0.0324,0.013523,0.002678,0.000431,0.000353
28284000,0.0324,0.013523,0.002678,0.000431,0.000470
28285000,0.0324,0.013523,0.002678,0.000431,0.000235
28286000,0.0324,0.013523,0.002678,0.000431,0.000235
28287000,0.0324,0.013523,0.002678,0.000431,0.000470
28288000,0.0324,0.013523,0.002678,0.000431,0.000353
28289000,0.0324,0.013523,0.002678,0.000431,0.000235
28290000,0.0324,0.013523,0.002678,0.000431,0.000353
28291000,0.0324,0.013523,0.002678,0.000431,0.000470
28292000,0.0324,0.013523,0.002678,0.000431,0.000118
28293000,0.0324,0.013523,0.002678,0.000431,0.000353
28294000,0.0324,0.013523,0.002678,0.000431,0.000470
28295000,0.0324,0.013523,0.002678,0.000431,0.000353
28296000,0.0324,0.013523,0.002678,0.000431,0.000235
28297000,0.0324,0.013523,0.002678,0.000431,0.000353
28298000,0.0324,0.013523,0.002678,0.000431,0.000470
28299000,0.0324,0.013523,0.002678,0.000431,0.000118
28300000,0.0324,0.013523,0.002678,0.000431,0.000353
28301000,0.0324,0.013523,0.002678,0.000431,0.000470
28302000,0.0324,0.013523,0.002678,0.000431,0.000353
28303000,0.0324,0.013523,0.002678,0.000431,0.000235
28304000,0.0324,0.013523,0.002678,0.000431,0.000353
28305000,0.0324,0.013523,0.002678,0.000431,0.000470
28306000,0.0324,0.013523,0.002678,0.000431,0.000118
28307000,0.0324,0.013523,0.002678,0.000431,0.000353
28308000,0.0324,0.013523,0.002678,0.000431,0.000470
28309000,0.0324,0.013523,0.002678,0.000431,0.000353
28310000,0.0324,0.013523,0.002678,0.000431,0.000235
28311000,0.0324,0.013523,0.002678,0.000431,0.000353
28312000,0.0324,0.013523,0.002678,0.000431,0.000353
28313000,0.0324,0.013523,0.002678,0.000431,0.000235
28314000,0.0324,0.013523,0.002678,0.000431,0.000353
28315000,0.0324,0.013523,0.002678,0.000431,0.000470
28316000,0.0324,0.013523,0.002678,0.000431,0.000353
28317000,0.0324,0.013523,0.002678,0.000431,0.000235
28318000,0.0324,0.013523,0.002678,0.000431,0.000353
28319000,0.0324,0.013523,0.002678,0.000431,0.000353
28320000,0.0324,0.013523,0.002678,0.000431,0.000235
28321000,0.0324,0.013523,0.002678,0.000431,0.000353
28322000,0.0324,0.013523,0.002678,0.000431,0.000470
28323000,0.0324,0.013523,0.002678,0.000431,0.000353
28324000,0.0324,0.013523,0.002678,0.000431,0.000235
28325000,0.0324,0.013523,0.002678,0.000431,0.000353
28326000,0.0324,0.013523,0.002678,0.000431,0.000353
28327000,0.0324,0.013523,0.002678,0.000431,0.000235
28328000,0.0324,0.013523,0.002678,0.000431,0.000353
28329000,0.0324,0.013523,0.002678,0.000431,0.000470
28330000,0.0324,0.013523,0.002678,0.000431,0.000353
28331000,0.0324,0.013523,0.002678,0.000431,0.000235
28332000,0.0324,0.013523,0.002678,0.000431,0.000353
28333000,0.0324,0.013523,0.002678,0.000431,0.000353
28334000,0.0324,0.013523,0.002678,0.000431,0.000235
28335000,0.0324,0.013523,0.002678,0.000431,0.000353
28336000,0.0324,0.013523,0.002678,0.000431,0.000470
28337000,0.0324,0.013523,0.002678,0.000431,0.000353
28338000,0.0324,0.013523,0.002678,0.000431,0.000235
28339000,0.0324,0.013523,0.002678,0.000431,0.000353
28340000,0.0324,0.013523,0.002678,0.000431,0.000353
28341000,0.0324,0.013523,0.002678,0.000431,0.000235
28342000,0.0324,0.013523,0.002678,0.000431,0.000353
28343000,0.0324,0.013523,0.002678,0.000431,0.000470
28344000,0.0324,0.013523,0.002678,0.000431,0.000353
28345000,0.0324,0.013523,0.002678,0.000431,0.000235
28346000,0.0324,0.013523,0.002678,0.000431,0.000353
28347000,0.0324,0.013523,0.002678,0.000431,0.000353
28348000,0.0324,0.013523,0.002678,0.000431,0.000235
28349000,0.0324,0.013523,0.002678,0.000431,0.000353
28350000,0.0324,0.013523,0.002678,0.000431,0.000470
28351000,0.0324,0.013523,0.002678,0.000431,0.000353
28352000,0.0324,0.013523,0.002678,0.000431,0.000235
28353000,0.0324,0.013523,0.002678,0.000431,0.000353
28354000,0.0324,0.013523,0.002678,0.000431,0.000353
28355000,0.0324,0.013523,0.002678,0.000431,0.000235
28356000,0.0324,0.013523,0.002678,0.000431,0.000353
28357000,0.0324,0.013523,0.002678,0.000431,0.000470
28358000,0.0324,0.013523,0.002678,0.000431,0.000353
28359000,0.0324,0.013523,0.002678,0.000431,0.000235
28360000,0.0324,0.013523,0.002678,0.000431,0.000353
28361000,0.0324,0.013523,0.002678,0.000431,0.000353
28362000,0.0324,0.013523,0.002678,0.000431,0.000235
28363000,0.0324,0.013523,0.002678,0.000431,0.000353
28364000,0.0324,0.013523,0.002678,0.000431,0.000470
28365000,0.0324,0.013523,0.002678,0.000431,0.000353
28366000,0.0324,0.013523,0.002678,0.000431,0.000118
28367000,0.0324,0.013523,0.002678,0.000431,0.000470
28368000,0.0324,0.013523,0.002678,0.000431,0.000353
28369000,0.0324,0.013523,0.002678,0.000431,0.000235
28370000,0.0324,0.013523,0.002678,0.000431,0.000353
28371000,0.0324,0.013523,0.002678,0.000431,0.000470
28372000,0.0324,0.013523,0.002678,0.000431,0.000353
28373000,0.0324,0.013523,0.002678,0.000431,0.000118
28374000,0.0324,0.013523,0.002678,0.000431,0.000470
28375000,0.0324,0.013523,0.002678,0.000431,0.000353
28376000,0.0324,0.013523,0.002678,0.000431,0.000235
28377000,0.0324,0.013523,0.002678,0.000431,0.000353
28378000,0.0324,0.013523,0.002678,0.000431,0.000470
28379000,0.0324,0.013523,0.002678,0.000431,0.000353
28380000,0.0324,0.013523,0.002678,0.000431,0.000118
28381000,0.0324,0.013523,0.002678,0.000431,0.000470
28382000,0.0324,0.013523,0.002678,0.000431,0.000353
28383000,0.0324,0.013523,0.002678,0.000431,0.000235
28384000,0.0324,0.013523,0.002678,0.000431,0.000353
28385000,0.0324,0.013523,0.002678,0.000431,0.000470
28386000,0.0324,0.013523,0.002678,0.000431,0.000235
28387000,0.0324,0.013523,0.002678,0.000431,0.000235
28388000,0.0324,0.013523,0.002678,0.000431,0.000470
28389000,0.0324,0.013523,0.002678,0.000431,0.000353
28390000,0.0324,0.013523,0.002678,0.000431,0.000235
28391000,0.0324,0.013523,0.002678,0.000431,0.000353
28392000,0.0324,0.013523,0.002678,0.000431,0.000470
28393000,0.0324,0.013523,0.002678,0.000431,0.000235
28394000,0.0324,0.013523,0.002678,0.000431,0.000235
28395000,0.0324,0.013523,0.002678,0.000431,0.000470
28396000,0.0324,0.013523,0.002678,0.000431,0.000353
28397000,0.0324,0.013523,0.002678,0.000431,0.000235
28398000,0.0324,0.013523,0.002678,0.000431,0.000353
28399000,0.0324,0.013523,0.002678,0.000431,0.000470
28400000,0.0324,0.013523,0.002678,0.000431,0.000235
28401000,0.0324,0.013523,0.002678,0.000431,0.000235
28402000,0.0324,0.013523,0.002678,0.000431,0.000470
28403000,0.0324,0.013523,0.002678,0.000431,0.000353
28404000,0.0324,0.013523,0.002678,0.000431,0.000235
28405000,0.0324,0.013523,0.002678,0.000431,0.000353
28406000,0.0324,0.013523,0.002678,0.000431,0.000470
28407000,0.0324,0.013523,0.002678,0.000431,0.000235
28408000,0.0324,0.013523,0.002678,0.000431,0.000235
28409000,0.0324,0.013523,0.002678,0.000431,0.000470
28410000,0.0324,0.013523,0.002678,0.000431,0.000353
28411000,0.0324,0.013523,0.002678,0.000431,0.000235
28412000,0.0324,0.013523,0.002678,0.000431,0.000353
28413000,0.0324,0.013523,0.002678,0.000431,0.000470
28414000,0.0324,0.013523,0.002678,0.000431,0.000235
28415000,0.0324,0.013523,0.002678,0.000431,0.000235
28416000,0.0324,0.013523,0.002678,0.000431,0.000470
28417000,0.0324,0.013523,0.002678,0.000431,0.000353
28418000,0.0324,0.013523,0.002678,0.000431,0.000235
28419000,0.0324,0.013523,0.002678,0.000431,0.000353
28420000,0.0324,0.013523,0.002678,0.000431,0.000470
28421000,0.0324,0.013523,0.002678,0.000431,0.000235
28422000,0.0324,0.013523,0.002678,0.000431,0.000235
28423000,0.0324,0.013523,0.002678,0.000431,0.000470
28424000,0.0324,0.013523,0.002678,0.000431,0.000353
28425000,0.0324,0.013523,0.002678,0.000431,0.000235
28426000,0.0324,0.013523,0.002678,0.000431,0.000353
28427000,0.0324,0.013523,0.002678,0.000431,0.000470
28428000,0.0324,0.013523,0.002678,0.000431,0.000118
28429000,0.0324,0.013523,0.002678,0.000431,0.000353
28430000,0.0324,0.013523,0.002678,0.000431,0.000470
28431000,0.0324,0.013523,0.002678,0.000431,0.000353
28432000,0.0324,0.013523,0.002678,0.000431,0.000235
28433000,0.0324,0.013523,0.002678,0.000431,0.000353
28434000,0.0324,0.013523,0.002678,0.000431,0.000470
28435000,0.0324,0.013523,0.002678,0.000431,0.000118
28436000,0.0324,0.013523,0.002678,0.000431,0.000353
28437000,0.0324,0.013523,0.002678,0.000431,0.000470
28438000,0.0324,0.013523,0.002678,0.000431,0.000353
28439000,0.0324,0.013523,0.002678,0.000431,0.000235
28440000,0.0324,0.013523,0.002678,0.000431,0.000353
28441000,0.0324,0.013523,0.002678,0.000431,0.000470
28442000,0.0324,0.013523,0.002678,0.000431,0.000118
28443000,0.0324,0.013523,0.002678,0.000431,0.000353
28444000,0.0324,0.013523,0.002678,0.000431,0.000470
28445000,0.0324,0.013523,0.002678,0.000431,0.000353
28446000,0.0324,0.013523,0.002678,0.000431,0.000235
28447000,0.0324,0.013523,0.002678,0.000431,0.000353
28448000,0.0324,0.013523,0.002678,0.000431,0.000470
28449000,0.0324,0.013523,0.002678,0.000431,0.000118
28450000,0.0324,0.013523,0.002678,0.000431,0.000353
28451000,0.0324,0.013523,0.002678,0.000431,0.000470
28452000,0.0324,0.013523,0.002678,0.000431,0.000353
28453000,0.0324,0.013523,0.002678,0.000431,0.000235
28454000,0.0324,0.013523,0.002678,0.000431,0.000353
28455000,0.0324,0.013523,0.002678,0.000431,0.000353
28456000,0.0324,0.013523,0.002678,0.000431,0.000235
28457000,0.0324,0.013523,0.002678,0.000431,0.000353
28458000,0.0324,0.013523,0.002678,0.000431,0.000470
28459000,0.0324,0.013523,0.002678,0.000431,0.000353
28460000,0.0324,0.013523,0.002678,0.000431,0.000235
28461000,0.0324,0.013523,0.002678,0.000431,0.000353
28462000,0.0324,0.013523,0.002678,0.000431,0.000353
28463000,0.0324,0.013523,0.002678,0.000431,0.000235
28464000,0.0324,0.013523,0.002678,0.000431,0.000353
28465000,0.0324,0.013523,0.002678,0.000431,0.000470
28466000,0.0324,0.013523,0.002678,0.000431,0.000353
28467000,0.0324,0.013523,0.002678,0.000431,0.000235
28468000,0.0324,0.013523,0.002678,0.000431,0.000353
28469000,0.0324,0.013523,0.002678,0.000431,0.000353
28470000,0.0324,0.013523,0.002678,0.000431,0.000235
28471000,0.0324,0.013523,0.002678,0.000431,0.000353
28472000,0.0324,0.013523,0.002678,0.000431,0.000470
28473000,0.0324,0.013523,0.002678,0.000431,0.000353
28474000,0.0324,0.013523,0.002678,0.000431,0.000235
28475000,0.0324,0.013523,0.002678,0.000431,0.000353
28476000,0.0324,0.013523,0.002678,0.000431,0.000353
28477000,0.0324,0.013523,0.002678,0.000431,0.000235
28478000,0.0324,0.013523,0.002678,0.000431,0.000353
28479000,0.0324,0.013523,0.002678,0.000431,0.000470
28480000,0.0324,0.013523,0.002678,0.000431,0.000353
28481000,0.0324,0.013523,0.002678,0.000431,0.000235
28482000,0.0324,0.013523,0.002678,0.000431,0.000353
28483000,0.0324,0.013523,0.002678,0.000431,0.000353
28484000,0.0324,0.013523,0.002678,0.000431,0.000235
28485000,0.0324,0.013523,0.002678,0.000431,0.000353
28486000,0.0324,0.013523,0.002678,0.000431,0.000470
28487000,0.0324,0.013523,0.002678,0.000431,0.000353
28488000,0.0324,0.013523,0.002678,0.000431,0.000235
28489000,0.0324,0.013523,0.002678,0.000431,0.000353
28490000,0.0324,0.013523,0.002678,0.000431,0.000353
28491000,0.0324,0.013523,0.002678,0.000431,0.000235
28492000,0.0324,0.013523,0.002678,0.000431,0.000353
28493000,0.0324,0.013523,0.002678,0.000431,0.000470
28494000,0.0324,0.013523,0.002678,0.000431,0.000353
28495000,0.0324,0.013523,0.002678,0.000431,0.000235
28496000,0.0324,0.013523,0.002678,0.000431,0.000353
28497000,0.0324,0.013523,0.002678,0.000431,0.000353
28498000,0.0324,0.013523,0.002678,0.000431,0.000235
28499000,0.0324,0.013523,0.002678,0.000431,0.000353
28500000,0.0324,0.013523,0.002678,0.000431,0.000470
28501000,0.0324,0.013523,0.002678,0.000431,0.000353
28502000,0.0324,0.013523,0.002678,0.000431,0.000118
28503000,0.0324,0.013523,0.002678,0.000431,0.000470
28504000,0.0324,0.013523,0.002678,0.000431,0.000353
28505000,0.0324,0.013523,0.002678,0.000431,0.000235
28506000,0.0324,0.013523,0.002678,0.000431,0.000353
28507000,0.0324,0.013523,0.002678,0.000431,0.000470
28508000,0.0324,0.013523,0.002678,0.000431,0.000353
28509000,0.0324,0.013523,0.002678,0.000431,0.000118
28510000,0.0324,0.013523,0.002678,0.000431,0.000470
28511000,0.0324,0.013523,0.002678,0.000431,0.000353
28512000,0.0324,0.013523,0.002678,0.000431,0.000235
28513000,0.0324,0.013523,0.002678,0.000431,0.000353
28514000,0.0324,0.013523,0.002678,0.000431,0.000470
28515000,0.0324,0.013523,0.002678,0.000431,0.000353
28516000,0.0324,0.013523,0.002678,0.000431,0.000118
28517000,0.0324,0.013523,0.002678,0.000431,0.000470
28518000,0.0324,0.013523,0.002678,0.000431,0.000353
28519000,0.0324,0.013523,0.002678,0.000431,0.000235
28520000,0.0324,0.013523,0.002678,0.000431,0.000353
28521000,0.0324,0.013523,0.002678,0.000431,0.000470
28522000,0.0324,0.013523,0.002678,0.000431,0.000353
28523000,0.0324,0.013523,0.002678,0.000431,0.000118
28524000,0.0324,0.013523,0.002678,0.000431,0.000470
28525000,0.0324,0.013523,0.002678,0.000431,0.000353
28526000,0.0324,0.013523,0.002678,0.000431,0.000235
28527000,0.0324,0.013523,0.002678,0.000431,0.000353
28528000,0.0324,0.013523,0.002678,0.000431,0.000470
28529000,0.0324,0.013523,0.002678,0.000431,0.000235
28530000,0.0324,0.013523,0.002678,0.000431,0.000235
28531000,0.0324,0.013523,0.002678,0.000431,0.000470
28532000,0.0324,0.013523,0.002678,0.000431,0.000353
28533000,0.0324,0.013523,0.002678,0.000431,0.000235
28534000,0.0324,0.013523,0.002678,0.000431,0.000353
28535000,0.0324,0.013523,0.002678,0.000431,0.000470
28536000,0.0324,0.013523,0.002678,0.000431,0.000235
28537000,0.0324,0.013523,0.002678,0.000431,0.000235
28538000,0.0324,0.013523,0.002678,0.000431,0.000470
28539000,0.0324,0.013523,0.002678,0.000431,0.000353
28540000,0.0324,0.013523,0.002678,0.000431,0.000235
28541000,0.0324,0.013523,0.002678,0.000431,0.000353
28542000,0.0324,0.013523,0.002678,0.000431,0.000470
28543000,0.0324,0.013523,0.002678,0.000431,0.000235
28544000,0.0324,0.013523,0.002678,0.000431,0.000235
28545000,0.0324,0.013523,0.002678,0.000431,0.000470
28546000,0.0324,0.013523,0.002678,0.000431,0.000353
28547000,0.0324,0.013523,0.002678,0.000431,0.000235
28548000,0.0324,0.013523,0.002678,0.000431,0.000353
28549000,0.0324,0.013523,0.002678,0.000431,0.000470
28550000,0.0324,0.013523,0.002678,0.000431,0.000235
28551000,0.0324,0.013523,0.002678,0.000431,0.000235
28552000,0.0324,0.013523,0.002678,0.000431,0.000470
28553000,0.0324,0.013523,0.002678,0.000431,0.000353
28554000,0.0324,0.013523,0.002678,0.000431,0.000235
28555000,0.0324,0.013523,0.002678,0.000431,0.000353
28556000,0.0324,0.013523,0.002678,0.000431,0.000470
28557000,0.0324,0.013523,0.002678,0.000431,0.000235
28558000,0.0324,0.013523,0.002678,0.000431,0.000235
28559000,0.0324,0.013523,0.002678,0.000431,0.000470
28560000,0.0324,0.013523,0.002678,0.000431,0.000353
28561000,0.0324,0.013523,0.002678,0.000431,0.000235
28562000,0.0324,0.013523,0.002678,0.000431,0.000353
28563000,0.0324,0.013523,0.002678,0.000431,0.000470
28564000,0.0324,0.013523,0.002678,0.000431,0.000235
28565000,0.0324,0.013523,0.002678,0.000431,0.000235
28566000,0.0324,0.013523,0.002678,0.000431,0.000470
28567000,0.0324,0.013523,0.002678,0.000431,0.000353
28568000,0.0324,0.013523,0.002678,0.000431,0.000235
28569000,0.0324,0.013523,0.002678,0.000431,0.000353
28570000,0.0324,0.013523,0.002678,0.000431,0.000470
28571000,0.0324,0.013523,0.002678,0.000431,0.000118
28572000,0.0324,0.013523,0.002678,0.000431,0.000353
28573000,0.0324,0.013523,0.002678,0.000431,0.000470
28574000,0.0324,0.013523,0.002678,0.000431,0.000353
28575000,0.0324,0.013523,0.002678,0.000431,0.000235
28576000,0.0324,0.013523,0.002678,0.000431,0.000353
28577000,0.0324,0.013523,0.002678,0.000431,0.000470
28578000,0.0324,0.013523,0.002678,0.000431,0.000118
28579000,0.0324,0.013523,0.002678,0.000431,0.000353
28580000,0.0324,0.013523,0.002678,0.000431,0.000470
28581000,0.0324,0.013523,0.002678,0.000431,0.000353
28582000,0.0324,0.013523,0.002678,0.000431,0.000235
28583000,0.0324,0.013523,0.002678,0.000431,0.000353
28584000,0.0324,0.013523,0.002678,0.000431,0.000470
28585000,0.0324,0.013523,0.002678,0.000431,0.000118
28586000,0.0324,0.013523,0.002678,0.000431,0.000353
28587000,0.0324,0.013523,0.002678,0.000431,0.000470
28588000,0.0324,0.013523,0.002678,0.000431,0.000353
28589000,0.0324,0.013523,0.002678,0.000431,0.000235
28590000,0.0324,0.013523,0.002678,0.000431,0.000353
28591000,0.0324,0.013523,0.002678,0.000431,0.000353
28592000,0.0324,0.013523,0.002678,0.000431,0.000235
28593000,0.0324,0.013523,0.002678,0.000431,0.000353
28594000,0.0324,0.013523,0.002678,0.000431,0.000470
28595000,0.0324,0.013523,0.002678,0.000431,0.000353
28596000,0.0324,0.013523,0.002678,0.000431,0.000235
28597000,0.0324,0.013523,0.002678,0.000431,0.000353
28598000,0.0324,0.013523,0.002678,0.000431,0.000353
28599000,0.0324,0.013523,0.002678,0.000431,0.000235
28600000,0.0324,0.013523,0.002678,0.000431,0.000353
28601000,0.0324,0.013523,0.002678,0.000431,0.000470
28602000,0.0324,0.013523,0.002678,0.000431,0.000353
28603000,0.0324,0.013523,0.002678,0.000431,0.000235
28604000,0.0324,0.013523,0.002678,0.000431,0.000353
28605000,0.0324,0.013523,0.002678,0.000431,0.000353
28606000,0.0324,0.013523,0.002678,0.000431,0.000235
28607000,0.0324,0.013523,0.002678,0.000431,0.000353
28608000,0.0324,0.013523,0.002678,0.000431,0.000470
28609000,0.0324,0.013523,0.002678,0.000431,0.000353
28610000,0.0324,0.013523,0.002678,0.000431,0.000235
28611000,0.0324,0.013523,0.002678,0.000431,0.000353
28612000,0.0324,0.013523,0.002678,0.000431,0.000353
28613000,0.0324,0.013523,0.002678,0.000431,0.000235
28614000,0.0324,0.013523,0.002678,0.000431,0.000353
28615000,0.0324,0.013523,0.002678,0.000431,0.000470
28616000,0.0324,0.013523,0.002678,0.000431,0.000353
28617000,0.0324,0.013523,0.002678,0.000431,0.000235
28618000,0.0324,0.013523,0.002678,0.000431,0.000353
28619000,0.0324,0.013523,0.002678,0.000431,0.000353
28620000,0.0324,0.013523,0.002678,0.000431,0.000235
28621000,0.0324,0.013523,0.002678,0.000431,0.000353
28622000,0.0324,0.013523,0.002678,0.000431,0.000470
28623000,0.0324,0.013523,0.002678,0.000431,0.000353
28624000,0.0324,0.013523,0.002678,0.000431,0.000235
28625000,0.0324,0.013523,0.002678,0.000431,0.000353
28626000,0.0324,0.013523,0.002678,0.000431,0.000353
28627000,0.0324,0.013523,0.002678,0.000431,0.000235
28628000,0.0324,0.013523,0.002678,0.000431,0.000353
28629000,0.0324,0.013523,0.002678,0.000431,0.000470
28630000,0.0324,0.013523,0.002678,0.000431,0.000353
28631000,0.0324,0.013523,0.002678,0.000431,0.000235
28632000,0.0324,0.013523,0.002678,0.000431,0.000353
28633000,0.0324,0.013523,0.002678,0.000431,0.000353
28634000,0.0324,0.013523,0.002678,0.000431,0.000235
28635000,0.0324,0.013523,0.002678,0.000431,0.000353
28636000,0.0324,0.013523,0.002678,0.000431,0.000470
28637000,0.0324,0.013523,0.002678,0.000431,0.000353
28638000,0.0324,0.013523,0.002678,0.000431,0.000235
28639000,0.0324,0.013523,0.002678,0.000431,0.000353
28640000,0.0324,0.013523,0.002678,0.000431,0.000353
28641000,0.0324,0.013523,0.002678,0.000431,0.000235
28642000,0.0324,0.013523,0.002678,0.000431,0.000353
28643000,0.0324,0.013523,0.002678,0.000431,0.000470
28644000,0.0324,0.013523,0.002678,0.000431,0.000353
28645000,0.0324,0.013523,0.002678,0.000431,0.000118
28646000,0.0324,0.013523,0.002678,0.000431,0.000470
28647000,0.0324,0.013523,0.002678,0.000431,0.000353
28648000,0.0324,0.013523,0.002678,0.000431,0.000235
28649000,0.0324,0.013523,0.002678,0.000431,0.000353
28650000,0.0324,0.013523,0.002678,0.000431,0.000470
28651000,0.0324,0.013523,0.002678,0.000431,0.000353
28652000,0.0324,0.013523,0.002678,0.000431,0.000118
28653000,0.0324,0.013523,0.002678,0.000431,0.000470
28654000,0.0324,0.013523,0.002678,0.000431,0.000353
28655000,0.0324,0.013523,0.002678,0.000431,0.000235
28656000,0.0324,0.013523,0.002678,0.000431,0.000353
28657000,0.0324,0.013523,0.002678,0.000431,0.000470
28658000,0.0324,0.013523,0.002678,0.000431,0.000353
28659000,0.0324,0.013523,0.002678,0.000431,0.000118
28660000,0.0324,0.013523,0.002678,0.000431,0.000470
28661000,0.0324,0.013523,0.002678,0.000431,0.000353
28662000,0.0324,0.013523,0.002678,0.000431,0.000235
28663000,0.0324,0.013523,0.002678,0.000431,0.000353
28664000,0.0324,0.013523,0.002678,0.000431,0.000470
28665000,0.0324,0.013523,0.002678,0.000431,0.000235
28666000,0.0324,0.013523,0.002678,0.000431,0.000235
28667000,0.0324,0.013523,0.002678,0.000431,0.000470
28668000,0.0324,0.013523,0.002678,0.000431,0.000353
28669000,0.0324,0.013523,0.002678,0.000431,0.000235
28670000,0.0324,0.013523,0.002678,0.000431,0.000353
28671000,0.0324,0.013523,0.002678,0.000431,0.000470
28672000,0.0324,0.013523,0.002678,0.000431,0.000235
28673000,0.0324,0.013523,0.002678,0.000431,0.000235
28674000,0.0324,0.013523,0.002678,0.000431,0.000470
28675000,0.0324,0.013523,0.002678,0.000431,0.000353
28676000,0.0324,0.013523,0.002678,0.000431,0.000235
28677000,0.0324,0.013523,0.002678,0.000431,0.000353
28678000,0.0324,0.013523,0.002678,0.000431,0.000470
28679000,0.0324,0.013523,0.002678,0.000431,0.000235
28680000,0.0324,0.013523,0.002678,0.000431,0.000235
28681000,0.0324,0.013523,0.002678,0.000431,0.000470
28682000,0.0324,0.013523,0.002678,0.000431,0.000353
28683000,0.0324,0.013523,0.002678,0.000431,0.000235
28684000,0.0324,0.013523,0.002678,0.000431,0.000353
28685000,0.0324,0.013523,0.002678,0.000431,0.000470
28686000,0.0324,0.013523,0.002678,0.000431,0.000235
28687000,0.0324,0.013523,0.002678,0.000431,0.000235
28688000,0.0324,0.013523,0.002678,0.000431,0.000470
28689000,0.0324,0.013523,0.002678,0.000431,0.000353
28690000,0.0324,0.013523,0.002678,0.000431,0.000235
28691000,0.0324,0.013523,0.002678,0.000431,0.000353
28692000,0.0324,0.013523,0.002678,0.000431,0.000470
28693000,0.0324,0.013523,0.002678,0.000431,0.000235
28694000,0.0324,0.013523,0.002678,0.000431,0.000235
28695000,0.0324,0.013523,0.002678,0.000431,0.000470
28696000,0.0324,0.013523,0.002678,0.000431,0.000353
28697000,0.0324,0.013523,0.002678,0.000431,0.000235
28698000,0.0324,0.013523,0.002678,0.000431,0.000353
28699000,0.0324,0.013523,0.002678,0.000431,0.000470
28700000,0.0324,0.013523,0.002678,0.000431,0.000235
28701000,0.0324,0.013523,0.002678,0.000431,0.000235
28702000,0.0324,0.013523,0.002678,0.000431,0.000470
28703000,0.0324,0.013523,0.002678,0.000431,0.000353
28704000,0.0324,0.013523,0.002678,0.000431,0.000235
28705000,0.0324,0.013523,0.002678,0.000431,0.000353
28706000,0.0324,0.013523,0.002678,0.000431,0.000470
28707000,0.0324,0.013523,0.002678,0.000431,0.000118
28708000,0.0324,0.013523,0.002678,0.000431,0.000353
28709000,0.0324,0.013523,0.002678,0.000431,0.000470
28710000,0.0324,0.013523,0.002678,0.000431,0.000353
28711000,0.0324,0.013523,0.002678,0.000431,0.000235
28712000,0.0324,0.013523,0.002678,0.000431,0.000353
28713000,0.0324,0.013523,0.002678,0.000431,0.000470
28714000,0.0324,0.013523,0.002678,0.000431,0.000118
28715000,0.0324,0.013523,0.002678,0.000431,0.000353
28716000,0.0324,0.013523,0.002678,0.000431,0.000470
28717000,0.0324,0.013523,0.002678,0.000431,0.000353
28718000,0.0324,0.013523,0.002678,0.000431,0.000235
28719000,0.0324,0.013523,0.002678,0.000431,0.000353
28720000,0.0324,0.013523,0.002678,0.000431,0.000470
28721000,0.0324,0.013523,0.002678,0.000431,0.000118
28722000,0.0324,0.013523,0.002678,0.000431,0.000353
28723000,0.0324,0.013523,0.002678,0.000431,0.000470
28724000,0.0324,0.013523,0.002678,0.000431,0.000353
28725000,0.0324,0.013523,0.002678,0.000431,0.000235
28726000,0.0324,0.013523,0.002678,0.000431,0.000353
28727000,0.0324,0.013523,0.002678,0.000431,0.000470
28728000,0.0324,0.013523,0.002678,0.000431,0.000118
28729000,0.0324,0.013523,0.002678,0.000431,0.000353
28730000,0.0324,0.013523,0.002678,0.000431,0.000470
28731000,0.0324,0.013523,0.002678,0.000431,0.000353
28732000,0.0324,0.013523,0.002678,0.000431,0.000235
28733000,0.0324,0.013523,0.002678,0.000431,0.000353
28734000,0.0324,0.013523,0.002678,0.000431,0.000353
28735000,0.0324,0.013523,0.002678,0.000431,0.000235
28736000,0.0324,0.013523,0.002678,0.000431,0.000353
28737000,0.0324,0.013523,0.002678,0.000431,0.000470
28738000,0.0324,0.013523,0.002678,0.000431,0.000353
28739000,0.0324,0.013523,0.002678,0.000431,0.000235
28740000,0.0324,0.013523,0.002678,0.000431,0.000353
28741000,0.0324,0.013523,0.002678,0.000431,0.000353
28742000,0.0324,0.013523,0.002678,0.000431,0.000235
28743000,0.0324,0.013523,0.002678,0.000431,0.000353
28744000,0.0324,0.013523,0.002678,0.000431,0.000470
28745000,0.0324,0.013523,0.002678,0.000431,0.000353
28746000,0.0324,0.013523,0.002678,0.000431,0.000235
28747000,0.0324,0.013523,0.002678,0.000431,0.000353
28748000,0.0324,0.013523,0.002678,0.000431,0.000353
28749000,0.0324,0.013523,0.002678,0.000431,0.000235
28750000,0.0324,0.013523,0.002678,0.000431,0.000353
28751000,0.0324,0.013523,0.002678,0.000431,0.000470
28752000,0.0324,0.013523,0.002678,0.000431,0.000353
28753000,0.0324,0.013523,0.002678,0.000431,0.000235
28754000,0.0324,0.013523,0.002678,0.000431,0.000353
28755000,0.0324,0.013523,0.002678,0.000431,0.000353
28756000,0.0324,0.013523,0.002678,0.000431,0.000235
28757000,0.0324,0.013523,0.002678,0.000431,0.000353
28758000,0.0324,0.013523,0.002678,0.000431,0.000470
28759000,0.0324,0.013523,0.002678,0.000431,0.000353
28760000,0.0324,0.013523,0.002678,0.000431,0.000235
28761000,0.0324,0.013523,0.002678,0.000431,0.000353
28762000,0.0324,0.013523,0.002678,0.000431,0.000353
28763000,0.0324,0.013523,0.002678,0.000431,0.000235
28764000,0.0324,0.013523,0.002678,0.000431,0.000353
28765000,0.0324,0.013523,0.002678,0.000431,0.000470
28766000,0.0324,0.013523,0.002678,0.000431,0.000353
28767000,0.0324,0.013523,0.002678,0.000431,0.000235
28768000,0.0324,0.013523,0.002678,0.000431,0.000353
28769000,0.0324,0.013523,0.002678,0.000431,0.000353
28770000,0.0324,0.013523,0.002678,0.000431,0.000235
28771000,0.0324,0.013523,0.002678,0.000431,0.000353
28772000,0.0324,0.013523,0.002678,0.000431,0.000470
28773000,0.0324,0.013523,0.002678,0.000431,0.000353
28774000,0.0324,0.013523,0.002678,0.000431,0.000235
28775000,0.0324,0.013523,0.002678,0.000431,0.000353
28776000,0.0324,0.013523,0.002678,0.000431,0.000353
28777000,0.0324,0.013523,0.002678,0.000431,0.000235
28778000,0.0324,0.013523,0.002678,0.000431,0.000353
28779000,0.0324,0.013523,0.002678,0.000431,0.000470
28780000,0.0324,0.013523,0.002678,0.000431,0.000353
28781000,0.0324,0.013523,0.002678,0.000431,0.000235
28782000,0.0324,0.013523,0.002678,0.000431,0.000353
28783000,0.0324,0.013523,0.002678,0.000431,0.000353
28784000,0.0324,0.013523,0.002678,0.000431,0.000235
28785000,0.0324,0.013523,0.002678,0.000431,0.000353
28786000,0.0324,0.013523,0.002678,0.000431,0.000470
28787000,0.0324,0.013523,0.002678,0.000431,0.000353
28788000,0.0324,0.013523,0.002678,0.000431,0.000118
28789000,0.0324,0.013523,0.002678,0.000431,0.000470
28790000,0.0324,0.013523,0.002678,0.000431,0.000353
28791000,0.0324,0.013523,0.002678,0.000431,0.000235
28792000,0.0324,0.013523,0.002678,0.000431,0.000353
28793000,0.0324,0.013523,0.002678,0.000431,0.000470
28794000,0.0324,0.013523,0.002678,0.000431,0.000353
28795000,0.0324,0.013523,0.002678,0.000431,0.000118
28796000,0.0324,0.013523,0.002678,0.000431,0.000470
28797000,0.0324,0.013523,0.002678,0.000431,0.000353
28798000,0.0324,0.013523,0.002678,0.000431,0.000235
28799000,0.0324,0.013523,0.002678,0.000431,0.000353
28800000,0.0324,0.013523,0.002678,0.000431,0.000470
28801000,0.0324,0.013523,0.002678,0.000431,0.000353
28802000,0.0324,0.013523,0.002678,0.000431,0.000118
28803000,0.0324,0.013523,0.002678,0.000431,0.000470
28804000,0.0324,0.013523,0.002678,0.000431,0.000353
28805000,0.0324,0.013523,0.002678,0.000431,0.000235
28806000,0.0324,0.013523,0.002678,0.000431,0.000353
28807000,0.0324,0.013523,0.002678,0.000431,0.000470
28808000,0.0324,0.013523,0.002678,0.000431,0.000235
28809000,0.0324,0.013523,0.002678,0.000431,0.000235
28810000,0.0324,0.013523,0.002678,0.000431,0.000470
28811000,0.0324,0.013523,0.002678,0.000431,0.000353
28812000,0.0324,0.013523,0.002678,0.000431,0.000235
28813000,0.0324,0.013523,0.002678,0.000431,0.000353
28814000,0.0324,0.013523,0.002678,0.000431,0.000470
28815000,0.0324,0.013523,0.002678,0.000431,0.000235
28816000,0.0324,0.013523,0.002678,0.000431,0.000235
28817000,0.0324,0.013523,0.002678,0.000431,0.000470
28818000,0.0324,0.013523,0.002678,0.000431,0.000353
28819000,0.0324,0.013523,0.002678,0.000431,0.000235
28820000,0.0324,0.013523,0.002678,0.000431,0.000353
28821000,0.0324,0.013523,0.002678,0.000431,0.000470
28822000,0.0324,0.013523,0.002678,0.000431,0.000235
28823000,0.0324,0.013523,0.002678,0.000431,0.000235
28824000,0.0324,0.013523,0.002678,0.000431,0.000470
28825000,0.0324,0.013523,0.002678,0.000431,0.000353
28826000,0.0324,0.013523,0.002678,0.000431,0.000235
28827000,0.0324,0.013523,0.002678,0.000431,0.000353
28828000,0.0324,0.013523,0.002678,0.000431,0.000470
28829000,0.0324,0.013523,0.002678,0.000431,0.000235
28830000,0.0324,0.013523,0.002678,0.000431,0.000235
28831000,0.0324,0.013523,0.002678,0.000431,0.000470
28832000,0.0324,0.013523,0.002678,0.000431,0.000353
28833000,0.0324,0.013523,0.002678,0.000431,0.000235
28834000,0.0324,0.013523,0.002678,0.000431,0.000353
28835000,0.0324,0.013523,0.002678,0.000431,0.000470
28836000,0.0324,0.013523,0.002678,0.000431,0.000235
28837000,0.0324,0.013523,0.002678,0.000431,0.000235
28838000,0.0324,0.013523,0.002678,0.000431,0.000470
28839000,0.0324,0.013523,0.002678,0.000431,0.000353
28840000,0.0324,0.013523,0.002678,0.000431,0.000235
28841000,0.0324,0.013523,0.002678,0.000431,0.000353
28842000,0.0324,0.013523,0.002678,0.000431,0.000470
28843000,0.0324,0.013523,0.002678,0.000431,0.000235
28844000,0.0324,0.013523,0.002678,0.000431,0.000235
28845000,0.0324,0.013523,0.002678,0.000431,0.000470
28846000,0.0324,0.013523,0.002678,0.000431,0.000353
28847000,0.0324,0.013523,0.002678,0.000431,0.000235
28848000,0.0324,0.013523,0.002678,0.000431,0.000353
28849000,0.0324,0.013523,0.002678,0.000431,0.000470
28850000,0.0324,0.013523,0.002678,0.000431,0.000118
28851000,0.0324,0.013523,0.002678,0.000431,0.000353
28852000,0.0324,0.013523,0.002678,0.000431,0.000470
28853000,0.0324,0.013523,0.002678,0.000431,0.000353
28854000,0.0324,0.013523,0.002678,0.000431,0.000235
28855000,0.0324,0.013523,0.002678,0.000431,0.000353
28856000,0.0324,0.013523,0.002678,0.000431,0.000470
28857000,0.0324,0.013523,0.002678,0.000431,0.000118
28858000,0.0324,0.013523,0.002678,0.000431,0.000353
28859000,0.0324,0.013523,0.002678,0.000431,0.000470
28860000,0.0324,0.013523,0.002678,0.000431,0.000353
28861000,0.0324,0.013523,0.002678,0.000431,0.000235
28862000,0.0324,0.013523,0.002678,0.000431,0.000353
28863000,0.0324,0.013523,0.002678,0.000431,0.000470
28864000,0.0324,0.013523,0.002678,0.000431,0.000118
28865000,0.0324,0.013523,0.002678,0.000431,0.000353
28866000,0.0324,0.013523,0.002678,0.000431,0.000470
28867000,0.0324,0.013523,0.002678,0.000431,0.000353
28868000,0.0324,0.013523,0.002678,0.000431,0.000235
28869000,0.0324,0.013523,0.002678,0.000431,0.000353
28870000,0.0324,0.013523,0.002678,0.000431,0.000353
28871000,0.0324,0.013523,0.002678,0.000431,0.000235
28872000,0.0324,0.013523,0.002678,0.000431,0.000353
28873000,0.0324,0.013523,0.002678,0.000431,0.000470
28874000,0.0324,0.013523,0.002678,0.000431,0.000353
28875000,0.0324,0.013523,0.002678,0.000431,0.000235
28876000,0.0324,0.013523,0.002678,0.000431,0.000353
28877000,0.0324,0.013523,0.002678,0.000431,0.000353
28878000,0.0324,0.013523,0.002678,0.000431,0.000235
28879000,0.0324,0.013523,0.002678,0.000431,0.000353
28880000,0.0324,0.013523,0.002678,0.000431,0.000470
28881000,0.0324,0.013523,0.002678,0.000431,0.000353
28882000,0.0324,0.013523,0.002678,0.000431,0.000235
28883000,0.0324,0.013523,0.002678,0.000431,0.000353
28884000,0.0324,0.013523,0.002678,0.000431,0.000353
28885000,0.0324,0.013523,0.002678,0.000431,0.000235
28886000,0.0324,0.013523,0.002678,0.000431,0.000353
28887000,0.0324,0.013523,0.002678,0.000431,0.000470
28888000,0.0324,0.013523,0.002678,0.000431,0.000353
28889000,0.0324,0.013523,0.002678,0.000431,0.000235
28890000,0.0324,0.013523,0.002678,0.000431,0.000353
28891000,0.0324,0.013523,0.002678,0.000431,0.000353
28892000,0.0324,0.013523,0.002678,0.000431,0.000235
28893000,0.0324,0.013523,0.002678,0.000431,0.000353
28894000,0.0324,0.013523,0.002678,0.000431,0.000470
28895000,0.0324,0.013523,0.002678,0.000431,0.000353
28896000,0.0324,0.013523,0.002678,0.000431,0.000235
28897000,0.0324,0.013523,0.002678,0.000431,0.000353
28898000,0.0324,0.013523,0.002678,0.000431,0.000353
28899000,0.0324,0.013523,0.002678,0.000431,0.000235
28900000,0.0324,0.013523,0.002678,0.000431,0.000353
28901000,0.0324,0.013523,0.002678,0.000431,0.000470
28902000,0.0324,0.013523,0.002678,0.000431,0.000353
28903000,0.0324,0.013523,0.002678,0.000431,0.000235
28904000,0.0324,0.013523,0.002678,0.000431,0.000353
28905000,0.0324,0.013523,0.002678,0.000431,0.000353
28906000,0.0324,0.013523,0.002678,0.000431,0.000235
28907000,0.0324,0.013523,0.002678,0.000431,0.000353
28908000,0.0324,0.013523,0.002678,0.000431,0.000470
28909000,0.0324,0.013523,0.002678,0.000431,0.000353
28910000,0.0324,0.013523,0.002678,0.000431,0.000235
28911000,0.0324,0.013523,0.002678,0.000431,0.000353
28912000,0.0324,0.013523,0.002678,0.000431,0.000353
28913000,0.0324,0.013523,0.002678,0.000431,0.000235
28914000,0.0324,0.013523,0.002678,0.000431,0.000353
28915000,0.0324,0.013523,0.002678,0.000431,0.000470
28916000,0.0324,0.013523,0.002678,0.000431,0.000353
28917000,0.0324,0.013523,0.002678,0.000431,0.000235
28918000,0.0324,0.013523,0.002678,0.000431,0.000353
28919000,0.0324,0.013523,0.002678,0.000431,0.000353
28920000,0.0324,0.013523,0.002678,0.000431,0.000235
28921000,0.0324,0.013523,0.002678,0.000431,0.000353
28922000,0.0324,0.013523,0.002678,0.000431,0.000470
28923000,0.0324,0.013523,0.002678,0.000431,0.000353
28924000,0.0324,0.013523,0.002678,0.000431,0.000118
28925000,0.0324,0.013523,0.002678,0.000431,0.000470
28926000,0.0324,0.013523,0.002678,0.000431,0.000353
28927000,0.0324,0.013523,0.002678,0.000431,0.000235
28928000,0.0324,0.013523,0.002678,0.000431,0.000353
28929000,0.0324,0.013523,0.002678,0.000431,0.000470
28930000,0.0324,0.013523,0.002678,0.000431,0.000353
28931000,0.0324,0.013523,0.002678,0.000431,0.000118
28932000,0.0324,0.013523,0.002678,0.000431,0.000470
28933000,0.0324,0.013523,0.002678,0.000431,0.000353
28934000,0.0324,0.013523,0.002678,0.000431,0.000235
28935000,0.0324,0.013523,0.002678,0.000431,0.000353
28936000,0.0324,0.013523,0.002678,0.000431,0.000470
28937000,0.0324,0.013523,0.002678,0.000431,0.000353
28938000,0.0324,0.013523,0.002678,0.000431,0.000118
28939000,0.0324,0.013523,0.002678,0.000431,0.000470
28940000,0.0324,0.013523,0.002678,0.000431,0.000353
28941000,0.0324,0.013523,0.002678,0.000431,0.000235
28942000,0.0324,0.013523,0.002678,0.000431,0.000353
28943000,0.0324,0.013523,0.002678,0.000431,0.000470
28944000,0.0324,0.013523,0.002678,0.000431,0.000353
28945000,0.0324,0.013523,0.002678,0.000431,0.000118
28946000,0.0324,0.013523,0.002678,0.000431,0.000470
28947000,0.0324,0.013523,0.002678,0.000431,0.000353
28948000,0.0324,0.013523,0.002678,0.000431,0.000235
28949000,0.0324,0.013523,0.002678,0.000431,0.000353
28950000,0.0324,0.013523,0.002678,0.000431,0.000470
28951000,0.0324,0.013523,0.002678,0.000431,0.000235
28952000,0.0324,0.013523,0.002678,0.000431,0.000235
28953000,0.0324,0.013523,0.002678,0.000431,0.000470
28954000,0.0324,0.013523,0.002678,0.000431,0.000353
28955000,0.0324,0.013523,0.002678,0.000431,0.000235
28956000,0.0324,0.013523,0.002678,0.000431,0.000353
28957000,0.0324,0.013523,0.002678,0.000431,0.000470
28958000,0.0324,0.013523,0.002678,0.000431,0.000235
28959000,0.0324,0.013523,0.002678,0.000431,0.000235
28960000,0.0324,0.013523,0.002678,0.000431,0.000470
28961000,0.0324,0.013523,0.002678,0.000431,0.000353
28962000,0.0324,0.013523,0.002678,0.000431,0.000235
28963000,0.0324,0.013523,0.002678,0.000431,0.000353
28964000,0.0324,0.013523,0.002678,0.000431,0.000470
28965000,0.0324,0.013523,0.002678,0.000431,0.000235
28966000,0.0324,0.013523,0.002678,0.000431,0.000235
28967000,0.0324,0.013523,0.002678,0.000431,0.000470
28968000,0.0324,0.013523,0.002678,0.000431,0.000353
28969000,0.0324,0.013523,0.002678,0.000431,0.000235
28970000,0.0324,0.013523,0.002678,0.000431,0.000353
28971000,0.0324,0.013523,0.002678,0.000431,0.000470
28972000,0.0324,0.013523,0.002678,0.000431,0.000235
28973000,0.0324,0.013523,0.002678,0.000431,0.000235
28974000,0.0324,0.013523,0.002678,0.000431,0.000470
28975000,0.0324,0.013523,0.002678,0.000431,0.000353
28976000,0.0324,0.013523,0.002678,0.000431,0.000235
28977000,0.0324,0.013523,0.002678,0.000431,0.000353
28978000,0.0324,0.013523,0.002678,0.000431,0.000470
28979000,0.0324,0.013523,0.002678,0.000431,0.000235
28980000,0.0324,0.013523,0.002678,0.000431,0.000235
28981000,0.0324,0.013523,0.002678,0.000431,0.000470
28982000,0.0324,0.013523,0.002678,0.000431,0.000353
28983000,0.0324,0.013523,0.002678,0.000431,0.000235
28984000,0.0324,0.013523,0.002678,0.000431,0.000353
28985000,0.0324,0.013523,0.002678,0.000431,0.000470
28986000,0.0324,0.013523,0.002678,0.000431,0.000235
28987000,0.0324,0.013523,0.002678,0.000431,0.000235
28988000,0.0324,0.013523,0.002678,0.000431,0.000470
28989000,0.0324,0.013523,0.002678,0.000431,0.000353
28990000,0.0324,0.013523,0.002678,0.000431,0.000235
28991000,0.0324,0.013523,0.002678,0.000431,0.000353
28992000,0.0324,0.013523,0.002678,0.000431,0.000470
28993000,0.0324,0.013523,0.002678,0.000431,0.000118
28994000,0.0324,0.013523,0.002678,0.000431,0.000353
28995000,0.0324,0.013523,0.002678,0.000431,0.000470
28996000,0.0324,0.013523,0.002678,0.000431,0.000353
28997000,0.0324,0.013523,0.002678,0.000431,0.000235
28998000,0.0324,0.013523,0.002678,0.000431,0.000353
28999000,0.0324,0.013523,0.002678,0.000431,0.000470
