Cycle,Area(mm^2),PeakDynamic(W),SubthresholdLeakage(W),GateLeakage(W),RunTimeDynamic(W)
53000000,0.0324,0.013523,0.002678,0.000431,0.000823
53001000,0.0324,0.013523,0.002678,0.000431,0.000823
53002000,0.0324,0.013523,0.002678,0.000431,0.000940
53003000,0.0324,0.013523,0.002678,0.000431,0.000705
53004000,0.0324,0.013523,0.002678,0.000431,0.000940
53005000,0.0324,0.013523,0.002678,0.000431,0.000823
53006000,0.0324,0.013523,0.002678,0.000431,0.000823
53007000,0.0324,0.013523,0.002678,0.000431,0.000823
53008000,0.0324,0.013523,0.002678,0.000431,0.000823
53009000,0.0324,0.013523,0.002678,0.000431,0.000940
53010000,0.0324,0.013523,0.002678,0.000431,0.000705
53011000,0.0324,0.013523,0.002678,0.000431,0.000940
53012000,0.0324,0.013523,0.002678,0.000431,0.001880
53013000,0.0324,0.013523,0.002678,0.000431,0.310392
53014000,0.0324,0.013523,0.002678,0.000431,0.618786
53015000,0.0324,0.013523,0.002678,0.000431,0.200738
53016000,0.0324,0.013523,0.002678,0.000431,0.130691
53017000,0.0324,0.013523,0.002678,0.000431,0.134452
53018000,0.0324,0.013523,0.002678,0.000431,0.605858
53019000,0.0324,0.013523,0.002678,0.000431,0.230238
53020000,0.0324,0.013523,0.002678,0.000431,0.282303
53021000,0.0324,0.013523,0.002678,0.000431,0.259267
53022000,0.0324,0.013523,0.002678,0.000431,0.136920
53023000,0.0324,0.013523,0.002678,0.000431,0.147028
53024000,0.0324,0.013523,0.002678,0.000431,0.108361
53025000,0.0324,0.013523,0.002678,0.000431,0.369038
53026000,0.0324,0.013523,0.002678,0.000431,0.232588
53027000,0.0324,0.013523,0.002678,0.000431,0.040782
53028000,0.0324,0.013523,0.002678,0.000431,0.042193
53029000,0.0324,0.013523,0.002678,0.000431,0.029617
53030000,0.0324,0.013523,0.002678,0.000431,0.023506
53031000,0.0324,0.013523,0.002678,0.000431,0.022918
53032000,0.0324,0.013523,0.002678,0.000431,0.014573
53033000,0.0324,0.013523,0.002678,0.000431,0.016336
53034000,0.0324,0.013523,0.002678,0.000431,0.016101
53035000,0.0324,0.013523,0.002678,0.000431,0.014456
53036000,0.0324,0.013523,0.002678,0.000431,0.011635
53037000,0.0324,0.013523,0.002678,0.000431,0.011635
53038000,0.0324,0.013523,0.002678,0.000431,0.011518
53039000,0.0324,0.013523,0.002678,0.000431,0.010460
53040000,0.0324,0.013523,0.002678,0.000431,0.011753
53041000,0.0324,0.013523,0.002678,0.000431,0.009050
53042000,0.0324,0.013523,0.002678,0.000431,0.009402
53043000,0.0324,0.013523,0.002678,0.000431,0.008932
53044000,0.0324,0.013523,0.002678,0.000431,0.010107
53045000,0.0324,0.013523,0.002678,0.000431,0.009755
53046000,0.0324,0.013523,0.002678,0.000431,0.008109
53047000,0.0324,0.013523,0.002678,0.000431,0.008345
53048000,0.0324,0.013523,0.002678,0.000431,0.008345
53049000,0.0324,0.013523,0.002678,0.000431,0.007992
53050000,0.0324,0.013523,0.002678,0.000431,0.008345
53051000,0.0324,0.013523,0.002678,0.000431,0.008345
53052000,0.0324,0.013523,0.002678,0.000431,0.008462
53053000,0.0324,0.013523,0.002678,0.000431,0.008227
53054000,0.0324,0.013523,0.002678,0.000431,0.008109
53055000,0.0324,0.013523,0.002678,0.000431,0.008345
53056000,0.0324,0.013523,0.002678,0.000431,0.008697
53057000,0.0324,0.013523,0.002678,0.000431,0.007757
53058000,0.0324,0.013523,0.002678,0.000431,0.008345
53059000,0.0324,0.013523,0.002678,0.000431,0.008815
53060000,0.0324,0.013523,0.002678,0.000431,0.008109
53061000,0.0324,0.013523,0.002678,0.000431,0.008580
53062000,0.0324,0.013523,0.002678,0.000431,0.008462
53063000,0.0324,0.013523,0.002678,0.000431,0.007404
53064000,0.0324,0.013523,0.002678,0.000431,0.007522
53065000,0.0324,0.013523,0.002678,0.000431,0.007169
53066000,0.0324,0.013523,0.002678,0.000431,0.009520
53067000,0.0324,0.013523,0.002678,0.000431,0.008697
53068000,0.0324,0.013523,0.002678,0.000431,0.005524
53069000,0.0324,0.013523,0.002678,0.000431,0.005406
53070000,0.0324,0.013523,0.002678,0.000431,0.005171
53071000,0.0324,0.013523,0.002678,0.000431,0.005171
53072000,0.0324,0.013523,0.002678,0.000431,0.004936
53073000,0.0324,0.013523,0.002678,0.000431,0.005054
53074000,0.0324,0.013523,0.002678,0.000431,0.005289
53075000,0.0324,0.013523,0.002678,0.000431,0.004936
53076000,0.0324,0.013523,0.002678,0.000431,0.005171
53077000,0.0324,0.013523,0.002678,0.000431,0.005054
53078000,0.0324,0.013523,0.002678,0.000431,0.005171
53079000,0.0324,0.013523,0.002678,0.000431,0.004819
53080000,0.0324,0.013523,0.002678,0.000431,0.005289
53081000,0.0324,0.013523,0.002678,0.000431,0.005054
53082000,0.0324,0.013523,0.002678,0.000431,0.005054
53083000,0.0324,0.013523,0.002678,0.000431,0.005171
53084000,0.0324,0.013523,0.002678,0.000431,0.004936
53085000,0.0324,0.013523,0.002678,0.000431,0.004936
53086000,0.0324,0.013523,0.002678,0.000431,0.005171
53087000,0.0324,0.013523,0.002678,0.000431,0.005289
53088000,0.0324,0.013523,0.002678,0.000431,0.004936
53089000,0.0324,0.013523,0.002678,0.000431,0.005054
53090000,0.0324,0.013523,0.002678,0.000431,0.005054
53091000,0.0324,0.013523,0.002678,0.000431,0.005054
53092000,0.0324,0.013523,0.002678,0.000431,0.005054
53093000,0.0324,0.013523,0.002678,0.000431,0.005171
53094000,0.0324,0.013523,0.002678,0.000431,0.005289
53095000,0.0324,0.013523,0.002678,0.000431,0.005054
53096000,0.0324,0.013523,0.002678,0.000431,0.004701
53097000,0.0324,0.013523,0.002678,0.000431,0.005406
53098000,0.0324,0.013523,0.002678,0.000431,0.005171
53099000,0.0324,0.013523,0.002678,0.000431,0.005054
53100000,0.0324,0.013523,0.002678,0.000431,0.004819
53101000,0.0324,0.013523,0.002678,0.000431,0.005171
53102000,0.0324,0.013523,0.002678,0.000431,0.007639
53103000,0.0324,0.013523,0.002678,0.000431,0.003878
53104000,0.0324,0.013523,0.002678,0.000431,0.004349
53105000,0.0324,0.013523,0.002678,0.000431,0.004701
53106000,0.0324,0.013523,0.002678,0.000431,0.004113
53107000,0.0324,0.013523,0.002678,0.000431,0.005171
53108000,0.0324,0.013523,0.002678,0.000431,0.003408
53109000,0.0324,0.013523,0.002678,0.000431,0.003643
53110000,0.0324,0.013523,0.002678,0.000431,0.003173
53111000,0.0324,0.013523,0.002678,0.000431,0.003173
53112000,0.0324,0.013523,0.002678,0.000431,0.003643
53113000,0.0324,0.013523,0.002678,0.000431,0.003291
53114000,0.0324,0.013523,0.002678,0.000431,0.003526
53115000,0.0324,0.013523,0.002678,0.000431,0.004349
53116000,0.0324,0.013523,0.002678,0.000431,0.001880
53117000,0.0324,0.013523,0.002678,0.000431,0.001645
53118000,0.0324,0.013523,0.002678,0.000431,0.001645
53119000,0.0324,0.013523,0.002678,0.000431,0.001645
53120000,0.0324,0.013523,0.002678,0.000431,0.001880
53121000,0.0324,0.013523,0.002678,0.000431,0.001763
53122000,0.0324,0.013523,0.002678,0.000431,0.001528
53123000,0.0324,0.013523,0.002678,0.000431,0.001880
53124000,0.0324,0.013523,0.002678,0.000431,0.001645
53125000,0.0324,0.013523,0.002678,0.000431,0.001645
53126000,0.0324,0.013523,0.002678,0.000431,0.001763
53127000,0.0324,0.013523,0.002678,0.000431,0.001763
53128000,0.0324,0.013523,0.002678,0.000431,0.001880
53129000,0.0324,0.013523,0.002678,0.000431,0.001410
53130000,0.0324,0.013523,0.002678,0.000431,0.001880
53131000,0.0324,0.013523,0.002678,0.000431,0.001763
53132000,0.0324,0.013523,0.002678,0.000431,0.001645
53133000,0.0324,0.013523,0.002678,0.000431,0.001645
53134000,0.0324,0.013523,0.002678,0.000431,0.001763
53135000,0.0324,0.013523,0.002678,0.000431,0.001763
53136000,0.0324,0.013523,0.002678,0.000431,0.001645
53137000,0.0324,0.013523,0.002678,0.000431,0.001763
53138000,0.0324,0.013523,0.002678,0.000431,0.001645
53139000,0.0324,0.013523,0.002678,0.000431,0.001645
53140000,0.0324,0.013523,0.002678,0.000431,0.001880
53141000,0.0324,0.013523,0.002678,0.000431,0.001645
53142000,0.0324,0.013523,0.002678,0.000431,0.001763
53143000,0.0324,0.013523,0.002678,0.000431,0.002468
53144000,0.0324,0.013523,0.002678,0.000431,0.001763
53145000,0.0324,0.013523,0.002678,0.000431,0.000940
53146000,0.0324,0.013523,0.002678,0.000431,0.000940
53147000,0.0324,0.013523,0.002678,0.000431,0.000705
53148000,0.0324,0.013523,0.002678,0.000431,0.000940
53149000,0.0324,0.013523,0.002678,0.000431,0.000705
53150000,0.0324,0.013523,0.002678,0.000431,0.000940
53151000,0.0324,0.013523,0.002678,0.000431,0.000940
53152000,0.0324,0.013523,0.002678,0.000431,0.000705
53153000,0.0324,0.013523,0.002678,0.000431,0.000940
53154000,0.0324,0.013523,0.002678,0.000431,0.000705
53155000,0.0324,0.013523,0.002678,0.000431,0.000940
53156000,0.0324,0.013523,0.002678,0.000431,0.000823
53157000,0.0324,0.013523,0.002678,0.000431,0.000823
53158000,0.0324,0.013523,0.002678,0.000431,0.000823
53159000,0.0324,0.013523,0.002678,0.000431,0.000823
53160000,0.0324,0.013523,0.002678,0.000431,0.000940
53161000,0.0324,0.013523,0.002678,0.000431,0.000705
53162000,0.0324,0.013523,0.002678,0.000431,0.000940
53163000,0.0324,0.013523,0.002678,0.000431,0.000823
53164000,0.0324,0.013523,0.002678,0.000431,0.000823
53165000,0.0324,0.013523,0.002678,0.000431,0.000823
53166000,0.0324,0.013523,0.002678,0.000431,0.000823
53167000,0.0324,0.013523,0.002678,0.000431,0.000823
53168000,0.0324,0.013523,0.002678,0.000431,0.000823
53169000,0.0324,0.013523,0.002678,0.000431,0.000940
53170000,0.0324,0.013523,0.002678,0.000431,0.000823
53171000,0.0324,0.013523,0.002678,0.000431,0.000823
53172000,0.0324,0.013523,0.002678,0.000431,0.000705
53173000,0.0324,0.013523,0.002678,0.000431,0.000940
53174000,0.0324,0.013523,0.002678,0.000431,0.000940
53175000,0.0324,0.013523,0.002678,0.000431,0.000705
53176000,0.0324,0.013523,0.002678,0.000431,0.000940
53177000,0.0324,0.013523,0.002678,0.000431,0.000705
53178000,0.0324,0.013523,0.002678,0.000431,0.000940
53179000,0.0324,0.013523,0.002678,0.000431,0.000823
53180000,0.0324,0.013523,0.002678,0.000431,0.000823
53181000,0.0324,0.013523,0.002678,0.000431,0.000823
53182000,0.0324,0.013523,0.002678,0.000431,0.000823
53183000,0.0324,0.013523,0.002678,0.000431,0.000940
53184000,0.0324,0.013523,0.002678,0.000431,0.000705
53185000,0.0324,0.013523,0.002678,0.000431,0.000940
53186000,0.0324,0.013523,0.002678,0.000431,0.000823
53187000,0.0324,0.013523,0.002678,0.000431,0.000823
53188000,0.0324,0.013523,0.002678,0.000431,0.000823
53189000,0.0324,0.013523,0.002678,0.000431,0.000823
53190000,0.0324,0.013523,0.002678,0.000431,0.000940
53191000,0.0324,0.013523,0.002678,0.000431,0.000705
53192000,0.0324,0.013523,0.002678,0.000431,0.000823
53193000,0.0324,0.013523,0.002678,0.000431,0.000823
53194000,0.0324,0.013523,0.002678,0.000431,0.000940
53195000,0.0324,0.013523,0.002678,0.000431,0.000823
53196000,0.0324,0.013523,0.002678,0.000431,0.000823
53197000,0.0324,0.013523,0.002678,0.000431,0.000705
53198000,0.0324,0.013523,0.002678,0.000431,0.000940
53199000,0.0324,0.013523,0.002678,0.000431,0.000940
53200000,0.0324,0.013523,0.002678,0.000431,0.000705
53201000,0.0324,0.013523,0.002678,0.000431,0.000940
53202000,0.0324,0.013523,0.002678,0.000431,0.000705
53203000,0.0324,0.013523,0.002678,0.000431,0.000940
53204000,0.0324,0.013523,0.002678,0.000431,0.000823
53205000,0.0324,0.013523,0.002678,0.000431,0.000823
53206000,0.0324,0.013523,0.002678,0.000431,0.000940
53207000,0.0324,0.013523,0.002678,0.000431,0.000705
53208000,0.0324,0.013523,0.002678,0.000431,0.000940
53209000,0.0324,0.013523,0.002678,0.000431,0.000823
53210000,0.0324,0.013523,0.002678,0.000431,0.000823
53211000,0.0324,0.013523,0.002678,0.000431,0.000823
53212000,0.0324,0.013523,0.002678,0.000431,0.000823
53213000,0.0324,0.013523,0.002678,0.000431,0.000823
53214000,0.0324,0.013523,0.002678,0.000431,0.000823
53215000,0.0324,0.013523,0.002678,0.000431,0.000940
53216000,0.0324,0.013523,0.002678,0.000431,0.000705
53217000,0.0324,0.013523,0.002678,0.000431,0.000940
53218000,0.0324,0.013523,0.002678,0.000431,0.000823
53219000,0.0324,0.013523,0.002678,0.000431,0.000823
53220000,0.0324,0.013523,0.002678,0.000431,0.000823
53221000,0.0324,0.013523,0.002678,0.000431,0.000823
53222000,0.0324,0.013523,0.002678,0.000431,0.000940
53223000,0.0324,0.013523,0.002678,0.000431,0.000705
53224000,0.0324,0.013523,0.002678,0.000431,0.000940
53225000,0.0324,0.013523,0.002678,0.000431,0.000705
53226000,0.0324,0.013523,0.002678,0.000431,0.000940
53227000,0.0324,0.013523,0.002678,0.000431,0.000823
53228000,0.0324,0.013523,0.002678,0.000431,0.000823
53229000,0.0324,0.013523,0.002678,0.000431,0.000940
53230000,0.0324,0.013523,0.002678,0.000431,0.000705
53231000,0.0324,0.013523,0.002678,0.000431,0.000940
53232000,0.0324,0.013523,0.002678,0.000431,0.000823
53233000,0.0324,0.013523,0.002678,0.000431,0.000823
53234000,0.0324,0.013523,0.002678,0.000431,0.000823
53235000,0.0324,0.013523,0.002678,0.000431,0.000823
53236000,0.0324,0.013523,0.002678,0.000431,0.000940
53237000,0.0324,0.013523,0.002678,0.000431,0.000705
53238000,0.0324,0.013523,0.002678,0.000431,0.000940
53239000,0.0324,0.013523,0.002678,0.000431,0.000823
53240000,0.0324,0.013523,0.002678,0.000431,0.000823
53241000,0.0324,0.013523,0.002678,0.000431,0.000823
53242000,0.0324,0.013523,0.002678,0.000431,0.000823
53243000,0.0324,0.013523,0.002678,0.000431,0.000823
53244000,0.0324,0.013523,0.002678,0.000431,0.000823
53245000,0.0324,0.013523,0.002678,0.000431,0.000823
53246000,0.0324,0.013523,0.002678,0.000431,0.000823
53247000,0.0324,0.013523,0.002678,0.000431,0.000940
53248000,0.0324,0.013523,0.002678,0.000431,0.000823
53249000,0.0324,0.013523,0.002678,0.000431,0.000823
53250000,0.0324,0.013523,0.002678,0.000431,0.000705
53251000,0.0324,0.013523,0.002678,0.000431,0.000940
53252000,0.0324,0.013523,0.002678,0.000431,0.000940
53253000,0.0324,0.013523,0.002678,0.000431,0.147263
53254000,0.0324,0.013523,0.002678,0.000431,0.453424
53255000,0.0324,0.013523,0.002678,0.000431,0.534518
53256000,0.0324,0.013523,0.002678,0.000431,0.134922
53257000,0.0324,0.013523,0.002678,0.000431,0.130691
53258000,0.0324,0.013523,0.002678,0.000431,0.556496
53259000,0.0324,0.013523,0.002678,0.000431,0.231413
53260000,0.0324,0.013523,0.002678,0.000431,0.247162
53261000,0.0324,0.013523,0.002678,0.000431,0.352820
53262000,0.0324,0.013523,0.002678,0.000431,0.143267
53263000,0.0324,0.013523,0.002678,0.000431,0.144090
53264000,0.0324,0.013523,0.002678,0.000431,0.107186
53265000,0.0324,0.013523,0.002678,0.000431,0.360106
53266000,0.0324,0.013523,0.002678,0.000431,0.301342
53267000,0.0324,0.013523,0.002678,0.000431,0.094610
53268000,0.0324,0.013523,0.002678,0.000431,0.064170
53269000,0.0324,0.013523,0.002678,0.000431,0.047011
53270000,0.0324,0.013523,0.002678,0.000431,0.042075
53271000,0.0324,0.013523,0.002678,0.000431,0.038549
53272000,0.0324,0.013523,0.002678,0.000431,0.032203
53273000,0.0324,0.013523,0.002678,0.000431,0.023271
53274000,0.0324,0.013523,0.002678,0.000431,0.018217
53275000,0.0324,0.013523,0.002678,0.000431,0.017159
53276000,0.0324,0.013523,0.002678,0.000431,0.013163
53277000,0.0324,0.013523,0.002678,0.000431,0.012223
53278000,0.0324,0.013523,0.002678,0.000431,0.011988
53279000,0.0324,0.013523,0.002678,0.000431,0.014573
53280000,0.0324,0.013523,0.002678,0.000431,0.013163
53281000,0.0324,0.013523,0.002678,0.000431,0.008227
53282000,0.0324,0.013523,0.002678,0.000431,0.009520
53283000,0.0324,0.013523,0.002678,0.000431,0.009050
53284000,0.0324,0.013523,0.002678,0.000431,0.007522
53285000,0.0324,0.013523,0.002678,0.000431,0.007404
53286000,0.0324,0.013523,0.002678,0.000431,0.008815
53287000,0.0324,0.013523,0.002678,0.000431,0.007287
53288000,0.0324,0.013523,0.002678,0.000431,0.008109
53289000,0.0324,0.013523,0.002678,0.000431,0.009520
53290000,0.0324,0.013523,0.002678,0.000431,0.004584
53291000,0.0324,0.013523,0.002678,0.000431,0.007052
53292000,0.0324,0.013523,0.002678,0.000431,0.003761
53293000,0.0324,0.013523,0.002678,0.000431,0.004231
53294000,0.0324,0.013523,0.002678,0.000431,0.004231
53295000,0.0324,0.013523,0.002678,0.000431,0.003878
53296000,0.0324,0.013523,0.002678,0.000431,0.003996
53297000,0.0324,0.013523,0.002678,0.000431,0.006229
53298000,0.0324,0.013523,0.002678,0.000431,0.002468
53299000,0.0324,0.013523,0.002678,0.000431,0.002233
53300000,0.0324,0.013523,0.002678,0.000431,0.002586
53301000,0.0324,0.013523,0.002678,0.000431,0.002586
53302000,0.0324,0.013523,0.002678,0.000431,0.002586
53303000,0.0324,0.013523,0.002678,0.000431,0.002116
53304000,0.0324,0.013523,0.002678,0.000431,0.002586
53305000,0.0324,0.013523,0.002678,0.000431,0.002233
53306000,0.0324,0.013523,0.002678,0.000431,0.002586
53307000,0.0324,0.013523,0.002678,0.000431,0.002703
53308000,0.0324,0.013523,0.002678,0.000431,0.002116
53309000,0.0324,0.013523,0.002678,0.000431,0.002821
53310000,0.0324,0.013523,0.002678,0.000431,0.002116
53311000,0.0324,0.013523,0.002678,0.000431,0.002586
53312000,0.0324,0.013523,0.002678,0.000431,0.002586
53313000,0.0324,0.013523,0.002678,0.000431,0.002233
53314000,0.0324,0.013523,0.002678,0.000431,0.002586
53315000,0.0324,0.013523,0.002678,0.000431,0.002351
53316000,0.0324,0.013523,0.002678,0.000431,0.002468
53317000,0.0324,0.013523,0.002678,0.000431,0.002468
53318000,0.0324,0.013523,0.002678,0.000431,0.002468
53319000,0.0324,0.013523,0.002678,0.000431,0.002351
53320000,0.0324,0.013523,0.002678,0.000431,0.003526
53321000,0.0324,0.013523,0.002678,0.000431,0.000823
53322000,0.0324,0.013523,0.002678,0.000431,0.000823
53323000,0.0324,0.013523,0.002678,0.000431,0.000940
53324000,0.0324,0.013523,0.002678,0.000431,0.000940
53325000,0.0324,0.013523,0.002678,0.000431,0.000705
53326000,0.0324,0.013523,0.002678,0.000431,0.000940
53327000,0.0324,0.013523,0.002678,0.000431,0.000940
53328000,0.0324,0.013523,0.002678,0.000431,0.000940
53329000,0.0324,0.013523,0.002678,0.000431,0.000823
53330000,0.0324,0.013523,0.002678,0.000431,0.000823
53331000,0.0324,0.013523,0.002678,0.000431,0.000940
53332000,0.0324,0.013523,0.002678,0.000431,0.002351
53333000,0.0324,0.013523,0.002678,0.000431,0.473874
53334000,0.0324,0.013523,0.002678,0.000431,0.676610
53335000,0.0324,0.013523,0.002678,0.000431,0.132102
53336000,0.0324,0.013523,0.002678,0.000431,0.133042
53337000,0.0324,0.013523,0.002678,0.000431,0.262793
53338000,0.0324,0.013523,0.002678,0.000431,0.474226
53339000,0.0324,0.013523,0.002678,0.000431,0.229650
53340000,0.0324,0.013523,0.002678,0.000431,0.308982
53341000,0.0324,0.013523,0.002678,0.000431,0.180288
53342000,0.0324,0.013523,0.002678,0.000431,0.146558
53343000,0.0324,0.013523,0.002678,0.000431,0.160308
53344000,0.0324,0.013523,0.002678,0.000431,0.195802
53345000,0.0324,0.013523,0.002678,0.000431,0.440378
53346000,0.0324,0.013523,0.002678,0.000431,0.091907
53347000,0.0324,0.013523,0.002678,0.000431,0.081447
53348000,0.0324,0.013523,0.002678,0.000431,0.077569
53349000,0.0324,0.013523,0.002678,0.000431,0.053475
53350000,0.0324,0.013523,0.002678,0.000431,0.054180
53351000,0.0324,0.013523,0.002678,0.000431,0.035494
53352000,0.0324,0.013523,0.002678,0.000431,0.029265
53353000,0.0324,0.013523,0.002678,0.000431,0.030087
53354000,0.0324,0.013523,0.002678,0.000431,0.016219
53355000,0.0324,0.013523,0.002678,0.000431,0.019745
53356000,0.0324,0.013523,0.002678,0.000431,0.015749
53357000,0.0324,0.013523,0.002678,0.000431,0.016571
53358000,0.0324,0.013523,0.002678,0.000431,0.013398
53359000,0.0324,0.013523,0.002678,0.000431,0.009872
53360000,0.0324,0.013523,0.002678,0.000431,0.008815
53361000,0.0324,0.013523,0.002678,0.000431,0.006934
53362000,0.0324,0.013523,0.002678,0.000431,0.007052
53363000,0.0324,0.013523,0.002678,0.000431,0.006699
53364000,0.0324,0.013523,0.002678,0.000431,0.007874
53365000,0.0324,0.013523,0.002678,0.000431,0.010342
53366000,0.0324,0.013523,0.002678,0.000431,0.004349
53367000,0.0324,0.013523,0.002678,0.000431,0.004113
53368000,0.0324,0.013523,0.002678,0.000431,0.008227
53369000,0.0324,0.013523,0.002678,0.000431,0.003526
53370000,0.0324,0.013523,0.002678,0.000431,0.003056
53371000,0.0324,0.013523,0.002678,0.000431,0.002351
53372000,0.0324,0.013523,0.002678,0.000431,0.002703
53373000,0.0324,0.013523,0.002678,0.000431,0.003056
53374000,0.0324,0.013523,0.002678,0.000431,0.002351
53375000,0.0324,0.013523,0.002678,0.000431,0.003056
53376000,0.0324,0.013523,0.002678,0.000431,0.002233
53377000,0.0324,0.013523,0.002678,0.000431,0.002821
53378000,0.0324,0.013523,0.002678,0.000431,0.002821
53379000,0.0324,0.013523,0.002678,0.000431,0.002703
53380000,0.0324,0.013523,0.002678,0.000431,0.002703
53381000,0.0324,0.013523,0.002678,0.000431,0.002586
53382000,0.0324,0.013523,0.002678,0.000431,0.002233
53383000,0.0324,0.013523,0.002678,0.000431,0.003173
53384000,0.0324,0.013523,0.002678,0.000431,0.002938
53385000,0.0324,0.013523,0.002678,0.000431,0.002703
53386000,0.0324,0.013523,0.002678,0.000431,0.002586
53387000,0.0324,0.013523,0.002678,0.000431,0.002703
53388000,0.0324,0.013523,0.002678,0.000431,0.003173
53389000,0.0324,0.013523,0.002678,0.000431,0.002351
53390000,0.0324,0.013523,0.002678,0.000431,0.003056
53391000,0.0324,0.013523,0.002678,0.000431,0.002703
53392000,0.0324,0.013523,0.002678,0.000431,0.002468
53393000,0.0324,0.013523,0.002678,0.000431,0.003526
53394000,0.0324,0.013523,0.002678,0.000431,0.000705
53395000,0.0324,0.013523,0.002678,0.000431,0.000940
53396000,0.0324,0.013523,0.002678,0.000431,0.000705
53397000,0.0324,0.013523,0.002678,0.000431,0.000823
53398000,0.0324,0.013523,0.002678,0.000431,0.000940
53399000,0.0324,0.013523,0.002678,0.000431,0.000823
53400000,0.0324,0.013523,0.002678,0.000431,0.000823
53401000,0.0324,0.013523,0.002678,0.000431,0.000823
53402000,0.0324,0.013523,0.002678,0.000431,0.000823
53403000,0.0324,0.013523,0.002678,0.000431,0.000823
53404000,0.0324,0.013523,0.002678,0.000431,0.000940
53405000,0.0324,0.013523,0.002678,0.000431,0.000940
53406000,0.0324,0.013523,0.002678,0.000431,0.000823
53407000,0.0324,0.013523,0.002678,0.000431,0.000823
53408000,0.0324,0.013523,0.002678,0.000431,0.000940
53409000,0.0324,0.013523,0.002678,0.000431,0.000823
53410000,0.0324,0.013523,0.002678,0.000431,0.000940
53411000,0.0324,0.013523,0.002678,0.000431,0.071575
53412000,0.0324,0.013523,0.002678,0.000431,0.597513
53413000,0.0324,0.013523,0.002678,0.000431,0.561785
53414000,0.0324,0.013523,0.002678,0.000431,0.137508
53415000,0.0324,0.013523,0.002678,0.000431,0.132924
53416000,0.0324,0.013523,0.002678,0.000431,0.569894
53417000,0.0324,0.013523,0.002678,0.000431,0.245516
53418000,0.0324,0.013523,0.002678,0.000431,0.312507
53419000,0.0324,0.013523,0.002678,0.000431,0.278424
53420000,0.0324,0.013523,0.002678,0.000431,0.140681
53421000,0.0324,0.013523,0.002678,0.000431,0.150554
53422000,0.0324,0.013523,0.002678,0.000431,0.220013
53423000,0.0324,0.013523,0.002678,0.000431,0.385140
53424000,0.0324,0.013523,0.002678,0.000431,0.052535
53425000,0.0324,0.013523,0.002678,0.000431,0.037139
53426000,0.0324,0.013523,0.002678,0.000431,0.033731
53427000,0.0324,0.013523,0.002678,0.000431,0.029852
53428000,0.0324,0.013523,0.002678,0.000431,0.025034
53429000,0.0324,0.013523,0.002678,0.000431,0.015984
53430000,0.0324,0.013523,0.002678,0.000431,0.017042
53431000,0.0324,0.013523,0.002678,0.000431,0.011165
53432000,0.0324,0.013523,0.002678,0.000431,0.013281
53433000,0.0324,0.013523,0.002678,0.000431,0.012223
53434000,0.0324,0.013523,0.002678,0.000431,0.005171
53435000,0.0324,0.013523,0.002678,0.000431,0.005171
53436000,0.0324,0.013523,0.002678,0.000431,0.007287
53437000,0.0324,0.013523,0.002678,0.000431,0.006817
53438000,0.0324,0.013523,0.002678,0.000431,0.003878
53439000,0.0324,0.013523,0.002678,0.000431,0.003878
53440000,0.0324,0.013523,0.002678,0.000431,0.002116
53441000,0.0324,0.013523,0.002678,0.000431,0.000705
53442000,0.0324,0.013523,0.002678,0.000431,0.000940
53443000,0.0324,0.013523,0.002678,0.000431,0.000705
53444000,0.0324,0.013523,0.002678,0.000431,0.000940
53445000,0.0324,0.013523,0.002678,0.000431,0.000823
53446000,0.0324,0.013523,0.002678,0.000431,0.000823
53447000,0.0324,0.013523,0.002678,0.000431,0.000823
53448000,0.0324,0.013523,0.002678,0.000431,0.000823
53449000,0.0324,0.013523,0.002678,0.000431,0.000940
53450000,0.0324,0.013523,0.002678,0.000431,0.000705
53451000,0.0324,0.013523,0.002678,0.000431,0.000940
53452000,0.0324,0.013523,0.002678,0.000431,0.000823
53453000,0.0324,0.013523,0.002678,0.000431,0.070752
53454000,0.0324,0.013523,0.002678,0.000431,0.479985
53455000,0.0324,0.013523,0.002678,0.000431,0.567309
53456000,0.0324,0.013523,0.002678,0.000431,0.132572
53457000,0.0324,0.013523,0.002678,0.000431,0.133512
53458000,0.0324,0.013523,0.002678,0.000431,0.570482
53459000,0.0324,0.013523,0.002678,0.000431,0.226242
53460000,0.0324,0.013523,0.002678,0.000431,0.282303
53461000,0.0324,0.013523,0.002678,0.000431,0.339069
53462000,0.0324,0.013523,0.002678,0.000431,0.135392
53463000,0.0324,0.013523,0.002678,0.000431,0.142092
53464000,0.0324,0.013523,0.002678,0.000431,0.113297
53465000,0.0324,0.013523,0.002678,0.000431,0.411349
53466000,0.0324,0.013523,0.002678,0.000431,0.186870
53467000,0.0324,0.013523,0.002678,0.000431,0.067931
53468000,0.0324,0.013523,0.002678,0.000431,0.045954
53469000,0.0324,0.013523,0.002678,0.000431,0.037844
53470000,0.0324,0.013523,0.002678,0.000431,0.038197
53471000,0.0324,0.013523,0.002678,0.000431,0.026209
53472000,0.0324,0.013523,0.002678,0.000431,0.022448
53473000,0.0324,0.013523,0.002678,0.000431,0.019392
53474000,0.0324,0.013523,0.002678,0.000431,0.017159
53475000,0.0324,0.013523,0.002678,0.000431,0.014691
53476000,0.0324,0.013523,0.002678,0.000431,0.017042
53477000,0.0324,0.013523,0.002678,0.000431,0.013868
53478000,0.0324,0.013523,0.002678,0.000431,0.013986
53479000,0.0324,0.013523,0.002678,0.000431,0.014691
53480000,0.0324,0.013523,0.002678,0.000431,0.014338
53481000,0.0324,0.013523,0.002678,0.000431,0.013281
53482000,0.0324,0.013523,0.002678,0.000431,0.015984
53483000,0.0324,0.013523,0.002678,0.000431,0.015044
53484000,0.0324,0.013523,0.002678,0.000431,0.010813
53485000,0.0324,0.013523,0.002678,0.000431,0.014103
53486000,0.0324,0.013523,0.002678,0.000431,0.008815
53487000,0.0324,0.013523,0.002678,0.000431,0.005876
53488000,0.0324,0.013523,0.002678,0.000431,0.006347
53489000,0.0324,0.013523,0.002678,0.000431,0.005876
53490000,0.0324,0.013523,0.002678,0.000431,0.003408
53491000,0.0324,0.013523,0.002678,0.000431,0.003526
53492000,0.0324,0.013523,0.002678,0.000431,0.003291
53493000,0.0324,0.013523,0.002678,0.000431,0.003408
53494000,0.0324,0.013523,0.002678,0.000431,0.003291
53495000,0.0324,0.013523,0.002678,0.000431,0.003761
53496000,0.0324,0.013523,0.002678,0.000431,0.003291
53497000,0.0324,0.013523,0.002678,0.000431,0.003526
53498000,0.0324,0.013523,0.002678,0.000431,0.003173
53499000,0.0324,0.013523,0.002678,0.000431,0.003526
53500000,0.0324,0.013523,0.002678,0.000431,0.003643
53501000,0.0324,0.013523,0.002678,0.000431,0.004466
53502000,0.0324,0.013523,0.002678,0.000431,0.002703
53503000,0.0324,0.013523,0.002678,0.000431,0.002703
53504000,0.0324,0.013523,0.002678,0.000431,0.003878
53505000,0.0324,0.013523,0.002678,0.000431,0.001645
53506000,0.0324,0.013523,0.002678,0.000431,0.001645
53507000,0.0324,0.013523,0.002678,0.000431,0.001880
53508000,0.0324,0.013523,0.002678,0.000431,0.001763
53509000,0.0324,0.013523,0.002678,0.000431,0.001645
53510000,0.0324,0.013523,0.002678,0.000431,0.001880
53511000,0.0324,0.013523,0.002678,0.000431,0.001763
53512000,0.0324,0.013523,0.002678,0.000431,0.001763
53513000,0.0324,0.013523,0.002678,0.000431,0.001645
53514000,0.0324,0.013523,0.002678,0.000431,0.001763
53515000,0.0324,0.013523,0.002678,0.000431,0.001763
53516000,0.0324,0.013523,0.002678,0.000431,0.001880
53517000,0.0324,0.013523,0.002678,0.000431,0.001645
53518000,0.0324,0.013523,0.002678,0.000431,0.001763
53519000,0.0324,0.013523,0.002678,0.000431,0.001763
53520000,0.0324,0.013523,0.002678,0.000431,0.001763
53521000,0.0324,0.013523,0.002678,0.000431,0.001645
53522000,0.0324,0.013523,0.002678,0.000431,0.001880
53523000,0.0324,0.013523,0.002678,0.000431,0.001763
53524000,0.0324,0.013523,0.002678,0.000431,0.001763
53525000,0.0324,0.013523,0.002678,0.000431,0.001645
53526000,0.0324,0.013523,0.002678,0.000431,0.001880
53527000,0.0324,0.013523,0.002678,0.000431,0.001645
53528000,0.0324,0.013523,0.002678,0.000431,0.001763
53529000,0.0324,0.013523,0.002678,0.000431,0.001763
53530000,0.0324,0.013523,0.002678,0.000431,0.001880
53531000,0.0324,0.013523,0.002678,0.000431,0.001763
53532000,0.0324,0.013523,0.002678,0.000431,0.001645
53533000,0.0324,0.013523,0.002678,0.000431,0.001763
53534000,0.0324,0.013523,0.002678,0.000431,0.001763
53535000,0.0324,0.013523,0.002678,0.000431,0.001763
53536000,0.0324,0.013523,0.002678,0.000431,0.001763
53537000,0.0324,0.013523,0.002678,0.000431,0.001763
53538000,0.0324,0.013523,0.002678,0.000431,0.001763
53539000,0.0324,0.013523,0.002678,0.000431,0.001645
53540000,0.0324,0.013523,0.002678,0.000431,0.001763
53541000,0.0324,0.013523,0.002678,0.000431,0.001880
53542000,0.0324,0.013523,0.002678,0.000431,0.001645
53543000,0.0324,0.013523,0.002678,0.000431,0.001880
53544000,0.0324,0.013523,0.002678,0.000431,0.001645
53545000,0.0324,0.013523,0.002678,0.000431,0.001880
53546000,0.0324,0.013523,0.002678,0.000431,0.001645
53547000,0.0324,0.013523,0.002678,0.000431,0.001763
53548000,0.0324,0.013523,0.002678,0.000431,0.001763
53549000,0.0324,0.013523,0.002678,0.000431,0.001763
53550000,0.0324,0.013523,0.002678,0.000431,0.001645
53551000,0.0324,0.013523,0.002678,0.000431,0.001880
53552000,0.0324,0.013523,0.002678,0.000431,0.001763
53553000,0.0324,0.013523,0.002678,0.000431,0.001763
53554000,0.0324,0.013523,0.002678,0.000431,0.001645
53555000,0.0324,0.013523,0.002678,0.000431,0.001763
53556000,0.0324,0.013523,0.002678,0.000431,0.001763
53557000,0.0324,0.013523,0.002678,0.000431,0.001880
53558000,0.0324,0.013523,0.002678,0.000431,0.001645
53559000,0.0324,0.013523,0.002678,0.000431,0.001763
53560000,0.0324,0.013523,0.002678,0.000431,0.001763
53561000,0.0324,0.013523,0.002678,0.000431,0.001763
53562000,0.0324,0.013523,0.002678,0.000431,0.001645
53563000,0.0324,0.013523,0.002678,0.000431,0.001880
53564000,0.0324,0.013523,0.002678,0.000431,0.001880
53565000,0.0324,0.013523,0.002678,0.000431,0.001645
53566000,0.0324,0.013523,0.002678,0.000431,0.001763
53567000,0.0324,0.013523,0.002678,0.000431,0.001763
53568000,0.0324,0.013523,0.002678,0.000431,0.001763
53569000,0.0324,0.013523,0.002678,0.000431,0.001645
53570000,0.0324,0.013523,0.002678,0.000431,0.001880
53571000,0.0324,0.013523,0.002678,0.000431,0.001763
53572000,0.0324,0.013523,0.002678,0.000431,0.001763
53573000,0.0324,0.013523,0.002678,0.000431,0.002703
53574000,0.0324,0.013523,0.002678,0.000431,0.000823
53575000,0.0324,0.013523,0.002678,0.000431,0.000940
53576000,0.0324,0.013523,0.002678,0.000431,0.000940
53577000,0.0324,0.013523,0.002678,0.000431,0.000823
53578000,0.0324,0.013523,0.002678,0.000431,0.000823
53579000,0.0324,0.013523,0.002678,0.000431,0.000940
53580000,0.0324,0.013523,0.002678,0.000431,0.000940
53581000,0.0324,0.013523,0.002678,0.000431,0.000705
53582000,0.0324,0.013523,0.002678,0.000431,0.000940
53583000,0.0324,0.013523,0.002678,0.000431,0.000940
53584000,0.0324,0.013523,0.002678,0.000431,0.000940
53585000,0.0324,0.013523,0.002678,0.000431,0.000705
53586000,0.0324,0.013523,0.002678,0.000431,0.000940
53587000,0.0324,0.013523,0.002678,0.000431,0.000940
53588000,0.0324,0.013523,0.002678,0.000431,0.000823
53589000,0.0324,0.013523,0.002678,0.000431,0.000823
53590000,0.0324,0.013523,0.002678,0.000431,0.000940
53591000,0.0324,0.013523,0.002678,0.000431,0.000823
53592000,0.0324,0.013523,0.002678,0.000431,0.000940
53593000,0.0324,0.013523,0.002678,0.000431,0.000823
53594000,0.0324,0.013523,0.002678,0.000431,0.000940
53595000,0.0324,0.013523,0.002678,0.000431,0.000823
53596000,0.0324,0.013523,0.002678,0.000431,0.000823
53597000,0.0324,0.013523,0.002678,0.000431,0.000940
53598000,0.0324,0.013523,0.002678,0.000431,0.000940
53599000,0.0324,0.013523,0.002678,0.000431,0.000823
53600000,0.0324,0.013523,0.002678,0.000431,0.000823
53601000,0.0324,0.013523,0.002678,0.000431,0.000940
53602000,0.0324,0.013523,0.002678,0.000431,0.000940
53603000,0.0324,0.013523,0.002678,0.000431,0.000823
53604000,0.0324,0.013523,0.002678,0.000431,0.000823
53605000,0.0324,0.013523,0.002678,0.000431,0.000940
53606000,0.0324,0.013523,0.002678,0.000431,0.000940
53607000,0.0324,0.013523,0.002678,0.000431,0.000823
53608000,0.0324,0.013523,0.002678,0.000431,0.000823
53609000,0.0324,0.013523,0.002678,0.000431,0.000940
53610000,0.0324,0.013523,0.002678,0.000431,0.000823
53611000,0.0324,0.013523,0.002678,0.000431,0.000940
53612000,0.0324,0.013523,0.002678,0.000431,0.000823
53613000,0.0324,0.013523,0.002678,0.000431,0.000940
53614000,0.0324,0.013523,0.002678,0.000431,0.000823
53615000,0.0324,0.013523,0.002678,0.000431,0.000823
53616000,0.0324,0.013523,0.002678,0.000431,0.000940
53617000,0.0324,0.013523,0.002678,0.000431,0.000940
53618000,0.0324,0.013523,0.002678,0.000431,0.000823
53619000,0.0324,0.013523,0.002678,0.000431,0.000823
53620000,0.0324,0.013523,0.002678,0.000431,0.000940
53621000,0.0324,0.013523,0.002678,0.000431,0.000940
53622000,0.0324,0.013523,0.002678,0.000431,0.000705
53623000,0.0324,0.013523,0.002678,0.000431,0.000940
53624000,0.0324,0.013523,0.002678,0.000431,0.000940
53625000,0.0324,0.013523,0.002678,0.000431,0.000940
53626000,0.0324,0.013523,0.002678,0.000431,0.000823
53627000,0.0324,0.013523,0.002678,0.000431,0.000823
53628000,0.0324,0.013523,0.002678,0.000431,0.000940
53629000,0.0324,0.013523,0.002678,0.000431,0.000823
53630000,0.0324,0.013523,0.002678,0.000431,0.000940
53631000,0.0324,0.013523,0.002678,0.000431,0.000823
53632000,0.0324,0.013523,0.002678,0.000431,0.000940
53633000,0.0324,0.013523,0.002678,0.000431,0.000823
53634000,0.0324,0.013523,0.002678,0.000431,0.000823
53635000,0.0324,0.013523,0.002678,0.000431,0.000940
53636000,0.0324,0.013523,0.002678,0.000431,0.000940
53637000,0.0324,0.013523,0.002678,0.000431,0.000705
53638000,0.0324,0.013523,0.002678,0.000431,0.000940
53639000,0.0324,0.013523,0.002678,0.000431,0.000940
53640000,0.0324,0.013523,0.002678,0.000431,0.000940
53641000,0.0324,0.013523,0.002678,0.000431,0.000705
53642000,0.0324,0.013523,0.002678,0.000431,0.000940
53643000,0.0324,0.013523,0.002678,0.000431,0.000940
53644000,0.0324,0.013523,0.002678,0.000431,0.000823
53645000,0.0324,0.013523,0.002678,0.000431,0.000823
53646000,0.0324,0.013523,0.002678,0.000431,0.000940
53647000,0.0324,0.013523,0.002678,0.000431,0.000940
53648000,0.0324,0.013523,0.002678,0.000431,0.000823
53649000,0.0324,0.013523,0.002678,0.000431,0.071692
53650000,0.0324,0.013523,0.002678,0.000431,0.528172
53651000,0.0324,0.013523,0.002678,0.000431,0.563078
53652000,0.0324,0.013523,0.002678,0.000431,0.133042
53653000,0.0324,0.013523,0.002678,0.000431,0.132102
53654000,0.0324,0.013523,0.002678,0.000431,0.646523
53655000,0.0324,0.013523,0.002678,0.000431,0.237054
53656000,0.0324,0.013523,0.002678,0.000431,0.267847
53657000,0.0324,0.013523,0.002678,0.000431,0.260678
53658000,0.0324,0.013523,0.002678,0.000431,0.143032
53659000,0.0324,0.013523,0.002678,0.000431,0.158898
53660000,0.0324,0.013523,0.002678,0.000431,0.108008
53661000,0.0324,0.013523,0.002678,0.000431,0.448135
53662000,0.0324,0.013523,0.002678,0.000431,0.117528
53663000,0.0324,0.013523,0.002678,0.000431,0.040547
53664000,0.0324,0.013523,0.002678,0.000431,0.029970
53665000,0.0324,0.013523,0.002678,0.000431,0.029147
53666000,0.0324,0.013523,0.002678,0.000431,0.027031
53667000,0.0324,0.013523,0.002678,0.000431,0.020450
53668000,0.0324,0.013523,0.002678,0.000431,0.020567
53669000,0.0324,0.013523,0.002678,0.000431,0.015984
53670000,0.0324,0.013523,0.002678,0.000431,0.012693
53671000,0.0324,0.013523,0.002678,0.000431,0.009167
53672000,0.0324,0.013523,0.002678,0.000431,0.008462
53673000,0.0324,0.013523,0.002678,0.000431,0.010225
53674000,0.0324,0.013523,0.002678,0.000431,0.004466
53675000,0.0324,0.013523,0.002678,0.000431,0.003878
53676000,0.0324,0.013523,0.002678,0.000431,0.004584
53677000,0.0324,0.013523,0.002678,0.000431,0.004113
53678000,0.0324,0.013523,0.002678,0.000431,0.004231
53679000,0.0324,0.013523,0.002678,0.000431,0.004349
53680000,0.0324,0.013523,0.002678,0.000431,0.004231
53681000,0.0324,0.013523,0.002678,0.000431,0.004349
53682000,0.0324,0.013523,0.002678,0.000431,0.004113
53683000,0.0324,0.013523,0.002678,0.000431,0.004466
53684000,0.0324,0.013523,0.002678,0.000431,0.003996
53685000,0.0324,0.013523,0.002678,0.000431,0.004466
53686000,0.0324,0.013523,0.002678,0.000431,0.004113
53687000,0.0324,0.013523,0.002678,0.000431,0.004349
53688000,0.0324,0.013523,0.002678,0.000431,0.005406
53689000,0.0324,0.013523,0.002678,0.000431,0.003291
53690000,0.0324,0.013523,0.002678,0.000431,0.003408
53691000,0.0324,0.013523,0.002678,0.000431,0.003408
53692000,0.0324,0.013523,0.002678,0.000431,0.003643
53693000,0.0324,0.013523,0.002678,0.000431,0.003291
53694000,0.0324,0.013523,0.002678,0.000431,0.003291
53695000,0.0324,0.013523,0.002678,0.000431,0.004701
53696000,0.0324,0.013523,0.002678,0.000431,0.003996
53697000,0.0324,0.013523,0.002678,0.000431,0.002703
53698000,0.0324,0.013523,0.002678,0.000431,0.002468
53699000,0.0324,0.013523,0.002678,0.000431,0.002703
53700000,0.0324,0.013523,0.002678,0.000431,0.002468
53701000,0.0324,0.013523,0.002678,0.000431,0.002586
53702000,0.0324,0.013523,0.002678,0.000431,0.002703
53703000,0.0324,0.013523,0.002678,0.000431,0.003643
53704000,0.0324,0.013523,0.002678,0.000431,0.001763
53705000,0.0324,0.013523,0.002678,0.000431,0.001880
53706000,0.0324,0.013523,0.002678,0.000431,0.001528
53707000,0.0324,0.013523,0.002678,0.000431,0.001880
53708000,0.0324,0.013523,0.002678,0.000431,0.001528
53709000,0.0324,0.013523,0.002678,0.000431,0.001763
53710000,0.0324,0.013523,0.002678,0.000431,0.001880
53711000,0.0324,0.013523,0.002678,0.000431,0.001880
53712000,0.0324,0.013523,0.002678,0.000431,0.001645
53713000,0.0324,0.013523,0.002678,0.000431,0.001880
53714000,0.0324,0.013523,0.002678,0.000431,0.001645
53715000,0.0324,0.013523,0.002678,0.000431,0.001880
53716000,0.0324,0.013523,0.002678,0.000431,0.001645
53717000,0.0324,0.013523,0.002678,0.000431,0.001645
53718000,0.0324,0.013523,0.002678,0.000431,0.001880
53719000,0.0324,0.013523,0.002678,0.000431,0.001763
53720000,0.0324,0.013523,0.002678,0.000431,0.001763
53721000,0.0324,0.013523,0.002678,0.000431,0.001645
53722000,0.0324,0.013523,0.002678,0.000431,0.001880
53723000,0.0324,0.013523,0.002678,0.000431,0.001880
53724000,0.0324,0.013523,0.002678,0.000431,0.001528
53725000,0.0324,0.013523,0.002678,0.000431,0.001763
53726000,0.0324,0.013523,0.002678,0.000431,0.001880
53727000,0.0324,0.013523,0.002678,0.000431,0.001763
53728000,0.0324,0.013523,0.002678,0.000431,0.001645
53729000,0.0324,0.013523,0.002678,0.000431,0.001763
53730000,0.0324,0.013523,0.002678,0.000431,0.001880
53731000,0.0324,0.013523,0.002678,0.000431,0.001645
53732000,0.0324,0.013523,0.002678,0.000431,0.001645
53733000,0.0324,0.013523,0.002678,0.000431,0.001880
53734000,0.0324,0.013523,0.002678,0.000431,0.001763
53735000,0.0324,0.013523,0.002678,0.000431,0.002468
53736000,0.0324,0.013523,0.002678,0.000431,0.000823
53737000,0.0324,0.013523,0.002678,0.000431,0.000940
53738000,0.0324,0.013523,0.002678,0.000431,0.000823
53739000,0.0324,0.013523,0.002678,0.000431,0.000823
53740000,0.0324,0.013523,0.002678,0.000431,0.000940
53741000,0.0324,0.013523,0.002678,0.000431,0.000940
53742000,0.0324,0.013523,0.002678,0.000431,0.000823
53743000,0.0324,0.013523,0.002678,0.000431,0.001763
53744000,0.0324,0.013523,0.002678,0.000431,0.354818
53745000,0.0324,0.013523,0.002678,0.000431,0.697412
53746000,0.0324,0.013523,0.002678,0.000431,0.137978
53747000,0.0324,0.013523,0.002678,0.000431,0.134805
53748000,0.0324,0.013523,0.002678,0.000431,0.135863
53749000,0.0324,0.013523,0.002678,0.000431,0.602449
53750000,0.0324,0.013523,0.002678,0.000431,0.236584
53751000,0.0324,0.013523,0.002678,0.000431,0.291235
53752000,0.0324,0.013523,0.002678,0.000431,0.259620
53753000,0.0324,0.013523,0.002678,0.000431,0.143737
53754000,0.0324,0.013523,0.002678,0.000431,0.174177
53755000,0.0324,0.013523,0.002678,0.000431,0.089674
53756000,0.0324,0.013523,0.002678,0.000431,0.454364
53757000,0.0324,0.013523,0.002678,0.000431,0.034083
53758000,0.0324,0.013523,0.002678,0.000431,0.000940
53759000,0.0324,0.013523,0.002678,0.000431,0.000940
53760000,0.0324,0.013523,0.002678,0.000431,0.000940
53761000,0.0324,0.013523,0.002678,0.000431,0.000705
53762000,0.0324,0.013523,0.002678,0.000431,0.000940
53763000,0.0324,0.013523,0.002678,0.000431,0.000940
53764000,0.0324,0.013523,0.002678,0.000431,0.000823
53765000,0.0324,0.013523,0.002678,0.000431,0.000823
53766000,0.0324,0.013523,0.002678,0.000431,0.000940
53767000,0.0324,0.013523,0.002678,0.000431,0.000823
53768000,0.0324,0.013523,0.002678,0.000431,0.000940
53769000,0.0324,0.013523,0.002678,0.000431,0.000823
53770000,0.0324,0.013523,0.002678,0.000431,0.000940
53771000,0.0324,0.013523,0.002678,0.000431,0.000823
53772000,0.0324,0.013523,0.002678,0.000431,0.000823
53773000,0.0324,0.013523,0.002678,0.000431,0.000940
53774000,0.0324,0.013523,0.002678,0.000431,0.000940
53775000,0.0324,0.013523,0.002678,0.000431,0.000823
53776000,0.0324,0.013523,0.002678,0.000431,0.000823
53777000,0.0324,0.013523,0.002678,0.000431,0.000940
53778000,0.0324,0.013523,0.002678,0.000431,0.000940
53779000,0.0324,0.013523,0.002678,0.000431,0.000705
53780000,0.0324,0.013523,0.002678,0.000431,0.000940
53781000,0.0324,0.013523,0.002678,0.000431,0.000940
53782000,0.0324,0.013523,0.002678,0.000431,0.000940
53783000,0.0324,0.013523,0.002678,0.000431,0.000823
53784000,0.0324,0.013523,0.002678,0.000431,0.000823
53785000,0.0324,0.013523,0.002678,0.000431,0.000940
53786000,0.0324,0.013523,0.002678,0.000431,0.000823
53787000,0.0324,0.013523,0.002678,0.000431,0.000940
53788000,0.0324,0.013523,0.002678,0.000431,0.000823
53789000,0.0324,0.013523,0.002678,0.000431,0.000940
53790000,0.0324,0.013523,0.002678,0.000431,0.000823
53791000,0.0324,0.013523,0.002678,0.000431,0.000823
53792000,0.0324,0.013523,0.002678,0.000431,0.000940
53793000,0.0324,0.013523,0.002678,0.000431,0.000940
53794000,0.0324,0.013523,0.002678,0.000431,0.000823
53795000,0.0324,0.013523,0.002678,0.000431,0.000823
53796000,0.0324,0.013523,0.002678,0.000431,0.000940
53797000,0.0324,0.013523,0.002678,0.000431,0.000940
53798000,0.0324,0.013523,0.002678,0.000431,0.000705
53799000,0.0324,0.013523,0.002678,0.000431,0.000940
53800000,0.0324,0.013523,0.002678,0.000431,0.000940
53801000,0.0324,0.013523,0.002678,0.000431,0.000940
53802000,0.0324,0.013523,0.002678,0.000431,0.000705
53803000,0.0324,0.013523,0.002678,0.000431,0.000940
53804000,0.0324,0.013523,0.002678,0.000431,0.000940
53805000,0.0324,0.013523,0.002678,0.000431,0.000823
53806000,0.0324,0.013523,0.002678,0.000431,0.000823
53807000,0.0324,0.013523,0.002678,0.000431,0.000940
53808000,0.0324,0.013523,0.002678,0.000431,0.000823
53809000,0.0324,0.013523,0.002678,0.000431,0.000940
53810000,0.0324,0.013523,0.002678,0.000431,0.000823
53811000,0.0324,0.013523,0.002678,0.000431,0.000940
53812000,0.0324,0.013523,0.002678,0.000431,0.000823
53813000,0.0324,0.013523,0.002678,0.000431,0.000823
53814000,0.0324,0.013523,0.002678,0.000431,0.000940
53815000,0.0324,0.013523,0.002678,0.000431,0.000940
53816000,0.0324,0.013523,0.002678,0.000431,0.000823
53817000,0.0324,0.013523,0.002678,0.000431,0.000823
53818000,0.0324,0.013523,0.002678,0.000431,0.000940
53819000,0.0324,0.013523,0.002678,0.000431,0.000940
53820000,0.0324,0.013523,0.002678,0.000431,0.000823
53821000,0.0324,0.013523,0.002678,0.000431,0.000823
53822000,0.0324,0.013523,0.002678,0.000431,0.000940
53823000,0.0324,0.013523,0.002678,0.000431,0.000940
53824000,0.0324,0.013523,0.002678,0.000431,0.000823
53825000,0.0324,0.013523,0.002678,0.000431,0.000823
53826000,0.0324,0.013523,0.002678,0.000431,0.000940
53827000,0.0324,0.013523,0.002678,0.000431,0.000823
53828000,0.0324,0.013523,0.002678,0.000431,0.000940
53829000,0.0324,0.013523,0.002678,0.000431,0.000823
53830000,0.0324,0.013523,0.002678,0.000431,0.000940
53831000,0.0324,0.013523,0.002678,0.000431,0.000823
53832000,0.0324,0.013523,0.002678,0.000431,0.000823
53833000,0.0324,0.013523,0.002678,0.000431,0.000940
53834000,0.0324,0.013523,0.002678,0.000431,0.000940
53835000,0.0324,0.013523,0.002678,0.000431,0.000823
53836000,0.0324,0.013523,0.002678,0.000431,0.000823
53837000,0.0324,0.013523,0.002678,0.000431,0.000940
53838000,0.0324,0.013523,0.002678,0.000431,0.000940
53839000,0.0324,0.013523,0.002678,0.000431,0.000705
53840000,0.0324,0.013523,0.002678,0.000431,0.000940
53841000,0.0324,0.013523,0.002678,0.000431,0.000940
53842000,0.0324,0.013523,0.002678,0.000431,0.000940
53843000,0.0324,0.013523,0.002678,0.000431,0.000823
53844000,0.0324,0.013523,0.002678,0.000431,0.000823
53845000,0.0324,0.013523,0.002678,0.000431,0.000940
53846000,0.0324,0.013523,0.002678,0.000431,0.000823
53847000,0.0324,0.013523,0.002678,0.000431,0.071927
53848000,0.0324,0.013523,0.002678,0.000431,0.435912
53849000,0.0324,0.013523,0.002678,0.000431,0.546976
53850000,0.0324,0.013523,0.002678,0.000431,0.133042
53851000,0.0324,0.013523,0.002678,0.000431,0.131632
53852000,0.0324,0.013523,0.002678,0.000431,0.558376
53853000,0.0324,0.013523,0.002678,0.000431,0.230943
53854000,0.0324,0.013523,0.002678,0.000431,0.292645
53855000,0.0324,0.013523,0.002678,0.000431,0.232118
53856000,0.0324,0.013523,0.002678,0.000431,0.170768
53857000,0.0324,0.013523,0.002678,0.000431,0.137861
53858000,0.0324,0.013523,0.002678,0.000431,0.169828
53859000,0.0324,0.013523,0.002678,0.000431,0.103072
53860000,0.0324,0.013523,0.002678,0.000431,0.447782
53861000,0.0324,0.013523,0.002678,0.000431,0.083798
53862000,0.0324,0.013523,0.002678,0.000431,0.038314
53863000,0.0324,0.013523,0.002678,0.000431,0.037374
53864000,0.0324,0.013523,0.002678,0.000431,0.032673
53865000,0.0324,0.013523,0.002678,0.000431,0.028442
53866000,0.0324,0.013523,0.002678,0.000431,0.025151
53867000,0.0324,0.013523,0.002678,0.000431,0.023858
53868000,0.0324,0.013523,0.002678,0.000431,0.023271
53869000,0.0324,0.013523,0.002678,0.000431,0.022095
53870000,0.0324,0.013523,0.002678,0.000431,0.022565
53871000,0.0324,0.013523,0.002678,0.000431,0.018099
53872000,0.0324,0.013523,0.002678,0.000431,0.018452
53873000,0.0324,0.013523,0.002678,0.000431,0.019745
53874000,0.0324,0.013523,0.002678,0.000431,0.018452
53875000,0.0324,0.013523,0.002678,0.000431,0.018687
53876000,0.0324,0.013523,0.002678,0.000431,0.019627
53877000,0.0324,0.013523,0.002678,0.000431,0.018452
53878000,0.0324,0.013523,0.002678,0.000431,0.017159
53879000,0.0324,0.013523,0.002678,0.000431,0.017512
53880000,0.0324,0.013523,0.002678,0.000431,0.017864
53881000,0.0324,0.013523,0.002678,0.000431,0.015866
53882000,0.0324,0.013523,0.002678,0.000431,0.017277
53883000,0.0324,0.013523,0.002678,0.000431,0.015631
53884000,0.0324,0.013523,0.002678,0.000431,0.015279
53885000,0.0324,0.013523,0.002678,0.000431,0.008697
53886000,0.0324,0.013523,0.002678,0.000431,0.008815
53887000,0.0324,0.013523,0.002678,0.000431,0.008932
53888000,0.0324,0.013523,0.002678,0.000431,0.007757
53889000,0.0324,0.013523,0.002678,0.000431,0.008697
53890000,0.0324,0.013523,0.002678,0.000431,0.007757
53891000,0.0324,0.013523,0.002678,0.000431,0.008815
53892000,0.0324,0.013523,0.002678,0.000431,0.008227
53893000,0.0324,0.013523,0.002678,0.000431,0.007992
53894000,0.0324,0.013523,0.002678,0.000431,0.008932
53895000,0.0324,0.013523,0.002678,0.000431,0.007522
53896000,0.0324,0.013523,0.002678,0.000431,0.008462
53897000,0.0324,0.013523,0.002678,0.000431,0.009990
53898000,0.0324,0.013523,0.002678,0.000431,0.007287
53899000,0.0324,0.013523,0.002678,0.000431,0.006934
53900000,0.0324,0.013523,0.002678,0.000431,0.007992
53901000,0.0324,0.013523,0.002678,0.000431,0.006934
53902000,0.0324,0.013523,0.002678,0.000431,0.007404
53903000,0.0324,0.013523,0.002678,0.000431,0.007757
53904000,0.0324,0.013523,0.002678,0.000431,0.006817
53905000,0.0324,0.013523,0.002678,0.000431,0.007757
53906000,0.0324,0.013523,0.002678,0.000431,0.007052
53907000,0.0324,0.013523,0.002678,0.000431,0.008697
53908000,0.0324,0.013523,0.002678,0.000431,0.006464
53909000,0.0324,0.013523,0.002678,0.000431,0.006817
53910000,0.0324,0.013523,0.002678,0.000431,0.005994
53911000,0.0324,0.013523,0.002678,0.000431,0.007169
53912000,0.0324,0.013523,0.002678,0.000431,0.008815
53913000,0.0324,0.013523,0.002678,0.000431,0.003996
53914000,0.0324,0.013523,0.002678,0.000431,0.004113
53915000,0.0324,0.013523,0.002678,0.000431,0.003761
53916000,0.0324,0.013523,0.002678,0.000431,0.004584
53917000,0.0324,0.013523,0.002678,0.000431,0.004113
53918000,0.0324,0.013523,0.002678,0.000431,0.004819
53919000,0.0324,0.013523,0.002678,0.000431,0.003173
53920000,0.0324,0.013523,0.002678,0.000431,0.003526
53921000,0.0324,0.013523,0.002678,0.000431,0.003291
53922000,0.0324,0.013523,0.002678,0.000431,0.003056
53923000,0.0324,0.013523,0.002678,0.000431,0.003291
53924000,0.0324,0.013523,0.002678,0.000431,0.004819
53925000,0.0324,0.013523,0.002678,0.000431,0.002586
53926000,0.0324,0.013523,0.002678,0.000431,0.002116
53927000,0.0324,0.013523,0.002678,0.000431,0.002586
53928000,0.0324,0.013523,0.002678,0.000431,0.002468
53929000,0.0324,0.013523,0.002678,0.000431,0.002351
53930000,0.0324,0.013523,0.002678,0.000431,0.002351
53931000,0.0324,0.013523,0.002678,0.000431,0.002468
53932000,0.0324,0.013523,0.002678,0.000431,0.002586
53933000,0.0324,0.013523,0.002678,0.000431,0.002233
53934000,0.0324,0.013523,0.002678,0.000431,0.002351
53935000,0.0324,0.013523,0.002678,0.000431,0.002703
53936000,0.0324,0.013523,0.002678,0.000431,0.002116
53937000,0.0324,0.013523,0.002678,0.000431,0.001880
53938000,0.0324,0.013523,0.002678,0.000431,0.001763
53939000,0.0324,0.013523,0.002678,0.000431,0.001880
53940000,0.0324,0.013523,0.002678,0.000431,0.001645
53941000,0.0324,0.013523,0.002678,0.000431,0.001645
53942000,0.0324,0.013523,0.002678,0.000431,0.001880
53943000,0.0324,0.013523,0.002678,0.000431,0.001763
53944000,0.0324,0.013523,0.002678,0.000431,0.001763
53945000,0.0324,0.013523,0.002678,0.000431,0.001645
53946000,0.0324,0.013523,0.002678,0.000431,0.001880
53947000,0.0324,0.013523,0.002678,0.000431,0.001763
53948000,0.0324,0.013523,0.002678,0.000431,0.001645
53949000,0.0324,0.013523,0.002678,0.000431,0.001763
53950000,0.0324,0.013523,0.002678,0.000431,0.001763
53951000,0.0324,0.013523,0.002678,0.000431,0.001763
53952000,0.0324,0.013523,0.002678,0.000431,0.001763
53953000,0.0324,0.013523,0.002678,0.000431,0.001763
53954000,0.0324,0.013523,0.002678,0.000431,0.001763
53955000,0.0324,0.013523,0.002678,0.000431,0.001645
53956000,0.0324,0.013523,0.002678,0.000431,0.001763
53957000,0.0324,0.013523,0.002678,0.000431,0.001880
53958000,0.0324,0.013523,0.002678,0.000431,0.001763
53959000,0.0324,0.013523,0.002678,0.000431,0.001645
53960000,0.0324,0.013523,0.002678,0.000431,0.001763
53961000,0.0324,0.013523,0.002678,0.000431,0.001880
53962000,0.0324,0.013523,0.002678,0.000431,0.001763
53963000,0.0324,0.013523,0.002678,0.000431,0.001645
53964000,0.0324,0.013523,0.002678,0.000431,0.001763
53965000,0.0324,0.013523,0.002678,0.000431,0.001763
53966000,0.0324,0.013523,0.002678,0.000431,0.001880
53967000,0.0324,0.013523,0.002678,0.000431,0.001645
53968000,0.0324,0.013523,0.002678,0.000431,0.001763
53969000,0.0324,0.013523,0.002678,0.000431,0.001763
53970000,0.0324,0.013523,0.002678,0.000431,0.001645
53971000,0.0324,0.013523,0.002678,0.000431,0.001880
53972000,0.0324,0.013523,0.002678,0.000431,0.001763
53973000,0.0324,0.013523,0.002678,0.000431,0.001763
53974000,0.0324,0.013523,0.002678,0.000431,0.001645
53975000,0.0324,0.013523,0.002678,0.000431,0.001763
53976000,0.0324,0.013523,0.002678,0.000431,0.001880
53977000,0.0324,0.013523,0.002678,0.000431,0.001645
53978000,0.0324,0.013523,0.002678,0.000431,0.001763
53979000,0.0324,0.013523,0.002678,0.000431,0.001763
53980000,0.0324,0.013523,0.002678,0.000431,0.001880
53981000,0.0324,0.013523,0.002678,0.000431,0.001645
53982000,0.0324,0.013523,0.002678,0.000431,0.001645
53983000,0.0324,0.013523,0.002678,0.000431,0.001880
53984000,0.0324,0.013523,0.002678,0.000431,0.001763
53985000,0.0324,0.013523,0.002678,0.000431,0.001880
53986000,0.0324,0.013523,0.002678,0.000431,0.001528
53987000,0.0324,0.013523,0.002678,0.000431,0.001880
53988000,0.0324,0.013523,0.002678,0.000431,0.001763
53989000,0.0324,0.013523,0.002678,0.000431,0.001645
53990000,0.0324,0.013523,0.002678,0.000431,0.001880
53991000,0.0324,0.013523,0.002678,0.000431,0.001645
53992000,0.0324,0.013523,0.002678,0.000431,0.001880
53993000,0.0324,0.013523,0.002678,0.000431,0.001645
53994000,0.0324,0.013523,0.002678,0.000431,0.001763
53995000,0.0324,0.013523,0.002678,0.000431,0.001880
53996000,0.0324,0.013523,0.002678,0.000431,0.001528
53997000,0.0324,0.013523,0.002678,0.000431,0.001763
53998000,0.0324,0.013523,0.002678,0.000431,0.001880
53999000,0.0324,0.013523,0.002678,0.000431,0.004701
