Cycle,Area(mm^2),PeakDynamic(W),SubthresholdLeakage(W),GateLeakage(W),RunTimeDynamic(W)
34000000,0.0324,0.013523,0.002678,0.000431,0.003408
34001000,0.0324,0.013523,0.002678,0.000431,0.003526
34002000,0.0324,0.013523,0.002678,0.000431,0.002938
34003000,0.0324,0.013523,0.002678,0.000431,0.003761
34004000,0.0324,0.013523,0.002678,0.000431,0.003056
34005000,0.0324,0.013523,0.002678,0.000431,0.003408
34006000,0.0324,0.013523,0.002678,0.000431,0.003408
34007000,0.0324,0.013523,0.002678,0.000431,0.004231
34008000,0.0324,0.013523,0.002678,0.000431,0.004113
34009000,0.0324,0.013523,0.002678,0.000431,0.004113
34010000,0.0324,0.013523,0.002678,0.000431,0.001645
34011000,0.0324,0.013523,0.002678,0.000431,0.001410
34012000,0.0324,0.013523,0.002678,0.000431,0.001645
34013000,0.0324,0.013523,0.002678,0.000431,0.001645
34014000,0.0324,0.013523,0.002678,0.000431,0.001645
34015000,0.0324,0.013523,0.002678,0.000431,0.001410
34016000,0.0324,0.013523,0.002678,0.000431,0.001645
34017000,0.0324,0.013523,0.002678,0.000431,0.001293
34018000,0.0324,0.013523,0.002678,0.000431,0.001763
34019000,0.0324,0.013523,0.002678,0.000431,0.001880
34020000,0.0324,0.013523,0.002678,0.000431,0.001175
34021000,0.0324,0.013523,0.002678,0.000431,0.001880
34022000,0.0324,0.013523,0.002678,0.000431,0.001293
34023000,0.0324,0.013523,0.002678,0.000431,0.001763
34024000,0.0324,0.013523,0.002678,0.000431,0.001645
34025000,0.0324,0.013523,0.002678,0.000431,0.001410
34026000,0.0324,0.013523,0.002678,0.000431,0.001645
34027000,0.0324,0.013523,0.002678,0.000431,0.001528
34028000,0.0324,0.013523,0.002678,0.000431,0.001763
34029000,0.0324,0.013523,0.002678,0.000431,0.001410
34030000,0.0324,0.013523,0.002678,0.000431,0.001645
34031000,0.0324,0.013523,0.002678,0.000431,0.001645
34032000,0.0324,0.013523,0.002678,0.000431,0.001528
34033000,0.0324,0.013523,0.002678,0.000431,0.001528
34034000,0.0324,0.013523,0.002678,0.000431,0.001645
34035000,0.0324,0.013523,0.002678,0.000431,0.001410
34036000,0.0324,0.013523,0.002678,0.000431,0.001645
34037000,0.0324,0.013523,0.002678,0.000431,0.001410
34038000,0.0324,0.013523,0.002678,0.000431,0.001645
34039000,0.0324,0.013523,0.002678,0.000431,0.001880
34040000,0.0324,0.013523,0.002678,0.000431,0.001175
34041000,0.0324,0.013523,0.002678,0.000431,0.001880
34042000,0.0324,0.013523,0.002678,0.000431,0.001410
34043000,0.0324,0.013523,0.002678,0.000431,0.001645
34044000,0.0324,0.013523,0.002678,0.000431,0.001763
34045000,0.0324,0.013523,0.002678,0.000431,0.001293
34046000,0.0324,0.013523,0.002678,0.000431,0.001880
34047000,0.0324,0.013523,0.002678,0.000431,0.001410
34048000,0.0324,0.013523,0.002678,0.000431,0.001645
34049000,0.0324,0.013523,0.002678,0.000431,0.001410
34050000,0.0324,0.013523,0.002678,0.000431,0.001645
34051000,0.0324,0.013523,0.002678,0.000431,0.001645
34052000,0.0324,0.013523,0.002678,0.000431,0.001645
34053000,0.0324,0.013523,0.002678,0.000431,0.001410
34054000,0.0324,0.013523,0.002678,0.000431,0.001645
34055000,0.0324,0.013523,0.002678,0.000431,0.001293
34056000,0.0324,0.013523,0.002678,0.000431,0.001763
34057000,0.0324,0.013523,0.002678,0.000431,0.001880
34058000,0.0324,0.013523,0.002678,0.000431,0.001175
34059000,0.0324,0.013523,0.002678,0.000431,0.001880
34060000,0.0324,0.013523,0.002678,0.000431,0.001293
34061000,0.0324,0.013523,0.002678,0.000431,0.001763
34062000,0.0324,0.013523,0.002678,0.000431,0.186047
34063000,0.0324,0.013523,0.002678,0.000431,0.463531
34064000,0.0324,0.013523,0.002678,0.000431,0.524646
34065000,0.0324,0.013523,0.002678,0.000431,0.133865
34066000,0.0324,0.013523,0.002678,0.000431,0.132572
34067000,0.0324,0.013523,0.002678,0.000431,0.604095
34068000,0.0324,0.013523,0.002678,0.000431,0.269492
34069000,0.0324,0.013523,0.002678,0.000431,0.224596
34070000,0.0324,0.013523,0.002678,0.000431,0.301460
34071000,0.0324,0.013523,0.002678,0.000431,0.137155
34072000,0.0324,0.013523,0.002678,0.000431,0.160426
34073000,0.0324,0.013523,0.002678,0.000431,0.098254
34074000,0.0324,0.013523,0.002678,0.000431,0.469290
34075000,0.0324,0.013523,0.002678,0.000431,0.157958
34076000,0.0324,0.013523,0.002678,0.000431,0.034083
34077000,0.0324,0.013523,0.002678,0.000431,0.034553
34078000,0.0324,0.013523,0.002678,0.000431,0.030910
34079000,0.0324,0.013523,0.002678,0.000431,0.025151
34080000,0.0324,0.013523,0.002678,0.000431,0.024211
34081000,0.0324,0.013523,0.002678,0.000431,0.016101
34082000,0.0324,0.013523,0.002678,0.000431,0.010930
34083000,0.0324,0.013523,0.002678,0.000431,0.011753
34084000,0.0324,0.013523,0.002678,0.000431,0.013398
34085000,0.0324,0.013523,0.002678,0.000431,0.007992
34086000,0.0324,0.013523,0.002678,0.000431,0.008462
34087000,0.0324,0.013523,0.002678,0.000431,0.007404
34088000,0.0324,0.013523,0.002678,0.000431,0.008697
34089000,0.0324,0.013523,0.002678,0.000431,0.008109
34090000,0.0324,0.013523,0.002678,0.000431,0.006582
34091000,0.0324,0.013523,0.002678,0.000431,0.008109
34092000,0.0324,0.013523,0.002678,0.000431,0.009285
34093000,0.0324,0.013523,0.002678,0.000431,0.004819
34094000,0.0324,0.013523,0.002678,0.000431,0.005406
34095000,0.0324,0.013523,0.002678,0.000431,0.006347
34096000,0.0324,0.013523,0.002678,0.000431,0.003996
34097000,0.0324,0.013523,0.002678,0.000431,0.005054
34098000,0.0324,0.013523,0.002678,0.000431,0.004819
34099000,0.0324,0.013523,0.002678,0.000431,0.003291
34100000,0.0324,0.013523,0.002678,0.000431,0.002938
34101000,0.0324,0.013523,0.002678,0.000431,0.003408
34102000,0.0324,0.013523,0.002678,0.000431,0.003173
34103000,0.0324,0.013523,0.002678,0.000431,0.003173
34104000,0.0324,0.013523,0.002678,0.000431,0.003526
34105000,0.0324,0.013523,0.002678,0.000431,0.002821
34106000,0.0324,0.013523,0.002678,0.000431,0.003408
34107000,0.0324,0.013523,0.002678,0.000431,0.003056
34108000,0.0324,0.013523,0.002678,0.000431,0.003408
34109000,0.0324,0.013523,0.002678,0.000431,0.003056
34110000,0.0324,0.013523,0.002678,0.000431,0.002468
34111000,0.0324,0.013523,0.002678,0.000431,0.002586
34112000,0.0324,0.013523,0.002678,0.000431,0.003996
34113000,0.0324,0.013523,0.002678,0.000431,0.000705
34114000,0.0324,0.013523,0.002678,0.000431,0.000940
34115000,0.0324,0.013523,0.002678,0.000431,0.000940
34116000,0.0324,0.013523,0.002678,0.000431,0.000940
34117000,0.0324,0.013523,0.002678,0.000431,0.000705
34118000,0.0324,0.013523,0.002678,0.000431,0.000940
34119000,0.0324,0.013523,0.002678,0.000431,0.000940
34120000,0.0324,0.013523,0.002678,0.000431,0.000823
34121000,0.0324,0.013523,0.002678,0.000431,0.000823
34122000,0.0324,0.013523,0.002678,0.000431,0.000940
34123000,0.0324,0.013523,0.002678,0.000431,0.000940
34124000,0.0324,0.013523,0.002678,0.000431,0.000823
34125000,0.0324,0.013523,0.002678,0.000431,0.000823
34126000,0.0324,0.013523,0.002678,0.000431,0.000940
34127000,0.0324,0.013523,0.002678,0.000431,0.000823
34128000,0.0324,0.013523,0.002678,0.000431,0.000940
34129000,0.0324,0.013523,0.002678,0.000431,0.000823
34130000,0.0324,0.013523,0.002678,0.000431,0.071575
34131000,0.0324,0.013523,0.002678,0.000431,0.495381
34132000,0.0324,0.013523,0.002678,0.000431,0.603977
34133000,0.0324,0.013523,0.002678,0.000431,0.130691
34134000,0.0324,0.013523,0.002678,0.000431,0.135392
34135000,0.0324,0.013523,0.002678,0.000431,0.576123
34136000,0.0324,0.013523,0.002678,0.000431,0.268434
34137000,0.0324,0.013523,0.002678,0.000431,0.242578
34138000,0.0324,0.013523,0.002678,0.000431,0.300872
34139000,0.0324,0.013523,0.002678,0.000431,0.138918
34140000,0.0324,0.013523,0.002678,0.000431,0.164304
34141000,0.0324,0.013523,0.002678,0.000431,0.101662
34142000,0.0324,0.013523,0.002678,0.000431,0.428155
34143000,0.0324,0.013523,0.002678,0.000431,0.159838
34144000,0.0324,0.013523,0.002678,0.000431,0.044896
34145000,0.0324,0.013523,0.002678,0.000431,0.036199
34146000,0.0324,0.013523,0.002678,0.000431,0.032320
34147000,0.0324,0.013523,0.002678,0.000431,0.031262
34148000,0.0324,0.013523,0.002678,0.000431,0.031262
34149000,0.0324,0.013523,0.002678,0.000431,0.026209
34150000,0.0324,0.013523,0.002678,0.000431,0.029265
34151000,0.0324,0.013523,0.002678,0.000431,0.021155
34152000,0.0324,0.013523,0.002678,0.000431,0.019510
34153000,0.0324,0.013523,0.002678,0.000431,0.014221
34154000,0.0324,0.013523,0.002678,0.000431,0.013163
34155000,0.0324,0.013523,0.002678,0.000431,0.013281
34156000,0.0324,0.013523,0.002678,0.000431,0.013046
34157000,0.0324,0.013523,0.002678,0.000431,0.013163
34158000,0.0324,0.013523,0.002678,0.000431,0.014221
34159000,0.0324,0.013523,0.002678,0.000431,0.013986
34160000,0.0324,0.013523,0.002678,0.000431,0.011400
34161000,0.0324,0.013523,0.002678,0.000431,0.009755
34162000,0.0324,0.013523,0.002678,0.000431,0.009755
34163000,0.0324,0.013523,0.002678,0.000431,0.010578
34164000,0.0324,0.013523,0.002678,0.000431,0.008932
34165000,0.0324,0.013523,0.002678,0.000431,0.009520
34166000,0.0324,0.013523,0.002678,0.000431,0.010342
34167000,0.0324,0.013523,0.002678,0.000431,0.008109
34168000,0.0324,0.013523,0.002678,0.000431,0.008462
34169000,0.0324,0.013523,0.002678,0.000431,0.006817
34170000,0.0324,0.013523,0.002678,0.000431,0.005876
34171000,0.0324,0.013523,0.002678,0.000431,0.005994
34172000,0.0324,0.013523,0.002678,0.000431,0.007404
34173000,0.0324,0.013523,0.002678,0.000431,0.006699
34174000,0.0324,0.013523,0.002678,0.000431,0.005171
34175000,0.0324,0.013523,0.002678,0.000431,0.005994
34176000,0.0324,0.013523,0.002678,0.000431,0.005994
34177000,0.0324,0.013523,0.002678,0.000431,0.004231
34178000,0.0324,0.013523,0.002678,0.000431,0.004349
34179000,0.0324,0.013523,0.002678,0.000431,0.004231
34180000,0.0324,0.013523,0.002678,0.000431,0.004349
34181000,0.0324,0.013523,0.002678,0.000431,0.004113
34182000,0.0324,0.013523,0.002678,0.000431,0.004349
34183000,0.0324,0.013523,0.002678,0.000431,0.004231
34184000,0.0324,0.013523,0.002678,0.000431,0.004231
34185000,0.0324,0.013523,0.002678,0.000431,0.004349
34186000,0.0324,0.013523,0.002678,0.000431,0.004466
34187000,0.0324,0.013523,0.002678,0.000431,0.004466
34188000,0.0324,0.013523,0.002678,0.000431,0.004466
34189000,0.0324,0.013523,0.002678,0.000431,0.003291
34190000,0.0324,0.013523,0.002678,0.000431,0.003408
34191000,0.0324,0.013523,0.002678,0.000431,0.003408
34192000,0.0324,0.013523,0.002678,0.000431,0.003408
34193000,0.0324,0.013523,0.002678,0.000431,0.003408
34194000,0.0324,0.013523,0.002678,0.000431,0.003408
34195000,0.0324,0.013523,0.002678,0.000431,0.003173
34196000,0.0324,0.013523,0.002678,0.000431,0.003526
34197000,0.0324,0.013523,0.002678,0.000431,0.003173
34198000,0.0324,0.013523,0.002678,0.000431,0.003526
34199000,0.0324,0.013523,0.002678,0.000431,0.003526
34200000,0.0324,0.013523,0.002678,0.000431,0.003408
34201000,0.0324,0.013523,0.002678,0.000431,0.003291
34202000,0.0324,0.013523,0.002678,0.000431,0.003056
34203000,0.0324,0.013523,0.002678,0.000431,0.003761
34204000,0.0324,0.013523,0.002678,0.000431,0.003526
34205000,0.0324,0.013523,0.002678,0.000431,0.003291
34206000,0.0324,0.013523,0.002678,0.000431,0.003291
34207000,0.0324,0.013523,0.002678,0.000431,0.003173
34208000,0.0324,0.013523,0.002678,0.000431,0.003761
34209000,0.0324,0.013523,0.002678,0.000431,0.003291
34210000,0.0324,0.013523,0.002678,0.000431,0.003291
34211000,0.0324,0.013523,0.002678,0.000431,0.005171
34212000,0.0324,0.013523,0.002678,0.000431,0.002351
34213000,0.0324,0.013523,0.002678,0.000431,0.004584
34214000,0.0324,0.013523,0.002678,0.000431,0.001763
34215000,0.0324,0.013523,0.002678,0.000431,0.001645
34216000,0.0324,0.013523,0.002678,0.000431,0.001880
34217000,0.0324,0.013523,0.002678,0.000431,0.002703
34218000,0.0324,0.013523,0.002678,0.000431,0.000940
34219000,0.0324,0.013523,0.002678,0.000431,0.000823
34220000,0.0324,0.013523,0.002678,0.000431,0.000823
34221000,0.0324,0.013523,0.002678,0.000431,0.000823
34222000,0.0324,0.013523,0.002678,0.000431,0.000823
34223000,0.0324,0.013523,0.002678,0.000431,0.000940
34224000,0.0324,0.013523,0.002678,0.000431,0.000705
34225000,0.0324,0.013523,0.002678,0.000431,0.000940
34226000,0.0324,0.013523,0.002678,0.000431,0.000823
34227000,0.0324,0.013523,0.002678,0.000431,0.000823
34228000,0.0324,0.013523,0.002678,0.000431,0.000823
34229000,0.0324,0.013523,0.002678,0.000431,0.000823
34230000,0.0324,0.013523,0.002678,0.000431,0.000823
34231000,0.0324,0.013523,0.002678,0.000431,0.000823
34232000,0.0324,0.013523,0.002678,0.000431,0.000940
34233000,0.0324,0.013523,0.002678,0.000431,0.000705
34234000,0.0324,0.013523,0.002678,0.000431,0.000940
34235000,0.0324,0.013523,0.002678,0.000431,0.000823
34236000,0.0324,0.013523,0.002678,0.000431,0.000823
34237000,0.0324,0.013523,0.002678,0.000431,0.000823
34238000,0.0324,0.013523,0.002678,0.000431,0.000823
34239000,0.0324,0.013523,0.002678,0.000431,0.000823
34240000,0.0324,0.013523,0.002678,0.000431,0.000823
34241000,0.0324,0.013523,0.002678,0.000431,0.000940
34242000,0.0324,0.013523,0.002678,0.000431,0.000705
34243000,0.0324,0.013523,0.002678,0.000431,0.000940
34244000,0.0324,0.013523,0.002678,0.000431,0.000823
34245000,0.0324,0.013523,0.002678,0.000431,0.000823
34246000,0.0324,0.013523,0.002678,0.000431,0.000705
34247000,0.0324,0.013523,0.002678,0.000431,0.000940
34248000,0.0324,0.013523,0.002678,0.000431,0.000940
34249000,0.0324,0.013523,0.002678,0.000431,0.000705
34250000,0.0324,0.013523,0.002678,0.000431,0.000940
34251000,0.0324,0.013523,0.002678,0.000431,0.000705
34252000,0.0324,0.013523,0.002678,0.000431,0.000940
34253000,0.0324,0.013523,0.002678,0.000431,0.000823
34254000,0.0324,0.013523,0.002678,0.000431,0.000823
34255000,0.0324,0.013523,0.002678,0.000431,0.000940
34256000,0.0324,0.013523,0.002678,0.000431,0.000705
34257000,0.0324,0.013523,0.002678,0.000431,0.000940
34258000,0.0324,0.013523,0.002678,0.000431,0.000705
34259000,0.0324,0.013523,0.002678,0.000431,0.000940
34260000,0.0324,0.013523,0.002678,0.000431,0.000823
34261000,0.0324,0.013523,0.002678,0.000431,0.000823
34262000,0.0324,0.013523,0.002678,0.000431,0.000823
34263000,0.0324,0.013523,0.002678,0.000431,0.000823
34264000,0.0324,0.013523,0.002678,0.000431,0.000940
34265000,0.0324,0.013523,0.002678,0.000431,0.000705
34266000,0.0324,0.013523,0.002678,0.000431,0.000823
34267000,0.0324,0.013523,0.002678,0.000431,0.000823
34268000,0.0324,0.013523,0.002678,0.000431,0.000940
34269000,0.0324,0.013523,0.002678,0.000431,0.000823
34270000,0.0324,0.013523,0.002678,0.000431,0.000823
34271000,0.0324,0.013523,0.002678,0.000431,0.000705
34272000,0.0324,0.013523,0.002678,0.000431,0.000940
34273000,0.0324,0.013523,0.002678,0.000431,0.197212
34274000,0.0324,0.013523,0.002678,0.000431,0.509602
34275000,0.0324,0.013523,0.002678,0.000431,0.460123
34276000,0.0324,0.013523,0.002678,0.000431,0.132102
34277000,0.0324,0.013523,0.002678,0.000431,0.133512
34278000,0.0324,0.013523,0.002678,0.000431,0.585290
34279000,0.0324,0.013523,0.002678,0.000431,0.271608
34280000,0.0324,0.013523,0.002678,0.000431,0.241755
34281000,0.0324,0.013523,0.002678,0.000431,0.254566
34282000,0.0324,0.013523,0.002678,0.000431,0.136568
34283000,0.0324,0.013523,0.002678,0.000431,0.157018
34284000,0.0324,0.013523,0.002678,0.000431,0.107421
34285000,0.0324,0.013523,0.002678,0.000431,0.352702
34286000,0.0324,0.013523,0.002678,0.000431,0.261030
34287000,0.0324,0.013523,0.002678,0.000431,0.043956
34288000,0.0324,0.013523,0.002678,0.000431,0.037844
34289000,0.0324,0.013523,0.002678,0.000431,0.025621
34290000,0.0324,0.013523,0.002678,0.000431,0.030205
34291000,0.0324,0.013523,0.002678,0.000431,0.025034
34292000,0.0324,0.013523,0.002678,0.000431,0.018217
34293000,0.0324,0.013523,0.002678,0.000431,0.018099
34294000,0.0324,0.013523,0.002678,0.000431,0.021508
34295000,0.0324,0.013523,0.002678,0.000431,0.013046
34296000,0.0324,0.013523,0.002678,0.000431,0.011988
34297000,0.0324,0.013523,0.002678,0.000431,0.011988
34298000,0.0324,0.013523,0.002678,0.000431,0.013868
34299000,0.0324,0.013523,0.002678,0.000431,0.013163
34300000,0.0324,0.013523,0.002678,0.000431,0.010107
34301000,0.0324,0.013523,0.002678,0.000431,0.006582
34302000,0.0324,0.013523,0.002678,0.000431,0.008109
34303000,0.0324,0.013523,0.002678,0.000431,0.007052
34304000,0.0324,0.013523,0.002678,0.000431,0.005524
34305000,0.0324,0.013523,0.002678,0.000431,0.005994
34306000,0.0324,0.013523,0.002678,0.000431,0.005289
34307000,0.0324,0.013523,0.002678,0.000431,0.005876
34308000,0.0324,0.013523,0.002678,0.000431,0.006347
34309000,0.0324,0.013523,0.002678,0.000431,0.005759
34310000,0.0324,0.013523,0.002678,0.000431,0.004466
34311000,0.0324,0.013523,0.002678,0.000431,0.004936
34312000,0.0324,0.013523,0.002678,0.000431,0.004701
34313000,0.0324,0.013523,0.002678,0.000431,0.004584
34314000,0.0324,0.013523,0.002678,0.000431,0.004819
34315000,0.0324,0.013523,0.002678,0.000431,0.005054
34316000,0.0324,0.013523,0.002678,0.000431,0.004584
34317000,0.0324,0.013523,0.002678,0.000431,0.004349
34318000,0.0324,0.013523,0.002678,0.000431,0.005054
34319000,0.0324,0.013523,0.002678,0.000431,0.005054
34320000,0.0324,0.013523,0.002678,0.000431,0.006464
34321000,0.0324,0.013523,0.002678,0.000431,0.003996
34322000,0.0324,0.013523,0.002678,0.000431,0.003996
34323000,0.0324,0.013523,0.002678,0.000431,0.003408
34324000,0.0324,0.013523,0.002678,0.000431,0.004349
34325000,0.0324,0.013523,0.002678,0.000431,0.003643
34326000,0.0324,0.013523,0.002678,0.000431,0.004231
34327000,0.0324,0.013523,0.002678,0.000431,0.003643
34328000,0.0324,0.013523,0.002678,0.000431,0.004584
34329000,0.0324,0.013523,0.002678,0.000431,0.003173
34330000,0.0324,0.013523,0.002678,0.000431,0.004349
34331000,0.0324,0.013523,0.002678,0.000431,0.003878
34332000,0.0324,0.013523,0.002678,0.000431,0.003878
34333000,0.0324,0.013523,0.002678,0.000431,0.003643
34334000,0.0324,0.013523,0.002678,0.000431,0.005171
34335000,0.0324,0.013523,0.002678,0.000431,0.004819
34336000,0.0324,0.013523,0.002678,0.000431,0.003056
34337000,0.0324,0.013523,0.002678,0.000431,0.003173
34338000,0.0324,0.013523,0.002678,0.000431,0.003291
34339000,0.0324,0.013523,0.002678,0.000431,0.002821
34340000,0.0324,0.013523,0.002678,0.000431,0.003526
34341000,0.0324,0.013523,0.002678,0.000431,0.002821
34342000,0.0324,0.013523,0.002678,0.000431,0.004113
34343000,0.0324,0.013523,0.002678,0.000431,0.003878
34344000,0.0324,0.013523,0.002678,0.000431,0.002351
34345000,0.0324,0.013523,0.002678,0.000431,0.001528
34346000,0.0324,0.013523,0.002678,0.000431,0.001528
34347000,0.0324,0.013523,0.002678,0.000431,0.001763
34348000,0.0324,0.013523,0.002678,0.000431,0.001528
34349000,0.0324,0.013523,0.002678,0.000431,0.001410
34350000,0.0324,0.013523,0.002678,0.000431,0.001645
34351000,0.0324,0.013523,0.002678,0.000431,0.001645
34352000,0.0324,0.013523,0.002678,0.000431,0.001880
34353000,0.0324,0.013523,0.002678,0.000431,0.001410
34354000,0.0324,0.013523,0.002678,0.000431,0.001645
34355000,0.0324,0.013523,0.002678,0.000431,0.001528
34356000,0.0324,0.013523,0.002678,0.000431,0.001763
34357000,0.0324,0.013523,0.002678,0.000431,0.001645
34358000,0.0324,0.013523,0.002678,0.000431,0.001645
34359000,0.0324,0.013523,0.002678,0.000431,0.001645
34360000,0.0324,0.013523,0.002678,0.000431,0.001645
34361000,0.0324,0.013523,0.002678,0.000431,0.001645
34362000,0.0324,0.013523,0.002678,0.000431,0.001645
34363000,0.0324,0.013523,0.002678,0.000431,0.001645
34364000,0.0324,0.013523,0.002678,0.000431,0.001645
34365000,0.0324,0.013523,0.002678,0.000431,0.001410
34366000,0.0324,0.013523,0.002678,0.000431,0.001645
34367000,0.0324,0.013523,0.002678,0.000431,0.001645
34368000,0.0324,0.013523,0.002678,0.000431,0.001645
34369000,0.0324,0.013523,0.002678,0.000431,0.001410
34370000,0.0324,0.013523,0.002678,0.000431,0.001645
34371000,0.0324,0.013523,0.002678,0.000431,0.001645
34372000,0.0324,0.013523,0.002678,0.000431,0.001645
34373000,0.0324,0.013523,0.002678,0.000431,0.001410
34374000,0.0324,0.013523,0.002678,0.000431,0.001645
34375000,0.0324,0.013523,0.002678,0.000431,0.001293
34376000,0.0324,0.013523,0.002678,0.000431,0.001763
34377000,0.0324,0.013523,0.002678,0.000431,0.001880
34378000,0.0324,0.013523,0.002678,0.000431,0.001175
34379000,0.0324,0.013523,0.002678,0.000431,0.001880
34380000,0.0324,0.013523,0.002678,0.000431,0.001293
34381000,0.0324,0.013523,0.002678,0.000431,0.001763
34382000,0.0324,0.013523,0.002678,0.000431,0.001645
34383000,0.0324,0.013523,0.002678,0.000431,0.001410
34384000,0.0324,0.013523,0.002678,0.000431,0.001645
34385000,0.0324,0.013523,0.002678,0.000431,0.001528
34386000,0.0324,0.013523,0.002678,0.000431,0.001763
34387000,0.0324,0.013523,0.002678,0.000431,0.001880
34388000,0.0324,0.013523,0.002678,0.000431,0.001410
34389000,0.0324,0.013523,0.002678,0.000431,0.001528
34390000,0.0324,0.013523,0.002678,0.000431,0.000940
34391000,0.0324,0.013523,0.002678,0.000431,0.000823
34392000,0.0324,0.013523,0.002678,0.000431,0.000823
34393000,0.0324,0.013523,0.002678,0.000431,0.000940
34394000,0.0324,0.013523,0.002678,0.000431,0.000705
34395000,0.0324,0.013523,0.002678,0.000431,0.000940
34396000,0.0324,0.013523,0.002678,0.000431,0.000823
34397000,0.0324,0.013523,0.002678,0.000431,0.000823
34398000,0.0324,0.013523,0.002678,0.000431,0.000940
34399000,0.0324,0.013523,0.002678,0.000431,0.000823
34400000,0.0324,0.013523,0.002678,0.000431,0.000823
34401000,0.0324,0.013523,0.002678,0.000431,0.000940
34402000,0.0324,0.013523,0.002678,0.000431,0.000705
34403000,0.0324,0.013523,0.002678,0.000431,0.000940
34404000,0.0324,0.013523,0.002678,0.000431,0.000823
34405000,0.0324,0.013523,0.002678,0.000431,0.000823
34406000,0.0324,0.013523,0.002678,0.000431,0.000940
34407000,0.0324,0.013523,0.002678,0.000431,0.000823
34408000,0.0324,0.013523,0.002678,0.000431,0.000823
34409000,0.0324,0.013523,0.002678,0.000431,0.000940
34410000,0.0324,0.013523,0.002678,0.000431,0.000705
34411000,0.0324,0.013523,0.002678,0.000431,0.000940
34412000,0.0324,0.013523,0.002678,0.000431,0.000823
34413000,0.0324,0.013523,0.002678,0.000431,0.000823
34414000,0.0324,0.013523,0.002678,0.000431,0.000940
34415000,0.0324,0.013523,0.002678,0.000431,0.000823
34416000,0.0324,0.013523,0.002678,0.000431,0.000823
34417000,0.0324,0.013523,0.002678,0.000431,0.000823
34418000,0.0324,0.013523,0.002678,0.000431,0.000823
34419000,0.0324,0.013523,0.002678,0.000431,0.000940
34420000,0.0324,0.013523,0.002678,0.000431,0.000823
34421000,0.0324,0.013523,0.002678,0.000431,0.000823
34422000,0.0324,0.013523,0.002678,0.000431,0.000940
34423000,0.0324,0.013523,0.002678,0.000431,0.000823
34424000,0.0324,0.013523,0.002678,0.000431,0.000823
34425000,0.0324,0.013523,0.002678,0.000431,0.000823
34426000,0.0324,0.013523,0.002678,0.000431,0.000823
34427000,0.0324,0.013523,0.002678,0.000431,0.000940
34428000,0.0324,0.013523,0.002678,0.000431,0.000823
34429000,0.0324,0.013523,0.002678,0.000431,0.000823
34430000,0.0324,0.013523,0.002678,0.000431,0.000940
34431000,0.0324,0.013523,0.002678,0.000431,0.000705
34432000,0.0324,0.013523,0.002678,0.000431,0.015514
34433000,0.0324,0.013523,0.002678,0.000431,0.484686
34434000,0.0324,0.013523,0.002678,0.000431,0.598336
34435000,0.0324,0.013523,0.002678,0.000431,0.134922
34436000,0.0324,0.013523,0.002678,0.000431,0.131161
34437000,0.0324,0.013523,0.002678,0.000431,0.246574
34438000,0.0324,0.013523,0.002678,0.000431,0.508309
34439000,0.0324,0.013523,0.002678,0.000431,0.232353
34440000,0.0324,0.013523,0.002678,0.000431,0.308159
34441000,0.0324,0.013523,0.002678,0.000431,0.208377
34442000,0.0324,0.013523,0.002678,0.000431,0.137273
34443000,0.0324,0.013523,0.002678,0.000431,0.171239
34444000,0.0324,0.013523,0.002678,0.000431,0.111534
34445000,0.0324,0.013523,0.002678,0.000431,0.460005
34446000,0.0324,0.013523,0.002678,0.000431,0.051360
34447000,0.0324,0.013523,0.002678,0.000431,0.035729
34448000,0.0324,0.013523,0.002678,0.000431,0.034906
34449000,0.0324,0.013523,0.002678,0.000431,0.035846
34450000,0.0324,0.013523,0.002678,0.000431,0.027972
34451000,0.0324,0.013523,0.002678,0.000431,0.021743
34452000,0.0324,0.013523,0.002678,0.000431,0.021273
34453000,0.0324,0.013523,0.002678,0.000431,0.019392
34454000,0.0324,0.013523,0.002678,0.000431,0.017159
34455000,0.0324,0.013523,0.002678,0.000431,0.021508
34456000,0.0324,0.013523,0.002678,0.000431,0.017864
34457000,0.0324,0.013523,0.002678,0.000431,0.014926
34458000,0.0324,0.013523,0.002678,0.000431,0.012928
34459000,0.0324,0.013523,0.002678,0.000431,0.009285
34460000,0.0324,0.013523,0.002678,0.000431,0.009167
34461000,0.0324,0.013523,0.002678,0.000431,0.009520
34462000,0.0324,0.013523,0.002678,0.000431,0.009167
34463000,0.0324,0.013523,0.002678,0.000431,0.008697
34464000,0.0324,0.013523,0.002678,0.000431,0.009755
34465000,0.0324,0.013523,0.002678,0.000431,0.010813
34466000,0.0324,0.013523,0.002678,0.000431,0.007757
34467000,0.0324,0.013523,0.002678,0.000431,0.007522
34468000,0.0324,0.013523,0.002678,0.000431,0.007522
34469000,0.0324,0.013523,0.002678,0.000431,0.007404
34470000,0.0324,0.013523,0.002678,0.000431,0.007992
34471000,0.0324,0.013523,0.002678,0.000431,0.007757
34472000,0.0324,0.013523,0.002678,0.000431,0.007052
34473000,0.0324,0.013523,0.002678,0.000431,0.008109
34474000,0.0324,0.013523,0.002678,0.000431,0.007287
34475000,0.0324,0.013523,0.002678,0.000431,0.007404
34476000,0.0324,0.013523,0.002678,0.000431,0.007757
34477000,0.0324,0.013523,0.002678,0.000431,0.007874
34478000,0.0324,0.013523,0.002678,0.000431,0.007287
34479000,0.0324,0.013523,0.002678,0.000431,0.008580
34480000,0.0324,0.013523,0.002678,0.000431,0.007639
34481000,0.0324,0.013523,0.002678,0.000431,0.006934
34482000,0.0324,0.013523,0.002678,0.000431,0.006464
34483000,0.0324,0.013523,0.002678,0.000431,0.008580
34484000,0.0324,0.013523,0.002678,0.000431,0.005994
34485000,0.0324,0.013523,0.002678,0.000431,0.006464
34486000,0.0324,0.013523,0.002678,0.000431,0.005289
34487000,0.0324,0.013523,0.002678,0.000431,0.006347
34488000,0.0324,0.013523,0.002678,0.000431,0.005876
34489000,0.0324,0.013523,0.002678,0.000431,0.005641
34490000,0.0324,0.013523,0.002678,0.000431,0.005876
34491000,0.0324,0.013523,0.002678,0.000431,0.006229
34492000,0.0324,0.013523,0.002678,0.000431,0.006464
34493000,0.0324,0.013523,0.002678,0.000431,0.006464
34494000,0.0324,0.013523,0.002678,0.000431,0.004701
34495000,0.0324,0.013523,0.002678,0.000431,0.005054
34496000,0.0324,0.013523,0.002678,0.000431,0.005289
34497000,0.0324,0.013523,0.002678,0.000431,0.004936
34498000,0.0324,0.013523,0.002678,0.000431,0.004936
34499000,0.0324,0.013523,0.002678,0.000431,0.005171
34500000,0.0324,0.013523,0.002678,0.000431,0.004701
34501000,0.0324,0.013523,0.002678,0.000431,0.005406
34502000,0.0324,0.013523,0.002678,0.000431,0.005054
34503000,0.0324,0.013523,0.002678,0.000431,0.004936
34504000,0.0324,0.013523,0.002678,0.000431,0.005054
34505000,0.0324,0.013523,0.002678,0.000431,0.005171
34506000,0.0324,0.013523,0.002678,0.000431,0.004819
34507000,0.0324,0.013523,0.002678,0.000431,0.005171
34508000,0.0324,0.013523,0.002678,0.000431,0.005171
34509000,0.0324,0.013523,0.002678,0.000431,0.004819
34510000,0.0324,0.013523,0.002678,0.000431,0.005289
34511000,0.0324,0.013523,0.002678,0.000431,0.004936
34512000,0.0324,0.013523,0.002678,0.000431,0.004701
34513000,0.0324,0.013523,0.002678,0.000431,0.005171
34514000,0.0324,0.013523,0.002678,0.000431,0.005289
34515000,0.0324,0.013523,0.002678,0.000431,0.004936
34516000,0.0324,0.013523,0.002678,0.000431,0.005406
34517000,0.0324,0.013523,0.002678,0.000431,0.004466
34518000,0.0324,0.013523,0.002678,0.000431,0.005524
34519000,0.0324,0.013523,0.002678,0.000431,0.004936
34520000,0.0324,0.013523,0.002678,0.000431,0.005876
34521000,0.0324,0.013523,0.002678,0.000431,0.004349
34522000,0.0324,0.013523,0.002678,0.000431,0.004113
34523000,0.0324,0.013523,0.002678,0.000431,0.003878
34524000,0.0324,0.013523,0.002678,0.000431,0.004701
34525000,0.0324,0.013523,0.002678,0.000431,0.004936
34526000,0.0324,0.013523,0.002678,0.000431,0.004584
34527000,0.0324,0.013523,0.002678,0.000431,0.003056
34528000,0.0324,0.013523,0.002678,0.000431,0.003878
34529000,0.0324,0.013523,0.002678,0.000431,0.003408
34530000,0.0324,0.013523,0.002678,0.000431,0.003526
34531000,0.0324,0.013523,0.002678,0.000431,0.003173
34532000,0.0324,0.013523,0.002678,0.000431,0.003056
34533000,0.0324,0.013523,0.002678,0.000431,0.002821
34534000,0.0324,0.013523,0.002678,0.000431,0.002116
34535000,0.0324,0.013523,0.002678,0.000431,0.002821
34536000,0.0324,0.013523,0.002678,0.000431,0.002233
34537000,0.0324,0.013523,0.002678,0.000431,0.002703
34538000,0.0324,0.013523,0.002678,0.000431,0.002586
34539000,0.0324,0.013523,0.002678,0.000431,0.002351
34540000,0.0324,0.013523,0.002678,0.000431,0.002703
34541000,0.0324,0.013523,0.002678,0.000431,0.002233
34542000,0.0324,0.013523,0.002678,0.000431,0.002586
34543000,0.0324,0.013523,0.002678,0.000431,0.002586
34544000,0.0324,0.013523,0.002678,0.000431,0.002586
34545000,0.0324,0.013523,0.002678,0.000431,0.002468
34546000,0.0324,0.013523,0.002678,0.000431,0.002351
34547000,0.0324,0.013523,0.002678,0.000431,0.002586
34548000,0.0324,0.013523,0.002678,0.000431,0.002586
34549000,0.0324,0.013523,0.002678,0.000431,0.002586
34550000,0.0324,0.013523,0.002678,0.000431,0.002351
34551000,0.0324,0.013523,0.002678,0.000431,0.002586
34552000,0.0324,0.013523,0.002678,0.000431,0.002351
34553000,0.0324,0.013523,0.002678,0.000431,0.002703
34554000,0.0324,0.013523,0.002678,0.000431,0.002703
34555000,0.0324,0.013523,0.002678,0.000431,0.002233
34556000,0.0324,0.013523,0.002678,0.000431,0.002468
34557000,0.0324,0.013523,0.002678,0.000431,0.002586
34558000,0.0324,0.013523,0.002678,0.000431,0.002703
34559000,0.0324,0.013523,0.002678,0.000431,0.002351
34560000,0.0324,0.013523,0.002678,0.000431,0.002586
34561000,0.0324,0.013523,0.002678,0.000431,0.002351
34562000,0.0324,0.013523,0.002678,0.000431,0.002586
34563000,0.0324,0.013523,0.002678,0.000431,0.002703
34564000,0.0324,0.013523,0.002678,0.000431,0.002351
34565000,0.0324,0.013523,0.002678,0.000431,0.002703
34566000,0.0324,0.013523,0.002678,0.000431,0.002233
34567000,0.0324,0.013523,0.002678,0.000431,0.002703
34568000,0.0324,0.013523,0.002678,0.000431,0.002821
34569000,0.0324,0.013523,0.002678,0.000431,0.002351
34570000,0.0324,0.013523,0.002678,0.000431,0.002586
34571000,0.0324,0.013523,0.002678,0.000431,0.004701
34572000,0.0324,0.013523,0.002678,0.000431,0.001763
34573000,0.0324,0.013523,0.002678,0.000431,0.001645
34574000,0.0324,0.013523,0.002678,0.000431,0.001645
34575000,0.0324,0.013523,0.002678,0.000431,0.001763
34576000,0.0324,0.013523,0.002678,0.000431,0.001528
34577000,0.0324,0.013523,0.002678,0.000431,0.001880
34578000,0.0324,0.013523,0.002678,0.000431,0.001645
34579000,0.0324,0.013523,0.002678,0.000431,0.001645
34580000,0.0324,0.013523,0.002678,0.000431,0.001763
34581000,0.0324,0.013523,0.002678,0.000431,0.001645
34582000,0.0324,0.013523,0.002678,0.000431,0.001645
34583000,0.0324,0.013523,0.002678,0.000431,0.001645
34584000,0.0324,0.013523,0.002678,0.000431,0.001763
34585000,0.0324,0.013523,0.002678,0.000431,0.001645
34586000,0.0324,0.013523,0.002678,0.000431,0.002703
34587000,0.0324,0.013523,0.002678,0.000431,0.000940
34588000,0.0324,0.013523,0.002678,0.000431,0.000705
34589000,0.0324,0.013523,0.002678,0.000431,0.000823
34590000,0.0324,0.013523,0.002678,0.000431,0.000823
34591000,0.0324,0.013523,0.002678,0.000431,0.000940
34592000,0.0324,0.013523,0.002678,0.000431,0.000823
34593000,0.0324,0.013523,0.002678,0.000431,0.000823
34594000,0.0324,0.013523,0.002678,0.000431,0.000705
34595000,0.0324,0.013523,0.002678,0.000431,0.000940
34596000,0.0324,0.013523,0.002678,0.000431,0.000940
34597000,0.0324,0.013523,0.002678,0.000431,0.000705
34598000,0.0324,0.013523,0.002678,0.000431,0.000940
34599000,0.0324,0.013523,0.002678,0.000431,0.000705
34600000,0.0324,0.013523,0.002678,0.000431,0.000940
34601000,0.0324,0.013523,0.002678,0.000431,0.000940
34602000,0.0324,0.013523,0.002678,0.000431,0.000705
34603000,0.0324,0.013523,0.002678,0.000431,0.000940
34604000,0.0324,0.013523,0.002678,0.000431,0.000705
34605000,0.0324,0.013523,0.002678,0.000431,0.000940
34606000,0.0324,0.013523,0.002678,0.000431,0.000823
34607000,0.0324,0.013523,0.002678,0.000431,0.000823
34608000,0.0324,0.013523,0.002678,0.000431,0.000823
34609000,0.0324,0.013523,0.002678,0.000431,0.000823
34610000,0.0324,0.013523,0.002678,0.000431,0.000823
34611000,0.0324,0.013523,0.002678,0.000431,0.000823
34612000,0.0324,0.013523,0.002678,0.000431,0.000940
34613000,0.0324,0.013523,0.002678,0.000431,0.000823
34614000,0.0324,0.013523,0.002678,0.000431,0.000823
34615000,0.0324,0.013523,0.002678,0.000431,0.000823
34616000,0.0324,0.013523,0.002678,0.000431,0.000823
34617000,0.0324,0.013523,0.002678,0.000431,0.000823
34618000,0.0324,0.013523,0.002678,0.000431,0.000823
34619000,0.0324,0.013523,0.002678,0.000431,0.000940
34620000,0.0324,0.013523,0.002678,0.000431,0.000705
34621000,0.0324,0.013523,0.002678,0.000431,0.000940
34622000,0.0324,0.013523,0.002678,0.000431,0.000705
34623000,0.0324,0.013523,0.002678,0.000431,0.000940
34624000,0.0324,0.013523,0.002678,0.000431,0.000823
34625000,0.0324,0.013523,0.002678,0.000431,0.000823
34626000,0.0324,0.013523,0.002678,0.000431,0.000940
34627000,0.0324,0.013523,0.002678,0.000431,0.000705
34628000,0.0324,0.013523,0.002678,0.000431,0.000940
34629000,0.0324,0.013523,0.002678,0.000431,0.000823
34630000,0.0324,0.013523,0.002678,0.000431,0.000823
34631000,0.0324,0.013523,0.002678,0.000431,0.000823
34632000,0.0324,0.013523,0.002678,0.000431,0.000823
34633000,0.0324,0.013523,0.002678,0.000431,0.000940
34634000,0.0324,0.013523,0.002678,0.000431,0.000705
34635000,0.0324,0.013523,0.002678,0.000431,0.070869
34636000,0.0324,0.013523,0.002678,0.000431,0.458242
34637000,0.0324,0.013523,0.002678,0.000431,0.585525
34638000,0.0324,0.013523,0.002678,0.000431,0.132572
34639000,0.0324,0.013523,0.002678,0.000431,0.133042
34640000,0.0324,0.013523,0.002678,0.000431,0.538984
34641000,0.0324,0.013523,0.002678,0.000431,0.226829
34642000,0.0324,0.013523,0.002678,0.000431,0.240463
34643000,0.0324,0.013523,0.002678,0.000431,0.284653
34644000,0.0324,0.013523,0.002678,0.000431,0.176410
34645000,0.0324,0.013523,0.002678,0.000431,0.151729
34646000,0.0324,0.013523,0.002678,0.000431,0.174059
34647000,0.0324,0.013523,0.002678,0.000431,0.091437
34648000,0.0324,0.013523,0.002678,0.000431,0.470465
34649000,0.0324,0.013523,0.002678,0.000431,0.098136
34650000,0.0324,0.013523,0.002678,0.000431,0.054180
34651000,0.0324,0.013523,0.002678,0.000431,0.047246
34652000,0.0324,0.013523,0.002678,0.000431,0.039254
34653000,0.0324,0.013523,0.002678,0.000431,0.036081
34654000,0.0324,0.013523,0.002678,0.000431,0.029029
34655000,0.0324,0.013523,0.002678,0.000431,0.024563
34656000,0.0324,0.013523,0.002678,0.000431,0.022683
34657000,0.0324,0.013523,0.002678,0.000431,0.021038
34658000,0.0324,0.013523,0.002678,0.000431,0.018217
34659000,0.0324,0.013523,0.002678,0.000431,0.017982
34660000,0.0324,0.013523,0.002678,0.000431,0.016101
34661000,0.0324,0.013523,0.002678,0.000431,0.021978
34662000,0.0324,0.013523,0.002678,0.000431,0.014809
34663000,0.0324,0.013523,0.002678,0.000431,0.012340
34664000,0.0324,0.013523,0.002678,0.000431,0.011753
34665000,0.0324,0.013523,0.002678,0.000431,0.010460
34666000,0.0324,0.013523,0.002678,0.000431,0.009050
34667000,0.0324,0.013523,0.002678,0.000431,0.009872
34668000,0.0324,0.013523,0.002678,0.000431,0.011165
34669000,0.0324,0.013523,0.002678,0.000431,0.008697
34670000,0.0324,0.013523,0.002678,0.000431,0.009167
34671000,0.0324,0.013523,0.002678,0.000431,0.009520
34672000,0.0324,0.013523,0.002678,0.000431,0.008345
34673000,0.0324,0.013523,0.002678,0.000431,0.008227
34674000,0.0324,0.013523,0.002678,0.000431,0.007874
34675000,0.0324,0.013523,0.002678,0.000431,0.007052
34676000,0.0324,0.013523,0.002678,0.000431,0.008580
34677000,0.0324,0.013523,0.002678,0.000431,0.007639
34678000,0.0324,0.013523,0.002678,0.000431,0.006699
34679000,0.0324,0.013523,0.002678,0.000431,0.008109
34680000,0.0324,0.013523,0.002678,0.000431,0.008697
34681000,0.0324,0.013523,0.002678,0.000431,0.005759
34682000,0.0324,0.013523,0.002678,0.000431,0.006699
34683000,0.0324,0.013523,0.002678,0.000431,0.006464
34684000,0.0324,0.013523,0.002678,0.000431,0.005289
34685000,0.0324,0.013523,0.002678,0.000431,0.004113
34686000,0.0324,0.013523,0.002678,0.000431,0.005289
34687000,0.0324,0.013523,0.002678,0.000431,0.004466
34688000,0.0324,0.013523,0.002678,0.000431,0.004819
34689000,0.0324,0.013523,0.002678,0.000431,0.004819
34690000,0.0324,0.013523,0.002678,0.000431,0.004819
34691000,0.0324,0.013523,0.002678,0.000431,0.004936
34692000,0.0324,0.013523,0.002678,0.000431,0.004584
34693000,0.0324,0.013523,0.002678,0.000431,0.005054
34694000,0.0324,0.013523,0.002678,0.000431,0.004584
34695000,0.0324,0.013523,0.002678,0.000431,0.006464
34696000,0.0324,0.013523,0.002678,0.000431,0.003056
34697000,0.0324,0.013523,0.002678,0.000431,0.003173
34698000,0.0324,0.013523,0.002678,0.000431,0.003173
34699000,0.0324,0.013523,0.002678,0.000431,0.003526
34700000,0.0324,0.013523,0.002678,0.000431,0.002938
34701000,0.0324,0.013523,0.002678,0.000431,0.003408
34702000,0.0324,0.013523,0.002678,0.000431,0.003526
34703000,0.0324,0.013523,0.002678,0.000431,0.002586
34704000,0.0324,0.013523,0.002678,0.000431,0.003761
34705000,0.0324,0.013523,0.002678,0.000431,0.002938
34706000,0.0324,0.013523,0.002678,0.000431,0.003173
34707000,0.0324,0.013523,0.002678,0.000431,0.002938
34708000,0.0324,0.013523,0.002678,0.000431,0.003173
34709000,0.0324,0.013523,0.002678,0.000431,0.003643
34710000,0.0324,0.013523,0.002678,0.000431,0.003056
34711000,0.0324,0.013523,0.002678,0.000431,0.003173
34712000,0.0324,0.013523,0.002678,0.000431,0.003408
34713000,0.0324,0.013523,0.002678,0.000431,0.004936
34714000,0.0324,0.013523,0.002678,0.000431,0.002586
34715000,0.0324,0.013523,0.002678,0.000431,0.002586
34716000,0.0324,0.013523,0.002678,0.000431,0.002233
34717000,0.0324,0.013523,0.002678,0.000431,0.002586
34718000,0.0324,0.013523,0.002678,0.000431,0.002468
34719000,0.0324,0.013523,0.002678,0.000431,0.002351
34720000,0.0324,0.013523,0.002678,0.000431,0.002468
34721000,0.0324,0.013523,0.002678,0.000431,0.002351
34722000,0.0324,0.013523,0.002678,0.000431,0.002468
34723000,0.0324,0.013523,0.002678,0.000431,0.002586
34724000,0.0324,0.013523,0.002678,0.000431,0.002116
34725000,0.0324,0.013523,0.002678,0.000431,0.002586
34726000,0.0324,0.013523,0.002678,0.000431,0.002468
34727000,0.0324,0.013523,0.002678,0.000431,0.002468
34728000,0.0324,0.013523,0.002678,0.000431,0.004231
34729000,0.0324,0.013523,0.002678,0.000431,0.001528
34730000,0.0324,0.013523,0.002678,0.000431,0.001645
34731000,0.0324,0.013523,0.002678,0.000431,0.001645
34732000,0.0324,0.013523,0.002678,0.000431,0.000823
34733000,0.0324,0.013523,0.002678,0.000431,0.000940
34734000,0.0324,0.013523,0.002678,0.000431,0.000823
34735000,0.0324,0.013523,0.002678,0.000431,0.000940
34736000,0.0324,0.013523,0.002678,0.000431,0.000823
34737000,0.0324,0.013523,0.002678,0.000431,0.000940
34738000,0.0324,0.013523,0.002678,0.000431,0.181228
34739000,0.0324,0.013523,0.002678,0.000431,0.468585
34740000,0.0324,0.013523,0.002678,0.000431,0.534988
34741000,0.0324,0.013523,0.002678,0.000431,0.133982
34742000,0.0324,0.013523,0.002678,0.000431,0.131867
34743000,0.0324,0.013523,0.002678,0.000431,0.592577
34744000,0.0324,0.013523,0.002678,0.000431,0.275721
34745000,0.0324,0.013523,0.002678,0.000431,0.230120
34746000,0.0324,0.013523,0.002678,0.000431,0.250100
34747000,0.0324,0.013523,0.002678,0.000431,0.138918
34748000,0.0324,0.013523,0.002678,0.000431,0.143502
34749000,0.0324,0.013523,0.002678,0.000431,0.134100
34750000,0.0324,0.013523,0.002678,0.000431,0.277484
34751000,0.0324,0.013523,0.002678,0.000431,0.352820
34752000,0.0324,0.013523,0.002678,0.000431,0.087911
34753000,0.0324,0.013523,0.002678,0.000431,0.072985
34754000,0.0324,0.013523,0.002678,0.000431,0.056531
34755000,0.0324,0.013523,0.002678,0.000431,0.060292
34756000,0.0324,0.013523,0.002678,0.000431,0.042075
34757000,0.0324,0.013523,0.002678,0.000431,0.034553
34758000,0.0324,0.013523,0.002678,0.000431,0.035964
34759000,0.0324,0.013523,0.002678,0.000431,0.031027
34760000,0.0324,0.013523,0.002678,0.000431,0.026914
34761000,0.0324,0.013523,0.002678,0.000431,0.031733
34762000,0.0324,0.013523,0.002678,0.000431,0.022330
34763000,0.0324,0.013523,0.002678,0.000431,0.023036
34764000,0.0324,0.013523,0.002678,0.000431,0.019275
34765000,0.0324,0.013523,0.002678,0.000431,0.015044
34766000,0.0324,0.013523,0.002678,0.000431,0.018099
34767000,0.0324,0.013523,0.002678,0.000431,0.014338
34768000,0.0324,0.013523,0.002678,0.000431,0.013633
34769000,0.0324,0.013523,0.002678,0.000431,0.010342
34770000,0.0324,0.013523,0.002678,0.000431,0.011753
34771000,0.0324,0.013523,0.002678,0.000431,0.009637
34772000,0.0324,0.013523,0.002678,0.000431,0.008697
34773000,0.0324,0.013523,0.002678,0.000431,0.009285
34774000,0.0324,0.013523,0.002678,0.000431,0.009520
34775000,0.0324,0.013523,0.002678,0.000431,0.009402
34776000,0.0324,0.013523,0.002678,0.000431,0.009402
34777000,0.0324,0.013523,0.002678,0.000431,0.009755
34778000,0.0324,0.013523,0.002678,0.000431,0.009990
34779000,0.0324,0.013523,0.002678,0.000431,0.009990
34780000,0.0324,0.013523,0.002678,0.000431,0.007757
34781000,0.0324,0.013523,0.002678,0.000431,0.007639
34782000,0.0324,0.013523,0.002678,0.000431,0.007639
34783000,0.0324,0.013523,0.002678,0.000431,0.007522
34784000,0.0324,0.013523,0.002678,0.000431,0.007639
34785000,0.0324,0.013523,0.002678,0.000431,0.007522
34786000,0.0324,0.013523,0.002678,0.000431,0.007757
34787000,0.0324,0.013523,0.002678,0.000431,0.009402
34788000,0.0324,0.013523,0.002678,0.000431,0.009285
34789000,0.0324,0.013523,0.002678,0.000431,0.005994
34790000,0.0324,0.013523,0.002678,0.000431,0.004113
34791000,0.0324,0.013523,0.002678,0.000431,0.004349
34792000,0.0324,0.013523,0.002678,0.000431,0.004231
34793000,0.0324,0.013523,0.002678,0.000431,0.004584
34794000,0.0324,0.013523,0.002678,0.000431,0.004349
34795000,0.0324,0.013523,0.002678,0.000431,0.003996
34796000,0.0324,0.013523,0.002678,0.000431,0.004584
34797000,0.0324,0.013523,0.002678,0.000431,0.004349
34798000,0.0324,0.013523,0.002678,0.000431,0.004584
34799000,0.0324,0.013523,0.002678,0.000431,0.003996
34800000,0.0324,0.013523,0.002678,0.000431,0.005641
34801000,0.0324,0.013523,0.002678,0.000431,0.003643
34802000,0.0324,0.013523,0.002678,0.000431,0.003056
34803000,0.0324,0.013523,0.002678,0.000431,0.003643
34804000,0.0324,0.013523,0.002678,0.000431,0.003761
34805000,0.0324,0.013523,0.002678,0.000431,0.007169
34806000,0.0324,0.013523,0.002678,0.000431,0.002703
34807000,0.0324,0.013523,0.002678,0.000431,0.003996
34808000,0.0324,0.013523,0.002678,0.000431,0.003643
34809000,0.0324,0.013523,0.002678,0.000431,0.001528
34810000,0.0324,0.013523,0.002678,0.000431,0.001880
34811000,0.0324,0.013523,0.002678,0.000431,0.003408
34812000,0.0324,0.013523,0.002678,0.000431,0.000823
34813000,0.0324,0.013523,0.002678,0.000431,0.000823
34814000,0.0324,0.013523,0.002678,0.000431,0.000940
34815000,0.0324,0.013523,0.002678,0.000431,0.000940
34816000,0.0324,0.013523,0.002678,0.000431,0.000823
34817000,0.0324,0.013523,0.002678,0.000431,0.000823
34818000,0.0324,0.013523,0.002678,0.000431,0.000940
34819000,0.0324,0.013523,0.002678,0.000431,0.000823
34820000,0.0324,0.013523,0.002678,0.000431,0.000940
34821000,0.0324,0.013523,0.002678,0.000431,0.000823
34822000,0.0324,0.013523,0.002678,0.000431,0.000940
34823000,0.0324,0.013523,0.002678,0.000431,0.000940
34824000,0.0324,0.013523,0.002678,0.000431,0.000705
34825000,0.0324,0.013523,0.002678,0.000431,0.000940
34826000,0.0324,0.013523,0.002678,0.000431,0.001998
34827000,0.0324,0.013523,0.002678,0.000431,0.367158
34828000,0.0324,0.013523,0.002678,0.000431,0.698940
34829000,0.0324,0.013523,0.002678,0.000431,0.189808
34830000,0.0324,0.013523,0.002678,0.000431,0.133042
34831000,0.0324,0.013523,0.002678,0.000431,0.133394
34832000,0.0324,0.013523,0.002678,0.000431,0.594575
34833000,0.0324,0.013523,0.002678,0.000431,0.224596
34834000,0.0324,0.013523,0.002678,0.000431,0.288649
34835000,0.0324,0.013523,0.002678,0.000431,0.259855
34836000,0.0324,0.013523,0.002678,0.000431,0.143619
34837000,0.0324,0.013523,0.002678,0.000431,0.176762
34838000,0.0324,0.013523,0.002678,0.000431,0.096608
34839000,0.0324,0.013523,0.002678,0.000431,0.455069
34840000,0.0324,0.013523,0.002678,0.000431,0.065463
34841000,0.0324,0.013523,0.002678,0.000431,0.024916
34842000,0.0324,0.013523,0.002678,0.000431,0.018099
34843000,0.0324,0.013523,0.002678,0.000431,0.018217
34844000,0.0324,0.013523,0.002678,0.000431,0.014691
34845000,0.0324,0.013523,0.002678,0.000431,0.012105
34846000,0.0324,0.013523,0.002678,0.000431,0.009402
34847000,0.0324,0.013523,0.002678,0.000431,0.007169
34848000,0.0324,0.013523,0.002678,0.000431,0.004349
34849000,0.0324,0.013523,0.002678,0.000431,0.004466
34850000,0.0324,0.013523,0.002678,0.000431,0.003996
34851000,0.0324,0.013523,0.002678,0.000431,0.004349
34852000,0.0324,0.013523,0.002678,0.000431,0.004113
34853000,0.0324,0.013523,0.002678,0.000431,0.004231
34854000,0.0324,0.013523,0.002678,0.000431,0.004231
34855000,0.0324,0.013523,0.002678,0.000431,0.004349
34856000,0.0324,0.013523,0.002678,0.000431,0.004113
34857000,0.0324,0.013523,0.002678,0.000431,0.004113
34858000,0.0324,0.013523,0.002678,0.000431,0.004231
34859000,0.0324,0.013523,0.002678,0.000431,0.004349
34860000,0.0324,0.013523,0.002678,0.000431,0.004584
34861000,0.0324,0.013523,0.002678,0.000431,0.003643
34862000,0.0324,0.013523,0.002678,0.000431,0.004466
34863000,0.0324,0.013523,0.002678,0.000431,0.004231
34864000,0.0324,0.013523,0.002678,0.000431,0.004231
34865000,0.0324,0.013523,0.002678,0.000431,0.004466
34866000,0.0324,0.013523,0.002678,0.000431,0.003878
34867000,0.0324,0.013523,0.002678,0.000431,0.004349
34868000,0.0324,0.013523,0.002678,0.000431,0.004113
34869000,0.0324,0.013523,0.002678,0.000431,0.004466
34870000,0.0324,0.013523,0.002678,0.000431,0.004113
34871000,0.0324,0.013523,0.002678,0.000431,0.004349
34872000,0.0324,0.013523,0.002678,0.000431,0.004113
34873000,0.0324,0.013523,0.002678,0.000431,0.004231
34874000,0.0324,0.013523,0.002678,0.000431,0.004466
34875000,0.0324,0.013523,0.002678,0.000431,0.004113
34876000,0.0324,0.013523,0.002678,0.000431,0.004113
34877000,0.0324,0.013523,0.002678,0.000431,0.004231
34878000,0.0324,0.013523,0.002678,0.000431,0.004231
34879000,0.0324,0.013523,0.002678,0.000431,0.004466
34880000,0.0324,0.013523,0.002678,0.000431,0.003878
34881000,0.0324,0.013523,0.002678,0.000431,0.004349
34882000,0.0324,0.013523,0.002678,0.000431,0.004349
34883000,0.0324,0.013523,0.002678,0.000431,0.004349
34884000,0.0324,0.013523,0.002678,0.000431,0.003878
34885000,0.0324,0.013523,0.002678,0.000431,0.004584
34886000,0.0324,0.013523,0.002678,0.000431,0.004231
34887000,0.0324,0.013523,0.002678,0.000431,0.004113
34888000,0.0324,0.013523,0.002678,0.000431,0.005876
34889000,0.0324,0.013523,0.002678,0.000431,0.003173
34890000,0.0324,0.013523,0.002678,0.000431,0.003761
34891000,0.0324,0.013523,0.002678,0.000431,0.003056
34892000,0.0324,0.013523,0.002678,0.000431,0.003526
34893000,0.0324,0.013523,0.002678,0.000431,0.003408
34894000,0.0324,0.013523,0.002678,0.000431,0.003173
34895000,0.0324,0.013523,0.002678,0.000431,0.003643
34896000,0.0324,0.013523,0.002678,0.000431,0.003056
34897000,0.0324,0.013523,0.002678,0.000431,0.005171
34898000,0.0324,0.013523,0.002678,0.000431,0.002351
34899000,0.0324,0.013523,0.002678,0.000431,0.002586
34900000,0.0324,0.013523,0.002678,0.000431,0.002468
34901000,0.0324,0.013523,0.002678,0.000431,0.002468
34902000,0.0324,0.013523,0.002678,0.000431,0.002586
34903000,0.0324,0.013523,0.002678,0.000431,0.002468
34904000,0.0324,0.013523,0.002678,0.000431,0.002586
34905000,0.0324,0.013523,0.002678,0.000431,0.002351
34906000,0.0324,0.013523,0.002678,0.000431,0.002703
34907000,0.0324,0.013523,0.002678,0.000431,0.002468
34908000,0.0324,0.013523,0.002678,0.000431,0.002468
34909000,0.0324,0.013523,0.002678,0.000431,0.002351
34910000,0.0324,0.013523,0.002678,0.000431,0.002586
34911000,0.0324,0.013523,0.002678,0.000431,0.002703
34912000,0.0324,0.013523,0.002678,0.000431,0.002351
34913000,0.0324,0.013523,0.002678,0.000431,0.002703
34914000,0.0324,0.013523,0.002678,0.000431,0.002233
34915000,0.0324,0.013523,0.002678,0.000431,0.002703
34916000,0.0324,0.013523,0.002678,0.000431,0.002468
34917000,0.0324,0.013523,0.002678,0.000431,0.002468
34918000,0.0324,0.013523,0.002678,0.000431,0.002821
34919000,0.0324,0.013523,0.002678,0.000431,0.002116
34920000,0.0324,0.013523,0.002678,0.000431,0.002821
34921000,0.0324,0.013523,0.002678,0.000431,0.002351
34922000,0.0324,0.013523,0.002678,0.000431,0.002586
34923000,0.0324,0.013523,0.002678,0.000431,0.002586
34924000,0.0324,0.013523,0.002678,0.000431,0.002351
34925000,0.0324,0.013523,0.002678,0.000431,0.002586
34926000,0.0324,0.013523,0.002678,0.000431,0.004584
34927000,0.0324,0.013523,0.002678,0.000431,0.001880
34928000,0.0324,0.013523,0.002678,0.000431,0.001410
34929000,0.0324,0.013523,0.002678,0.000431,0.001880
34930000,0.0324,0.013523,0.002678,0.000431,0.001645
34931000,0.0324,0.013523,0.002678,0.000431,0.001645
34932000,0.0324,0.013523,0.002678,0.000431,0.001528
34933000,0.0324,0.013523,0.002678,0.000431,0.001763
34934000,0.0324,0.013523,0.002678,0.000431,0.001880
34935000,0.0324,0.013523,0.002678,0.000431,0.001410
34936000,0.0324,0.013523,0.002678,0.000431,0.001763
34937000,0.0324,0.013523,0.002678,0.000431,0.001528
34938000,0.0324,0.013523,0.002678,0.000431,0.001880
34939000,0.0324,0.013523,0.002678,0.000431,0.001645
34940000,0.0324,0.013523,0.002678,0.000431,0.001645
34941000,0.0324,0.013523,0.002678,0.000431,0.001645
34942000,0.0324,0.013523,0.002678,0.000431,0.001645
34943000,0.0324,0.013523,0.002678,0.000431,0.001880
34944000,0.0324,0.013523,0.002678,0.000431,0.001528
34945000,0.0324,0.013523,0.002678,0.000431,0.001763
34946000,0.0324,0.013523,0.002678,0.000431,0.001528
34947000,0.0324,0.013523,0.002678,0.000431,0.001763
34948000,0.0324,0.013523,0.002678,0.000431,0.001645
34949000,0.0324,0.013523,0.002678,0.000431,0.001645
34950000,0.0324,0.013523,0.002678,0.000431,0.001880
34951000,0.0324,0.013523,0.002678,0.000431,0.001410
34952000,0.0324,0.013523,0.002678,0.000431,0.001763
34953000,0.0324,0.013523,0.002678,0.000431,0.001763
34954000,0.0324,0.013523,0.002678,0.000431,0.001645
34955000,0.0324,0.013523,0.002678,0.000431,0.001645
34956000,0.0324,0.013523,0.002678,0.000431,0.001645
34957000,0.0324,0.013523,0.002678,0.000431,0.001645
34958000,0.0324,0.013523,0.002678,0.000431,0.001645
34959000,0.0324,0.013523,0.002678,0.000431,0.001880
34960000,0.0324,0.013523,0.002678,0.000431,0.001528
34961000,0.0324,0.013523,0.002678,0.000431,0.001763
34962000,0.0324,0.013523,0.002678,0.000431,0.001528
34963000,0.0324,0.013523,0.002678,0.000431,0.001763
34964000,0.0324,0.013523,0.002678,0.000431,0.001763
34965000,0.0324,0.013523,0.002678,0.000431,0.001528
34966000,0.0324,0.013523,0.002678,0.000431,0.001880
34967000,0.0324,0.013523,0.002678,0.000431,0.001410
34968000,0.0324,0.013523,0.002678,0.000431,0.001880
34969000,0.0324,0.013523,0.002678,0.000431,0.001528
34970000,0.0324,0.013523,0.002678,0.000431,0.001763
34971000,0.0324,0.013523,0.002678,0.000431,0.001880
34972000,0.0324,0.013523,0.002678,0.000431,0.001410
34973000,0.0324,0.013523,0.002678,0.000431,0.001880
34974000,0.0324,0.013523,0.002678,0.000431,0.001528
34975000,0.0324,0.013523,0.002678,0.000431,0.001763
34976000,0.0324,0.013523,0.002678,0.000431,0.001645
34977000,0.0324,0.013523,0.002678,0.000431,0.001645
34978000,0.0324,0.013523,0.002678,0.000431,0.001763
34979000,0.0324,0.013523,0.002678,0.000431,0.001528
34980000,0.0324,0.013523,0.002678,0.000431,0.003173
34981000,0.0324,0.013523,0.002678,0.000431,0.000823
34982000,0.0324,0.013523,0.002678,0.000431,0.000823
34983000,0.0324,0.013523,0.002678,0.000431,0.000823
34984000,0.0324,0.013523,0.002678,0.000431,0.000823
34985000,0.0324,0.013523,0.002678,0.000431,0.000823
34986000,0.0324,0.013523,0.002678,0.000431,0.000823
34987000,0.0324,0.013523,0.002678,0.000431,0.000940
34988000,0.0324,0.013523,0.002678,0.000431,0.000705
34989000,0.0324,0.013523,0.002678,0.000431,0.000940
34990000,0.0324,0.013523,0.002678,0.000431,0.000705
34991000,0.0324,0.013523,0.002678,0.000431,0.000940
34992000,0.0324,0.013523,0.002678,0.000431,0.000940
34993000,0.0324,0.013523,0.002678,0.000431,0.000705
34994000,0.0324,0.013523,0.002678,0.000431,0.000940
34995000,0.0324,0.013523,0.002678,0.000431,0.000705
34996000,0.0324,0.013523,0.002678,0.000431,0.000940
34997000,0.0324,0.013523,0.002678,0.000431,0.000823
34998000,0.0324,0.013523,0.002678,0.000431,0.000823
34999000,0.0324,0.013523,0.002678,0.000431,0.000823
