Cycle,Area(mm^2),PeakDynamic(W),SubthresholdLeakage(W),GateLeakage(W),RunTimeDynamic(W)
85000000,0.0324,0.013523,0.002678,0.000431,0.000823
85001000,0.0324,0.013523,0.002678,0.000431,0.000823
85002000,0.0324,0.013523,0.002678,0.000431,0.000823
85003000,0.0324,0.013523,0.002678,0.000431,0.000823
85004000,0.0324,0.013523,0.002678,0.000431,0.000823
85005000,0.0324,0.013523,0.002678,0.000431,0.000940
85006000,0.0324,0.013523,0.002678,0.000431,0.000705
85007000,0.0324,0.013523,0.002678,0.000431,0.000823
85008000,0.0324,0.013523,0.002678,0.000431,0.000823
85009000,0.0324,0.013523,0.002678,0.000431,0.000940
85010000,0.0324,0.013523,0.002678,0.000431,0.000823
85011000,0.0324,0.013523,0.002678,0.000431,0.000823
85012000,0.0324,0.013523,0.002678,0.000431,0.000823
85013000,0.0324,0.013523,0.002678,0.000431,0.000823
85014000,0.0324,0.013523,0.002678,0.000431,0.000823
85015000,0.0324,0.013523,0.002678,0.000431,0.000823
85016000,0.0324,0.013523,0.002678,0.000431,0.000940
85017000,0.0324,0.013523,0.002678,0.000431,0.127283
85018000,0.0324,0.013523,0.002678,0.000431,0.515479
85019000,0.0324,0.013523,0.002678,0.000431,0.532755
85020000,0.0324,0.013523,0.002678,0.000431,0.134452
85021000,0.0324,0.013523,0.002678,0.000431,0.130691
85022000,0.0324,0.013523,0.002678,0.000431,0.569189
85023000,0.0324,0.013523,0.002678,0.000431,0.283713
85024000,0.0324,0.013523,0.002678,0.000431,0.230708
85025000,0.0324,0.013523,0.002678,0.000431,0.299697
85026000,0.0324,0.013523,0.002678,0.000431,0.143032
85027000,0.0324,0.013523,0.002678,0.000431,0.155020
85028000,0.0324,0.013523,0.002678,0.000431,0.101544
85029000,0.0324,0.013523,0.002678,0.000431,0.460358
85030000,0.0324,0.013523,0.002678,0.000431,0.161484
85031000,0.0324,0.013523,0.002678,0.000431,0.090027
85032000,0.0324,0.013523,0.002678,0.000431,0.072750
85033000,0.0324,0.013523,0.002678,0.000431,0.062525
85034000,0.0324,0.013523,0.002678,0.000431,0.059587
85035000,0.0324,0.013523,0.002678,0.000431,0.047129
85036000,0.0324,0.013523,0.002678,0.000431,0.039960
85037000,0.0324,0.013523,0.002678,0.000431,0.031498
85038000,0.0324,0.013523,0.002678,0.000431,0.030440
85039000,0.0324,0.013523,0.002678,0.000431,0.028677
85040000,0.0324,0.013523,0.002678,0.000431,0.021978
85041000,0.0324,0.013523,0.002678,0.000431,0.021625
85042000,0.0324,0.013523,0.002678,0.000431,0.016454
85043000,0.0324,0.013523,0.002678,0.000431,0.015161
85044000,0.0324,0.013523,0.002678,0.000431,0.014103
85045000,0.0324,0.013523,0.002678,0.000431,0.016336
85046000,0.0324,0.013523,0.002678,0.000431,0.013163
85047000,0.0324,0.013523,0.002678,0.000431,0.012928
85048000,0.0324,0.013523,0.002678,0.000431,0.013633
85049000,0.0324,0.013523,0.002678,0.000431,0.011283
85050000,0.0324,0.013523,0.002678,0.000431,0.011400
85051000,0.0324,0.013523,0.002678,0.000431,0.010225
85052000,0.0324,0.013523,0.002678,0.000431,0.011048
85053000,0.0324,0.013523,0.002678,0.000431,0.010930
85054000,0.0324,0.013523,0.002678,0.000431,0.010460
85055000,0.0324,0.013523,0.002678,0.000431,0.011400
85056000,0.0324,0.013523,0.002678,0.000431,0.009990
85057000,0.0324,0.013523,0.002678,0.000431,0.011283
85058000,0.0324,0.013523,0.002678,0.000431,0.012105
85059000,0.0324,0.013523,0.002678,0.000431,0.009872
85060000,0.0324,0.013523,0.002678,0.000431,0.010342
85061000,0.0324,0.013523,0.002678,0.000431,0.009637
85062000,0.0324,0.013523,0.002678,0.000431,0.010342
85063000,0.0324,0.013523,0.002678,0.000431,0.012693
85064000,0.0324,0.013523,0.002678,0.000431,0.009167
85065000,0.0324,0.013523,0.002678,0.000431,0.009285
85066000,0.0324,0.013523,0.002678,0.000431,0.009285
85067000,0.0324,0.013523,0.002678,0.000431,0.008580
85068000,0.0324,0.013523,0.002678,0.000431,0.010930
85069000,0.0324,0.013523,0.002678,0.000431,0.010813
85070000,0.0324,0.013523,0.002678,0.000431,0.007169
85071000,0.0324,0.013523,0.002678,0.000431,0.009167
85072000,0.0324,0.013523,0.002678,0.000431,0.006229
85073000,0.0324,0.013523,0.002678,0.000431,0.006464
85074000,0.0324,0.013523,0.002678,0.000431,0.007169
85075000,0.0324,0.013523,0.002678,0.000431,0.006347
85076000,0.0324,0.013523,0.002678,0.000431,0.006582
85077000,0.0324,0.013523,0.002678,0.000431,0.006817
85078000,0.0324,0.013523,0.002678,0.000431,0.008109
85079000,0.0324,0.013523,0.002678,0.000431,0.005759
85080000,0.0324,0.013523,0.002678,0.000431,0.005994
85081000,0.0324,0.013523,0.002678,0.000431,0.005759
85082000,0.0324,0.013523,0.002678,0.000431,0.005759
85083000,0.0324,0.013523,0.002678,0.000431,0.007757
85084000,0.0324,0.013523,0.002678,0.000431,0.005289
85085000,0.0324,0.013523,0.002678,0.000431,0.004701
85086000,0.0324,0.013523,0.002678,0.000431,0.004936
85087000,0.0324,0.013523,0.002678,0.000431,0.007522
85088000,0.0324,0.013523,0.002678,0.000431,0.003996
85089000,0.0324,0.013523,0.002678,0.000431,0.004231
85090000,0.0324,0.013523,0.002678,0.000431,0.003761
85091000,0.0324,0.013523,0.002678,0.000431,0.004113
85092000,0.0324,0.013523,0.002678,0.000431,0.004584
85093000,0.0324,0.013523,0.002678,0.000431,0.003643
85094000,0.0324,0.013523,0.002678,0.000431,0.004349
85095000,0.0324,0.013523,0.002678,0.000431,0.003878
85096000,0.0324,0.013523,0.002678,0.000431,0.004113
85097000,0.0324,0.013523,0.002678,0.000431,0.004231
85098000,0.0324,0.013523,0.002678,0.000431,0.003643
85099000,0.0324,0.013523,0.002678,0.000431,0.003291
85100000,0.0324,0.013523,0.002678,0.000431,0.003408
85101000,0.0324,0.013523,0.002678,0.000431,0.003291
85102000,0.0324,0.013523,0.002678,0.000431,0.003291
85103000,0.0324,0.013523,0.002678,0.000431,0.003643
85104000,0.0324,0.013523,0.002678,0.000431,0.003056
85105000,0.0324,0.013523,0.002678,0.000431,0.003526
85106000,0.0324,0.013523,0.002678,0.000431,0.003408
85107000,0.0324,0.013523,0.002678,0.000431,0.003291
85108000,0.0324,0.013523,0.002678,0.000431,0.003408
85109000,0.0324,0.013523,0.002678,0.000431,0.007052
85110000,0.0324,0.013523,0.002678,0.000431,0.003291
85111000,0.0324,0.013523,0.002678,0.000431,0.001645
85112000,0.0324,0.013523,0.002678,0.000431,0.001880
85113000,0.0324,0.013523,0.002678,0.000431,0.001528
85114000,0.0324,0.013523,0.002678,0.000431,0.001763
85115000,0.0324,0.013523,0.002678,0.000431,0.001645
85116000,0.0324,0.013523,0.002678,0.000431,0.001645
85117000,0.0324,0.013523,0.002678,0.000431,0.001645
85118000,0.0324,0.013523,0.002678,0.000431,0.001763
85119000,0.0324,0.013523,0.002678,0.000431,0.001763
85120000,0.0324,0.013523,0.002678,0.000431,0.001528
85121000,0.0324,0.013523,0.002678,0.000431,0.001528
85122000,0.0324,0.013523,0.002678,0.000431,0.001763
85123000,0.0324,0.013523,0.002678,0.000431,0.001880
85124000,0.0324,0.013523,0.002678,0.000431,0.001528
85125000,0.0324,0.013523,0.002678,0.000431,0.001763
85126000,0.0324,0.013523,0.002678,0.000431,0.001410
85127000,0.0324,0.013523,0.002678,0.000431,0.001880
85128000,0.0324,0.013523,0.002678,0.000431,0.001763
85129000,0.0324,0.013523,0.002678,0.000431,0.001528
85130000,0.0324,0.013523,0.002678,0.000431,0.001880
85131000,0.0324,0.013523,0.002678,0.000431,0.001410
85132000,0.0324,0.013523,0.002678,0.000431,0.001880
85133000,0.0324,0.013523,0.002678,0.000431,0.001645
85134000,0.0324,0.013523,0.002678,0.000431,0.001645
85135000,0.0324,0.013523,0.002678,0.000431,0.001763
85136000,0.0324,0.013523,0.002678,0.000431,0.001528
85137000,0.0324,0.013523,0.002678,0.000431,0.001763
85138000,0.0324,0.013523,0.002678,0.000431,0.001645
85139000,0.0324,0.013523,0.002678,0.000431,0.001763
85140000,0.0324,0.013523,0.002678,0.000431,0.001528
85141000,0.0324,0.013523,0.002678,0.000431,0.001763
85142000,0.0324,0.013523,0.002678,0.000431,0.001645
85143000,0.0324,0.013523,0.002678,0.000431,0.001645
85144000,0.0324,0.013523,0.002678,0.000431,0.001645
85145000,0.0324,0.013523,0.002678,0.000431,0.001645
85146000,0.0324,0.013523,0.002678,0.000431,0.001880
85147000,0.0324,0.013523,0.002678,0.000431,0.001528
85148000,0.0324,0.013523,0.002678,0.000431,0.001763
85149000,0.0324,0.013523,0.002678,0.000431,0.001528
85150000,0.0324,0.013523,0.002678,0.000431,0.001763
85151000,0.0324,0.013523,0.002678,0.000431,0.001763
85152000,0.0324,0.013523,0.002678,0.000431,0.001528
85153000,0.0324,0.013523,0.002678,0.000431,0.001880
85154000,0.0324,0.013523,0.002678,0.000431,0.001410
85155000,0.0324,0.013523,0.002678,0.000431,0.001880
85156000,0.0324,0.013523,0.002678,0.000431,0.001645
85157000,0.0324,0.013523,0.002678,0.000431,0.001645
85158000,0.0324,0.013523,0.002678,0.000431,0.001763
85159000,0.0324,0.013523,0.002678,0.000431,0.001528
85160000,0.0324,0.013523,0.002678,0.000431,0.001763
85161000,0.0324,0.013523,0.002678,0.000431,0.001645
85162000,0.0324,0.013523,0.002678,0.000431,0.001763
85163000,0.0324,0.013523,0.002678,0.000431,0.001528
85164000,0.0324,0.013523,0.002678,0.000431,0.001645
85165000,0.0324,0.013523,0.002678,0.000431,0.001763
85166000,0.0324,0.013523,0.002678,0.000431,0.001645
85167000,0.0324,0.013523,0.002678,0.000431,0.001763
85168000,0.0324,0.013523,0.002678,0.000431,0.001645
85169000,0.0324,0.013523,0.002678,0.000431,0.001528
85170000,0.0324,0.013523,0.002678,0.000431,0.001763
85171000,0.0324,0.013523,0.002678,0.000431,0.001763
85172000,0.0324,0.013523,0.002678,0.000431,0.001528
85173000,0.0324,0.013523,0.002678,0.000431,0.001763
85174000,0.0324,0.013523,0.002678,0.000431,0.001528
85175000,0.0324,0.013523,0.002678,0.000431,0.001763
85176000,0.0324,0.013523,0.002678,0.000431,0.001880
85177000,0.0324,0.013523,0.002678,0.000431,0.001528
85178000,0.0324,0.013523,0.002678,0.000431,0.001763
85179000,0.0324,0.013523,0.002678,0.000431,0.001410
85180000,0.0324,0.013523,0.002678,0.000431,0.001880
85181000,0.0324,0.013523,0.002678,0.000431,0.001763
85182000,0.0324,0.013523,0.002678,0.000431,0.001528
85183000,0.0324,0.013523,0.002678,0.000431,0.001763
85184000,0.0324,0.013523,0.002678,0.000431,0.001528
85185000,0.0324,0.013523,0.002678,0.000431,0.001880
85186000,0.0324,0.013523,0.002678,0.000431,0.001528
85187000,0.0324,0.013523,0.002678,0.000431,0.001763
85188000,0.0324,0.013523,0.002678,0.000431,0.001763
85189000,0.0324,0.013523,0.002678,0.000431,0.002351
85190000,0.0324,0.013523,0.002678,0.000431,0.002116
85191000,0.0324,0.013523,0.002678,0.000431,0.000823
85192000,0.0324,0.013523,0.002678,0.000431,0.000823
85193000,0.0324,0.013523,0.002678,0.000431,0.000823
85194000,0.0324,0.013523,0.002678,0.000431,0.000823
85195000,0.0324,0.013523,0.002678,0.000431,0.000823
85196000,0.0324,0.013523,0.002678,0.000431,0.000823
85197000,0.0324,0.013523,0.002678,0.000431,0.000940
85198000,0.0324,0.013523,0.002678,0.000431,0.000705
85199000,0.0324,0.013523,0.002678,0.000431,0.000940
85200000,0.0324,0.013523,0.002678,0.000431,0.000823
85201000,0.0324,0.013523,0.002678,0.000431,0.000823
85202000,0.0324,0.013523,0.002678,0.000431,0.000705
85203000,0.0324,0.013523,0.002678,0.000431,0.000940
85204000,0.0324,0.013523,0.002678,0.000431,0.000940
85205000,0.0324,0.013523,0.002678,0.000431,0.000705
85206000,0.0324,0.013523,0.002678,0.000431,0.000940
85207000,0.0324,0.013523,0.002678,0.000431,0.000705
85208000,0.0324,0.013523,0.002678,0.000431,0.000940
85209000,0.0324,0.013523,0.002678,0.000431,0.000823
85210000,0.0324,0.013523,0.002678,0.000431,0.000823
85211000,0.0324,0.013523,0.002678,0.000431,0.000940
85212000,0.0324,0.013523,0.002678,0.000431,0.000705
85213000,0.0324,0.013523,0.002678,0.000431,0.000940
85214000,0.0324,0.013523,0.002678,0.000431,0.000823
85215000,0.0324,0.013523,0.002678,0.000431,0.000823
85216000,0.0324,0.013523,0.002678,0.000431,0.000823
85217000,0.0324,0.013523,0.002678,0.000431,0.000823
85218000,0.0324,0.013523,0.002678,0.000431,0.000823
85219000,0.0324,0.013523,0.002678,0.000431,0.000823
85220000,0.0324,0.013523,0.002678,0.000431,0.000940
85221000,0.0324,0.013523,0.002678,0.000431,0.000705
85222000,0.0324,0.013523,0.002678,0.000431,0.000823
85223000,0.0324,0.013523,0.002678,0.000431,0.000940
85224000,0.0324,0.013523,0.002678,0.000431,0.000823
85225000,0.0324,0.013523,0.002678,0.000431,0.000823
85226000,0.0324,0.013523,0.002678,0.000431,0.000823
85227000,0.0324,0.013523,0.002678,0.000431,0.000705
85228000,0.0324,0.013523,0.002678,0.000431,0.000940
85229000,0.0324,0.013523,0.002678,0.000431,0.000940
85230000,0.0324,0.013523,0.002678,0.000431,0.000823
85231000,0.0324,0.013523,0.002678,0.000431,0.000823
85232000,0.0324,0.013523,0.002678,0.000431,0.000705
85233000,0.0324,0.013523,0.002678,0.000431,0.000940
85234000,0.0324,0.013523,0.002678,0.000431,0.000940
85235000,0.0324,0.013523,0.002678,0.000431,0.000705
85236000,0.0324,0.013523,0.002678,0.000431,0.000940
85237000,0.0324,0.013523,0.002678,0.000431,0.000705
85238000,0.0324,0.013523,0.002678,0.000431,0.000940
85239000,0.0324,0.013523,0.002678,0.000431,0.000823
85240000,0.0324,0.013523,0.002678,0.000431,0.000823
85241000,0.0324,0.013523,0.002678,0.000431,0.000823
85242000,0.0324,0.013523,0.002678,0.000431,0.000823
85243000,0.0324,0.013523,0.002678,0.000431,0.000940
85244000,0.0324,0.013523,0.002678,0.000431,0.000705
85245000,0.0324,0.013523,0.002678,0.000431,0.000940
85246000,0.0324,0.013523,0.002678,0.000431,0.000823
85247000,0.0324,0.013523,0.002678,0.000431,0.000823
85248000,0.0324,0.013523,0.002678,0.000431,0.000823
85249000,0.0324,0.013523,0.002678,0.000431,0.000823
85250000,0.0324,0.013523,0.002678,0.000431,0.000940
85251000,0.0324,0.013523,0.002678,0.000431,0.000705
85252000,0.0324,0.013523,0.002678,0.000431,0.000940
85253000,0.0324,0.013523,0.002678,0.000431,0.000705
85254000,0.0324,0.013523,0.002678,0.000431,0.000940
85255000,0.0324,0.013523,0.002678,0.000431,0.000705
85256000,0.0324,0.013523,0.002678,0.000431,0.000940
85257000,0.0324,0.013523,0.002678,0.000431,0.000940
85258000,0.0324,0.013523,0.002678,0.000431,0.000705
85259000,0.0324,0.013523,0.002678,0.000431,0.000940
85260000,0.0324,0.013523,0.002678,0.000431,0.000705
85261000,0.0324,0.013523,0.002678,0.000431,0.000940
85262000,0.0324,0.013523,0.002678,0.000431,0.000823
85263000,0.0324,0.013523,0.002678,0.000431,0.000823
85264000,0.0324,0.013523,0.002678,0.000431,0.000823
85265000,0.0324,0.013523,0.002678,0.000431,0.000823
85266000,0.0324,0.013523,0.002678,0.000431,0.000940
85267000,0.0324,0.013523,0.002678,0.000431,0.000705
85268000,0.0324,0.013523,0.002678,0.000431,0.000940
85269000,0.0324,0.013523,0.002678,0.000431,0.000823
85270000,0.0324,0.013523,0.002678,0.000431,0.000823
85271000,0.0324,0.013523,0.002678,0.000431,0.000823
85272000,0.0324,0.013523,0.002678,0.000431,0.000823
85273000,0.0324,0.013523,0.002678,0.000431,0.000940
85274000,0.0324,0.013523,0.002678,0.000431,0.000705
85275000,0.0324,0.013523,0.002678,0.000431,0.000823
85276000,0.0324,0.013523,0.002678,0.000431,0.000940
85277000,0.0324,0.013523,0.002678,0.000431,0.000823
85278000,0.0324,0.013523,0.002678,0.000431,0.000823
85279000,0.0324,0.013523,0.002678,0.000431,0.000823
85280000,0.0324,0.013523,0.002678,0.000431,0.000823
85281000,0.0324,0.013523,0.002678,0.000431,0.000823
85282000,0.0324,0.013523,0.002678,0.000431,0.000940
85283000,0.0324,0.013523,0.002678,0.000431,0.000823
85284000,0.0324,0.013523,0.002678,0.000431,0.000823
85285000,0.0324,0.013523,0.002678,0.000431,0.000705
85286000,0.0324,0.013523,0.002678,0.000431,0.000940
85287000,0.0324,0.013523,0.002678,0.000431,0.000940
85288000,0.0324,0.013523,0.002678,0.000431,0.000705
85289000,0.0324,0.013523,0.002678,0.000431,0.000940
85290000,0.0324,0.013523,0.002678,0.000431,0.000705
85291000,0.0324,0.013523,0.002678,0.000431,0.000940
85292000,0.0324,0.013523,0.002678,0.000431,0.000823
85293000,0.0324,0.013523,0.002678,0.000431,0.000823
85294000,0.0324,0.013523,0.002678,0.000431,0.000940
85295000,0.0324,0.013523,0.002678,0.000431,0.000705
85296000,0.0324,0.013523,0.002678,0.000431,0.000940
85297000,0.0324,0.013523,0.002678,0.000431,0.000823
85298000,0.0324,0.013523,0.002678,0.000431,0.000823
85299000,0.0324,0.013523,0.002678,0.000431,0.000823
85300000,0.0324,0.013523,0.002678,0.000431,0.000823
85301000,0.0324,0.013523,0.002678,0.000431,0.000940
85302000,0.0324,0.013523,0.002678,0.000431,0.000705
85303000,0.0324,0.013523,0.002678,0.000431,0.000940
85304000,0.0324,0.013523,0.002678,0.000431,0.000823
85305000,0.0324,0.013523,0.002678,0.000431,0.000823
85306000,0.0324,0.013523,0.002678,0.000431,0.000823
85307000,0.0324,0.013523,0.002678,0.000431,0.000823
85308000,0.0324,0.013523,0.002678,0.000431,0.000940
85309000,0.0324,0.013523,0.002678,0.000431,0.000705
85310000,0.0324,0.013523,0.002678,0.000431,0.000940
85311000,0.0324,0.013523,0.002678,0.000431,0.000823
85312000,0.0324,0.013523,0.002678,0.000431,0.000823
85313000,0.0324,0.013523,0.002678,0.000431,0.000705
85314000,0.0324,0.013523,0.002678,0.000431,0.000940
85315000,0.0324,0.013523,0.002678,0.000431,0.000940
85316000,0.0324,0.013523,0.002678,0.000431,0.000705
85317000,0.0324,0.013523,0.002678,0.000431,0.000940
85318000,0.0324,0.013523,0.002678,0.000431,0.000705
85319000,0.0324,0.013523,0.002678,0.000431,0.000940
85320000,0.0324,0.013523,0.002678,0.000431,0.000823
85321000,0.0324,0.013523,0.002678,0.000431,0.000823
85322000,0.0324,0.013523,0.002678,0.000431,0.000940
85323000,0.0324,0.013523,0.002678,0.000431,0.000705
85324000,0.0324,0.013523,0.002678,0.000431,0.000940
85325000,0.0324,0.013523,0.002678,0.000431,0.000823
85326000,0.0324,0.013523,0.002678,0.000431,0.000823
85327000,0.0324,0.013523,0.002678,0.000431,0.000823
85328000,0.0324,0.013523,0.002678,0.000431,0.000823
85329000,0.0324,0.013523,0.002678,0.000431,0.000940
85330000,0.0324,0.013523,0.002678,0.000431,0.000705
85331000,0.0324,0.013523,0.002678,0.000431,0.000940
85332000,0.0324,0.013523,0.002678,0.000431,0.000823
85333000,0.0324,0.013523,0.002678,0.000431,0.000823
85334000,0.0324,0.013523,0.002678,0.000431,0.000823
85335000,0.0324,0.013523,0.002678,0.000431,0.000823
85336000,0.0324,0.013523,0.002678,0.000431,0.000940
85337000,0.0324,0.013523,0.002678,0.000431,0.000705
85338000,0.0324,0.013523,0.002678,0.000431,0.000940
85339000,0.0324,0.013523,0.002678,0.000431,0.000823
85340000,0.0324,0.013523,0.002678,0.000431,0.000823
85341000,0.0324,0.013523,0.002678,0.000431,0.000823
85342000,0.0324,0.013523,0.002678,0.000431,0.000823
85343000,0.0324,0.013523,0.002678,0.000431,0.000940
85344000,0.0324,0.013523,0.002678,0.000431,0.000705
85345000,0.0324,0.013523,0.002678,0.000431,0.000823
85346000,0.0324,0.013523,0.002678,0.000431,0.000940
85347000,0.0324,0.013523,0.002678,0.000431,0.000823
85348000,0.0324,0.013523,0.002678,0.000431,0.000823
85349000,0.0324,0.013523,0.002678,0.000431,0.000823
85350000,0.0324,0.013523,0.002678,0.000431,0.000705
85351000,0.0324,0.013523,0.002678,0.000431,0.000940
85352000,0.0324,0.013523,0.002678,0.000431,0.000940
85353000,0.0324,0.013523,0.002678,0.000431,0.000823
85354000,0.0324,0.013523,0.002678,0.000431,0.000823
85355000,0.0324,0.013523,0.002678,0.000431,0.000705
85356000,0.0324,0.013523,0.002678,0.000431,0.000940
85357000,0.0324,0.013523,0.002678,0.000431,0.000940
85358000,0.0324,0.013523,0.002678,0.000431,0.000705
85359000,0.0324,0.013523,0.002678,0.000431,0.000940
85360000,0.0324,0.013523,0.002678,0.000431,0.000705
85361000,0.0324,0.013523,0.002678,0.000431,0.000940
85362000,0.0324,0.013523,0.002678,0.000431,0.000823
85363000,0.0324,0.013523,0.002678,0.000431,0.000823
85364000,0.0324,0.013523,0.002678,0.000431,0.000940
85365000,0.0324,0.013523,0.002678,0.000431,0.000705
85366000,0.0324,0.013523,0.002678,0.000431,0.000940
85367000,0.0324,0.013523,0.002678,0.000431,0.000823
85368000,0.0324,0.013523,0.002678,0.000431,0.000823
85369000,0.0324,0.013523,0.002678,0.000431,0.000823
85370000,0.0324,0.013523,0.002678,0.000431,0.000823
85371000,0.0324,0.013523,0.002678,0.000431,0.000940
85372000,0.0324,0.013523,0.002678,0.000431,0.000705
85373000,0.0324,0.013523,0.002678,0.000431,0.000940
85374000,0.0324,0.013523,0.002678,0.000431,0.000823
85375000,0.0324,0.013523,0.002678,0.000431,0.000823
85376000,0.0324,0.013523,0.002678,0.000431,0.000823
85377000,0.0324,0.013523,0.002678,0.000431,0.000823
85378000,0.0324,0.013523,0.002678,0.000431,0.000823
85379000,0.0324,0.013523,0.002678,0.000431,0.000823
85380000,0.0324,0.013523,0.002678,0.000431,0.000940
85381000,0.0324,0.013523,0.002678,0.000431,0.000823
85382000,0.0324,0.013523,0.002678,0.000431,0.000823
85383000,0.0324,0.013523,0.002678,0.000431,0.000705
85384000,0.0324,0.013523,0.002678,0.000431,0.000940
85385000,0.0324,0.013523,0.002678,0.000431,0.000940
85386000,0.0324,0.013523,0.002678,0.000431,0.000705
85387000,0.0324,0.013523,0.002678,0.000431,0.000705
85388000,0.0324,0.013523,0.002678,0.000431,0.000940
85389000,0.0324,0.013523,0.002678,0.000431,0.000823
85390000,0.0324,0.013523,0.002678,0.000431,0.000823
85391000,0.0324,0.013523,0.002678,0.000431,0.000823
85392000,0.0324,0.013523,0.002678,0.000431,0.000823
85393000,0.0324,0.013523,0.002678,0.000431,0.000940
85394000,0.0324,0.013523,0.002678,0.000431,0.000823
85395000,0.0324,0.013523,0.002678,0.000431,0.000823
85396000,0.0324,0.013523,0.002678,0.000431,0.000823
85397000,0.0324,0.013523,0.002678,0.000431,0.000823
85398000,0.0324,0.013523,0.002678,0.000431,0.000823
85399000,0.0324,0.013523,0.002678,0.000431,0.000823
85400000,0.0324,0.013523,0.002678,0.000431,0.000823
85401000,0.0324,0.013523,0.002678,0.000431,0.000823
85402000,0.0324,0.013523,0.002678,0.000431,0.000940
85403000,0.0324,0.013523,0.002678,0.000431,0.000705
85404000,0.0324,0.013523,0.002678,0.000431,0.002586
85405000,0.0324,0.013523,0.002678,0.000431,0.426157
85406000,0.0324,0.013523,0.002678,0.000431,0.711398
85407000,0.0324,0.013523,0.002678,0.000431,0.134687
85408000,0.0324,0.013523,0.002678,0.000431,0.133042
85409000,0.0324,0.013523,0.002678,0.000431,0.193099
85410000,0.0324,0.013523,0.002678,0.000431,0.570834
85411000,0.0324,0.013523,0.002678,0.000431,0.271960
85412000,0.0324,0.013523,0.002678,0.000431,0.312625
85413000,0.0324,0.013523,0.002678,0.000431,0.193922
85414000,0.0324,0.013523,0.002678,0.000431,0.143619
85415000,0.0324,0.013523,0.002678,0.000431,0.127518
85416000,0.0324,0.013523,0.002678,0.000431,0.255154
85417000,0.0324,0.013523,0.002678,0.000431,0.343535
85418000,0.0324,0.013523,0.002678,0.000431,0.043603
85419000,0.0324,0.013523,0.002678,0.000431,0.032085
85420000,0.0324,0.013523,0.002678,0.000431,0.027737
85421000,0.0324,0.013523,0.002678,0.000431,0.023271
85422000,0.0324,0.013523,0.002678,0.000431,0.025739
85423000,0.0324,0.013523,0.002678,0.000431,0.019040
85424000,0.0324,0.013523,0.002678,0.000431,0.018805
85425000,0.0324,0.013523,0.002678,0.000431,0.018452
85426000,0.0324,0.013523,0.002678,0.000431,0.016571
85427000,0.0324,0.013523,0.002678,0.000431,0.016336
85428000,0.0324,0.013523,0.002678,0.000431,0.016807
85429000,0.0324,0.013523,0.002678,0.000431,0.015984
85430000,0.0324,0.013523,0.002678,0.000431,0.015631
85431000,0.0324,0.013523,0.002678,0.000431,0.013516
85432000,0.0324,0.013523,0.002678,0.000431,0.012811
85433000,0.0324,0.013523,0.002678,0.000431,0.011753
85434000,0.0324,0.013523,0.002678,0.000431,0.014456
85435000,0.0324,0.013523,0.002678,0.000431,0.011518
85436000,0.0324,0.013523,0.002678,0.000431,0.011988
85437000,0.0324,0.013523,0.002678,0.000431,0.011400
85438000,0.0324,0.013523,0.002678,0.000431,0.012223
85439000,0.0324,0.013523,0.002678,0.000431,0.011870
85440000,0.0324,0.013523,0.002678,0.000431,0.010225
85441000,0.0324,0.013523,0.002678,0.000431,0.010930
85442000,0.0324,0.013523,0.002678,0.000431,0.013633
85443000,0.0324,0.013523,0.002678,0.000431,0.009402
85444000,0.0324,0.013523,0.002678,0.000431,0.009755
85445000,0.0324,0.013523,0.002678,0.000431,0.006934
85446000,0.0324,0.013523,0.002678,0.000431,0.007639
85447000,0.0324,0.013523,0.002678,0.000431,0.007404
85448000,0.0324,0.013523,0.002678,0.000431,0.008462
85449000,0.0324,0.013523,0.002678,0.000431,0.006347
85450000,0.0324,0.013523,0.002678,0.000431,0.005994
85451000,0.0324,0.013523,0.002678,0.000431,0.007287
85452000,0.0324,0.013523,0.002678,0.000431,0.005054
85453000,0.0324,0.013523,0.002678,0.000431,0.005054
85454000,0.0324,0.013523,0.002678,0.000431,0.004819
85455000,0.0324,0.013523,0.002678,0.000431,0.005524
85456000,0.0324,0.013523,0.002678,0.000431,0.004466
85457000,0.0324,0.013523,0.002678,0.000431,0.005289
85458000,0.0324,0.013523,0.002678,0.000431,0.004466
85459000,0.0324,0.013523,0.002678,0.000431,0.007404
85460000,0.0324,0.013523,0.002678,0.000431,0.004231
85461000,0.0324,0.013523,0.002678,0.000431,0.003878
85462000,0.0324,0.013523,0.002678,0.000431,0.004349
85463000,0.0324,0.013523,0.002678,0.000431,0.005406
85464000,0.0324,0.013523,0.002678,0.000431,0.003643
85465000,0.0324,0.013523,0.002678,0.000431,0.003173
85466000,0.0324,0.013523,0.002678,0.000431,0.003173
85467000,0.0324,0.013523,0.002678,0.000431,0.003408
85468000,0.0324,0.013523,0.002678,0.000431,0.003056
85469000,0.0324,0.013523,0.002678,0.000431,0.003526
85470000,0.0324,0.013523,0.002678,0.000431,0.003291
85471000,0.0324,0.013523,0.002678,0.000431,0.003291
85472000,0.0324,0.013523,0.002678,0.000431,0.003291
85473000,0.0324,0.013523,0.002678,0.000431,0.003408
85474000,0.0324,0.013523,0.002678,0.000431,0.003408
85475000,0.0324,0.013523,0.002678,0.000431,0.003291
85476000,0.0324,0.013523,0.002678,0.000431,0.003173
85477000,0.0324,0.013523,0.002678,0.000431,0.003408
85478000,0.0324,0.013523,0.002678,0.000431,0.003173
85479000,0.0324,0.013523,0.002678,0.000431,0.003408
85480000,0.0324,0.013523,0.002678,0.000431,0.003173
85481000,0.0324,0.013523,0.002678,0.000431,0.003291
85482000,0.0324,0.013523,0.002678,0.000431,0.003056
85483000,0.0324,0.013523,0.002678,0.000431,0.003408
85484000,0.0324,0.013523,0.002678,0.000431,0.003291
85485000,0.0324,0.013523,0.002678,0.000431,0.003408
85486000,0.0324,0.013523,0.002678,0.000431,0.002821
85487000,0.0324,0.013523,0.002678,0.000431,0.003526
85488000,0.0324,0.013523,0.002678,0.000431,0.003056
85489000,0.0324,0.013523,0.002678,0.000431,0.003291
85490000,0.0324,0.013523,0.002678,0.000431,0.003643
85491000,0.0324,0.013523,0.002678,0.000431,0.002703
85492000,0.0324,0.013523,0.002678,0.000431,0.003643
85493000,0.0324,0.013523,0.002678,0.000431,0.002938
85494000,0.0324,0.013523,0.002678,0.000431,0.003526
85495000,0.0324,0.013523,0.002678,0.000431,0.003291
85496000,0.0324,0.013523,0.002678,0.000431,0.003056
85497000,0.0324,0.013523,0.002678,0.000431,0.003643
85498000,0.0324,0.013523,0.002678,0.000431,0.002821
85499000,0.0324,0.013523,0.002678,0.000431,0.002821
85500000,0.0324,0.013523,0.002678,0.000431,0.003408
85501000,0.0324,0.013523,0.002678,0.000431,0.003291
85502000,0.0324,0.013523,0.002678,0.000431,0.003173
85503000,0.0324,0.013523,0.002678,0.000431,0.003408
85504000,0.0324,0.013523,0.002678,0.000431,0.002938
85505000,0.0324,0.013523,0.002678,0.000431,0.003291
85506000,0.0324,0.013523,0.002678,0.000431,0.003526
85507000,0.0324,0.013523,0.002678,0.000431,0.003408
85508000,0.0324,0.013523,0.002678,0.000431,0.003056
85509000,0.0324,0.013523,0.002678,0.000431,0.003408
85510000,0.0324,0.013523,0.002678,0.000431,0.003056
85511000,0.0324,0.013523,0.002678,0.000431,0.003291
85512000,0.0324,0.013523,0.002678,0.000431,0.003173
85513000,0.0324,0.013523,0.002678,0.000431,0.003291
85514000,0.0324,0.013523,0.002678,0.000431,0.003291
85515000,0.0324,0.013523,0.002678,0.000431,0.003291
85516000,0.0324,0.013523,0.002678,0.000431,0.003173
85517000,0.0324,0.013523,0.002678,0.000431,0.003408
85518000,0.0324,0.013523,0.002678,0.000431,0.004701
85519000,0.0324,0.013523,0.002678,0.000431,0.002586
85520000,0.0324,0.013523,0.002678,0.000431,0.002586
85521000,0.0324,0.013523,0.002678,0.000431,0.002233
85522000,0.0324,0.013523,0.002678,0.000431,0.002703
85523000,0.0324,0.013523,0.002678,0.000431,0.001998
85524000,0.0324,0.013523,0.002678,0.000431,0.002586
85525000,0.0324,0.013523,0.002678,0.000431,0.002351
85526000,0.0324,0.013523,0.002678,0.000431,0.002586
85527000,0.0324,0.013523,0.002678,0.000431,0.002586
85528000,0.0324,0.013523,0.002678,0.000431,0.002116
85529000,0.0324,0.013523,0.002678,0.000431,0.002586
85530000,0.0324,0.013523,0.002678,0.000431,0.002351
85531000,0.0324,0.013523,0.002678,0.000431,0.002586
85532000,0.0324,0.013523,0.002678,0.000431,0.002351
85533000,0.0324,0.013523,0.002678,0.000431,0.002351
85534000,0.0324,0.013523,0.002678,0.000431,0.004113
85535000,0.0324,0.013523,0.002678,0.000431,0.001058
85536000,0.0324,0.013523,0.002678,0.000431,0.000823
85537000,0.0324,0.013523,0.002678,0.000431,0.000823
85538000,0.0324,0.013523,0.002678,0.000431,0.000823
85539000,0.0324,0.013523,0.002678,0.000431,0.000823
85540000,0.0324,0.013523,0.002678,0.000431,0.000940
85541000,0.0324,0.013523,0.002678,0.000431,0.000705
85542000,0.0324,0.013523,0.002678,0.000431,0.000940
85543000,0.0324,0.013523,0.002678,0.000431,0.000823
85544000,0.0324,0.013523,0.002678,0.000431,0.000823
85545000,0.0324,0.013523,0.002678,0.000431,0.000823
85546000,0.0324,0.013523,0.002678,0.000431,0.000823
85547000,0.0324,0.013523,0.002678,0.000431,0.000940
85548000,0.0324,0.013523,0.002678,0.000431,0.000705
85549000,0.0324,0.013523,0.002678,0.000431,0.000940
85550000,0.0324,0.013523,0.002678,0.000431,0.000705
85551000,0.0324,0.013523,0.002678,0.000431,0.000940
85552000,0.0324,0.013523,0.002678,0.000431,0.000705
85553000,0.0324,0.013523,0.002678,0.000431,0.000940
85554000,0.0324,0.013523,0.002678,0.000431,0.000940
85555000,0.0324,0.013523,0.002678,0.000431,0.000705
85556000,0.0324,0.013523,0.002678,0.000431,0.000940
85557000,0.0324,0.013523,0.002678,0.000431,0.000705
85558000,0.0324,0.013523,0.002678,0.000431,0.000940
85559000,0.0324,0.013523,0.002678,0.000431,0.000823
85560000,0.0324,0.013523,0.002678,0.000431,0.000823
85561000,0.0324,0.013523,0.002678,0.000431,0.000823
85562000,0.0324,0.013523,0.002678,0.000431,0.000823
85563000,0.0324,0.013523,0.002678,0.000431,0.000940
85564000,0.0324,0.013523,0.002678,0.000431,0.000705
85565000,0.0324,0.013523,0.002678,0.000431,0.000940
85566000,0.0324,0.013523,0.002678,0.000431,0.000823
85567000,0.0324,0.013523,0.002678,0.000431,0.004113
85568000,0.0324,0.013523,0.002678,0.000431,0.435324
85569000,0.0324,0.013523,0.002678,0.000431,0.634770
85570000,0.0324,0.013523,0.002678,0.000431,0.132102
85571000,0.0324,0.013523,0.002678,0.000431,0.132572
85572000,0.0324,0.013523,0.002678,0.000431,0.175822
85573000,0.0324,0.013523,0.002678,0.000431,0.557319
85574000,0.0324,0.013523,0.002678,0.000431,0.241755
85575000,0.0324,0.013523,0.002678,0.000431,0.236584
85576000,0.0324,0.013523,0.002678,0.000431,0.255976
85577000,0.0324,0.013523,0.002678,0.000431,0.144090
85578000,0.0324,0.013523,0.002678,0.000431,0.154315
85579000,0.0324,0.013523,0.002678,0.000431,0.100134
85580000,0.0324,0.013523,0.002678,0.000431,0.458712
85581000,0.0324,0.013523,0.002678,0.000431,0.211668
85582000,0.0324,0.013523,0.002678,0.000431,0.084033
85583000,0.0324,0.013523,0.002678,0.000431,0.083680
85584000,0.0324,0.013523,0.002678,0.000431,0.055826
85585000,0.0324,0.013523,0.002678,0.000431,0.041723
85586000,0.0324,0.013523,0.002678,0.000431,0.044543
85587000,0.0324,0.013523,0.002678,0.000431,0.025504
85588000,0.0324,0.013523,0.002678,0.000431,0.018922
85589000,0.0324,0.013523,0.002678,0.000431,0.014573
85590000,0.0324,0.013523,0.002678,0.000431,0.013398
85591000,0.0324,0.013523,0.002678,0.000431,0.011988
85592000,0.0324,0.013523,0.002678,0.000431,0.010225
85593000,0.0324,0.013523,0.002678,0.000431,0.010342
85594000,0.0324,0.013523,0.002678,0.000431,0.007052
85595000,0.0324,0.013523,0.002678,0.000431,0.008227
85596000,0.0324,0.013523,0.002678,0.000431,0.005759
85597000,0.0324,0.013523,0.002678,0.000431,0.006111
85598000,0.0324,0.013523,0.002678,0.000431,0.007287
85599000,0.0324,0.013523,0.002678,0.000431,0.003643
85600000,0.0324,0.013523,0.002678,0.000431,0.002821
85601000,0.0324,0.013523,0.002678,0.000431,0.001763
85602000,0.0324,0.013523,0.002678,0.000431,0.001645
85603000,0.0324,0.013523,0.002678,0.000431,0.001645
85604000,0.0324,0.013523,0.002678,0.000431,0.001528
85605000,0.0324,0.013523,0.002678,0.000431,0.001880
85606000,0.0324,0.013523,0.002678,0.000431,0.002938
85607000,0.0324,0.013523,0.002678,0.000431,0.000705
85608000,0.0324,0.013523,0.002678,0.000431,0.000940
85609000,0.0324,0.013523,0.002678,0.000431,0.000705
85610000,0.0324,0.013523,0.002678,0.000431,0.000940
85611000,0.0324,0.013523,0.002678,0.000431,0.000823
85612000,0.0324,0.013523,0.002678,0.000431,0.000823
85613000,0.0324,0.013523,0.002678,0.000431,0.000940
85614000,0.0324,0.013523,0.002678,0.000431,0.000705
85615000,0.0324,0.013523,0.002678,0.000431,0.000940
85616000,0.0324,0.013523,0.002678,0.000431,0.000705
85617000,0.0324,0.013523,0.002678,0.000431,0.000940
85618000,0.0324,0.013523,0.002678,0.000431,0.000823
85619000,0.0324,0.013523,0.002678,0.000431,0.000823
85620000,0.0324,0.013523,0.002678,0.000431,0.000823
85621000,0.0324,0.013523,0.002678,0.000431,0.000823
85622000,0.0324,0.013523,0.002678,0.000431,0.000940
85623000,0.0324,0.013523,0.002678,0.000431,0.000705
85624000,0.0324,0.013523,0.002678,0.000431,0.000823
85625000,0.0324,0.013523,0.002678,0.000431,0.000940
85626000,0.0324,0.013523,0.002678,0.000431,0.000823
85627000,0.0324,0.013523,0.002678,0.000431,0.000823
85628000,0.0324,0.013523,0.002678,0.000431,0.000823
85629000,0.0324,0.013523,0.002678,0.000431,0.000705
85630000,0.0324,0.013523,0.002678,0.000431,0.000940
85631000,0.0324,0.013523,0.002678,0.000431,0.000940
85632000,0.0324,0.013523,0.002678,0.000431,0.000705
85633000,0.0324,0.013523,0.002678,0.000431,0.000940
85634000,0.0324,0.013523,0.002678,0.000431,0.000705
85635000,0.0324,0.013523,0.002678,0.000431,0.000940
85636000,0.0324,0.013523,0.002678,0.000431,0.000823
85637000,0.0324,0.013523,0.002678,0.000431,0.000823
85638000,0.0324,0.013523,0.002678,0.000431,0.000940
85639000,0.0324,0.013523,0.002678,0.000431,0.000705
85640000,0.0324,0.013523,0.002678,0.000431,0.000940
85641000,0.0324,0.013523,0.002678,0.000431,0.000823
85642000,0.0324,0.013523,0.002678,0.000431,0.000823
85643000,0.0324,0.013523,0.002678,0.000431,0.000823
85644000,0.0324,0.013523,0.002678,0.000431,0.000823
85645000,0.0324,0.013523,0.002678,0.000431,0.000940
85646000,0.0324,0.013523,0.002678,0.000431,0.000705
85647000,0.0324,0.013523,0.002678,0.000431,0.000940
85648000,0.0324,0.013523,0.002678,0.000431,0.000823
85649000,0.0324,0.013523,0.002678,0.000431,0.000823
85650000,0.0324,0.013523,0.002678,0.000431,0.000823
85651000,0.0324,0.013523,0.002678,0.000431,0.000823
85652000,0.0324,0.013523,0.002678,0.000431,0.000823
85653000,0.0324,0.013523,0.002678,0.000431,0.000823
85654000,0.0324,0.013523,0.002678,0.000431,0.000940
85655000,0.0324,0.013523,0.002678,0.000431,0.000705
85656000,0.0324,0.013523,0.002678,0.000431,0.000940
85657000,0.0324,0.013523,0.002678,0.000431,0.000705
85658000,0.0324,0.013523,0.002678,0.000431,0.000940
85659000,0.0324,0.013523,0.002678,0.000431,0.000940
85660000,0.0324,0.013523,0.002678,0.000431,0.000705
85661000,0.0324,0.013523,0.002678,0.000431,0.000940
85662000,0.0324,0.013523,0.002678,0.000431,0.000705
85663000,0.0324,0.013523,0.002678,0.000431,0.000940
85664000,0.0324,0.013523,0.002678,0.000431,0.000823
85665000,0.0324,0.013523,0.002678,0.000431,0.000823
85666000,0.0324,0.013523,0.002678,0.000431,0.000823
85667000,0.0324,0.013523,0.002678,0.000431,0.000823
85668000,0.0324,0.013523,0.002678,0.000431,0.000940
85669000,0.0324,0.013523,0.002678,0.000431,0.000705
85670000,0.0324,0.013523,0.002678,0.000431,0.000940
85671000,0.0324,0.013523,0.002678,0.000431,0.000823
85672000,0.0324,0.013523,0.002678,0.000431,0.000823
85673000,0.0324,0.013523,0.002678,0.000431,0.000823
85674000,0.0324,0.013523,0.002678,0.000431,0.000823
85675000,0.0324,0.013523,0.002678,0.000431,0.000940
85676000,0.0324,0.013523,0.002678,0.000431,0.000705
85677000,0.0324,0.013523,0.002678,0.000431,0.000823
85678000,0.0324,0.013523,0.002678,0.000431,0.000940
85679000,0.0324,0.013523,0.002678,0.000431,0.000823
85680000,0.0324,0.013523,0.002678,0.000431,0.000823
85681000,0.0324,0.013523,0.002678,0.000431,0.000823
85682000,0.0324,0.013523,0.002678,0.000431,0.000823
85683000,0.0324,0.013523,0.002678,0.000431,0.000823
85684000,0.0324,0.013523,0.002678,0.000431,0.000940
85685000,0.0324,0.013523,0.002678,0.000431,0.000705
85686000,0.0324,0.013523,0.002678,0.000431,0.000940
85687000,0.0324,0.013523,0.002678,0.000431,0.000705
85688000,0.0324,0.013523,0.002678,0.000431,0.000940
85689000,0.0324,0.013523,0.002678,0.000431,0.000940
85690000,0.0324,0.013523,0.002678,0.000431,0.000705
85691000,0.0324,0.013523,0.002678,0.000431,0.000940
85692000,0.0324,0.013523,0.002678,0.000431,0.000705
85693000,0.0324,0.013523,0.002678,0.000431,0.000940
85694000,0.0324,0.013523,0.002678,0.000431,0.000823
85695000,0.0324,0.013523,0.002678,0.000431,0.000823
85696000,0.0324,0.013523,0.002678,0.000431,0.000823
85697000,0.0324,0.013523,0.002678,0.000431,0.000823
85698000,0.0324,0.013523,0.002678,0.000431,0.000940
85699000,0.0324,0.013523,0.002678,0.000431,0.000705
85700000,0.0324,0.013523,0.002678,0.000431,0.000940
85701000,0.0324,0.013523,0.002678,0.000431,0.000823
85702000,0.0324,0.013523,0.002678,0.000431,0.000823
85703000,0.0324,0.013523,0.002678,0.000431,0.000823
85704000,0.0324,0.013523,0.002678,0.000431,0.000823
85705000,0.0324,0.013523,0.002678,0.000431,0.000823
85706000,0.0324,0.013523,0.002678,0.000431,0.000823
85707000,0.0324,0.013523,0.002678,0.000431,0.000940
85708000,0.0324,0.013523,0.002678,0.000431,0.000705
85709000,0.0324,0.013523,0.002678,0.000431,0.000940
85710000,0.0324,0.013523,0.002678,0.000431,0.000705
85711000,0.0324,0.013523,0.002678,0.000431,0.000940
85712000,0.0324,0.013523,0.002678,0.000431,0.000940
85713000,0.0324,0.013523,0.002678,0.000431,0.000705
85714000,0.0324,0.013523,0.002678,0.000431,0.000940
85715000,0.0324,0.013523,0.002678,0.000431,0.000705
85716000,0.0324,0.013523,0.002678,0.000431,0.000940
85717000,0.0324,0.013523,0.002678,0.000431,0.000823
85718000,0.0324,0.013523,0.002678,0.000431,0.000823
85719000,0.0324,0.013523,0.002678,0.000431,0.000823
85720000,0.0324,0.013523,0.002678,0.000431,0.000823
85721000,0.0324,0.013523,0.002678,0.000431,0.000940
85722000,0.0324,0.013523,0.002678,0.000431,0.000705
85723000,0.0324,0.013523,0.002678,0.000431,0.000940
85724000,0.0324,0.013523,0.002678,0.000431,0.000823
85725000,0.0324,0.013523,0.002678,0.000431,0.000823
85726000,0.0324,0.013523,0.002678,0.000431,0.000823
85727000,0.0324,0.013523,0.002678,0.000431,0.000823
85728000,0.0324,0.013523,0.002678,0.000431,0.000823
85729000,0.0324,0.013523,0.002678,0.000431,0.000823
85730000,0.0324,0.013523,0.002678,0.000431,0.000823
85731000,0.0324,0.013523,0.002678,0.000431,0.000823
85732000,0.0324,0.013523,0.002678,0.000431,0.000940
85733000,0.0324,0.013523,0.002678,0.000431,0.000823
85734000,0.0324,0.013523,0.002678,0.000431,0.000823
85735000,0.0324,0.013523,0.002678,0.000431,0.221776
85736000,0.0324,0.013523,0.002678,0.000431,0.548504
85737000,0.0324,0.013523,0.002678,0.000431,0.495499
85738000,0.0324,0.013523,0.002678,0.000431,0.133982
85739000,0.0324,0.013523,0.002678,0.000431,0.190396
85740000,0.0324,0.013523,0.002678,0.000431,0.560727
85741000,0.0324,0.013523,0.002678,0.000431,0.268904
85742000,0.0324,0.013523,0.002678,0.000431,0.347531
85743000,0.0324,0.013523,0.002678,0.000431,0.162894
85744000,0.0324,0.013523,0.002678,0.000431,0.167008
85745000,0.0324,0.013523,0.002678,0.000431,0.104600
85746000,0.0324,0.013523,0.002678,0.000431,0.474461
85747000,0.0324,0.013523,0.002678,0.000431,0.233411
85748000,0.0324,0.013523,0.002678,0.000431,0.111652
85749000,0.0324,0.013523,0.002678,0.000431,0.093082
85750000,0.0324,0.013523,0.002678,0.000431,0.079919
85751000,0.0324,0.013523,0.002678,0.000431,0.083563
85752000,0.0324,0.013523,0.002678,0.000431,0.060527
85753000,0.0324,0.013523,0.002678,0.000431,0.032203
85754000,0.0324,0.013523,0.002678,0.000431,0.029029
85755000,0.0324,0.013523,0.002678,0.000431,0.027972
85756000,0.0324,0.013523,0.002678,0.000431,0.016689
85757000,0.0324,0.013523,0.002678,0.000431,0.017512
85758000,0.0324,0.013523,0.002678,0.000431,0.013516
85759000,0.0324,0.013523,0.002678,0.000431,0.010695
85760000,0.0324,0.013523,0.002678,0.000431,0.011753
85761000,0.0324,0.013523,0.002678,0.000431,0.007639
85762000,0.0324,0.013523,0.002678,0.000431,0.005641
85763000,0.0324,0.013523,0.002678,0.000431,0.008697
85764000,0.0324,0.013523,0.002678,0.000431,0.005054
85765000,0.0324,0.013523,0.002678,0.000431,0.004466
85766000,0.0324,0.013523,0.002678,0.000431,0.004936
85767000,0.0324,0.013523,0.002678,0.000431,0.004231
85768000,0.0324,0.013523,0.002678,0.000431,0.003996
85769000,0.0324,0.013523,0.002678,0.000431,0.004349
85770000,0.0324,0.013523,0.002678,0.000431,0.004466
85771000,0.0324,0.013523,0.002678,0.000431,0.004466
85772000,0.0324,0.013523,0.002678,0.000431,0.003996
85773000,0.0324,0.013523,0.002678,0.000431,0.006699
85774000,0.0324,0.013523,0.002678,0.000431,0.003643
85775000,0.0324,0.013523,0.002678,0.000431,0.003291
85776000,0.0324,0.013523,0.002678,0.000431,0.005054
85777000,0.0324,0.013523,0.002678,0.000431,0.002821
85778000,0.0324,0.013523,0.002678,0.000431,0.002351
85779000,0.0324,0.013523,0.002678,0.000431,0.002351
85780000,0.0324,0.013523,0.002678,0.000431,0.002586
85781000,0.0324,0.013523,0.002678,0.000431,0.002586
85782000,0.0324,0.013523,0.002678,0.000431,0.002468
85783000,0.0324,0.013523,0.002678,0.000431,0.002468
85784000,0.0324,0.013523,0.002678,0.000431,0.004113
85785000,0.0324,0.013523,0.002678,0.000431,0.190513
85786000,0.0324,0.013523,0.002678,0.000431,0.615378
85787000,0.0324,0.013523,0.002678,0.000431,0.510895
85788000,0.0324,0.013523,0.002678,0.000431,0.134922
85789000,0.0324,0.013523,0.002678,0.000431,0.154315
85790000,0.0324,0.013523,0.002678,0.000431,0.590344
85791000,0.0324,0.013523,0.002678,0.000431,0.281715
85792000,0.0324,0.013523,0.002678,0.000431,0.354700
85793000,0.0324,0.013523,0.002678,0.000431,0.174059
85794000,0.0324,0.013523,0.002678,0.000431,0.171944
85795000,0.0324,0.013523,0.002678,0.000431,0.095315
85796000,0.0324,0.013523,0.002678,0.000431,0.471758
85797000,0.0324,0.013523,0.002678,0.000431,0.063818
85798000,0.0324,0.013523,0.002678,0.000431,0.034553
85799000,0.0324,0.013523,0.002678,0.000431,0.023623
85800000,0.0324,0.013523,0.002678,0.000431,0.020920
85801000,0.0324,0.013523,0.002678,0.000431,0.019627
85802000,0.0324,0.013523,0.002678,0.000431,0.010930
85803000,0.0324,0.013523,0.002678,0.000431,0.010460
85804000,0.0324,0.013523,0.002678,0.000431,0.009167
85805000,0.0324,0.013523,0.002678,0.000431,0.008462
85806000,0.0324,0.013523,0.002678,0.000431,0.009637
85807000,0.0324,0.013523,0.002678,0.000431,0.007992
85808000,0.0324,0.013523,0.002678,0.000431,0.008580
85809000,0.0324,0.013523,0.002678,0.000431,0.006934
85810000,0.0324,0.013523,0.002678,0.000431,0.005641
85811000,0.0324,0.013523,0.002678,0.000431,0.006934
85812000,0.0324,0.013523,0.002678,0.000431,0.007287
85813000,0.0324,0.013523,0.002678,0.000431,0.004113
85814000,0.0324,0.013523,0.002678,0.000431,0.005054
85815000,0.0324,0.013523,0.002678,0.000431,0.003408
85816000,0.0324,0.013523,0.002678,0.000431,0.002938
85817000,0.0324,0.013523,0.002678,0.000431,0.003291
85818000,0.0324,0.013523,0.002678,0.000431,0.005054
85819000,0.0324,0.013523,0.002678,0.000431,0.001763
85820000,0.0324,0.013523,0.002678,0.000431,0.001645
85821000,0.0324,0.013523,0.002678,0.000431,0.001645
85822000,0.0324,0.013523,0.002678,0.000431,0.001645
85823000,0.0324,0.013523,0.002678,0.000431,0.001763
85824000,0.0324,0.013523,0.002678,0.000431,0.001763
85825000,0.0324,0.013523,0.002678,0.000431,0.001528
85826000,0.0324,0.013523,0.002678,0.000431,0.001763
85827000,0.0324,0.013523,0.002678,0.000431,0.001528
85828000,0.0324,0.013523,0.002678,0.000431,0.001763
85829000,0.0324,0.013523,0.002678,0.000431,0.001763
85830000,0.0324,0.013523,0.002678,0.000431,0.001528
85831000,0.0324,0.013523,0.002678,0.000431,0.001880
85832000,0.0324,0.013523,0.002678,0.000431,0.001528
85833000,0.0324,0.013523,0.002678,0.000431,0.004936
85834000,0.0324,0.013523,0.002678,0.000431,0.000705
85835000,0.0324,0.013523,0.002678,0.000431,0.000940
85836000,0.0324,0.013523,0.002678,0.000431,0.000940
85837000,0.0324,0.013523,0.002678,0.000431,0.000705
85838000,0.0324,0.013523,0.002678,0.000431,0.000940
85839000,0.0324,0.013523,0.002678,0.000431,0.000705
85840000,0.0324,0.013523,0.002678,0.000431,0.000940
85841000,0.0324,0.013523,0.002678,0.000431,0.000823
85842000,0.0324,0.013523,0.002678,0.000431,0.000823
85843000,0.0324,0.013523,0.002678,0.000431,0.000940
85844000,0.0324,0.013523,0.002678,0.000431,0.000705
85845000,0.0324,0.013523,0.002678,0.000431,0.000940
85846000,0.0324,0.013523,0.002678,0.000431,0.000823
85847000,0.0324,0.013523,0.002678,0.000431,0.000823
85848000,0.0324,0.013523,0.002678,0.000431,0.000823
85849000,0.0324,0.013523,0.002678,0.000431,0.000823
85850000,0.0324,0.013523,0.002678,0.000431,0.000823
85851000,0.0324,0.013523,0.002678,0.000431,0.000823
85852000,0.0324,0.013523,0.002678,0.000431,0.000940
85853000,0.0324,0.013523,0.002678,0.000431,0.000705
85854000,0.0324,0.013523,0.002678,0.000431,0.000823
85855000,0.0324,0.013523,0.002678,0.000431,0.000940
85856000,0.0324,0.013523,0.002678,0.000431,0.000823
85857000,0.0324,0.013523,0.002678,0.000431,0.000823
85858000,0.0324,0.013523,0.002678,0.000431,0.000823
85859000,0.0324,0.013523,0.002678,0.000431,0.000823
85860000,0.0324,0.013523,0.002678,0.000431,0.000823
85861000,0.0324,0.013523,0.002678,0.000431,0.000940
85862000,0.0324,0.013523,0.002678,0.000431,0.000823
85863000,0.0324,0.013523,0.002678,0.000431,0.000823
85864000,0.0324,0.013523,0.002678,0.000431,0.000705
85865000,0.0324,0.013523,0.002678,0.000431,0.000940
85866000,0.0324,0.013523,0.002678,0.000431,0.000940
85867000,0.0324,0.013523,0.002678,0.000431,0.000705
85868000,0.0324,0.013523,0.002678,0.000431,0.000940
85869000,0.0324,0.013523,0.002678,0.000431,0.000705
85870000,0.0324,0.013523,0.002678,0.000431,0.000940
85871000,0.0324,0.013523,0.002678,0.000431,0.000823
85872000,0.0324,0.013523,0.002678,0.000431,0.000823
85873000,0.0324,0.013523,0.002678,0.000431,0.000940
85874000,0.0324,0.013523,0.002678,0.000431,0.000705
85875000,0.0324,0.013523,0.002678,0.000431,0.000940
85876000,0.0324,0.013523,0.002678,0.000431,0.000823
85877000,0.0324,0.013523,0.002678,0.000431,0.000823
85878000,0.0324,0.013523,0.002678,0.000431,0.000823
85879000,0.0324,0.013523,0.002678,0.000431,0.000823
85880000,0.0324,0.013523,0.002678,0.000431,0.000823
85881000,0.0324,0.013523,0.002678,0.000431,0.000823
85882000,0.0324,0.013523,0.002678,0.000431,0.000940
85883000,0.0324,0.013523,0.002678,0.000431,0.000705
85884000,0.0324,0.013523,0.002678,0.000431,0.000940
85885000,0.0324,0.013523,0.002678,0.000431,0.000823
85886000,0.0324,0.013523,0.002678,0.000431,0.000823
85887000,0.0324,0.013523,0.002678,0.000431,0.000705
85888000,0.0324,0.013523,0.002678,0.000431,0.000940
85889000,0.0324,0.013523,0.002678,0.000431,0.000940
85890000,0.0324,0.013523,0.002678,0.000431,0.000705
85891000,0.0324,0.013523,0.002678,0.000431,0.000940
85892000,0.0324,0.013523,0.002678,0.000431,0.000705
85893000,0.0324,0.013523,0.002678,0.000431,0.000940
85894000,0.0324,0.013523,0.002678,0.000431,0.000823
85895000,0.0324,0.013523,0.002678,0.000431,0.000823
85896000,0.0324,0.013523,0.002678,0.000431,0.000940
85897000,0.0324,0.013523,0.002678,0.000431,0.000705
85898000,0.0324,0.013523,0.002678,0.000431,0.000940
85899000,0.0324,0.013523,0.002678,0.000431,0.000705
85900000,0.0324,0.013523,0.002678,0.000431,0.000940
85901000,0.0324,0.013523,0.002678,0.000431,0.000823
85902000,0.0324,0.013523,0.002678,0.000431,0.000823
85903000,0.0324,0.013523,0.002678,0.000431,0.000823
85904000,0.0324,0.013523,0.002678,0.000431,0.000823
85905000,0.0324,0.013523,0.002678,0.000431,0.000940
85906000,0.0324,0.013523,0.002678,0.000431,0.000705
85907000,0.0324,0.013523,0.002678,0.000431,0.000823
85908000,0.0324,0.013523,0.002678,0.000431,0.000823
85909000,0.0324,0.013523,0.002678,0.000431,0.000940
85910000,0.0324,0.013523,0.002678,0.000431,0.000705
85911000,0.0324,0.013523,0.002678,0.000431,0.000823
85912000,0.0324,0.013523,0.002678,0.000431,0.000940
85913000,0.0324,0.013523,0.002678,0.000431,0.000823
85914000,0.0324,0.013523,0.002678,0.000431,0.000823
85915000,0.0324,0.013523,0.002678,0.000431,0.000823
85916000,0.0324,0.013523,0.002678,0.000431,0.000705
85917000,0.0324,0.013523,0.002678,0.000431,0.000940
85918000,0.0324,0.013523,0.002678,0.000431,0.000940
85919000,0.0324,0.013523,0.002678,0.000431,0.000705
85920000,0.0324,0.013523,0.002678,0.000431,0.000940
85921000,0.0324,0.013523,0.002678,0.000431,0.000705
85922000,0.0324,0.013523,0.002678,0.000431,0.000940
85923000,0.0324,0.013523,0.002678,0.000431,0.000940
85924000,0.0324,0.013523,0.002678,0.000431,0.000705
85925000,0.0324,0.013523,0.002678,0.000431,0.000940
85926000,0.0324,0.013523,0.002678,0.000431,0.000705
85927000,0.0324,0.013523,0.002678,0.000431,0.000940
85928000,0.0324,0.013523,0.002678,0.000431,0.000823
85929000,0.0324,0.013523,0.002678,0.000431,0.000823
85930000,0.0324,0.013523,0.002678,0.000431,0.000823
85931000,0.0324,0.013523,0.002678,0.000431,0.000823
85932000,0.0324,0.013523,0.002678,0.000431,0.000940
85933000,0.0324,0.013523,0.002678,0.000431,0.000705
85934000,0.0324,0.013523,0.002678,0.000431,0.000940
85935000,0.0324,0.013523,0.002678,0.000431,0.000823
85936000,0.0324,0.013523,0.002678,0.000431,0.000823
85937000,0.0324,0.013523,0.002678,0.000431,0.000823
85938000,0.0324,0.013523,0.002678,0.000431,0.000823
85939000,0.0324,0.013523,0.002678,0.000431,0.000823
85940000,0.0324,0.013523,0.002678,0.000431,0.000823
85941000,0.0324,0.013523,0.002678,0.000431,0.000940
85942000,0.0324,0.013523,0.002678,0.000431,0.000705
85943000,0.0324,0.013523,0.002678,0.000431,0.000940
85944000,0.0324,0.013523,0.002678,0.000431,0.000705
85945000,0.0324,0.013523,0.002678,0.000431,0.000940
85946000,0.0324,0.013523,0.002678,0.000431,0.000940
85947000,0.0324,0.013523,0.002678,0.000431,0.000705
85948000,0.0324,0.013523,0.002678,0.000431,0.000940
85949000,0.0324,0.013523,0.002678,0.000431,0.000705
85950000,0.0324,0.013523,0.002678,0.000431,0.000940
85951000,0.0324,0.013523,0.002678,0.000431,0.000823
85952000,0.0324,0.013523,0.002678,0.000431,0.000823
85953000,0.0324,0.013523,0.002678,0.000431,0.000823
85954000,0.0324,0.013523,0.002678,0.000431,0.000823
85955000,0.0324,0.013523,0.002678,0.000431,0.000940
85956000,0.0324,0.013523,0.002678,0.000431,0.000705
85957000,0.0324,0.013523,0.002678,0.000431,0.000940
85958000,0.0324,0.013523,0.002678,0.000431,0.000823
85959000,0.0324,0.013523,0.002678,0.000431,0.000823
85960000,0.0324,0.013523,0.002678,0.000431,0.000823
85961000,0.0324,0.013523,0.002678,0.000431,0.000823
85962000,0.0324,0.013523,0.002678,0.000431,0.000823
85963000,0.0324,0.013523,0.002678,0.000431,0.000823
85964000,0.0324,0.013523,0.002678,0.000431,0.000823
85965000,0.0324,0.013523,0.002678,0.000431,0.000940
85966000,0.0324,0.013523,0.002678,0.000431,0.000823
85967000,0.0324,0.013523,0.002678,0.000431,0.000823
85968000,0.0324,0.013523,0.002678,0.000431,0.000823
85969000,0.0324,0.013523,0.002678,0.000431,0.000705
85970000,0.0324,0.013523,0.002678,0.000431,0.000940
85971000,0.0324,0.013523,0.002678,0.000431,0.000940
85972000,0.0324,0.013523,0.002678,0.000431,0.000705
85973000,0.0324,0.013523,0.002678,0.000431,0.000940
85974000,0.0324,0.013523,0.002678,0.000431,0.000705
85975000,0.0324,0.013523,0.002678,0.000431,0.000940
85976000,0.0324,0.013523,0.002678,0.000431,0.000823
85977000,0.0324,0.013523,0.002678,0.000431,0.000823
85978000,0.0324,0.013523,0.002678,0.000431,0.000940
85979000,0.0324,0.013523,0.002678,0.000431,0.000705
85980000,0.0324,0.013523,0.002678,0.000431,0.000940
85981000,0.0324,0.013523,0.002678,0.000431,0.000705
85982000,0.0324,0.013523,0.002678,0.000431,0.000940
85983000,0.0324,0.013523,0.002678,0.000431,0.000823
85984000,0.0324,0.013523,0.002678,0.000431,0.000823
85985000,0.0324,0.013523,0.002678,0.000431,0.000823
85986000,0.0324,0.013523,0.002678,0.000431,0.000823
85987000,0.0324,0.013523,0.002678,0.000431,0.000823
85988000,0.0324,0.013523,0.002678,0.000431,0.000823
85989000,0.0324,0.013523,0.002678,0.000431,0.000940
85990000,0.0324,0.013523,0.002678,0.000431,0.000823
85991000,0.0324,0.013523,0.002678,0.000431,0.000823
85992000,0.0324,0.013523,0.002678,0.000431,0.000705
85993000,0.0324,0.013523,0.002678,0.000431,0.000940
85994000,0.0324,0.013523,0.002678,0.000431,0.000940
85995000,0.0324,0.013523,0.002678,0.000431,0.000705
85996000,0.0324,0.013523,0.002678,0.000431,0.000940
85997000,0.0324,0.013523,0.002678,0.000431,0.000705
85998000,0.0324,0.013523,0.002678,0.000431,0.000940
85999000,0.0324,0.013523,0.002678,0.000431,0.000823
