Cycle,Area(mm^2),PeakDynamic(W),SubthresholdLeakage(W),GateLeakage(W),RunTimeDynamic(W)
11000000,0.0324,0.013523,0.002678,0.000431,0.000940
11001000,0.0324,0.013523,0.002678,0.000431,0.000823
11002000,0.0324,0.013523,0.002678,0.000431,0.000940
11003000,0.0324,0.013523,0.002678,0.000431,0.000940
11004000,0.0324,0.013523,0.002678,0.000431,0.000705
11005000,0.0324,0.013523,0.002678,0.000431,0.000940
11006000,0.0324,0.013523,0.002678,0.000431,0.000940
11007000,0.0324,0.013523,0.002678,0.000431,0.000940
11008000,0.0324,0.013523,0.002678,0.000431,0.000705
11009000,0.0324,0.013523,0.002678,0.000431,0.000940
11010000,0.0324,0.013523,0.002678,0.000431,0.000940
11011000,0.0324,0.013523,0.002678,0.000431,0.000823
11012000,0.0324,0.013523,0.002678,0.000431,0.000823
11013000,0.0324,0.013523,0.002678,0.000431,0.000940
11014000,0.0324,0.013523,0.002678,0.000431,0.000823
11015000,0.0324,0.013523,0.002678,0.000431,0.001058
11016000,0.0324,0.013523,0.002678,0.000431,0.198623
11017000,0.0324,0.013523,0.002678,0.000431,0.558376
11018000,0.0324,0.013523,0.002678,0.000431,0.351879
11019000,0.0324,0.013523,0.002678,0.000431,0.131279
11020000,0.0324,0.013523,0.002678,0.000431,0.132572
11021000,0.0324,0.013523,0.002678,0.000431,0.590814
11022000,0.0324,0.013523,0.002678,0.000431,0.253508
11023000,0.0324,0.013523,0.002678,0.000431,0.257152
11024000,0.0324,0.013523,0.002678,0.000431,0.318736
11025000,0.0324,0.013523,0.002678,0.000431,0.139976
11026000,0.0324,0.013523,0.002678,0.000431,0.142797
11027000,0.0324,0.013523,0.002678,0.000431,0.101427
11028000,0.0324,0.013523,0.002678,0.000431,0.399126
11029000,0.0324,0.013523,0.002678,0.000431,0.151846
11030000,0.0324,0.013523,0.002678,0.000431,0.000823
11031000,0.0324,0.013523,0.002678,0.000431,0.000940
11032000,0.0324,0.013523,0.002678,0.000431,0.000823
11033000,0.0324,0.013523,0.002678,0.000431,0.000823
11034000,0.0324,0.013523,0.002678,0.000431,0.000940
11035000,0.0324,0.013523,0.002678,0.000431,0.000940
11036000,0.0324,0.013523,0.002678,0.000431,0.000823
11037000,0.0324,0.013523,0.002678,0.000431,0.000823
11038000,0.0324,0.013523,0.002678,0.000431,0.000940
11039000,0.0324,0.013523,0.002678,0.000431,0.000940
11040000,0.0324,0.013523,0.002678,0.000431,0.000823
11041000,0.0324,0.013523,0.002678,0.000431,0.000823
11042000,0.0324,0.013523,0.002678,0.000431,0.000940
11043000,0.0324,0.013523,0.002678,0.000431,0.000940
11044000,0.0324,0.013523,0.002678,0.000431,0.000823
11045000,0.0324,0.013523,0.002678,0.000431,0.000823
11046000,0.0324,0.013523,0.002678,0.000431,0.000940
11047000,0.0324,0.013523,0.002678,0.000431,0.000823
11048000,0.0324,0.013523,0.002678,0.000431,0.000940
11049000,0.0324,0.013523,0.002678,0.000431,0.000823
11050000,0.0324,0.013523,0.002678,0.000431,0.000940
11051000,0.0324,0.013523,0.002678,0.000431,0.000823
11052000,0.0324,0.013523,0.002678,0.000431,0.000823
11053000,0.0324,0.013523,0.002678,0.000431,0.000940
11054000,0.0324,0.013523,0.002678,0.000431,0.000940
11055000,0.0324,0.013523,0.002678,0.000431,0.000823
11056000,0.0324,0.013523,0.002678,0.000431,0.000823
11057000,0.0324,0.013523,0.002678,0.000431,0.000940
11058000,0.0324,0.013523,0.002678,0.000431,0.000940
11059000,0.0324,0.013523,0.002678,0.000431,0.000705
11060000,0.0324,0.013523,0.002678,0.000431,0.000940
11061000,0.0324,0.013523,0.002678,0.000431,0.000940
11062000,0.0324,0.013523,0.002678,0.000431,0.002586
11063000,0.0324,0.013523,0.002678,0.000431,0.360341
11064000,0.0324,0.013523,0.002678,0.000431,0.644289
11065000,0.0324,0.013523,0.002678,0.000431,0.131161
11066000,0.0324,0.013523,0.002678,0.000431,0.133982
11067000,0.0324,0.013523,0.002678,0.000431,0.130339
11068000,0.0324,0.013523,0.002678,0.000431,0.589639
11069000,0.0324,0.013523,0.002678,0.000431,0.239522
11070000,0.0324,0.013523,0.002678,0.000431,0.247279
11071000,0.0324,0.013523,0.002678,0.000431,0.259385
11072000,0.0324,0.013523,0.002678,0.000431,0.133277
11073000,0.0324,0.013523,0.002678,0.000431,0.138918
11074000,0.0324,0.013523,0.002678,0.000431,0.139859
11075000,0.0324,0.013523,0.002678,0.000431,0.236114
11076000,0.0324,0.013523,0.002678,0.000431,0.339774
11077000,0.0324,0.013523,0.002678,0.000431,0.016336
11078000,0.0324,0.013523,0.002678,0.000431,0.013163
11079000,0.0324,0.013523,0.002678,0.000431,0.015044
11080000,0.0324,0.013523,0.002678,0.000431,0.010460
11081000,0.0324,0.013523,0.002678,0.000431,0.010107
11082000,0.0324,0.013523,0.002678,0.000431,0.010813
11083000,0.0324,0.013523,0.002678,0.000431,0.009402
11084000,0.0324,0.013523,0.002678,0.000431,0.010813
11085000,0.0324,0.013523,0.002678,0.000431,0.008462
11086000,0.0324,0.013523,0.002678,0.000431,0.007404
11087000,0.0324,0.013523,0.002678,0.000431,0.007992
11088000,0.0324,0.013523,0.002678,0.000431,0.006582
11089000,0.0324,0.013523,0.002678,0.000431,0.007522
11090000,0.0324,0.013523,0.002678,0.000431,0.010107
11091000,0.0324,0.013523,0.002678,0.000431,0.007287
11092000,0.0324,0.013523,0.002678,0.000431,0.004113
11093000,0.0324,0.013523,0.002678,0.000431,0.005289
11094000,0.0324,0.013523,0.002678,0.000431,0.004701
11095000,0.0324,0.013523,0.002678,0.000431,0.003643
11096000,0.0324,0.013523,0.002678,0.000431,0.004113
11097000,0.0324,0.013523,0.002678,0.000431,0.002586
11098000,0.0324,0.013523,0.002678,0.000431,0.003878
11099000,0.0324,0.013523,0.002678,0.000431,0.000940
11100000,0.0324,0.013523,0.002678,0.000431,0.000823
11101000,0.0324,0.013523,0.002678,0.000431,0.000940
11102000,0.0324,0.013523,0.002678,0.000431,0.000823
11103000,0.0324,0.013523,0.002678,0.000431,0.000940
11104000,0.0324,0.013523,0.002678,0.000431,0.195097
11105000,0.0324,0.013523,0.002678,0.000431,0.580002
11106000,0.0324,0.013523,0.002678,0.000431,0.340714
11107000,0.0324,0.013523,0.002678,0.000431,0.130221
11108000,0.0324,0.013523,0.002678,0.000431,0.142914
11109000,0.0324,0.013523,0.002678,0.000431,0.631832
11110000,0.0324,0.013523,0.002678,0.000431,0.243518
11111000,0.0324,0.013523,0.002678,0.000431,0.246222
11112000,0.0324,0.013523,0.002678,0.000431,0.243753
11113000,0.0324,0.013523,0.002678,0.000431,0.135275
11114000,0.0324,0.013523,0.002678,0.000431,0.152669
11115000,0.0324,0.013523,0.002678,0.000431,0.112239
11116000,0.0324,0.013523,0.002678,0.000431,0.311450
11117000,0.0324,0.013523,0.002678,0.000431,0.245986
11118000,0.0324,0.013523,0.002678,0.000431,0.000940
11119000,0.0324,0.013523,0.002678,0.000431,0.000705
11120000,0.0324,0.013523,0.002678,0.000431,0.000940
11121000,0.0324,0.013523,0.002678,0.000431,0.000940
11122000,0.0324,0.013523,0.002678,0.000431,0.000940
11123000,0.0324,0.013523,0.002678,0.000431,0.000705
11124000,0.0324,0.013523,0.002678,0.000431,0.000940
11125000,0.0324,0.013523,0.002678,0.000431,0.000940
11126000,0.0324,0.013523,0.002678,0.000431,0.000823
11127000,0.0324,0.013523,0.002678,0.000431,0.000823
11128000,0.0324,0.013523,0.002678,0.000431,0.000940
11129000,0.0324,0.013523,0.002678,0.000431,0.000940
11130000,0.0324,0.013523,0.002678,0.000431,0.000823
11131000,0.0324,0.013523,0.002678,0.000431,0.000823
11132000,0.0324,0.013523,0.002678,0.000431,0.000940
11133000,0.0324,0.013523,0.002678,0.000431,0.000823
11134000,0.0324,0.013523,0.002678,0.000431,0.000823
11135000,0.0324,0.013523,0.002678,0.000431,0.000940
11136000,0.0324,0.013523,0.002678,0.000431,0.000940
11137000,0.0324,0.013523,0.002678,0.000431,0.000823
11138000,0.0324,0.013523,0.002678,0.000431,0.000823
11139000,0.0324,0.013523,0.002678,0.000431,0.000940
11140000,0.0324,0.013523,0.002678,0.000431,0.000940
11141000,0.0324,0.013523,0.002678,0.000431,0.000823
11142000,0.0324,0.013523,0.002678,0.000431,0.000823
11143000,0.0324,0.013523,0.002678,0.000431,0.000940
11144000,0.0324,0.013523,0.002678,0.000431,0.000940
11145000,0.0324,0.013523,0.002678,0.000431,0.000823
11146000,0.0324,0.013523,0.002678,0.000431,0.000823
11147000,0.0324,0.013523,0.002678,0.000431,0.000940
11148000,0.0324,0.013523,0.002678,0.000431,0.000823
11149000,0.0324,0.013523,0.002678,0.000431,0.000940
11150000,0.0324,0.013523,0.002678,0.000431,0.000823
11151000,0.0324,0.013523,0.002678,0.000431,0.000940
11152000,0.0324,0.013523,0.002678,0.000431,0.000823
11153000,0.0324,0.013523,0.002678,0.000431,0.000823
11154000,0.0324,0.013523,0.002678,0.000431,0.000940
11155000,0.0324,0.013523,0.002678,0.000431,0.000940
11156000,0.0324,0.013523,0.002678,0.000431,0.000823
11157000,0.0324,0.013523,0.002678,0.000431,0.000823
11158000,0.0324,0.013523,0.002678,0.000431,0.000940
11159000,0.0324,0.013523,0.002678,0.000431,0.000940
11160000,0.0324,0.013523,0.002678,0.000431,0.000705
11161000,0.0324,0.013523,0.002678,0.000431,0.000940
11162000,0.0324,0.013523,0.002678,0.000431,0.000940
11163000,0.0324,0.013523,0.002678,0.000431,0.000940
11164000,0.0324,0.013523,0.002678,0.000431,0.000823
11165000,0.0324,0.013523,0.002678,0.000431,0.000823
11166000,0.0324,0.013523,0.002678,0.000431,0.000940
11167000,0.0324,0.013523,0.002678,0.000431,0.000823
11168000,0.0324,0.013523,0.002678,0.000431,0.000940
11169000,0.0324,0.013523,0.002678,0.000431,0.000823
11170000,0.0324,0.013523,0.002678,0.000431,0.000940
11171000,0.0324,0.013523,0.002678,0.000431,0.000823
11172000,0.0324,0.013523,0.002678,0.000431,0.000823
11173000,0.0324,0.013523,0.002678,0.000431,0.000940
11174000,0.0324,0.013523,0.002678,0.000431,0.000940
11175000,0.0324,0.013523,0.002678,0.000431,0.000705
11176000,0.0324,0.013523,0.002678,0.000431,0.000940
11177000,0.0324,0.013523,0.002678,0.000431,0.000940
11178000,0.0324,0.013523,0.002678,0.000431,0.000940
11179000,0.0324,0.013523,0.002678,0.000431,0.000705
11180000,0.0324,0.013523,0.002678,0.000431,0.000940
11181000,0.0324,0.013523,0.002678,0.000431,0.000940
11182000,0.0324,0.013523,0.002678,0.000431,0.000823
11183000,0.0324,0.013523,0.002678,0.000431,0.000823
11184000,0.0324,0.013523,0.002678,0.000431,0.000940
11185000,0.0324,0.013523,0.002678,0.000431,0.000940
11186000,0.0324,0.013523,0.002678,0.000431,0.000823
11187000,0.0324,0.013523,0.002678,0.000431,0.000823
11188000,0.0324,0.013523,0.002678,0.000431,0.000940
11189000,0.0324,0.013523,0.002678,0.000431,0.000823
11190000,0.0324,0.013523,0.002678,0.000431,0.000940
11191000,0.0324,0.013523,0.002678,0.000431,0.000823
11192000,0.0324,0.013523,0.002678,0.000431,0.000940
11193000,0.0324,0.013523,0.002678,0.000431,0.000823
11194000,0.0324,0.013523,0.002678,0.000431,0.000823
11195000,0.0324,0.013523,0.002678,0.000431,0.000940
11196000,0.0324,0.013523,0.002678,0.000431,0.000940
11197000,0.0324,0.013523,0.002678,0.000431,0.000823
11198000,0.0324,0.013523,0.002678,0.000431,0.000823
11199000,0.0324,0.013523,0.002678,0.000431,0.000940
11200000,0.0324,0.013523,0.002678,0.000431,0.000940
11201000,0.0324,0.013523,0.002678,0.000431,0.000823
11202000,0.0324,0.013523,0.002678,0.000431,0.000823
11203000,0.0324,0.013523,0.002678,0.000431,0.000940
11204000,0.0324,0.013523,0.002678,0.000431,0.000940
11205000,0.0324,0.013523,0.002678,0.000431,0.000823
11206000,0.0324,0.013523,0.002678,0.000431,0.000823
11207000,0.0324,0.013523,0.002678,0.000431,0.000940
11208000,0.0324,0.013523,0.002678,0.000431,0.000823
11209000,0.0324,0.013523,0.002678,0.000431,0.000940
11210000,0.0324,0.013523,0.002678,0.000431,0.000823
11211000,0.0324,0.013523,0.002678,0.000431,0.000940
11212000,0.0324,0.013523,0.002678,0.000431,0.000823
11213000,0.0324,0.013523,0.002678,0.000431,0.000823
11214000,0.0324,0.013523,0.002678,0.000431,0.000940
11215000,0.0324,0.013523,0.002678,0.000431,0.000940
11216000,0.0324,0.013523,0.002678,0.000431,0.017277
11217000,0.0324,0.013523,0.002678,0.000431,0.404885
11218000,0.0324,0.013523,0.002678,0.000431,0.601157
11219000,0.0324,0.013523,0.002678,0.000431,0.132102
11220000,0.0324,0.013523,0.002678,0.000431,0.131161
11221000,0.0324,0.013523,0.002678,0.000431,0.296053
11222000,0.0324,0.013523,0.002678,0.000431,0.482101
11223000,0.0324,0.013523,0.002678,0.000431,0.232823
11224000,0.0324,0.013523,0.002678,0.000431,0.292880
11225000,0.0324,0.013523,0.002678,0.000431,0.216839
11226000,0.0324,0.013523,0.002678,0.000431,0.135745
11227000,0.0324,0.013523,0.002678,0.000431,0.163599
11228000,0.0324,0.013523,0.002678,0.000431,0.104600
11229000,0.0324,0.013523,0.002678,0.000431,0.451896
11230000,0.0324,0.013523,0.002678,0.000431,0.086266
11231000,0.0324,0.013523,0.002678,0.000431,0.015866
11232000,0.0324,0.013523,0.002678,0.000431,0.012105
11233000,0.0324,0.013523,0.002678,0.000431,0.009755
11234000,0.0324,0.013523,0.002678,0.000431,0.011518
11235000,0.0324,0.013523,0.002678,0.000431,0.012105
11236000,0.0324,0.013523,0.002678,0.000431,0.006229
11237000,0.0324,0.013523,0.002678,0.000431,0.001763
11238000,0.0324,0.013523,0.002678,0.000431,0.001763
11239000,0.0324,0.013523,0.002678,0.000431,0.002821
11240000,0.0324,0.013523,0.002678,0.000431,0.002116
11241000,0.0324,0.013523,0.002678,0.000431,0.000940
11242000,0.0324,0.013523,0.002678,0.000431,0.000823
11243000,0.0324,0.013523,0.002678,0.000431,0.000940
11244000,0.0324,0.013523,0.002678,0.000431,0.000823
11245000,0.0324,0.013523,0.002678,0.000431,0.000823
11246000,0.0324,0.013523,0.002678,0.000431,0.001880
11247000,0.0324,0.013523,0.002678,0.000431,0.337188
11248000,0.0324,0.013523,0.002678,0.000431,0.674377
11249000,0.0324,0.013523,0.002678,0.000431,0.146675
11250000,0.0324,0.013523,0.002678,0.000431,0.133042
11251000,0.0324,0.013523,0.002678,0.000431,0.144325
11252000,0.0324,0.013523,0.002678,0.000431,0.642997
11253000,0.0324,0.013523,0.002678,0.000431,0.240463
11254000,0.0324,0.013523,0.002678,0.000431,0.228005
11255000,0.0324,0.013523,0.002678,0.000431,0.234234
11256000,0.0324,0.013523,0.002678,0.000431,0.140211
11257000,0.0324,0.013523,0.002678,0.000431,0.161601
11258000,0.0324,0.013523,0.002678,0.000431,0.101662
11259000,0.0324,0.013523,0.002678,0.000431,0.415815
11260000,0.0324,0.013523,0.002678,0.000431,0.116705
11261000,0.0324,0.013523,0.002678,0.000431,0.003526
11262000,0.0324,0.013523,0.002678,0.000431,0.003761
11263000,0.0324,0.013523,0.002678,0.000431,0.003291
11264000,0.0324,0.013523,0.002678,0.000431,0.003408
11265000,0.0324,0.013523,0.002678,0.000431,0.004584
11266000,0.0324,0.013523,0.002678,0.000431,0.002586
11267000,0.0324,0.013523,0.002678,0.000431,0.002586
11268000,0.0324,0.013523,0.002678,0.000431,0.002586
11269000,0.0324,0.013523,0.002678,0.000431,0.002821
11270000,0.0324,0.013523,0.002678,0.000431,0.002468
11271000,0.0324,0.013523,0.002678,0.000431,0.002586
11272000,0.0324,0.013523,0.002678,0.000431,0.002821
11273000,0.0324,0.013523,0.002678,0.000431,0.003291
11274000,0.0324,0.013523,0.002678,0.000431,0.002821
11275000,0.0324,0.013523,0.002678,0.000431,0.001763
11276000,0.0324,0.013523,0.002678,0.000431,0.001880
11277000,0.0324,0.013523,0.002678,0.000431,0.001528
11278000,0.0324,0.013523,0.002678,0.000431,0.001880
11279000,0.0324,0.013523,0.002678,0.000431,0.001763
11280000,0.0324,0.013523,0.002678,0.000431,0.001763
11281000,0.0324,0.013523,0.002678,0.000431,0.001645
11282000,0.0324,0.013523,0.002678,0.000431,0.001763
11283000,0.0324,0.013523,0.002678,0.000431,0.001763
11284000,0.0324,0.013523,0.002678,0.000431,0.001880
11285000,0.0324,0.013523,0.002678,0.000431,0.001645
11286000,0.0324,0.013523,0.002678,0.000431,0.001763
11287000,0.0324,0.013523,0.002678,0.000431,0.001763
11288000,0.0324,0.013523,0.002678,0.000431,0.001763
11289000,0.0324,0.013523,0.002678,0.000431,0.003526
11290000,0.0324,0.013523,0.002678,0.000431,0.001058
11291000,0.0324,0.013523,0.002678,0.000431,0.000823
11292000,0.0324,0.013523,0.002678,0.000431,0.000823
11293000,0.0324,0.013523,0.002678,0.000431,0.000940
11294000,0.0324,0.013523,0.002678,0.000431,0.000940
11295000,0.0324,0.013523,0.002678,0.000431,0.000823
11296000,0.0324,0.013523,0.002678,0.000431,0.000823
11297000,0.0324,0.013523,0.002678,0.000431,0.000940
11298000,0.0324,0.013523,0.002678,0.000431,0.000940
11299000,0.0324,0.013523,0.002678,0.000431,0.000823
11300000,0.0324,0.013523,0.002678,0.000431,0.000823
11301000,0.0324,0.013523,0.002678,0.000431,0.000940
11302000,0.0324,0.013523,0.002678,0.000431,0.000823
11303000,0.0324,0.013523,0.002678,0.000431,0.000940
11304000,0.0324,0.013523,0.002678,0.000431,0.000823
11305000,0.0324,0.013523,0.002678,0.000431,0.000940
11306000,0.0324,0.013523,0.002678,0.000431,0.000823
11307000,0.0324,0.013523,0.002678,0.000431,0.000823
11308000,0.0324,0.013523,0.002678,0.000431,0.000940
11309000,0.0324,0.013523,0.002678,0.000431,0.000940
11310000,0.0324,0.013523,0.002678,0.000431,0.000823
11311000,0.0324,0.013523,0.002678,0.000431,0.000823
11312000,0.0324,0.013523,0.002678,0.000431,0.000940
11313000,0.0324,0.013523,0.002678,0.000431,0.000940
11314000,0.0324,0.013523,0.002678,0.000431,0.000705
11315000,0.0324,0.013523,0.002678,0.000431,0.000940
11316000,0.0324,0.013523,0.002678,0.000431,0.000940
11317000,0.0324,0.013523,0.002678,0.000431,0.000940
11318000,0.0324,0.013523,0.002678,0.000431,0.000705
11319000,0.0324,0.013523,0.002678,0.000431,0.000940
11320000,0.0324,0.013523,0.002678,0.000431,0.000940
11321000,0.0324,0.013523,0.002678,0.000431,0.000823
11322000,0.0324,0.013523,0.002678,0.000431,0.000940
11323000,0.0324,0.013523,0.002678,0.000431,0.000823
11324000,0.0324,0.013523,0.002678,0.000431,0.000940
11325000,0.0324,0.013523,0.002678,0.000431,0.000823
11326000,0.0324,0.013523,0.002678,0.000431,0.000823
11327000,0.0324,0.013523,0.002678,0.000431,0.000940
11328000,0.0324,0.013523,0.002678,0.000431,0.000823
11329000,0.0324,0.013523,0.002678,0.000431,0.000823
11330000,0.0324,0.013523,0.002678,0.000431,0.074395
11331000,0.0324,0.013523,0.002678,0.000431,0.445667
11332000,0.0324,0.013523,0.002678,0.000431,0.546389
11333000,0.0324,0.013523,0.002678,0.000431,0.132102
11334000,0.0324,0.013523,0.002678,0.000431,0.133042
11335000,0.0324,0.013523,0.002678,0.000431,0.545213
11336000,0.0324,0.013523,0.002678,0.000431,0.236937
11337000,0.0324,0.013523,0.002678,0.000431,0.241873
11338000,0.0324,0.013523,0.002678,0.000431,0.277837
11339000,0.0324,0.013523,0.002678,0.000431,0.176645
11340000,0.0324,0.013523,0.002678,0.000431,0.135275
11341000,0.0324,0.013523,0.002678,0.000431,0.171709
11342000,0.0324,0.013523,0.002678,0.000431,0.102132
11343000,0.0324,0.013523,0.002678,0.000431,0.441201
11344000,0.0324,0.013523,0.002678,0.000431,0.077451
11345000,0.0324,0.013523,0.002678,0.000431,0.009520
11346000,0.0324,0.013523,0.002678,0.000431,0.005054
11347000,0.0324,0.013523,0.002678,0.000431,0.004584
11348000,0.0324,0.013523,0.002678,0.000431,0.003996
11349000,0.0324,0.013523,0.002678,0.000431,0.004349
11350000,0.0324,0.013523,0.002678,0.000431,0.005524
11351000,0.0324,0.013523,0.002678,0.000431,0.003291
11352000,0.0324,0.013523,0.002678,0.000431,0.005406
11353000,0.0324,0.013523,0.002678,0.000431,0.002703
11354000,0.0324,0.013523,0.002678,0.000431,0.002586
11355000,0.0324,0.013523,0.002678,0.000431,0.002351
11356000,0.0324,0.013523,0.002678,0.000431,0.004231
11357000,0.0324,0.013523,0.002678,0.000431,0.001998
11358000,0.0324,0.013523,0.002678,0.000431,0.001645
11359000,0.0324,0.013523,0.002678,0.000431,0.001410
11360000,0.0324,0.013523,0.002678,0.000431,0.001880
11361000,0.0324,0.013523,0.002678,0.000431,0.001645
11362000,0.0324,0.013523,0.002678,0.000431,0.001645
11363000,0.0324,0.013523,0.002678,0.000431,0.001528
11364000,0.0324,0.013523,0.002678,0.000431,0.001763
11365000,0.0324,0.013523,0.002678,0.000431,0.001645
11366000,0.0324,0.013523,0.002678,0.000431,0.001645
11367000,0.0324,0.013523,0.002678,0.000431,0.001645
11368000,0.0324,0.013523,0.002678,0.000431,0.001645
11369000,0.0324,0.013523,0.002678,0.000431,0.001645
11370000,0.0324,0.013523,0.002678,0.000431,0.001645
11371000,0.0324,0.013523,0.002678,0.000431,0.001645
11372000,0.0324,0.013523,0.002678,0.000431,0.001645
11373000,0.0324,0.013523,0.002678,0.000431,0.001645
11374000,0.0324,0.013523,0.002678,0.000431,0.001645
11375000,0.0324,0.013523,0.002678,0.000431,0.001763
11376000,0.0324,0.013523,0.002678,0.000431,0.001528
11377000,0.0324,0.013523,0.002678,0.000431,0.001645
11378000,0.0324,0.013523,0.002678,0.000431,0.001645
11379000,0.0324,0.013523,0.002678,0.000431,0.001880
11380000,0.0324,0.013523,0.002678,0.000431,0.001293
11381000,0.0324,0.013523,0.002678,0.000431,0.001763
11382000,0.0324,0.013523,0.002678,0.000431,0.001880
11383000,0.0324,0.013523,0.002678,0.000431,0.001410
11384000,0.0324,0.013523,0.002678,0.000431,0.001645
11385000,0.0324,0.013523,0.002678,0.000431,0.001645
11386000,0.0324,0.013523,0.002678,0.000431,0.001880
11387000,0.0324,0.013523,0.002678,0.000431,0.001410
11388000,0.0324,0.013523,0.002678,0.000431,0.001645
11389000,0.0324,0.013523,0.002678,0.000431,0.001880
11390000,0.0324,0.013523,0.002678,0.000431,0.001645
11391000,0.0324,0.013523,0.002678,0.000431,0.001410
11392000,0.0324,0.013523,0.002678,0.000431,0.001763
11393000,0.0324,0.013523,0.002678,0.000431,0.001763
11394000,0.0324,0.013523,0.002678,0.000431,0.001645
11395000,0.0324,0.013523,0.002678,0.000431,0.001410
11396000,0.0324,0.013523,0.002678,0.000431,0.001880
11397000,0.0324,0.013523,0.002678,0.000431,0.001645
11398000,0.0324,0.013523,0.002678,0.000431,0.001645
11399000,0.0324,0.013523,0.002678,0.000431,0.001645
11400000,0.0324,0.013523,0.002678,0.000431,0.001645
11401000,0.0324,0.013523,0.002678,0.000431,0.001645
11402000,0.0324,0.013523,0.002678,0.000431,0.001645
11403000,0.0324,0.013523,0.002678,0.000431,0.001645
11404000,0.0324,0.013523,0.002678,0.000431,0.001645
11405000,0.0324,0.013523,0.002678,0.000431,0.001645
11406000,0.0324,0.013523,0.002678,0.000431,0.001645
11407000,0.0324,0.013523,0.002678,0.000431,0.001645
11408000,0.0324,0.013523,0.002678,0.000431,0.001645
11409000,0.0324,0.013523,0.002678,0.000431,0.001528
11410000,0.0324,0.013523,0.002678,0.000431,0.001763
11411000,0.0324,0.013523,0.002678,0.000431,0.001880
11412000,0.0324,0.013523,0.002678,0.000431,0.001410
11413000,0.0324,0.013523,0.002678,0.000431,0.001645
11414000,0.0324,0.013523,0.002678,0.000431,0.001645
11415000,0.0324,0.013523,0.002678,0.000431,0.001645
11416000,0.0324,0.013523,0.002678,0.000431,0.001645
11417000,0.0324,0.013523,0.002678,0.000431,0.001645
11418000,0.0324,0.013523,0.002678,0.000431,0.001880
11419000,0.0324,0.013523,0.002678,0.000431,0.001410
11420000,0.0324,0.013523,0.002678,0.000431,0.001645
11421000,0.0324,0.013523,0.002678,0.000431,0.001763
11422000,0.0324,0.013523,0.002678,0.000431,0.001763
11423000,0.0324,0.013523,0.002678,0.000431,0.001410
11424000,0.0324,0.013523,0.002678,0.000431,0.001645
11425000,0.0324,0.013523,0.002678,0.000431,0.001880
11426000,0.0324,0.013523,0.002678,0.000431,0.001645
11427000,0.0324,0.013523,0.002678,0.000431,0.001410
11428000,0.0324,0.013523,0.002678,0.000431,0.001880
11429000,0.0324,0.013523,0.002678,0.000431,0.001645
11430000,0.0324,0.013523,0.002678,0.000431,0.001645
11431000,0.0324,0.013523,0.002678,0.000431,0.001410
11432000,0.0324,0.013523,0.002678,0.000431,0.001880
11433000,0.0324,0.013523,0.002678,0.000431,0.001645
11434000,0.0324,0.013523,0.002678,0.000431,0.001528
11435000,0.0324,0.013523,0.002678,0.000431,0.001763
11436000,0.0324,0.013523,0.002678,0.000431,0.001645
11437000,0.0324,0.013523,0.002678,0.000431,0.001645
11438000,0.0324,0.013523,0.002678,0.000431,0.014809
11439000,0.0324,0.013523,0.002678,0.000431,0.436735
11440000,0.0324,0.013523,0.002678,0.000431,0.593752
11441000,0.0324,0.013523,0.002678,0.000431,0.133512
11442000,0.0324,0.013523,0.002678,0.000431,0.132572
11443000,0.0324,0.013523,0.002678,0.000431,0.275016
11444000,0.0324,0.013523,0.002678,0.000431,0.477164
11445000,0.0324,0.013523,0.002678,0.000431,0.237524
11446000,0.0324,0.013523,0.002678,0.000431,0.260913
11447000,0.0324,0.013523,0.002678,0.000431,0.223774
11448000,0.0324,0.013523,0.002678,0.000431,0.138213
11449000,0.0324,0.013523,0.002678,0.000431,0.154197
11450000,0.0324,0.013523,0.002678,0.000431,0.103072
11451000,0.0324,0.013523,0.002678,0.000431,0.411936
11452000,0.0324,0.013523,0.002678,0.000431,0.159368
11453000,0.0324,0.013523,0.002678,0.000431,0.016571
11454000,0.0324,0.013523,0.002678,0.000431,0.012223
11455000,0.0324,0.013523,0.002678,0.000431,0.011048
11456000,0.0324,0.013523,0.002678,0.000431,0.007287
11457000,0.0324,0.013523,0.002678,0.000431,0.010225
11458000,0.0324,0.013523,0.002678,0.000431,0.006464
11459000,0.0324,0.013523,0.002678,0.000431,0.005759
11460000,0.0324,0.013523,0.002678,0.000431,0.008815
11461000,0.0324,0.013523,0.002678,0.000431,0.005524
11462000,0.0324,0.013523,0.002678,0.000431,0.003878
11463000,0.0324,0.013523,0.002678,0.000431,0.002703
11464000,0.0324,0.013523,0.002678,0.000431,0.003761
11465000,0.0324,0.013523,0.002678,0.000431,0.001645
11466000,0.0324,0.013523,0.002678,0.000431,0.000823
11467000,0.0324,0.013523,0.002678,0.000431,0.000823
11468000,0.0324,0.013523,0.002678,0.000431,0.000940
11469000,0.0324,0.013523,0.002678,0.000431,0.000940
11470000,0.0324,0.013523,0.002678,0.000431,0.000940
11471000,0.0324,0.013523,0.002678,0.000431,0.000705
11472000,0.0324,0.013523,0.002678,0.000431,0.000940
11473000,0.0324,0.013523,0.002678,0.000431,0.000940
11474000,0.0324,0.013523,0.002678,0.000431,0.000823
11475000,0.0324,0.013523,0.002678,0.000431,0.000823
11476000,0.0324,0.013523,0.002678,0.000431,0.000940
11477000,0.0324,0.013523,0.002678,0.000431,0.000940
11478000,0.0324,0.013523,0.002678,0.000431,0.000823
11479000,0.0324,0.013523,0.002678,0.000431,0.000823
11480000,0.0324,0.013523,0.002678,0.000431,0.000940
11481000,0.0324,0.013523,0.002678,0.000431,0.000823
11482000,0.0324,0.013523,0.002678,0.000431,0.000940
11483000,0.0324,0.013523,0.002678,0.000431,0.000823
11484000,0.0324,0.013523,0.002678,0.000431,0.000940
11485000,0.0324,0.013523,0.002678,0.000431,0.000823
11486000,0.0324,0.013523,0.002678,0.000431,0.000940
11487000,0.0324,0.013523,0.002678,0.000431,0.000823
11488000,0.0324,0.013523,0.002678,0.000431,0.000940
11489000,0.0324,0.013523,0.002678,0.000431,0.000823
11490000,0.0324,0.013523,0.002678,0.000431,0.000823
11491000,0.0324,0.013523,0.002678,0.000431,0.000940
11492000,0.0324,0.013523,0.002678,0.000431,0.000940
11493000,0.0324,0.013523,0.002678,0.000431,0.000823
11494000,0.0324,0.013523,0.002678,0.000431,0.000823
11495000,0.0324,0.013523,0.002678,0.000431,0.000940
11496000,0.0324,0.013523,0.002678,0.000431,0.000940
11497000,0.0324,0.013523,0.002678,0.000431,0.000823
11498000,0.0324,0.013523,0.002678,0.000431,0.000823
11499000,0.0324,0.013523,0.002678,0.000431,0.000940
11500000,0.0324,0.013523,0.002678,0.000431,0.000823
11501000,0.0324,0.013523,0.002678,0.000431,0.000940
11502000,0.0324,0.013523,0.002678,0.000431,0.000823
11503000,0.0324,0.013523,0.002678,0.000431,0.000940
11504000,0.0324,0.013523,0.002678,0.000431,0.000823
11505000,0.0324,0.013523,0.002678,0.000431,0.000823
11506000,0.0324,0.013523,0.002678,0.000431,0.000940
11507000,0.0324,0.013523,0.002678,0.000431,0.000940
11508000,0.0324,0.013523,0.002678,0.000431,0.000823
11509000,0.0324,0.013523,0.002678,0.000431,0.074983
11510000,0.0324,0.013523,0.002678,0.000431,0.491620
11511000,0.0324,0.013523,0.002678,0.000431,0.536046
11512000,0.0324,0.013523,0.002678,0.000431,0.134100
11513000,0.0324,0.013523,0.002678,0.000431,0.131514
11514000,0.0324,0.013523,0.002678,0.000431,0.650166
11515000,0.0324,0.013523,0.002678,0.000431,0.246222
11516000,0.0324,0.013523,0.002678,0.000431,0.257504
11517000,0.0324,0.013523,0.002678,0.000431,0.284301
11518000,0.0324,0.013523,0.002678,0.000431,0.138213
11519000,0.0324,0.013523,0.002678,0.000431,0.177468
11520000,0.0324,0.013523,0.002678,0.000431,0.084620
11521000,0.0324,0.013523,0.002678,0.000431,0.487859
11522000,0.0324,0.013523,0.002678,0.000431,0.043720
11523000,0.0324,0.013523,0.002678,0.000431,0.007169
11524000,0.0324,0.013523,0.002678,0.000431,0.004936
11525000,0.0324,0.013523,0.002678,0.000431,0.005759
11526000,0.0324,0.013523,0.002678,0.000431,0.005289
11527000,0.0324,0.013523,0.002678,0.000431,0.004349
11528000,0.0324,0.013523,0.002678,0.000431,0.003761
11529000,0.0324,0.013523,0.002678,0.000431,0.004584
11530000,0.0324,0.013523,0.002678,0.000431,0.004113
11531000,0.0324,0.013523,0.002678,0.000431,0.003761
11532000,0.0324,0.013523,0.002678,0.000431,0.004349
11533000,0.0324,0.013523,0.002678,0.000431,0.003643
11534000,0.0324,0.013523,0.002678,0.000431,0.003526
11535000,0.0324,0.013523,0.002678,0.000431,0.003526
11536000,0.0324,0.013523,0.002678,0.000431,0.004819
11537000,0.0324,0.013523,0.002678,0.000431,0.002586
11538000,0.0324,0.013523,0.002678,0.000431,0.002703
11539000,0.0324,0.013523,0.002678,0.000431,0.002586
11540000,0.0324,0.013523,0.002678,0.000431,0.002703
11541000,0.0324,0.013523,0.002678,0.000431,0.002468
11542000,0.0324,0.013523,0.002678,0.000431,0.002821
11543000,0.0324,0.013523,0.002678,0.000431,0.002586
11544000,0.0324,0.013523,0.002678,0.000431,0.002586
11545000,0.0324,0.013523,0.002678,0.000431,0.002586
11546000,0.0324,0.013523,0.002678,0.000431,0.002703
11547000,0.0324,0.013523,0.002678,0.000431,0.002586
11548000,0.0324,0.013523,0.002678,0.000431,0.002703
11549000,0.0324,0.013523,0.002678,0.000431,0.002586
11550000,0.0324,0.013523,0.002678,0.000431,0.002703
11551000,0.0324,0.013523,0.002678,0.000431,0.002468
11552000,0.0324,0.013523,0.002678,0.000431,0.002703
11553000,0.0324,0.013523,0.002678,0.000431,0.002586
11554000,0.0324,0.013523,0.002678,0.000431,0.002821
11555000,0.0324,0.013523,0.002678,0.000431,0.002351
11556000,0.0324,0.013523,0.002678,0.000431,0.002821
11557000,0.0324,0.013523,0.002678,0.000431,0.002586
11558000,0.0324,0.013523,0.002678,0.000431,0.002703
11559000,0.0324,0.013523,0.002678,0.000431,0.002586
11560000,0.0324,0.013523,0.002678,0.000431,0.002586
11561000,0.0324,0.013523,0.002678,0.000431,0.002821
11562000,0.0324,0.013523,0.002678,0.000431,0.002468
11563000,0.0324,0.013523,0.002678,0.000431,0.002586
11564000,0.0324,0.013523,0.002678,0.000431,0.002703
11565000,0.0324,0.013523,0.002678,0.000431,0.002703
11566000,0.0324,0.013523,0.002678,0.000431,0.002586
11567000,0.0324,0.013523,0.002678,0.000431,0.002586
11568000,0.0324,0.013523,0.002678,0.000431,0.002703
11569000,0.0324,0.013523,0.002678,0.000431,0.004231
11570000,0.0324,0.013523,0.002678,0.000431,0.001645
11571000,0.0324,0.013523,0.002678,0.000431,0.001880
11572000,0.0324,0.013523,0.002678,0.000431,0.001645
11573000,0.0324,0.013523,0.002678,0.000431,0.001880
11574000,0.0324,0.013523,0.002678,0.000431,0.001645
11575000,0.0324,0.013523,0.002678,0.000431,0.001880
11576000,0.0324,0.013523,0.002678,0.000431,0.001645
11577000,0.0324,0.013523,0.002678,0.000431,0.001763
11578000,0.0324,0.013523,0.002678,0.000431,0.002468
11579000,0.0324,0.013523,0.002678,0.000431,0.001998
11580000,0.0324,0.013523,0.002678,0.000431,0.000823
11581000,0.0324,0.013523,0.002678,0.000431,0.000940
11582000,0.0324,0.013523,0.002678,0.000431,0.000823
11583000,0.0324,0.013523,0.002678,0.000431,0.000940
11584000,0.0324,0.013523,0.002678,0.000431,0.000823
11585000,0.0324,0.013523,0.002678,0.000431,0.000823
11586000,0.0324,0.013523,0.002678,0.000431,0.071810
11587000,0.0324,0.013523,0.002678,0.000431,0.491855
11588000,0.0324,0.013523,0.002678,0.000431,0.537104
11589000,0.0324,0.013523,0.002678,0.000431,0.133512
11590000,0.0324,0.013523,0.002678,0.000431,0.132102
11591000,0.0324,0.013523,0.002678,0.000431,0.554263
11592000,0.0324,0.013523,0.002678,0.000431,0.227064
11593000,0.0324,0.013523,0.002678,0.000431,0.265261
11594000,0.0324,0.013523,0.002678,0.000431,0.326611
11595000,0.0324,0.013523,0.002678,0.000431,0.138331
11596000,0.0324,0.013523,0.002678,0.000431,0.149496
11597000,0.0324,0.013523,0.002678,0.000431,0.113180
11598000,0.0324,0.013523,0.002678,0.000431,0.305573
11599000,0.0324,0.013523,0.002678,0.000431,0.266319
11600000,0.0324,0.013523,0.002678,0.000431,0.011753
11601000,0.0324,0.013523,0.002678,0.000431,0.012576
11602000,0.0324,0.013523,0.002678,0.000431,0.007757
11603000,0.0324,0.013523,0.002678,0.000431,0.006464
11604000,0.0324,0.013523,0.002678,0.000431,0.002586
11605000,0.0324,0.013523,0.002678,0.000431,0.002468
11606000,0.0324,0.013523,0.002678,0.000431,0.002468
11607000,0.0324,0.013523,0.002678,0.000431,0.002703
11608000,0.0324,0.013523,0.002678,0.000431,0.012340
11609000,0.0324,0.013523,0.002678,0.000431,0.405942
11610000,0.0324,0.013523,0.002678,0.000431,0.607268
11611000,0.0324,0.013523,0.002678,0.000431,0.132102
11612000,0.0324,0.013523,0.002678,0.000431,0.133982
11613000,0.0324,0.013523,0.002678,0.000431,0.178525
11614000,0.0324,0.013523,0.002678,0.000431,0.585760
11615000,0.0324,0.013523,0.002678,0.000431,0.284771
11616000,0.0324,0.013523,0.002678,0.000431,0.264438
11617000,0.0324,0.013523,0.002678,0.000431,0.237877
11618000,0.0324,0.013523,0.002678,0.000431,0.139153
11619000,0.0324,0.013523,0.002678,0.000431,0.157253
11620000,0.0324,0.013523,0.002678,0.000431,0.130339
11621000,0.0324,0.013523,0.002678,0.000431,0.440261
11622000,0.0324,0.013523,0.002678,0.000431,0.016454
11623000,0.0324,0.013523,0.002678,0.000431,0.005054
11624000,0.0324,0.013523,0.002678,0.000431,0.006111
11625000,0.0324,0.013523,0.002678,0.000431,0.002586
11626000,0.0324,0.013523,0.002678,0.000431,0.002821
11627000,0.0324,0.013523,0.002678,0.000431,0.003878
11628000,0.0324,0.013523,0.002678,0.000431,0.001763
11629000,0.0324,0.013523,0.002678,0.000431,0.001763
11630000,0.0324,0.013523,0.002678,0.000431,0.001763
11631000,0.0324,0.013523,0.002678,0.000431,0.001880
11632000,0.0324,0.013523,0.002678,0.000431,0.001645
11633000,0.0324,0.013523,0.002678,0.000431,0.001763
11634000,0.0324,0.013523,0.002678,0.000431,0.001763
11635000,0.0324,0.013523,0.002678,0.000431,0.001763
11636000,0.0324,0.013523,0.002678,0.000431,0.001763
11637000,0.0324,0.013523,0.002678,0.000431,0.001763
11638000,0.0324,0.013523,0.002678,0.000431,0.001763
11639000,0.0324,0.013523,0.002678,0.000431,0.002586
11640000,0.0324,0.013523,0.002678,0.000431,0.001998
11641000,0.0324,0.013523,0.002678,0.000431,0.000940
11642000,0.0324,0.013523,0.002678,0.000431,0.000823
11643000,0.0324,0.013523,0.002678,0.000431,0.000940
11644000,0.0324,0.013523,0.002678,0.000431,0.000823
11645000,0.0324,0.013523,0.002678,0.000431,0.000940
11646000,0.0324,0.013523,0.002678,0.000431,0.000823
11647000,0.0324,0.013523,0.002678,0.000431,0.001645
11648000,0.0324,0.013523,0.002678,0.000431,0.315916
11649000,0.0324,0.013523,0.002678,0.000431,0.672144
11650000,0.0324,0.013523,0.002678,0.000431,0.136685
11651000,0.0324,0.013523,0.002678,0.000431,0.133982
11652000,0.0324,0.013523,0.002678,0.000431,0.131632
11653000,0.0324,0.013523,0.002678,0.000431,0.615495
11654000,0.0324,0.013523,0.002678,0.000431,0.256564
11655000,0.0324,0.013523,0.002678,0.000431,0.248925
11656000,0.0324,0.013523,0.002678,0.000431,0.253508
11657000,0.0324,0.013523,0.002678,0.000431,0.140681
11658000,0.0324,0.013523,0.002678,0.000431,0.142092
11659000,0.0324,0.013523,0.002678,0.000431,0.108714
11660000,0.0324,0.013523,0.002678,0.000431,0.370449
11661000,0.0324,0.013523,0.002678,0.000431,0.205439
11662000,0.0324,0.013523,0.002678,0.000431,0.015631
11663000,0.0324,0.013523,0.002678,0.000431,0.010342
11664000,0.0324,0.013523,0.002678,0.000431,0.007169
11665000,0.0324,0.013523,0.002678,0.000431,0.004466
11666000,0.0324,0.013523,0.002678,0.000431,0.005524
11667000,0.0324,0.013523,0.002678,0.000431,0.003173
11668000,0.0324,0.013523,0.002678,0.000431,0.003526
11669000,0.0324,0.013523,0.002678,0.000431,0.003761
11670000,0.0324,0.013523,0.002678,0.000431,0.003526
11671000,0.0324,0.013523,0.002678,0.000431,0.003173
11672000,0.0324,0.013523,0.002678,0.000431,0.003643
11673000,0.0324,0.013523,0.002678,0.000431,0.003761
11674000,0.0324,0.013523,0.002678,0.000431,0.004701
11675000,0.0324,0.013523,0.002678,0.000431,0.002468
11676000,0.0324,0.013523,0.002678,0.000431,0.002821
11677000,0.0324,0.013523,0.002678,0.000431,0.002703
11678000,0.0324,0.013523,0.002678,0.000431,0.002468
11679000,0.0324,0.013523,0.002678,0.000431,0.003291
11680000,0.0324,0.013523,0.002678,0.000431,0.002938
11681000,0.0324,0.013523,0.002678,0.000431,0.001763
11682000,0.0324,0.013523,0.002678,0.000431,0.001645
11683000,0.0324,0.013523,0.002678,0.000431,0.001763
11684000,0.0324,0.013523,0.002678,0.000431,0.001763
11685000,0.0324,0.013523,0.002678,0.000431,0.003643
11686000,0.0324,0.013523,0.002678,0.000431,0.000823
11687000,0.0324,0.013523,0.002678,0.000431,0.000940
11688000,0.0324,0.013523,0.002678,0.000431,0.000823
11689000,0.0324,0.013523,0.002678,0.000431,0.000823
11690000,0.0324,0.013523,0.002678,0.000431,0.000940
11691000,0.0324,0.013523,0.002678,0.000431,0.000940
11692000,0.0324,0.013523,0.002678,0.000431,0.000823
11693000,0.0324,0.013523,0.002678,0.000431,0.000823
11694000,0.0324,0.013523,0.002678,0.000431,0.000940
11695000,0.0324,0.013523,0.002678,0.000431,0.000940
11696000,0.0324,0.013523,0.002678,0.000431,0.000823
11697000,0.0324,0.013523,0.002678,0.000431,0.000823
11698000,0.0324,0.013523,0.002678,0.000431,0.000940
11699000,0.0324,0.013523,0.002678,0.000431,0.000823
11700000,0.0324,0.013523,0.002678,0.000431,0.000940
11701000,0.0324,0.013523,0.002678,0.000431,0.000823
11702000,0.0324,0.013523,0.002678,0.000431,0.000940
11703000,0.0324,0.013523,0.002678,0.000431,0.000823
11704000,0.0324,0.013523,0.002678,0.000431,0.000823
11705000,0.0324,0.013523,0.002678,0.000431,0.000940
11706000,0.0324,0.013523,0.002678,0.000431,0.000940
11707000,0.0324,0.013523,0.002678,0.000431,0.000823
11708000,0.0324,0.013523,0.002678,0.000431,0.000823
11709000,0.0324,0.013523,0.002678,0.000431,0.000940
11710000,0.0324,0.013523,0.002678,0.000431,0.000940
11711000,0.0324,0.013523,0.002678,0.000431,0.000705
11712000,0.0324,0.013523,0.002678,0.000431,0.013751
11713000,0.0324,0.013523,0.002678,0.000431,0.452484
11714000,0.0324,0.013523,0.002678,0.000431,0.592812
11715000,0.0324,0.013523,0.002678,0.000431,0.132572
11716000,0.0324,0.013523,0.002678,0.000431,0.132572
11717000,0.0324,0.013523,0.002678,0.000431,0.400066
11718000,0.0324,0.013523,0.002678,0.000431,0.368686
11719000,0.0324,0.013523,0.002678,0.000431,0.229297
11720000,0.0324,0.013523,0.002678,0.000431,0.315446
11721000,0.0324,0.013523,0.002678,0.000431,0.189103
11722000,0.0324,0.013523,0.002678,0.000431,0.149026
11723000,0.0324,0.013523,0.002678,0.000431,0.158075
11724000,0.0324,0.013523,0.002678,0.000431,0.138918
11725000,0.0324,0.013523,0.002678,0.000431,0.460240
11726000,0.0324,0.013523,0.002678,0.000431,0.022095
11727000,0.0324,0.013523,0.002678,0.000431,0.021273
11728000,0.0324,0.013523,0.002678,0.000431,0.019745
11729000,0.0324,0.013523,0.002678,0.000431,0.016101
11730000,0.0324,0.013523,0.002678,0.000431,0.014691
11731000,0.0324,0.013523,0.002678,0.000431,0.007639
11732000,0.0324,0.013523,0.002678,0.000431,0.007992
11733000,0.0324,0.013523,0.002678,0.000431,0.009872
11734000,0.0324,0.013523,0.002678,0.000431,0.005054
11735000,0.0324,0.013523,0.002678,0.000431,0.007052
11736000,0.0324,0.013523,0.002678,0.000431,0.006817
11737000,0.0324,0.013523,0.002678,0.000431,0.004231
11738000,0.0324,0.013523,0.002678,0.000431,0.001645
11739000,0.0324,0.013523,0.002678,0.000431,0.003526
11740000,0.0324,0.013523,0.002678,0.000431,0.000940
11741000,0.0324,0.013523,0.002678,0.000431,0.000940
11742000,0.0324,0.013523,0.002678,0.000431,0.000705
11743000,0.0324,0.013523,0.002678,0.000431,0.000940
11744000,0.0324,0.013523,0.002678,0.000431,0.000940
11745000,0.0324,0.013523,0.002678,0.000431,0.000823
11746000,0.0324,0.013523,0.002678,0.000431,0.000823
11747000,0.0324,0.013523,0.002678,0.000431,0.000940
11748000,0.0324,0.013523,0.002678,0.000431,0.000940
11749000,0.0324,0.013523,0.002678,0.000431,0.000823
11750000,0.0324,0.013523,0.002678,0.000431,0.000823
11751000,0.0324,0.013523,0.002678,0.000431,0.000940
11752000,0.0324,0.013523,0.002678,0.000431,0.000823
11753000,0.0324,0.013523,0.002678,0.000431,0.000940
11754000,0.0324,0.013523,0.002678,0.000431,0.000823
11755000,0.0324,0.013523,0.002678,0.000431,0.000940
11756000,0.0324,0.013523,0.002678,0.000431,0.000823
11757000,0.0324,0.013523,0.002678,0.000431,0.000823
11758000,0.0324,0.013523,0.002678,0.000431,0.000940
11759000,0.0324,0.013523,0.002678,0.000431,0.000940
11760000,0.0324,0.013523,0.002678,0.000431,0.000823
11761000,0.0324,0.013523,0.002678,0.000431,0.000823
11762000,0.0324,0.013523,0.002678,0.000431,0.000940
11763000,0.0324,0.013523,0.002678,0.000431,0.000940
11764000,0.0324,0.013523,0.002678,0.000431,0.000823
11765000,0.0324,0.013523,0.002678,0.000431,0.000823
11766000,0.0324,0.013523,0.002678,0.000431,0.000940
11767000,0.0324,0.013523,0.002678,0.000431,0.000940
11768000,0.0324,0.013523,0.002678,0.000431,0.000823
11769000,0.0324,0.013523,0.002678,0.000431,0.000823
11770000,0.0324,0.013523,0.002678,0.000431,0.000940
11771000,0.0324,0.013523,0.002678,0.000431,0.000823
11772000,0.0324,0.013523,0.002678,0.000431,0.000940
11773000,0.0324,0.013523,0.002678,0.000431,0.000823
11774000,0.0324,0.013523,0.002678,0.000431,0.000940
11775000,0.0324,0.013523,0.002678,0.000431,0.000823
11776000,0.0324,0.013523,0.002678,0.000431,0.000823
11777000,0.0324,0.013523,0.002678,0.000431,0.000940
11778000,0.0324,0.013523,0.002678,0.000431,0.000940
11779000,0.0324,0.013523,0.002678,0.000431,0.000705
11780000,0.0324,0.013523,0.002678,0.000431,0.000940
11781000,0.0324,0.013523,0.002678,0.000431,0.000940
11782000,0.0324,0.013523,0.002678,0.000431,0.000940
11783000,0.0324,0.013523,0.002678,0.000431,0.000705
11784000,0.0324,0.013523,0.002678,0.000431,0.000940
11785000,0.0324,0.013523,0.002678,0.000431,0.000940
11786000,0.0324,0.013523,0.002678,0.000431,0.000823
11787000,0.0324,0.013523,0.002678,0.000431,0.000823
11788000,0.0324,0.013523,0.002678,0.000431,0.000940
11789000,0.0324,0.013523,0.002678,0.000431,0.000940
11790000,0.0324,0.013523,0.002678,0.000431,0.000823
11791000,0.0324,0.013523,0.002678,0.000431,0.000823
11792000,0.0324,0.013523,0.002678,0.000431,0.000940
11793000,0.0324,0.013523,0.002678,0.000431,0.000823
11794000,0.0324,0.013523,0.002678,0.000431,0.000940
11795000,0.0324,0.013523,0.002678,0.000431,0.000823
11796000,0.0324,0.013523,0.002678,0.000431,0.000940
11797000,0.0324,0.013523,0.002678,0.000431,0.000823
11798000,0.0324,0.013523,0.002678,0.000431,0.000823
11799000,0.0324,0.013523,0.002678,0.000431,0.000940
11800000,0.0324,0.013523,0.002678,0.000431,0.000940
11801000,0.0324,0.013523,0.002678,0.000431,0.000940
11802000,0.0324,0.013523,0.002678,0.000431,0.000705
11803000,0.0324,0.013523,0.002678,0.000431,0.000940
11804000,0.0324,0.013523,0.002678,0.000431,0.000940
11805000,0.0324,0.013523,0.002678,0.000431,0.000823
11806000,0.0324,0.013523,0.002678,0.000431,0.000823
11807000,0.0324,0.013523,0.002678,0.000431,0.000940
11808000,0.0324,0.013523,0.002678,0.000431,0.000940
11809000,0.0324,0.013523,0.002678,0.000431,0.000823
11810000,0.0324,0.013523,0.002678,0.000431,0.000823
11811000,0.0324,0.013523,0.002678,0.000431,0.000940
11812000,0.0324,0.013523,0.002678,0.000431,0.000823
11813000,0.0324,0.013523,0.002678,0.000431,0.000940
11814000,0.0324,0.013523,0.002678,0.000431,0.000823
11815000,0.0324,0.013523,0.002678,0.000431,0.000940
11816000,0.0324,0.013523,0.002678,0.000431,0.000823
11817000,0.0324,0.013523,0.002678,0.000431,0.000823
11818000,0.0324,0.013523,0.002678,0.000431,0.000940
11819000,0.0324,0.013523,0.002678,0.000431,0.000940
11820000,0.0324,0.013523,0.002678,0.000431,0.000823
11821000,0.0324,0.013523,0.002678,0.000431,0.000823
11822000,0.0324,0.013523,0.002678,0.000431,0.000940
11823000,0.0324,0.013523,0.002678,0.000431,0.000940
11824000,0.0324,0.013523,0.002678,0.000431,0.000823
11825000,0.0324,0.013523,0.002678,0.000431,0.000823
11826000,0.0324,0.013523,0.002678,0.000431,0.000940
11827000,0.0324,0.013523,0.002678,0.000431,0.000823
11828000,0.0324,0.013523,0.002678,0.000431,0.000940
11829000,0.0324,0.013523,0.002678,0.000431,0.000823
11830000,0.0324,0.013523,0.002678,0.000431,0.000940
11831000,0.0324,0.013523,0.002678,0.000431,0.000823
11832000,0.0324,0.013523,0.002678,0.000431,0.000823
11833000,0.0324,0.013523,0.002678,0.000431,0.000940
11834000,0.0324,0.013523,0.002678,0.000431,0.000940
11835000,0.0324,0.013523,0.002678,0.000431,0.000823
11836000,0.0324,0.013523,0.002678,0.000431,0.000823
11837000,0.0324,0.013523,0.002678,0.000431,0.000940
11838000,0.0324,0.013523,0.002678,0.000431,0.000940
11839000,0.0324,0.013523,0.002678,0.000431,0.000705
11840000,0.0324,0.013523,0.002678,0.000431,0.000940
11841000,0.0324,0.013523,0.002678,0.000431,0.000940
11842000,0.0324,0.013523,0.002678,0.000431,0.000940
11843000,0.0324,0.013523,0.002678,0.000431,0.000705
11844000,0.0324,0.013523,0.002678,0.000431,0.000940
11845000,0.0324,0.013523,0.002678,0.000431,0.000940
11846000,0.0324,0.013523,0.002678,0.000431,0.000823
11847000,0.0324,0.013523,0.002678,0.000431,0.000823
11848000,0.0324,0.013523,0.002678,0.000431,0.000940
11849000,0.0324,0.013523,0.002678,0.000431,0.000940
11850000,0.0324,0.013523,0.002678,0.000431,0.000823
11851000,0.0324,0.013523,0.002678,0.000431,0.000823
11852000,0.0324,0.013523,0.002678,0.000431,0.000940
11853000,0.0324,0.013523,0.002678,0.000431,0.000823
11854000,0.0324,0.013523,0.002678,0.000431,0.000940
11855000,0.0324,0.013523,0.002678,0.000431,0.000823
11856000,0.0324,0.013523,0.002678,0.000431,0.000940
11857000,0.0324,0.013523,0.002678,0.000431,0.000823
11858000,0.0324,0.013523,0.002678,0.000431,0.000823
11859000,0.0324,0.013523,0.002678,0.000431,0.000940
11860000,0.0324,0.013523,0.002678,0.000431,0.000940
11861000,0.0324,0.013523,0.002678,0.000431,0.000940
11862000,0.0324,0.013523,0.002678,0.000431,0.000705
11863000,0.0324,0.013523,0.002678,0.000431,0.000940
11864000,0.0324,0.013523,0.002678,0.000431,0.000940
11865000,0.0324,0.013523,0.002678,0.000431,0.000823
11866000,0.0324,0.013523,0.002678,0.000431,0.000823
11867000,0.0324,0.013523,0.002678,0.000431,0.000940
11868000,0.0324,0.013523,0.002678,0.000431,0.000823
11869000,0.0324,0.013523,0.002678,0.000431,0.000940
11870000,0.0324,0.013523,0.002678,0.000431,0.000823
11871000,0.0324,0.013523,0.002678,0.000431,0.000940
11872000,0.0324,0.013523,0.002678,0.000431,0.000940
11873000,0.0324,0.013523,0.002678,0.000431,0.000940
11874000,0.0324,0.013523,0.002678,0.000431,0.000705
11875000,0.0324,0.013523,0.002678,0.000431,0.000940
11876000,0.0324,0.013523,0.002678,0.000431,0.000940
11877000,0.0324,0.013523,0.002678,0.000431,0.000940
11878000,0.0324,0.013523,0.002678,0.000431,0.000823
11879000,0.0324,0.013523,0.002678,0.000431,0.000823
11880000,0.0324,0.013523,0.002678,0.000431,0.000940
11881000,0.0324,0.013523,0.002678,0.000431,0.000823
11882000,0.0324,0.013523,0.002678,0.000431,0.000940
11883000,0.0324,0.013523,0.002678,0.000431,0.000823
11884000,0.0324,0.013523,0.002678,0.000431,0.000940
11885000,0.0324,0.013523,0.002678,0.000431,0.000823
11886000,0.0324,0.013523,0.002678,0.000431,0.000823
11887000,0.0324,0.013523,0.002678,0.000431,0.000940
11888000,0.0324,0.013523,0.002678,0.000431,0.000940
11889000,0.0324,0.013523,0.002678,0.000431,0.000823
11890000,0.0324,0.013523,0.002678,0.000431,0.000823
11891000,0.0324,0.013523,0.002678,0.000431,0.000940
11892000,0.0324,0.013523,0.002678,0.000431,0.000940
11893000,0.0324,0.013523,0.002678,0.000431,0.000705
11894000,0.0324,0.013523,0.002678,0.000431,0.000940
11895000,0.0324,0.013523,0.002678,0.000431,0.000940
11896000,0.0324,0.013523,0.002678,0.000431,0.000940
11897000,0.0324,0.013523,0.002678,0.000431,0.000705
11898000,0.0324,0.013523,0.002678,0.000431,0.000940
11899000,0.0324,0.013523,0.002678,0.000431,0.000940
11900000,0.0324,0.013523,0.002678,0.000431,0.000823
11901000,0.0324,0.013523,0.002678,0.000431,0.000823
11902000,0.0324,0.013523,0.002678,0.000431,0.000940
11903000,0.0324,0.013523,0.002678,0.000431,0.004349
11904000,0.0324,0.013523,0.002678,0.000431,0.430741
11905000,0.0324,0.013523,0.002678,0.000431,0.621019
11906000,0.0324,0.013523,0.002678,0.000431,0.132924
11907000,0.0324,0.013523,0.002678,0.000431,0.132689
11908000,0.0324,0.013523,0.002678,0.000431,0.180876
11909000,0.0324,0.013523,0.002678,0.000431,0.553793
11910000,0.0324,0.013523,0.002678,0.000431,0.250805
11911000,0.0324,0.013523,0.002678,0.000431,0.289707
11912000,0.0324,0.013523,0.002678,0.000431,0.242226
11913000,0.0324,0.013523,0.002678,0.000431,0.143619
11914000,0.0324,0.013523,0.002678,0.000431,0.159486
11915000,0.0324,0.013523,0.002678,0.000431,0.134100
11916000,0.0324,0.013523,0.002678,0.000431,0.452836
11917000,0.0324,0.013523,0.002678,0.000431,0.029265
11918000,0.0324,0.013523,0.002678,0.000431,0.019392
11919000,0.0324,0.013523,0.002678,0.000431,0.016924
11920000,0.0324,0.013523,0.002678,0.000431,0.011635
11921000,0.0324,0.013523,0.002678,0.000431,0.007874
11922000,0.0324,0.013523,0.002678,0.000431,0.010107
11923000,0.0324,0.013523,0.002678,0.000431,0.006934
11924000,0.0324,0.013523,0.002678,0.000431,0.004349
11925000,0.0324,0.013523,0.002678,0.000431,0.004701
11926000,0.0324,0.013523,0.002678,0.000431,0.005171
11927000,0.0324,0.013523,0.002678,0.000431,0.003761
11928000,0.0324,0.013523,0.002678,0.000431,0.003526
11929000,0.0324,0.013523,0.002678,0.000431,0.003408
11930000,0.0324,0.013523,0.002678,0.000431,0.003643
11931000,0.0324,0.013523,0.002678,0.000431,0.003408
11932000,0.0324,0.013523,0.002678,0.000431,0.004701
11933000,0.0324,0.013523,0.002678,0.000431,0.002586
11934000,0.0324,0.013523,0.002678,0.000431,0.003408
11935000,0.0324,0.013523,0.002678,0.000431,0.002938
11936000,0.0324,0.013523,0.002678,0.000431,0.001645
11937000,0.0324,0.013523,0.002678,0.000431,0.001880
11938000,0.0324,0.013523,0.002678,0.000431,0.001763
11939000,0.0324,0.013523,0.002678,0.000431,0.001763
11940000,0.0324,0.013523,0.002678,0.000431,0.001763
11941000,0.0324,0.013523,0.002678,0.000431,0.001645
11942000,0.0324,0.013523,0.002678,0.000431,0.001880
11943000,0.0324,0.013523,0.002678,0.000431,0.001645
11944000,0.0324,0.013523,0.002678,0.000431,0.001880
11945000,0.0324,0.013523,0.002678,0.000431,0.001645
11946000,0.0324,0.013523,0.002678,0.000431,0.001763
11947000,0.0324,0.013523,0.002678,0.000431,0.001763
11948000,0.0324,0.013523,0.002678,0.000431,0.001880
11949000,0.0324,0.013523,0.002678,0.000431,0.001645
11950000,0.0324,0.013523,0.002678,0.000431,0.001763
11951000,0.0324,0.013523,0.002678,0.000431,0.003408
11952000,0.0324,0.013523,0.002678,0.000431,0.000940
11953000,0.0324,0.013523,0.002678,0.000431,0.000940
11954000,0.0324,0.013523,0.002678,0.000431,0.000940
11955000,0.0324,0.013523,0.002678,0.000431,0.000823
11956000,0.0324,0.013523,0.002678,0.000431,0.000823
11957000,0.0324,0.013523,0.002678,0.000431,0.000940
11958000,0.0324,0.013523,0.002678,0.000431,0.000940
11959000,0.0324,0.013523,0.002678,0.000431,0.000705
11960000,0.0324,0.013523,0.002678,0.000431,0.000940
11961000,0.0324,0.013523,0.002678,0.000431,0.000940
11962000,0.0324,0.013523,0.002678,0.000431,0.000940
11963000,0.0324,0.013523,0.002678,0.000431,0.000705
11964000,0.0324,0.013523,0.002678,0.000431,0.000940
11965000,0.0324,0.013523,0.002678,0.000431,0.000940
11966000,0.0324,0.013523,0.002678,0.000431,0.000823
11967000,0.0324,0.013523,0.002678,0.000431,0.000940
11968000,0.0324,0.013523,0.002678,0.000431,0.000823
11969000,0.0324,0.013523,0.002678,0.000431,0.000940
11970000,0.0324,0.013523,0.002678,0.000431,0.000823
11971000,0.0324,0.013523,0.002678,0.000431,0.000823
11972000,0.0324,0.013523,0.002678,0.000431,0.000940
11973000,0.0324,0.013523,0.002678,0.000431,0.000823
11974000,0.0324,0.013523,0.002678,0.000431,0.000940
11975000,0.0324,0.013523,0.002678,0.000431,0.000823
11976000,0.0324,0.013523,0.002678,0.000431,0.000940
11977000,0.0324,0.013523,0.002678,0.000431,0.000940
11978000,0.0324,0.013523,0.002678,0.000431,0.000705
11979000,0.0324,0.013523,0.002678,0.000431,0.000940
11980000,0.0324,0.013523,0.002678,0.000431,0.000940
11981000,0.0324,0.013523,0.002678,0.000431,0.000940
11982000,0.0324,0.013523,0.002678,0.000431,0.000705
11983000,0.0324,0.013523,0.002678,0.000431,0.000940
11984000,0.0324,0.013523,0.002678,0.000431,0.000940
11985000,0.0324,0.013523,0.002678,0.000431,0.000823
11986000,0.0324,0.013523,0.002678,0.000431,0.000823
11987000,0.0324,0.013523,0.002678,0.000431,0.000940
11988000,0.0324,0.013523,0.002678,0.000431,0.000823
11989000,0.0324,0.013523,0.002678,0.000431,0.000940
11990000,0.0324,0.013523,0.002678,0.000431,0.000823
11991000,0.0324,0.013523,0.002678,0.000431,0.000940
11992000,0.0324,0.013523,0.002678,0.000431,0.000823
11993000,0.0324,0.013523,0.002678,0.000431,0.000823
11994000,0.0324,0.013523,0.002678,0.000431,0.000940
11995000,0.0324,0.013523,0.002678,0.000431,0.000940
11996000,0.0324,0.013523,0.002678,0.000431,0.000823
11997000,0.0324,0.013523,0.002678,0.000431,0.000823
11998000,0.0324,0.013523,0.002678,0.000431,0.000940
11999000,0.0324,0.013523,0.002678,0.000431,0.000940
