Cycle,Area(mm^2),PeakDynamic(W),SubthresholdLeakage(W),GateLeakage(W),RunTimeDynamic(W)
109000000,0.0324,0.013523,0.002678,0.000431,0.001410
109001000,0.0324,0.013523,0.002678,0.000431,0.001880
109002000,0.0324,0.013523,0.002678,0.000431,0.001880
109003000,0.0324,0.013523,0.002678,0.000431,0.001410
109004000,0.0324,0.013523,0.002678,0.000431,0.001880
109005000,0.0324,0.013523,0.002678,0.000431,0.001410
109006000,0.0324,0.013523,0.002678,0.000431,0.001880
109007000,0.0324,0.013523,0.002678,0.000431,0.001645
109008000,0.0324,0.013523,0.002678,0.000431,0.001645
109009000,0.0324,0.013523,0.002678,0.000431,0.001645
109010000,0.0324,0.013523,0.002678,0.000431,0.001645
109011000,0.0324,0.013523,0.002678,0.000431,0.001880
109012000,0.0324,0.013523,0.002678,0.000431,0.001410
109013000,0.0324,0.013523,0.002678,0.000431,0.001880
109014000,0.0324,0.013523,0.002678,0.000431,0.001645
109015000,0.0324,0.013523,0.002678,0.000431,0.001410
109016000,0.0324,0.013523,0.002678,0.000431,0.001880
109017000,0.0324,0.013523,0.002678,0.000431,0.001645
109018000,0.0324,0.013523,0.002678,0.000431,0.001645
109019000,0.0324,0.013523,0.002678,0.000431,0.001645
109020000,0.0324,0.013523,0.002678,0.000431,0.001645
109021000,0.0324,0.013523,0.002678,0.000431,0.001645
109022000,0.0324,0.013523,0.002678,0.000431,0.001880
109023000,0.0324,0.013523,0.002678,0.000431,0.001410
109024000,0.0324,0.013523,0.002678,0.000431,0.001880
109025000,0.0324,0.013523,0.002678,0.000431,0.001410
109026000,0.0324,0.013523,0.002678,0.000431,0.001880
109027000,0.0324,0.013523,0.002678,0.000431,0.001880
109028000,0.0324,0.013523,0.002678,0.000431,0.001410
109029000,0.0324,0.013523,0.002678,0.000431,0.001880
109030000,0.0324,0.013523,0.002678,0.000431,0.001410
109031000,0.0324,0.013523,0.002678,0.000431,0.001880
109032000,0.0324,0.013523,0.002678,0.000431,0.001645
109033000,0.0324,0.013523,0.002678,0.000431,0.001645
109034000,0.0324,0.013523,0.002678,0.000431,0.001880
109035000,0.0324,0.013523,0.002678,0.000431,0.001410
109036000,0.0324,0.013523,0.002678,0.000431,0.001880
109037000,0.0324,0.013523,0.002678,0.000431,0.001645
109038000,0.0324,0.013523,0.002678,0.000431,0.001645
109039000,0.0324,0.013523,0.002678,0.000431,0.001645
109040000,0.0324,0.013523,0.002678,0.000431,0.001645
109041000,0.0324,0.013523,0.002678,0.000431,0.001645
109042000,0.0324,0.013523,0.002678,0.000431,0.001645
109043000,0.0324,0.013523,0.002678,0.000431,0.001880
109044000,0.0324,0.013523,0.002678,0.000431,0.001410
109045000,0.0324,0.013523,0.002678,0.000431,0.001880
109046000,0.0324,0.013523,0.002678,0.000431,0.001645
109047000,0.0324,0.013523,0.002678,0.000431,0.001645
109048000,0.0324,0.013523,0.002678,0.000431,0.001410
109049000,0.0324,0.013523,0.002678,0.000431,0.001880
109050000,0.0324,0.013523,0.002678,0.000431,0.001880
109051000,0.0324,0.013523,0.002678,0.000431,0.001410
109052000,0.0324,0.013523,0.002678,0.000431,0.001880
109053000,0.0324,0.013523,0.002678,0.000431,0.001410
109054000,0.0324,0.013523,0.002678,0.000431,0.001880
109055000,0.0324,0.013523,0.002678,0.000431,0.001645
109056000,0.0324,0.013523,0.002678,0.000431,0.001645
109057000,0.0324,0.013523,0.002678,0.000431,0.001645
109058000,0.0324,0.013523,0.002678,0.000431,0.001645
109059000,0.0324,0.013523,0.002678,0.000431,0.001880
109060000,0.0324,0.013523,0.002678,0.000431,0.001645
109061000,0.0324,0.013523,0.002678,0.000431,0.001645
109062000,0.0324,0.013523,0.002678,0.000431,0.001645
109063000,0.0324,0.013523,0.002678,0.000431,0.001645
109064000,0.0324,0.013523,0.002678,0.000431,0.001645
109065000,0.0324,0.013523,0.002678,0.000431,0.001645
109066000,0.0324,0.013523,0.002678,0.000431,0.001645
109067000,0.0324,0.013523,0.002678,0.000431,0.001645
109068000,0.0324,0.013523,0.002678,0.000431,0.001645
109069000,0.0324,0.013523,0.002678,0.000431,0.001645
109070000,0.0324,0.013523,0.002678,0.000431,0.001880
109071000,0.0324,0.013523,0.002678,0.000431,0.001645
109072000,0.0324,0.013523,0.002678,0.000431,0.001645
109073000,0.0324,0.013523,0.002678,0.000431,0.001410
109074000,0.0324,0.013523,0.002678,0.000431,0.001880
109075000,0.0324,0.013523,0.002678,0.000431,0.001880
109076000,0.0324,0.013523,0.002678,0.000431,0.001410
109077000,0.0324,0.013523,0.002678,0.000431,0.001880
109078000,0.0324,0.013523,0.002678,0.000431,0.001410
109079000,0.0324,0.013523,0.002678,0.000431,0.001880
109080000,0.0324,0.013523,0.002678,0.000431,0.001645
109081000,0.0324,0.013523,0.002678,0.000431,0.001645
109082000,0.0324,0.013523,0.002678,0.000431,0.001880
109083000,0.0324,0.013523,0.002678,0.000431,0.001410
109084000,0.0324,0.013523,0.002678,0.000431,0.001880
109085000,0.0324,0.013523,0.002678,0.000431,0.001645
109086000,0.0324,0.013523,0.002678,0.000431,0.001645
109087000,0.0324,0.013523,0.002678,0.000431,0.001645
109088000,0.0324,0.013523,0.002678,0.000431,0.001645
109089000,0.0324,0.013523,0.002678,0.000431,0.001645
109090000,0.0324,0.013523,0.002678,0.000431,0.001645
109091000,0.0324,0.013523,0.002678,0.000431,0.001880
109092000,0.0324,0.013523,0.002678,0.000431,0.001410
109093000,0.0324,0.013523,0.002678,0.000431,0.001880
109094000,0.0324,0.013523,0.002678,0.000431,0.001645
109095000,0.0324,0.013523,0.002678,0.000431,0.001645
109096000,0.0324,0.013523,0.002678,0.000431,0.001410
109097000,0.0324,0.013523,0.002678,0.000431,0.001880
109098000,0.0324,0.013523,0.002678,0.000431,0.001880
109099000,0.0324,0.013523,0.002678,0.000431,0.001410
109100000,0.0324,0.013523,0.002678,0.000431,0.001880
109101000,0.0324,0.013523,0.002678,0.000431,0.001410
109102000,0.0324,0.013523,0.002678,0.000431,0.001880
109103000,0.0324,0.013523,0.002678,0.000431,0.001645
109104000,0.0324,0.013523,0.002678,0.000431,0.001645
109105000,0.0324,0.013523,0.002678,0.000431,0.001645
109106000,0.0324,0.013523,0.002678,0.000431,0.001645
109107000,0.0324,0.013523,0.002678,0.000431,0.001880
109108000,0.0324,0.013523,0.002678,0.000431,0.001410
109109000,0.0324,0.013523,0.002678,0.000431,0.001880
109110000,0.0324,0.013523,0.002678,0.000431,0.001645
109111000,0.0324,0.013523,0.002678,0.000431,0.001645
109112000,0.0324,0.013523,0.002678,0.000431,0.001645
109113000,0.0324,0.013523,0.002678,0.000431,0.001645
109114000,0.0324,0.013523,0.002678,0.000431,0.001880
109115000,0.0324,0.013523,0.002678,0.000431,0.001410
109116000,0.0324,0.013523,0.002678,0.000431,0.001645
109117000,0.0324,0.013523,0.002678,0.000431,0.001880
109118000,0.0324,0.013523,0.002678,0.000431,0.001645
109119000,0.0324,0.013523,0.002678,0.000431,0.001645
109120000,0.0324,0.013523,0.002678,0.000431,0.001645
109121000,0.0324,0.013523,0.002678,0.000431,0.001645
109122000,0.0324,0.013523,0.002678,0.000431,0.001645
109123000,0.0324,0.013523,0.002678,0.000431,0.001880
109124000,0.0324,0.013523,0.002678,0.000431,0.001645
109125000,0.0324,0.013523,0.002678,0.000431,0.001645
109126000,0.0324,0.013523,0.002678,0.000431,0.001410
109127000,0.0324,0.013523,0.002678,0.000431,0.001880
109128000,0.0324,0.013523,0.002678,0.000431,0.001880
109129000,0.0324,0.013523,0.002678,0.000431,0.001410
109130000,0.0324,0.013523,0.002678,0.000431,0.001880
109131000,0.0324,0.013523,0.002678,0.000431,0.001410
109132000,0.0324,0.013523,0.002678,0.000431,0.001880
109133000,0.0324,0.013523,0.002678,0.000431,0.001645
109134000,0.0324,0.013523,0.002678,0.000431,0.001645
109135000,0.0324,0.013523,0.002678,0.000431,0.001880
109136000,0.0324,0.013523,0.002678,0.000431,0.001410
109137000,0.0324,0.013523,0.002678,0.000431,0.001880
109138000,0.0324,0.013523,0.002678,0.000431,0.001645
109139000,0.0324,0.013523,0.002678,0.000431,0.001645
109140000,0.0324,0.013523,0.002678,0.000431,0.001645
109141000,0.0324,0.013523,0.002678,0.000431,0.001645
109142000,0.0324,0.013523,0.002678,0.000431,0.001645
109143000,0.0324,0.013523,0.002678,0.000431,0.001645
109144000,0.0324,0.013523,0.002678,0.000431,0.001880
109145000,0.0324,0.013523,0.002678,0.000431,0.001645
109146000,0.0324,0.013523,0.002678,0.000431,0.001645
109147000,0.0324,0.013523,0.002678,0.000431,0.001645
109148000,0.0324,0.013523,0.002678,0.000431,0.001645
109149000,0.0324,0.013523,0.002678,0.000431,0.001645
109150000,0.0324,0.013523,0.002678,0.000431,0.001645
109151000,0.0324,0.013523,0.002678,0.000431,0.001880
109152000,0.0324,0.013523,0.002678,0.000431,0.001410
109153000,0.0324,0.013523,0.002678,0.000431,0.001880
109154000,0.0324,0.013523,0.002678,0.000431,0.001410
109155000,0.0324,0.013523,0.002678,0.000431,0.001880
109156000,0.0324,0.013523,0.002678,0.000431,0.001880
109157000,0.0324,0.013523,0.002678,0.000431,0.001410
109158000,0.0324,0.013523,0.002678,0.000431,0.001880
109159000,0.0324,0.013523,0.002678,0.000431,0.001410
109160000,0.0324,0.013523,0.002678,0.000431,0.001880
109161000,0.0324,0.013523,0.002678,0.000431,0.001645
109162000,0.0324,0.013523,0.002678,0.000431,0.001645
109163000,0.0324,0.013523,0.002678,0.000431,0.001880
109164000,0.0324,0.013523,0.002678,0.000431,0.001410
109165000,0.0324,0.013523,0.002678,0.000431,0.001880
109166000,0.0324,0.013523,0.002678,0.000431,0.001410
109167000,0.0324,0.013523,0.002678,0.000431,0.001880
109168000,0.0324,0.013523,0.002678,0.000431,0.001645
109169000,0.0324,0.013523,0.002678,0.000431,0.001645
109170000,0.0324,0.013523,0.002678,0.000431,0.001645
109171000,0.0324,0.013523,0.002678,0.000431,0.001645
109172000,0.0324,0.013523,0.002678,0.000431,0.001880
109173000,0.0324,0.013523,0.002678,0.000431,0.001410
109174000,0.0324,0.013523,0.002678,0.000431,0.001645
109175000,0.0324,0.013523,0.002678,0.000431,0.001880
109176000,0.0324,0.013523,0.002678,0.000431,0.001645
109177000,0.0324,0.013523,0.002678,0.000431,0.001645
109178000,0.0324,0.013523,0.002678,0.000431,0.001645
109179000,0.0324,0.013523,0.002678,0.000431,0.015044
109180000,0.0324,0.013523,0.002678,0.000431,0.474696
109181000,0.0324,0.013523,0.002678,0.000431,0.620196
109182000,0.0324,0.013523,0.002678,0.000431,0.133982
109183000,0.0324,0.013523,0.002678,0.000431,0.131867
109184000,0.0324,0.013523,0.002678,0.000431,0.345768
109185000,0.0324,0.013523,0.002678,0.000431,0.508544
109186000,0.0324,0.013523,0.002678,0.000431,0.261265
109187000,0.0324,0.013523,0.002678,0.000431,0.326728
109188000,0.0324,0.013523,0.002678,0.000431,0.136450
109189000,0.0324,0.013523,0.002678,0.000431,0.147733
109190000,0.0324,0.013523,0.002678,0.000431,0.111769
109191000,0.0324,0.013523,0.002678,0.000431,0.391721
109192000,0.0324,0.013523,0.002678,0.000431,0.149378
109193000,0.0324,0.013523,0.002678,0.000431,0.010578
109194000,0.0324,0.013523,0.002678,0.000431,0.009402
109195000,0.0324,0.013523,0.002678,0.000431,0.006817
109196000,0.0324,0.013523,0.002678,0.000431,0.006229
109197000,0.0324,0.013523,0.002678,0.000431,0.006111
109198000,0.0324,0.013523,0.002678,0.000431,0.002233
109199000,0.0324,0.013523,0.002678,0.000431,0.001880
109200000,0.0324,0.013523,0.002678,0.000431,0.001763
109201000,0.0324,0.013523,0.002678,0.000431,0.002703
109202000,0.0324,0.013523,0.002678,0.000431,0.001998
109203000,0.0324,0.013523,0.002678,0.000431,0.000823
109204000,0.0324,0.013523,0.002678,0.000431,0.000940
109205000,0.0324,0.013523,0.002678,0.000431,0.000823
109206000,0.0324,0.013523,0.002678,0.000431,0.000940
109207000,0.0324,0.013523,0.002678,0.000431,0.000823
109208000,0.0324,0.013523,0.002678,0.000431,0.000940
109209000,0.0324,0.013523,0.002678,0.000431,0.000823
109210000,0.0324,0.013523,0.002678,0.000431,0.000823
109211000,0.0324,0.013523,0.002678,0.000431,0.000940
109212000,0.0324,0.013523,0.002678,0.000431,0.000940
109213000,0.0324,0.013523,0.002678,0.000431,0.000823
109214000,0.0324,0.013523,0.002678,0.000431,0.000823
109215000,0.0324,0.013523,0.002678,0.000431,0.000940
109216000,0.0324,0.013523,0.002678,0.000431,0.000940
109217000,0.0324,0.013523,0.002678,0.000431,0.000705
109218000,0.0324,0.013523,0.002678,0.000431,0.000940
109219000,0.0324,0.013523,0.002678,0.000431,0.000940
109220000,0.0324,0.013523,0.002678,0.000431,0.000940
109221000,0.0324,0.013523,0.002678,0.000431,0.000705
109222000,0.0324,0.013523,0.002678,0.000431,0.000940
109223000,0.0324,0.013523,0.002678,0.000431,0.000940
109224000,0.0324,0.013523,0.002678,0.000431,0.000823
109225000,0.0324,0.013523,0.002678,0.000431,0.000940
109226000,0.0324,0.013523,0.002678,0.000431,0.000823
109227000,0.0324,0.013523,0.002678,0.000431,0.000940
109228000,0.0324,0.013523,0.002678,0.000431,0.000823
109229000,0.0324,0.013523,0.002678,0.000431,0.000823
109230000,0.0324,0.013523,0.002678,0.000431,0.000940
109231000,0.0324,0.013523,0.002678,0.000431,0.000940
109232000,0.0324,0.013523,0.002678,0.000431,0.000823
109233000,0.0324,0.013523,0.002678,0.000431,0.000823
109234000,0.0324,0.013523,0.002678,0.000431,0.000940
109235000,0.0324,0.013523,0.002678,0.000431,0.000940
109236000,0.0324,0.013523,0.002678,0.000431,0.000705
109237000,0.0324,0.013523,0.002678,0.000431,0.000940
109238000,0.0324,0.013523,0.002678,0.000431,0.000940
109239000,0.0324,0.013523,0.002678,0.000431,0.000940
109240000,0.0324,0.013523,0.002678,0.000431,0.000705
109241000,0.0324,0.013523,0.002678,0.000431,0.000940
109242000,0.0324,0.013523,0.002678,0.000431,0.000940
109243000,0.0324,0.013523,0.002678,0.000431,0.000823
109244000,0.0324,0.013523,0.002678,0.000431,0.000823
109245000,0.0324,0.013523,0.002678,0.000431,0.000940
109246000,0.0324,0.013523,0.002678,0.000431,0.000823
109247000,0.0324,0.013523,0.002678,0.000431,0.000940
109248000,0.0324,0.013523,0.002678,0.000431,0.000823
109249000,0.0324,0.013523,0.002678,0.000431,0.000940
109250000,0.0324,0.013523,0.002678,0.000431,0.000823
109251000,0.0324,0.013523,0.002678,0.000431,0.000823
109252000,0.0324,0.013523,0.002678,0.000431,0.000940
109253000,0.0324,0.013523,0.002678,0.000431,0.000940
109254000,0.0324,0.013523,0.002678,0.000431,0.000823
109255000,0.0324,0.013523,0.002678,0.000431,0.000823
109256000,0.0324,0.013523,0.002678,0.000431,0.000940
109257000,0.0324,0.013523,0.002678,0.000431,0.000940
109258000,0.0324,0.013523,0.002678,0.000431,0.000823
109259000,0.0324,0.013523,0.002678,0.000431,0.000823
109260000,0.0324,0.013523,0.002678,0.000431,0.000940
109261000,0.0324,0.013523,0.002678,0.000431,0.000940
109262000,0.0324,0.013523,0.002678,0.000431,0.000823
109263000,0.0324,0.013523,0.002678,0.000431,0.000823
109264000,0.0324,0.013523,0.002678,0.000431,0.000940
109265000,0.0324,0.013523,0.002678,0.000431,0.000823
109266000,0.0324,0.013523,0.002678,0.000431,0.000940
109267000,0.0324,0.013523,0.002678,0.000431,0.000823
109268000,0.0324,0.013523,0.002678,0.000431,0.000940
109269000,0.0324,0.013523,0.002678,0.000431,0.000823
109270000,0.0324,0.013523,0.002678,0.000431,0.000823
109271000,0.0324,0.013523,0.002678,0.000431,0.000940
109272000,0.0324,0.013523,0.002678,0.000431,0.000940
109273000,0.0324,0.013523,0.002678,0.000431,0.000823
109274000,0.0324,0.013523,0.002678,0.000431,0.000823
109275000,0.0324,0.013523,0.002678,0.000431,0.000940
109276000,0.0324,0.013523,0.002678,0.000431,0.000940
109277000,0.0324,0.013523,0.002678,0.000431,0.000705
109278000,0.0324,0.013523,0.002678,0.000431,0.000940
109279000,0.0324,0.013523,0.002678,0.000431,0.000940
109280000,0.0324,0.013523,0.002678,0.000431,0.000940
109281000,0.0324,0.013523,0.002678,0.000431,0.000705
109282000,0.0324,0.013523,0.002678,0.000431,0.000940
109283000,0.0324,0.013523,0.002678,0.000431,0.000940
109284000,0.0324,0.013523,0.002678,0.000431,0.000823
109285000,0.0324,0.013523,0.002678,0.000431,0.000940
109286000,0.0324,0.013523,0.002678,0.000431,0.000823
109287000,0.0324,0.013523,0.002678,0.000431,0.000940
109288000,0.0324,0.013523,0.002678,0.000431,0.000823
109289000,0.0324,0.013523,0.002678,0.000431,0.000823
109290000,0.0324,0.013523,0.002678,0.000431,0.000940
109291000,0.0324,0.013523,0.002678,0.000431,0.000940
109292000,0.0324,0.013523,0.002678,0.000431,0.000705
109293000,0.0324,0.013523,0.002678,0.000431,0.000940
109294000,0.0324,0.013523,0.002678,0.000431,0.000940
109295000,0.0324,0.013523,0.002678,0.000431,0.000940
109296000,0.0324,0.013523,0.002678,0.000431,0.000705
109297000,0.0324,0.013523,0.002678,0.000431,0.000940
109298000,0.0324,0.013523,0.002678,0.000431,0.000940
109299000,0.0324,0.013523,0.002678,0.000431,0.000823
109300000,0.0324,0.013523,0.002678,0.000431,0.000823
109301000,0.0324,0.013523,0.002678,0.000431,0.000940
109302000,0.0324,0.013523,0.002678,0.000431,0.000940
109303000,0.0324,0.013523,0.002678,0.000431,0.000823
109304000,0.0324,0.013523,0.002678,0.000431,0.000823
109305000,0.0324,0.013523,0.002678,0.000431,0.000940
109306000,0.0324,0.013523,0.002678,0.000431,0.000823
109307000,0.0324,0.013523,0.002678,0.000431,0.001058
109308000,0.0324,0.013523,0.002678,0.000431,0.198388
109309000,0.0324,0.013523,0.002678,0.000431,0.565428
109310000,0.0324,0.013523,0.002678,0.000431,0.334015
109311000,0.0324,0.013523,0.002678,0.000431,0.131161
109312000,0.0324,0.013523,0.002678,0.000431,0.131632
109313000,0.0324,0.013523,0.002678,0.000431,0.577181
109314000,0.0324,0.013523,0.002678,0.000431,0.255741
109315000,0.0324,0.013523,0.002678,0.000431,0.267259
109316000,0.0324,0.013523,0.002678,0.000431,0.300285
109317000,0.0324,0.013523,0.002678,0.000431,0.139388
109318000,0.0324,0.013523,0.002678,0.000431,0.138918
109319000,0.0324,0.013523,0.002678,0.000431,0.115413
109320000,0.0324,0.013523,0.002678,0.000431,0.305691
109321000,0.0324,0.013523,0.002678,0.000431,0.252215
109322000,0.0324,0.013523,0.002678,0.000431,0.009050
109323000,0.0324,0.013523,0.002678,0.000431,0.003996
109324000,0.0324,0.013523,0.002678,0.000431,0.004349
109325000,0.0324,0.013523,0.002678,0.000431,0.004113
109326000,0.0324,0.013523,0.002678,0.000431,0.005876
109327000,0.0324,0.013523,0.002678,0.000431,0.003643
109328000,0.0324,0.013523,0.002678,0.000431,0.003291
109329000,0.0324,0.013523,0.002678,0.000431,0.003761
109330000,0.0324,0.013523,0.002678,0.000431,0.004231
109331000,0.0324,0.013523,0.002678,0.000431,0.003526
109332000,0.0324,0.013523,0.002678,0.000431,0.002586
109333000,0.0324,0.013523,0.002678,0.000431,0.002468
109334000,0.0324,0.013523,0.002678,0.000431,0.003291
109335000,0.0324,0.013523,0.002678,0.000431,0.001528
109336000,0.0324,0.013523,0.002678,0.000431,0.001763
109337000,0.0324,0.013523,0.002678,0.000431,0.001645
109338000,0.0324,0.013523,0.002678,0.000431,0.001645
109339000,0.0324,0.013523,0.002678,0.000431,0.001763
109340000,0.0324,0.013523,0.002678,0.000431,0.001528
109341000,0.0324,0.013523,0.002678,0.000431,0.001880
109342000,0.0324,0.013523,0.002678,0.000431,0.001528
109343000,0.0324,0.013523,0.002678,0.000431,0.001763
109344000,0.0324,0.013523,0.002678,0.000431,0.001528
109345000,0.0324,0.013523,0.002678,0.000431,0.001763
109346000,0.0324,0.013523,0.002678,0.000431,0.001880
109347000,0.0324,0.013523,0.002678,0.000431,0.001410
109348000,0.0324,0.013523,0.002678,0.000431,0.001880
109349000,0.0324,0.013523,0.002678,0.000431,0.001528
109350000,0.0324,0.013523,0.002678,0.000431,0.001645
109351000,0.0324,0.013523,0.002678,0.000431,0.001763
109352000,0.0324,0.013523,0.002678,0.000431,0.001645
109353000,0.0324,0.013523,0.002678,0.000431,0.001763
109354000,0.0324,0.013523,0.002678,0.000431,0.001645
109355000,0.0324,0.013523,0.002678,0.000431,0.001645
109356000,0.0324,0.013523,0.002678,0.000431,0.001763
109357000,0.0324,0.013523,0.002678,0.000431,0.001880
109358000,0.0324,0.013523,0.002678,0.000431,0.001645
109359000,0.0324,0.013523,0.002678,0.000431,0.001763
109360000,0.0324,0.013523,0.002678,0.000431,0.001528
109361000,0.0324,0.013523,0.002678,0.000431,0.001880
109362000,0.0324,0.013523,0.002678,0.000431,0.001880
109363000,0.0324,0.013523,0.002678,0.000431,0.001410
109364000,0.0324,0.013523,0.002678,0.000431,0.001880
109365000,0.0324,0.013523,0.002678,0.000431,0.001645
109366000,0.0324,0.013523,0.002678,0.000431,0.001880
109367000,0.0324,0.013523,0.002678,0.000431,0.001528
109368000,0.0324,0.013523,0.002678,0.000431,0.001763
109369000,0.0324,0.013523,0.002678,0.000431,0.001880
109370000,0.0324,0.013523,0.002678,0.000431,0.001528
109371000,0.0324,0.013523,0.002678,0.000431,0.001763
109372000,0.0324,0.013523,0.002678,0.000431,0.001763
109373000,0.0324,0.013523,0.002678,0.000431,0.001763
109374000,0.0324,0.013523,0.002678,0.000431,0.001528
109375000,0.0324,0.013523,0.002678,0.000431,0.001763
109376000,0.0324,0.013523,0.002678,0.000431,0.001645
109377000,0.0324,0.013523,0.002678,0.000431,0.001763
109378000,0.0324,0.013523,0.002678,0.000431,0.001763
109379000,0.0324,0.013523,0.002678,0.000431,0.002351
109380000,0.0324,0.013523,0.002678,0.000431,0.001998
109381000,0.0324,0.013523,0.002678,0.000431,0.000823
109382000,0.0324,0.013523,0.002678,0.000431,0.000823
109383000,0.0324,0.013523,0.002678,0.000431,0.000940
109384000,0.0324,0.013523,0.002678,0.000431,0.000940
109385000,0.0324,0.013523,0.002678,0.000431,0.000823
109386000,0.0324,0.013523,0.002678,0.000431,0.000823
109387000,0.0324,0.013523,0.002678,0.000431,0.000940
109388000,0.0324,0.013523,0.002678,0.000431,0.000940
109389000,0.0324,0.013523,0.002678,0.000431,0.000823
109390000,0.0324,0.013523,0.002678,0.000431,0.000823
109391000,0.0324,0.013523,0.002678,0.000431,0.000940
109392000,0.0324,0.013523,0.002678,0.000431,0.000823
109393000,0.0324,0.013523,0.002678,0.000431,0.000940
109394000,0.0324,0.013523,0.002678,0.000431,0.000823
109395000,0.0324,0.013523,0.002678,0.000431,0.000940
109396000,0.0324,0.013523,0.002678,0.000431,0.000823
109397000,0.0324,0.013523,0.002678,0.000431,0.000823
109398000,0.0324,0.013523,0.002678,0.000431,0.000940
109399000,0.0324,0.013523,0.002678,0.000431,0.000940
109400000,0.0324,0.013523,0.002678,0.000431,0.000705
109401000,0.0324,0.013523,0.002678,0.000431,0.000940
109402000,0.0324,0.013523,0.002678,0.000431,0.000705
109403000,0.0324,0.013523,0.002678,0.000431,0.000940
109404000,0.0324,0.013523,0.002678,0.000431,0.000823
109405000,0.0324,0.013523,0.002678,0.000431,0.000823
109406000,0.0324,0.013523,0.002678,0.000431,0.000823
109407000,0.0324,0.013523,0.002678,0.000431,0.000823
109408000,0.0324,0.013523,0.002678,0.000431,0.000940
109409000,0.0324,0.013523,0.002678,0.000431,0.000705
109410000,0.0324,0.013523,0.002678,0.000431,0.000940
109411000,0.0324,0.013523,0.002678,0.000431,0.000940
109412000,0.0324,0.013523,0.002678,0.000431,0.000940
109413000,0.0324,0.013523,0.002678,0.000431,0.000705
109414000,0.0324,0.013523,0.002678,0.000431,0.000940
109415000,0.0324,0.013523,0.002678,0.000431,0.000940
109416000,0.0324,0.013523,0.002678,0.000431,0.000823
109417000,0.0324,0.013523,0.002678,0.000431,0.000823
109418000,0.0324,0.013523,0.002678,0.000431,0.000940
109419000,0.0324,0.013523,0.002678,0.000431,0.000940
109420000,0.0324,0.013523,0.002678,0.000431,0.000823
109421000,0.0324,0.013523,0.002678,0.000431,0.000823
109422000,0.0324,0.013523,0.002678,0.000431,0.000940
109423000,0.0324,0.013523,0.002678,0.000431,0.000823
109424000,0.0324,0.013523,0.002678,0.000431,0.000823
109425000,0.0324,0.013523,0.002678,0.000431,0.000940
109426000,0.0324,0.013523,0.002678,0.000431,0.000940
109427000,0.0324,0.013523,0.002678,0.000431,0.000940
109428000,0.0324,0.013523,0.002678,0.000431,0.000705
109429000,0.0324,0.013523,0.002678,0.000431,0.000940
109430000,0.0324,0.013523,0.002678,0.000431,0.000940
109431000,0.0324,0.013523,0.002678,0.000431,0.000823
109432000,0.0324,0.013523,0.002678,0.000431,0.000823
109433000,0.0324,0.013523,0.002678,0.000431,0.000940
109434000,0.0324,0.013523,0.002678,0.000431,0.000940
109435000,0.0324,0.013523,0.002678,0.000431,0.000823
109436000,0.0324,0.013523,0.002678,0.000431,0.000823
109437000,0.0324,0.013523,0.002678,0.000431,0.000940
109438000,0.0324,0.013523,0.002678,0.000431,0.000823
109439000,0.0324,0.013523,0.002678,0.000431,0.000940
109440000,0.0324,0.013523,0.002678,0.000431,0.000823
109441000,0.0324,0.013523,0.002678,0.000431,0.000940
109442000,0.0324,0.013523,0.002678,0.000431,0.000823
109443000,0.0324,0.013523,0.002678,0.000431,0.000823
109444000,0.0324,0.013523,0.002678,0.000431,0.000940
109445000,0.0324,0.013523,0.002678,0.000431,0.000940
109446000,0.0324,0.013523,0.002678,0.000431,0.000823
109447000,0.0324,0.013523,0.002678,0.000431,0.000823
109448000,0.0324,0.013523,0.002678,0.000431,0.001645
109449000,0.0324,0.013523,0.002678,0.000431,0.302400
109450000,0.0324,0.013523,0.002678,0.000431,0.621254
109451000,0.0324,0.013523,0.002678,0.000431,0.182169
109452000,0.0324,0.013523,0.002678,0.000431,0.131161
109453000,0.0324,0.013523,0.002678,0.000431,0.133512
109454000,0.0324,0.013523,0.002678,0.000431,0.602920
109455000,0.0324,0.013523,0.002678,0.000431,0.225066
109456000,0.0324,0.013523,0.002678,0.000431,0.271138
109457000,0.0324,0.013523,0.002678,0.000431,0.295936
109458000,0.0324,0.013523,0.002678,0.000431,0.135745
109459000,0.0324,0.013523,0.002678,0.000431,0.143032
109460000,0.0324,0.013523,0.002678,0.000431,0.114002
109461000,0.0324,0.013523,0.002678,0.000431,0.318384
109462000,0.0324,0.013523,0.002678,0.000431,0.249747
109463000,0.0324,0.013523,0.002678,0.000431,0.014809
109464000,0.0324,0.013523,0.002678,0.000431,0.012340
109465000,0.0324,0.013523,0.002678,0.000431,0.009520
109466000,0.0324,0.013523,0.002678,0.000431,0.008345
109467000,0.0324,0.013523,0.002678,0.000431,0.007874
109468000,0.0324,0.013523,0.002678,0.000431,0.007522
109469000,0.0324,0.013523,0.002678,0.000431,0.008462
109470000,0.0324,0.013523,0.002678,0.000431,0.005524
109471000,0.0324,0.013523,0.002678,0.000431,0.005759
109472000,0.0324,0.013523,0.002678,0.000431,0.006817
109473000,0.0324,0.013523,0.002678,0.000431,0.006464
109474000,0.0324,0.013523,0.002678,0.000431,0.004819
109475000,0.0324,0.013523,0.002678,0.000431,0.003878
109476000,0.0324,0.013523,0.002678,0.000431,0.003761
109477000,0.0324,0.013523,0.002678,0.000431,0.003526
109478000,0.0324,0.013523,0.002678,0.000431,0.004113
109479000,0.0324,0.013523,0.002678,0.000431,0.003291
109480000,0.0324,0.013523,0.002678,0.000431,0.002938
109481000,0.0324,0.013523,0.002678,0.000431,0.001528
109482000,0.0324,0.013523,0.002678,0.000431,0.001880
109483000,0.0324,0.013523,0.002678,0.000431,0.001410
109484000,0.0324,0.013523,0.002678,0.000431,0.001880
109485000,0.0324,0.013523,0.002678,0.000431,0.001645
109486000,0.0324,0.013523,0.002678,0.000431,0.001645
109487000,0.0324,0.013523,0.002678,0.000431,0.001645
109488000,0.0324,0.013523,0.002678,0.000431,0.001645
109489000,0.0324,0.013523,0.002678,0.000431,0.001763
109490000,0.0324,0.013523,0.002678,0.000431,0.001528
109491000,0.0324,0.013523,0.002678,0.000431,0.001880
109492000,0.0324,0.013523,0.002678,0.000431,0.001410
109493000,0.0324,0.013523,0.002678,0.000431,0.001880
109494000,0.0324,0.013523,0.002678,0.000431,0.002703
109495000,0.0324,0.013523,0.002678,0.000431,0.000940
109496000,0.0324,0.013523,0.002678,0.000431,0.000940
109497000,0.0324,0.013523,0.002678,0.000431,0.000823
109498000,0.0324,0.013523,0.002678,0.000431,0.000823
109499000,0.0324,0.013523,0.002678,0.000431,0.000823
109500000,0.0324,0.013523,0.002678,0.000431,0.000823
109501000,0.0324,0.013523,0.002678,0.000431,0.000940
109502000,0.0324,0.013523,0.002678,0.000431,0.000705
109503000,0.0324,0.013523,0.002678,0.000431,0.000940
109504000,0.0324,0.013523,0.002678,0.000431,0.000705
109505000,0.0324,0.013523,0.002678,0.000431,0.000940
109506000,0.0324,0.013523,0.002678,0.000431,0.000823
109507000,0.0324,0.013523,0.002678,0.000431,0.000823
109508000,0.0324,0.013523,0.002678,0.000431,0.000705
109509000,0.0324,0.013523,0.002678,0.000431,0.000940
109510000,0.0324,0.013523,0.002678,0.000431,0.000940
109511000,0.0324,0.013523,0.002678,0.000431,0.000705
109512000,0.0324,0.013523,0.002678,0.000431,0.000940
109513000,0.0324,0.013523,0.002678,0.000431,0.000705
109514000,0.0324,0.013523,0.002678,0.000431,0.000940
109515000,0.0324,0.013523,0.002678,0.000431,0.179348
109516000,0.0324,0.013523,0.002678,0.000431,0.376678
109517000,0.0324,0.013523,0.002678,0.000431,0.529817
109518000,0.0324,0.013523,0.002678,0.000431,0.133982
109519000,0.0324,0.013523,0.002678,0.000431,0.130691
109520000,0.0324,0.013523,0.002678,0.000431,0.586466
109521000,0.0324,0.013523,0.002678,0.000431,0.262205
109522000,0.0324,0.013523,0.002678,0.000431,0.244106
109523000,0.0324,0.013523,0.002678,0.000431,0.276544
109524000,0.0324,0.013523,0.002678,0.000431,0.134335
109525000,0.0324,0.013523,0.002678,0.000431,0.141504
109526000,0.0324,0.013523,0.002678,0.000431,0.156783
109527000,0.0324,0.013523,0.002678,0.000431,0.153962
109528000,0.0324,0.013523,0.002678,0.000431,0.450956
109529000,0.0324,0.013523,0.002678,0.000431,0.103072
109530000,0.0324,0.013523,0.002678,0.000431,0.083798
109531000,0.0324,0.013523,0.002678,0.000431,0.070047
109532000,0.0324,0.013523,0.002678,0.000431,0.069929
109533000,0.0324,0.013523,0.002678,0.000431,0.051477
109534000,0.0324,0.013523,0.002678,0.000431,0.043603
109535000,0.0324,0.013523,0.002678,0.000431,0.040900
109536000,0.0324,0.013523,0.002678,0.000431,0.028677
109537000,0.0324,0.013523,0.002678,0.000431,0.032908
109538000,0.0324,0.013523,0.002678,0.000431,0.025739
109539000,0.0324,0.013523,0.002678,0.000431,0.027502
109540000,0.0324,0.013523,0.002678,0.000431,0.022565
109541000,0.0324,0.013523,0.002678,0.000431,0.017629
109542000,0.0324,0.013523,0.002678,0.000431,0.015631
109543000,0.0324,0.013523,0.002678,0.000431,0.013281
109544000,0.0324,0.013523,0.002678,0.000431,0.015984
109545000,0.0324,0.013523,0.002678,0.000431,0.013986
109546000,0.0324,0.013523,0.002678,0.000431,0.010342
109547000,0.0324,0.013523,0.002678,0.000431,0.012928
109548000,0.0324,0.013523,0.002678,0.000431,0.009755
109549000,0.0324,0.013523,0.002678,0.000431,0.008932
109550000,0.0324,0.013523,0.002678,0.000431,0.008697
109551000,0.0324,0.013523,0.002678,0.000431,0.008815
109552000,0.0324,0.013523,0.002678,0.000431,0.010225
109553000,0.0324,0.013523,0.002678,0.000431,0.008697
109554000,0.0324,0.013523,0.002678,0.000431,0.009637
109555000,0.0324,0.013523,0.002678,0.000431,0.006582
109556000,0.0324,0.013523,0.002678,0.000431,0.006347
109557000,0.0324,0.013523,0.002678,0.000431,0.006229
109558000,0.0324,0.013523,0.002678,0.000431,0.008227
109559000,0.0324,0.013523,0.002678,0.000431,0.005054
109560000,0.0324,0.013523,0.002678,0.000431,0.006229
109561000,0.0324,0.013523,0.002678,0.000431,0.005406
109562000,0.0324,0.013523,0.002678,0.000431,0.005876
109563000,0.0324,0.013523,0.002678,0.000431,0.005759
109564000,0.0324,0.013523,0.002678,0.000431,0.003878
109565000,0.0324,0.013523,0.002678,0.000431,0.004349
109566000,0.0324,0.013523,0.002678,0.000431,0.003761
109567000,0.0324,0.013523,0.002678,0.000431,0.006699
109568000,0.0324,0.013523,0.002678,0.000431,0.002233
109569000,0.0324,0.013523,0.002678,0.000431,0.002703
109570000,0.0324,0.013523,0.002678,0.000431,0.004349
109571000,0.0324,0.013523,0.002678,0.000431,0.001645
109572000,0.0324,0.013523,0.002678,0.000431,0.001763
109573000,0.0324,0.013523,0.002678,0.000431,0.001528
109574000,0.0324,0.013523,0.002678,0.000431,0.001763
109575000,0.0324,0.013523,0.002678,0.000431,0.001645
109576000,0.0324,0.013523,0.002678,0.000431,0.001763
109577000,0.0324,0.013523,0.002678,0.000431,0.001528
109578000,0.0324,0.013523,0.002678,0.000431,0.001763
109579000,0.0324,0.013523,0.002678,0.000431,0.001528
109580000,0.0324,0.013523,0.002678,0.000431,0.001763
109581000,0.0324,0.013523,0.002678,0.000431,0.001880
109582000,0.0324,0.013523,0.002678,0.000431,0.001410
109583000,0.0324,0.013523,0.002678,0.000431,0.001880
109584000,0.0324,0.013523,0.002678,0.000431,0.001528
109585000,0.0324,0.013523,0.002678,0.000431,0.001763
109586000,0.0324,0.013523,0.002678,0.000431,0.001528
109587000,0.0324,0.013523,0.002678,0.000431,0.001763
109588000,0.0324,0.013523,0.002678,0.000431,0.001763
109589000,0.0324,0.013523,0.002678,0.000431,0.001528
109590000,0.0324,0.013523,0.002678,0.000431,0.001880
109591000,0.0324,0.013523,0.002678,0.000431,0.001410
109592000,0.0324,0.013523,0.002678,0.000431,0.001880
109593000,0.0324,0.013523,0.002678,0.000431,0.001645
109594000,0.0324,0.013523,0.002678,0.000431,0.001645
109595000,0.0324,0.013523,0.002678,0.000431,0.001763
109596000,0.0324,0.013523,0.002678,0.000431,0.001528
109597000,0.0324,0.013523,0.002678,0.000431,0.001763
109598000,0.0324,0.013523,0.002678,0.000431,0.001645
109599000,0.0324,0.013523,0.002678,0.000431,0.001645
109600000,0.0324,0.013523,0.002678,0.000431,0.001645
109601000,0.0324,0.013523,0.002678,0.000431,0.001763
109602000,0.0324,0.013523,0.002678,0.000431,0.001645
109603000,0.0324,0.013523,0.002678,0.000431,0.001645
109604000,0.0324,0.013523,0.002678,0.000431,0.001645
109605000,0.0324,0.013523,0.002678,0.000431,0.001645
109606000,0.0324,0.013523,0.002678,0.000431,0.001528
109607000,0.0324,0.013523,0.002678,0.000431,0.003643
109608000,0.0324,0.013523,0.002678,0.000431,0.000823
109609000,0.0324,0.013523,0.002678,0.000431,0.000823
109610000,0.0324,0.013523,0.002678,0.000431,0.000823
109611000,0.0324,0.013523,0.002678,0.000431,0.000705
109612000,0.0324,0.013523,0.002678,0.000431,0.000940
109613000,0.0324,0.013523,0.002678,0.000431,0.000940
109614000,0.0324,0.013523,0.002678,0.000431,0.000823
109615000,0.0324,0.013523,0.002678,0.000431,0.000823
109616000,0.0324,0.013523,0.002678,0.000431,0.000705
109617000,0.0324,0.013523,0.002678,0.000431,0.000940
109618000,0.0324,0.013523,0.002678,0.000431,0.000940
109619000,0.0324,0.013523,0.002678,0.000431,0.000823
109620000,0.0324,0.013523,0.002678,0.000431,0.000823
109621000,0.0324,0.013523,0.002678,0.000431,0.210140
109622000,0.0324,0.013523,0.002678,0.000431,0.576241
109623000,0.0324,0.013523,0.002678,0.000431,0.440261
109624000,0.0324,0.013523,0.002678,0.000431,0.133042
109625000,0.0324,0.013523,0.002678,0.000431,0.135040
109626000,0.0324,0.013523,0.002678,0.000431,0.619021
109627000,0.0324,0.013523,0.002678,0.000431,0.257739
109628000,0.0324,0.013523,0.002678,0.000431,0.266907
109629000,0.0324,0.013523,0.002678,0.000431,0.214606
109630000,0.0324,0.013523,0.002678,0.000431,0.139388
109631000,0.0324,0.013523,0.002678,0.000431,0.174647
109632000,0.0324,0.013523,0.002678,0.000431,0.123640
109633000,0.0324,0.013523,0.002678,0.000431,0.481043
109634000,0.0324,0.013523,0.002678,0.000431,0.124580
109635000,0.0324,0.013523,0.002678,0.000431,0.104247
109636000,0.0324,0.013523,0.002678,0.000431,0.085090
109637000,0.0324,0.013523,0.002678,0.000431,0.079449
109638000,0.0324,0.013523,0.002678,0.000431,0.069577
109639000,0.0324,0.013523,0.002678,0.000431,0.068636
109640000,0.0324,0.013523,0.002678,0.000431,0.070399
109641000,0.0324,0.013523,0.002678,0.000431,0.055003
109642000,0.0324,0.013523,0.002678,0.000431,0.046189
109643000,0.0324,0.013523,0.002678,0.000431,0.046071
109644000,0.0324,0.013523,0.002678,0.000431,0.038432
109645000,0.0324,0.013523,0.002678,0.000431,0.034318
109646000,0.0324,0.013523,0.002678,0.000431,0.026561
109647000,0.0324,0.013523,0.002678,0.000431,0.034671
109648000,0.0324,0.013523,0.002678,0.000431,0.021273
109649000,0.0324,0.013523,0.002678,0.000431,0.020567
109650000,0.0324,0.013523,0.002678,0.000431,0.019510
109651000,0.0324,0.013523,0.002678,0.000431,0.017629
109652000,0.0324,0.013523,0.002678,0.000431,0.014103
109653000,0.0324,0.013523,0.002678,0.000431,0.012458
109654000,0.0324,0.013523,0.002678,0.000431,0.006229
109655000,0.0324,0.013523,0.002678,0.000431,0.006934
109656000,0.0324,0.013523,0.002678,0.000431,0.006582
109657000,0.0324,0.013523,0.002678,0.000431,0.007874
109658000,0.0324,0.013523,0.002678,0.000431,0.005759
109659000,0.0324,0.013523,0.002678,0.000431,0.005876
109660000,0.0324,0.013523,0.002678,0.000431,0.007522
109661000,0.0324,0.013523,0.002678,0.000431,0.004701
109662000,0.0324,0.013523,0.002678,0.000431,0.005171
109663000,0.0324,0.013523,0.002678,0.000431,0.005054
109664000,0.0324,0.013523,0.002678,0.000431,0.005054
109665000,0.0324,0.013523,0.002678,0.000431,0.004819
109666000,0.0324,0.013523,0.002678,0.000431,0.005171
109667000,0.0324,0.013523,0.002678,0.000431,0.004936
109668000,0.0324,0.013523,0.002678,0.000431,0.004231
109669000,0.0324,0.013523,0.002678,0.000431,0.004231
109670000,0.0324,0.013523,0.002678,0.000431,0.006699
109671000,0.0324,0.013523,0.002678,0.000431,0.003526
109672000,0.0324,0.013523,0.002678,0.000431,0.004584
109673000,0.0324,0.013523,0.002678,0.000431,0.002586
109674000,0.0324,0.013523,0.002678,0.000431,0.004936
109675000,0.0324,0.013523,0.002678,0.000431,0.001880
109676000,0.0324,0.013523,0.002678,0.000431,0.003526
109677000,0.0324,0.013523,0.002678,0.000431,0.000940
109678000,0.0324,0.013523,0.002678,0.000431,0.015749
109679000,0.0324,0.013523,0.002678,0.000431,0.550502
109680000,0.0324,0.013523,0.002678,0.000431,0.612439
109681000,0.0324,0.013523,0.002678,0.000431,0.138213
109682000,0.0324,0.013523,0.002678,0.000431,0.136215
109683000,0.0324,0.013523,0.002678,0.000431,0.416167
109684000,0.0324,0.013523,0.002678,0.000431,0.387373
109685000,0.0324,0.013523,0.002678,0.000431,0.273018
109686000,0.0324,0.013523,0.002678,0.000431,0.328491
109687000,0.0324,0.013523,0.002678,0.000431,0.140329
109688000,0.0324,0.013523,0.002678,0.000431,0.164892
109689000,0.0324,0.013523,0.002678,0.000431,0.099311
109690000,0.0324,0.013523,0.002678,0.000431,0.463649
109691000,0.0324,0.013523,0.002678,0.000431,0.170298
109692000,0.0324,0.013523,0.002678,0.000431,0.096726
109693000,0.0324,0.013523,0.002678,0.000431,0.069459
109694000,0.0324,0.013523,0.002678,0.000431,0.064170
109695000,0.0324,0.013523,0.002678,0.000431,0.050655
109696000,0.0324,0.013523,0.002678,0.000431,0.037374
109697000,0.0324,0.013523,0.002678,0.000431,0.035964
109698000,0.0324,0.013523,0.002678,0.000431,0.033496
109699000,0.0324,0.013523,0.002678,0.000431,0.025621
109700000,0.0324,0.013523,0.002678,0.000431,0.020097
109701000,0.0324,0.013523,0.002678,0.000431,0.015044
109702000,0.0324,0.013523,0.002678,0.000431,0.013398
109703000,0.0324,0.013523,0.002678,0.000431,0.014926
109704000,0.0324,0.013523,0.002678,0.000431,0.012811
109705000,0.0324,0.013523,0.002678,0.000431,0.006817
109706000,0.0324,0.013523,0.002678,0.000431,0.007052
109707000,0.0324,0.013523,0.002678,0.000431,0.006817
109708000,0.0324,0.013523,0.002678,0.000431,0.008932
109709000,0.0324,0.013523,0.002678,0.000431,0.008227
109710000,0.0324,0.013523,0.002678,0.000431,0.003643
109711000,0.0324,0.013523,0.002678,0.000431,0.006111
109712000,0.0324,0.013523,0.002678,0.000431,0.003408
109713000,0.0324,0.013523,0.002678,0.000431,0.002703
109714000,0.0324,0.013523,0.002678,0.000431,0.002351
109715000,0.0324,0.013523,0.002678,0.000431,0.002703
109716000,0.0324,0.013523,0.002678,0.000431,0.002586
109717000,0.0324,0.013523,0.002678,0.000431,0.002821
109718000,0.0324,0.013523,0.002678,0.000431,0.002351
109719000,0.0324,0.013523,0.002678,0.000431,0.002586
109720000,0.0324,0.013523,0.002678,0.000431,0.002821
109721000,0.0324,0.013523,0.002678,0.000431,0.002468
109722000,0.0324,0.013523,0.002678,0.000431,0.002468
109723000,0.0324,0.013523,0.002678,0.000431,0.002586
109724000,0.0324,0.013523,0.002678,0.000431,0.002586
109725000,0.0324,0.013523,0.002678,0.000431,0.003526
109726000,0.0324,0.013523,0.002678,0.000431,0.001528
109727000,0.0324,0.013523,0.002678,0.000431,0.001880
109728000,0.0324,0.013523,0.002678,0.000431,0.001763
109729000,0.0324,0.013523,0.002678,0.000431,0.001645
109730000,0.0324,0.013523,0.002678,0.000431,0.001880
109731000,0.0324,0.013523,0.002678,0.000431,0.001763
109732000,0.0324,0.013523,0.002678,0.000431,0.001763
109733000,0.0324,0.013523,0.002678,0.000431,0.001645
109734000,0.0324,0.013523,0.002678,0.000431,0.001763
109735000,0.0324,0.013523,0.002678,0.000431,0.001880
109736000,0.0324,0.013523,0.002678,0.000431,0.001528
109737000,0.0324,0.013523,0.002678,0.000431,0.001763
109738000,0.0324,0.013523,0.002678,0.000431,0.001763
109739000,0.0324,0.013523,0.002678,0.000431,0.001763
109740000,0.0324,0.013523,0.002678,0.000431,0.001763
109741000,0.0324,0.013523,0.002678,0.000431,0.001528
109742000,0.0324,0.013523,0.002678,0.000431,0.001763
109743000,0.0324,0.013523,0.002678,0.000431,0.001763
109744000,0.0324,0.013523,0.002678,0.000431,0.003761
109745000,0.0324,0.013523,0.002678,0.000431,0.000823
109746000,0.0324,0.013523,0.002678,0.000431,0.000940
109747000,0.0324,0.013523,0.002678,0.000431,0.000940
109748000,0.0324,0.013523,0.002678,0.000431,0.000823
109749000,0.0324,0.013523,0.002678,0.000431,0.000823
109750000,0.0324,0.013523,0.002678,0.000431,0.000940
109751000,0.0324,0.013523,0.002678,0.000431,0.000823
109752000,0.0324,0.013523,0.002678,0.000431,0.000940
109753000,0.0324,0.013523,0.002678,0.000431,0.000823
109754000,0.0324,0.013523,0.002678,0.000431,0.211081
109755000,0.0324,0.013523,0.002678,0.000431,0.573302
109756000,0.0324,0.013523,0.002678,0.000431,0.455422
109757000,0.0324,0.013523,0.002678,0.000431,0.131632
109758000,0.0324,0.013523,0.002678,0.000431,0.140681
109759000,0.0324,0.013523,0.002678,0.000431,0.621959
109760000,0.0324,0.013523,0.002678,0.000431,0.284418
109761000,0.0324,0.013523,0.002678,0.000431,0.270785
109762000,0.0324,0.013523,0.002678,0.000431,0.217427
109763000,0.0324,0.013523,0.002678,0.000431,0.148791
109764000,0.0324,0.013523,0.002678,0.000431,0.125168
109765000,0.0324,0.013523,0.002678,0.000431,0.249512
109766000,0.0324,0.013523,0.002678,0.000431,0.345298
109767000,0.0324,0.013523,0.002678,0.000431,0.077569
109768000,0.0324,0.013523,0.002678,0.000431,0.062525
109769000,0.0324,0.013523,0.002678,0.000431,0.055238
109770000,0.0324,0.013523,0.002678,0.000431,0.049949
109771000,0.0324,0.013523,0.002678,0.000431,0.043015
109772000,0.0324,0.013523,0.002678,0.000431,0.037374
109773000,0.0324,0.013523,0.002678,0.000431,0.028912
109774000,0.0324,0.013523,0.002678,0.000431,0.024798
109775000,0.0324,0.013523,0.002678,0.000431,0.027972
109776000,0.0324,0.013523,0.002678,0.000431,0.024798
109777000,0.0324,0.013523,0.002678,0.000431,0.021038
109778000,0.0324,0.013523,0.002678,0.000431,0.019980
109779000,0.0324,0.013523,0.002678,0.000431,0.017512
109780000,0.0324,0.013523,0.002678,0.000431,0.018569
109781000,0.0324,0.013523,0.002678,0.000431,0.016101
109782000,0.0324,0.013523,0.002678,0.000431,0.014221
109783000,0.0324,0.013523,0.002678,0.000431,0.010225
109784000,0.0324,0.013523,0.002678,0.000431,0.010460
109785000,0.0324,0.013523,0.002678,0.000431,0.009050
109786000,0.0324,0.013523,0.002678,0.000431,0.013633
109787000,0.0324,0.013523,0.002678,0.000431,0.007639
109788000,0.0324,0.013523,0.002678,0.000431,0.006817
109789000,0.0324,0.013523,0.002678,0.000431,0.008462
109790000,0.0324,0.013523,0.002678,0.000431,0.006934
109791000,0.0324,0.013523,0.002678,0.000431,0.005524
109792000,0.0324,0.013523,0.002678,0.000431,0.005994
109793000,0.0324,0.013523,0.002678,0.000431,0.005641
109794000,0.0324,0.013523,0.002678,0.000431,0.006229
109795000,0.0324,0.013523,0.002678,0.000431,0.006111
109796000,0.0324,0.013523,0.002678,0.000431,0.004936
109797000,0.0324,0.013523,0.002678,0.000431,0.004584
109798000,0.0324,0.013523,0.002678,0.000431,0.005054
109799000,0.0324,0.013523,0.002678,0.000431,0.004466
109800000,0.0324,0.013523,0.002678,0.000431,0.005171
109801000,0.0324,0.013523,0.002678,0.000431,0.004819
109802000,0.0324,0.013523,0.002678,0.000431,0.004584
109803000,0.0324,0.013523,0.002678,0.000431,0.004936
109804000,0.0324,0.013523,0.002678,0.000431,0.004819
109805000,0.0324,0.013523,0.002678,0.000431,0.004819
109806000,0.0324,0.013523,0.002678,0.000431,0.004936
109807000,0.0324,0.013523,0.002678,0.000431,0.004466
109808000,0.0324,0.013523,0.002678,0.000431,0.004701
109809000,0.0324,0.013523,0.002678,0.000431,0.004701
109810000,0.0324,0.013523,0.002678,0.000431,0.008580
109811000,0.0324,0.013523,0.002678,0.000431,0.003408
109812000,0.0324,0.013523,0.002678,0.000431,0.003291
109813000,0.0324,0.013523,0.002678,0.000431,0.003291
109814000,0.0324,0.013523,0.002678,0.000431,0.003056
109815000,0.0324,0.013523,0.002678,0.000431,0.003291
109816000,0.0324,0.013523,0.002678,0.000431,0.003526
109817000,0.0324,0.013523,0.002678,0.000431,0.002703
109818000,0.0324,0.013523,0.002678,0.000431,0.003643
109819000,0.0324,0.013523,0.002678,0.000431,0.003173
109820000,0.0324,0.013523,0.002678,0.000431,0.003291
109821000,0.0324,0.013523,0.002678,0.000431,0.003408
109822000,0.0324,0.013523,0.002678,0.000431,0.003056
109823000,0.0324,0.013523,0.002678,0.000431,0.003408
109824000,0.0324,0.013523,0.002678,0.000431,0.003408
109825000,0.0324,0.013523,0.002678,0.000431,0.003056
109826000,0.0324,0.013523,0.002678,0.000431,0.003408
109827000,0.0324,0.013523,0.002678,0.000431,0.003056
109828000,0.0324,0.013523,0.002678,0.000431,0.004349
109829000,0.0324,0.013523,0.002678,0.000431,0.003996
109830000,0.0324,0.013523,0.002678,0.000431,0.001998
109831000,0.0324,0.013523,0.002678,0.000431,0.002703
109832000,0.0324,0.013523,0.002678,0.000431,0.002116
109833000,0.0324,0.013523,0.002678,0.000431,0.002703
109834000,0.0324,0.013523,0.002678,0.000431,0.002586
109835000,0.0324,0.013523,0.002678,0.000431,0.002116
109836000,0.0324,0.013523,0.002678,0.000431,0.002703
109837000,0.0324,0.013523,0.002678,0.000431,0.001998
109838000,0.0324,0.013523,0.002678,0.000431,0.002703
109839000,0.0324,0.013523,0.002678,0.000431,0.002468
109840000,0.0324,0.013523,0.002678,0.000431,0.003408
109841000,0.0324,0.013523,0.002678,0.000431,0.000823
109842000,0.0324,0.013523,0.002678,0.000431,0.000823
109843000,0.0324,0.013523,0.002678,0.000431,0.000823
109844000,0.0324,0.013523,0.002678,0.000431,0.000940
109845000,0.0324,0.013523,0.002678,0.000431,0.000823
109846000,0.0324,0.013523,0.002678,0.000431,0.000823
109847000,0.0324,0.013523,0.002678,0.000431,0.000705
109848000,0.0324,0.013523,0.002678,0.000431,0.000940
109849000,0.0324,0.013523,0.002678,0.000431,0.000940
109850000,0.0324,0.013523,0.002678,0.000431,0.000705
109851000,0.0324,0.013523,0.002678,0.000431,0.000940
109852000,0.0324,0.013523,0.002678,0.000431,0.000705
109853000,0.0324,0.013523,0.002678,0.000431,0.000940
109854000,0.0324,0.013523,0.002678,0.000431,0.000940
109855000,0.0324,0.013523,0.002678,0.000431,0.000705
109856000,0.0324,0.013523,0.002678,0.000431,0.000940
109857000,0.0324,0.013523,0.002678,0.000431,0.000705
109858000,0.0324,0.013523,0.002678,0.000431,0.000940
109859000,0.0324,0.013523,0.002678,0.000431,0.000823
109860000,0.0324,0.013523,0.002678,0.000431,0.000823
109861000,0.0324,0.013523,0.002678,0.000431,0.000823
109862000,0.0324,0.013523,0.002678,0.000431,0.000823
109863000,0.0324,0.013523,0.002678,0.000431,0.000940
109864000,0.0324,0.013523,0.002678,0.000431,0.000705
109865000,0.0324,0.013523,0.002678,0.000431,0.000940
109866000,0.0324,0.013523,0.002678,0.000431,0.000823
109867000,0.0324,0.013523,0.002678,0.000431,0.000823
109868000,0.0324,0.013523,0.002678,0.000431,0.000823
109869000,0.0324,0.013523,0.002678,0.000431,0.000823
109870000,0.0324,0.013523,0.002678,0.000431,0.000823
109871000,0.0324,0.013523,0.002678,0.000431,0.000823
109872000,0.0324,0.013523,0.002678,0.000431,0.000940
109873000,0.0324,0.013523,0.002678,0.000431,0.000705
109874000,0.0324,0.013523,0.002678,0.000431,0.000940
109875000,0.0324,0.013523,0.002678,0.000431,0.000705
109876000,0.0324,0.013523,0.002678,0.000431,0.000940
109877000,0.0324,0.013523,0.002678,0.000431,0.000705
109878000,0.0324,0.013523,0.002678,0.000431,0.000940
109879000,0.0324,0.013523,0.002678,0.000431,0.000823
109880000,0.0324,0.013523,0.002678,0.000431,0.082152
109881000,0.0324,0.013523,0.002678,0.000431,0.523823
109882000,0.0324,0.013523,0.002678,0.000431,0.544861
109883000,0.0324,0.013523,0.002678,0.000431,0.134922
109884000,0.0324,0.013523,0.002678,0.000431,0.131161
109885000,0.0324,0.013523,0.002678,0.000431,0.557554
109886000,0.0324,0.013523,0.002678,0.000431,0.235409
109887000,0.0324,0.013523,0.002678,0.000431,0.271138
109888000,0.0324,0.013523,0.002678,0.000431,0.309099
109889000,0.0324,0.013523,0.002678,0.000431,0.139271
109890000,0.0324,0.013523,0.002678,0.000431,0.143032
109891000,0.0324,0.013523,0.002678,0.000431,0.122817
109892000,0.0324,0.013523,0.002678,0.000431,0.299932
109893000,0.0324,0.013523,0.002678,0.000431,0.293468
109894000,0.0324,0.013523,0.002678,0.000431,0.044191
109895000,0.0324,0.013523,0.002678,0.000431,0.033496
109896000,0.0324,0.013523,0.002678,0.000431,0.032085
109897000,0.0324,0.013523,0.002678,0.000431,0.023271
109898000,0.0324,0.013523,0.002678,0.000431,0.009872
109899000,0.0324,0.013523,0.002678,0.000431,0.010225
109900000,0.0324,0.013523,0.002678,0.000431,0.007874
109901000,0.0324,0.013523,0.002678,0.000431,0.008109
109902000,0.0324,0.013523,0.002678,0.000431,0.007757
109903000,0.0324,0.013523,0.002678,0.000431,0.010342
109904000,0.0324,0.013523,0.002678,0.000431,0.005759
109905000,0.0324,0.013523,0.002678,0.000431,0.005759
109906000,0.0324,0.013523,0.002678,0.000431,0.006817
109907000,0.0324,0.013523,0.002678,0.000431,0.007287
109908000,0.0324,0.013523,0.002678,0.000431,0.006464
109909000,0.0324,0.013523,0.002678,0.000431,0.003056
109910000,0.0324,0.013523,0.002678,0.000431,0.002703
109911000,0.0324,0.013523,0.002678,0.000431,0.002351
109912000,0.0324,0.013523,0.002678,0.000431,0.002468
109913000,0.0324,0.013523,0.002678,0.000431,0.002233
109914000,0.0324,0.013523,0.002678,0.000431,0.002586
109915000,0.0324,0.013523,0.002678,0.000431,0.004113
109916000,0.0324,0.013523,0.002678,0.000431,0.001175
109917000,0.0324,0.013523,0.002678,0.000431,0.001880
109918000,0.0324,0.013523,0.002678,0.000431,0.001410
109919000,0.0324,0.013523,0.002678,0.000431,0.001645
109920000,0.0324,0.013523,0.002678,0.000431,0.001645
109921000,0.0324,0.013523,0.002678,0.000431,0.001410
109922000,0.0324,0.013523,0.002678,0.000431,0.001645
109923000,0.0324,0.013523,0.002678,0.000431,0.001645
109924000,0.0324,0.013523,0.002678,0.000431,0.001645
109925000,0.0324,0.013523,0.002678,0.000431,0.001410
109926000,0.0324,0.013523,0.002678,0.000431,0.001645
109927000,0.0324,0.013523,0.002678,0.000431,0.001410
109928000,0.0324,0.013523,0.002678,0.000431,0.001880
109929000,0.0324,0.013523,0.002678,0.000431,0.001410
109930000,0.0324,0.013523,0.002678,0.000431,0.001645
109931000,0.0324,0.013523,0.002678,0.000431,0.001293
109932000,0.0324,0.013523,0.002678,0.000431,0.001763
109933000,0.0324,0.013523,0.002678,0.000431,0.001880
109934000,0.0324,0.013523,0.002678,0.000431,0.001175
109935000,0.0324,0.013523,0.002678,0.000431,0.001880
109936000,0.0324,0.013523,0.002678,0.000431,0.001293
109937000,0.0324,0.013523,0.002678,0.000431,0.001763
109938000,0.0324,0.013523,0.002678,0.000431,0.001645
109939000,0.0324,0.013523,0.002678,0.000431,0.001410
109940000,0.0324,0.013523,0.002678,0.000431,0.001645
109941000,0.0324,0.013523,0.002678,0.000431,0.001528
109942000,0.0324,0.013523,0.002678,0.000431,0.001763
109943000,0.0324,0.013523,0.002678,0.000431,0.001410
109944000,0.0324,0.013523,0.002678,0.000431,0.001645
109945000,0.0324,0.013523,0.002678,0.000431,0.001528
109946000,0.0324,0.013523,0.002678,0.000431,0.001528
109947000,0.0324,0.013523,0.002678,0.000431,0.001645
109948000,0.0324,0.013523,0.002678,0.000431,0.001645
109949000,0.0324,0.013523,0.002678,0.000431,0.001410
109950000,0.0324,0.013523,0.002678,0.000431,0.001645
109951000,0.0324,0.013523,0.002678,0.000431,0.001410
109952000,0.0324,0.013523,0.002678,0.000431,0.001645
109953000,0.0324,0.013523,0.002678,0.000431,0.001880
109954000,0.0324,0.013523,0.002678,0.000431,0.001175
109955000,0.0324,0.013523,0.002678,0.000431,0.001880
109956000,0.0324,0.013523,0.002678,0.000431,0.001410
109957000,0.0324,0.013523,0.002678,0.000431,0.001645
109958000,0.0324,0.013523,0.002678,0.000431,0.001645
109959000,0.0324,0.013523,0.002678,0.000431,0.001410
109960000,0.0324,0.013523,0.002678,0.000431,0.001645
109961000,0.0324,0.013523,0.002678,0.000431,0.001645
109962000,0.0324,0.013523,0.002678,0.000431,0.001645
109963000,0.0324,0.013523,0.002678,0.000431,0.001410
109964000,0.0324,0.013523,0.002678,0.000431,0.001645
109965000,0.0324,0.013523,0.002678,0.000431,0.001645
109966000,0.0324,0.013523,0.002678,0.000431,0.001645
109967000,0.0324,0.013523,0.002678,0.000431,0.001410
109968000,0.0324,0.013523,0.002678,0.000431,0.001645
109969000,0.0324,0.013523,0.002678,0.000431,0.001293
109970000,0.0324,0.013523,0.002678,0.000431,0.001763
109971000,0.0324,0.013523,0.002678,0.000431,0.001880
109972000,0.0324,0.013523,0.002678,0.000431,0.001175
109973000,0.0324,0.013523,0.002678,0.000431,0.001880
109974000,0.0324,0.013523,0.002678,0.000431,0.001293
109975000,0.0324,0.013523,0.002678,0.000431,0.001763
109976000,0.0324,0.013523,0.002678,0.000431,0.001645
109977000,0.0324,0.013523,0.002678,0.000431,0.001410
109978000,0.0324,0.013523,0.002678,0.000431,0.001645
109979000,0.0324,0.013523,0.002678,0.000431,0.001528
109980000,0.0324,0.013523,0.002678,0.000431,0.001763
109981000,0.0324,0.013523,0.002678,0.000431,0.001410
109982000,0.0324,0.013523,0.002678,0.000431,0.001645
109983000,0.0324,0.013523,0.002678,0.000431,0.001645
109984000,0.0324,0.013523,0.002678,0.000431,0.001528
109985000,0.0324,0.013523,0.002678,0.000431,0.001528
109986000,0.0324,0.013523,0.002678,0.000431,0.001645
109987000,0.0324,0.013523,0.002678,0.000431,0.001410
109988000,0.0324,0.013523,0.002678,0.000431,0.001645
109989000,0.0324,0.013523,0.002678,0.000431,0.001410
109990000,0.0324,0.013523,0.002678,0.000431,0.001645
109991000,0.0324,0.013523,0.002678,0.000431,0.001880
109992000,0.0324,0.013523,0.002678,0.000431,0.001175
109993000,0.0324,0.013523,0.002678,0.000431,0.001880
109994000,0.0324,0.013523,0.002678,0.000431,0.001410
109995000,0.0324,0.013523,0.002678,0.000431,0.001645
109996000,0.0324,0.013523,0.002678,0.000431,0.001645
109997000,0.0324,0.013523,0.002678,0.000431,0.001410
109998000,0.0324,0.013523,0.002678,0.000431,0.001880
109999000,0.0324,0.013523,0.002678,0.000431,0.001410
