Cycle,Area(mm^2),PeakDynamic(W),SubthresholdLeakage(W),GateLeakage(W),RunTimeDynamic(W)
58000000,0.0324,0.013523,0.002678,0.000431,0.014809
58001000,0.0324,0.013523,0.002678,0.000431,0.007874
58002000,0.0324,0.013523,0.002678,0.000431,0.008697
58003000,0.0324,0.013523,0.002678,0.000431,0.009167
58004000,0.0324,0.013523,0.002678,0.000431,0.007992
58005000,0.0324,0.013523,0.002678,0.000431,0.010342
58006000,0.0324,0.013523,0.002678,0.000431,0.007639
58007000,0.0324,0.013523,0.002678,0.000431,0.008932
58008000,0.0324,0.013523,0.002678,0.000431,0.007874
58009000,0.0324,0.013523,0.002678,0.000431,0.006347
58010000,0.0324,0.013523,0.002678,0.000431,0.007052
58011000,0.0324,0.013523,0.002678,0.000431,0.010695
58012000,0.0324,0.013523,0.002678,0.000431,0.006229
58013000,0.0324,0.013523,0.002678,0.000431,0.005406
58014000,0.0324,0.013523,0.002678,0.000431,0.005759
58015000,0.0324,0.013523,0.002678,0.000431,0.006111
58016000,0.0324,0.013523,0.002678,0.000431,0.006229
58017000,0.0324,0.013523,0.002678,0.000431,0.005054
58018000,0.0324,0.013523,0.002678,0.000431,0.005054
58019000,0.0324,0.013523,0.002678,0.000431,0.004936
58020000,0.0324,0.013523,0.002678,0.000431,0.004936
58021000,0.0324,0.013523,0.002678,0.000431,0.004936
58022000,0.0324,0.013523,0.002678,0.000431,0.005171
58023000,0.0324,0.013523,0.002678,0.000431,0.005289
58024000,0.0324,0.013523,0.002678,0.000431,0.004584
58025000,0.0324,0.013523,0.002678,0.000431,0.005054
58026000,0.0324,0.013523,0.002678,0.000431,0.005054
58027000,0.0324,0.013523,0.002678,0.000431,0.006582
58028000,0.0324,0.013523,0.002678,0.000431,0.005406
58029000,0.0324,0.013523,0.002678,0.000431,0.004231
58030000,0.0324,0.013523,0.002678,0.000431,0.004466
58031000,0.0324,0.013523,0.002678,0.000431,0.004584
58032000,0.0324,0.013523,0.002678,0.000431,0.004231
58033000,0.0324,0.013523,0.002678,0.000431,0.003643
58034000,0.0324,0.013523,0.002678,0.000431,0.003173
58035000,0.0324,0.013523,0.002678,0.000431,0.003173
58036000,0.0324,0.013523,0.002678,0.000431,0.003408
58037000,0.0324,0.013523,0.002678,0.000431,0.003643
58038000,0.0324,0.013523,0.002678,0.000431,0.005406
58039000,0.0324,0.013523,0.002678,0.000431,0.002233
58040000,0.0324,0.013523,0.002678,0.000431,0.002821
58041000,0.0324,0.013523,0.002678,0.000431,0.002586
58042000,0.0324,0.013523,0.002678,0.000431,0.002351
58043000,0.0324,0.013523,0.002678,0.000431,0.002468
58044000,0.0324,0.013523,0.002678,0.000431,0.002586
58045000,0.0324,0.013523,0.002678,0.000431,0.002468
58046000,0.0324,0.013523,0.002678,0.000431,0.002468
58047000,0.0324,0.013523,0.002678,0.000431,0.002468
58048000,0.0324,0.013523,0.002678,0.000431,0.002586
58049000,0.0324,0.013523,0.002678,0.000431,0.002351
58050000,0.0324,0.013523,0.002678,0.000431,0.002586
58051000,0.0324,0.013523,0.002678,0.000431,0.002468
58052000,0.0324,0.013523,0.002678,0.000431,0.002351
58053000,0.0324,0.013523,0.002678,0.000431,0.002586
58054000,0.0324,0.013523,0.002678,0.000431,0.002468
58055000,0.0324,0.013523,0.002678,0.000431,0.002586
58056000,0.0324,0.013523,0.002678,0.000431,0.002351
58057000,0.0324,0.013523,0.002678,0.000431,0.002351
58058000,0.0324,0.013523,0.002678,0.000431,0.002586
58059000,0.0324,0.013523,0.002678,0.000431,0.002821
58060000,0.0324,0.013523,0.002678,0.000431,0.002116
58061000,0.0324,0.013523,0.002678,0.000431,0.002586
58062000,0.0324,0.013523,0.002678,0.000431,0.002586
58063000,0.0324,0.013523,0.002678,0.000431,0.002351
58064000,0.0324,0.013523,0.002678,0.000431,0.002586
58065000,0.0324,0.013523,0.002678,0.000431,0.004819
58066000,0.0324,0.013523,0.002678,0.000431,0.001058
58067000,0.0324,0.013523,0.002678,0.000431,0.000705
58068000,0.0324,0.013523,0.002678,0.000431,0.000940
58069000,0.0324,0.013523,0.002678,0.000431,0.000823
58070000,0.0324,0.013523,0.002678,0.000431,0.000823
58071000,0.0324,0.013523,0.002678,0.000431,0.000823
58072000,0.0324,0.013523,0.002678,0.000431,0.000823
58073000,0.0324,0.013523,0.002678,0.000431,0.000940
58074000,0.0324,0.013523,0.002678,0.000431,0.000705
58075000,0.0324,0.013523,0.002678,0.000431,0.000940
58076000,0.0324,0.013523,0.002678,0.000431,0.000823
58077000,0.0324,0.013523,0.002678,0.000431,0.000823
58078000,0.0324,0.013523,0.002678,0.000431,0.000940
58079000,0.0324,0.013523,0.002678,0.000431,0.260090
58080000,0.0324,0.013523,0.002678,0.000431,0.676962
58081000,0.0324,0.013523,0.002678,0.000431,0.372682
58082000,0.0324,0.013523,0.002678,0.000431,0.132219
58083000,0.0324,0.013523,0.002678,0.000431,0.172531
58084000,0.0324,0.013523,0.002678,0.000431,0.587406
58085000,0.0324,0.013523,0.002678,0.000431,0.263498
58086000,0.0324,0.013523,0.002678,0.000431,0.300402
58087000,0.0324,0.013523,0.002678,0.000431,0.214019
58088000,0.0324,0.013523,0.002678,0.000431,0.144912
58089000,0.0324,0.013523,0.002678,0.000431,0.125050
58090000,0.0324,0.013523,0.002678,0.000431,0.306513
58091000,0.0324,0.013523,0.002678,0.000431,0.294761
58092000,0.0324,0.013523,0.002678,0.000431,0.062525
58093000,0.0324,0.013523,0.002678,0.000431,0.043250
58094000,0.0324,0.013523,0.002678,0.000431,0.036786
58095000,0.0324,0.013523,0.002678,0.000431,0.023036
58096000,0.0324,0.013523,0.002678,0.000431,0.027267
58097000,0.0324,0.013523,0.002678,0.000431,0.024563
58098000,0.0324,0.013523,0.002678,0.000431,0.020802
58099000,0.0324,0.013523,0.002678,0.000431,0.011518
58100000,0.0324,0.013523,0.002678,0.000431,0.008462
58101000,0.0324,0.013523,0.002678,0.000431,0.008932
58102000,0.0324,0.013523,0.002678,0.000431,0.007757
58103000,0.0324,0.013523,0.002678,0.000431,0.009050
58104000,0.0324,0.013523,0.002678,0.000431,0.008109
58105000,0.0324,0.013523,0.002678,0.000431,0.006347
58106000,0.0324,0.013523,0.002678,0.000431,0.006464
58107000,0.0324,0.013523,0.002678,0.000431,0.007404
58108000,0.0324,0.013523,0.002678,0.000431,0.007757
58109000,0.0324,0.013523,0.002678,0.000431,0.007404
58110000,0.0324,0.013523,0.002678,0.000431,0.008109
58111000,0.0324,0.013523,0.002678,0.000431,0.006229
58112000,0.0324,0.013523,0.002678,0.000431,0.007169
58113000,0.0324,0.013523,0.002678,0.000431,0.007287
58114000,0.0324,0.013523,0.002678,0.000431,0.006347
58115000,0.0324,0.013523,0.002678,0.000431,0.006817
58116000,0.0324,0.013523,0.002678,0.000431,0.004819
58117000,0.0324,0.013523,0.002678,0.000431,0.005171
58118000,0.0324,0.013523,0.002678,0.000431,0.004701
58119000,0.0324,0.013523,0.002678,0.000431,0.005054
58120000,0.0324,0.013523,0.002678,0.000431,0.004584
58121000,0.0324,0.013523,0.002678,0.000431,0.005171
58122000,0.0324,0.013523,0.002678,0.000431,0.004701
58123000,0.0324,0.013523,0.002678,0.000431,0.004936
58124000,0.0324,0.013523,0.002678,0.000431,0.004701
58125000,0.0324,0.013523,0.002678,0.000431,0.005171
58126000,0.0324,0.013523,0.002678,0.000431,0.004584
58127000,0.0324,0.013523,0.002678,0.000431,0.006111
58128000,0.0324,0.013523,0.002678,0.000431,0.005641
58129000,0.0324,0.013523,0.002678,0.000431,0.003761
58130000,0.0324,0.013523,0.002678,0.000431,0.004113
58131000,0.0324,0.013523,0.002678,0.000431,0.004113
58132000,0.0324,0.013523,0.002678,0.000431,0.003878
58133000,0.0324,0.013523,0.002678,0.000431,0.004231
58134000,0.0324,0.013523,0.002678,0.000431,0.003526
58135000,0.0324,0.013523,0.002678,0.000431,0.004466
58136000,0.0324,0.013523,0.002678,0.000431,0.005406
58137000,0.0324,0.013523,0.002678,0.000431,0.002938
58138000,0.0324,0.013523,0.002678,0.000431,0.003408
58139000,0.0324,0.013523,0.002678,0.000431,0.003056
58140000,0.0324,0.013523,0.002678,0.000431,0.003173
58141000,0.0324,0.013523,0.002678,0.000431,0.003291
58142000,0.0324,0.013523,0.002678,0.000431,0.002938
58143000,0.0324,0.013523,0.002678,0.000431,0.003173
58144000,0.0324,0.013523,0.002678,0.000431,0.003291
58145000,0.0324,0.013523,0.002678,0.000431,0.003173
58146000,0.0324,0.013523,0.002678,0.000431,0.003056
58147000,0.0324,0.013523,0.002678,0.000431,0.003291
58148000,0.0324,0.013523,0.002678,0.000431,0.003173
58149000,0.0324,0.013523,0.002678,0.000431,0.003173
58150000,0.0324,0.013523,0.002678,0.000431,0.003056
58151000,0.0324,0.013523,0.002678,0.000431,0.003173
58152000,0.0324,0.013523,0.002678,0.000431,0.003291
58153000,0.0324,0.013523,0.002678,0.000431,0.003173
58154000,0.0324,0.013523,0.002678,0.000431,0.004701
58155000,0.0324,0.013523,0.002678,0.000431,0.001880
58156000,0.0324,0.013523,0.002678,0.000431,0.001763
58157000,0.0324,0.013523,0.002678,0.000431,0.001528
58158000,0.0324,0.013523,0.002678,0.000431,0.001645
58159000,0.0324,0.013523,0.002678,0.000431,0.001645
58160000,0.0324,0.013523,0.002678,0.000431,0.001880
58161000,0.0324,0.013523,0.002678,0.000431,0.001645
58162000,0.0324,0.013523,0.002678,0.000431,0.001645
58163000,0.0324,0.013523,0.002678,0.000431,0.001645
58164000,0.0324,0.013523,0.002678,0.000431,0.001645
58165000,0.0324,0.013523,0.002678,0.000431,0.001763
58166000,0.0324,0.013523,0.002678,0.000431,0.001645
58167000,0.0324,0.013523,0.002678,0.000431,0.001763
58168000,0.0324,0.013523,0.002678,0.000431,0.001528
58169000,0.0324,0.013523,0.002678,0.000431,0.001763
58170000,0.0324,0.013523,0.002678,0.000431,0.001763
58171000,0.0324,0.013523,0.002678,0.000431,0.001645
58172000,0.0324,0.013523,0.002678,0.000431,0.001645
58173000,0.0324,0.013523,0.002678,0.000431,0.001645
58174000,0.0324,0.013523,0.002678,0.000431,0.001645
58175000,0.0324,0.013523,0.002678,0.000431,0.001645
58176000,0.0324,0.013523,0.002678,0.000431,0.001645
58177000,0.0324,0.013523,0.002678,0.000431,0.001763
58178000,0.0324,0.013523,0.002678,0.000431,0.001528
58179000,0.0324,0.013523,0.002678,0.000431,0.001645
58180000,0.0324,0.013523,0.002678,0.000431,0.001880
58181000,0.0324,0.013523,0.002678,0.000431,0.001645
58182000,0.0324,0.013523,0.002678,0.000431,0.001645
58183000,0.0324,0.013523,0.002678,0.000431,0.001528
58184000,0.0324,0.013523,0.002678,0.000431,0.001645
58185000,0.0324,0.013523,0.002678,0.000431,0.001880
58186000,0.0324,0.013523,0.002678,0.000431,0.001645
58187000,0.0324,0.013523,0.002678,0.000431,0.001645
58188000,0.0324,0.013523,0.002678,0.000431,0.001645
58189000,0.0324,0.013523,0.002678,0.000431,0.001645
58190000,0.0324,0.013523,0.002678,0.000431,0.001763
58191000,0.0324,0.013523,0.002678,0.000431,0.001645
58192000,0.0324,0.013523,0.002678,0.000431,0.001763
58193000,0.0324,0.013523,0.002678,0.000431,0.001528
58194000,0.0324,0.013523,0.002678,0.000431,0.001763
58195000,0.0324,0.013523,0.002678,0.000431,0.001763
58196000,0.0324,0.013523,0.002678,0.000431,0.001645
58197000,0.0324,0.013523,0.002678,0.000431,0.001645
58198000,0.0324,0.013523,0.002678,0.000431,0.001645
58199000,0.0324,0.013523,0.002678,0.000431,0.001645
58200000,0.0324,0.013523,0.002678,0.000431,0.001645
58201000,0.0324,0.013523,0.002678,0.000431,0.001763
58202000,0.0324,0.013523,0.002678,0.000431,0.001763
58203000,0.0324,0.013523,0.002678,0.000431,0.004466
58204000,0.0324,0.013523,0.002678,0.000431,0.000823
58205000,0.0324,0.013523,0.002678,0.000431,0.000823
58206000,0.0324,0.013523,0.002678,0.000431,0.000705
58207000,0.0324,0.013523,0.002678,0.000431,0.000940
58208000,0.0324,0.013523,0.002678,0.000431,0.000940
58209000,0.0324,0.013523,0.002678,0.000431,0.000705
58210000,0.0324,0.013523,0.002678,0.000431,0.000940
58211000,0.0324,0.013523,0.002678,0.000431,0.000705
58212000,0.0324,0.013523,0.002678,0.000431,0.000940
58213000,0.0324,0.013523,0.002678,0.000431,0.000823
58214000,0.0324,0.013523,0.002678,0.000431,0.000823
58215000,0.0324,0.013523,0.002678,0.000431,0.000940
58216000,0.0324,0.013523,0.002678,0.000431,0.000705
58217000,0.0324,0.013523,0.002678,0.000431,0.000940
58218000,0.0324,0.013523,0.002678,0.000431,0.000823
58219000,0.0324,0.013523,0.002678,0.000431,0.000823
58220000,0.0324,0.013523,0.002678,0.000431,0.000823
58221000,0.0324,0.013523,0.002678,0.000431,0.000823
58222000,0.0324,0.013523,0.002678,0.000431,0.000940
58223000,0.0324,0.013523,0.002678,0.000431,0.000705
58224000,0.0324,0.013523,0.002678,0.000431,0.000940
58225000,0.0324,0.013523,0.002678,0.000431,0.000705
58226000,0.0324,0.013523,0.002678,0.000431,0.000823
58227000,0.0324,0.013523,0.002678,0.000431,0.000940
58228000,0.0324,0.013523,0.002678,0.000431,0.000823
58229000,0.0324,0.013523,0.002678,0.000431,0.000823
58230000,0.0324,0.013523,0.002678,0.000431,0.000823
58231000,0.0324,0.013523,0.002678,0.000431,0.000823
58232000,0.0324,0.013523,0.002678,0.000431,0.000823
58233000,0.0324,0.013523,0.002678,0.000431,0.000940
58234000,0.0324,0.013523,0.002678,0.000431,0.000705
58235000,0.0324,0.013523,0.002678,0.000431,0.000940
58236000,0.0324,0.013523,0.002678,0.000431,0.000705
58237000,0.0324,0.013523,0.002678,0.000431,0.000940
58238000,0.0324,0.013523,0.002678,0.000431,0.000940
58239000,0.0324,0.013523,0.002678,0.000431,0.000705
58240000,0.0324,0.013523,0.002678,0.000431,0.000940
58241000,0.0324,0.013523,0.002678,0.000431,0.000705
58242000,0.0324,0.013523,0.002678,0.000431,0.000940
58243000,0.0324,0.013523,0.002678,0.000431,0.000823
58244000,0.0324,0.013523,0.002678,0.000431,0.000823
58245000,0.0324,0.013523,0.002678,0.000431,0.000823
58246000,0.0324,0.013523,0.002678,0.000431,0.000823
58247000,0.0324,0.013523,0.002678,0.000431,0.000940
58248000,0.0324,0.013523,0.002678,0.000431,0.000823
58249000,0.0324,0.013523,0.002678,0.000431,0.000823
58250000,0.0324,0.013523,0.002678,0.000431,0.000823
58251000,0.0324,0.013523,0.002678,0.000431,0.000823
58252000,0.0324,0.013523,0.002678,0.000431,0.000823
58253000,0.0324,0.013523,0.002678,0.000431,0.000823
58254000,0.0324,0.013523,0.002678,0.000431,0.000940
58255000,0.0324,0.013523,0.002678,0.000431,0.000705
58256000,0.0324,0.013523,0.002678,0.000431,0.000940
58257000,0.0324,0.013523,0.002678,0.000431,0.000823
58258000,0.0324,0.013523,0.002678,0.000431,0.000823
58259000,0.0324,0.013523,0.002678,0.000431,0.000705
58260000,0.0324,0.013523,0.002678,0.000431,0.000940
58261000,0.0324,0.013523,0.002678,0.000431,0.000940
58262000,0.0324,0.013523,0.002678,0.000431,0.000705
58263000,0.0324,0.013523,0.002678,0.000431,0.000940
58264000,0.0324,0.013523,0.002678,0.000431,0.000705
58265000,0.0324,0.013523,0.002678,0.000431,0.000940
58266000,0.0324,0.013523,0.002678,0.000431,0.000823
58267000,0.0324,0.013523,0.002678,0.000431,0.000823
58268000,0.0324,0.013523,0.002678,0.000431,0.000940
58269000,0.0324,0.013523,0.002678,0.000431,0.000705
58270000,0.0324,0.013523,0.002678,0.000431,0.000940
58271000,0.0324,0.013523,0.002678,0.000431,0.000823
58272000,0.0324,0.013523,0.002678,0.000431,0.000823
58273000,0.0324,0.013523,0.002678,0.000431,0.000823
58274000,0.0324,0.013523,0.002678,0.000431,0.000823
58275000,0.0324,0.013523,0.002678,0.000431,0.000823
58276000,0.0324,0.013523,0.002678,0.000431,0.000823
58277000,0.0324,0.013523,0.002678,0.000431,0.000940
58278000,0.0324,0.013523,0.002678,0.000431,0.000705
58279000,0.0324,0.013523,0.002678,0.000431,0.000823
58280000,0.0324,0.013523,0.002678,0.000431,0.000940
58281000,0.0324,0.013523,0.002678,0.000431,0.000823
58282000,0.0324,0.013523,0.002678,0.000431,0.000823
58283000,0.0324,0.013523,0.002678,0.000431,0.000823
58284000,0.0324,0.013523,0.002678,0.000431,0.000705
58285000,0.0324,0.013523,0.002678,0.000431,0.000940
58286000,0.0324,0.013523,0.002678,0.000431,0.000940
58287000,0.0324,0.013523,0.002678,0.000431,0.000705
58288000,0.0324,0.013523,0.002678,0.000431,0.000940
58289000,0.0324,0.013523,0.002678,0.000431,0.000705
58290000,0.0324,0.013523,0.002678,0.000431,0.000940
58291000,0.0324,0.013523,0.002678,0.000431,0.000940
58292000,0.0324,0.013523,0.002678,0.000431,0.000705
58293000,0.0324,0.013523,0.002678,0.000431,0.000940
58294000,0.0324,0.013523,0.002678,0.000431,0.000705
58295000,0.0324,0.013523,0.002678,0.000431,0.000940
58296000,0.0324,0.013523,0.002678,0.000431,0.000823
58297000,0.0324,0.013523,0.002678,0.000431,0.000823
58298000,0.0324,0.013523,0.002678,0.000431,0.000823
58299000,0.0324,0.013523,0.002678,0.000431,0.000823
58300000,0.0324,0.013523,0.002678,0.000431,0.000940
58301000,0.0324,0.013523,0.002678,0.000431,0.000705
58302000,0.0324,0.013523,0.002678,0.000431,0.000940
58303000,0.0324,0.013523,0.002678,0.000431,0.000823
58304000,0.0324,0.013523,0.002678,0.000431,0.000823
58305000,0.0324,0.013523,0.002678,0.000431,0.000823
58306000,0.0324,0.013523,0.002678,0.000431,0.000823
58307000,0.0324,0.013523,0.002678,0.000431,0.000823
58308000,0.0324,0.013523,0.002678,0.000431,0.000823
58309000,0.0324,0.013523,0.002678,0.000431,0.000940
58310000,0.0324,0.013523,0.002678,0.000431,0.000705
58311000,0.0324,0.013523,0.002678,0.000431,0.000940
58312000,0.0324,0.013523,0.002678,0.000431,0.000705
58313000,0.0324,0.013523,0.002678,0.000431,0.000940
58314000,0.0324,0.013523,0.002678,0.000431,0.000940
58315000,0.0324,0.013523,0.002678,0.000431,0.000705
58316000,0.0324,0.013523,0.002678,0.000431,0.000940
58317000,0.0324,0.013523,0.002678,0.000431,0.000705
58318000,0.0324,0.013523,0.002678,0.000431,0.000940
58319000,0.0324,0.013523,0.002678,0.000431,0.002821
58320000,0.0324,0.013523,0.002678,0.000431,0.413699
58321000,0.0324,0.013523,0.002678,0.000431,0.666972
58322000,0.0324,0.013523,0.002678,0.000431,0.131514
58323000,0.0324,0.013523,0.002678,0.000431,0.133630
58324000,0.0324,0.013523,0.002678,0.000431,0.156783
58325000,0.0324,0.013523,0.002678,0.000431,0.590227
58326000,0.0324,0.013523,0.002678,0.000431,0.288649
58327000,0.0324,0.013523,0.002678,0.000431,0.235879
58328000,0.0324,0.013523,0.002678,0.000431,0.231178
58329000,0.0324,0.013523,0.002678,0.000431,0.148908
58330000,0.0324,0.013523,0.002678,0.000431,0.174647
58331000,0.0324,0.013523,0.002678,0.000431,0.089909
58332000,0.0324,0.013523,0.002678,0.000431,0.453189
58333000,0.0324,0.013523,0.002678,0.000431,0.071927
58334000,0.0324,0.013523,0.002678,0.000431,0.036904
58335000,0.0324,0.013523,0.002678,0.000431,0.031968
58336000,0.0324,0.013523,0.002678,0.000431,0.034083
58337000,0.0324,0.013523,0.002678,0.000431,0.022095
58338000,0.0324,0.013523,0.002678,0.000431,0.019980
58339000,0.0324,0.013523,0.002678,0.000431,0.021860
58340000,0.0324,0.013523,0.002678,0.000431,0.020332
58341000,0.0324,0.013523,0.002678,0.000431,0.019745
58342000,0.0324,0.013523,0.002678,0.000431,0.011635
58343000,0.0324,0.013523,0.002678,0.000431,0.009402
58344000,0.0324,0.013523,0.002678,0.000431,0.009050
58345000,0.0324,0.013523,0.002678,0.000431,0.012223
58346000,0.0324,0.013523,0.002678,0.000431,0.007404
58347000,0.0324,0.013523,0.002678,0.000431,0.005876
58348000,0.0324,0.013523,0.002678,0.000431,0.006699
58349000,0.0324,0.013523,0.002678,0.000431,0.006934
58350000,0.0324,0.013523,0.002678,0.000431,0.004584
58351000,0.0324,0.013523,0.002678,0.000431,0.003173
58352000,0.0324,0.013523,0.002678,0.000431,0.003408
58353000,0.0324,0.013523,0.002678,0.000431,0.003291
58354000,0.0324,0.013523,0.002678,0.000431,0.003291
58355000,0.0324,0.013523,0.002678,0.000431,0.003291
58356000,0.0324,0.013523,0.002678,0.000431,0.003526
58357000,0.0324,0.013523,0.002678,0.000431,0.003291
58358000,0.0324,0.013523,0.002678,0.000431,0.003291
58359000,0.0324,0.013523,0.002678,0.000431,0.003408
58360000,0.0324,0.013523,0.002678,0.000431,0.003291
58361000,0.0324,0.013523,0.002678,0.000431,0.003291
58362000,0.0324,0.013523,0.002678,0.000431,0.003408
58363000,0.0324,0.013523,0.002678,0.000431,0.003526
58364000,0.0324,0.013523,0.002678,0.000431,0.003291
58365000,0.0324,0.013523,0.002678,0.000431,0.003056
58366000,0.0324,0.013523,0.002678,0.000431,0.004466
58367000,0.0324,0.013523,0.002678,0.000431,0.002586
58368000,0.0324,0.013523,0.002678,0.000431,0.003878
58369000,0.0324,0.013523,0.002678,0.000431,0.001528
58370000,0.0324,0.013523,0.002678,0.000431,0.001763
58371000,0.0324,0.013523,0.002678,0.000431,0.001645
58372000,0.0324,0.013523,0.002678,0.000431,0.001645
58373000,0.0324,0.013523,0.002678,0.000431,0.001763
58374000,0.0324,0.013523,0.002678,0.000431,0.001645
58375000,0.0324,0.013523,0.002678,0.000431,0.001763
58376000,0.0324,0.013523,0.002678,0.000431,0.001528
58377000,0.0324,0.013523,0.002678,0.000431,0.001763
58378000,0.0324,0.013523,0.002678,0.000431,0.001528
58379000,0.0324,0.013523,0.002678,0.000431,0.001763
58380000,0.0324,0.013523,0.002678,0.000431,0.001763
58381000,0.0324,0.013523,0.002678,0.000431,0.001528
58382000,0.0324,0.013523,0.002678,0.000431,0.001645
58383000,0.0324,0.013523,0.002678,0.000431,0.001763
58384000,0.0324,0.013523,0.002678,0.000431,0.001645
58385000,0.0324,0.013523,0.002678,0.000431,0.001645
58386000,0.0324,0.013523,0.002678,0.000431,0.001645
58387000,0.0324,0.013523,0.002678,0.000431,0.001645
58388000,0.0324,0.013523,0.002678,0.000431,0.001763
58389000,0.0324,0.013523,0.002678,0.000431,0.001645
58390000,0.0324,0.013523,0.002678,0.000431,0.001645
58391000,0.0324,0.013523,0.002678,0.000431,0.001645
58392000,0.0324,0.013523,0.002678,0.000431,0.001645
58393000,0.0324,0.013523,0.002678,0.000431,0.001880
58394000,0.0324,0.013523,0.002678,0.000431,0.001645
58395000,0.0324,0.013523,0.002678,0.000431,0.001645
58396000,0.0324,0.013523,0.002678,0.000431,0.001645
58397000,0.0324,0.013523,0.002678,0.000431,0.001645
58398000,0.0324,0.013523,0.002678,0.000431,0.001763
58399000,0.0324,0.013523,0.002678,0.000431,0.001645
58400000,0.0324,0.013523,0.002678,0.000431,0.001645
58401000,0.0324,0.013523,0.002678,0.000431,0.001645
58402000,0.0324,0.013523,0.002678,0.000431,0.001763
58403000,0.0324,0.013523,0.002678,0.000431,0.001645
58404000,0.0324,0.013523,0.002678,0.000431,0.001645
58405000,0.0324,0.013523,0.002678,0.000431,0.001763
58406000,0.0324,0.013523,0.002678,0.000431,0.001645
58407000,0.0324,0.013523,0.002678,0.000431,0.001645
58408000,0.0324,0.013523,0.002678,0.000431,0.001645
58409000,0.0324,0.013523,0.002678,0.000431,0.001528
58410000,0.0324,0.013523,0.002678,0.000431,0.001763
58411000,0.0324,0.013523,0.002678,0.000431,0.001763
58412000,0.0324,0.013523,0.002678,0.000431,0.001645
58413000,0.0324,0.013523,0.002678,0.000431,0.001645
58414000,0.0324,0.013523,0.002678,0.000431,0.001645
58415000,0.0324,0.013523,0.002678,0.000431,0.001645
58416000,0.0324,0.013523,0.002678,0.000431,0.001880
58417000,0.0324,0.013523,0.002678,0.000431,0.004701
58418000,0.0324,0.013523,0.002678,0.000431,0.001058
58419000,0.0324,0.013523,0.002678,0.000431,0.000705
58420000,0.0324,0.013523,0.002678,0.000431,0.000940
58421000,0.0324,0.013523,0.002678,0.000431,0.000823
58422000,0.0324,0.013523,0.002678,0.000431,0.000823
58423000,0.0324,0.013523,0.002678,0.000431,0.000823
58424000,0.0324,0.013523,0.002678,0.000431,0.000823
58425000,0.0324,0.013523,0.002678,0.000431,0.000823
58426000,0.0324,0.013523,0.002678,0.000431,0.000823
58427000,0.0324,0.013523,0.002678,0.000431,0.000940
58428000,0.0324,0.013523,0.002678,0.000431,0.000705
58429000,0.0324,0.013523,0.002678,0.000431,0.000823
58430000,0.0324,0.013523,0.002678,0.000431,0.000823
58431000,0.0324,0.013523,0.002678,0.000431,0.000940
58432000,0.0324,0.013523,0.002678,0.000431,0.000823
58433000,0.0324,0.013523,0.002678,0.000431,0.000823
58434000,0.0324,0.013523,0.002678,0.000431,0.000705
58435000,0.0324,0.013523,0.002678,0.000431,0.000940
58436000,0.0324,0.013523,0.002678,0.000431,0.000940
58437000,0.0324,0.013523,0.002678,0.000431,0.000705
58438000,0.0324,0.013523,0.002678,0.000431,0.000940
58439000,0.0324,0.013523,0.002678,0.000431,0.000705
58440000,0.0324,0.013523,0.002678,0.000431,0.000940
58441000,0.0324,0.013523,0.002678,0.000431,0.000823
58442000,0.0324,0.013523,0.002678,0.000431,0.000823
58443000,0.0324,0.013523,0.002678,0.000431,0.000940
58444000,0.0324,0.013523,0.002678,0.000431,0.000705
58445000,0.0324,0.013523,0.002678,0.000431,0.000940
58446000,0.0324,0.013523,0.002678,0.000431,0.000823
58447000,0.0324,0.013523,0.002678,0.000431,0.000823
58448000,0.0324,0.013523,0.002678,0.000431,0.000823
58449000,0.0324,0.013523,0.002678,0.000431,0.000823
58450000,0.0324,0.013523,0.002678,0.000431,0.000823
58451000,0.0324,0.013523,0.002678,0.000431,0.000823
58452000,0.0324,0.013523,0.002678,0.000431,0.000940
58453000,0.0324,0.013523,0.002678,0.000431,0.000705
58454000,0.0324,0.013523,0.002678,0.000431,0.013868
58455000,0.0324,0.013523,0.002678,0.000431,0.457067
58456000,0.0324,0.013523,0.002678,0.000431,0.591167
58457000,0.0324,0.013523,0.002678,0.000431,0.133982
58458000,0.0324,0.013523,0.002678,0.000431,0.130691
58459000,0.0324,0.013523,0.002678,0.000431,0.270432
58460000,0.0324,0.013523,0.002678,0.000431,0.510542
58461000,0.0324,0.013523,0.002678,0.000431,0.271960
58462000,0.0324,0.013523,0.002678,0.000431,0.303340
58463000,0.0324,0.013523,0.002678,0.000431,0.198975
58464000,0.0324,0.013523,0.002678,0.000431,0.140211
58465000,0.0324,0.013523,0.002678,0.000431,0.135628
58466000,0.0324,0.013523,0.002678,0.000431,0.236584
58467000,0.0324,0.013523,0.002678,0.000431,0.379851
58468000,0.0324,0.013523,0.002678,0.000431,0.086971
58469000,0.0324,0.013523,0.002678,0.000431,0.078391
58470000,0.0324,0.013523,0.002678,0.000431,0.069224
58471000,0.0324,0.013523,0.002678,0.000431,0.059939
58472000,0.0324,0.013523,0.002678,0.000431,0.056061
58473000,0.0324,0.013523,0.002678,0.000431,0.050890
58474000,0.0324,0.013523,0.002678,0.000431,0.043603
58475000,0.0324,0.013523,0.002678,0.000431,0.039372
58476000,0.0324,0.013523,0.002678,0.000431,0.035964
58477000,0.0324,0.013523,0.002678,0.000431,0.038432
58478000,0.0324,0.013523,0.002678,0.000431,0.032908
58479000,0.0324,0.013523,0.002678,0.000431,0.030557
58480000,0.0324,0.013523,0.002678,0.000431,0.026444
58481000,0.0324,0.013523,0.002678,0.000431,0.026091
58482000,0.0324,0.013523,0.002678,0.000431,0.018805
58483000,0.0324,0.013523,0.002678,0.000431,0.015161
58484000,0.0324,0.013523,0.002678,0.000431,0.013163
58485000,0.0324,0.013523,0.002678,0.000431,0.010460
58486000,0.0324,0.013523,0.002678,0.000431,0.013516
58487000,0.0324,0.013523,0.002678,0.000431,0.007992
58488000,0.0324,0.013523,0.002678,0.000431,0.007522
58489000,0.0324,0.013523,0.002678,0.000431,0.007052
58490000,0.0324,0.013523,0.002678,0.000431,0.007992
58491000,0.0324,0.013523,0.002678,0.000431,0.007639
58492000,0.0324,0.013523,0.002678,0.000431,0.009285
58493000,0.0324,0.013523,0.002678,0.000431,0.006699
58494000,0.0324,0.013523,0.002678,0.000431,0.006582
58495000,0.0324,0.013523,0.002678,0.000431,0.007052
58496000,0.0324,0.013523,0.002678,0.000431,0.006934
58497000,0.0324,0.013523,0.002678,0.000431,0.006464
58498000,0.0324,0.013523,0.002678,0.000431,0.006934
58499000,0.0324,0.013523,0.002678,0.000431,0.006817
58500000,0.0324,0.013523,0.002678,0.000431,0.006699
58501000,0.0324,0.013523,0.002678,0.000431,0.006582
58502000,0.0324,0.013523,0.002678,0.000431,0.006934
58503000,0.0324,0.013523,0.002678,0.000431,0.007052
58504000,0.0324,0.013523,0.002678,0.000431,0.006229
58505000,0.0324,0.013523,0.002678,0.000431,0.009872
58506000,0.0324,0.013523,0.002678,0.000431,0.006111
58507000,0.0324,0.013523,0.002678,0.000431,0.005641
58508000,0.0324,0.013523,0.002678,0.000431,0.006229
58509000,0.0324,0.013523,0.002678,0.000431,0.005406
58510000,0.0324,0.013523,0.002678,0.000431,0.006347
58511000,0.0324,0.013523,0.002678,0.000431,0.005524
58512000,0.0324,0.013523,0.002678,0.000431,0.005994
58513000,0.0324,0.013523,0.002678,0.000431,0.005994
58514000,0.0324,0.013523,0.002678,0.000431,0.005759
58515000,0.0324,0.013523,0.002678,0.000431,0.006229
58516000,0.0324,0.013523,0.002678,0.000431,0.005524
58517000,0.0324,0.013523,0.002678,0.000431,0.005641
58518000,0.0324,0.013523,0.002678,0.000431,0.006347
58519000,0.0324,0.013523,0.002678,0.000431,0.005994
58520000,0.0324,0.013523,0.002678,0.000431,0.005524
58521000,0.0324,0.013523,0.002678,0.000431,0.006111
58522000,0.0324,0.013523,0.002678,0.000431,0.005524
58523000,0.0324,0.013523,0.002678,0.000431,0.006229
58524000,0.0324,0.013523,0.002678,0.000431,0.005876
58525000,0.0324,0.013523,0.002678,0.000431,0.005641
58526000,0.0324,0.013523,0.002678,0.000431,0.005641
58527000,0.0324,0.013523,0.002678,0.000431,0.004819
58528000,0.0324,0.013523,0.002678,0.000431,0.005406
58529000,0.0324,0.013523,0.002678,0.000431,0.009520
58530000,0.0324,0.013523,0.002678,0.000431,0.003291
58531000,0.0324,0.013523,0.002678,0.000431,0.003408
58532000,0.0324,0.013523,0.002678,0.000431,0.004231
58533000,0.0324,0.013523,0.002678,0.000431,0.003996
58534000,0.0324,0.013523,0.002678,0.000431,0.002116
58535000,0.0324,0.013523,0.002678,0.000431,0.002821
58536000,0.0324,0.013523,0.002678,0.000431,0.002468
58537000,0.0324,0.013523,0.002678,0.000431,0.002586
58538000,0.0324,0.013523,0.002678,0.000431,0.002586
58539000,0.0324,0.013523,0.002678,0.000431,0.003996
58540000,0.0324,0.013523,0.002678,0.000431,0.001880
58541000,0.0324,0.013523,0.002678,0.000431,0.001528
58542000,0.0324,0.013523,0.002678,0.000431,0.001763
58543000,0.0324,0.013523,0.002678,0.000431,0.001763
58544000,0.0324,0.013523,0.002678,0.000431,0.001763
58545000,0.0324,0.013523,0.002678,0.000431,0.001528
58546000,0.0324,0.013523,0.002678,0.000431,0.001763
58547000,0.0324,0.013523,0.002678,0.000431,0.001880
58548000,0.0324,0.013523,0.002678,0.000431,0.001528
58549000,0.0324,0.013523,0.002678,0.000431,0.001880
58550000,0.0324,0.013523,0.002678,0.000431,0.001528
58551000,0.0324,0.013523,0.002678,0.000431,0.002703
58552000,0.0324,0.013523,0.002678,0.000431,0.001998
58553000,0.0324,0.013523,0.002678,0.000431,0.000823
58554000,0.0324,0.013523,0.002678,0.000431,0.000940
58555000,0.0324,0.013523,0.002678,0.000431,0.000940
58556000,0.0324,0.013523,0.002678,0.000431,0.000940
58557000,0.0324,0.013523,0.002678,0.000431,0.000705
58558000,0.0324,0.013523,0.002678,0.000431,0.000940
58559000,0.0324,0.013523,0.002678,0.000431,0.000940
58560000,0.0324,0.013523,0.002678,0.000431,0.000823
58561000,0.0324,0.013523,0.002678,0.000431,0.000823
58562000,0.0324,0.013523,0.002678,0.000431,0.000940
58563000,0.0324,0.013523,0.002678,0.000431,0.000823
58564000,0.0324,0.013523,0.002678,0.000431,0.000940
58565000,0.0324,0.013523,0.002678,0.000431,0.000823
58566000,0.0324,0.013523,0.002678,0.000431,0.000940
58567000,0.0324,0.013523,0.002678,0.000431,0.000823
58568000,0.0324,0.013523,0.002678,0.000431,0.000823
58569000,0.0324,0.013523,0.002678,0.000431,0.000940
58570000,0.0324,0.013523,0.002678,0.000431,0.000940
58571000,0.0324,0.013523,0.002678,0.000431,0.000823
58572000,0.0324,0.013523,0.002678,0.000431,0.000823
58573000,0.0324,0.013523,0.002678,0.000431,0.000940
58574000,0.0324,0.013523,0.002678,0.000431,0.000940
58575000,0.0324,0.013523,0.002678,0.000431,0.000705
58576000,0.0324,0.013523,0.002678,0.000431,0.000940
58577000,0.0324,0.013523,0.002678,0.000431,0.000940
58578000,0.0324,0.013523,0.002678,0.000431,0.000940
58579000,0.0324,0.013523,0.002678,0.000431,0.000823
58580000,0.0324,0.013523,0.002678,0.000431,0.000823
58581000,0.0324,0.013523,0.002678,0.000431,0.000940
58582000,0.0324,0.013523,0.002678,0.000431,0.000823
58583000,0.0324,0.013523,0.002678,0.000431,0.000940
58584000,0.0324,0.013523,0.002678,0.000431,0.000823
58585000,0.0324,0.013523,0.002678,0.000431,0.000940
58586000,0.0324,0.013523,0.002678,0.000431,0.000823
58587000,0.0324,0.013523,0.002678,0.000431,0.000823
58588000,0.0324,0.013523,0.002678,0.000431,0.000940
58589000,0.0324,0.013523,0.002678,0.000431,0.000940
58590000,0.0324,0.013523,0.002678,0.000431,0.000823
58591000,0.0324,0.013523,0.002678,0.000431,0.000823
58592000,0.0324,0.013523,0.002678,0.000431,0.000940
58593000,0.0324,0.013523,0.002678,0.000431,0.000940
58594000,0.0324,0.013523,0.002678,0.000431,0.000705
58595000,0.0324,0.013523,0.002678,0.000431,0.000940
58596000,0.0324,0.013523,0.002678,0.000431,0.000940
58597000,0.0324,0.013523,0.002678,0.000431,0.000940
58598000,0.0324,0.013523,0.002678,0.000431,0.000823
58599000,0.0324,0.013523,0.002678,0.000431,0.015514
58600000,0.0324,0.013523,0.002678,0.000431,0.547094
58601000,0.0324,0.013523,0.002678,0.000431,0.596338
58602000,0.0324,0.013523,0.002678,0.000431,0.133512
58603000,0.0324,0.013523,0.002678,0.000431,0.133042
58604000,0.0324,0.013523,0.002678,0.000431,0.504431
58605000,0.0324,0.013523,0.002678,0.000431,0.312155
58606000,0.0324,0.013523,0.002678,0.000431,0.248337
58607000,0.0324,0.013523,0.002678,0.000431,0.314388
58608000,0.0324,0.013523,0.002678,0.000431,0.144207
58609000,0.0324,0.013523,0.002678,0.000431,0.141857
58610000,0.0324,0.013523,0.002678,0.000431,0.109184
58611000,0.0324,0.013523,0.002678,0.000431,0.358226
58612000,0.0324,0.013523,0.002678,0.000431,0.276896
58613000,0.0324,0.013523,0.002678,0.000431,0.064641
58614000,0.0324,0.013523,0.002678,0.000431,0.061585
58615000,0.0324,0.013523,0.002678,0.000431,0.041370
58616000,0.0324,0.013523,0.002678,0.000431,0.038079
58617000,0.0324,0.013523,0.002678,0.000431,0.037727
58618000,0.0324,0.013523,0.002678,0.000431,0.026914
58619000,0.0324,0.013523,0.002678,0.000431,0.021038
58620000,0.0324,0.013523,0.002678,0.000431,0.021273
58621000,0.0324,0.013523,0.002678,0.000431,0.014573
58622000,0.0324,0.013523,0.002678,0.000431,0.013163
58623000,0.0324,0.013523,0.002678,0.000431,0.011400
58624000,0.0324,0.013523,0.002678,0.000431,0.014926
58625000,0.0324,0.013523,0.002678,0.000431,0.007757
58626000,0.0324,0.013523,0.002678,0.000431,0.010225
58627000,0.0324,0.013523,0.002678,0.000431,0.009402
58628000,0.0324,0.013523,0.002678,0.000431,0.006817
58629000,0.0324,0.013523,0.002678,0.000431,0.005171
58630000,0.0324,0.013523,0.002678,0.000431,0.004113
58631000,0.0324,0.013523,0.002678,0.000431,0.004584
58632000,0.0324,0.013523,0.002678,0.000431,0.004349
58633000,0.0324,0.013523,0.002678,0.000431,0.004231
58634000,0.0324,0.013523,0.002678,0.000431,0.004466
58635000,0.0324,0.013523,0.002678,0.000431,0.006699
58636000,0.0324,0.013523,0.002678,0.000431,0.002703
58637000,0.0324,0.013523,0.002678,0.000431,0.002586
58638000,0.0324,0.013523,0.002678,0.000431,0.002468
58639000,0.0324,0.013523,0.002678,0.000431,0.002586
58640000,0.0324,0.013523,0.002678,0.000431,0.002586
58641000,0.0324,0.013523,0.002678,0.000431,0.002586
58642000,0.0324,0.013523,0.002678,0.000431,0.002351
58643000,0.0324,0.013523,0.002678,0.000431,0.002821
58644000,0.0324,0.013523,0.002678,0.000431,0.002586
58645000,0.0324,0.013523,0.002678,0.000431,0.002233
58646000,0.0324,0.013523,0.002678,0.000431,0.002703
58647000,0.0324,0.013523,0.002678,0.000431,0.002586
58648000,0.0324,0.013523,0.002678,0.000431,0.002468
58649000,0.0324,0.013523,0.002678,0.000431,0.002468
58650000,0.0324,0.013523,0.002678,0.000431,0.002468
58651000,0.0324,0.013523,0.002678,0.000431,0.002821
58652000,0.0324,0.013523,0.002678,0.000431,0.002586
58653000,0.0324,0.013523,0.002678,0.000431,0.002468
58654000,0.0324,0.013523,0.002678,0.000431,0.002468
58655000,0.0324,0.013523,0.002678,0.000431,0.002468
58656000,0.0324,0.013523,0.002678,0.000431,0.002703
58657000,0.0324,0.013523,0.002678,0.000431,0.005171
58658000,0.0324,0.013523,0.002678,0.000431,0.001880
58659000,0.0324,0.013523,0.002678,0.000431,0.001763
58660000,0.0324,0.013523,0.002678,0.000431,0.003996
58661000,0.0324,0.013523,0.002678,0.000431,0.000940
58662000,0.0324,0.013523,0.002678,0.000431,0.000940
58663000,0.0324,0.013523,0.002678,0.000431,0.000823
58664000,0.0324,0.013523,0.002678,0.000431,0.000823
58665000,0.0324,0.013523,0.002678,0.000431,0.000940
58666000,0.0324,0.013523,0.002678,0.000431,0.000940
58667000,0.0324,0.013523,0.002678,0.000431,0.000823
58668000,0.0324,0.013523,0.002678,0.000431,0.000823
58669000,0.0324,0.013523,0.002678,0.000431,0.000940
58670000,0.0324,0.013523,0.002678,0.000431,0.000823
58671000,0.0324,0.013523,0.002678,0.000431,0.000940
58672000,0.0324,0.013523,0.002678,0.000431,0.000823
58673000,0.0324,0.013523,0.002678,0.000431,0.000940
58674000,0.0324,0.013523,0.002678,0.000431,0.000823
58675000,0.0324,0.013523,0.002678,0.000431,0.000823
58676000,0.0324,0.013523,0.002678,0.000431,0.000940
58677000,0.0324,0.013523,0.002678,0.000431,0.000940
58678000,0.0324,0.013523,0.002678,0.000431,0.000823
58679000,0.0324,0.013523,0.002678,0.000431,0.000823
58680000,0.0324,0.013523,0.002678,0.000431,0.000940
58681000,0.0324,0.013523,0.002678,0.000431,0.000940
58682000,0.0324,0.013523,0.002678,0.000431,0.000705
58683000,0.0324,0.013523,0.002678,0.000431,0.000940
58684000,0.0324,0.013523,0.002678,0.000431,0.000940
58685000,0.0324,0.013523,0.002678,0.000431,0.000940
58686000,0.0324,0.013523,0.002678,0.000431,0.000705
58687000,0.0324,0.013523,0.002678,0.000431,0.000940
58688000,0.0324,0.013523,0.002678,0.000431,0.000940
58689000,0.0324,0.013523,0.002678,0.000431,0.000823
58690000,0.0324,0.013523,0.002678,0.000431,0.000940
58691000,0.0324,0.013523,0.002678,0.000431,0.000823
58692000,0.0324,0.013523,0.002678,0.000431,0.000940
58693000,0.0324,0.013523,0.002678,0.000431,0.000823
58694000,0.0324,0.013523,0.002678,0.000431,0.000823
58695000,0.0324,0.013523,0.002678,0.000431,0.000940
58696000,0.0324,0.013523,0.002678,0.000431,0.000823
58697000,0.0324,0.013523,0.002678,0.000431,0.000940
58698000,0.0324,0.013523,0.002678,0.000431,0.000823
58699000,0.0324,0.013523,0.002678,0.000431,0.000940
58700000,0.0324,0.013523,0.002678,0.000431,0.000940
58701000,0.0324,0.013523,0.002678,0.000431,0.000705
58702000,0.0324,0.013523,0.002678,0.000431,0.000940
58703000,0.0324,0.013523,0.002678,0.000431,0.000940
58704000,0.0324,0.013523,0.002678,0.000431,0.000940
58705000,0.0324,0.013523,0.002678,0.000431,0.000705
58706000,0.0324,0.013523,0.002678,0.000431,0.000940
58707000,0.0324,0.013523,0.002678,0.000431,0.000940
58708000,0.0324,0.013523,0.002678,0.000431,0.000823
58709000,0.0324,0.013523,0.002678,0.000431,0.000823
58710000,0.0324,0.013523,0.002678,0.000431,0.014103
58711000,0.0324,0.013523,0.002678,0.000431,0.511013
58712000,0.0324,0.013523,0.002678,0.000431,0.603037
58713000,0.0324,0.013523,0.002678,0.000431,0.134452
58714000,0.0324,0.013523,0.002678,0.000431,0.132102
58715000,0.0324,0.013523,0.002678,0.000431,0.316503
58716000,0.0324,0.013523,0.002678,0.000431,0.464236
58717000,0.0324,0.013523,0.002678,0.000431,0.256917
58718000,0.0324,0.013523,0.002678,0.000431,0.289824
58719000,0.0324,0.013523,0.002678,0.000431,0.178290
58720000,0.0324,0.013523,0.002678,0.000431,0.139271
58721000,0.0324,0.013523,0.002678,0.000431,0.158428
58722000,0.0324,0.013523,0.002678,0.000431,0.169828
58723000,0.0324,0.013523,0.002678,0.000431,0.418283
58724000,0.0324,0.013523,0.002678,0.000431,0.033966
58725000,0.0324,0.013523,0.002678,0.000431,0.027854
58726000,0.0324,0.013523,0.002678,0.000431,0.020450
58727000,0.0324,0.013523,0.002678,0.000431,0.018687
58728000,0.0324,0.013523,0.002678,0.000431,0.022213
58729000,0.0324,0.013523,0.002678,0.000431,0.018217
58730000,0.0324,0.013523,0.002678,0.000431,0.013163
58731000,0.0324,0.013523,0.002678,0.000431,0.013751
58732000,0.0324,0.013523,0.002678,0.000431,0.012811
58733000,0.0324,0.013523,0.002678,0.000431,0.011283
58734000,0.0324,0.013523,0.002678,0.000431,0.009755
58735000,0.0324,0.013523,0.002678,0.000431,0.008227
58736000,0.0324,0.013523,0.002678,0.000431,0.008580
58737000,0.0324,0.013523,0.002678,0.000431,0.007404
58738000,0.0324,0.013523,0.002678,0.000431,0.006464
58739000,0.0324,0.013523,0.002678,0.000431,0.006111
58740000,0.0324,0.013523,0.002678,0.000431,0.009755
58741000,0.0324,0.013523,0.002678,0.000431,0.004349
58742000,0.0324,0.013523,0.002678,0.000431,0.005289
58743000,0.0324,0.013523,0.002678,0.000431,0.004584
58744000,0.0324,0.013523,0.002678,0.000431,0.004936
58745000,0.0324,0.013523,0.002678,0.000431,0.003996
58746000,0.0324,0.013523,0.002678,0.000431,0.004349
58747000,0.0324,0.013523,0.002678,0.000431,0.004113
58748000,0.0324,0.013523,0.002678,0.000431,0.004113
58749000,0.0324,0.013523,0.002678,0.000431,0.004584
58750000,0.0324,0.013523,0.002678,0.000431,0.003878
58751000,0.0324,0.013523,0.002678,0.000431,0.004584
58752000,0.0324,0.013523,0.002678,0.000431,0.003878
58753000,0.0324,0.013523,0.002678,0.000431,0.004466
58754000,0.0324,0.013523,0.002678,0.000431,0.004349
58755000,0.0324,0.013523,0.002678,0.000431,0.006699
58756000,0.0324,0.013523,0.002678,0.000431,0.003761
58757000,0.0324,0.013523,0.002678,0.000431,0.004113
58758000,0.0324,0.013523,0.002678,0.000431,0.001880
58759000,0.0324,0.013523,0.002678,0.000431,0.001763
58760000,0.0324,0.013523,0.002678,0.000431,0.001528
58761000,0.0324,0.013523,0.002678,0.000431,0.001645
58762000,0.0324,0.013523,0.002678,0.000431,0.001645
58763000,0.0324,0.013523,0.002678,0.000431,0.001880
58764000,0.0324,0.013523,0.002678,0.000431,0.001528
58765000,0.0324,0.013523,0.002678,0.000431,0.003173
58766000,0.0324,0.013523,0.002678,0.000431,0.002586
58767000,0.0324,0.013523,0.002678,0.000431,0.000823
58768000,0.0324,0.013523,0.002678,0.000431,0.000940
58769000,0.0324,0.013523,0.002678,0.000431,0.000705
58770000,0.0324,0.013523,0.002678,0.000431,0.000940
58771000,0.0324,0.013523,0.002678,0.000431,0.000823
58772000,0.0324,0.013523,0.002678,0.000431,0.000823
58773000,0.0324,0.013523,0.002678,0.000431,0.000823
58774000,0.0324,0.013523,0.002678,0.000431,0.000823
58775000,0.0324,0.013523,0.002678,0.000431,0.000823
58776000,0.0324,0.013523,0.002678,0.000431,0.000823
58777000,0.0324,0.013523,0.002678,0.000431,0.000940
58778000,0.0324,0.013523,0.002678,0.000431,0.000705
58779000,0.0324,0.013523,0.002678,0.000431,0.000940
58780000,0.0324,0.013523,0.002678,0.000431,0.000705
58781000,0.0324,0.013523,0.002678,0.000431,0.000940
58782000,0.0324,0.013523,0.002678,0.000431,0.000823
58783000,0.0324,0.013523,0.002678,0.000431,0.000823
58784000,0.0324,0.013523,0.002678,0.000431,0.000940
58785000,0.0324,0.013523,0.002678,0.000431,0.000705
58786000,0.0324,0.013523,0.002678,0.000431,0.000940
58787000,0.0324,0.013523,0.002678,0.000431,0.000823
58788000,0.0324,0.013523,0.002678,0.000431,0.000823
58789000,0.0324,0.013523,0.002678,0.000431,0.000823
58790000,0.0324,0.013523,0.002678,0.000431,0.000823
58791000,0.0324,0.013523,0.002678,0.000431,0.000823
58792000,0.0324,0.013523,0.002678,0.000431,0.000823
58793000,0.0324,0.013523,0.002678,0.000431,0.000940
58794000,0.0324,0.013523,0.002678,0.000431,0.000705
58795000,0.0324,0.013523,0.002678,0.000431,0.000823
58796000,0.0324,0.013523,0.002678,0.000431,0.000940
58797000,0.0324,0.013523,0.002678,0.000431,0.000823
58798000,0.0324,0.013523,0.002678,0.000431,0.000823
58799000,0.0324,0.013523,0.002678,0.000431,0.000823
58800000,0.0324,0.013523,0.002678,0.000431,0.000705
58801000,0.0324,0.013523,0.002678,0.000431,0.000940
58802000,0.0324,0.013523,0.002678,0.000431,0.000940
58803000,0.0324,0.013523,0.002678,0.000431,0.000705
58804000,0.0324,0.013523,0.002678,0.000431,0.000940
58805000,0.0324,0.013523,0.002678,0.000431,0.000705
58806000,0.0324,0.013523,0.002678,0.000431,0.000940
58807000,0.0324,0.013523,0.002678,0.000431,0.000940
58808000,0.0324,0.013523,0.002678,0.000431,0.000705
58809000,0.0324,0.013523,0.002678,0.000431,0.000940
58810000,0.0324,0.013523,0.002678,0.000431,0.000705
58811000,0.0324,0.013523,0.002678,0.000431,0.000940
58812000,0.0324,0.013523,0.002678,0.000431,0.000823
58813000,0.0324,0.013523,0.002678,0.000431,0.000823
58814000,0.0324,0.013523,0.002678,0.000431,0.000823
58815000,0.0324,0.013523,0.002678,0.000431,0.000823
58816000,0.0324,0.013523,0.002678,0.000431,0.000940
58817000,0.0324,0.013523,0.002678,0.000431,0.000705
58818000,0.0324,0.013523,0.002678,0.000431,0.000940
58819000,0.0324,0.013523,0.002678,0.000431,0.000823
58820000,0.0324,0.013523,0.002678,0.000431,0.000823
58821000,0.0324,0.013523,0.002678,0.000431,0.000823
58822000,0.0324,0.013523,0.002678,0.000431,0.000823
58823000,0.0324,0.013523,0.002678,0.000431,0.000705
58824000,0.0324,0.013523,0.002678,0.000431,0.000940
58825000,0.0324,0.013523,0.002678,0.000431,0.000940
58826000,0.0324,0.013523,0.002678,0.000431,0.000705
58827000,0.0324,0.013523,0.002678,0.000431,0.000940
58828000,0.0324,0.013523,0.002678,0.000431,0.000705
58829000,0.0324,0.013523,0.002678,0.000431,0.000940
58830000,0.0324,0.013523,0.002678,0.000431,0.000823
58831000,0.0324,0.013523,0.002678,0.000431,0.000823
58832000,0.0324,0.013523,0.002678,0.000431,0.000940
58833000,0.0324,0.013523,0.002678,0.000431,0.000705
58834000,0.0324,0.013523,0.002678,0.000431,0.000940
58835000,0.0324,0.013523,0.002678,0.000431,0.000705
58836000,0.0324,0.013523,0.002678,0.000431,0.000823
58837000,0.0324,0.013523,0.002678,0.000431,0.000823
58838000,0.0324,0.013523,0.002678,0.000431,0.000940
58839000,0.0324,0.013523,0.002678,0.000431,0.000705
58840000,0.0324,0.013523,0.002678,0.000431,0.000940
58841000,0.0324,0.013523,0.002678,0.000431,0.000823
58842000,0.0324,0.013523,0.002678,0.000431,0.000823
58843000,0.0324,0.013523,0.002678,0.000431,0.067109
58844000,0.0324,0.013523,0.002678,0.000431,0.415345
58845000,0.0324,0.013523,0.002678,0.000431,0.609266
58846000,0.0324,0.013523,0.002678,0.000431,0.131161
58847000,0.0324,0.013523,0.002678,0.000431,0.133982
58848000,0.0324,0.013523,0.002678,0.000431,0.489387
58849000,0.0324,0.013523,0.002678,0.000431,0.286064
58850000,0.0324,0.013523,0.002678,0.000431,0.229180
58851000,0.0324,0.013523,0.002678,0.000431,0.340244
58852000,0.0324,0.013523,0.002678,0.000431,0.192511
58853000,0.0324,0.013523,0.002678,0.000431,0.136803
58854000,0.0324,0.013523,0.002678,0.000431,0.140799
58855000,0.0324,0.013523,0.002678,0.000431,0.233293
58856000,0.0324,0.013523,0.002678,0.000431,0.348589
58857000,0.0324,0.013523,0.002678,0.000431,0.047246
58858000,0.0324,0.013523,0.002678,0.000431,0.038197
58859000,0.0324,0.013523,0.002678,0.000431,0.031027
58860000,0.0324,0.013523,0.002678,0.000431,0.022095
58861000,0.0324,0.013523,0.002678,0.000431,0.023153
58862000,0.0324,0.013523,0.002678,0.000431,0.018452
58863000,0.0324,0.013523,0.002678,0.000431,0.018452
58864000,0.0324,0.013523,0.002678,0.000431,0.016101
58865000,0.0324,0.013523,0.002678,0.000431,0.014926
58866000,0.0324,0.013523,0.002678,0.000431,0.014103
58867000,0.0324,0.013523,0.002678,0.000431,0.012693
58868000,0.0324,0.013523,0.002678,0.000431,0.011518
58869000,0.0324,0.013523,0.002678,0.000431,0.009990
58870000,0.0324,0.013523,0.002678,0.000431,0.014573
58871000,0.0324,0.013523,0.002678,0.000431,0.008227
58872000,0.0324,0.013523,0.002678,0.000431,0.009285
58873000,0.0324,0.013523,0.002678,0.000431,0.007287
58874000,0.0324,0.013523,0.002678,0.000431,0.007052
58875000,0.0324,0.013523,0.002678,0.000431,0.006229
58876000,0.0324,0.013523,0.002678,0.000431,0.006111
58877000,0.0324,0.013523,0.002678,0.000431,0.007287
58878000,0.0324,0.013523,0.002678,0.000431,0.006229
58879000,0.0324,0.013523,0.002678,0.000431,0.005641
58880000,0.0324,0.013523,0.002678,0.000431,0.006347
58881000,0.0324,0.013523,0.002678,0.000431,0.005876
58882000,0.0324,0.013523,0.002678,0.000431,0.005876
58883000,0.0324,0.013523,0.002678,0.000431,0.005171
58884000,0.0324,0.013523,0.002678,0.000431,0.004819
58885000,0.0324,0.013523,0.002678,0.000431,0.006229
58886000,0.0324,0.013523,0.002678,0.000431,0.005289
58887000,0.0324,0.013523,0.002678,0.000431,0.003996
58888000,0.0324,0.013523,0.002678,0.000431,0.003996
58889000,0.0324,0.013523,0.002678,0.000431,0.004231
58890000,0.0324,0.013523,0.002678,0.000431,0.005524
58891000,0.0324,0.013523,0.002678,0.000431,0.002938
58892000,0.0324,0.013523,0.002678,0.000431,0.004936
58893000,0.0324,0.013523,0.002678,0.000431,0.003173
58894000,0.0324,0.013523,0.002678,0.000431,0.001763
58895000,0.0324,0.013523,0.002678,0.000431,0.001645
58896000,0.0324,0.013523,0.002678,0.000431,0.001763
58897000,0.0324,0.013523,0.002678,0.000431,0.001645
58898000,0.0324,0.013523,0.002678,0.000431,0.001645
58899000,0.0324,0.013523,0.002678,0.000431,0.001410
58900000,0.0324,0.013523,0.002678,0.000431,0.001880
58901000,0.0324,0.013523,0.002678,0.000431,0.001880
58902000,0.0324,0.013523,0.002678,0.000431,0.001410
58903000,0.0324,0.013523,0.002678,0.000431,0.004231
58904000,0.0324,0.013523,0.002678,0.000431,0.000823
58905000,0.0324,0.013523,0.002678,0.000431,0.000940
58906000,0.0324,0.013523,0.002678,0.000431,0.000823
58907000,0.0324,0.013523,0.002678,0.000431,0.000823
58908000,0.0324,0.013523,0.002678,0.000431,0.000823
58909000,0.0324,0.013523,0.002678,0.000431,0.000823
58910000,0.0324,0.013523,0.002678,0.000431,0.000823
58911000,0.0324,0.013523,0.002678,0.000431,0.000823
58912000,0.0324,0.013523,0.002678,0.000431,0.000940
58913000,0.0324,0.013523,0.002678,0.000431,0.000705
58914000,0.0324,0.013523,0.002678,0.000431,0.000823
58915000,0.0324,0.013523,0.002678,0.000431,0.000940
58916000,0.0324,0.013523,0.002678,0.000431,0.000823
58917000,0.0324,0.013523,0.002678,0.000431,0.000823
58918000,0.0324,0.013523,0.002678,0.000431,0.000823
58919000,0.0324,0.013523,0.002678,0.000431,0.000705
58920000,0.0324,0.013523,0.002678,0.000431,0.000940
58921000,0.0324,0.013523,0.002678,0.000431,0.000940
58922000,0.0324,0.013523,0.002678,0.000431,0.000705
58923000,0.0324,0.013523,0.002678,0.000431,0.000940
58924000,0.0324,0.013523,0.002678,0.000431,0.000705
58925000,0.0324,0.013523,0.002678,0.000431,0.000940
58926000,0.0324,0.013523,0.002678,0.000431,0.000940
58927000,0.0324,0.013523,0.002678,0.000431,0.000705
58928000,0.0324,0.013523,0.002678,0.000431,0.000940
58929000,0.0324,0.013523,0.002678,0.000431,0.000705
58930000,0.0324,0.013523,0.002678,0.000431,0.000940
58931000,0.0324,0.013523,0.002678,0.000431,0.000823
58932000,0.0324,0.013523,0.002678,0.000431,0.000823
58933000,0.0324,0.013523,0.002678,0.000431,0.000823
58934000,0.0324,0.013523,0.002678,0.000431,0.000823
58935000,0.0324,0.013523,0.002678,0.000431,0.000940
58936000,0.0324,0.013523,0.002678,0.000431,0.000705
58937000,0.0324,0.013523,0.002678,0.000431,0.000940
58938000,0.0324,0.013523,0.002678,0.000431,0.000823
58939000,0.0324,0.013523,0.002678,0.000431,0.000823
58940000,0.0324,0.013523,0.002678,0.000431,0.000823
58941000,0.0324,0.013523,0.002678,0.000431,0.000823
58942000,0.0324,0.013523,0.002678,0.000431,0.000705
58943000,0.0324,0.013523,0.002678,0.000431,0.000940
58944000,0.0324,0.013523,0.002678,0.000431,0.000940
58945000,0.0324,0.013523,0.002678,0.000431,0.000705
58946000,0.0324,0.013523,0.002678,0.000431,0.000940
58947000,0.0324,0.013523,0.002678,0.000431,0.000705
58948000,0.0324,0.013523,0.002678,0.000431,0.000940
58949000,0.0324,0.013523,0.002678,0.000431,0.000940
58950000,0.0324,0.013523,0.002678,0.000431,0.000705
58951000,0.0324,0.013523,0.002678,0.000431,0.000940
58952000,0.0324,0.013523,0.002678,0.000431,0.000705
58953000,0.0324,0.013523,0.002678,0.000431,0.000940
58954000,0.0324,0.013523,0.002678,0.000431,0.000823
58955000,0.0324,0.013523,0.002678,0.000431,0.000823
58956000,0.0324,0.013523,0.002678,0.000431,0.000823
58957000,0.0324,0.013523,0.002678,0.000431,0.000823
58958000,0.0324,0.013523,0.002678,0.000431,0.000940
58959000,0.0324,0.013523,0.002678,0.000431,0.000705
58960000,0.0324,0.013523,0.002678,0.000431,0.000940
58961000,0.0324,0.013523,0.002678,0.000431,0.000705
58962000,0.0324,0.013523,0.002678,0.000431,0.000823
58963000,0.0324,0.013523,0.002678,0.000431,0.000940
58964000,0.0324,0.013523,0.002678,0.000431,0.000823
58965000,0.0324,0.013523,0.002678,0.000431,0.000823
58966000,0.0324,0.013523,0.002678,0.000431,0.000823
58967000,0.0324,0.013523,0.002678,0.000431,0.000823
58968000,0.0324,0.013523,0.002678,0.000431,0.000823
58969000,0.0324,0.013523,0.002678,0.000431,0.000940
58970000,0.0324,0.013523,0.002678,0.000431,0.000823
58971000,0.0324,0.013523,0.002678,0.000431,0.000823
58972000,0.0324,0.013523,0.002678,0.000431,0.000705
58973000,0.0324,0.013523,0.002678,0.000431,0.000940
58974000,0.0324,0.013523,0.002678,0.000431,0.000940
58975000,0.0324,0.013523,0.002678,0.000431,0.000705
58976000,0.0324,0.013523,0.002678,0.000431,0.000940
58977000,0.0324,0.013523,0.002678,0.000431,0.000705
58978000,0.0324,0.013523,0.002678,0.000431,0.000940
58979000,0.0324,0.013523,0.002678,0.000431,0.000823
58980000,0.0324,0.013523,0.002678,0.000431,0.000823
58981000,0.0324,0.013523,0.002678,0.000431,0.000823
58982000,0.0324,0.013523,0.002678,0.000431,0.000823
58983000,0.0324,0.013523,0.002678,0.000431,0.000940
58984000,0.0324,0.013523,0.002678,0.000431,0.000705
58985000,0.0324,0.013523,0.002678,0.000431,0.000940
58986000,0.0324,0.013523,0.002678,0.000431,0.000823
58987000,0.0324,0.013523,0.002678,0.000431,0.000823
58988000,0.0324,0.013523,0.002678,0.000431,0.000823
58989000,0.0324,0.013523,0.002678,0.000431,0.000823
58990000,0.0324,0.013523,0.002678,0.000431,0.000823
58991000,0.0324,0.013523,0.002678,0.000431,0.000823
58992000,0.0324,0.013523,0.002678,0.000431,0.000940
58993000,0.0324,0.013523,0.002678,0.000431,0.000705
58994000,0.0324,0.013523,0.002678,0.000431,0.000940
58995000,0.0324,0.013523,0.002678,0.000431,0.000705
58996000,0.0324,0.013523,0.002678,0.000431,0.000940
58997000,0.0324,0.013523,0.002678,0.000431,0.000940
58998000,0.0324,0.013523,0.002678,0.000431,0.000705
58999000,0.0324,0.013523,0.002678,0.000431,0.000940
