Cycle,Area(mm^2),PeakDynamic(W),SubthresholdLeakage(W),GateLeakage(W),RunTimeDynamic(W)
51000000,0.0324,0.013523,0.002678,0.000431,0.334955
51001000,0.0324,0.013523,0.002678,0.000431,0.337188
51002000,0.0324,0.013523,0.002678,0.000431,0.144207
51003000,0.0324,0.013523,0.002678,0.000431,0.114943
51004000,0.0324,0.013523,0.002678,0.000431,0.102367
51005000,0.0324,0.013523,0.002678,0.000431,0.082505
51006000,0.0324,0.013523,0.002678,0.000431,0.076981
51007000,0.0324,0.013523,0.002678,0.000431,0.064288
51008000,0.0324,0.013523,0.002678,0.000431,0.057706
51009000,0.0324,0.013523,0.002678,0.000431,0.043015
51010000,0.0324,0.013523,0.002678,0.000431,0.040430
51011000,0.0324,0.013523,0.002678,0.000431,0.043250
51012000,0.0324,0.013523,0.002678,0.000431,0.028442
51013000,0.0324,0.013523,0.002678,0.000431,0.024563
51014000,0.0324,0.013523,0.002678,0.000431,0.021273
51015000,0.0324,0.013523,0.002678,0.000431,0.018569
51016000,0.0324,0.013523,0.002678,0.000431,0.018099
51017000,0.0324,0.013523,0.002678,0.000431,0.013046
51018000,0.0324,0.013523,0.002678,0.000431,0.014926
51019000,0.0324,0.013523,0.002678,0.000431,0.014456
51020000,0.0324,0.013523,0.002678,0.000431,0.011165
51021000,0.0324,0.013523,0.002678,0.000431,0.012105
51022000,0.0324,0.013523,0.002678,0.000431,0.009990
51023000,0.0324,0.013523,0.002678,0.000431,0.008345
51024000,0.0324,0.013523,0.002678,0.000431,0.008815
51025000,0.0324,0.013523,0.002678,0.000431,0.013163
51026000,0.0324,0.013523,0.002678,0.000431,0.011283
51027000,0.0324,0.013523,0.002678,0.000431,0.008815
51028000,0.0324,0.013523,0.002678,0.000431,0.005171
51029000,0.0324,0.013523,0.002678,0.000431,0.008462
51030000,0.0324,0.013523,0.002678,0.000431,0.003408
51031000,0.0324,0.013523,0.002678,0.000431,0.005054
51032000,0.0324,0.013523,0.002678,0.000431,0.003408
51033000,0.0324,0.013523,0.002678,0.000431,0.002468
51034000,0.0324,0.013523,0.002678,0.000431,0.002468
51035000,0.0324,0.013523,0.002678,0.000431,0.001998
51036000,0.0324,0.013523,0.002678,0.000431,0.002821
51037000,0.0324,0.013523,0.002678,0.000431,0.001645
51038000,0.0324,0.013523,0.002678,0.000431,0.002821
51039000,0.0324,0.013523,0.002678,0.000431,0.002351
51040000,0.0324,0.013523,0.002678,0.000431,0.002116
51041000,0.0324,0.013523,0.002678,0.000431,0.002468
51042000,0.0324,0.013523,0.002678,0.000431,0.001998
51043000,0.0324,0.013523,0.002678,0.000431,0.002821
51044000,0.0324,0.013523,0.002678,0.000431,0.002116
51045000,0.0324,0.013523,0.002678,0.000431,0.002351
51046000,0.0324,0.013523,0.002678,0.000431,0.002116
51047000,0.0324,0.013523,0.002678,0.000431,0.002351
51048000,0.0324,0.013523,0.002678,0.000431,0.002468
51049000,0.0324,0.013523,0.002678,0.000431,0.002468
51050000,0.0324,0.013523,0.002678,0.000431,0.001998
51051000,0.0324,0.013523,0.002678,0.000431,0.002468
51052000,0.0324,0.013523,0.002678,0.000431,0.001880
51053000,0.0324,0.013523,0.002678,0.000431,0.002586
51054000,0.0324,0.013523,0.002678,0.000431,0.002821
51055000,0.0324,0.013523,0.002678,0.000431,0.001645
51056000,0.0324,0.013523,0.002678,0.000431,0.002821
51057000,0.0324,0.013523,0.002678,0.000431,0.001880
51058000,0.0324,0.013523,0.002678,0.000431,0.002586
51059000,0.0324,0.013523,0.002678,0.000431,0.002468
51060000,0.0324,0.013523,0.002678,0.000431,0.001998
51061000,0.0324,0.013523,0.002678,0.000431,0.002468
51062000,0.0324,0.013523,0.002678,0.000431,0.002233
51063000,0.0324,0.013523,0.002678,0.000431,0.002233
51064000,0.0324,0.013523,0.002678,0.000431,0.002468
51065000,0.0324,0.013523,0.002678,0.000431,0.002116
51066000,0.0324,0.013523,0.002678,0.000431,0.002351
51067000,0.0324,0.013523,0.002678,0.000431,0.002468
51068000,0.0324,0.013523,0.002678,0.000431,0.001998
51069000,0.0324,0.013523,0.002678,0.000431,0.002821
51070000,0.0324,0.013523,0.002678,0.000431,0.001645
51071000,0.0324,0.013523,0.002678,0.000431,0.002821
51072000,0.0324,0.013523,0.002678,0.000431,0.002351
51073000,0.0324,0.013523,0.002678,0.000431,0.002116
51074000,0.0324,0.013523,0.002678,0.000431,0.002468
51075000,0.0324,0.013523,0.002678,0.000431,0.001998
51076000,0.0324,0.013523,0.002678,0.000431,0.002821
51077000,0.0324,0.013523,0.002678,0.000431,0.002116
51078000,0.0324,0.013523,0.002678,0.000431,0.002351
51079000,0.0324,0.013523,0.002678,0.000431,0.002116
51080000,0.0324,0.013523,0.002678,0.000431,0.002351
51081000,0.0324,0.013523,0.002678,0.000431,0.002116
51082000,0.0324,0.013523,0.002678,0.000431,0.002821
51083000,0.0324,0.013523,0.002678,0.000431,0.001998
51084000,0.0324,0.013523,0.002678,0.000431,0.002468
51085000,0.0324,0.013523,0.002678,0.000431,0.001880
51086000,0.0324,0.013523,0.002678,0.000431,0.002586
51087000,0.0324,0.013523,0.002678,0.000431,0.002821
51088000,0.0324,0.013523,0.002678,0.000431,0.001645
51089000,0.0324,0.013523,0.002678,0.000431,0.002821
51090000,0.0324,0.013523,0.002678,0.000431,0.001880
51091000,0.0324,0.013523,0.002678,0.000431,0.002586
51092000,0.0324,0.013523,0.002678,0.000431,0.002116
51093000,0.0324,0.013523,0.002678,0.000431,0.002351
51094000,0.0324,0.013523,0.002678,0.000431,0.002233
51095000,0.0324,0.013523,0.002678,0.000431,0.002351
51096000,0.0324,0.013523,0.002678,0.000431,0.002116
51097000,0.0324,0.013523,0.002678,0.000431,0.001645
51098000,0.0324,0.013523,0.002678,0.000431,0.002821
51099000,0.0324,0.013523,0.002678,0.000431,0.330019
51100000,0.0324,0.013523,0.002678,0.000431,0.704111
51101000,0.0324,0.013523,0.002678,0.000431,0.252098
51102000,0.0324,0.013523,0.002678,0.000431,0.138448
51103000,0.0324,0.013523,0.002678,0.000431,0.165950
51104000,0.0324,0.013523,0.002678,0.000431,0.608914
51105000,0.0324,0.013523,0.002678,0.000431,0.242226
51106000,0.0324,0.013523,0.002678,0.000431,0.302753
51107000,0.0324,0.013523,0.002678,0.000431,0.197917
51108000,0.0324,0.013523,0.002678,0.000431,0.145147
51109000,0.0324,0.013523,0.002678,0.000431,0.125168
51110000,0.0324,0.013523,0.002678,0.000431,0.294526
51111000,0.0324,0.013523,0.002678,0.000431,0.299344
51112000,0.0324,0.013523,0.002678,0.000431,0.028912
51113000,0.0324,0.013523,0.002678,0.000431,0.026326
51114000,0.0324,0.013523,0.002678,0.000431,0.022800
51115000,0.0324,0.013523,0.002678,0.000431,0.017982
51116000,0.0324,0.013523,0.002678,0.000431,0.015279
51117000,0.0324,0.013523,0.002678,0.000431,0.008345
51118000,0.0324,0.013523,0.002678,0.000431,0.008932
51119000,0.0324,0.013523,0.002678,0.000431,0.006934
51120000,0.0324,0.013523,0.002678,0.000431,0.006347
51121000,0.0324,0.013523,0.002678,0.000431,0.003173
51122000,0.0324,0.013523,0.002678,0.000431,0.000823
51123000,0.0324,0.013523,0.002678,0.000431,0.000823
51124000,0.0324,0.013523,0.002678,0.000431,0.000940
51125000,0.0324,0.013523,0.002678,0.000431,0.000823
51126000,0.0324,0.013523,0.002678,0.000431,0.000823
51127000,0.0324,0.013523,0.002678,0.000431,0.000705
51128000,0.0324,0.013523,0.002678,0.000431,0.000940
51129000,0.0324,0.013523,0.002678,0.000431,0.000940
51130000,0.0324,0.013523,0.002678,0.000431,0.000705
51131000,0.0324,0.013523,0.002678,0.000431,0.000940
51132000,0.0324,0.013523,0.002678,0.000431,0.000705
51133000,0.0324,0.013523,0.002678,0.000431,0.000940
51134000,0.0324,0.013523,0.002678,0.000431,0.000823
51135000,0.0324,0.013523,0.002678,0.000431,0.000823
51136000,0.0324,0.013523,0.002678,0.000431,0.000940
51137000,0.0324,0.013523,0.002678,0.000431,0.000705
51138000,0.0324,0.013523,0.002678,0.000431,0.000940
51139000,0.0324,0.013523,0.002678,0.000431,0.000823
51140000,0.0324,0.013523,0.002678,0.000431,0.000823
51141000,0.0324,0.013523,0.002678,0.000431,0.000940
51142000,0.0324,0.013523,0.002678,0.000431,0.000940
51143000,0.0324,0.013523,0.002678,0.000431,0.000823
51144000,0.0324,0.013523,0.002678,0.000431,0.000823
51145000,0.0324,0.013523,0.002678,0.000431,0.000940
51146000,0.0324,0.013523,0.002678,0.000431,0.000823
51147000,0.0324,0.013523,0.002678,0.000431,0.000823
51148000,0.0324,0.013523,0.002678,0.000431,0.000940
51149000,0.0324,0.013523,0.002678,0.000431,0.000940
51150000,0.0324,0.013523,0.002678,0.000431,0.000940
51151000,0.0324,0.013523,0.002678,0.000431,0.000705
51152000,0.0324,0.013523,0.002678,0.000431,0.000940
51153000,0.0324,0.013523,0.002678,0.000431,0.000940
51154000,0.0324,0.013523,0.002678,0.000431,0.000823
51155000,0.0324,0.013523,0.002678,0.000431,0.000823
51156000,0.0324,0.013523,0.002678,0.000431,0.000940
51157000,0.0324,0.013523,0.002678,0.000431,0.000940
51158000,0.0324,0.013523,0.002678,0.000431,0.000823
51159000,0.0324,0.013523,0.002678,0.000431,0.000705
51160000,0.0324,0.013523,0.002678,0.000431,0.000940
51161000,0.0324,0.013523,0.002678,0.000431,0.000823
51162000,0.0324,0.013523,0.002678,0.000431,0.000823
51163000,0.0324,0.013523,0.002678,0.000431,0.000823
51164000,0.0324,0.013523,0.002678,0.000431,0.000823
51165000,0.0324,0.013523,0.002678,0.000431,0.000823
51166000,0.0324,0.013523,0.002678,0.000431,0.000940
51167000,0.0324,0.013523,0.002678,0.000431,0.000823
51168000,0.0324,0.013523,0.002678,0.000431,0.000823
51169000,0.0324,0.013523,0.002678,0.000431,0.000705
51170000,0.0324,0.013523,0.002678,0.000431,0.000940
51171000,0.0324,0.013523,0.002678,0.000431,0.000940
51172000,0.0324,0.013523,0.002678,0.000431,0.000705
51173000,0.0324,0.013523,0.002678,0.000431,0.000940
51174000,0.0324,0.013523,0.002678,0.000431,0.000705
51175000,0.0324,0.013523,0.002678,0.000431,0.000940
51176000,0.0324,0.013523,0.002678,0.000431,0.000823
51177000,0.0324,0.013523,0.002678,0.000431,0.000823
51178000,0.0324,0.013523,0.002678,0.000431,0.000940
51179000,0.0324,0.013523,0.002678,0.000431,0.119409
51180000,0.0324,0.013523,0.002678,0.000431,0.456950
51181000,0.0324,0.013523,0.002678,0.000431,0.541217
51182000,0.0324,0.013523,0.002678,0.000431,0.134452
51183000,0.0324,0.013523,0.002678,0.000431,0.131632
51184000,0.0324,0.013523,0.002678,0.000431,0.575183
51185000,0.0324,0.013523,0.002678,0.000431,0.260442
51186000,0.0324,0.013523,0.002678,0.000431,0.245516
51187000,0.0324,0.013523,0.002678,0.000431,0.300755
51188000,0.0324,0.013523,0.002678,0.000431,0.147615
51189000,0.0324,0.013523,0.002678,0.000431,0.143972
51190000,0.0324,0.013523,0.002678,0.000431,0.109889
51191000,0.0324,0.013523,0.002678,0.000431,0.329314
51192000,0.0324,0.013523,0.002678,0.000431,0.313918
51193000,0.0324,0.013523,0.002678,0.000431,0.090379
51194000,0.0324,0.013523,0.002678,0.000431,0.084033
51195000,0.0324,0.013523,0.002678,0.000431,0.060880
51196000,0.0324,0.013523,0.002678,0.000431,0.046541
51197000,0.0324,0.013523,0.002678,0.000431,0.038667
51198000,0.0324,0.013523,0.002678,0.000431,0.034671
51199000,0.0324,0.013523,0.002678,0.000431,0.028912
51200000,0.0324,0.013523,0.002678,0.000431,0.021155
51201000,0.0324,0.013523,0.002678,0.000431,0.020802
51202000,0.0324,0.013523,0.002678,0.000431,0.014221
51203000,0.0324,0.013523,0.002678,0.000431,0.011518
51204000,0.0324,0.013523,0.002678,0.000431,0.011870
51205000,0.0324,0.013523,0.002678,0.000431,0.012223
51206000,0.0324,0.013523,0.002678,0.000431,0.015984
51207000,0.0324,0.013523,0.002678,0.000431,0.010813
51208000,0.0324,0.013523,0.002678,0.000431,0.007874
51209000,0.0324,0.013523,0.002678,0.000431,0.007522
51210000,0.0324,0.013523,0.002678,0.000431,0.007639
51211000,0.0324,0.013523,0.002678,0.000431,0.011048
51212000,0.0324,0.013523,0.002678,0.000431,0.005641
51213000,0.0324,0.013523,0.002678,0.000431,0.009637
51214000,0.0324,0.013523,0.002678,0.000431,0.005289
51215000,0.0324,0.013523,0.002678,0.000431,0.005406
51216000,0.0324,0.013523,0.002678,0.000431,0.004936
51217000,0.0324,0.013523,0.002678,0.000431,0.005876
51218000,0.0324,0.013523,0.002678,0.000431,0.004584
51219000,0.0324,0.013523,0.002678,0.000431,0.004466
51220000,0.0324,0.013523,0.002678,0.000431,0.003996
51221000,0.0324,0.013523,0.002678,0.000431,0.004231
51222000,0.0324,0.013523,0.002678,0.000431,0.004584
51223000,0.0324,0.013523,0.002678,0.000431,0.004936
51224000,0.0324,0.013523,0.002678,0.000431,0.004466
51225000,0.0324,0.013523,0.002678,0.000431,0.003408
51226000,0.0324,0.013523,0.002678,0.000431,0.003526
51227000,0.0324,0.013523,0.002678,0.000431,0.003526
51228000,0.0324,0.013523,0.002678,0.000431,0.003056
51229000,0.0324,0.013523,0.002678,0.000431,0.003761
51230000,0.0324,0.013523,0.002678,0.000431,0.003526
51231000,0.0324,0.013523,0.002678,0.000431,0.003291
51232000,0.0324,0.013523,0.002678,0.000431,0.003408
51233000,0.0324,0.013523,0.002678,0.000431,0.003408
51234000,0.0324,0.013523,0.002678,0.000431,0.003526
51235000,0.0324,0.013523,0.002678,0.000431,0.003291
51236000,0.0324,0.013523,0.002678,0.000431,0.003526
51237000,0.0324,0.013523,0.002678,0.000431,0.005759
51238000,0.0324,0.013523,0.002678,0.000431,0.002586
51239000,0.0324,0.013523,0.002678,0.000431,0.002703
51240000,0.0324,0.013523,0.002678,0.000431,0.002468
51241000,0.0324,0.013523,0.002678,0.000431,0.002821
51242000,0.0324,0.013523,0.002678,0.000431,0.002586
51243000,0.0324,0.013523,0.002678,0.000431,0.002351
51244000,0.0324,0.013523,0.002678,0.000431,0.002703
51245000,0.0324,0.013523,0.002678,0.000431,0.002586
51246000,0.0324,0.013523,0.002678,0.000431,0.002586
51247000,0.0324,0.013523,0.002678,0.000431,0.002468
51248000,0.0324,0.013523,0.002678,0.000431,0.002703
51249000,0.0324,0.013523,0.002678,0.000431,0.002586
51250000,0.0324,0.013523,0.002678,0.000431,0.002586
51251000,0.0324,0.013523,0.002678,0.000431,0.002586
51252000,0.0324,0.013523,0.002678,0.000431,0.002703
51253000,0.0324,0.013523,0.002678,0.000431,0.002468
51254000,0.0324,0.013523,0.002678,0.000431,0.002468
51255000,0.0324,0.013523,0.002678,0.000431,0.002821
51256000,0.0324,0.013523,0.002678,0.000431,0.002586
51257000,0.0324,0.013523,0.002678,0.000431,0.002586
51258000,0.0324,0.013523,0.002678,0.000431,0.002351
51259000,0.0324,0.013523,0.002678,0.000431,0.002821
51260000,0.0324,0.013523,0.002678,0.000431,0.002703
51261000,0.0324,0.013523,0.002678,0.000431,0.002351
51262000,0.0324,0.013523,0.002678,0.000431,0.002703
51263000,0.0324,0.013523,0.002678,0.000431,0.002586
51264000,0.0324,0.013523,0.002678,0.000431,0.002703
51265000,0.0324,0.013523,0.002678,0.000431,0.002468
51266000,0.0324,0.013523,0.002678,0.000431,0.002586
51267000,0.0324,0.013523,0.002678,0.000431,0.002703
51268000,0.0324,0.013523,0.002678,0.000431,0.002468
51269000,0.0324,0.013523,0.002678,0.000431,0.002703
51270000,0.0324,0.013523,0.002678,0.000431,0.002468
51271000,0.0324,0.013523,0.002678,0.000431,0.002821
51272000,0.0324,0.013523,0.002678,0.000431,0.002468
51273000,0.0324,0.013523,0.002678,0.000431,0.002586
51274000,0.0324,0.013523,0.002678,0.000431,0.002586
51275000,0.0324,0.013523,0.002678,0.000431,0.002703
51276000,0.0324,0.013523,0.002678,0.000431,0.002468
51277000,0.0324,0.013523,0.002678,0.000431,0.002586
51278000,0.0324,0.013523,0.002678,0.000431,0.002703
51279000,0.0324,0.013523,0.002678,0.000431,0.002468
51280000,0.0324,0.013523,0.002678,0.000431,0.002703
51281000,0.0324,0.013523,0.002678,0.000431,0.002468
51282000,0.0324,0.013523,0.002678,0.000431,0.002703
51283000,0.0324,0.013523,0.002678,0.000431,0.002586
51284000,0.0324,0.013523,0.002678,0.000431,0.003761
51285000,0.0324,0.013523,0.002678,0.000431,0.001763
51286000,0.0324,0.013523,0.002678,0.000431,0.001880
51287000,0.0324,0.013523,0.002678,0.000431,0.001763
51288000,0.0324,0.013523,0.002678,0.000431,0.001645
51289000,0.0324,0.013523,0.002678,0.000431,0.001763
51290000,0.0324,0.013523,0.002678,0.000431,0.001880
51291000,0.0324,0.013523,0.002678,0.000431,0.001645
51292000,0.0324,0.013523,0.002678,0.000431,0.001645
51293000,0.0324,0.013523,0.002678,0.000431,0.001880
51294000,0.0324,0.013523,0.002678,0.000431,0.001880
51295000,0.0324,0.013523,0.002678,0.000431,0.001645
51296000,0.0324,0.013523,0.002678,0.000431,0.001763
51297000,0.0324,0.013523,0.002678,0.000431,0.001763
51298000,0.0324,0.013523,0.002678,0.000431,0.001763
51299000,0.0324,0.013523,0.002678,0.000431,0.001763
51300000,0.0324,0.013523,0.002678,0.000431,0.001763
51301000,0.0324,0.013523,0.002678,0.000431,0.003878
51302000,0.0324,0.013523,0.002678,0.000431,0.001058
51303000,0.0324,0.013523,0.002678,0.000431,0.000823
51304000,0.0324,0.013523,0.002678,0.000431,0.000823
51305000,0.0324,0.013523,0.002678,0.000431,0.000940
51306000,0.0324,0.013523,0.002678,0.000431,0.000940
51307000,0.0324,0.013523,0.002678,0.000431,0.000705
51308000,0.0324,0.013523,0.002678,0.000431,0.000940
51309000,0.0324,0.013523,0.002678,0.000431,0.000940
51310000,0.0324,0.013523,0.002678,0.000431,0.000940
51311000,0.0324,0.013523,0.002678,0.000431,0.000705
51312000,0.0324,0.013523,0.002678,0.000431,0.000940
51313000,0.0324,0.013523,0.002678,0.000431,0.000940
51314000,0.0324,0.013523,0.002678,0.000431,0.000823
51315000,0.0324,0.013523,0.002678,0.000431,0.000823
51316000,0.0324,0.013523,0.002678,0.000431,0.000940
51317000,0.0324,0.013523,0.002678,0.000431,0.000940
51318000,0.0324,0.013523,0.002678,0.000431,0.000823
51319000,0.0324,0.013523,0.002678,0.000431,0.000823
51320000,0.0324,0.013523,0.002678,0.000431,0.000940
51321000,0.0324,0.013523,0.002678,0.000431,0.000823
51322000,0.0324,0.013523,0.002678,0.000431,0.000940
51323000,0.0324,0.013523,0.002678,0.000431,0.000823
51324000,0.0324,0.013523,0.002678,0.000431,0.000940
51325000,0.0324,0.013523,0.002678,0.000431,0.000823
51326000,0.0324,0.013523,0.002678,0.000431,0.000823
51327000,0.0324,0.013523,0.002678,0.000431,0.000940
51328000,0.0324,0.013523,0.002678,0.000431,0.000940
51329000,0.0324,0.013523,0.002678,0.000431,0.000940
51330000,0.0324,0.013523,0.002678,0.000431,0.000705
51331000,0.0324,0.013523,0.002678,0.000431,0.000940
51332000,0.0324,0.013523,0.002678,0.000431,0.000940
51333000,0.0324,0.013523,0.002678,0.000431,0.000823
51334000,0.0324,0.013523,0.002678,0.000431,0.000823
51335000,0.0324,0.013523,0.002678,0.000431,0.000940
51336000,0.0324,0.013523,0.002678,0.000431,0.000940
51337000,0.0324,0.013523,0.002678,0.000431,0.000823
51338000,0.0324,0.013523,0.002678,0.000431,0.000823
51339000,0.0324,0.013523,0.002678,0.000431,0.000940
51340000,0.0324,0.013523,0.002678,0.000431,0.000823
51341000,0.0324,0.013523,0.002678,0.000431,0.000940
51342000,0.0324,0.013523,0.002678,0.000431,0.000823
51343000,0.0324,0.013523,0.002678,0.000431,0.000940
51344000,0.0324,0.013523,0.002678,0.000431,0.000823
51345000,0.0324,0.013523,0.002678,0.000431,0.000823
51346000,0.0324,0.013523,0.002678,0.000431,0.000940
51347000,0.0324,0.013523,0.002678,0.000431,0.000940
51348000,0.0324,0.013523,0.002678,0.000431,0.000823
51349000,0.0324,0.013523,0.002678,0.000431,0.000823
51350000,0.0324,0.013523,0.002678,0.000431,0.000940
51351000,0.0324,0.013523,0.002678,0.000431,0.000940
51352000,0.0324,0.013523,0.002678,0.000431,0.000823
51353000,0.0324,0.013523,0.002678,0.000431,0.217545
51354000,0.0324,0.013523,0.002678,0.000431,0.626895
51355000,0.0324,0.013523,0.002678,0.000431,0.405472
51356000,0.0324,0.013523,0.002678,0.000431,0.132102
51357000,0.0324,0.013523,0.002678,0.000431,0.133982
51358000,0.0324,0.013523,0.002678,0.000431,0.579767
51359000,0.0324,0.013523,0.002678,0.000431,0.227535
51360000,0.0324,0.013523,0.002678,0.000431,0.273958
51361000,0.0324,0.013523,0.002678,0.000431,0.266789
51362000,0.0324,0.013523,0.002678,0.000431,0.139388
51363000,0.0324,0.013523,0.002678,0.000431,0.187340
51364000,0.0324,0.013523,0.002678,0.000431,0.084620
51365000,0.0324,0.013523,0.002678,0.000431,0.494088
51366000,0.0324,0.013523,0.002678,0.000431,0.080272
51367000,0.0324,0.013523,0.002678,0.000431,0.047246
51368000,0.0324,0.013523,0.002678,0.000431,0.040782
51369000,0.0324,0.013523,0.002678,0.000431,0.032790
51370000,0.0324,0.013523,0.002678,0.000431,0.021155
51371000,0.0324,0.013523,0.002678,0.000431,0.024093
51372000,0.0324,0.013523,0.002678,0.000431,0.015161
51373000,0.0324,0.013523,0.002678,0.000431,0.014456
51374000,0.0324,0.013523,0.002678,0.000431,0.012693
51375000,0.0324,0.013523,0.002678,0.000431,0.015866
51376000,0.0324,0.013523,0.002678,0.000431,0.009520
51377000,0.0324,0.013523,0.002678,0.000431,0.007169
51378000,0.0324,0.013523,0.002678,0.000431,0.007522
51379000,0.0324,0.013523,0.002678,0.000431,0.006464
51380000,0.0324,0.013523,0.002678,0.000431,0.006699
51381000,0.0324,0.013523,0.002678,0.000431,0.005759
51382000,0.0324,0.013523,0.002678,0.000431,0.006934
51383000,0.0324,0.013523,0.002678,0.000431,0.005994
51384000,0.0324,0.013523,0.002678,0.000431,0.005406
51385000,0.0324,0.013523,0.002678,0.000431,0.005054
51386000,0.0324,0.013523,0.002678,0.000431,0.005289
51387000,0.0324,0.013523,0.002678,0.000431,0.005289
51388000,0.0324,0.013523,0.002678,0.000431,0.004936
51389000,0.0324,0.013523,0.002678,0.000431,0.005876
51390000,0.0324,0.013523,0.002678,0.000431,0.004701
51391000,0.0324,0.013523,0.002678,0.000431,0.005524
51392000,0.0324,0.013523,0.002678,0.000431,0.005171
51393000,0.0324,0.013523,0.002678,0.000431,0.005171
51394000,0.0324,0.013523,0.002678,0.000431,0.005289
51395000,0.0324,0.013523,0.002678,0.000431,0.004936
51396000,0.0324,0.013523,0.002678,0.000431,0.005876
51397000,0.0324,0.013523,0.002678,0.000431,0.004701
51398000,0.0324,0.013523,0.002678,0.000431,0.006347
51399000,0.0324,0.013523,0.002678,0.000431,0.004701
51400000,0.0324,0.013523,0.002678,0.000431,0.003291
51401000,0.0324,0.013523,0.002678,0.000431,0.003996
51402000,0.0324,0.013523,0.002678,0.000431,0.003526
51403000,0.0324,0.013523,0.002678,0.000431,0.003173
51404000,0.0324,0.013523,0.002678,0.000431,0.004113
51405000,0.0324,0.013523,0.002678,0.000431,0.003878
51406000,0.0324,0.013523,0.002678,0.000431,0.003526
51407000,0.0324,0.013523,0.002678,0.000431,0.003526
51408000,0.0324,0.013523,0.002678,0.000431,0.003526
51409000,0.0324,0.013523,0.002678,0.000431,0.003878
51410000,0.0324,0.013523,0.002678,0.000431,0.003526
51411000,0.0324,0.013523,0.002678,0.000431,0.003761
51412000,0.0324,0.013523,0.002678,0.000431,0.003761
51413000,0.0324,0.013523,0.002678,0.000431,0.003526
51414000,0.0324,0.013523,0.002678,0.000431,0.003643
51415000,0.0324,0.013523,0.002678,0.000431,0.003643
51416000,0.0324,0.013523,0.002678,0.000431,0.003996
51417000,0.0324,0.013523,0.002678,0.000431,0.003173
51418000,0.0324,0.013523,0.002678,0.000431,0.003761
51419000,0.0324,0.013523,0.002678,0.000431,0.003878
51420000,0.0324,0.013523,0.002678,0.000431,0.003291
51421000,0.0324,0.013523,0.002678,0.000431,0.003996
51422000,0.0324,0.013523,0.002678,0.000431,0.003526
51423000,0.0324,0.013523,0.002678,0.000431,0.003996
51424000,0.0324,0.013523,0.002678,0.000431,0.003173
51425000,0.0324,0.013523,0.002678,0.000431,0.003643
51426000,0.0324,0.013523,0.002678,0.000431,0.003996
51427000,0.0324,0.013523,0.002678,0.000431,0.003526
51428000,0.0324,0.013523,0.002678,0.000431,0.003761
51429000,0.0324,0.013523,0.002678,0.000431,0.003408
51430000,0.0324,0.013523,0.002678,0.000431,0.003996
51431000,0.0324,0.013523,0.002678,0.000431,0.003526
51432000,0.0324,0.013523,0.002678,0.000431,0.003408
51433000,0.0324,0.013523,0.002678,0.000431,0.004113
51434000,0.0324,0.013523,0.002678,0.000431,0.003173
51435000,0.0324,0.013523,0.002678,0.000431,0.003878
51436000,0.0324,0.013523,0.002678,0.000431,0.003643
51437000,0.0324,0.013523,0.002678,0.000431,0.003643
51438000,0.0324,0.013523,0.002678,0.000431,0.003761
51439000,0.0324,0.013523,0.002678,0.000431,0.003526
51440000,0.0324,0.013523,0.002678,0.000431,0.004113
51441000,0.0324,0.013523,0.002678,0.000431,0.003056
51442000,0.0324,0.013523,0.002678,0.000431,0.003761
51443000,0.0324,0.013523,0.002678,0.000431,0.003878
51444000,0.0324,0.013523,0.002678,0.000431,0.003526
51445000,0.0324,0.013523,0.002678,0.000431,0.003761
51446000,0.0324,0.013523,0.002678,0.000431,0.003408
51447000,0.0324,0.013523,0.002678,0.000431,0.004113
51448000,0.0324,0.013523,0.002678,0.000431,0.003408
51449000,0.0324,0.013523,0.002678,0.000431,0.004466
51450000,0.0324,0.013523,0.002678,0.000431,0.003173
51451000,0.0324,0.013523,0.002678,0.000431,0.002586
51452000,0.0324,0.013523,0.002678,0.000431,0.003291
51453000,0.0324,0.013523,0.002678,0.000431,0.002351
51454000,0.0324,0.013523,0.002678,0.000431,0.002938
51455000,0.0324,0.013523,0.002678,0.000431,0.002938
51456000,0.0324,0.013523,0.002678,0.000431,0.002586
51457000,0.0324,0.013523,0.002678,0.000431,0.003056
51458000,0.0324,0.013523,0.002678,0.000431,0.002821
51459000,0.0324,0.013523,0.002678,0.000431,0.002821
51460000,0.0324,0.013523,0.002678,0.000431,0.002703
51461000,0.0324,0.013523,0.002678,0.000431,0.002821
51462000,0.0324,0.013523,0.002678,0.000431,0.002938
51463000,0.0324,0.013523,0.002678,0.000431,0.002468
51464000,0.0324,0.013523,0.002678,0.000431,0.003173
51465000,0.0324,0.013523,0.002678,0.000431,0.002821
51466000,0.0324,0.013523,0.002678,0.000431,0.002468
51467000,0.0324,0.013523,0.002678,0.000431,0.003056
51468000,0.0324,0.013523,0.002678,0.000431,0.002821
51469000,0.0324,0.013523,0.002678,0.000431,0.003056
51470000,0.0324,0.013523,0.002678,0.000431,0.003408
51471000,0.0324,0.013523,0.002678,0.000431,0.001880
51472000,0.0324,0.013523,0.002678,0.000431,0.000823
51473000,0.0324,0.013523,0.002678,0.000431,0.073690
51474000,0.0324,0.013523,0.002678,0.000431,0.541922
51475000,0.0324,0.013523,0.002678,0.000431,0.543920
51476000,0.0324,0.013523,0.002678,0.000431,0.133512
51477000,0.0324,0.013523,0.002678,0.000431,0.133512
51478000,0.0324,0.013523,0.002678,0.000431,0.595515
51479000,0.0324,0.013523,0.002678,0.000431,0.266084
51480000,0.0324,0.013523,0.002678,0.000431,0.265379
51481000,0.0324,0.013523,0.002678,0.000431,0.284301
51482000,0.0324,0.013523,0.002678,0.000431,0.148321
51483000,0.0324,0.013523,0.002678,0.000431,0.143267
51484000,0.0324,0.013523,0.002678,0.000431,0.178878
51485000,0.0324,0.013523,0.002678,0.000431,0.421926
51486000,0.0324,0.013523,0.002678,0.000431,0.063700
51487000,0.0324,0.013523,0.002678,0.000431,0.050772
51488000,0.0324,0.013523,0.002678,0.000431,0.041487
51489000,0.0324,0.013523,0.002678,0.000431,0.033613
51490000,0.0324,0.013523,0.002678,0.000431,0.025739
51491000,0.0324,0.013523,0.002678,0.000431,0.027267
51492000,0.0324,0.013523,0.002678,0.000431,0.015749
51493000,0.0324,0.013523,0.002678,0.000431,0.014573
51494000,0.0324,0.013523,0.002678,0.000431,0.011518
51495000,0.0324,0.013523,0.002678,0.000431,0.014338
51496000,0.0324,0.013523,0.002678,0.000431,0.013046
51497000,0.0324,0.013523,0.002678,0.000431,0.016689
51498000,0.0324,0.013523,0.002678,0.000431,0.007169
51499000,0.0324,0.013523,0.002678,0.000431,0.007404
51500000,0.0324,0.013523,0.002678,0.000431,0.009520
51501000,0.0324,0.013523,0.002678,0.000431,0.004701
51502000,0.0324,0.013523,0.002678,0.000431,0.006111
51503000,0.0324,0.013523,0.002678,0.000431,0.006934
51504000,0.0324,0.013523,0.002678,0.000431,0.004113
51505000,0.0324,0.013523,0.002678,0.000431,0.003643
51506000,0.0324,0.013523,0.002678,0.000431,0.003643
51507000,0.0324,0.013523,0.002678,0.000431,0.004701
51508000,0.0324,0.013523,0.002678,0.000431,0.002233
51509000,0.0324,0.013523,0.002678,0.000431,0.002468
51510000,0.0324,0.013523,0.002678,0.000431,0.002703
51511000,0.0324,0.013523,0.002678,0.000431,0.002586
51512000,0.0324,0.013523,0.002678,0.000431,0.002233
51513000,0.0324,0.013523,0.002678,0.000431,0.002351
51514000,0.0324,0.013523,0.002678,0.000431,0.002821
51515000,0.0324,0.013523,0.002678,0.000431,0.002586
51516000,0.0324,0.013523,0.002678,0.000431,0.002116
51517000,0.0324,0.013523,0.002678,0.000431,0.002821
51518000,0.0324,0.013523,0.002678,0.000431,0.002351
51519000,0.0324,0.013523,0.002678,0.000431,0.002586
51520000,0.0324,0.013523,0.002678,0.000431,0.002468
51521000,0.0324,0.013523,0.002678,0.000431,0.002468
51522000,0.0324,0.013523,0.002678,0.000431,0.002703
51523000,0.0324,0.013523,0.002678,0.000431,0.005524
51524000,0.0324,0.013523,0.002678,0.000431,0.000940
51525000,0.0324,0.013523,0.002678,0.000431,0.000823
51526000,0.0324,0.013523,0.002678,0.000431,0.000823
51527000,0.0324,0.013523,0.002678,0.000431,0.000823
51528000,0.0324,0.013523,0.002678,0.000431,0.000823
51529000,0.0324,0.013523,0.002678,0.000431,0.000823
51530000,0.0324,0.013523,0.002678,0.000431,0.000823
51531000,0.0324,0.013523,0.002678,0.000431,0.000940
51532000,0.0324,0.013523,0.002678,0.000431,0.000823
51533000,0.0324,0.013523,0.002678,0.000431,0.000823
51534000,0.0324,0.013523,0.002678,0.000431,0.000823
51535000,0.0324,0.013523,0.002678,0.000431,0.000823
51536000,0.0324,0.013523,0.002678,0.000431,0.000705
51537000,0.0324,0.013523,0.002678,0.000431,0.000940
51538000,0.0324,0.013523,0.002678,0.000431,0.000940
51539000,0.0324,0.013523,0.002678,0.000431,0.000705
51540000,0.0324,0.013523,0.002678,0.000431,0.000940
51541000,0.0324,0.013523,0.002678,0.000431,0.000705
51542000,0.0324,0.013523,0.002678,0.000431,0.000940
51543000,0.0324,0.013523,0.002678,0.000431,0.000823
51544000,0.0324,0.013523,0.002678,0.000431,0.000823
51545000,0.0324,0.013523,0.002678,0.000431,0.000940
51546000,0.0324,0.013523,0.002678,0.000431,0.000705
51547000,0.0324,0.013523,0.002678,0.000431,0.000940
51548000,0.0324,0.013523,0.002678,0.000431,0.000823
51549000,0.0324,0.013523,0.002678,0.000431,0.000823
51550000,0.0324,0.013523,0.002678,0.000431,0.000823
51551000,0.0324,0.013523,0.002678,0.000431,0.000823
51552000,0.0324,0.013523,0.002678,0.000431,0.000940
51553000,0.0324,0.013523,0.002678,0.000431,0.000705
51554000,0.0324,0.013523,0.002678,0.000431,0.000940
51555000,0.0324,0.013523,0.002678,0.000431,0.000705
51556000,0.0324,0.013523,0.002678,0.000431,0.000823
51557000,0.0324,0.013523,0.002678,0.000431,0.000940
51558000,0.0324,0.013523,0.002678,0.000431,0.000823
51559000,0.0324,0.013523,0.002678,0.000431,0.000705
51560000,0.0324,0.013523,0.002678,0.000431,0.200621
51561000,0.0324,0.013523,0.002678,0.000431,0.494441
51562000,0.0324,0.013523,0.002678,0.000431,0.485979
51563000,0.0324,0.013523,0.002678,0.000431,0.132572
51564000,0.0324,0.013523,0.002678,0.000431,0.133394
51565000,0.0324,0.013523,0.002678,0.000431,0.600451
51566000,0.0324,0.013523,0.002678,0.000431,0.272665
51567000,0.0324,0.013523,0.002678,0.000431,0.313330
51568000,0.0324,0.013523,0.002678,0.000431,0.258209
51569000,0.0324,0.013523,0.002678,0.000431,0.142797
51570000,0.0324,0.013523,0.002678,0.000431,0.124345
51571000,0.0324,0.013523,0.002678,0.000431,0.241403
51572000,0.0324,0.013523,0.002678,0.000431,0.374915
51573000,0.0324,0.013523,0.002678,0.000431,0.078509
51574000,0.0324,0.013523,0.002678,0.000431,0.057119
51575000,0.0324,0.013523,0.002678,0.000431,0.051125
51576000,0.0324,0.013523,0.002678,0.000431,0.039607
51577000,0.0324,0.013523,0.002678,0.000431,0.036904
51578000,0.0324,0.013523,0.002678,0.000431,0.031262
51579000,0.0324,0.013523,0.002678,0.000431,0.029617
51580000,0.0324,0.013523,0.002678,0.000431,0.022448
51581000,0.0324,0.013523,0.002678,0.000431,0.020802
51582000,0.0324,0.013523,0.002678,0.000431,0.014573
51583000,0.0324,0.013523,0.002678,0.000431,0.015514
51584000,0.0324,0.013523,0.002678,0.000431,0.008697
51585000,0.0324,0.013523,0.002678,0.000431,0.009990
51586000,0.0324,0.013523,0.002678,0.000431,0.008462
51587000,0.0324,0.013523,0.002678,0.000431,0.008227
51588000,0.0324,0.013523,0.002678,0.000431,0.005171
51589000,0.0324,0.013523,0.002678,0.000431,0.004819
51590000,0.0324,0.013523,0.002678,0.000431,0.005289
51591000,0.0324,0.013523,0.002678,0.000431,0.005171
51592000,0.0324,0.013523,0.002678,0.000431,0.004819
51593000,0.0324,0.013523,0.002678,0.000431,0.004936
51594000,0.0324,0.013523,0.002678,0.000431,0.005524
51595000,0.0324,0.013523,0.002678,0.000431,0.005054
51596000,0.0324,0.013523,0.002678,0.000431,0.004701
51597000,0.0324,0.013523,0.002678,0.000431,0.005406
51598000,0.0324,0.013523,0.002678,0.000431,0.005054
51599000,0.0324,0.013523,0.002678,0.000431,0.004936
51600000,0.0324,0.013523,0.002678,0.000431,0.005876
51601000,0.0324,0.013523,0.002678,0.000431,0.004584
51602000,0.0324,0.013523,0.002678,0.000431,0.004113
51603000,0.0324,0.013523,0.002678,0.000431,0.004231
51604000,0.0324,0.013523,0.002678,0.000431,0.004231
51605000,0.0324,0.013523,0.002678,0.000431,0.005054
51606000,0.0324,0.013523,0.002678,0.000431,0.003408
51607000,0.0324,0.013523,0.002678,0.000431,0.002468
51608000,0.0324,0.013523,0.002678,0.000431,0.002821
51609000,0.0324,0.013523,0.002678,0.000431,0.002586
51610000,0.0324,0.013523,0.002678,0.000431,0.002703
51611000,0.0324,0.013523,0.002678,0.000431,0.002468
51612000,0.0324,0.013523,0.002678,0.000431,0.002703
51613000,0.0324,0.013523,0.002678,0.000431,0.002703
51614000,0.0324,0.013523,0.002678,0.000431,0.002586
51615000,0.0324,0.013523,0.002678,0.000431,0.002586
51616000,0.0324,0.013523,0.002678,0.000431,0.002703
51617000,0.0324,0.013523,0.002678,0.000431,0.004231
51618000,0.0324,0.013523,0.002678,0.000431,0.001528
51619000,0.0324,0.013523,0.002678,0.000431,0.001880
51620000,0.0324,0.013523,0.002678,0.000431,0.001880
51621000,0.0324,0.013523,0.002678,0.000431,0.001645
51622000,0.0324,0.013523,0.002678,0.000431,0.001763
51623000,0.0324,0.013523,0.002678,0.000431,0.001763
51624000,0.0324,0.013523,0.002678,0.000431,0.001880
51625000,0.0324,0.013523,0.002678,0.000431,0.001645
51626000,0.0324,0.013523,0.002678,0.000431,0.001645
51627000,0.0324,0.013523,0.002678,0.000431,0.001880
51628000,0.0324,0.013523,0.002678,0.000431,0.001763
51629000,0.0324,0.013523,0.002678,0.000431,0.001763
51630000,0.0324,0.013523,0.002678,0.000431,0.001645
51631000,0.0324,0.013523,0.002678,0.000431,0.001880
51632000,0.0324,0.013523,0.002678,0.000431,0.001763
51633000,0.0324,0.013523,0.002678,0.000431,0.001645
51634000,0.0324,0.013523,0.002678,0.000431,0.001763
51635000,0.0324,0.013523,0.002678,0.000431,0.001880
51636000,0.0324,0.013523,0.002678,0.000431,0.001763
51637000,0.0324,0.013523,0.002678,0.000431,0.001645
51638000,0.0324,0.013523,0.002678,0.000431,0.001763
51639000,0.0324,0.013523,0.002678,0.000431,0.001880
51640000,0.0324,0.013523,0.002678,0.000431,0.001645
51641000,0.0324,0.013523,0.002678,0.000431,0.001763
51642000,0.0324,0.013523,0.002678,0.000431,0.001763
51643000,0.0324,0.013523,0.002678,0.000431,0.001763
51644000,0.0324,0.013523,0.002678,0.000431,0.001763
51645000,0.0324,0.013523,0.002678,0.000431,0.001645
51646000,0.0324,0.013523,0.002678,0.000431,0.003173
51647000,0.0324,0.013523,0.002678,0.000431,0.000823
51648000,0.0324,0.013523,0.002678,0.000431,0.000823
51649000,0.0324,0.013523,0.002678,0.000431,0.000940
51650000,0.0324,0.013523,0.002678,0.000431,0.000940
51651000,0.0324,0.013523,0.002678,0.000431,0.000823
51652000,0.0324,0.013523,0.002678,0.000431,0.013633
51653000,0.0324,0.013523,0.002678,0.000431,0.542745
51654000,0.0324,0.013523,0.002678,0.000431,0.592930
51655000,0.0324,0.013523,0.002678,0.000431,0.133042
51656000,0.0324,0.013523,0.002678,0.000431,0.133982
51657000,0.0324,0.013523,0.002678,0.000431,0.485509
51658000,0.0324,0.013523,0.002678,0.000431,0.281833
51659000,0.0324,0.013523,0.002678,0.000431,0.279835
51660000,0.0324,0.013523,0.002678,0.000431,0.316974
51661000,0.0324,0.013523,0.002678,0.000431,0.141504
51662000,0.0324,0.013523,0.002678,0.000431,0.141386
51663000,0.0324,0.013523,0.002678,0.000431,0.121172
51664000,0.0324,0.013523,0.002678,0.000431,0.315446
51665000,0.0324,0.013523,0.002678,0.000431,0.308511
51666000,0.0324,0.013523,0.002678,0.000431,0.074395
51667000,0.0324,0.013523,0.002678,0.000431,0.054416
51668000,0.0324,0.013523,0.002678,0.000431,0.053710
51669000,0.0324,0.013523,0.002678,0.000431,0.037491
51670000,0.0324,0.013523,0.002678,0.000431,0.032790
51671000,0.0324,0.013523,0.002678,0.000431,0.022683
51672000,0.0324,0.013523,0.002678,0.000431,0.019157
51673000,0.0324,0.013523,0.002678,0.000431,0.017277
51674000,0.0324,0.013523,0.002678,0.000431,0.015044
51675000,0.0324,0.013523,0.002678,0.000431,0.015866
51676000,0.0324,0.013523,0.002678,0.000431,0.013633
51677000,0.0324,0.013523,0.002678,0.000431,0.011870
51678000,0.0324,0.013523,0.002678,0.000431,0.010107
51679000,0.0324,0.013523,0.002678,0.000431,0.011283
51680000,0.0324,0.013523,0.002678,0.000431,0.012458
51681000,0.0324,0.013523,0.002678,0.000431,0.009167
51682000,0.0324,0.013523,0.002678,0.000431,0.006699
51683000,0.0324,0.013523,0.002678,0.000431,0.009167
51684000,0.0324,0.013523,0.002678,0.000431,0.006229
51685000,0.0324,0.013523,0.002678,0.000431,0.004466
51686000,0.0324,0.013523,0.002678,0.000431,0.004231
51687000,0.0324,0.013523,0.002678,0.000431,0.003996
51688000,0.0324,0.013523,0.002678,0.000431,0.004466
51689000,0.0324,0.013523,0.002678,0.000431,0.004231
51690000,0.0324,0.013523,0.002678,0.000431,0.004466
51691000,0.0324,0.013523,0.002678,0.000431,0.006464
51692000,0.0324,0.013523,0.002678,0.000431,0.003761
51693000,0.0324,0.013523,0.002678,0.000431,0.005054
51694000,0.0324,0.013523,0.002678,0.000431,0.003643
51695000,0.0324,0.013523,0.002678,0.000431,0.001880
51696000,0.0324,0.013523,0.002678,0.000431,0.001645
51697000,0.0324,0.013523,0.002678,0.000431,0.001645
51698000,0.0324,0.013523,0.002678,0.000431,0.001410
51699000,0.0324,0.013523,0.002678,0.000431,0.001880
51700000,0.0324,0.013523,0.002678,0.000431,0.001645
51701000,0.0324,0.013523,0.002678,0.000431,0.001645
51702000,0.0324,0.013523,0.002678,0.000431,0.001645
51703000,0.0324,0.013523,0.002678,0.000431,0.001645
51704000,0.0324,0.013523,0.002678,0.000431,0.001645
51705000,0.0324,0.013523,0.002678,0.000431,0.001528
51706000,0.0324,0.013523,0.002678,0.000431,0.001763
51707000,0.0324,0.013523,0.002678,0.000431,0.001645
51708000,0.0324,0.013523,0.002678,0.000431,0.001645
51709000,0.0324,0.013523,0.002678,0.000431,0.001645
51710000,0.0324,0.013523,0.002678,0.000431,0.001645
51711000,0.0324,0.013523,0.002678,0.000431,0.001645
51712000,0.0324,0.013523,0.002678,0.000431,0.001645
51713000,0.0324,0.013523,0.002678,0.000431,0.001645
51714000,0.0324,0.013523,0.002678,0.000431,0.001880
51715000,0.0324,0.013523,0.002678,0.000431,0.018217
51716000,0.0324,0.013523,0.002678,0.000431,0.533343
51717000,0.0324,0.013523,0.002678,0.000431,0.593047
51718000,0.0324,0.013523,0.002678,0.000431,0.132572
51719000,0.0324,0.013523,0.002678,0.000431,0.134452
51720000,0.0324,0.013523,0.002678,0.000431,0.494441
51721000,0.0324,0.013523,0.002678,0.000431,0.272548
51722000,0.0324,0.013523,0.002678,0.000431,0.233058
51723000,0.0324,0.013523,0.002678,0.000431,0.359166
51724000,0.0324,0.013523,0.002678,0.000431,0.152904
51725000,0.0324,0.013523,0.002678,0.000431,0.144442
51726000,0.0324,0.013523,0.002678,0.000431,0.120584
51727000,0.0324,0.013523,0.002678,0.000431,0.301695
51728000,0.0324,0.013523,0.002678,0.000431,0.282538
51729000,0.0324,0.013523,0.002678,0.000431,0.025269
51730000,0.0324,0.013523,0.002678,0.000431,0.021743
51731000,0.0324,0.013523,0.002678,0.000431,0.012811
51732000,0.0324,0.013523,0.002678,0.000431,0.012223
51733000,0.0324,0.013523,0.002678,0.000431,0.012576
51734000,0.0324,0.013523,0.002678,0.000431,0.014456
51735000,0.0324,0.013523,0.002678,0.000431,0.007052
51736000,0.0324,0.013523,0.002678,0.000431,0.006817
51737000,0.0324,0.013523,0.002678,0.000431,0.006582
51738000,0.0324,0.013523,0.002678,0.000431,0.006464
51739000,0.0324,0.013523,0.002678,0.000431,0.007052
51740000,0.0324,0.013523,0.002678,0.000431,0.006699
51741000,0.0324,0.013523,0.002678,0.000431,0.006699
51742000,0.0324,0.013523,0.002678,0.000431,0.007874
51743000,0.0324,0.013523,0.002678,0.000431,0.005759
51744000,0.0324,0.013523,0.002678,0.000431,0.005524
51745000,0.0324,0.013523,0.002678,0.000431,0.006111
51746000,0.0324,0.013523,0.002678,0.000431,0.005759
51747000,0.0324,0.013523,0.002678,0.000431,0.005524
51748000,0.0324,0.013523,0.002678,0.000431,0.007522
51749000,0.0324,0.013523,0.002678,0.000431,0.004584
51750000,0.0324,0.013523,0.002678,0.000431,0.004584
51751000,0.0324,0.013523,0.002678,0.000431,0.004231
51752000,0.0324,0.013523,0.002678,0.000431,0.004349
51753000,0.0324,0.013523,0.002678,0.000431,0.004349
51754000,0.0324,0.013523,0.002678,0.000431,0.004466
51755000,0.0324,0.013523,0.002678,0.000431,0.005876
51756000,0.0324,0.013523,0.002678,0.000431,0.003526
51757000,0.0324,0.013523,0.002678,0.000431,0.003408
51758000,0.0324,0.013523,0.002678,0.000431,0.003761
51759000,0.0324,0.013523,0.002678,0.000431,0.003526
51760000,0.0324,0.013523,0.002678,0.000431,0.003526
51761000,0.0324,0.013523,0.002678,0.000431,0.003408
51762000,0.0324,0.013523,0.002678,0.000431,0.005289
51763000,0.0324,0.013523,0.002678,0.000431,0.002468
51764000,0.0324,0.013523,0.002678,0.000431,0.002586
51765000,0.0324,0.013523,0.002678,0.000431,0.002703
51766000,0.0324,0.013523,0.002678,0.000431,0.002586
51767000,0.0324,0.013523,0.002678,0.000431,0.002351
51768000,0.0324,0.013523,0.002678,0.000431,0.002351
51769000,0.0324,0.013523,0.002678,0.000431,0.002821
51770000,0.0324,0.013523,0.002678,0.000431,0.002586
51771000,0.0324,0.013523,0.002678,0.000431,0.002351
51772000,0.0324,0.013523,0.002678,0.000431,0.002821
51773000,0.0324,0.013523,0.002678,0.000431,0.002351
51774000,0.0324,0.013523,0.002678,0.000431,0.002586
51775000,0.0324,0.013523,0.002678,0.000431,0.002586
51776000,0.0324,0.013523,0.002678,0.000431,0.002586
51777000,0.0324,0.013523,0.002678,0.000431,0.004231
51778000,0.0324,0.013523,0.002678,0.000431,0.001528
51779000,0.0324,0.013523,0.002678,0.000431,0.001880
51780000,0.0324,0.013523,0.002678,0.000431,0.001528
51781000,0.0324,0.013523,0.002678,0.000431,0.001763
51782000,0.0324,0.013523,0.002678,0.000431,0.001645
51783000,0.0324,0.013523,0.002678,0.000431,0.001645
51784000,0.0324,0.013523,0.002678,0.000431,0.001645
51785000,0.0324,0.013523,0.002678,0.000431,0.001645
51786000,0.0324,0.013523,0.002678,0.000431,0.001763
51787000,0.0324,0.013523,0.002678,0.000431,0.001645
51788000,0.0324,0.013523,0.002678,0.000431,0.001763
51789000,0.0324,0.013523,0.002678,0.000431,0.001528
51790000,0.0324,0.013523,0.002678,0.000431,0.001763
51791000,0.0324,0.013523,0.002678,0.000431,0.001410
51792000,0.0324,0.013523,0.002678,0.000431,0.001880
51793000,0.0324,0.013523,0.002678,0.000431,0.002586
51794000,0.0324,0.013523,0.002678,0.000431,0.001645
51795000,0.0324,0.013523,0.002678,0.000431,0.000823
51796000,0.0324,0.013523,0.002678,0.000431,0.000823
51797000,0.0324,0.013523,0.002678,0.000431,0.000823
51798000,0.0324,0.013523,0.002678,0.000431,0.000940
51799000,0.0324,0.013523,0.002678,0.000431,0.000705
51800000,0.0324,0.013523,0.002678,0.000431,0.000940
51801000,0.0324,0.013523,0.002678,0.000431,0.000705
51802000,0.0324,0.013523,0.002678,0.000431,0.000940
51803000,0.0324,0.013523,0.002678,0.000431,0.000940
51804000,0.0324,0.013523,0.002678,0.000431,0.000705
51805000,0.0324,0.013523,0.002678,0.000431,0.000940
51806000,0.0324,0.013523,0.002678,0.000431,0.000705
51807000,0.0324,0.013523,0.002678,0.000431,0.000940
51808000,0.0324,0.013523,0.002678,0.000431,0.000823
51809000,0.0324,0.013523,0.002678,0.000431,0.000823
51810000,0.0324,0.013523,0.002678,0.000431,0.000823
51811000,0.0324,0.013523,0.002678,0.000431,0.000823
51812000,0.0324,0.013523,0.002678,0.000431,0.000940
51813000,0.0324,0.013523,0.002678,0.000431,0.000705
51814000,0.0324,0.013523,0.002678,0.000431,0.000940
51815000,0.0324,0.013523,0.002678,0.000431,0.000823
51816000,0.0324,0.013523,0.002678,0.000431,0.000823
51817000,0.0324,0.013523,0.002678,0.000431,0.000823
51818000,0.0324,0.013523,0.002678,0.000431,0.000823
51819000,0.0324,0.013523,0.002678,0.000431,0.000940
51820000,0.0324,0.013523,0.002678,0.000431,0.000705
51821000,0.0324,0.013523,0.002678,0.000431,0.000940
51822000,0.0324,0.013523,0.002678,0.000431,0.000823
51823000,0.0324,0.013523,0.002678,0.000431,0.000823
51824000,0.0324,0.013523,0.002678,0.000431,0.000705
51825000,0.0324,0.013523,0.002678,0.000431,0.000940
51826000,0.0324,0.013523,0.002678,0.000431,0.000940
51827000,0.0324,0.013523,0.002678,0.000431,0.000705
51828000,0.0324,0.013523,0.002678,0.000431,0.000940
51829000,0.0324,0.013523,0.002678,0.000431,0.000705
51830000,0.0324,0.013523,0.002678,0.000431,0.000940
51831000,0.0324,0.013523,0.002678,0.000431,0.000823
51832000,0.0324,0.013523,0.002678,0.000431,0.000823
51833000,0.0324,0.013523,0.002678,0.000431,0.000940
51834000,0.0324,0.013523,0.002678,0.000431,0.000705
51835000,0.0324,0.013523,0.002678,0.000431,0.000940
51836000,0.0324,0.013523,0.002678,0.000431,0.000823
51837000,0.0324,0.013523,0.002678,0.000431,0.000823
51838000,0.0324,0.013523,0.002678,0.000431,0.000823
51839000,0.0324,0.013523,0.002678,0.000431,0.000823
51840000,0.0324,0.013523,0.002678,0.000431,0.000823
51841000,0.0324,0.013523,0.002678,0.000431,0.000823
51842000,0.0324,0.013523,0.002678,0.000431,0.000940
51843000,0.0324,0.013523,0.002678,0.000431,0.000705
51844000,0.0324,0.013523,0.002678,0.000431,0.000823
51845000,0.0324,0.013523,0.002678,0.000431,0.000940
51846000,0.0324,0.013523,0.002678,0.000431,0.000823
51847000,0.0324,0.013523,0.002678,0.000431,0.000823
51848000,0.0324,0.013523,0.002678,0.000431,0.000823
51849000,0.0324,0.013523,0.002678,0.000431,0.000705
51850000,0.0324,0.013523,0.002678,0.000431,0.000940
51851000,0.0324,0.013523,0.002678,0.000431,0.000940
51852000,0.0324,0.013523,0.002678,0.000431,0.000705
51853000,0.0324,0.013523,0.002678,0.000431,0.000940
51854000,0.0324,0.013523,0.002678,0.000431,0.000705
51855000,0.0324,0.013523,0.002678,0.000431,0.000940
51856000,0.0324,0.013523,0.002678,0.000431,0.000940
51857000,0.0324,0.013523,0.002678,0.000431,0.000705
51858000,0.0324,0.013523,0.002678,0.000431,0.000940
51859000,0.0324,0.013523,0.002678,0.000431,0.000705
51860000,0.0324,0.013523,0.002678,0.000431,0.000940
51861000,0.0324,0.013523,0.002678,0.000431,0.000823
51862000,0.0324,0.013523,0.002678,0.000431,0.000823
51863000,0.0324,0.013523,0.002678,0.000431,0.000823
51864000,0.0324,0.013523,0.002678,0.000431,0.000823
51865000,0.0324,0.013523,0.002678,0.000431,0.000940
51866000,0.0324,0.013523,0.002678,0.000431,0.000705
51867000,0.0324,0.013523,0.002678,0.000431,0.000940
51868000,0.0324,0.013523,0.002678,0.000431,0.000823
51869000,0.0324,0.013523,0.002678,0.000431,0.000823
51870000,0.0324,0.013523,0.002678,0.000431,0.000823
51871000,0.0324,0.013523,0.002678,0.000431,0.000823
51872000,0.0324,0.013523,0.002678,0.000431,0.000940
51873000,0.0324,0.013523,0.002678,0.000431,0.000705
51874000,0.0324,0.013523,0.002678,0.000431,0.000940
51875000,0.0324,0.013523,0.002678,0.000431,0.000823
51876000,0.0324,0.013523,0.002678,0.000431,0.000823
51877000,0.0324,0.013523,0.002678,0.000431,0.000705
51878000,0.0324,0.013523,0.002678,0.000431,0.000940
51879000,0.0324,0.013523,0.002678,0.000431,0.000940
51880000,0.0324,0.013523,0.002678,0.000431,0.000705
51881000,0.0324,0.013523,0.002678,0.000431,0.000940
51882000,0.0324,0.013523,0.002678,0.000431,0.000705
51883000,0.0324,0.013523,0.002678,0.000431,0.000940
51884000,0.0324,0.013523,0.002678,0.000431,0.000823
51885000,0.0324,0.013523,0.002678,0.000431,0.000823
51886000,0.0324,0.013523,0.002678,0.000431,0.000940
51887000,0.0324,0.013523,0.002678,0.000431,0.000705
51888000,0.0324,0.013523,0.002678,0.000431,0.000940
51889000,0.0324,0.013523,0.002678,0.000431,0.000823
51890000,0.0324,0.013523,0.002678,0.000431,0.000823
51891000,0.0324,0.013523,0.002678,0.000431,0.000823
51892000,0.0324,0.013523,0.002678,0.000431,0.000823
51893000,0.0324,0.013523,0.002678,0.000431,0.000823
51894000,0.0324,0.013523,0.002678,0.000431,0.000823
51895000,0.0324,0.013523,0.002678,0.000431,0.000940
51896000,0.0324,0.013523,0.002678,0.000431,0.000705
51897000,0.0324,0.013523,0.002678,0.000431,0.000823
51898000,0.0324,0.013523,0.002678,0.000431,0.000940
51899000,0.0324,0.013523,0.002678,0.000431,0.000823
51900000,0.0324,0.013523,0.002678,0.000431,0.000823
51901000,0.0324,0.013523,0.002678,0.000431,0.000823
51902000,0.0324,0.013523,0.002678,0.000431,0.000705
51903000,0.0324,0.013523,0.002678,0.000431,0.000940
51904000,0.0324,0.013523,0.002678,0.000431,0.000940
51905000,0.0324,0.013523,0.002678,0.000431,0.000705
51906000,0.0324,0.013523,0.002678,0.000431,0.000940
51907000,0.0324,0.013523,0.002678,0.000431,0.000705
51908000,0.0324,0.013523,0.002678,0.000431,0.000940
51909000,0.0324,0.013523,0.002678,0.000431,0.000940
51910000,0.0324,0.013523,0.002678,0.000431,0.000705
51911000,0.0324,0.013523,0.002678,0.000431,0.000940
51912000,0.0324,0.013523,0.002678,0.000431,0.000705
51913000,0.0324,0.013523,0.002678,0.000431,0.000940
51914000,0.0324,0.013523,0.002678,0.000431,0.000705
51915000,0.0324,0.013523,0.002678,0.000431,0.000823
51916000,0.0324,0.013523,0.002678,0.000431,0.000940
51917000,0.0324,0.013523,0.002678,0.000431,0.000823
51918000,0.0324,0.013523,0.002678,0.000431,0.000823
51919000,0.0324,0.013523,0.002678,0.000431,0.000823
51920000,0.0324,0.013523,0.002678,0.000431,0.000823
51921000,0.0324,0.013523,0.002678,0.000431,0.000823
51922000,0.0324,0.013523,0.002678,0.000431,0.000940
51923000,0.0324,0.013523,0.002678,0.000431,0.000823
51924000,0.0324,0.013523,0.002678,0.000431,0.000823
51925000,0.0324,0.013523,0.002678,0.000431,0.000705
51926000,0.0324,0.013523,0.002678,0.000431,0.000940
51927000,0.0324,0.013523,0.002678,0.000431,0.000940
51928000,0.0324,0.013523,0.002678,0.000431,0.000705
51929000,0.0324,0.013523,0.002678,0.000431,0.000940
51930000,0.0324,0.013523,0.002678,0.000431,0.000705
51931000,0.0324,0.013523,0.002678,0.000431,0.000940
51932000,0.0324,0.013523,0.002678,0.000431,0.000940
51933000,0.0324,0.013523,0.002678,0.000431,0.000705
51934000,0.0324,0.013523,0.002678,0.000431,0.000940
51935000,0.0324,0.013523,0.002678,0.000431,0.000705
51936000,0.0324,0.013523,0.002678,0.000431,0.000940
51937000,0.0324,0.013523,0.002678,0.000431,0.000823
51938000,0.0324,0.013523,0.002678,0.000431,0.000823
51939000,0.0324,0.013523,0.002678,0.000431,0.000823
51940000,0.0324,0.013523,0.002678,0.000431,0.000823
51941000,0.0324,0.013523,0.002678,0.000431,0.000940
51942000,0.0324,0.013523,0.002678,0.000431,0.000705
51943000,0.0324,0.013523,0.002678,0.000431,0.000940
51944000,0.0324,0.013523,0.002678,0.000431,0.000823
51945000,0.0324,0.013523,0.002678,0.000431,0.000823
51946000,0.0324,0.013523,0.002678,0.000431,0.000823
51947000,0.0324,0.013523,0.002678,0.000431,0.000823
51948000,0.0324,0.013523,0.002678,0.000431,0.000823
51949000,0.0324,0.013523,0.002678,0.000431,0.000823
51950000,0.0324,0.013523,0.002678,0.000431,0.000940
51951000,0.0324,0.013523,0.002678,0.000431,0.000705
51952000,0.0324,0.013523,0.002678,0.000431,0.000940
51953000,0.0324,0.013523,0.002678,0.000431,0.000705
51954000,0.0324,0.013523,0.002678,0.000431,0.000940
51955000,0.0324,0.013523,0.002678,0.000431,0.000940
51956000,0.0324,0.013523,0.002678,0.000431,0.000705
51957000,0.0324,0.013523,0.002678,0.000431,0.000940
51958000,0.0324,0.013523,0.002678,0.000431,0.000705
51959000,0.0324,0.013523,0.002678,0.000431,0.000940
51960000,0.0324,0.013523,0.002678,0.000431,0.000823
51961000,0.0324,0.013523,0.002678,0.000431,0.000823
51962000,0.0324,0.013523,0.002678,0.000431,0.000823
51963000,0.0324,0.013523,0.002678,0.000431,0.000823
51964000,0.0324,0.013523,0.002678,0.000431,0.000940
51965000,0.0324,0.013523,0.002678,0.000431,0.000705
51966000,0.0324,0.013523,0.002678,0.000431,0.000940
51967000,0.0324,0.013523,0.002678,0.000431,0.000823
51968000,0.0324,0.013523,0.002678,0.000431,0.000823
51969000,0.0324,0.013523,0.002678,0.000431,0.000823
51970000,0.0324,0.013523,0.002678,0.000431,0.000823
51971000,0.0324,0.013523,0.002678,0.000431,0.000823
51972000,0.0324,0.013523,0.002678,0.000431,0.000823
51973000,0.0324,0.013523,0.002678,0.000431,0.000823
51974000,0.0324,0.013523,0.002678,0.000431,0.000823
51975000,0.0324,0.013523,0.002678,0.000431,0.000940
51976000,0.0324,0.013523,0.002678,0.000431,0.000823
51977000,0.0324,0.013523,0.002678,0.000431,0.000823
51978000,0.0324,0.013523,0.002678,0.000431,0.000705
51979000,0.0324,0.013523,0.002678,0.000431,0.000940
51980000,0.0324,0.013523,0.002678,0.000431,0.000940
51981000,0.0324,0.013523,0.002678,0.000431,0.000705
51982000,0.0324,0.013523,0.002678,0.000431,0.000940
51983000,0.0324,0.013523,0.002678,0.000431,0.000705
51984000,0.0324,0.013523,0.002678,0.000431,0.000940
51985000,0.0324,0.013523,0.002678,0.000431,0.000823
51986000,0.0324,0.013523,0.002678,0.000431,0.000823
51987000,0.0324,0.013523,0.002678,0.000431,0.000940
51988000,0.0324,0.013523,0.002678,0.000431,0.000705
51989000,0.0324,0.013523,0.002678,0.000431,0.000940
51990000,0.0324,0.013523,0.002678,0.000431,0.000823
51991000,0.0324,0.013523,0.002678,0.000431,0.000823
51992000,0.0324,0.013523,0.002678,0.000431,0.000823
51993000,0.0324,0.013523,0.002678,0.000431,0.000823
51994000,0.0324,0.013523,0.002678,0.000431,0.000940
51995000,0.0324,0.013523,0.002678,0.000431,0.000705
51996000,0.0324,0.013523,0.002678,0.000431,0.000940
51997000,0.0324,0.013523,0.002678,0.000431,0.000823
51998000,0.0324,0.013523,0.002678,0.000431,0.000823
51999000,0.0324,0.013523,0.002678,0.000431,0.000823
