Cycle,Area(mm^2),PeakDynamic(W),SubthresholdLeakage(W),GateLeakage(W),RunTimeDynamic(W)
22000000,0.0324,0.013523,0.002678,0.000431,0.000823
22001000,0.0324,0.013523,0.002678,0.000431,0.000823
22002000,0.0324,0.013523,0.002678,0.000431,0.000705
22003000,0.0324,0.013523,0.002678,0.000431,0.000940
22004000,0.0324,0.013523,0.002678,0.000431,0.000940
22005000,0.0324,0.013523,0.002678,0.000431,0.000705
22006000,0.0324,0.013523,0.002678,0.000431,0.000940
22007000,0.0324,0.013523,0.002678,0.000431,0.000705
22008000,0.0324,0.013523,0.002678,0.000431,0.000940
22009000,0.0324,0.013523,0.002678,0.000431,0.000823
22010000,0.0324,0.013523,0.002678,0.000431,0.000823
22011000,0.0324,0.013523,0.002678,0.000431,0.000940
22012000,0.0324,0.013523,0.002678,0.000431,0.000705
22013000,0.0324,0.013523,0.002678,0.000431,0.000940
22014000,0.0324,0.013523,0.002678,0.000431,0.000940
22015000,0.0324,0.013523,0.002678,0.000431,0.000940
22016000,0.0324,0.013523,0.002678,0.000431,0.000705
22017000,0.0324,0.013523,0.002678,0.000431,0.000940
22018000,0.0324,0.013523,0.002678,0.000431,0.000940
22019000,0.0324,0.013523,0.002678,0.000431,0.000823
22020000,0.0324,0.013523,0.002678,0.000431,0.000823
22021000,0.0324,0.013523,0.002678,0.000431,0.000940
22022000,0.0324,0.013523,0.002678,0.000431,0.000705
22023000,0.0324,0.013523,0.002678,0.000431,0.000940
22024000,0.0324,0.013523,0.002678,0.000431,0.000823
22025000,0.0324,0.013523,0.002678,0.000431,0.000823
22026000,0.0324,0.013523,0.002678,0.000431,0.000940
22027000,0.0324,0.013523,0.002678,0.000431,0.000705
22028000,0.0324,0.013523,0.002678,0.000431,0.000940
22029000,0.0324,0.013523,0.002678,0.000431,0.000823
22030000,0.0324,0.013523,0.002678,0.000431,0.000823
22031000,0.0324,0.013523,0.002678,0.000431,0.000823
22032000,0.0324,0.013523,0.002678,0.000431,0.000823
22033000,0.0324,0.013523,0.002678,0.000431,0.000940
22034000,0.0324,0.013523,0.002678,0.000431,0.000705
22035000,0.0324,0.013523,0.002678,0.000431,0.000940
22036000,0.0324,0.013523,0.002678,0.000431,0.000823
22037000,0.0324,0.013523,0.002678,0.000431,0.000823
22038000,0.0324,0.013523,0.002678,0.000431,0.000823
22039000,0.0324,0.013523,0.002678,0.000431,0.000823
22040000,0.0324,0.013523,0.002678,0.000431,0.000823
22041000,0.0324,0.013523,0.002678,0.000431,0.000823
22042000,0.0324,0.013523,0.002678,0.000431,0.000823
22043000,0.0324,0.013523,0.002678,0.000431,0.000823
22044000,0.0324,0.013523,0.002678,0.000431,0.000940
22045000,0.0324,0.013523,0.002678,0.000431,0.000823
22046000,0.0324,0.013523,0.002678,0.000431,0.000823
22047000,0.0324,0.013523,0.002678,0.000431,0.000705
22048000,0.0324,0.013523,0.002678,0.000431,0.000940
22049000,0.0324,0.013523,0.002678,0.000431,0.000940
22050000,0.0324,0.013523,0.002678,0.000431,0.000705
22051000,0.0324,0.013523,0.002678,0.000431,0.000940
22052000,0.0324,0.013523,0.002678,0.000431,0.000705
22053000,0.0324,0.013523,0.002678,0.000431,0.000940
22054000,0.0324,0.013523,0.002678,0.000431,0.000823
22055000,0.0324,0.013523,0.002678,0.000431,0.000823
22056000,0.0324,0.013523,0.002678,0.000431,0.001645
22057000,0.0324,0.013523,0.002678,0.000431,0.313918
22058000,0.0324,0.013523,0.002678,0.000431,0.643232
22059000,0.0324,0.013523,0.002678,0.000431,0.238230
22060000,0.0324,0.013523,0.002678,0.000431,0.131632
22061000,0.0324,0.013523,0.002678,0.000431,0.143267
22062000,0.0324,0.013523,0.002678,0.000431,0.640058
22063000,0.0324,0.013523,0.002678,0.000431,0.239875
22064000,0.0324,0.013523,0.002678,0.000431,0.252568
22065000,0.0324,0.013523,0.002678,0.000431,0.248572
22066000,0.0324,0.013523,0.002678,0.000431,0.144442
22067000,0.0324,0.013523,0.002678,0.000431,0.163364
22068000,0.0324,0.013523,0.002678,0.000431,0.129986
22069000,0.0324,0.013523,0.002678,0.000431,0.447077
22070000,0.0324,0.013523,0.002678,0.000431,0.047834
22071000,0.0324,0.013523,0.002678,0.000431,0.029500
22072000,0.0324,0.013523,0.002678,0.000431,0.027149
22073000,0.0324,0.013523,0.002678,0.000431,0.025856
22074000,0.0324,0.013523,0.002678,0.000431,0.024328
22075000,0.0324,0.013523,0.002678,0.000431,0.019157
22076000,0.0324,0.013523,0.002678,0.000431,0.020450
22077000,0.0324,0.013523,0.002678,0.000431,0.019040
22078000,0.0324,0.013523,0.002678,0.000431,0.021273
22079000,0.0324,0.013523,0.002678,0.000431,0.014456
22080000,0.0324,0.013523,0.002678,0.000431,0.014691
22081000,0.0324,0.013523,0.002678,0.000431,0.013868
22082000,0.0324,0.013523,0.002678,0.000431,0.014573
22083000,0.0324,0.013523,0.002678,0.000431,0.013163
22084000,0.0324,0.013523,0.002678,0.000431,0.010342
22085000,0.0324,0.013523,0.002678,0.000431,0.008580
22086000,0.0324,0.013523,0.002678,0.000431,0.009872
22087000,0.0324,0.013523,0.002678,0.000431,0.009402
22088000,0.0324,0.013523,0.002678,0.000431,0.007992
22089000,0.0324,0.013523,0.002678,0.000431,0.007992
22090000,0.0324,0.013523,0.002678,0.000431,0.010342
22091000,0.0324,0.013523,0.002678,0.000431,0.010225
22092000,0.0324,0.013523,0.002678,0.000431,0.004349
22093000,0.0324,0.013523,0.002678,0.000431,0.004349
22094000,0.0324,0.013523,0.002678,0.000431,0.004819
22095000,0.0324,0.013523,0.002678,0.000431,0.004113
22096000,0.0324,0.013523,0.002678,0.000431,0.004701
22097000,0.0324,0.013523,0.002678,0.000431,0.005759
22098000,0.0324,0.013523,0.002678,0.000431,0.005524
22099000,0.0324,0.013523,0.002678,0.000431,0.003408
22100000,0.0324,0.013523,0.002678,0.000431,0.003291
22101000,0.0324,0.013523,0.002678,0.000431,0.003526
22102000,0.0324,0.013523,0.002678,0.000431,0.003408
22103000,0.0324,0.013523,0.002678,0.000431,0.003291
22104000,0.0324,0.013523,0.002678,0.000431,0.003291
22105000,0.0324,0.013523,0.002678,0.000431,0.003643
22106000,0.0324,0.013523,0.002678,0.000431,0.003761
22107000,0.0324,0.013523,0.002678,0.000431,0.002938
22108000,0.0324,0.013523,0.002678,0.000431,0.003408
22109000,0.0324,0.013523,0.002678,0.000431,0.003526
22110000,0.0324,0.013523,0.002678,0.000431,0.003526
22111000,0.0324,0.013523,0.002678,0.000431,0.003173
22112000,0.0324,0.013523,0.002678,0.000431,0.006582
22113000,0.0324,0.013523,0.002678,0.000431,0.001998
22114000,0.0324,0.013523,0.002678,0.000431,0.001645
22115000,0.0324,0.013523,0.002678,0.000431,0.001645
22116000,0.0324,0.013523,0.002678,0.000431,0.001528
22117000,0.0324,0.013523,0.002678,0.000431,0.001763
22118000,0.0324,0.013523,0.002678,0.000431,0.001645
22119000,0.0324,0.013523,0.002678,0.000431,0.001645
22120000,0.0324,0.013523,0.002678,0.000431,0.001645
22121000,0.0324,0.013523,0.002678,0.000431,0.001645
22122000,0.0324,0.013523,0.002678,0.000431,0.001645
22123000,0.0324,0.013523,0.002678,0.000431,0.001645
22124000,0.0324,0.013523,0.002678,0.000431,0.001645
22125000,0.0324,0.013523,0.002678,0.000431,0.001880
22126000,0.0324,0.013523,0.002678,0.000431,0.001410
22127000,0.0324,0.013523,0.002678,0.000431,0.001645
22128000,0.0324,0.013523,0.002678,0.000431,0.001763
22129000,0.0324,0.013523,0.002678,0.000431,0.001763
22130000,0.0324,0.013523,0.002678,0.000431,0.001410
22131000,0.0324,0.013523,0.002678,0.000431,0.001645
22132000,0.0324,0.013523,0.002678,0.000431,0.001880
22133000,0.0324,0.013523,0.002678,0.000431,0.001645
22134000,0.0324,0.013523,0.002678,0.000431,0.001410
22135000,0.0324,0.013523,0.002678,0.000431,0.001880
22136000,0.0324,0.013523,0.002678,0.000431,0.001645
22137000,0.0324,0.013523,0.002678,0.000431,0.001645
22138000,0.0324,0.013523,0.002678,0.000431,0.001410
22139000,0.0324,0.013523,0.002678,0.000431,0.001880
22140000,0.0324,0.013523,0.002678,0.000431,0.001763
22141000,0.0324,0.013523,0.002678,0.000431,0.001528
22142000,0.0324,0.013523,0.002678,0.000431,0.001645
22143000,0.0324,0.013523,0.002678,0.000431,0.001645
22144000,0.0324,0.013523,0.002678,0.000431,0.001645
22145000,0.0324,0.013523,0.002678,0.000431,0.001528
22146000,0.0324,0.013523,0.002678,0.000431,0.001763
22147000,0.0324,0.013523,0.002678,0.000431,0.001880
22148000,0.0324,0.013523,0.002678,0.000431,0.001645
22149000,0.0324,0.013523,0.002678,0.000431,0.001410
22150000,0.0324,0.013523,0.002678,0.000431,0.001645
22151000,0.0324,0.013523,0.002678,0.000431,0.001880
22152000,0.0324,0.013523,0.002678,0.000431,0.001645
22153000,0.0324,0.013523,0.002678,0.000431,0.001410
22154000,0.0324,0.013523,0.002678,0.000431,0.001880
22155000,0.0324,0.013523,0.002678,0.000431,0.001645
22156000,0.0324,0.013523,0.002678,0.000431,0.001645
22157000,0.0324,0.013523,0.002678,0.000431,0.001528
22158000,0.0324,0.013523,0.002678,0.000431,0.001763
22159000,0.0324,0.013523,0.002678,0.000431,0.001645
22160000,0.0324,0.013523,0.002678,0.000431,0.001645
22161000,0.0324,0.013523,0.002678,0.000431,0.001645
22162000,0.0324,0.013523,0.002678,0.000431,0.001645
22163000,0.0324,0.013523,0.002678,0.000431,0.001645
22164000,0.0324,0.013523,0.002678,0.000431,0.001645
22165000,0.0324,0.013523,0.002678,0.000431,0.001645
22166000,0.0324,0.013523,0.002678,0.000431,0.001880
22167000,0.0324,0.013523,0.002678,0.000431,0.001410
22168000,0.0324,0.013523,0.002678,0.000431,0.001645
22169000,0.0324,0.013523,0.002678,0.000431,0.001763
22170000,0.0324,0.013523,0.002678,0.000431,0.001763
22171000,0.0324,0.013523,0.002678,0.000431,0.001528
22172000,0.0324,0.013523,0.002678,0.000431,0.001528
22173000,0.0324,0.013523,0.002678,0.000431,0.001880
22174000,0.0324,0.013523,0.002678,0.000431,0.001645
22175000,0.0324,0.013523,0.002678,0.000431,0.001645
22176000,0.0324,0.013523,0.002678,0.000431,0.001645
22177000,0.0324,0.013523,0.002678,0.000431,0.001645
22178000,0.0324,0.013523,0.002678,0.000431,0.001645
22179000,0.0324,0.013523,0.002678,0.000431,0.001645
22180000,0.0324,0.013523,0.002678,0.000431,0.003056
22181000,0.0324,0.013523,0.002678,0.000431,0.345180
22182000,0.0324,0.013523,0.002678,0.000431,0.675082
22183000,0.0324,0.013523,0.002678,0.000431,0.151729
22184000,0.0324,0.013523,0.002678,0.000431,0.133042
22185000,0.0324,0.013523,0.002678,0.000431,0.153257
22186000,0.0324,0.013523,0.002678,0.000431,0.652164
22187000,0.0324,0.013523,0.002678,0.000431,0.253273
22188000,0.0324,0.013523,0.002678,0.000431,0.261265
22189000,0.0324,0.013523,0.002678,0.000431,0.207202
22190000,0.0324,0.013523,0.002678,0.000431,0.136568
22191000,0.0324,0.013523,0.002678,0.000431,0.180641
22192000,0.0324,0.013523,0.002678,0.000431,0.095668
22193000,0.0324,0.013523,0.002678,0.000431,0.484921
22194000,0.0324,0.013523,0.002678,0.000431,0.100369
22195000,0.0324,0.013523,0.002678,0.000431,0.056766
22196000,0.0324,0.013523,0.002678,0.000431,0.048539
22197000,0.0324,0.013523,0.002678,0.000431,0.042193
22198000,0.0324,0.013523,0.002678,0.000431,0.037962
22199000,0.0324,0.013523,0.002678,0.000431,0.023506
22200000,0.0324,0.013523,0.002678,0.000431,0.022918
22201000,0.0324,0.013523,0.002678,0.000431,0.020097
22202000,0.0324,0.013523,0.002678,0.000431,0.013046
22203000,0.0324,0.013523,0.002678,0.000431,0.012811
22204000,0.0324,0.013523,0.002678,0.000431,0.009872
22205000,0.0324,0.013523,0.002678,0.000431,0.009755
22206000,0.0324,0.013523,0.002678,0.000431,0.009285
22207000,0.0324,0.013523,0.002678,0.000431,0.009167
22208000,0.0324,0.013523,0.002678,0.000431,0.011518
22209000,0.0324,0.013523,0.002678,0.000431,0.008462
22210000,0.0324,0.013523,0.002678,0.000431,0.010225
22211000,0.0324,0.013523,0.002678,0.000431,0.007639
22212000,0.0324,0.013523,0.002678,0.000431,0.007874
22213000,0.0324,0.013523,0.002678,0.000431,0.011870
22214000,0.0324,0.013523,0.002678,0.000431,0.005876
22215000,0.0324,0.013523,0.002678,0.000431,0.005054
22216000,0.0324,0.013523,0.002678,0.000431,0.005171
22217000,0.0324,0.013523,0.002678,0.000431,0.004584
22218000,0.0324,0.013523,0.002678,0.000431,0.004231
22219000,0.0324,0.013523,0.002678,0.000431,0.007522
22220000,0.0324,0.013523,0.002678,0.000431,0.003408
22221000,0.0324,0.013523,0.002678,0.000431,0.003408
22222000,0.0324,0.013523,0.002678,0.000431,0.003526
22223000,0.0324,0.013523,0.002678,0.000431,0.003526
22224000,0.0324,0.013523,0.002678,0.000431,0.003291
22225000,0.0324,0.013523,0.002678,0.000431,0.003526
22226000,0.0324,0.013523,0.002678,0.000431,0.003291
22227000,0.0324,0.013523,0.002678,0.000431,0.003643
22228000,0.0324,0.013523,0.002678,0.000431,0.003291
22229000,0.0324,0.013523,0.002678,0.000431,0.003526
22230000,0.0324,0.013523,0.002678,0.000431,0.003526
22231000,0.0324,0.013523,0.002678,0.000431,0.003291
22232000,0.0324,0.013523,0.002678,0.000431,0.003643
22233000,0.0324,0.013523,0.002678,0.000431,0.003996
22234000,0.0324,0.013523,0.002678,0.000431,0.003761
22235000,0.0324,0.013523,0.002678,0.000431,0.002468
22236000,0.0324,0.013523,0.002678,0.000431,0.002586
22237000,0.0324,0.013523,0.002678,0.000431,0.002586
22238000,0.0324,0.013523,0.002678,0.000431,0.002586
22239000,0.0324,0.013523,0.002678,0.000431,0.004113
22240000,0.0324,0.013523,0.002678,0.000431,0.001645
22241000,0.0324,0.013523,0.002678,0.000431,0.001763
22242000,0.0324,0.013523,0.002678,0.000431,0.001645
22243000,0.0324,0.013523,0.002678,0.000431,0.001763
22244000,0.0324,0.013523,0.002678,0.000431,0.003173
22245000,0.0324,0.013523,0.002678,0.000431,0.000823
22246000,0.0324,0.013523,0.002678,0.000431,0.000940
22247000,0.0324,0.013523,0.002678,0.000431,0.000823
22248000,0.0324,0.013523,0.002678,0.000431,0.000823
22249000,0.0324,0.013523,0.002678,0.000431,0.000940
22250000,0.0324,0.013523,0.002678,0.000431,0.000940
22251000,0.0324,0.013523,0.002678,0.000431,0.000823
22252000,0.0324,0.013523,0.002678,0.000431,0.000823
22253000,0.0324,0.013523,0.002678,0.000431,0.000940
22254000,0.0324,0.013523,0.002678,0.000431,0.000940
22255000,0.0324,0.013523,0.002678,0.000431,0.000705
22256000,0.0324,0.013523,0.002678,0.000431,0.000940
22257000,0.0324,0.013523,0.002678,0.000431,0.000940
22258000,0.0324,0.013523,0.002678,0.000431,0.000940
22259000,0.0324,0.013523,0.002678,0.000431,0.000705
22260000,0.0324,0.013523,0.002678,0.000431,0.000940
22261000,0.0324,0.013523,0.002678,0.000431,0.000940
22262000,0.0324,0.013523,0.002678,0.000431,0.000823
22263000,0.0324,0.013523,0.002678,0.000431,0.000940
22264000,0.0324,0.013523,0.002678,0.000431,0.000823
22265000,0.0324,0.013523,0.002678,0.000431,0.000940
22266000,0.0324,0.013523,0.002678,0.000431,0.000823
22267000,0.0324,0.013523,0.002678,0.000431,0.000823
22268000,0.0324,0.013523,0.002678,0.000431,0.000940
22269000,0.0324,0.013523,0.002678,0.000431,0.000940
22270000,0.0324,0.013523,0.002678,0.000431,0.000705
22271000,0.0324,0.013523,0.002678,0.000431,0.000940
22272000,0.0324,0.013523,0.002678,0.000431,0.000940
22273000,0.0324,0.013523,0.002678,0.000431,0.000940
22274000,0.0324,0.013523,0.002678,0.000431,0.000823
22275000,0.0324,0.013523,0.002678,0.000431,0.000823
22276000,0.0324,0.013523,0.002678,0.000431,0.000940
22277000,0.0324,0.013523,0.002678,0.000431,0.000940
22278000,0.0324,0.013523,0.002678,0.000431,0.000705
22279000,0.0324,0.013523,0.002678,0.000431,0.000940
22280000,0.0324,0.013523,0.002678,0.000431,0.000940
22281000,0.0324,0.013523,0.002678,0.000431,0.000940
22282000,0.0324,0.013523,0.002678,0.000431,0.000705
22283000,0.0324,0.013523,0.002678,0.000431,0.000940
22284000,0.0324,0.013523,0.002678,0.000431,0.000940
22285000,0.0324,0.013523,0.002678,0.000431,0.000823
22286000,0.0324,0.013523,0.002678,0.000431,0.000823
22287000,0.0324,0.013523,0.002678,0.000431,0.000940
22288000,0.0324,0.013523,0.002678,0.000431,0.000940
22289000,0.0324,0.013523,0.002678,0.000431,0.000823
22290000,0.0324,0.013523,0.002678,0.000431,0.000823
22291000,0.0324,0.013523,0.002678,0.000431,0.000940
22292000,0.0324,0.013523,0.002678,0.000431,0.000823
22293000,0.0324,0.013523,0.002678,0.000431,0.000823
22294000,0.0324,0.013523,0.002678,0.000431,0.000940
22295000,0.0324,0.013523,0.002678,0.000431,0.000940
22296000,0.0324,0.013523,0.002678,0.000431,0.000940
22297000,0.0324,0.013523,0.002678,0.000431,0.000705
22298000,0.0324,0.013523,0.002678,0.000431,0.000940
22299000,0.0324,0.013523,0.002678,0.000431,0.000940
22300000,0.0324,0.013523,0.002678,0.000431,0.000823
22301000,0.0324,0.013523,0.002678,0.000431,0.000823
22302000,0.0324,0.013523,0.002678,0.000431,0.000940
22303000,0.0324,0.013523,0.002678,0.000431,0.200856
22304000,0.0324,0.013523,0.002678,0.000431,0.478222
22305000,0.0324,0.013523,0.002678,0.000431,0.518182
22306000,0.0324,0.013523,0.002678,0.000431,0.134452
22307000,0.0324,0.013523,0.002678,0.000431,0.133512
22308000,0.0324,0.013523,0.002678,0.000431,0.615025
22309000,0.0324,0.013523,0.002678,0.000431,0.249747
22310000,0.0324,0.013523,0.002678,0.000431,0.249865
22311000,0.0324,0.013523,0.002678,0.000431,0.268669
22312000,0.0324,0.013523,0.002678,0.000431,0.146205
22313000,0.0324,0.013523,0.002678,0.000431,0.175822
22314000,0.0324,0.013523,0.002678,0.000431,0.095080
22315000,0.0324,0.013523,0.002678,0.000431,0.472581
22316000,0.0324,0.013523,0.002678,0.000431,0.064876
22317000,0.0324,0.013523,0.002678,0.000431,0.032438
22318000,0.0324,0.013523,0.002678,0.000431,0.024093
22319000,0.0324,0.013523,0.002678,0.000431,0.026914
22320000,0.0324,0.013523,0.002678,0.000431,0.015749
22321000,0.0324,0.013523,0.002678,0.000431,0.010107
22322000,0.0324,0.013523,0.002678,0.000431,0.010225
22323000,0.0324,0.013523,0.002678,0.000431,0.006934
22324000,0.0324,0.013523,0.002678,0.000431,0.007874
22325000,0.0324,0.013523,0.002678,0.000431,0.010342
22326000,0.0324,0.013523,0.002678,0.000431,0.004113
22327000,0.0324,0.013523,0.002678,0.000431,0.005289
22328000,0.0324,0.013523,0.002678,0.000431,0.003878
22329000,0.0324,0.013523,0.002678,0.000431,0.003526
22330000,0.0324,0.013523,0.002678,0.000431,0.003643
22331000,0.0324,0.013523,0.002678,0.000431,0.003408
22332000,0.0324,0.013523,0.002678,0.000431,0.003526
22333000,0.0324,0.013523,0.002678,0.000431,0.003173
22334000,0.0324,0.013523,0.002678,0.000431,0.003643
22335000,0.0324,0.013523,0.002678,0.000431,0.003526
22336000,0.0324,0.013523,0.002678,0.000431,0.004936
22337000,0.0324,0.013523,0.002678,0.000431,0.002821
22338000,0.0324,0.013523,0.002678,0.000431,0.003408
22339000,0.0324,0.013523,0.002678,0.000431,0.003173
22340000,0.0324,0.013523,0.002678,0.000431,0.003643
22341000,0.0324,0.013523,0.002678,0.000431,0.000940
22342000,0.0324,0.013523,0.002678,0.000431,0.000940
22343000,0.0324,0.013523,0.002678,0.000431,0.000705
22344000,0.0324,0.013523,0.002678,0.000431,0.000940
22345000,0.0324,0.013523,0.002678,0.000431,0.000705
22346000,0.0324,0.013523,0.002678,0.000431,0.000940
22347000,0.0324,0.013523,0.002678,0.000431,0.000823
22348000,0.0324,0.013523,0.002678,0.000431,0.000823
22349000,0.0324,0.013523,0.002678,0.000431,0.000823
22350000,0.0324,0.013523,0.002678,0.000431,0.000823
22351000,0.0324,0.013523,0.002678,0.000431,0.000823
22352000,0.0324,0.013523,0.002678,0.000431,0.000823
22353000,0.0324,0.013523,0.002678,0.000431,0.000940
22354000,0.0324,0.013523,0.002678,0.000431,0.000705
22355000,0.0324,0.013523,0.002678,0.000431,0.000940
22356000,0.0324,0.013523,0.002678,0.000431,0.000705
22357000,0.0324,0.013523,0.002678,0.000431,0.000940
22358000,0.0324,0.013523,0.002678,0.000431,0.001645
22359000,0.0324,0.013523,0.002678,0.000431,0.302988
22360000,0.0324,0.013523,0.002678,0.000431,0.637708
22361000,0.0324,0.013523,0.002678,0.000431,0.225302
22362000,0.0324,0.013523,0.002678,0.000431,0.131161
22363000,0.0324,0.013523,0.002678,0.000431,0.134452
22364000,0.0324,0.013523,0.002678,0.000431,0.585055
22365000,0.0324,0.013523,0.002678,0.000431,0.224361
22366000,0.0324,0.013523,0.002678,0.000431,0.277954
22367000,0.0324,0.013523,0.002678,0.000431,0.241285
22368000,0.0324,0.013523,0.002678,0.000431,0.137626
22369000,0.0324,0.013523,0.002678,0.000431,0.147498
22370000,0.0324,0.013523,0.002678,0.000431,0.124932
22371000,0.0324,0.013523,0.002678,0.000431,0.299227
22372000,0.0324,0.013523,0.002678,0.000431,0.291822
22373000,0.0324,0.013523,0.002678,0.000431,0.042310
22374000,0.0324,0.013523,0.002678,0.000431,0.029735
22375000,0.0324,0.013523,0.002678,0.000431,0.026326
22376000,0.0324,0.013523,0.002678,0.000431,0.019392
22377000,0.0324,0.013523,0.002678,0.000431,0.022918
22378000,0.0324,0.013523,0.002678,0.000431,0.019157
22379000,0.0324,0.013523,0.002678,0.000431,0.013046
22380000,0.0324,0.013523,0.002678,0.000431,0.011400
22381000,0.0324,0.013523,0.002678,0.000431,0.011988
22382000,0.0324,0.013523,0.002678,0.000431,0.012576
22383000,0.0324,0.013523,0.002678,0.000431,0.011165
22384000,0.0324,0.013523,0.002678,0.000431,0.006582
22385000,0.0324,0.013523,0.002678,0.000431,0.008932
22386000,0.0324,0.013523,0.002678,0.000431,0.003996
22387000,0.0324,0.013523,0.002678,0.000431,0.003996
22388000,0.0324,0.013523,0.002678,0.000431,0.003878
22389000,0.0324,0.013523,0.002678,0.000431,0.004231
22390000,0.0324,0.013523,0.002678,0.000431,0.003996
22391000,0.0324,0.013523,0.002678,0.000431,0.005054
22392000,0.0324,0.013523,0.002678,0.000431,0.004466
22393000,0.0324,0.013523,0.002678,0.000431,0.003408
22394000,0.0324,0.013523,0.002678,0.000431,0.003056
22395000,0.0324,0.013523,0.002678,0.000431,0.003996
22396000,0.0324,0.013523,0.002678,0.000431,0.003291
22397000,0.0324,0.013523,0.002678,0.000431,0.002233
22398000,0.0324,0.013523,0.002678,0.000431,0.002351
22399000,0.0324,0.013523,0.002678,0.000431,0.002586
22400000,0.0324,0.013523,0.002678,0.000431,0.003878
22401000,0.0324,0.013523,0.002678,0.000431,0.001880
22402000,0.0324,0.013523,0.002678,0.000431,0.001058
22403000,0.0324,0.013523,0.002678,0.000431,0.000705
22404000,0.0324,0.013523,0.002678,0.000431,0.000940
22405000,0.0324,0.013523,0.002678,0.000431,0.000940
22406000,0.0324,0.013523,0.002678,0.000431,0.000823
22407000,0.0324,0.013523,0.002678,0.000431,0.000823
22408000,0.0324,0.013523,0.002678,0.000431,0.000940
22409000,0.0324,0.013523,0.002678,0.000431,0.000940
22410000,0.0324,0.013523,0.002678,0.000431,0.000823
22411000,0.0324,0.013523,0.002678,0.000431,0.000823
22412000,0.0324,0.013523,0.002678,0.000431,0.000940
22413000,0.0324,0.013523,0.002678,0.000431,0.000823
22414000,0.0324,0.013523,0.002678,0.000431,0.000940
22415000,0.0324,0.013523,0.002678,0.000431,0.000823
22416000,0.0324,0.013523,0.002678,0.000431,0.000940
22417000,0.0324,0.013523,0.002678,0.000431,0.000823
22418000,0.0324,0.013523,0.002678,0.000431,0.000823
22419000,0.0324,0.013523,0.002678,0.000431,0.000940
22420000,0.0324,0.013523,0.002678,0.000431,0.000940
22421000,0.0324,0.013523,0.002678,0.000431,0.000940
22422000,0.0324,0.013523,0.002678,0.000431,0.000705
22423000,0.0324,0.013523,0.002678,0.000431,0.000940
22424000,0.0324,0.013523,0.002678,0.000431,0.000940
22425000,0.0324,0.013523,0.002678,0.000431,0.000823
22426000,0.0324,0.013523,0.002678,0.000431,0.000823
22427000,0.0324,0.013523,0.002678,0.000431,0.000940
22428000,0.0324,0.013523,0.002678,0.000431,0.000823
22429000,0.0324,0.013523,0.002678,0.000431,0.000940
22430000,0.0324,0.013523,0.002678,0.000431,0.000823
22431000,0.0324,0.013523,0.002678,0.000431,0.000940
22432000,0.0324,0.013523,0.002678,0.000431,0.000823
22433000,0.0324,0.013523,0.002678,0.000431,0.000823
22434000,0.0324,0.013523,0.002678,0.000431,0.000940
22435000,0.0324,0.013523,0.002678,0.000431,0.000940
22436000,0.0324,0.013523,0.002678,0.000431,0.000823
22437000,0.0324,0.013523,0.002678,0.000431,0.000823
22438000,0.0324,0.013523,0.002678,0.000431,0.000940
22439000,0.0324,0.013523,0.002678,0.000431,0.000940
22440000,0.0324,0.013523,0.002678,0.000431,0.000705
22441000,0.0324,0.013523,0.002678,0.000431,0.000940
22442000,0.0324,0.013523,0.002678,0.000431,0.000940
22443000,0.0324,0.013523,0.002678,0.000431,0.000940
22444000,0.0324,0.013523,0.002678,0.000431,0.000823
22445000,0.0324,0.013523,0.002678,0.000431,0.000823
22446000,0.0324,0.013523,0.002678,0.000431,0.000940
22447000,0.0324,0.013523,0.002678,0.000431,0.000823
22448000,0.0324,0.013523,0.002678,0.000431,0.000940
22449000,0.0324,0.013523,0.002678,0.000431,0.000823
22450000,0.0324,0.013523,0.002678,0.000431,0.000940
22451000,0.0324,0.013523,0.002678,0.000431,0.000823
22452000,0.0324,0.013523,0.002678,0.000431,0.000823
22453000,0.0324,0.013523,0.002678,0.000431,0.000940
22454000,0.0324,0.013523,0.002678,0.000431,0.000940
22455000,0.0324,0.013523,0.002678,0.000431,0.000823
22456000,0.0324,0.013523,0.002678,0.000431,0.000823
22457000,0.0324,0.013523,0.002678,0.000431,0.000940
22458000,0.0324,0.013523,0.002678,0.000431,0.000940
22459000,0.0324,0.013523,0.002678,0.000431,0.000705
22460000,0.0324,0.013523,0.002678,0.000431,0.000940
22461000,0.0324,0.013523,0.002678,0.000431,0.000940
22462000,0.0324,0.013523,0.002678,0.000431,0.000940
22463000,0.0324,0.013523,0.002678,0.000431,0.000705
22464000,0.0324,0.013523,0.002678,0.000431,0.000940
22465000,0.0324,0.013523,0.002678,0.000431,0.000940
22466000,0.0324,0.013523,0.002678,0.000431,0.000823
22467000,0.0324,0.013523,0.002678,0.000431,0.000823
22468000,0.0324,0.013523,0.002678,0.000431,0.000940
22469000,0.0324,0.013523,0.002678,0.000431,0.000940
22470000,0.0324,0.013523,0.002678,0.000431,0.000823
22471000,0.0324,0.013523,0.002678,0.000431,0.000823
22472000,0.0324,0.013523,0.002678,0.000431,0.193804
22473000,0.0324,0.013523,0.002678,0.000431,0.475519
22474000,0.0324,0.013523,0.002678,0.000431,0.479868
22475000,0.0324,0.013523,0.002678,0.000431,0.133512
22476000,0.0324,0.013523,0.002678,0.000431,0.131632
22477000,0.0324,0.013523,0.002678,0.000431,0.592225
22478000,0.0324,0.013523,0.002678,0.000431,0.273253
22479000,0.0324,0.013523,0.002678,0.000431,0.271373
22480000,0.0324,0.013523,0.002678,0.000431,0.245399
22481000,0.0324,0.013523,0.002678,0.000431,0.137626
22482000,0.0324,0.013523,0.002678,0.000431,0.145265
22483000,0.0324,0.013523,0.002678,0.000431,0.120231
22484000,0.0324,0.013523,0.002678,0.000431,0.383965
22485000,0.0324,0.013523,0.002678,0.000431,0.186752
22486000,0.0324,0.013523,0.002678,0.000431,0.020802
22487000,0.0324,0.013523,0.002678,0.000431,0.019627
22488000,0.0324,0.013523,0.002678,0.000431,0.013986
22489000,0.0324,0.013523,0.002678,0.000431,0.014456
22490000,0.0324,0.013523,0.002678,0.000431,0.008462
22491000,0.0324,0.013523,0.002678,0.000431,0.009872
22492000,0.0324,0.013523,0.002678,0.000431,0.004113
22493000,0.0324,0.013523,0.002678,0.000431,0.005171
22494000,0.0324,0.013523,0.002678,0.000431,0.006111
22495000,0.0324,0.013523,0.002678,0.000431,0.002821
22496000,0.0324,0.013523,0.002678,0.000431,0.003056
22497000,0.0324,0.013523,0.002678,0.000431,0.002938
22498000,0.0324,0.013523,0.002678,0.000431,0.003291
22499000,0.0324,0.013523,0.002678,0.000431,0.002938
22500000,0.0324,0.013523,0.002678,0.000431,0.001528
22501000,0.0324,0.013523,0.002678,0.000431,0.001528
22502000,0.0324,0.013523,0.002678,0.000431,0.001528
22503000,0.0324,0.013523,0.002678,0.000431,0.001175
22504000,0.0324,0.013523,0.002678,0.000431,0.001763
22505000,0.0324,0.013523,0.002678,0.000431,0.001763
22506000,0.0324,0.013523,0.002678,0.000431,0.001175
22507000,0.0324,0.013523,0.002678,0.000431,0.001645
22508000,0.0324,0.013523,0.002678,0.000431,0.001645
22509000,0.0324,0.013523,0.002678,0.000431,0.000823
22510000,0.0324,0.013523,0.002678,0.000431,0.000940
22511000,0.0324,0.013523,0.002678,0.000431,0.000705
22512000,0.0324,0.013523,0.002678,0.000431,0.000940
22513000,0.0324,0.013523,0.002678,0.000431,0.000705
22514000,0.0324,0.013523,0.002678,0.000431,0.000940
22515000,0.0324,0.013523,0.002678,0.000431,0.000940
22516000,0.0324,0.013523,0.002678,0.000431,0.000705
22517000,0.0324,0.013523,0.002678,0.000431,0.000940
22518000,0.0324,0.013523,0.002678,0.000431,0.000705
22519000,0.0324,0.013523,0.002678,0.000431,0.000940
22520000,0.0324,0.013523,0.002678,0.000431,0.000823
22521000,0.0324,0.013523,0.002678,0.000431,0.000940
22522000,0.0324,0.013523,0.002678,0.000431,0.000823
22523000,0.0324,0.013523,0.002678,0.000431,0.188868
22524000,0.0324,0.013523,0.002678,0.000431,0.464001
22525000,0.0324,0.013523,0.002678,0.000431,0.472816
22526000,0.0324,0.013523,0.002678,0.000431,0.133042
22527000,0.0324,0.013523,0.002678,0.000431,0.132102
22528000,0.0324,0.013523,0.002678,0.000431,0.543450
22529000,0.0324,0.013523,0.002678,0.000431,0.258209
22530000,0.0324,0.013523,0.002678,0.000431,0.217075
22531000,0.0324,0.013523,0.002678,0.000431,0.298874
22532000,0.0324,0.013523,0.002678,0.000431,0.137273
22533000,0.0324,0.013523,0.002678,0.000431,0.147380
22534000,0.0324,0.013523,0.002678,0.000431,0.161954
22535000,0.0324,0.013523,0.002678,0.000431,0.151846
22536000,0.0324,0.013523,0.002678,0.000431,0.418753
22537000,0.0324,0.013523,0.002678,0.000431,0.009520
22538000,0.0324,0.013523,0.002678,0.000431,0.006111
22539000,0.0324,0.013523,0.002678,0.000431,0.005641
22540000,0.0324,0.013523,0.002678,0.000431,0.005994
22541000,0.0324,0.013523,0.002678,0.000431,0.006111
22542000,0.0324,0.013523,0.002678,0.000431,0.006111
22543000,0.0324,0.013523,0.002678,0.000431,0.005759
22544000,0.0324,0.013523,0.002678,0.000431,0.005759
22545000,0.0324,0.013523,0.002678,0.000431,0.006347
22546000,0.0324,0.013523,0.002678,0.000431,0.006229
22547000,0.0324,0.013523,0.002678,0.000431,0.005406
22548000,0.0324,0.013523,0.002678,0.000431,0.006347
22549000,0.0324,0.013523,0.002678,0.000431,0.007639
22550000,0.0324,0.013523,0.002678,0.000431,0.005171
22551000,0.0324,0.013523,0.002678,0.000431,0.005171
22552000,0.0324,0.013523,0.002678,0.000431,0.005054
22553000,0.0324,0.013523,0.002678,0.000431,0.005406
22554000,0.0324,0.013523,0.002678,0.000431,0.005054
22555000,0.0324,0.013523,0.002678,0.000431,0.005054
22556000,0.0324,0.013523,0.002678,0.000431,0.005289
22557000,0.0324,0.013523,0.002678,0.000431,0.005054
22558000,0.0324,0.013523,0.002678,0.000431,0.005171
22559000,0.0324,0.013523,0.002678,0.000431,0.005054
22560000,0.0324,0.013523,0.002678,0.000431,0.005289
22561000,0.0324,0.013523,0.002678,0.000431,0.005289
22562000,0.0324,0.013523,0.002678,0.000431,0.004819
22563000,0.0324,0.013523,0.002678,0.000431,0.005289
22564000,0.0324,0.013523,0.002678,0.000431,0.005171
22565000,0.0324,0.013523,0.002678,0.000431,0.005289
22566000,0.0324,0.013523,0.002678,0.000431,0.005876
22567000,0.0324,0.013523,0.002678,0.000431,0.004349
22568000,0.0324,0.013523,0.002678,0.000431,0.006111
22569000,0.0324,0.013523,0.002678,0.000431,0.003173
22570000,0.0324,0.013523,0.002678,0.000431,0.003526
22571000,0.0324,0.013523,0.002678,0.000431,0.003408
22572000,0.0324,0.013523,0.002678,0.000431,0.003643
22573000,0.0324,0.013523,0.002678,0.000431,0.003291
22574000,0.0324,0.013523,0.002678,0.000431,0.003408
22575000,0.0324,0.013523,0.002678,0.000431,0.003526
22576000,0.0324,0.013523,0.002678,0.000431,0.003291
22577000,0.0324,0.013523,0.002678,0.000431,0.003643
22578000,0.0324,0.013523,0.002678,0.000431,0.003173
22579000,0.0324,0.013523,0.002678,0.000431,0.003526
22580000,0.0324,0.013523,0.002678,0.000431,0.003526
22581000,0.0324,0.013523,0.002678,0.000431,0.004466
22582000,0.0324,0.013523,0.002678,0.000431,0.002703
22583000,0.0324,0.013523,0.002678,0.000431,0.002703
22584000,0.0324,0.013523,0.002678,0.000431,0.002468
22585000,0.0324,0.013523,0.002678,0.000431,0.002586
22586000,0.0324,0.013523,0.002678,0.000431,0.002468
22587000,0.0324,0.013523,0.002678,0.000431,0.002821
22588000,0.0324,0.013523,0.002678,0.000431,0.002703
22589000,0.0324,0.013523,0.002678,0.000431,0.002351
22590000,0.0324,0.013523,0.002678,0.000431,0.002703
22591000,0.0324,0.013523,0.002678,0.000431,0.002586
22592000,0.0324,0.013523,0.002678,0.000431,0.002586
22593000,0.0324,0.013523,0.002678,0.000431,0.002468
22594000,0.0324,0.013523,0.002678,0.000431,0.002703
22595000,0.0324,0.013523,0.002678,0.000431,0.002821
22596000,0.0324,0.013523,0.002678,0.000431,0.002351
22597000,0.0324,0.013523,0.002678,0.000431,0.002703
22598000,0.0324,0.013523,0.002678,0.000431,0.002586
22599000,0.0324,0.013523,0.002678,0.000431,0.002586
22600000,0.0324,0.013523,0.002678,0.000431,0.002586
22601000,0.0324,0.013523,0.002678,0.000431,0.004113
22602000,0.0324,0.013523,0.002678,0.000431,0.001763
22603000,0.0324,0.013523,0.002678,0.000431,0.001880
22604000,0.0324,0.013523,0.002678,0.000431,0.001645
22605000,0.0324,0.013523,0.002678,0.000431,0.001763
22606000,0.0324,0.013523,0.002678,0.000431,0.001763
22607000,0.0324,0.013523,0.002678,0.000431,0.002116
22608000,0.0324,0.013523,0.002678,0.000431,0.002586
22609000,0.0324,0.013523,0.002678,0.000431,0.000823
22610000,0.0324,0.013523,0.002678,0.000431,0.000940
22611000,0.0324,0.013523,0.002678,0.000431,0.000940
22612000,0.0324,0.013523,0.002678,0.000431,0.000823
22613000,0.0324,0.013523,0.002678,0.000431,0.000823
22614000,0.0324,0.013523,0.002678,0.000431,0.000940
22615000,0.0324,0.013523,0.002678,0.000431,0.000940
22616000,0.0324,0.013523,0.002678,0.000431,0.000705
22617000,0.0324,0.013523,0.002678,0.000431,0.000940
22618000,0.0324,0.013523,0.002678,0.000431,0.000940
22619000,0.0324,0.013523,0.002678,0.000431,0.000940
22620000,0.0324,0.013523,0.002678,0.000431,0.000705
22621000,0.0324,0.013523,0.002678,0.000431,0.000940
22622000,0.0324,0.013523,0.002678,0.000431,0.000940
22623000,0.0324,0.013523,0.002678,0.000431,0.000823
22624000,0.0324,0.013523,0.002678,0.000431,0.000940
22625000,0.0324,0.013523,0.002678,0.000431,0.000823
22626000,0.0324,0.013523,0.002678,0.000431,0.000940
22627000,0.0324,0.013523,0.002678,0.000431,0.000823
22628000,0.0324,0.013523,0.002678,0.000431,0.000823
22629000,0.0324,0.013523,0.002678,0.000431,0.000940
22630000,0.0324,0.013523,0.002678,0.000431,0.000940
22631000,0.0324,0.013523,0.002678,0.000431,0.000823
22632000,0.0324,0.013523,0.002678,0.000431,0.000823
22633000,0.0324,0.013523,0.002678,0.000431,0.000940
22634000,0.0324,0.013523,0.002678,0.000431,0.000940
22635000,0.0324,0.013523,0.002678,0.000431,0.000705
22636000,0.0324,0.013523,0.002678,0.000431,0.000940
22637000,0.0324,0.013523,0.002678,0.000431,0.000940
22638000,0.0324,0.013523,0.002678,0.000431,0.000940
22639000,0.0324,0.013523,0.002678,0.000431,0.000705
22640000,0.0324,0.013523,0.002678,0.000431,0.000940
22641000,0.0324,0.013523,0.002678,0.000431,0.000940
22642000,0.0324,0.013523,0.002678,0.000431,0.000823
22643000,0.0324,0.013523,0.002678,0.000431,0.000823
22644000,0.0324,0.013523,0.002678,0.000431,0.000940
22645000,0.0324,0.013523,0.002678,0.000431,0.000823
22646000,0.0324,0.013523,0.002678,0.000431,0.000940
22647000,0.0324,0.013523,0.002678,0.000431,0.000823
22648000,0.0324,0.013523,0.002678,0.000431,0.000940
22649000,0.0324,0.013523,0.002678,0.000431,0.000940
22650000,0.0324,0.013523,0.002678,0.000431,0.000940
22651000,0.0324,0.013523,0.002678,0.000431,0.000823
22652000,0.0324,0.013523,0.002678,0.000431,0.000823
22653000,0.0324,0.013523,0.002678,0.000431,0.000940
22654000,0.0324,0.013523,0.002678,0.000431,0.000823
22655000,0.0324,0.013523,0.002678,0.000431,0.000940
22656000,0.0324,0.013523,0.002678,0.000431,0.000823
22657000,0.0324,0.013523,0.002678,0.000431,0.000940
22658000,0.0324,0.013523,0.002678,0.000431,0.000823
22659000,0.0324,0.013523,0.002678,0.000431,0.000823
22660000,0.0324,0.013523,0.002678,0.000431,0.000940
22661000,0.0324,0.013523,0.002678,0.000431,0.000940
22662000,0.0324,0.013523,0.002678,0.000431,0.000705
22663000,0.0324,0.013523,0.002678,0.000431,0.000940
22664000,0.0324,0.013523,0.002678,0.000431,0.013398
22665000,0.0324,0.013523,0.002678,0.000431,0.407118
22666000,0.0324,0.013523,0.002678,0.000431,0.598101
22667000,0.0324,0.013523,0.002678,0.000431,0.133982
22668000,0.0324,0.013523,0.002678,0.000431,0.131161
22669000,0.0324,0.013523,0.002678,0.000431,0.139153
22670000,0.0324,0.013523,0.002678,0.000431,0.592342
22671000,0.0324,0.013523,0.002678,0.000431,0.249395
22672000,0.0324,0.013523,0.002678,0.000431,0.251628
22673000,0.0324,0.013523,0.002678,0.000431,0.253861
22674000,0.0324,0.013523,0.002678,0.000431,0.136098
22675000,0.0324,0.013523,0.002678,0.000431,0.146910
22676000,0.0324,0.013523,0.002678,0.000431,0.110359
22677000,0.0324,0.013523,0.002678,0.000431,0.324378
22678000,0.0324,0.013523,0.002678,0.000431,0.244576
22679000,0.0324,0.013523,0.002678,0.000431,0.003643
22680000,0.0324,0.013523,0.002678,0.000431,0.003291
22681000,0.0324,0.013523,0.002678,0.000431,0.003408
22682000,0.0324,0.013523,0.002678,0.000431,0.003526
22683000,0.0324,0.013523,0.002678,0.000431,0.003526
22684000,0.0324,0.013523,0.002678,0.000431,0.003408
22685000,0.0324,0.013523,0.002678,0.000431,0.003408
22686000,0.0324,0.013523,0.002678,0.000431,0.003526
22687000,0.0324,0.013523,0.002678,0.000431,0.003526
22688000,0.0324,0.013523,0.002678,0.000431,0.003526
22689000,0.0324,0.013523,0.002678,0.000431,0.003291
22690000,0.0324,0.013523,0.002678,0.000431,0.003526
22691000,0.0324,0.013523,0.002678,0.000431,0.004936
22692000,0.0324,0.013523,0.002678,0.000431,0.002703
22693000,0.0324,0.013523,0.002678,0.000431,0.002351
22694000,0.0324,0.013523,0.002678,0.000431,0.002703
22695000,0.0324,0.013523,0.002678,0.000431,0.002586
22696000,0.0324,0.013523,0.002678,0.000431,0.002468
22697000,0.0324,0.013523,0.002678,0.000431,0.002703
22698000,0.0324,0.013523,0.002678,0.000431,0.002703
22699000,0.0324,0.013523,0.002678,0.000431,0.002586
22700000,0.0324,0.013523,0.002678,0.000431,0.002351
22701000,0.0324,0.013523,0.002678,0.000431,0.002703
22702000,0.0324,0.013523,0.002678,0.000431,0.002821
22703000,0.0324,0.013523,0.002678,0.000431,0.002233
22704000,0.0324,0.013523,0.002678,0.000431,0.002821
22705000,0.0324,0.013523,0.002678,0.000431,0.002468
22706000,0.0324,0.013523,0.002678,0.000431,0.002821
22707000,0.0324,0.013523,0.002678,0.000431,0.002468
22708000,0.0324,0.013523,0.002678,0.000431,0.002468
22709000,0.0324,0.013523,0.002678,0.000431,0.002821
22710000,0.0324,0.013523,0.002678,0.000431,0.002468
22711000,0.0324,0.013523,0.002678,0.000431,0.002703
22712000,0.0324,0.013523,0.002678,0.000431,0.003643
22713000,0.0324,0.013523,0.002678,0.000431,0.001645
22714000,0.0324,0.013523,0.002678,0.000431,0.001763
22715000,0.0324,0.013523,0.002678,0.000431,0.001645
22716000,0.0324,0.013523,0.002678,0.000431,0.001763
22717000,0.0324,0.013523,0.002678,0.000431,0.001763
22718000,0.0324,0.013523,0.002678,0.000431,0.001645
22719000,0.0324,0.013523,0.002678,0.000431,0.001645
22720000,0.0324,0.013523,0.002678,0.000431,0.001763
22721000,0.0324,0.013523,0.002678,0.000431,0.001880
22722000,0.0324,0.013523,0.002678,0.000431,0.001528
22723000,0.0324,0.013523,0.002678,0.000431,0.001645
22724000,0.0324,0.013523,0.002678,0.000431,0.001880
22725000,0.0324,0.013523,0.002678,0.000431,0.001763
22726000,0.0324,0.013523,0.002678,0.000431,0.001528
22727000,0.0324,0.013523,0.002678,0.000431,0.001763
22728000,0.0324,0.013523,0.002678,0.000431,0.001763
22729000,0.0324,0.013523,0.002678,0.000431,0.001645
22730000,0.0324,0.013523,0.002678,0.000431,0.001763
22731000,0.0324,0.013523,0.002678,0.000431,0.003408
22732000,0.0324,0.013523,0.002678,0.000431,0.000940
22733000,0.0324,0.013523,0.002678,0.000431,0.000823
22734000,0.0324,0.013523,0.002678,0.000431,0.000823
22735000,0.0324,0.013523,0.002678,0.000431,0.000940
22736000,0.0324,0.013523,0.002678,0.000431,0.000823
22737000,0.0324,0.013523,0.002678,0.000431,0.000940
22738000,0.0324,0.013523,0.002678,0.000431,0.000823
22739000,0.0324,0.013523,0.002678,0.000431,0.000940
22740000,0.0324,0.013523,0.002678,0.000431,0.000940
22741000,0.0324,0.013523,0.002678,0.000431,0.002233
22742000,0.0324,0.013523,0.002678,0.000431,0.320734
22743000,0.0324,0.013523,0.002678,0.000431,0.671909
22744000,0.0324,0.013523,0.002678,0.000431,0.135745
22745000,0.0324,0.013523,0.002678,0.000431,0.134922
22746000,0.0324,0.013523,0.002678,0.000431,0.130221
22747000,0.0324,0.013523,0.002678,0.000431,0.593400
22748000,0.0324,0.013523,0.002678,0.000431,0.228945
22749000,0.0324,0.013523,0.002678,0.000431,0.245399
22750000,0.0324,0.013523,0.002678,0.000431,0.270432
22751000,0.0324,0.013523,0.002678,0.000431,0.146558
22752000,0.0324,0.013523,0.002678,0.000431,0.143502
22753000,0.0324,0.013523,0.002678,0.000431,0.123052
22754000,0.0324,0.013523,0.002678,0.000431,0.264556
22755000,0.0324,0.013523,0.002678,0.000431,0.313918
22756000,0.0324,0.013523,0.002678,0.000431,0.001528
22757000,0.0324,0.013523,0.002678,0.000431,0.001880
22758000,0.0324,0.013523,0.002678,0.000431,0.001763
22759000,0.0324,0.013523,0.002678,0.000431,0.001763
22760000,0.0324,0.013523,0.002678,0.000431,0.001645
22761000,0.0324,0.013523,0.002678,0.000431,0.001763
22762000,0.0324,0.013523,0.002678,0.000431,0.001880
22763000,0.0324,0.013523,0.002678,0.000431,0.001763
22764000,0.0324,0.013523,0.002678,0.000431,0.001645
22765000,0.0324,0.013523,0.002678,0.000431,0.001763
22766000,0.0324,0.013523,0.002678,0.000431,0.001763
22767000,0.0324,0.013523,0.002678,0.000431,0.001880
22768000,0.0324,0.013523,0.002678,0.000431,0.001528
22769000,0.0324,0.013523,0.002678,0.000431,0.001880
22770000,0.0324,0.013523,0.002678,0.000431,0.001763
22771000,0.0324,0.013523,0.002678,0.000431,0.001763
22772000,0.0324,0.013523,0.002678,0.000431,0.001645
22773000,0.0324,0.013523,0.002678,0.000431,0.001880
22774000,0.0324,0.013523,0.002678,0.000431,0.001763
22775000,0.0324,0.013523,0.002678,0.000431,0.001645
22776000,0.0324,0.013523,0.002678,0.000431,0.001763
22777000,0.0324,0.013523,0.002678,0.000431,0.001880
22778000,0.0324,0.013523,0.002678,0.000431,0.001645
22779000,0.0324,0.013523,0.002678,0.000431,0.001763
22780000,0.0324,0.013523,0.002678,0.000431,0.001763
22781000,0.0324,0.013523,0.002678,0.000431,0.001763
22782000,0.0324,0.013523,0.002678,0.000431,0.001763
22783000,0.0324,0.013523,0.002678,0.000431,0.001763
22784000,0.0324,0.013523,0.002678,0.000431,0.001763
22785000,0.0324,0.013523,0.002678,0.000431,0.001763
22786000,0.0324,0.013523,0.002678,0.000431,0.001645
22787000,0.0324,0.013523,0.002678,0.000431,0.001763
22788000,0.0324,0.013523,0.002678,0.000431,0.001880
22789000,0.0324,0.013523,0.002678,0.000431,0.001763
22790000,0.0324,0.013523,0.002678,0.000431,0.001763
22791000,0.0324,0.013523,0.002678,0.000431,0.001645
22792000,0.0324,0.013523,0.002678,0.000431,0.002586
22793000,0.0324,0.013523,0.002678,0.000431,0.001763
22794000,0.0324,0.013523,0.002678,0.000431,0.000940
22795000,0.0324,0.013523,0.002678,0.000431,0.000940
22796000,0.0324,0.013523,0.002678,0.000431,0.001645
22797000,0.0324,0.013523,0.002678,0.000431,0.273018
22798000,0.0324,0.013523,0.002678,0.000431,0.575653
22799000,0.0324,0.013523,0.002678,0.000431,0.260795
22800000,0.0324,0.013523,0.002678,0.000431,0.131632
22801000,0.0324,0.013523,0.002678,0.000431,0.133982
22802000,0.0324,0.013523,0.002678,0.000431,0.601274
22803000,0.0324,0.013523,0.002678,0.000431,0.234704
22804000,0.0324,0.013523,0.002678,0.000431,0.276896
22805000,0.0324,0.013523,0.002678,0.000431,0.280305
22806000,0.0324,0.013523,0.002678,0.000431,0.135980
22807000,0.0324,0.013523,0.002678,0.000431,0.143737
22808000,0.0324,0.013523,0.002678,0.000431,0.105070
22809000,0.0324,0.013523,0.002678,0.000431,0.383965
22810000,0.0324,0.013523,0.002678,0.000431,0.213196
22811000,0.0324,0.013523,0.002678,0.000431,0.031850
22812000,0.0324,0.013523,0.002678,0.000431,0.026091
22813000,0.0324,0.013523,0.002678,0.000431,0.021860
22814000,0.0324,0.013523,0.002678,0.000431,0.023388
22815000,0.0324,0.013523,0.002678,0.000431,0.015396
22816000,0.0324,0.013523,0.002678,0.000431,0.016571
22817000,0.0324,0.013523,0.002678,0.000431,0.014103
22818000,0.0324,0.013523,0.002678,0.000431,0.013986
22819000,0.0324,0.013523,0.002678,0.000431,0.013163
22820000,0.0324,0.013523,0.002678,0.000431,0.013046
22821000,0.0324,0.013523,0.002678,0.000431,0.009990
22822000,0.0324,0.013523,0.002678,0.000431,0.012223
22823000,0.0324,0.013523,0.002678,0.000431,0.008932
22824000,0.0324,0.013523,0.002678,0.000431,0.008815
22825000,0.0324,0.013523,0.002678,0.000431,0.008462
22826000,0.0324,0.013523,0.002678,0.000431,0.007522
22827000,0.0324,0.013523,0.002678,0.000431,0.007639
22828000,0.0324,0.013523,0.002678,0.000431,0.008227
22829000,0.0324,0.013523,0.002678,0.000431,0.007052
22830000,0.0324,0.013523,0.002678,0.000431,0.006111
22831000,0.0324,0.013523,0.002678,0.000431,0.006817
22832000,0.0324,0.013523,0.002678,0.000431,0.006934
22833000,0.0324,0.013523,0.002678,0.000431,0.005289
22834000,0.0324,0.013523,0.002678,0.000431,0.006699
22835000,0.0324,0.013523,0.002678,0.000431,0.006582
22836000,0.0324,0.013523,0.002678,0.000431,0.006229
22837000,0.0324,0.013523,0.002678,0.000431,0.003526
22838000,0.0324,0.013523,0.002678,0.000431,0.003526
22839000,0.0324,0.013523,0.002678,0.000431,0.006464
22840000,0.0324,0.013523,0.002678,0.000431,0.001645
22841000,0.0324,0.013523,0.002678,0.000431,0.002116
22842000,0.0324,0.013523,0.002678,0.000431,0.001645
22843000,0.0324,0.013523,0.002678,0.000431,0.001763
22844000,0.0324,0.013523,0.002678,0.000431,0.001880
22845000,0.0324,0.013523,0.002678,0.000431,0.001645
22846000,0.0324,0.013523,0.002678,0.000431,0.004701
22847000,0.0324,0.013523,0.002678,0.000431,0.000940
22848000,0.0324,0.013523,0.002678,0.000431,0.001175
22849000,0.0324,0.013523,0.002678,0.000431,0.000823
22850000,0.0324,0.013523,0.002678,0.000431,0.000823
22851000,0.0324,0.013523,0.002678,0.000431,0.001175
22852000,0.0324,0.013523,0.002678,0.000431,0.000940
22853000,0.0324,0.013523,0.002678,0.000431,0.000940
22854000,0.0324,0.013523,0.002678,0.000431,0.014926
22855000,0.0324,0.013523,0.002678,0.000431,0.490680
22856000,0.0324,0.013523,0.002678,0.000431,0.591989
22857000,0.0324,0.013523,0.002678,0.000431,0.133512
22858000,0.0324,0.013523,0.002678,0.000431,0.131161
22859000,0.0324,0.013523,0.002678,0.000431,0.404414
22860000,0.0324,0.013523,0.002678,0.000431,0.353760
22861000,0.0324,0.013523,0.002678,0.000431,0.233293
22862000,0.0324,0.013523,0.002678,0.000431,0.302518
22863000,0.0324,0.013523,0.002678,0.000431,0.192981
22864000,0.0324,0.013523,0.002678,0.000431,0.138331
22865000,0.0324,0.013523,0.002678,0.000431,0.166772
22866000,0.0324,0.013523,0.002678,0.000431,0.152552
22867000,0.0324,0.013523,0.002678,0.000431,0.417930
22868000,0.0324,0.013523,0.002678,0.000431,0.025974
22869000,0.0324,0.013523,0.002678,0.000431,0.014926
22870000,0.0324,0.013523,0.002678,0.000431,0.016219
22871000,0.0324,0.013523,0.002678,0.000431,0.015631
22872000,0.0324,0.013523,0.002678,0.000431,0.016454
22873000,0.0324,0.013523,0.002678,0.000431,0.010107
22874000,0.0324,0.013523,0.002678,0.000431,0.010225
22875000,0.0324,0.013523,0.002678,0.000431,0.009637
22876000,0.0324,0.013523,0.002678,0.000431,0.009990
22877000,0.0324,0.013523,0.002678,0.000431,0.010107
22878000,0.0324,0.013523,0.002678,0.000431,0.009990
22879000,0.0324,0.013523,0.002678,0.000431,0.010107
22880000,0.0324,0.013523,0.002678,0.000431,0.009402
22881000,0.0324,0.013523,0.002678,0.000431,0.010107
22882000,0.0324,0.013523,0.002678,0.000431,0.009637
22883000,0.0324,0.013523,0.002678,0.000431,0.011048
22884000,0.0324,0.013523,0.002678,0.000431,0.008815
22885000,0.0324,0.013523,0.002678,0.000431,0.009167
22886000,0.0324,0.013523,0.002678,0.000431,0.009167
22887000,0.0324,0.013523,0.002678,0.000431,0.008932
22888000,0.0324,0.013523,0.002678,0.000431,0.009050
22889000,0.0324,0.013523,0.002678,0.000431,0.009050
22890000,0.0324,0.013523,0.002678,0.000431,0.010460
22891000,0.0324,0.013523,0.002678,0.000431,0.008109
22892000,0.0324,0.013523,0.002678,0.000431,0.008227
22893000,0.0324,0.013523,0.002678,0.000431,0.008109
22894000,0.0324,0.013523,0.002678,0.000431,0.008109
22895000,0.0324,0.013523,0.002678,0.000431,0.008227
22896000,0.0324,0.013523,0.002678,0.000431,0.009285
22897000,0.0324,0.013523,0.002678,0.000431,0.008580
22898000,0.0324,0.013523,0.002678,0.000431,0.007052
22899000,0.0324,0.013523,0.002678,0.000431,0.007404
22900000,0.0324,0.013523,0.002678,0.000431,0.007757
22901000,0.0324,0.013523,0.002678,0.000431,0.007169
22902000,0.0324,0.013523,0.002678,0.000431,0.007052
22903000,0.0324,0.013523,0.002678,0.000431,0.007052
22904000,0.0324,0.013523,0.002678,0.000431,0.008227
22905000,0.0324,0.013523,0.002678,0.000431,0.007757
22906000,0.0324,0.013523,0.002678,0.000431,0.004936
22907000,0.0324,0.013523,0.002678,0.000431,0.004936
22908000,0.0324,0.013523,0.002678,0.000431,0.005054
22909000,0.0324,0.013523,0.002678,0.000431,0.004936
22910000,0.0324,0.013523,0.002678,0.000431,0.005171
22911000,0.0324,0.013523,0.002678,0.000431,0.006464
22912000,0.0324,0.013523,0.002678,0.000431,0.007169
22913000,0.0324,0.013523,0.002678,0.000431,0.004701
22914000,0.0324,0.013523,0.002678,0.000431,0.003291
22915000,0.0324,0.013523,0.002678,0.000431,0.003408
22916000,0.0324,0.013523,0.002678,0.000431,0.005171
22917000,0.0324,0.013523,0.002678,0.000431,0.002351
22918000,0.0324,0.013523,0.002678,0.000431,0.002703
22919000,0.0324,0.013523,0.002678,0.000431,0.002468
22920000,0.0324,0.013523,0.002678,0.000431,0.002586
22921000,0.0324,0.013523,0.002678,0.000431,0.002586
22922000,0.0324,0.013523,0.002678,0.000431,0.002351
22923000,0.0324,0.013523,0.002678,0.000431,0.002703
22924000,0.0324,0.013523,0.002678,0.000431,0.002351
22925000,0.0324,0.013523,0.002678,0.000431,0.002586
22926000,0.0324,0.013523,0.002678,0.000431,0.002468
22927000,0.0324,0.013523,0.002678,0.000431,0.002468
22928000,0.0324,0.013523,0.002678,0.000431,0.002703
22929000,0.0324,0.013523,0.002678,0.000431,0.002351
22930000,0.0324,0.013523,0.002678,0.000431,0.002703
22931000,0.0324,0.013523,0.002678,0.000431,0.002351
22932000,0.0324,0.013523,0.002678,0.000431,0.002468
22933000,0.0324,0.013523,0.002678,0.000431,0.002586
22934000,0.0324,0.013523,0.002678,0.000431,0.002468
22935000,0.0324,0.013523,0.002678,0.000431,0.002468
22936000,0.0324,0.013523,0.002678,0.000431,0.002468
22937000,0.0324,0.013523,0.002678,0.000431,0.002468
22938000,0.0324,0.013523,0.002678,0.000431,0.003643
22939000,0.0324,0.013523,0.002678,0.000431,0.002938
22940000,0.0324,0.013523,0.002678,0.000431,0.001528
22941000,0.0324,0.013523,0.002678,0.000431,0.001645
22942000,0.0324,0.013523,0.002678,0.000431,0.001645
22943000,0.0324,0.013523,0.002678,0.000431,0.001880
22944000,0.0324,0.013523,0.002678,0.000431,0.001645
22945000,0.0324,0.013523,0.002678,0.000431,0.001645
22946000,0.0324,0.013523,0.002678,0.000431,0.001645
22947000,0.0324,0.013523,0.002678,0.000431,0.003526
22948000,0.0324,0.013523,0.002678,0.000431,0.000940
22949000,0.0324,0.013523,0.002678,0.000431,0.000823
22950000,0.0324,0.013523,0.002678,0.000431,0.000940
22951000,0.0324,0.013523,0.002678,0.000431,0.000705
22952000,0.0324,0.013523,0.002678,0.000431,0.000940
22953000,0.0324,0.013523,0.002678,0.000431,0.000823
22954000,0.0324,0.013523,0.002678,0.000431,0.000823
22955000,0.0324,0.013523,0.002678,0.000431,0.000823
22956000,0.0324,0.013523,0.002678,0.000431,0.000823
22957000,0.0324,0.013523,0.002678,0.000431,0.000823
22958000,0.0324,0.013523,0.002678,0.000431,0.000823
22959000,0.0324,0.013523,0.002678,0.000431,0.000940
22960000,0.0324,0.013523,0.002678,0.000431,0.000823
22961000,0.0324,0.013523,0.002678,0.000431,0.000823
22962000,0.0324,0.013523,0.002678,0.000431,0.000823
22963000,0.0324,0.013523,0.002678,0.000431,0.000823
22964000,0.0324,0.013523,0.002678,0.000431,0.000705
22965000,0.0324,0.013523,0.002678,0.000431,0.000940
22966000,0.0324,0.013523,0.002678,0.000431,0.000940
22967000,0.0324,0.013523,0.002678,0.000431,0.000705
22968000,0.0324,0.013523,0.002678,0.000431,0.000940
22969000,0.0324,0.013523,0.002678,0.000431,0.000705
22970000,0.0324,0.013523,0.002678,0.000431,0.000940
22971000,0.0324,0.013523,0.002678,0.000431,0.000823
22972000,0.0324,0.013523,0.002678,0.000431,0.000823
22973000,0.0324,0.013523,0.002678,0.000431,0.000940
22974000,0.0324,0.013523,0.002678,0.000431,0.000705
22975000,0.0324,0.013523,0.002678,0.000431,0.000940
22976000,0.0324,0.013523,0.002678,0.000431,0.000823
22977000,0.0324,0.013523,0.002678,0.000431,0.000823
22978000,0.0324,0.013523,0.002678,0.000431,0.000823
22979000,0.0324,0.013523,0.002678,0.000431,0.000823
22980000,0.0324,0.013523,0.002678,0.000431,0.000940
22981000,0.0324,0.013523,0.002678,0.000431,0.000705
22982000,0.0324,0.013523,0.002678,0.000431,0.000940
22983000,0.0324,0.013523,0.002678,0.000431,0.000823
22984000,0.0324,0.013523,0.002678,0.000431,0.000705
22985000,0.0324,0.013523,0.002678,0.000431,0.000940
22986000,0.0324,0.013523,0.002678,0.000431,0.000823
22987000,0.0324,0.013523,0.002678,0.000431,0.000823
22988000,0.0324,0.013523,0.002678,0.000431,0.000823
22989000,0.0324,0.013523,0.002678,0.000431,0.000823
22990000,0.0324,0.013523,0.002678,0.000431,0.000823
22991000,0.0324,0.013523,0.002678,0.000431,0.000940
22992000,0.0324,0.013523,0.002678,0.000431,0.000823
22993000,0.0324,0.013523,0.002678,0.000431,0.000823
22994000,0.0324,0.013523,0.002678,0.000431,0.000705
22995000,0.0324,0.013523,0.002678,0.000431,0.000940
22996000,0.0324,0.013523,0.002678,0.000431,0.000940
22997000,0.0324,0.013523,0.002678,0.000431,0.000705
22998000,0.0324,0.013523,0.002678,0.000431,0.000940
22999000,0.0324,0.013523,0.002678,0.000431,0.000705
