Cycle,Area(mm^2),PeakDynamic(W),SubthresholdLeakage(W),GateLeakage(W),RunTimeDynamic(W)
119000000,0.0324,0.013523,0.002678,0.000431,0.449663
119001000,0.0324,0.013523,0.002678,0.000431,0.029265
119002000,0.0324,0.013523,0.002678,0.000431,0.022095
119003000,0.0324,0.013523,0.002678,0.000431,0.019745
119004000,0.0324,0.013523,0.002678,0.000431,0.012928
119005000,0.0324,0.013523,0.002678,0.000431,0.010225
119006000,0.0324,0.013523,0.002678,0.000431,0.010225
119007000,0.0324,0.013523,0.002678,0.000431,0.013281
119008000,0.0324,0.013523,0.002678,0.000431,0.010225
119009000,0.0324,0.013523,0.002678,0.000431,0.010813
119010000,0.0324,0.013523,0.002678,0.000431,0.006817
119011000,0.0324,0.013523,0.002678,0.000431,0.005171
119012000,0.0324,0.013523,0.002678,0.000431,0.004349
119013000,0.0324,0.013523,0.002678,0.000431,0.005171
119014000,0.0324,0.013523,0.002678,0.000431,0.004819
119015000,0.0324,0.013523,0.002678,0.000431,0.006111
119016000,0.0324,0.013523,0.002678,0.000431,0.003408
119017000,0.0324,0.013523,0.002678,0.000431,0.003291
119018000,0.0324,0.013523,0.002678,0.000431,0.003643
119019000,0.0324,0.013523,0.002678,0.000431,0.006347
119020000,0.0324,0.013523,0.002678,0.000431,0.002351
119021000,0.0324,0.013523,0.002678,0.000431,0.002586
119022000,0.0324,0.013523,0.002678,0.000431,0.002468
119023000,0.0324,0.013523,0.002678,0.000431,0.002703
119024000,0.0324,0.013523,0.002678,0.000431,0.002468
119025000,0.0324,0.013523,0.002678,0.000431,0.002586
119026000,0.0324,0.013523,0.002678,0.000431,0.002586
119027000,0.0324,0.013523,0.002678,0.000431,0.002468
119028000,0.0324,0.013523,0.002678,0.000431,0.002586
119029000,0.0324,0.013523,0.002678,0.000431,0.002586
119030000,0.0324,0.013523,0.002678,0.000431,0.002586
119031000,0.0324,0.013523,0.002678,0.000431,0.002586
119032000,0.0324,0.013523,0.002678,0.000431,0.002351
119033000,0.0324,0.013523,0.002678,0.000431,0.002586
119034000,0.0324,0.013523,0.002678,0.000431,0.002703
119035000,0.0324,0.013523,0.002678,0.000431,0.002586
119036000,0.0324,0.013523,0.002678,0.000431,0.003408
119037000,0.0324,0.013523,0.002678,0.000431,0.003173
119038000,0.0324,0.013523,0.002678,0.000431,0.000940
119039000,0.0324,0.013523,0.002678,0.000431,0.000940
119040000,0.0324,0.013523,0.002678,0.000431,0.000705
119041000,0.0324,0.013523,0.002678,0.000431,0.000940
119042000,0.0324,0.013523,0.002678,0.000431,0.000705
119043000,0.0324,0.013523,0.002678,0.000431,0.000940
119044000,0.0324,0.013523,0.002678,0.000431,0.000823
119045000,0.0324,0.013523,0.002678,0.000431,0.000823
119046000,0.0324,0.013523,0.002678,0.000431,0.000823
119047000,0.0324,0.013523,0.002678,0.000431,0.000823
119048000,0.0324,0.013523,0.002678,0.000431,0.000940
119049000,0.0324,0.013523,0.002678,0.000431,0.000705
119050000,0.0324,0.013523,0.002678,0.000431,0.000940
119051000,0.0324,0.013523,0.002678,0.000431,0.000823
119052000,0.0324,0.013523,0.002678,0.000431,0.000823
119053000,0.0324,0.013523,0.002678,0.000431,0.000823
119054000,0.0324,0.013523,0.002678,0.000431,0.000823
119055000,0.0324,0.013523,0.002678,0.000431,0.000705
119056000,0.0324,0.013523,0.002678,0.000431,0.000940
119057000,0.0324,0.013523,0.002678,0.000431,0.000940
119058000,0.0324,0.013523,0.002678,0.000431,0.000705
119059000,0.0324,0.013523,0.002678,0.000431,0.000940
119060000,0.0324,0.013523,0.002678,0.000431,0.000705
119061000,0.0324,0.013523,0.002678,0.000431,0.000940
119062000,0.0324,0.013523,0.002678,0.000431,0.000940
119063000,0.0324,0.013523,0.002678,0.000431,0.000705
119064000,0.0324,0.013523,0.002678,0.000431,0.000940
119065000,0.0324,0.013523,0.002678,0.000431,0.000705
119066000,0.0324,0.013523,0.002678,0.000431,0.000940
119067000,0.0324,0.013523,0.002678,0.000431,0.000823
119068000,0.0324,0.013523,0.002678,0.000431,0.000823
119069000,0.0324,0.013523,0.002678,0.000431,0.001528
119070000,0.0324,0.013523,0.002678,0.000431,0.333075
119071000,0.0324,0.013523,0.002678,0.000431,0.681076
119072000,0.0324,0.013523,0.002678,0.000431,0.141621
119073000,0.0324,0.013523,0.002678,0.000431,0.133042
119074000,0.0324,0.013523,0.002678,0.000431,0.139506
119075000,0.0324,0.013523,0.002678,0.000431,0.617611
119076000,0.0324,0.013523,0.002678,0.000431,0.258680
119077000,0.0324,0.013523,0.002678,0.000431,0.252451
119078000,0.0324,0.013523,0.002678,0.000431,0.264086
119079000,0.0324,0.013523,0.002678,0.000431,0.143149
119080000,0.0324,0.013523,0.002678,0.000431,0.176292
119081000,0.0324,0.013523,0.002678,0.000431,0.081800
119082000,0.0324,0.013523,0.002678,0.000431,0.462003
119083000,0.0324,0.013523,0.002678,0.000431,0.106716
119084000,0.0324,0.013523,0.002678,0.000431,0.064170
119085000,0.0324,0.013523,0.002678,0.000431,0.050537
119086000,0.0324,0.013523,0.002678,0.000431,0.045483
119087000,0.0324,0.013523,0.002678,0.000431,0.041487
119088000,0.0324,0.013523,0.002678,0.000431,0.036199
119089000,0.0324,0.013523,0.002678,0.000431,0.024093
119090000,0.0324,0.013523,0.002678,0.000431,0.022330
119091000,0.0324,0.013523,0.002678,0.000431,0.019627
119092000,0.0324,0.013523,0.002678,0.000431,0.021155
119093000,0.0324,0.013523,0.002678,0.000431,0.017394
119094000,0.0324,0.013523,0.002678,0.000431,0.015514
119095000,0.0324,0.013523,0.002678,0.000431,0.011870
119096000,0.0324,0.013523,0.002678,0.000431,0.011400
119097000,0.0324,0.013523,0.002678,0.000431,0.013516
119098000,0.0324,0.013523,0.002678,0.000431,0.010225
119099000,0.0324,0.013523,0.002678,0.000431,0.008932
119100000,0.0324,0.013523,0.002678,0.000431,0.007992
119101000,0.0324,0.013523,0.002678,0.000431,0.008697
119102000,0.0324,0.013523,0.002678,0.000431,0.008580
119103000,0.0324,0.013523,0.002678,0.000431,0.007874
119104000,0.0324,0.013523,0.002678,0.000431,0.007169
119105000,0.0324,0.013523,0.002678,0.000431,0.008815
119106000,0.0324,0.013523,0.002678,0.000431,0.007287
119107000,0.0324,0.013523,0.002678,0.000431,0.008109
119108000,0.0324,0.013523,0.002678,0.000431,0.007522
119109000,0.0324,0.013523,0.002678,0.000431,0.008462
119110000,0.0324,0.013523,0.002678,0.000431,0.008345
119111000,0.0324,0.013523,0.002678,0.000431,0.006111
119112000,0.0324,0.013523,0.002678,0.000431,0.005876
119113000,0.0324,0.013523,0.002678,0.000431,0.005994
119114000,0.0324,0.013523,0.002678,0.000431,0.005524
119115000,0.0324,0.013523,0.002678,0.000431,0.006229
119116000,0.0324,0.013523,0.002678,0.000431,0.005289
119117000,0.0324,0.013523,0.002678,0.000431,0.006111
119118000,0.0324,0.013523,0.002678,0.000431,0.007992
119119000,0.0324,0.013523,0.002678,0.000431,0.004701
119120000,0.0324,0.013523,0.002678,0.000431,0.004936
119121000,0.0324,0.013523,0.002678,0.000431,0.005054
119122000,0.0324,0.013523,0.002678,0.000431,0.004936
119123000,0.0324,0.013523,0.002678,0.000431,0.004819
119124000,0.0324,0.013523,0.002678,0.000431,0.005171
119125000,0.0324,0.013523,0.002678,0.000431,0.004819
119126000,0.0324,0.013523,0.002678,0.000431,0.005054
119127000,0.0324,0.013523,0.002678,0.000431,0.006347
119128000,0.0324,0.013523,0.002678,0.000431,0.004349
119129000,0.0324,0.013523,0.002678,0.000431,0.003878
119130000,0.0324,0.013523,0.002678,0.000431,0.004349
119131000,0.0324,0.013523,0.002678,0.000431,0.005289
119132000,0.0324,0.013523,0.002678,0.000431,0.003173
119133000,0.0324,0.013523,0.002678,0.000431,0.003526
119134000,0.0324,0.013523,0.002678,0.000431,0.003056
119135000,0.0324,0.013523,0.002678,0.000431,0.003526
119136000,0.0324,0.013523,0.002678,0.000431,0.003056
119137000,0.0324,0.013523,0.002678,0.000431,0.005054
119138000,0.0324,0.013523,0.002678,0.000431,0.002468
119139000,0.0324,0.013523,0.002678,0.000431,0.002233
119140000,0.0324,0.013523,0.002678,0.000431,0.002351
119141000,0.0324,0.013523,0.002678,0.000431,0.002586
119142000,0.0324,0.013523,0.002678,0.000431,0.002351
119143000,0.0324,0.013523,0.002678,0.000431,0.002351
119144000,0.0324,0.013523,0.002678,0.000431,0.002586
119145000,0.0324,0.013523,0.002678,0.000431,0.002116
119146000,0.0324,0.013523,0.002678,0.000431,0.002821
119147000,0.0324,0.013523,0.002678,0.000431,0.002116
119148000,0.0324,0.013523,0.002678,0.000431,0.002586
119149000,0.0324,0.013523,0.002678,0.000431,0.002586
119150000,0.0324,0.013523,0.002678,0.000431,0.002351
119151000,0.0324,0.013523,0.002678,0.000431,0.002351
119152000,0.0324,0.013523,0.002678,0.000431,0.002351
119153000,0.0324,0.013523,0.002678,0.000431,0.002586
119154000,0.0324,0.013523,0.002678,0.000431,0.002703
119155000,0.0324,0.013523,0.002678,0.000431,0.002233
119156000,0.0324,0.013523,0.002678,0.000431,0.002468
119157000,0.0324,0.013523,0.002678,0.000431,0.002468
119158000,0.0324,0.013523,0.002678,0.000431,0.002821
119159000,0.0324,0.013523,0.002678,0.000431,0.002116
119160000,0.0324,0.013523,0.002678,0.000431,0.002468
119161000,0.0324,0.013523,0.002678,0.000431,0.002821
119162000,0.0324,0.013523,0.002678,0.000431,0.002468
119163000,0.0324,0.013523,0.002678,0.000431,0.002233
119164000,0.0324,0.013523,0.002678,0.000431,0.002586
119165000,0.0324,0.013523,0.002678,0.000431,0.002468
119166000,0.0324,0.013523,0.002678,0.000431,0.002351
119167000,0.0324,0.013523,0.002678,0.000431,0.002586
119168000,0.0324,0.013523,0.002678,0.000431,0.002586
119169000,0.0324,0.013523,0.002678,0.000431,0.002586
119170000,0.0324,0.013523,0.002678,0.000431,0.002116
119171000,0.0324,0.013523,0.002678,0.000431,0.002821
119172000,0.0324,0.013523,0.002678,0.000431,0.002586
119173000,0.0324,0.013523,0.002678,0.000431,0.002351
119174000,0.0324,0.013523,0.002678,0.000431,0.002351
119175000,0.0324,0.013523,0.002678,0.000431,0.002586
119176000,0.0324,0.013523,0.002678,0.000431,0.002586
119177000,0.0324,0.013523,0.002678,0.000431,0.002468
119178000,0.0324,0.013523,0.002678,0.000431,0.002468
119179000,0.0324,0.013523,0.002678,0.000431,0.002468
119180000,0.0324,0.013523,0.002678,0.000431,0.002468
119181000,0.0324,0.013523,0.002678,0.000431,0.002468
119182000,0.0324,0.013523,0.002678,0.000431,0.002468
119183000,0.0324,0.013523,0.002678,0.000431,0.002586
119184000,0.0324,0.013523,0.002678,0.000431,0.002468
119185000,0.0324,0.013523,0.002678,0.000431,0.002586
119186000,0.0324,0.013523,0.002678,0.000431,0.085443
119187000,0.0324,0.013523,0.002678,0.000431,0.517712
119188000,0.0324,0.013523,0.002678,0.000431,0.550972
119189000,0.0324,0.013523,0.002678,0.000431,0.133512
119190000,0.0324,0.013523,0.002678,0.000431,0.131161
119191000,0.0324,0.013523,0.002678,0.000431,0.542158
119192000,0.0324,0.013523,0.002678,0.000431,0.238700
119193000,0.0324,0.013523,0.002678,0.000431,0.240463
119194000,0.0324,0.013523,0.002678,0.000431,0.291587
119195000,0.0324,0.013523,0.002678,0.000431,0.136568
119196000,0.0324,0.013523,0.002678,0.000431,0.139623
119197000,0.0324,0.013523,0.002678,0.000431,0.169006
119198000,0.0324,0.013523,0.002678,0.000431,0.150319
119199000,0.0324,0.013523,0.002678,0.000431,0.441671
119200000,0.0324,0.013523,0.002678,0.000431,0.078861
119201000,0.0324,0.013523,0.002678,0.000431,0.071575
119202000,0.0324,0.013523,0.002678,0.000431,0.055591
119203000,0.0324,0.013523,0.002678,0.000431,0.038902
119204000,0.0324,0.013523,0.002678,0.000431,0.026326
119205000,0.0324,0.013523,0.002678,0.000431,0.026561
119206000,0.0324,0.013523,0.002678,0.000431,0.019275
119207000,0.0324,0.013523,0.002678,0.000431,0.014926
119208000,0.0324,0.013523,0.002678,0.000431,0.011283
119209000,0.0324,0.013523,0.002678,0.000431,0.011048
119210000,0.0324,0.013523,0.002678,0.000431,0.012223
119211000,0.0324,0.013523,0.002678,0.000431,0.007522
119212000,0.0324,0.013523,0.002678,0.000431,0.008109
119213000,0.0324,0.013523,0.002678,0.000431,0.005994
119214000,0.0324,0.013523,0.002678,0.000431,0.008815
119215000,0.0324,0.013523,0.002678,0.000431,0.004466
119216000,0.0324,0.013523,0.002678,0.000431,0.004936
119217000,0.0324,0.013523,0.002678,0.000431,0.004701
119218000,0.0324,0.013523,0.002678,0.000431,0.008815
119219000,0.0324,0.013523,0.002678,0.000431,0.001645
119220000,0.0324,0.013523,0.002678,0.000431,0.003173
119221000,0.0324,0.013523,0.002678,0.000431,0.013398
119222000,0.0324,0.013523,0.002678,0.000431,0.535693
119223000,0.0324,0.013523,0.002678,0.000431,0.597043
119224000,0.0324,0.013523,0.002678,0.000431,0.132102
119225000,0.0324,0.013523,0.002678,0.000431,0.133512
119226000,0.0324,0.013523,0.002678,0.000431,0.493618
119227000,0.0324,0.013523,0.002678,0.000431,0.282655
119228000,0.0324,0.013523,0.002678,0.000431,0.264673
119229000,0.0324,0.013523,0.002678,0.000431,0.348001
119230000,0.0324,0.013523,0.002678,0.000431,0.141034
119231000,0.0324,0.013523,0.002678,0.000431,0.143619
119232000,0.0324,0.013523,0.002678,0.000431,0.109419
119233000,0.0324,0.013523,0.002678,0.000431,0.364925
119234000,0.0324,0.013523,0.002678,0.000431,0.271490
119235000,0.0324,0.013523,0.002678,0.000431,0.064876
119236000,0.0324,0.013523,0.002678,0.000431,0.066051
119237000,0.0324,0.013523,0.002678,0.000431,0.049597
119238000,0.0324,0.013523,0.002678,0.000431,0.041487
119239000,0.0324,0.013523,0.002678,0.000431,0.031262
119240000,0.0324,0.013523,0.002678,0.000431,0.027384
119241000,0.0324,0.013523,0.002678,0.000431,0.023036
119242000,0.0324,0.013523,0.002678,0.000431,0.014691
119243000,0.0324,0.013523,0.002678,0.000431,0.019040
119244000,0.0324,0.013523,0.002678,0.000431,0.009872
119245000,0.0324,0.013523,0.002678,0.000431,0.010695
119246000,0.0324,0.013523,0.002678,0.000431,0.007522
119247000,0.0324,0.013523,0.002678,0.000431,0.007052
119248000,0.0324,0.013523,0.002678,0.000431,0.006934
119249000,0.0324,0.013523,0.002678,0.000431,0.006934
119250000,0.0324,0.013523,0.002678,0.000431,0.006817
119251000,0.0324,0.013523,0.002678,0.000431,0.004701
119252000,0.0324,0.013523,0.002678,0.000431,0.009402
119253000,0.0324,0.013523,0.002678,0.000431,0.003056
119254000,0.0324,0.013523,0.002678,0.000431,0.004701
119255000,0.0324,0.013523,0.002678,0.000431,0.004466
119256000,0.0324,0.013523,0.002678,0.000431,0.001880
119257000,0.0324,0.013523,0.002678,0.000431,0.001528
119258000,0.0324,0.013523,0.002678,0.000431,0.001763
119259000,0.0324,0.013523,0.002678,0.000431,0.001645
119260000,0.0324,0.013523,0.002678,0.000431,0.001763
119261000,0.0324,0.013523,0.002678,0.000431,0.001645
119262000,0.0324,0.013523,0.002678,0.000431,0.001645
119263000,0.0324,0.013523,0.002678,0.000431,0.001763
119264000,0.0324,0.013523,0.002678,0.000431,0.001528
119265000,0.0324,0.013523,0.002678,0.000431,0.001763
119266000,0.0324,0.013523,0.002678,0.000431,0.001880
119267000,0.0324,0.013523,0.002678,0.000431,0.002468
119268000,0.0324,0.013523,0.002678,0.000431,0.000823
119269000,0.0324,0.013523,0.002678,0.000431,0.000940
119270000,0.0324,0.013523,0.002678,0.000431,0.000823
119271000,0.0324,0.013523,0.002678,0.000431,0.000823
119272000,0.0324,0.013523,0.002678,0.000431,0.000823
119273000,0.0324,0.013523,0.002678,0.000431,0.000823
119274000,0.0324,0.013523,0.002678,0.000431,0.000823
119275000,0.0324,0.013523,0.002678,0.000431,0.000940
119276000,0.0324,0.013523,0.002678,0.000431,0.000705
119277000,0.0324,0.013523,0.002678,0.000431,0.000940
119278000,0.0324,0.013523,0.002678,0.000431,0.000705
119279000,0.0324,0.013523,0.002678,0.000431,0.000940
119280000,0.0324,0.013523,0.002678,0.000431,0.000940
119281000,0.0324,0.013523,0.002678,0.000431,0.000705
119282000,0.0324,0.013523,0.002678,0.000431,0.071575
119283000,0.0324,0.013523,0.002678,0.000431,0.519122
119284000,0.0324,0.013523,0.002678,0.000431,0.589874
119285000,0.0324,0.013523,0.002678,0.000431,0.137390
119286000,0.0324,0.013523,0.002678,0.000431,0.133042
119287000,0.0324,0.013523,0.002678,0.000431,0.582705
119288000,0.0324,0.013523,0.002678,0.000431,0.270315
119289000,0.0324,0.013523,0.002678,0.000431,0.247749
119290000,0.0324,0.013523,0.002678,0.000431,0.306161
119291000,0.0324,0.013523,0.002678,0.000431,0.138331
119292000,0.0324,0.013523,0.002678,0.000431,0.174294
119293000,0.0324,0.013523,0.002678,0.000431,0.093082
119294000,0.0324,0.013523,0.002678,0.000431,0.484921
119295000,0.0324,0.013523,0.002678,0.000431,0.111182
119296000,0.0324,0.013523,0.002678,0.000431,0.066991
119297000,0.0324,0.013523,0.002678,0.000431,0.059822
119298000,0.0324,0.013523,0.002678,0.000431,0.047011
119299000,0.0324,0.013523,0.002678,0.000431,0.039960
119300000,0.0324,0.013523,0.002678,0.000431,0.040782
119301000,0.0324,0.013523,0.002678,0.000431,0.039960
119302000,0.0324,0.013523,0.002678,0.000431,0.031262
119303000,0.0324,0.013523,0.002678,0.000431,0.032438
119304000,0.0324,0.013523,0.002678,0.000431,0.025974
119305000,0.0324,0.013523,0.002678,0.000431,0.020332
119306000,0.0324,0.013523,0.002678,0.000431,0.016689
119307000,0.0324,0.013523,0.002678,0.000431,0.012811
119308000,0.0324,0.013523,0.002678,0.000431,0.013281
119309000,0.0324,0.013523,0.002678,0.000431,0.010930
119310000,0.0324,0.013523,0.002678,0.000431,0.011635
119311000,0.0324,0.013523,0.002678,0.000431,0.011518
119312000,0.0324,0.013523,0.002678,0.000431,0.009872
119313000,0.0324,0.013523,0.002678,0.000431,0.013281
119314000,0.0324,0.013523,0.002678,0.000431,0.008932
119315000,0.0324,0.013523,0.002678,0.000431,0.007874
119316000,0.0324,0.013523,0.002678,0.000431,0.006699
119317000,0.0324,0.013523,0.002678,0.000431,0.007522
119318000,0.0324,0.013523,0.002678,0.000431,0.007992
119319000,0.0324,0.013523,0.002678,0.000431,0.005641
119320000,0.0324,0.013523,0.002678,0.000431,0.005171
119321000,0.0324,0.013523,0.002678,0.000431,0.004231
119322000,0.0324,0.013523,0.002678,0.000431,0.004349
119323000,0.0324,0.013523,0.002678,0.000431,0.007639
119324000,0.0324,0.013523,0.002678,0.000431,0.003173
119325000,0.0324,0.013523,0.002678,0.000431,0.002586
119326000,0.0324,0.013523,0.002678,0.000431,0.002586
119327000,0.0324,0.013523,0.002678,0.000431,0.002468
119328000,0.0324,0.013523,0.002678,0.000431,0.002703
119329000,0.0324,0.013523,0.002678,0.000431,0.002468
119330000,0.0324,0.013523,0.002678,0.000431,0.002468
119331000,0.0324,0.013523,0.002678,0.000431,0.002586
119332000,0.0324,0.013523,0.002678,0.000431,0.002703
119333000,0.0324,0.013523,0.002678,0.000431,0.002468
119334000,0.0324,0.013523,0.002678,0.000431,0.002703
119335000,0.0324,0.013523,0.002678,0.000431,0.002351
119336000,0.0324,0.013523,0.002678,0.000431,0.002586
119337000,0.0324,0.013523,0.002678,0.000431,0.002821
119338000,0.0324,0.013523,0.002678,0.000431,0.003526
119339000,0.0324,0.013523,0.002678,0.000431,0.001763
119340000,0.0324,0.013523,0.002678,0.000431,0.001410
119341000,0.0324,0.013523,0.002678,0.000431,0.001880
119342000,0.0324,0.013523,0.002678,0.000431,0.001763
119343000,0.0324,0.013523,0.002678,0.000431,0.002821
119344000,0.0324,0.013523,0.002678,0.000431,0.000823
119345000,0.0324,0.013523,0.002678,0.000431,0.000823
119346000,0.0324,0.013523,0.002678,0.000431,0.000940
119347000,0.0324,0.013523,0.002678,0.000431,0.000823
119348000,0.0324,0.013523,0.002678,0.000431,0.000823
119349000,0.0324,0.013523,0.002678,0.000431,0.000823
119350000,0.0324,0.013523,0.002678,0.000431,0.000823
119351000,0.0324,0.013523,0.002678,0.000431,0.000823
119352000,0.0324,0.013523,0.002678,0.000431,0.000823
119353000,0.0324,0.013523,0.002678,0.000431,0.020567
119354000,0.0324,0.013523,0.002678,0.000431,0.547681
119355000,0.0324,0.013523,0.002678,0.000431,0.596456
119356000,0.0324,0.013523,0.002678,0.000431,0.133512
119357000,0.0324,0.013523,0.002678,0.000431,0.133982
119358000,0.0324,0.013523,0.002678,0.000431,0.550502
119359000,0.0324,0.013523,0.002678,0.000431,0.255271
119360000,0.0324,0.013523,0.002678,0.000431,0.302282
119361000,0.0324,0.013523,0.002678,0.000431,0.274546
119362000,0.0324,0.013523,0.002678,0.000431,0.144207
119363000,0.0324,0.013523,0.002678,0.000431,0.158781
119364000,0.0324,0.013523,0.002678,0.000431,0.103072
119365000,0.0324,0.013523,0.002678,0.000431,0.451778
119366000,0.0324,0.013523,0.002678,0.000431,0.178995
119367000,0.0324,0.013523,0.002678,0.000431,0.080389
119368000,0.0324,0.013523,0.002678,0.000431,0.073455
119369000,0.0324,0.013523,0.002678,0.000431,0.055356
119370000,0.0324,0.013523,0.002678,0.000431,0.051360
119371000,0.0324,0.013523,0.002678,0.000431,0.042428
119372000,0.0324,0.013523,0.002678,0.000431,0.046071
119373000,0.0324,0.013523,0.002678,0.000431,0.034906
119374000,0.0324,0.013523,0.002678,0.000431,0.030910
119375000,0.0324,0.013523,0.002678,0.000431,0.026561
119376000,0.0324,0.013523,0.002678,0.000431,0.029617
119377000,0.0324,0.013523,0.002678,0.000431,0.027972
119378000,0.0324,0.013523,0.002678,0.000431,0.030322
119379000,0.0324,0.013523,0.002678,0.000431,0.024916
119380000,0.0324,0.013523,0.002678,0.000431,0.023271
119381000,0.0324,0.013523,0.002678,0.000431,0.022448
119382000,0.0324,0.013523,0.002678,0.000431,0.020097
119383000,0.0324,0.013523,0.002678,0.000431,0.024093
119384000,0.0324,0.013523,0.002678,0.000431,0.023741
119385000,0.0324,0.013523,0.002678,0.000431,0.017982
119386000,0.0324,0.013523,0.002678,0.000431,0.019627
119387000,0.0324,0.013523,0.002678,0.000431,0.019627
119388000,0.0324,0.013523,0.002678,0.000431,0.015984
119389000,0.0324,0.013523,0.002678,0.000431,0.014809
119390000,0.0324,0.013523,0.002678,0.000431,0.013516
119391000,0.0324,0.013523,0.002678,0.000431,0.012693
119392000,0.0324,0.013523,0.002678,0.000431,0.014456
119393000,0.0324,0.013523,0.002678,0.000431,0.015749
119394000,0.0324,0.013523,0.002678,0.000431,0.013281
119395000,0.0324,0.013523,0.002678,0.000431,0.015044
119396000,0.0324,0.013523,0.002678,0.000431,0.010930
119397000,0.0324,0.013523,0.002678,0.000431,0.010695
119398000,0.0324,0.013523,0.002678,0.000431,0.010460
119399000,0.0324,0.013523,0.002678,0.000431,0.011283
119400000,0.0324,0.013523,0.002678,0.000431,0.009755
119401000,0.0324,0.013523,0.002678,0.000431,0.010107
119402000,0.0324,0.013523,0.002678,0.000431,0.008462
119403000,0.0324,0.013523,0.002678,0.000431,0.009402
119404000,0.0324,0.013523,0.002678,0.000431,0.007992
119405000,0.0324,0.013523,0.002678,0.000431,0.009050
119406000,0.0324,0.013523,0.002678,0.000431,0.007052
119407000,0.0324,0.013523,0.002678,0.000431,0.006582
119408000,0.0324,0.013523,0.002678,0.000431,0.006582
119409000,0.0324,0.013523,0.002678,0.000431,0.006582
119410000,0.0324,0.013523,0.002678,0.000431,0.006699
119411000,0.0324,0.013523,0.002678,0.000431,0.006817
119412000,0.0324,0.013523,0.002678,0.000431,0.006347
119413000,0.0324,0.013523,0.002678,0.000431,0.007169
119414000,0.0324,0.013523,0.002678,0.000431,0.006582
119415000,0.0324,0.013523,0.002678,0.000431,0.009990
119416000,0.0324,0.013523,0.002678,0.000431,0.005054
119417000,0.0324,0.013523,0.002678,0.000431,0.005054
119418000,0.0324,0.013523,0.002678,0.000431,0.005406
119419000,0.0324,0.013523,0.002678,0.000431,0.008815
119420000,0.0324,0.013523,0.002678,0.000431,0.003526
119421000,0.0324,0.013523,0.002678,0.000431,0.003526
119422000,0.0324,0.013523,0.002678,0.000431,0.003526
119423000,0.0324,0.013523,0.002678,0.000431,0.003408
119424000,0.0324,0.013523,0.002678,0.000431,0.003291
119425000,0.0324,0.013523,0.002678,0.000431,0.003291
119426000,0.0324,0.013523,0.002678,0.000431,0.003761
119427000,0.0324,0.013523,0.002678,0.000431,0.003408
119428000,0.0324,0.013523,0.002678,0.000431,0.003173
119429000,0.0324,0.013523,0.002678,0.000431,0.003643
119430000,0.0324,0.013523,0.002678,0.000431,0.004113
119431000,0.0324,0.013523,0.002678,0.000431,0.004584
119432000,0.0324,0.013523,0.002678,0.000431,0.003056
119433000,0.0324,0.013523,0.002678,0.000431,0.001528
119434000,0.0324,0.013523,0.002678,0.000431,0.001880
119435000,0.0324,0.013523,0.002678,0.000431,0.001528
119436000,0.0324,0.013523,0.002678,0.000431,0.001763
119437000,0.0324,0.013523,0.002678,0.000431,0.001880
119438000,0.0324,0.013523,0.002678,0.000431,0.001645
119439000,0.0324,0.013523,0.002678,0.000431,0.001645
119440000,0.0324,0.013523,0.002678,0.000431,0.001645
119441000,0.0324,0.013523,0.002678,0.000431,0.001880
119442000,0.0324,0.013523,0.002678,0.000431,0.001763
119443000,0.0324,0.013523,0.002678,0.000431,0.001645
119444000,0.0324,0.013523,0.002678,0.000431,0.001763
119445000,0.0324,0.013523,0.002678,0.000431,0.001880
119446000,0.0324,0.013523,0.002678,0.000431,0.002703
119447000,0.0324,0.013523,0.002678,0.000431,0.002116
119448000,0.0324,0.013523,0.002678,0.000431,0.000940
119449000,0.0324,0.013523,0.002678,0.000431,0.000940
119450000,0.0324,0.013523,0.002678,0.000431,0.022800
119451000,0.0324,0.013523,0.002678,0.000431,0.569894
119452000,0.0324,0.013523,0.002678,0.000431,0.583645
119453000,0.0324,0.013523,0.002678,0.000431,0.132572
119454000,0.0324,0.013523,0.002678,0.000431,0.133394
119455000,0.0324,0.013523,0.002678,0.000431,0.561550
119456000,0.0324,0.013523,0.002678,0.000431,0.267494
119457000,0.0324,0.013523,0.002678,0.000431,0.242931
119458000,0.0324,0.013523,0.002678,0.000431,0.316033
119459000,0.0324,0.013523,0.002678,0.000431,0.144560
119460000,0.0324,0.013523,0.002678,0.000431,0.161954
119461000,0.0324,0.013523,0.002678,0.000431,0.138918
119462000,0.0324,0.013523,0.002678,0.000431,0.437322
119463000,0.0324,0.013523,0.002678,0.000431,0.070282
119464000,0.0324,0.013523,0.002678,0.000431,0.046659
119465000,0.0324,0.013523,0.002678,0.000431,0.032908
119466000,0.0324,0.013523,0.002678,0.000431,0.025621
119467000,0.0324,0.013523,0.002678,0.000431,0.026796
119468000,0.0324,0.013523,0.002678,0.000431,0.020802
119469000,0.0324,0.013523,0.002678,0.000431,0.019510
119470000,0.0324,0.013523,0.002678,0.000431,0.018334
119471000,0.0324,0.013523,0.002678,0.000431,0.014338
119472000,0.0324,0.013523,0.002678,0.000431,0.015396
119473000,0.0324,0.013523,0.002678,0.000431,0.013516
119474000,0.0324,0.013523,0.002678,0.000431,0.013516
119475000,0.0324,0.013523,0.002678,0.000431,0.013986
119476000,0.0324,0.013523,0.002678,0.000431,0.012340
119477000,0.0324,0.013523,0.002678,0.000431,0.015279
119478000,0.0324,0.013523,0.002678,0.000431,0.010578
119479000,0.0324,0.013523,0.002678,0.000431,0.010813
119480000,0.0324,0.013523,0.002678,0.000431,0.010460
119481000,0.0324,0.013523,0.002678,0.000431,0.007287
119482000,0.0324,0.013523,0.002678,0.000431,0.007639
119483000,0.0324,0.013523,0.002678,0.000431,0.007287
119484000,0.0324,0.013523,0.002678,0.000431,0.007874
119485000,0.0324,0.013523,0.002678,0.000431,0.007287
119486000,0.0324,0.013523,0.002678,0.000431,0.007639
119487000,0.0324,0.013523,0.002678,0.000431,0.007404
119488000,0.0324,0.013523,0.002678,0.000431,0.006699
119489000,0.0324,0.013523,0.002678,0.000431,0.005054
119490000,0.0324,0.013523,0.002678,0.000431,0.003996
119491000,0.0324,0.013523,0.002678,0.000431,0.004349
119492000,0.0324,0.013523,0.002678,0.000431,0.003996
119493000,0.0324,0.013523,0.002678,0.000431,0.004113
119494000,0.0324,0.013523,0.002678,0.000431,0.004113
119495000,0.0324,0.013523,0.002678,0.000431,0.004113
119496000,0.0324,0.013523,0.002678,0.000431,0.004113
119497000,0.0324,0.013523,0.002678,0.000431,0.006934
119498000,0.0324,0.013523,0.002678,0.000431,0.002233
119499000,0.0324,0.013523,0.002678,0.000431,0.002351
119500000,0.0324,0.013523,0.002678,0.000431,0.004349
119501000,0.0324,0.013523,0.002678,0.000431,0.001175
119502000,0.0324,0.013523,0.002678,0.000431,0.001880
119503000,0.0324,0.013523,0.002678,0.000431,0.001410
119504000,0.0324,0.013523,0.002678,0.000431,0.001645
119505000,0.0324,0.013523,0.002678,0.000431,0.001645
119506000,0.0324,0.013523,0.002678,0.000431,0.001410
119507000,0.0324,0.013523,0.002678,0.000431,0.001645
119508000,0.0324,0.013523,0.002678,0.000431,0.001645
119509000,0.0324,0.013523,0.002678,0.000431,0.001410
119510000,0.0324,0.013523,0.002678,0.000431,0.001645
119511000,0.0324,0.013523,0.002678,0.000431,0.001410
119512000,0.0324,0.013523,0.002678,0.000431,0.001645
119513000,0.0324,0.013523,0.002678,0.000431,0.001880
119514000,0.0324,0.013523,0.002678,0.000431,0.001175
119515000,0.0324,0.013523,0.002678,0.000431,0.001880
119516000,0.0324,0.013523,0.002678,0.000431,0.001293
119517000,0.0324,0.013523,0.002678,0.000431,0.001763
119518000,0.0324,0.013523,0.002678,0.000431,0.001645
119519000,0.0324,0.013523,0.002678,0.000431,0.001410
119520000,0.0324,0.013523,0.002678,0.000431,0.001880
119521000,0.0324,0.013523,0.002678,0.000431,0.001293
119522000,0.0324,0.013523,0.002678,0.000431,0.001763
119523000,0.0324,0.013523,0.002678,0.000431,0.001410
119524000,0.0324,0.013523,0.002678,0.000431,0.001645
119525000,0.0324,0.013523,0.002678,0.000431,0.001645
119526000,0.0324,0.013523,0.002678,0.000431,0.001528
119527000,0.0324,0.013523,0.002678,0.000431,0.001528
119528000,0.0324,0.013523,0.002678,0.000431,0.001645
119529000,0.0324,0.013523,0.002678,0.000431,0.001410
119530000,0.0324,0.013523,0.002678,0.000431,0.001645
119531000,0.0324,0.013523,0.002678,0.000431,0.001645
119532000,0.0324,0.013523,0.002678,0.000431,0.001410
119533000,0.0324,0.013523,0.002678,0.000431,0.001880
119534000,0.0324,0.013523,0.002678,0.000431,0.001175
119535000,0.0324,0.013523,0.002678,0.000431,0.001880
119536000,0.0324,0.013523,0.002678,0.000431,0.001410
119537000,0.0324,0.013523,0.002678,0.000431,0.001645
119538000,0.0324,0.013523,0.002678,0.000431,0.001880
119539000,0.0324,0.013523,0.002678,0.000431,0.001175
119540000,0.0324,0.013523,0.002678,0.000431,0.001880
119541000,0.0324,0.013523,0.002678,0.000431,0.001410
119542000,0.0324,0.013523,0.002678,0.000431,0.001645
119543000,0.0324,0.013523,0.002678,0.000431,0.001645
119544000,0.0324,0.013523,0.002678,0.000431,0.001410
119545000,0.0324,0.013523,0.002678,0.000431,0.001645
119546000,0.0324,0.013523,0.002678,0.000431,0.001645
119547000,0.0324,0.013523,0.002678,0.000431,0.001410
119548000,0.0324,0.013523,0.002678,0.000431,0.001645
119549000,0.0324,0.013523,0.002678,0.000431,0.001645
119550000,0.0324,0.013523,0.002678,0.000431,0.001410
119551000,0.0324,0.013523,0.002678,0.000431,0.001880
119552000,0.0324,0.013523,0.002678,0.000431,0.001175
119553000,0.0324,0.013523,0.002678,0.000431,0.001880
119554000,0.0324,0.013523,0.002678,0.000431,0.001293
119555000,0.0324,0.013523,0.002678,0.000431,0.001763
119556000,0.0324,0.013523,0.002678,0.000431,0.001645
119557000,0.0324,0.013523,0.002678,0.000431,0.001410
119558000,0.0324,0.013523,0.002678,0.000431,0.001880
119559000,0.0324,0.013523,0.002678,0.000431,0.001293
119560000,0.0324,0.013523,0.002678,0.000431,0.001763
119561000,0.0324,0.013523,0.002678,0.000431,0.001645
119562000,0.0324,0.013523,0.002678,0.000431,0.001410
119563000,0.0324,0.013523,0.002678,0.000431,0.001645
119564000,0.0324,0.013523,0.002678,0.000431,0.001528
119565000,0.0324,0.013523,0.002678,0.000431,0.001528
119566000,0.0324,0.013523,0.002678,0.000431,0.001645
119567000,0.0324,0.013523,0.002678,0.000431,0.001645
119568000,0.0324,0.013523,0.002678,0.000431,0.001410
119569000,0.0324,0.013523,0.002678,0.000431,0.001645
119570000,0.0324,0.013523,0.002678,0.000431,0.001410
119571000,0.0324,0.013523,0.002678,0.000431,0.001880
119572000,0.0324,0.013523,0.002678,0.000431,0.001410
119573000,0.0324,0.013523,0.002678,0.000431,0.001645
119574000,0.0324,0.013523,0.002678,0.000431,0.001410
119575000,0.0324,0.013523,0.002678,0.000431,0.001645
119576000,0.0324,0.013523,0.002678,0.000431,0.001880
119577000,0.0324,0.013523,0.002678,0.000431,0.001175
119578000,0.0324,0.013523,0.002678,0.000431,0.001880
119579000,0.0324,0.013523,0.002678,0.000431,0.001410
119580000,0.0324,0.013523,0.002678,0.000431,0.001645
119581000,0.0324,0.013523,0.002678,0.000431,0.001645
119582000,0.0324,0.013523,0.002678,0.000431,0.001410
119583000,0.0324,0.013523,0.002678,0.000431,0.001645
119584000,0.0324,0.013523,0.002678,0.000431,0.001645
119585000,0.0324,0.013523,0.002678,0.000431,0.001410
119586000,0.0324,0.013523,0.002678,0.000431,0.001645
119587000,0.0324,0.013523,0.002678,0.000431,0.001645
119588000,0.0324,0.013523,0.002678,0.000431,0.001410
119589000,0.0324,0.013523,0.002678,0.000431,0.196977
119590000,0.0324,0.013523,0.002678,0.000431,0.573067
119591000,0.0324,0.013523,0.002678,0.000431,0.401594
119592000,0.0324,0.013523,0.002678,0.000431,0.131632
119593000,0.0324,0.013523,0.002678,0.000431,0.133042
119594000,0.0324,0.013523,0.002678,0.000431,0.604447
119595000,0.0324,0.013523,0.002678,0.000431,0.275486
119596000,0.0324,0.013523,0.002678,0.000431,0.243871
119597000,0.0324,0.013523,0.002678,0.000431,0.272078
119598000,0.0324,0.013523,0.002678,0.000431,0.138448
119599000,0.0324,0.013523,0.002678,0.000431,0.164422
119600000,0.0324,0.013523,0.002678,0.000431,0.097196
119601000,0.0324,0.013523,0.002678,0.000431,0.462356
119602000,0.0324,0.013523,0.002678,0.000431,0.136098
119603000,0.0324,0.013523,0.002678,0.000431,0.078626
119604000,0.0324,0.013523,0.002678,0.000431,0.056178
119605000,0.0324,0.013523,0.002678,0.000431,0.047599
119606000,0.0324,0.013523,0.002678,0.000431,0.044426
119607000,0.0324,0.013523,0.002678,0.000431,0.038314
119608000,0.0324,0.013523,0.002678,0.000431,0.035376
119609000,0.0324,0.013523,0.002678,0.000431,0.034671
119610000,0.0324,0.013523,0.002678,0.000431,0.029735
119611000,0.0324,0.013523,0.002678,0.000431,0.034906
119612000,0.0324,0.013523,0.002678,0.000431,0.031145
119613000,0.0324,0.013523,0.002678,0.000431,0.028442
119614000,0.0324,0.013523,0.002678,0.000431,0.021860
119615000,0.0324,0.013523,0.002678,0.000431,0.017982
119616000,0.0324,0.013523,0.002678,0.000431,0.015749
119617000,0.0324,0.013523,0.002678,0.000431,0.016454
119618000,0.0324,0.013523,0.002678,0.000431,0.016336
119619000,0.0324,0.013523,0.002678,0.000431,0.011988
119620000,0.0324,0.013523,0.002678,0.000431,0.012811
119621000,0.0324,0.013523,0.002678,0.000431,0.012693
119622000,0.0324,0.013523,0.002678,0.000431,0.012105
119623000,0.0324,0.013523,0.002678,0.000431,0.014573
119624000,0.0324,0.013523,0.002678,0.000431,0.014103
119625000,0.0324,0.013523,0.002678,0.000431,0.011635
119626000,0.0324,0.013523,0.002678,0.000431,0.009285
119627000,0.0324,0.013523,0.002678,0.000431,0.011283
119628000,0.0324,0.013523,0.002678,0.000431,0.008462
119629000,0.0324,0.013523,0.002678,0.000431,0.006229
119630000,0.0324,0.013523,0.002678,0.000431,0.008227
119631000,0.0324,0.013523,0.002678,0.000431,0.005641
119632000,0.0324,0.013523,0.002678,0.000431,0.007287
119633000,0.0324,0.013523,0.002678,0.000431,0.005054
119634000,0.0324,0.013523,0.002678,0.000431,0.004701
119635000,0.0324,0.013523,0.002678,0.000431,0.006817
119636000,0.0324,0.013523,0.002678,0.000431,0.004113
119637000,0.0324,0.013523,0.002678,0.000431,0.003878
119638000,0.0324,0.013523,0.002678,0.000431,0.004349
119639000,0.0324,0.013523,0.002678,0.000431,0.003878
119640000,0.0324,0.013523,0.002678,0.000431,0.004113
119641000,0.0324,0.013523,0.002678,0.000431,0.004113
119642000,0.0324,0.013523,0.002678,0.000431,0.004231
119643000,0.0324,0.013523,0.002678,0.000431,0.004231
119644000,0.0324,0.013523,0.002678,0.000431,0.004231
119645000,0.0324,0.013523,0.002678,0.000431,0.003761
119646000,0.0324,0.013523,0.002678,0.000431,0.003408
119647000,0.0324,0.013523,0.002678,0.000431,0.003408
119648000,0.0324,0.013523,0.002678,0.000431,0.005876
119649000,0.0324,0.013523,0.002678,0.000431,0.003408
119650000,0.0324,0.013523,0.002678,0.000431,0.002586
119651000,0.0324,0.013523,0.002678,0.000431,0.002586
119652000,0.0324,0.013523,0.002678,0.000431,0.001763
119653000,0.0324,0.013523,0.002678,0.000431,0.015514
119654000,0.0324,0.013523,0.002678,0.000431,0.501140
119655000,0.0324,0.013523,0.002678,0.000431,0.606563
119656000,0.0324,0.013523,0.002678,0.000431,0.134452
119657000,0.0324,0.013523,0.002678,0.000431,0.130574
119658000,0.0324,0.013523,0.002678,0.000431,0.299932
119659000,0.0324,0.013523,0.002678,0.000431,0.460123
119660000,0.0324,0.013523,0.002678,0.000431,0.229415
119661000,0.0324,0.013523,0.002678,0.000431,0.322732
119662000,0.0324,0.013523,0.002678,0.000431,0.203911
119663000,0.0324,0.013523,0.002678,0.000431,0.136803
119664000,0.0324,0.013523,0.002678,0.000431,0.151611
119665000,0.0324,0.013523,0.002678,0.000431,0.168300
119666000,0.0324,0.013523,0.002678,0.000431,0.459418
119667000,0.0324,0.013523,0.002678,0.000431,0.138566
119668000,0.0324,0.013523,0.002678,0.000431,0.091554
119669000,0.0324,0.013523,0.002678,0.000431,0.090379
119670000,0.0324,0.013523,0.002678,0.000431,0.075923
119671000,0.0324,0.013523,0.002678,0.000431,0.055121
119672000,0.0324,0.013523,0.002678,0.000431,0.049597
119673000,0.0324,0.013523,0.002678,0.000431,0.045366
119674000,0.0324,0.013523,0.002678,0.000431,0.035494
119675000,0.0324,0.013523,0.002678,0.000431,0.033378
119676000,0.0324,0.013523,0.002678,0.000431,0.023741
119677000,0.0324,0.013523,0.002678,0.000431,0.021038
119678000,0.0324,0.013523,0.002678,0.000431,0.021978
119679000,0.0324,0.013523,0.002678,0.000431,0.020920
119680000,0.0324,0.013523,0.002678,0.000431,0.018922
119681000,0.0324,0.013523,0.002678,0.000431,0.016454
119682000,0.0324,0.013523,0.002678,0.000431,0.015279
119683000,0.0324,0.013523,0.002678,0.000431,0.015866
119684000,0.0324,0.013523,0.002678,0.000431,0.012223
119685000,0.0324,0.013523,0.002678,0.000431,0.013633
119686000,0.0324,0.013523,0.002678,0.000431,0.014103
119687000,0.0324,0.013523,0.002678,0.000431,0.011400
119688000,0.0324,0.013523,0.002678,0.000431,0.009755
119689000,0.0324,0.013523,0.002678,0.000431,0.013163
119690000,0.0324,0.013523,0.002678,0.000431,0.010460
119691000,0.0324,0.013523,0.002678,0.000431,0.005759
119692000,0.0324,0.013523,0.002678,0.000431,0.007522
119693000,0.0324,0.013523,0.002678,0.000431,0.005524
119694000,0.0324,0.013523,0.002678,0.000431,0.005406
119695000,0.0324,0.013523,0.002678,0.000431,0.004466
119696000,0.0324,0.013523,0.002678,0.000431,0.007169
119697000,0.0324,0.013523,0.002678,0.000431,0.004349
119698000,0.0324,0.013523,0.002678,0.000431,0.006111
119699000,0.0324,0.013523,0.002678,0.000431,0.003643
119700000,0.0324,0.013523,0.002678,0.000431,0.003878
119701000,0.0324,0.013523,0.002678,0.000431,0.003761
119702000,0.0324,0.013523,0.002678,0.000431,0.002468
119703000,0.0324,0.013523,0.002678,0.000431,0.002703
119704000,0.0324,0.013523,0.002678,0.000431,0.002351
119705000,0.0324,0.013523,0.002678,0.000431,0.002586
119706000,0.0324,0.013523,0.002678,0.000431,0.002116
119707000,0.0324,0.013523,0.002678,0.000431,0.002821
119708000,0.0324,0.013523,0.002678,0.000431,0.002586
119709000,0.0324,0.013523,0.002678,0.000431,0.002351
119710000,0.0324,0.013523,0.002678,0.000431,0.002821
119711000,0.0324,0.013523,0.002678,0.000431,0.002116
119712000,0.0324,0.013523,0.002678,0.000431,0.002586
119713000,0.0324,0.013523,0.002678,0.000431,0.007639
119714000,0.0324,0.013523,0.002678,0.000431,0.000823
119715000,0.0324,0.013523,0.002678,0.000431,0.000823
119716000,0.0324,0.013523,0.002678,0.000431,0.000823
119717000,0.0324,0.013523,0.002678,0.000431,0.000940
119718000,0.0324,0.013523,0.002678,0.000431,0.000705
119719000,0.0324,0.013523,0.002678,0.000431,0.000940
119720000,0.0324,0.013523,0.002678,0.000431,0.000823
119721000,0.0324,0.013523,0.002678,0.000431,0.000823
119722000,0.0324,0.013523,0.002678,0.000431,0.000705
119723000,0.0324,0.013523,0.002678,0.000431,0.000940
119724000,0.0324,0.013523,0.002678,0.000431,0.000940
119725000,0.0324,0.013523,0.002678,0.000431,0.000705
119726000,0.0324,0.013523,0.002678,0.000431,0.000940
119727000,0.0324,0.013523,0.002678,0.000431,0.000705
119728000,0.0324,0.013523,0.002678,0.000431,0.000940
119729000,0.0324,0.013523,0.002678,0.000431,0.000823
119730000,0.0324,0.013523,0.002678,0.000431,0.000823
119731000,0.0324,0.013523,0.002678,0.000431,0.000823
119732000,0.0324,0.013523,0.002678,0.000431,0.000823
119733000,0.0324,0.013523,0.002678,0.000431,0.000940
119734000,0.0324,0.013523,0.002678,0.000431,0.000705
119735000,0.0324,0.013523,0.002678,0.000431,0.000940
119736000,0.0324,0.013523,0.002678,0.000431,0.000823
119737000,0.0324,0.013523,0.002678,0.000431,0.000823
119738000,0.0324,0.013523,0.002678,0.000431,0.000823
119739000,0.0324,0.013523,0.002678,0.000431,0.000823
119740000,0.0324,0.013523,0.002678,0.000431,0.000823
119741000,0.0324,0.013523,0.002678,0.000431,0.000823
119742000,0.0324,0.013523,0.002678,0.000431,0.000823
119743000,0.0324,0.013523,0.002678,0.000431,0.000823
119744000,0.0324,0.013523,0.002678,0.000431,0.000940
119745000,0.0324,0.013523,0.002678,0.000431,0.000823
119746000,0.0324,0.013523,0.002678,0.000431,0.000823
119747000,0.0324,0.013523,0.002678,0.000431,0.000705
119748000,0.0324,0.013523,0.002678,0.000431,0.000940
119749000,0.0324,0.013523,0.002678,0.000431,0.000940
119750000,0.0324,0.013523,0.002678,0.000431,0.000705
119751000,0.0324,0.013523,0.002678,0.000431,0.000940
119752000,0.0324,0.013523,0.002678,0.000431,0.000705
119753000,0.0324,0.013523,0.002678,0.000431,0.000940
119754000,0.0324,0.013523,0.002678,0.000431,0.000823
119755000,0.0324,0.013523,0.002678,0.000431,0.000823
119756000,0.0324,0.013523,0.002678,0.000431,0.000823
119757000,0.0324,0.013523,0.002678,0.000431,0.000823
119758000,0.0324,0.013523,0.002678,0.000431,0.000940
119759000,0.0324,0.013523,0.002678,0.000431,0.000823
119760000,0.0324,0.013523,0.002678,0.000431,0.000823
119761000,0.0324,0.013523,0.002678,0.000431,0.000823
119762000,0.0324,0.013523,0.002678,0.000431,0.000823
119763000,0.0324,0.013523,0.002678,0.000431,0.000823
119764000,0.0324,0.013523,0.002678,0.000431,0.000823
119765000,0.0324,0.013523,0.002678,0.000431,0.000940
119766000,0.0324,0.013523,0.002678,0.000431,0.000705
119767000,0.0324,0.013523,0.002678,0.000431,0.000940
119768000,0.0324,0.013523,0.002678,0.000431,0.000823
119769000,0.0324,0.013523,0.002678,0.000431,0.000823
119770000,0.0324,0.013523,0.002678,0.000431,0.000705
119771000,0.0324,0.013523,0.002678,0.000431,0.013986
119772000,0.0324,0.013523,0.002678,0.000431,0.583645
119773000,0.0324,0.013523,0.002678,0.000431,0.586466
119774000,0.0324,0.013523,0.002678,0.000431,0.149613
119775000,0.0324,0.013523,0.002678,0.000431,0.136568
119776000,0.0324,0.013523,0.002678,0.000431,0.467410
119777000,0.0324,0.013523,0.002678,0.000431,0.357051
119778000,0.0324,0.013523,0.002678,0.000431,0.232941
119779000,0.0324,0.013523,0.002678,0.000431,0.319207
119780000,0.0324,0.013523,0.002678,0.000431,0.137626
119781000,0.0324,0.013523,0.002678,0.000431,0.153022
119782000,0.0324,0.013523,0.002678,0.000431,0.111652
119783000,0.0324,0.013523,0.002678,0.000431,0.324730
119784000,0.0324,0.013523,0.002678,0.000431,0.290060
119785000,0.0324,0.013523,0.002678,0.000431,0.047011
119786000,0.0324,0.013523,0.002678,0.000431,0.041135
119787000,0.0324,0.013523,0.002678,0.000431,0.028794
119788000,0.0324,0.013523,0.002678,0.000431,0.028794
119789000,0.0324,0.013523,0.002678,0.000431,0.024328
119790000,0.0324,0.013523,0.002678,0.000431,0.018805
119791000,0.0324,0.013523,0.002678,0.000431,0.022918
119792000,0.0324,0.013523,0.002678,0.000431,0.013986
119793000,0.0324,0.013523,0.002678,0.000431,0.011165
119794000,0.0324,0.013523,0.002678,0.000431,0.014573
119795000,0.0324,0.013523,0.002678,0.000431,0.010107
119796000,0.0324,0.013523,0.002678,0.000431,0.006817
119797000,0.0324,0.013523,0.002678,0.000431,0.006347
119798000,0.0324,0.013523,0.002678,0.000431,0.003996
119799000,0.0324,0.013523,0.002678,0.000431,0.004113
119800000,0.0324,0.013523,0.002678,0.000431,0.003996
119801000,0.0324,0.013523,0.002678,0.000431,0.004113
119802000,0.0324,0.013523,0.002678,0.000431,0.005524
119803000,0.0324,0.013523,0.002678,0.000431,0.002938
119804000,0.0324,0.013523,0.002678,0.000431,0.003408
119805000,0.0324,0.013523,0.002678,0.000431,0.003408
119806000,0.0324,0.013523,0.002678,0.000431,0.005054
119807000,0.0324,0.013523,0.002678,0.000431,0.002351
119808000,0.0324,0.013523,0.002678,0.000431,0.002586
119809000,0.0324,0.013523,0.002678,0.000431,0.002116
119810000,0.0324,0.013523,0.002678,0.000431,0.002351
119811000,0.0324,0.013523,0.002678,0.000431,0.002586
119812000,0.0324,0.013523,0.002678,0.000431,0.003643
119813000,0.0324,0.013523,0.002678,0.000431,0.003056
119814000,0.0324,0.013523,0.002678,0.000431,0.001645
119815000,0.0324,0.013523,0.002678,0.000431,0.001645
119816000,0.0324,0.013523,0.002678,0.000431,0.001410
119817000,0.0324,0.013523,0.002678,0.000431,0.001645
119818000,0.0324,0.013523,0.002678,0.000431,0.001410
119819000,0.0324,0.013523,0.002678,0.000431,0.001645
119820000,0.0324,0.013523,0.002678,0.000431,0.001528
119821000,0.0324,0.013523,0.002678,0.000431,0.001528
119822000,0.0324,0.013523,0.002678,0.000431,0.001528
119823000,0.0324,0.013523,0.002678,0.000431,0.001528
119824000,0.0324,0.013523,0.002678,0.000431,0.001645
119825000,0.0324,0.013523,0.002678,0.000431,0.001410
119826000,0.0324,0.013523,0.002678,0.000431,0.001645
119827000,0.0324,0.013523,0.002678,0.000431,0.001645
119828000,0.0324,0.013523,0.002678,0.000431,0.001410
119829000,0.0324,0.013523,0.002678,0.000431,0.001645
119830000,0.0324,0.013523,0.002678,0.000431,0.001528
119831000,0.0324,0.013523,0.002678,0.000431,0.001410
119832000,0.0324,0.013523,0.002678,0.000431,0.001763
119833000,0.0324,0.013523,0.002678,0.000431,0.001293
119834000,0.0324,0.013523,0.002678,0.000431,0.001528
119835000,0.0324,0.013523,0.002678,0.000431,0.001880
119836000,0.0324,0.013523,0.002678,0.000431,0.001175
119837000,0.0324,0.013523,0.002678,0.000431,0.001645
119838000,0.0324,0.013523,0.002678,0.000431,0.001880
119839000,0.0324,0.013523,0.002678,0.000431,0.000823
119840000,0.0324,0.013523,0.002678,0.000431,0.000940
119841000,0.0324,0.013523,0.002678,0.000431,0.000705
119842000,0.0324,0.013523,0.002678,0.000431,0.000940
119843000,0.0324,0.013523,0.002678,0.000431,0.000823
119844000,0.0324,0.013523,0.002678,0.000431,0.000823
119845000,0.0324,0.013523,0.002678,0.000431,0.000823
119846000,0.0324,0.013523,0.002678,0.000431,0.000823
119847000,0.0324,0.013523,0.002678,0.000431,0.000940
119848000,0.0324,0.013523,0.002678,0.000431,0.000705
119849000,0.0324,0.013523,0.002678,0.000431,0.000940
119850000,0.0324,0.013523,0.002678,0.000431,0.000823
119851000,0.0324,0.013523,0.002678,0.000431,0.000705
119852000,0.0324,0.013523,0.002678,0.000431,0.000940
119853000,0.0324,0.013523,0.002678,0.000431,0.000823
119854000,0.0324,0.013523,0.002678,0.000431,0.000823
119855000,0.0324,0.013523,0.002678,0.000431,0.000823
119856000,0.0324,0.013523,0.002678,0.000431,0.000823
119857000,0.0324,0.013523,0.002678,0.000431,0.000823
119858000,0.0324,0.013523,0.002678,0.000431,0.000940
119859000,0.0324,0.013523,0.002678,0.000431,0.000823
119860000,0.0324,0.013523,0.002678,0.000431,0.001880
119861000,0.0324,0.013523,0.002678,0.000431,0.355758
119862000,0.0324,0.013523,0.002678,0.000431,0.694239
119863000,0.0324,0.013523,0.002678,0.000431,0.148908
119864000,0.0324,0.013523,0.002678,0.000431,0.132572
119865000,0.0324,0.013523,0.002678,0.000431,0.208495
119866000,0.0324,0.013523,0.002678,0.000431,0.601157
119867000,0.0324,0.013523,0.002678,0.000431,0.233999
119868000,0.0324,0.013523,0.002678,0.000431,0.266084
119869000,0.0324,0.013523,0.002678,0.000431,0.240463
119870000,0.0324,0.013523,0.002678,0.000431,0.141621
119871000,0.0324,0.013523,0.002678,0.000431,0.159603
119872000,0.0324,0.013523,0.002678,0.000431,0.140916
119873000,0.0324,0.013523,0.002678,0.000431,0.457420
119874000,0.0324,0.013523,0.002678,0.000431,0.078861
119875000,0.0324,0.013523,0.002678,0.000431,0.068401
119876000,0.0324,0.013523,0.002678,0.000431,0.056884
119877000,0.0324,0.013523,0.002678,0.000431,0.053005
119878000,0.0324,0.013523,0.002678,0.000431,0.042780
119879000,0.0324,0.013523,0.002678,0.000431,0.040900
119880000,0.0324,0.013523,0.002678,0.000431,0.029852
119881000,0.0324,0.013523,0.002678,0.000431,0.026561
119882000,0.0324,0.013523,0.002678,0.000431,0.023858
119883000,0.0324,0.013523,0.002678,0.000431,0.019510
119884000,0.0324,0.013523,0.002678,0.000431,0.023506
119885000,0.0324,0.013523,0.002678,0.000431,0.015396
119886000,0.0324,0.013523,0.002678,0.000431,0.016219
119887000,0.0324,0.013523,0.002678,0.000431,0.014338
119888000,0.0324,0.013523,0.002678,0.000431,0.013986
119889000,0.0324,0.013523,0.002678,0.000431,0.012928
119890000,0.0324,0.013523,0.002678,0.000431,0.010107
119891000,0.0324,0.013523,0.002678,0.000431,0.010225
119892000,0.0324,0.013523,0.002678,0.000431,0.010225
119893000,0.0324,0.013523,0.002678,0.000431,0.009872
119894000,0.0324,0.013523,0.002678,0.000431,0.009402
119895000,0.0324,0.013523,0.002678,0.000431,0.012693
119896000,0.0324,0.013523,0.002678,0.000431,0.007874
119897000,0.0324,0.013523,0.002678,0.000431,0.006934
119898000,0.0324,0.013523,0.002678,0.000431,0.008227
119899000,0.0324,0.013523,0.002678,0.000431,0.008697
119900000,0.0324,0.013523,0.002678,0.000431,0.006229
119901000,0.0324,0.013523,0.002678,0.000431,0.004466
119902000,0.0324,0.013523,0.002678,0.000431,0.004231
119903000,0.0324,0.013523,0.002678,0.000431,0.004466
119904000,0.0324,0.013523,0.002678,0.000431,0.003996
119905000,0.0324,0.013523,0.002678,0.000431,0.004466
119906000,0.0324,0.013523,0.002678,0.000431,0.004231
119907000,0.0324,0.013523,0.002678,0.000431,0.004349
119908000,0.0324,0.013523,0.002678,0.000431,0.004231
119909000,0.0324,0.013523,0.002678,0.000431,0.004231
119910000,0.0324,0.013523,0.002678,0.000431,0.004231
119911000,0.0324,0.013523,0.002678,0.000431,0.004231
119912000,0.0324,0.013523,0.002678,0.000431,0.004349
119913000,0.0324,0.013523,0.002678,0.000431,0.004349
119914000,0.0324,0.013523,0.002678,0.000431,0.004349
119915000,0.0324,0.013523,0.002678,0.000431,0.004113
119916000,0.0324,0.013523,0.002678,0.000431,0.004231
119917000,0.0324,0.013523,0.002678,0.000431,0.004349
119918000,0.0324,0.013523,0.002678,0.000431,0.004231
119919000,0.0324,0.013523,0.002678,0.000431,0.004231
119920000,0.0324,0.013523,0.002678,0.000431,0.004231
119921000,0.0324,0.013523,0.002678,0.000431,0.004349
119922000,0.0324,0.013523,0.002678,0.000431,0.004113
119923000,0.0324,0.013523,0.002678,0.000431,0.004466
119924000,0.0324,0.013523,0.002678,0.000431,0.004231
119925000,0.0324,0.013523,0.002678,0.000431,0.004113
119926000,0.0324,0.013523,0.002678,0.000431,0.004584
119927000,0.0324,0.013523,0.002678,0.000431,0.004113
119928000,0.0324,0.013523,0.002678,0.000431,0.005289
119929000,0.0324,0.013523,0.002678,0.000431,0.003291
119930000,0.0324,0.013523,0.002678,0.000431,0.006229
119931000,0.0324,0.013523,0.002678,0.000431,0.002468
119932000,0.0324,0.013523,0.002678,0.000431,0.002586
119933000,0.0324,0.013523,0.002678,0.000431,0.002468
119934000,0.0324,0.013523,0.002678,0.000431,0.002468
119935000,0.0324,0.013523,0.002678,0.000431,0.002703
119936000,0.0324,0.013523,0.002678,0.000431,0.002586
119937000,0.0324,0.013523,0.002678,0.000431,0.002586
119938000,0.0324,0.013523,0.002678,0.000431,0.002468
119939000,0.0324,0.013523,0.002678,0.000431,0.002586
119940000,0.0324,0.013523,0.002678,0.000431,0.002703
119941000,0.0324,0.013523,0.002678,0.000431,0.002468
119942000,0.0324,0.013523,0.002678,0.000431,0.002586
119943000,0.0324,0.013523,0.002678,0.000431,0.002586
119944000,0.0324,0.013523,0.002678,0.000431,0.002468
119945000,0.0324,0.013523,0.002678,0.000431,0.002586
119946000,0.0324,0.013523,0.002678,0.000431,0.002586
119947000,0.0324,0.013523,0.002678,0.000431,0.002351
119948000,0.0324,0.013523,0.002678,0.000431,0.002586
119949000,0.0324,0.013523,0.002678,0.000431,0.002703
119950000,0.0324,0.013523,0.002678,0.000431,0.002468
119951000,0.0324,0.013523,0.002678,0.000431,0.002586
119952000,0.0324,0.013523,0.002678,0.000431,0.002586
119953000,0.0324,0.013523,0.002678,0.000431,0.004231
119954000,0.0324,0.013523,0.002678,0.000431,0.001645
119955000,0.0324,0.013523,0.002678,0.000431,0.001880
119956000,0.0324,0.013523,0.002678,0.000431,0.001645
119957000,0.0324,0.013523,0.002678,0.000431,0.001763
119958000,0.0324,0.013523,0.002678,0.000431,0.001528
119959000,0.0324,0.013523,0.002678,0.000431,0.001880
119960000,0.0324,0.013523,0.002678,0.000431,0.001880
119961000,0.0324,0.013523,0.002678,0.000431,0.001528
119962000,0.0324,0.013523,0.002678,0.000431,0.001763
119963000,0.0324,0.013523,0.002678,0.000431,0.001645
119964000,0.0324,0.013523,0.002678,0.000431,0.001880
119965000,0.0324,0.013523,0.002678,0.000431,0.001645
119966000,0.0324,0.013523,0.002678,0.000431,0.001645
119967000,0.0324,0.013523,0.002678,0.000431,0.001763
119968000,0.0324,0.013523,0.002678,0.000431,0.004349
119969000,0.0324,0.013523,0.002678,0.000431,0.001058
119970000,0.0324,0.013523,0.002678,0.000431,0.000705
119971000,0.0324,0.013523,0.002678,0.000431,0.000940
119972000,0.0324,0.013523,0.002678,0.000431,0.000705
119973000,0.0324,0.013523,0.002678,0.000431,0.000940
119974000,0.0324,0.013523,0.002678,0.000431,0.000823
119975000,0.0324,0.013523,0.002678,0.000431,0.000823
119976000,0.0324,0.013523,0.002678,0.000431,0.071810
119977000,0.0324,0.013523,0.002678,0.000431,0.533225
119978000,0.0324,0.013523,0.002678,0.000431,0.563548
119979000,0.0324,0.013523,0.002678,0.000431,0.134452
119980000,0.0324,0.013523,0.002678,0.000431,0.132102
119981000,0.0324,0.013523,0.002678,0.000431,0.611852
119982000,0.0324,0.013523,0.002678,0.000431,0.245516
119983000,0.0324,0.013523,0.002678,0.000431,0.234821
119984000,0.0324,0.013523,0.002678,0.000431,0.290765
119985000,0.0324,0.013523,0.002678,0.000431,0.138918
119986000,0.0324,0.013523,0.002678,0.000431,0.153374
119987000,0.0324,0.013523,0.002678,0.000431,0.099664
119988000,0.0324,0.013523,0.002678,0.000431,0.379028
119989000,0.0324,0.013523,0.002678,0.000431,0.225302
119990000,0.0324,0.013523,0.002678,0.000431,0.063230
119991000,0.0324,0.013523,0.002678,0.000431,0.048069
119992000,0.0324,0.013523,0.002678,0.000431,0.039489
119993000,0.0324,0.013523,0.002678,0.000431,0.041605
119994000,0.0324,0.013523,0.002678,0.000431,0.031615
119995000,0.0324,0.013523,0.002678,0.000431,0.027149
119996000,0.0324,0.013523,0.002678,0.000431,0.026209
119997000,0.0324,0.013523,0.002678,0.000431,0.019040
119998000,0.0324,0.013523,0.002678,0.000431,0.017512
119999000,0.0324,0.013523,0.002678,0.000431,0.016219
