Cycle,Area(mm^2),PeakDynamic(W),SubthresholdLeakage(W),GateLeakage(W),RunTimeDynamic(W)
88000000,0.0324,0.013523,0.002678,0.000431,0.000823
88001000,0.0324,0.013523,0.002678,0.000431,0.000940
88002000,0.0324,0.013523,0.002678,0.000431,0.000940
88003000,0.0324,0.013523,0.002678,0.000431,0.000823
88004000,0.0324,0.013523,0.002678,0.000431,0.000823
88005000,0.0324,0.013523,0.002678,0.000431,0.000940
88006000,0.0324,0.013523,0.002678,0.000431,0.000940
88007000,0.0324,0.013523,0.002678,0.000431,0.000705
88008000,0.0324,0.013523,0.002678,0.000431,0.000940
88009000,0.0324,0.013523,0.002678,0.000431,0.000940
88010000,0.0324,0.013523,0.002678,0.000431,0.000940
88011000,0.0324,0.013523,0.002678,0.000431,0.000705
88012000,0.0324,0.013523,0.002678,0.000431,0.000940
88013000,0.0324,0.013523,0.002678,0.000431,0.000940
88014000,0.0324,0.013523,0.002678,0.000431,0.000823
88015000,0.0324,0.013523,0.002678,0.000431,0.000823
88016000,0.0324,0.013523,0.002678,0.000431,0.000940
88017000,0.0324,0.013523,0.002678,0.000431,0.000940
88018000,0.0324,0.013523,0.002678,0.000431,0.000823
88019000,0.0324,0.013523,0.002678,0.000431,0.000823
88020000,0.0324,0.013523,0.002678,0.000431,0.000940
88021000,0.0324,0.013523,0.002678,0.000431,0.000823
88022000,0.0324,0.013523,0.002678,0.000431,0.000823
88023000,0.0324,0.013523,0.002678,0.000431,0.000940
88024000,0.0324,0.013523,0.002678,0.000431,0.000940
88025000,0.0324,0.013523,0.002678,0.000431,0.000823
88026000,0.0324,0.013523,0.002678,0.000431,0.000823
88027000,0.0324,0.013523,0.002678,0.000431,0.000940
88028000,0.0324,0.013523,0.002678,0.000431,0.000940
88029000,0.0324,0.013523,0.002678,0.000431,0.000823
88030000,0.0324,0.013523,0.002678,0.000431,0.000823
88031000,0.0324,0.013523,0.002678,0.000431,0.000940
88032000,0.0324,0.013523,0.002678,0.000431,0.000940
88033000,0.0324,0.013523,0.002678,0.000431,0.000823
88034000,0.0324,0.013523,0.002678,0.000431,0.000823
88035000,0.0324,0.013523,0.002678,0.000431,0.000940
88036000,0.0324,0.013523,0.002678,0.000431,0.000823
88037000,0.0324,0.013523,0.002678,0.000431,0.000940
88038000,0.0324,0.013523,0.002678,0.000431,0.000823
88039000,0.0324,0.013523,0.002678,0.000431,0.000940
88040000,0.0324,0.013523,0.002678,0.000431,0.000823
88041000,0.0324,0.013523,0.002678,0.000431,0.000823
88042000,0.0324,0.013523,0.002678,0.000431,0.000940
88043000,0.0324,0.013523,0.002678,0.000431,0.000940
88044000,0.0324,0.013523,0.002678,0.000431,0.000823
88045000,0.0324,0.013523,0.002678,0.000431,0.000823
88046000,0.0324,0.013523,0.002678,0.000431,0.000940
88047000,0.0324,0.013523,0.002678,0.000431,0.000940
88048000,0.0324,0.013523,0.002678,0.000431,0.000705
88049000,0.0324,0.013523,0.002678,0.000431,0.000940
88050000,0.0324,0.013523,0.002678,0.000431,0.000940
88051000,0.0324,0.013523,0.002678,0.000431,0.000940
88052000,0.0324,0.013523,0.002678,0.000431,0.000823
88053000,0.0324,0.013523,0.002678,0.000431,0.000823
88054000,0.0324,0.013523,0.002678,0.000431,0.000940
88055000,0.0324,0.013523,0.002678,0.000431,0.000823
88056000,0.0324,0.013523,0.002678,0.000431,0.000940
88057000,0.0324,0.013523,0.002678,0.000431,0.000823
88058000,0.0324,0.013523,0.002678,0.000431,0.000940
88059000,0.0324,0.013523,0.002678,0.000431,0.000823
88060000,0.0324,0.013523,0.002678,0.000431,0.000823
88061000,0.0324,0.013523,0.002678,0.000431,0.000940
88062000,0.0324,0.013523,0.002678,0.000431,0.000940
88063000,0.0324,0.013523,0.002678,0.000431,0.000705
88064000,0.0324,0.013523,0.002678,0.000431,0.000940
88065000,0.0324,0.013523,0.002678,0.000431,0.000940
88066000,0.0324,0.013523,0.002678,0.000431,0.000940
88067000,0.0324,0.013523,0.002678,0.000431,0.000705
88068000,0.0324,0.013523,0.002678,0.000431,0.000940
88069000,0.0324,0.013523,0.002678,0.000431,0.000940
88070000,0.0324,0.013523,0.002678,0.000431,0.000823
88071000,0.0324,0.013523,0.002678,0.000431,0.000823
88072000,0.0324,0.013523,0.002678,0.000431,0.000940
88073000,0.0324,0.013523,0.002678,0.000431,0.000940
88074000,0.0324,0.013523,0.002678,0.000431,0.000823
88075000,0.0324,0.013523,0.002678,0.000431,0.000823
88076000,0.0324,0.013523,0.002678,0.000431,0.000940
88077000,0.0324,0.013523,0.002678,0.000431,0.000823
88078000,0.0324,0.013523,0.002678,0.000431,0.000940
88079000,0.0324,0.013523,0.002678,0.000431,0.000823
88080000,0.0324,0.013523,0.002678,0.000431,0.000940
88081000,0.0324,0.013523,0.002678,0.000431,0.000823
88082000,0.0324,0.013523,0.002678,0.000431,0.000823
88083000,0.0324,0.013523,0.002678,0.000431,0.000940
88084000,0.0324,0.013523,0.002678,0.000431,0.000940
88085000,0.0324,0.013523,0.002678,0.000431,0.000940
88086000,0.0324,0.013523,0.002678,0.000431,0.000705
88087000,0.0324,0.013523,0.002678,0.000431,0.000940
88088000,0.0324,0.013523,0.002678,0.000431,0.000940
88089000,0.0324,0.013523,0.002678,0.000431,0.000823
88090000,0.0324,0.013523,0.002678,0.000431,0.000823
88091000,0.0324,0.013523,0.002678,0.000431,0.000940
88092000,0.0324,0.013523,0.002678,0.000431,0.000940
88093000,0.0324,0.013523,0.002678,0.000431,0.000823
88094000,0.0324,0.013523,0.002678,0.000431,0.000823
88095000,0.0324,0.013523,0.002678,0.000431,0.000940
88096000,0.0324,0.013523,0.002678,0.000431,0.000823
88097000,0.0324,0.013523,0.002678,0.000431,0.000940
88098000,0.0324,0.013523,0.002678,0.000431,0.000823
88099000,0.0324,0.013523,0.002678,0.000431,0.000940
88100000,0.0324,0.013523,0.002678,0.000431,0.000823
88101000,0.0324,0.013523,0.002678,0.000431,0.000823
88102000,0.0324,0.013523,0.002678,0.000431,0.000940
88103000,0.0324,0.013523,0.002678,0.000431,0.000940
88104000,0.0324,0.013523,0.002678,0.000431,0.000823
88105000,0.0324,0.013523,0.002678,0.000431,0.000823
88106000,0.0324,0.013523,0.002678,0.000431,0.000940
88107000,0.0324,0.013523,0.002678,0.000431,0.000940
88108000,0.0324,0.013523,0.002678,0.000431,0.000705
88109000,0.0324,0.013523,0.002678,0.000431,0.000940
88110000,0.0324,0.013523,0.002678,0.000431,0.000940
88111000,0.0324,0.013523,0.002678,0.000431,0.000823
88112000,0.0324,0.013523,0.002678,0.000431,0.000940
88113000,0.0324,0.013523,0.002678,0.000431,0.000823
88114000,0.0324,0.013523,0.002678,0.000431,0.000940
88115000,0.0324,0.013523,0.002678,0.000431,0.000823
88116000,0.0324,0.013523,0.002678,0.000431,0.000823
88117000,0.0324,0.013523,0.002678,0.000431,0.000940
88118000,0.0324,0.013523,0.002678,0.000431,0.000940
88119000,0.0324,0.013523,0.002678,0.000431,0.000823
88120000,0.0324,0.013523,0.002678,0.000431,0.000823
88121000,0.0324,0.013523,0.002678,0.000431,0.000940
88122000,0.0324,0.013523,0.002678,0.000431,0.000940
88123000,0.0324,0.013523,0.002678,0.000431,0.000705
88124000,0.0324,0.013523,0.002678,0.000431,0.000940
88125000,0.0324,0.013523,0.002678,0.000431,0.000940
88126000,0.0324,0.013523,0.002678,0.000431,0.000940
88127000,0.0324,0.013523,0.002678,0.000431,0.000705
88128000,0.0324,0.013523,0.002678,0.000431,0.000940
88129000,0.0324,0.013523,0.002678,0.000431,0.000940
88130000,0.0324,0.013523,0.002678,0.000431,0.000823
88131000,0.0324,0.013523,0.002678,0.000431,0.000823
88132000,0.0324,0.013523,0.002678,0.000431,0.000940
88133000,0.0324,0.013523,0.002678,0.000431,0.000940
88134000,0.0324,0.013523,0.002678,0.000431,0.000823
88135000,0.0324,0.013523,0.002678,0.000431,0.000823
88136000,0.0324,0.013523,0.002678,0.000431,0.000940
88137000,0.0324,0.013523,0.002678,0.000431,0.000823
88138000,0.0324,0.013523,0.002678,0.000431,0.000940
88139000,0.0324,0.013523,0.002678,0.000431,0.000823
88140000,0.0324,0.013523,0.002678,0.000431,0.000940
88141000,0.0324,0.013523,0.002678,0.000431,0.000823
88142000,0.0324,0.013523,0.002678,0.000431,0.000823
88143000,0.0324,0.013523,0.002678,0.000431,0.000940
88144000,0.0324,0.013523,0.002678,0.000431,0.000940
88145000,0.0324,0.013523,0.002678,0.000431,0.000940
88146000,0.0324,0.013523,0.002678,0.000431,0.000705
88147000,0.0324,0.013523,0.002678,0.000431,0.000940
88148000,0.0324,0.013523,0.002678,0.000431,0.000940
88149000,0.0324,0.013523,0.002678,0.000431,0.000823
88150000,0.0324,0.013523,0.002678,0.000431,0.000823
88151000,0.0324,0.013523,0.002678,0.000431,0.000940
88152000,0.0324,0.013523,0.002678,0.000431,0.000823
88153000,0.0324,0.013523,0.002678,0.000431,0.000940
88154000,0.0324,0.013523,0.002678,0.000431,0.000823
88155000,0.0324,0.013523,0.002678,0.000431,0.184519
88156000,0.0324,0.013523,0.002678,0.000431,0.452366
88157000,0.0324,0.013523,0.002678,0.000431,0.477282
88158000,0.0324,0.013523,0.002678,0.000431,0.132572
88159000,0.0324,0.013523,0.002678,0.000431,0.131161
88160000,0.0324,0.013523,0.002678,0.000431,0.586936
88161000,0.0324,0.013523,0.002678,0.000431,0.250335
88162000,0.0324,0.013523,0.002678,0.000431,0.298639
88163000,0.0324,0.013523,0.002678,0.000431,0.268904
88164000,0.0324,0.013523,0.002678,0.000431,0.142679
88165000,0.0324,0.013523,0.002678,0.000431,0.135863
88166000,0.0324,0.013523,0.002678,0.000431,0.107538
88167000,0.0324,0.013523,0.002678,0.000431,0.365748
88168000,0.0324,0.013523,0.002678,0.000431,0.249160
88169000,0.0324,0.013523,0.002678,0.000431,0.051007
88170000,0.0324,0.013523,0.002678,0.000431,0.038432
88171000,0.0324,0.013523,0.002678,0.000431,0.038197
88172000,0.0324,0.013523,0.002678,0.000431,0.038549
88173000,0.0324,0.013523,0.002678,0.000431,0.030087
88174000,0.0324,0.013523,0.002678,0.000431,0.023036
88175000,0.0324,0.013523,0.002678,0.000431,0.016336
88176000,0.0324,0.013523,0.002678,0.000431,0.014573
88177000,0.0324,0.013523,0.002678,0.000431,0.009050
88178000,0.0324,0.013523,0.002678,0.000431,0.008227
88179000,0.0324,0.013523,0.002678,0.000431,0.011988
88180000,0.0324,0.013523,0.002678,0.000431,0.009755
88181000,0.0324,0.013523,0.002678,0.000431,0.007169
88182000,0.0324,0.013523,0.002678,0.000431,0.007287
88183000,0.0324,0.013523,0.002678,0.000431,0.006347
88184000,0.0324,0.013523,0.002678,0.000431,0.007639
88185000,0.0324,0.013523,0.002678,0.000431,0.007052
88186000,0.0324,0.013523,0.002678,0.000431,0.007052
88187000,0.0324,0.013523,0.002678,0.000431,0.007052
88188000,0.0324,0.013523,0.002678,0.000431,0.006699
88189000,0.0324,0.013523,0.002678,0.000431,0.009520
88190000,0.0324,0.013523,0.002678,0.000431,0.009520
88191000,0.0324,0.013523,0.002678,0.000431,0.005289
88192000,0.0324,0.013523,0.002678,0.000431,0.004936
88193000,0.0324,0.013523,0.002678,0.000431,0.005054
88194000,0.0324,0.013523,0.002678,0.000431,0.005171
88195000,0.0324,0.013523,0.002678,0.000431,0.004936
88196000,0.0324,0.013523,0.002678,0.000431,0.005524
88197000,0.0324,0.013523,0.002678,0.000431,0.004819
88198000,0.0324,0.013523,0.002678,0.000431,0.005054
88199000,0.0324,0.013523,0.002678,0.000431,0.005054
88200000,0.0324,0.013523,0.002678,0.000431,0.005524
88201000,0.0324,0.013523,0.002678,0.000431,0.006111
88202000,0.0324,0.013523,0.002678,0.000431,0.005759
88203000,0.0324,0.013523,0.002678,0.000431,0.004113
88204000,0.0324,0.013523,0.002678,0.000431,0.004349
88205000,0.0324,0.013523,0.002678,0.000431,0.004466
88206000,0.0324,0.013523,0.002678,0.000431,0.003996
88207000,0.0324,0.013523,0.002678,0.000431,0.004584
88208000,0.0324,0.013523,0.002678,0.000431,0.003761
88209000,0.0324,0.013523,0.002678,0.000431,0.004584
88210000,0.0324,0.013523,0.002678,0.000431,0.004349
88211000,0.0324,0.013523,0.002678,0.000431,0.004231
88212000,0.0324,0.013523,0.002678,0.000431,0.004113
88213000,0.0324,0.013523,0.002678,0.000431,0.004231
88214000,0.0324,0.013523,0.002678,0.000431,0.004113
88215000,0.0324,0.013523,0.002678,0.000431,0.004466
88216000,0.0324,0.013523,0.002678,0.000431,0.004231
88217000,0.0324,0.013523,0.002678,0.000431,0.004231
88218000,0.0324,0.013523,0.002678,0.000431,0.005759
88219000,0.0324,0.013523,0.002678,0.000431,0.003173
88220000,0.0324,0.013523,0.002678,0.000431,0.003643
88221000,0.0324,0.013523,0.002678,0.000431,0.003291
88222000,0.0324,0.013523,0.002678,0.000431,0.003526
88223000,0.0324,0.013523,0.002678,0.000431,0.003408
88224000,0.0324,0.013523,0.002678,0.000431,0.003408
88225000,0.0324,0.013523,0.002678,0.000431,0.003408
88226000,0.0324,0.013523,0.002678,0.000431,0.003408
88227000,0.0324,0.013523,0.002678,0.000431,0.003643
88228000,0.0324,0.013523,0.002678,0.000431,0.003291
88229000,0.0324,0.013523,0.002678,0.000431,0.003408
88230000,0.0324,0.013523,0.002678,0.000431,0.003291
88231000,0.0324,0.013523,0.002678,0.000431,0.003408
88232000,0.0324,0.013523,0.002678,0.000431,0.003526
88233000,0.0324,0.013523,0.002678,0.000431,0.003408
88234000,0.0324,0.013523,0.002678,0.000431,0.003408
88235000,0.0324,0.013523,0.002678,0.000431,0.003526
88236000,0.0324,0.013523,0.002678,0.000431,0.003173
88237000,0.0324,0.013523,0.002678,0.000431,0.003526
88238000,0.0324,0.013523,0.002678,0.000431,0.003643
88239000,0.0324,0.013523,0.002678,0.000431,0.004819
88240000,0.0324,0.013523,0.002678,0.000431,0.002821
88241000,0.0324,0.013523,0.002678,0.000431,0.002116
88242000,0.0324,0.013523,0.002678,0.000431,0.002821
88243000,0.0324,0.013523,0.002678,0.000431,0.002586
88244000,0.0324,0.013523,0.002678,0.000431,0.003408
88245000,0.0324,0.013523,0.002678,0.000431,0.002116
88246000,0.0324,0.013523,0.002678,0.000431,0.000823
88247000,0.0324,0.013523,0.002678,0.000431,0.000823
88248000,0.0324,0.013523,0.002678,0.000431,0.000823
88249000,0.0324,0.013523,0.002678,0.000431,0.003761
88250000,0.0324,0.013523,0.002678,0.000431,0.390194
88251000,0.0324,0.013523,0.002678,0.000431,0.683309
88252000,0.0324,0.013523,0.002678,0.000431,0.131279
88253000,0.0324,0.013523,0.002678,0.000431,0.134922
88254000,0.0324,0.013523,0.002678,0.000431,0.197565
88255000,0.0324,0.013523,0.002678,0.000431,0.570717
88256000,0.0324,0.013523,0.002678,0.000431,0.267729
88257000,0.0324,0.013523,0.002678,0.000431,0.310980
88258000,0.0324,0.013523,0.002678,0.000431,0.223068
88259000,0.0324,0.013523,0.002678,0.000431,0.145030
88260000,0.0324,0.013523,0.002678,0.000431,0.125755
88261000,0.0324,0.013523,0.002678,0.000431,0.238347
88262000,0.0324,0.013523,0.002678,0.000431,0.336483
88263000,0.0324,0.013523,0.002678,0.000431,0.016219
88264000,0.0324,0.013523,0.002678,0.000431,0.011165
88265000,0.0324,0.013523,0.002678,0.000431,0.012340
88266000,0.0324,0.013523,0.002678,0.000431,0.008697
88267000,0.0324,0.013523,0.002678,0.000431,0.007522
88268000,0.0324,0.013523,0.002678,0.000431,0.008815
88269000,0.0324,0.013523,0.002678,0.000431,0.006229
88270000,0.0324,0.013523,0.002678,0.000431,0.007639
88271000,0.0324,0.013523,0.002678,0.000431,0.005289
88272000,0.0324,0.013523,0.002678,0.000431,0.003761
88273000,0.0324,0.013523,0.002678,0.000431,0.004231
88274000,0.0324,0.013523,0.002678,0.000431,0.004231
88275000,0.0324,0.013523,0.002678,0.000431,0.007052
88276000,0.0324,0.013523,0.002678,0.000431,0.000823
88277000,0.0324,0.013523,0.002678,0.000431,0.000823
88278000,0.0324,0.013523,0.002678,0.000431,0.088499
88279000,0.0324,0.013523,0.002678,0.000431,0.446490
88280000,0.0324,0.013523,0.002678,0.000431,0.538867
88281000,0.0324,0.013523,0.002678,0.000431,0.134100
88282000,0.0324,0.013523,0.002678,0.000431,0.131044
88283000,0.0324,0.013523,0.002678,0.000431,0.556731
88284000,0.0324,0.013523,0.002678,0.000431,0.225537
88285000,0.0324,0.013523,0.002678,0.000431,0.244929
88286000,0.0324,0.013523,0.002678,0.000431,0.313918
88287000,0.0324,0.013523,0.002678,0.000431,0.175352
88288000,0.0324,0.013523,0.002678,0.000431,0.137743
88289000,0.0324,0.013523,0.002678,0.000431,0.155490
88290000,0.0324,0.013523,0.002678,0.000431,0.139741
88291000,0.0324,0.013523,0.002678,0.000431,0.466939
88292000,0.0324,0.013523,0.002678,0.000431,0.108831
88293000,0.0324,0.013523,0.002678,0.000431,0.092260
88294000,0.0324,0.013523,0.002678,0.000431,0.073808
88295000,0.0324,0.013523,0.002678,0.000431,0.058176
88296000,0.0324,0.013523,0.002678,0.000431,0.048187
88297000,0.0324,0.013523,0.002678,0.000431,0.047716
88298000,0.0324,0.013523,0.002678,0.000431,0.038667
88299000,0.0324,0.013523,0.002678,0.000431,0.027031
88300000,0.0324,0.013523,0.002678,0.000431,0.023388
88301000,0.0324,0.013523,0.002678,0.000431,0.027737
88302000,0.0324,0.013523,0.002678,0.000431,0.019627
88303000,0.0324,0.013523,0.002678,0.000431,0.017864
88304000,0.0324,0.013523,0.002678,0.000431,0.018099
88305000,0.0324,0.013523,0.002678,0.000431,0.014338
88306000,0.0324,0.013523,0.002678,0.000431,0.013163
88307000,0.0324,0.013523,0.002678,0.000431,0.009637
88308000,0.0324,0.013523,0.002678,0.000431,0.010342
88309000,0.0324,0.013523,0.002678,0.000431,0.007404
88310000,0.0324,0.013523,0.002678,0.000431,0.007757
88311000,0.0324,0.013523,0.002678,0.000431,0.007639
88312000,0.0324,0.013523,0.002678,0.000431,0.007287
88313000,0.0324,0.013523,0.002678,0.000431,0.007992
88314000,0.0324,0.013523,0.002678,0.000431,0.007287
88315000,0.0324,0.013523,0.002678,0.000431,0.007639
88316000,0.0324,0.013523,0.002678,0.000431,0.007757
88317000,0.0324,0.013523,0.002678,0.000431,0.007287
88318000,0.0324,0.013523,0.002678,0.000431,0.007757
88319000,0.0324,0.013523,0.002678,0.000431,0.007287
88320000,0.0324,0.013523,0.002678,0.000431,0.009520
88321000,0.0324,0.013523,0.002678,0.000431,0.006817
88322000,0.0324,0.013523,0.002678,0.000431,0.006582
88323000,0.0324,0.013523,0.002678,0.000431,0.006934
88324000,0.0324,0.013523,0.002678,0.000431,0.006582
88325000,0.0324,0.013523,0.002678,0.000431,0.010107
88326000,0.0324,0.013523,0.002678,0.000431,0.005171
88327000,0.0324,0.013523,0.002678,0.000431,0.004819
88328000,0.0324,0.013523,0.002678,0.000431,0.004466
88329000,0.0324,0.013523,0.002678,0.000431,0.004466
88330000,0.0324,0.013523,0.002678,0.000431,0.005524
88331000,0.0324,0.013523,0.002678,0.000431,0.003408
88332000,0.0324,0.013523,0.002678,0.000431,0.003526
88333000,0.0324,0.013523,0.002678,0.000431,0.003526
88334000,0.0324,0.013523,0.002678,0.000431,0.003408
88335000,0.0324,0.013523,0.002678,0.000431,0.003173
88336000,0.0324,0.013523,0.002678,0.000431,0.003408
88337000,0.0324,0.013523,0.002678,0.000431,0.003291
88338000,0.0324,0.013523,0.002678,0.000431,0.003643
88339000,0.0324,0.013523,0.002678,0.000431,0.003173
88340000,0.0324,0.013523,0.002678,0.000431,0.003643
88341000,0.0324,0.013523,0.002678,0.000431,0.003408
88342000,0.0324,0.013523,0.002678,0.000431,0.003408
88343000,0.0324,0.013523,0.002678,0.000431,0.003761
88344000,0.0324,0.013523,0.002678,0.000431,0.003173
88345000,0.0324,0.013523,0.002678,0.000431,0.003643
88346000,0.0324,0.013523,0.002678,0.000431,0.003173
88347000,0.0324,0.013523,0.002678,0.000431,0.003526
88348000,0.0324,0.013523,0.002678,0.000431,0.003291
88349000,0.0324,0.013523,0.002678,0.000431,0.003408
88350000,0.0324,0.013523,0.002678,0.000431,0.003526
88351000,0.0324,0.013523,0.002678,0.000431,0.003173
88352000,0.0324,0.013523,0.002678,0.000431,0.003643
88353000,0.0324,0.013523,0.002678,0.000431,0.003173
88354000,0.0324,0.013523,0.002678,0.000431,0.004349
88355000,0.0324,0.013523,0.002678,0.000431,0.003526
88356000,0.0324,0.013523,0.002678,0.000431,0.002468
88357000,0.0324,0.013523,0.002678,0.000431,0.002703
88358000,0.0324,0.013523,0.002678,0.000431,0.002233
88359000,0.0324,0.013523,0.002678,0.000431,0.002703
88360000,0.0324,0.013523,0.002678,0.000431,0.002586
88361000,0.0324,0.013523,0.002678,0.000431,0.004936
88362000,0.0324,0.013523,0.002678,0.000431,0.001763
88363000,0.0324,0.013523,0.002678,0.000431,0.001528
88364000,0.0324,0.013523,0.002678,0.000431,0.001645
88365000,0.0324,0.013523,0.002678,0.000431,0.001763
88366000,0.0324,0.013523,0.002678,0.000431,0.003408
88367000,0.0324,0.013523,0.002678,0.000431,0.000823
88368000,0.0324,0.013523,0.002678,0.000431,0.000940
88369000,0.0324,0.013523,0.002678,0.000431,0.000705
88370000,0.0324,0.013523,0.002678,0.000431,0.000940
88371000,0.0324,0.013523,0.002678,0.000431,0.000823
88372000,0.0324,0.013523,0.002678,0.000431,0.000823
88373000,0.0324,0.013523,0.002678,0.000431,0.000940
88374000,0.0324,0.013523,0.002678,0.000431,0.000705
88375000,0.0324,0.013523,0.002678,0.000431,0.000940
88376000,0.0324,0.013523,0.002678,0.000431,0.000823
88377000,0.0324,0.013523,0.002678,0.000431,0.000823
88378000,0.0324,0.013523,0.002678,0.000431,0.000823
88379000,0.0324,0.013523,0.002678,0.000431,0.000823
88380000,0.0324,0.013523,0.002678,0.000431,0.000823
88381000,0.0324,0.013523,0.002678,0.000431,0.000823
88382000,0.0324,0.013523,0.002678,0.000431,0.000940
88383000,0.0324,0.013523,0.002678,0.000431,0.000705
88384000,0.0324,0.013523,0.002678,0.000431,0.000823
88385000,0.0324,0.013523,0.002678,0.000431,0.000940
88386000,0.0324,0.013523,0.002678,0.000431,0.000823
88387000,0.0324,0.013523,0.002678,0.000431,0.000823
88388000,0.0324,0.013523,0.002678,0.000431,0.000823
88389000,0.0324,0.013523,0.002678,0.000431,0.000705
88390000,0.0324,0.013523,0.002678,0.000431,0.000940
88391000,0.0324,0.013523,0.002678,0.000431,0.000940
88392000,0.0324,0.013523,0.002678,0.000431,0.000705
88393000,0.0324,0.013523,0.002678,0.000431,0.000940
88394000,0.0324,0.013523,0.002678,0.000431,0.000705
88395000,0.0324,0.013523,0.002678,0.000431,0.000940
88396000,0.0324,0.013523,0.002678,0.000431,0.000823
88397000,0.0324,0.013523,0.002678,0.000431,0.000823
88398000,0.0324,0.013523,0.002678,0.000431,0.000940
88399000,0.0324,0.013523,0.002678,0.000431,0.000705
88400000,0.0324,0.013523,0.002678,0.000431,0.000940
88401000,0.0324,0.013523,0.002678,0.000431,0.000823
88402000,0.0324,0.013523,0.002678,0.000431,0.000823
88403000,0.0324,0.013523,0.002678,0.000431,0.000823
88404000,0.0324,0.013523,0.002678,0.000431,0.000823
88405000,0.0324,0.013523,0.002678,0.000431,0.000823
88406000,0.0324,0.013523,0.002678,0.000431,0.000823
88407000,0.0324,0.013523,0.002678,0.000431,0.000940
88408000,0.0324,0.013523,0.002678,0.000431,0.000705
88409000,0.0324,0.013523,0.002678,0.000431,0.000940
88410000,0.0324,0.013523,0.002678,0.000431,0.000823
88411000,0.0324,0.013523,0.002678,0.000431,0.000823
88412000,0.0324,0.013523,0.002678,0.000431,0.000705
88413000,0.0324,0.013523,0.002678,0.000431,0.000940
88414000,0.0324,0.013523,0.002678,0.000431,0.000940
88415000,0.0324,0.013523,0.002678,0.000431,0.000705
88416000,0.0324,0.013523,0.002678,0.000431,0.000940
88417000,0.0324,0.013523,0.002678,0.000431,0.000705
88418000,0.0324,0.013523,0.002678,0.000431,0.000940
88419000,0.0324,0.013523,0.002678,0.000431,0.000823
88420000,0.0324,0.013523,0.002678,0.000431,0.000823
88421000,0.0324,0.013523,0.002678,0.000431,0.000940
88422000,0.0324,0.013523,0.002678,0.000431,0.000705
88423000,0.0324,0.013523,0.002678,0.000431,0.000940
88424000,0.0324,0.013523,0.002678,0.000431,0.000823
88425000,0.0324,0.013523,0.002678,0.000431,0.000823
88426000,0.0324,0.013523,0.002678,0.000431,0.000823
88427000,0.0324,0.013523,0.002678,0.000431,0.000823
88428000,0.0324,0.013523,0.002678,0.000431,0.000940
88429000,0.0324,0.013523,0.002678,0.000431,0.000705
88430000,0.0324,0.013523,0.002678,0.000431,0.000940
88431000,0.0324,0.013523,0.002678,0.000431,0.000705
88432000,0.0324,0.013523,0.002678,0.000431,0.000823
88433000,0.0324,0.013523,0.002678,0.000431,0.000940
88434000,0.0324,0.013523,0.002678,0.000431,0.000823
88435000,0.0324,0.013523,0.002678,0.000431,0.000823
88436000,0.0324,0.013523,0.002678,0.000431,0.000823
88437000,0.0324,0.013523,0.002678,0.000431,0.000823
88438000,0.0324,0.013523,0.002678,0.000431,0.000823
88439000,0.0324,0.013523,0.002678,0.000431,0.000940
88440000,0.0324,0.013523,0.002678,0.000431,0.000705
88441000,0.0324,0.013523,0.002678,0.000431,0.000940
88442000,0.0324,0.013523,0.002678,0.000431,0.000705
88443000,0.0324,0.013523,0.002678,0.000431,0.000940
88444000,0.0324,0.013523,0.002678,0.000431,0.000940
88445000,0.0324,0.013523,0.002678,0.000431,0.000705
88446000,0.0324,0.013523,0.002678,0.000431,0.000940
88447000,0.0324,0.013523,0.002678,0.000431,0.000705
88448000,0.0324,0.013523,0.002678,0.000431,0.000940
88449000,0.0324,0.013523,0.002678,0.000431,0.000823
88450000,0.0324,0.013523,0.002678,0.000431,0.000823
88451000,0.0324,0.013523,0.002678,0.000431,0.000823
88452000,0.0324,0.013523,0.002678,0.000431,0.000823
88453000,0.0324,0.013523,0.002678,0.000431,0.000940
88454000,0.0324,0.013523,0.002678,0.000431,0.000705
88455000,0.0324,0.013523,0.002678,0.000431,0.000940
88456000,0.0324,0.013523,0.002678,0.000431,0.000823
88457000,0.0324,0.013523,0.002678,0.000431,0.000823
88458000,0.0324,0.013523,0.002678,0.000431,0.000823
88459000,0.0324,0.013523,0.002678,0.000431,0.000823
88460000,0.0324,0.013523,0.002678,0.000431,0.000705
88461000,0.0324,0.013523,0.002678,0.000431,0.000940
88462000,0.0324,0.013523,0.002678,0.000431,0.000940
88463000,0.0324,0.013523,0.002678,0.000431,0.000705
88464000,0.0324,0.013523,0.002678,0.000431,0.000940
88465000,0.0324,0.013523,0.002678,0.000431,0.000705
88466000,0.0324,0.013523,0.002678,0.000431,0.000940
88467000,0.0324,0.013523,0.002678,0.000431,0.000940
88468000,0.0324,0.013523,0.002678,0.000431,0.000705
88469000,0.0324,0.013523,0.002678,0.000431,0.000940
88470000,0.0324,0.013523,0.002678,0.000431,0.000705
88471000,0.0324,0.013523,0.002678,0.000431,0.000940
88472000,0.0324,0.013523,0.002678,0.000431,0.000823
88473000,0.0324,0.013523,0.002678,0.000431,0.000823
88474000,0.0324,0.013523,0.002678,0.000431,0.000823
88475000,0.0324,0.013523,0.002678,0.000431,0.000823
88476000,0.0324,0.013523,0.002678,0.000431,0.000940
88477000,0.0324,0.013523,0.002678,0.000431,0.000705
88478000,0.0324,0.013523,0.002678,0.000431,0.000940
88479000,0.0324,0.013523,0.002678,0.000431,0.000823
88480000,0.0324,0.013523,0.002678,0.000431,0.000705
88481000,0.0324,0.013523,0.002678,0.000431,0.000940
88482000,0.0324,0.013523,0.002678,0.000431,0.000823
88483000,0.0324,0.013523,0.002678,0.000431,0.000823
88484000,0.0324,0.013523,0.002678,0.000431,0.000823
88485000,0.0324,0.013523,0.002678,0.000431,0.000823
88486000,0.0324,0.013523,0.002678,0.000431,0.000823
88487000,0.0324,0.013523,0.002678,0.000431,0.000940
88488000,0.0324,0.013523,0.002678,0.000431,0.000823
88489000,0.0324,0.013523,0.002678,0.000431,0.000823
88490000,0.0324,0.013523,0.002678,0.000431,0.000705
88491000,0.0324,0.013523,0.002678,0.000431,0.000940
88492000,0.0324,0.013523,0.002678,0.000431,0.000940
88493000,0.0324,0.013523,0.002678,0.000431,0.000705
88494000,0.0324,0.013523,0.002678,0.000431,0.000940
88495000,0.0324,0.013523,0.002678,0.000431,0.000705
88496000,0.0324,0.013523,0.002678,0.000431,0.000940
88497000,0.0324,0.013523,0.002678,0.000431,0.000823
88498000,0.0324,0.013523,0.002678,0.000431,0.000823
88499000,0.0324,0.013523,0.002678,0.000431,0.000940
88500000,0.0324,0.013523,0.002678,0.000431,0.000705
88501000,0.0324,0.013523,0.002678,0.000431,0.000940
88502000,0.0324,0.013523,0.002678,0.000431,0.000823
88503000,0.0324,0.013523,0.002678,0.000431,0.000823
88504000,0.0324,0.013523,0.002678,0.000431,0.000823
88505000,0.0324,0.013523,0.002678,0.000431,0.000823
88506000,0.0324,0.013523,0.002678,0.000431,0.000823
88507000,0.0324,0.013523,0.002678,0.000431,0.000823
88508000,0.0324,0.013523,0.002678,0.000431,0.000940
88509000,0.0324,0.013523,0.002678,0.000431,0.000705
88510000,0.0324,0.013523,0.002678,0.000431,0.000940
88511000,0.0324,0.013523,0.002678,0.000431,0.000823
88512000,0.0324,0.013523,0.002678,0.000431,0.000823
88513000,0.0324,0.013523,0.002678,0.000431,0.000705
88514000,0.0324,0.013523,0.002678,0.000431,0.000940
88515000,0.0324,0.013523,0.002678,0.000431,0.000940
88516000,0.0324,0.013523,0.002678,0.000431,0.000705
88517000,0.0324,0.013523,0.002678,0.000431,0.000940
88518000,0.0324,0.013523,0.002678,0.000431,0.000705
88519000,0.0324,0.013523,0.002678,0.000431,0.000940
88520000,0.0324,0.013523,0.002678,0.000431,0.000823
88521000,0.0324,0.013523,0.002678,0.000431,0.000823
88522000,0.0324,0.013523,0.002678,0.000431,0.000940
88523000,0.0324,0.013523,0.002678,0.000431,0.000705
88524000,0.0324,0.013523,0.002678,0.000431,0.000940
88525000,0.0324,0.013523,0.002678,0.000431,0.000705
88526000,0.0324,0.013523,0.002678,0.000431,0.000940
88527000,0.0324,0.013523,0.002678,0.000431,0.000823
88528000,0.0324,0.013523,0.002678,0.000431,0.000823
88529000,0.0324,0.013523,0.002678,0.000431,0.000823
88530000,0.0324,0.013523,0.002678,0.000431,0.000823
88531000,0.0324,0.013523,0.002678,0.000431,0.000940
88532000,0.0324,0.013523,0.002678,0.000431,0.000705
88533000,0.0324,0.013523,0.002678,0.000431,0.000823
88534000,0.0324,0.013523,0.002678,0.000431,0.000940
88535000,0.0324,0.013523,0.002678,0.000431,0.000823
88536000,0.0324,0.013523,0.002678,0.000431,0.000823
88537000,0.0324,0.013523,0.002678,0.000431,0.000823
88538000,0.0324,0.013523,0.002678,0.000431,0.000823
88539000,0.0324,0.013523,0.002678,0.000431,0.000823
88540000,0.0324,0.013523,0.002678,0.000431,0.000940
88541000,0.0324,0.013523,0.002678,0.000431,0.000823
88542000,0.0324,0.013523,0.002678,0.000431,0.000823
88543000,0.0324,0.013523,0.002678,0.000431,0.000705
88544000,0.0324,0.013523,0.002678,0.000431,0.000940
88545000,0.0324,0.013523,0.002678,0.000431,0.000940
88546000,0.0324,0.013523,0.002678,0.000431,0.000705
88547000,0.0324,0.013523,0.002678,0.000431,0.000940
88548000,0.0324,0.013523,0.002678,0.000431,0.000705
88549000,0.0324,0.013523,0.002678,0.000431,0.000940
88550000,0.0324,0.013523,0.002678,0.000431,0.000823
88551000,0.0324,0.013523,0.002678,0.000431,0.000823
88552000,0.0324,0.013523,0.002678,0.000431,0.000940
88553000,0.0324,0.013523,0.002678,0.000431,0.000705
88554000,0.0324,0.013523,0.002678,0.000431,0.000940
88555000,0.0324,0.013523,0.002678,0.000431,0.000823
88556000,0.0324,0.013523,0.002678,0.000431,0.000823
88557000,0.0324,0.013523,0.002678,0.000431,0.000823
88558000,0.0324,0.013523,0.002678,0.000431,0.000823
88559000,0.0324,0.013523,0.002678,0.000431,0.000940
88560000,0.0324,0.013523,0.002678,0.000431,0.000705
88561000,0.0324,0.013523,0.002678,0.000431,0.000940
88562000,0.0324,0.013523,0.002678,0.000431,0.000823
88563000,0.0324,0.013523,0.002678,0.000431,0.000823
88564000,0.0324,0.013523,0.002678,0.000431,0.000823
88565000,0.0324,0.013523,0.002678,0.000431,0.000823
88566000,0.0324,0.013523,0.002678,0.000431,0.000940
88567000,0.0324,0.013523,0.002678,0.000431,0.000705
88568000,0.0324,0.013523,0.002678,0.000431,0.000940
88569000,0.0324,0.013523,0.002678,0.000431,0.000823
88570000,0.0324,0.013523,0.002678,0.000431,0.000823
88571000,0.0324,0.013523,0.002678,0.000431,0.000705
88572000,0.0324,0.013523,0.002678,0.000431,0.000940
88573000,0.0324,0.013523,0.002678,0.000431,0.000940
88574000,0.0324,0.013523,0.002678,0.000431,0.000705
88575000,0.0324,0.013523,0.002678,0.000431,0.000940
88576000,0.0324,0.013523,0.002678,0.000431,0.000705
88577000,0.0324,0.013523,0.002678,0.000431,0.000940
88578000,0.0324,0.013523,0.002678,0.000431,0.000823
88579000,0.0324,0.013523,0.002678,0.000431,0.000823
88580000,0.0324,0.013523,0.002678,0.000431,0.000940
88581000,0.0324,0.013523,0.002678,0.000431,0.000705
88582000,0.0324,0.013523,0.002678,0.000431,0.000940
88583000,0.0324,0.013523,0.002678,0.000431,0.000823
88584000,0.0324,0.013523,0.002678,0.000431,0.000823
88585000,0.0324,0.013523,0.002678,0.000431,0.000823
88586000,0.0324,0.013523,0.002678,0.000431,0.000823
88587000,0.0324,0.013523,0.002678,0.000431,0.000940
88588000,0.0324,0.013523,0.002678,0.000431,0.000705
88589000,0.0324,0.013523,0.002678,0.000431,0.000940
88590000,0.0324,0.013523,0.002678,0.000431,0.000823
88591000,0.0324,0.013523,0.002678,0.000431,0.000823
88592000,0.0324,0.013523,0.002678,0.000431,0.000823
88593000,0.0324,0.013523,0.002678,0.000431,0.000823
88594000,0.0324,0.013523,0.002678,0.000431,0.071340
88595000,0.0324,0.013523,0.002678,0.000431,0.506664
88596000,0.0324,0.013523,0.002678,0.000431,0.602567
88597000,0.0324,0.013523,0.002678,0.000431,0.132572
88598000,0.0324,0.013523,0.002678,0.000431,0.132572
88599000,0.0324,0.013523,0.002678,0.000431,0.554498
88600000,0.0324,0.013523,0.002678,0.000431,0.224244
88601000,0.0324,0.013523,0.002678,0.000431,0.252215
88602000,0.0324,0.013523,0.002678,0.000431,0.337541
88603000,0.0324,0.013523,0.002678,0.000431,0.140211
88604000,0.0324,0.013523,0.002678,0.000431,0.144442
88605000,0.0324,0.013523,0.002678,0.000431,0.122229
88606000,0.0324,0.013523,0.002678,0.000431,0.340244
88607000,0.0324,0.013523,0.002678,0.000431,0.291822
88608000,0.0324,0.013523,0.002678,0.000431,0.112710
88609000,0.0324,0.013523,0.002678,0.000431,0.080977
88610000,0.0324,0.013523,0.002678,0.000431,0.075688
88611000,0.0324,0.013523,0.002678,0.000431,0.051595
88612000,0.0324,0.013523,0.002678,0.000431,0.035023
88613000,0.0324,0.013523,0.002678,0.000431,0.029500
88614000,0.0324,0.013523,0.002678,0.000431,0.021860
88615000,0.0324,0.013523,0.002678,0.000431,0.022683
88616000,0.0324,0.013523,0.002678,0.000431,0.015631
88617000,0.0324,0.013523,0.002678,0.000431,0.018805
88618000,0.0324,0.013523,0.002678,0.000431,0.013163
88619000,0.0324,0.013523,0.002678,0.000431,0.013046
88620000,0.0324,0.013523,0.002678,0.000431,0.012693
88621000,0.0324,0.013523,0.002678,0.000431,0.016454
88622000,0.0324,0.013523,0.002678,0.000431,0.011635
88623000,0.0324,0.013523,0.002678,0.000431,0.011048
88624000,0.0324,0.013523,0.002678,0.000431,0.011283
88625000,0.0324,0.013523,0.002678,0.000431,0.011635
88626000,0.0324,0.013523,0.002678,0.000431,0.012811
88627000,0.0324,0.013523,0.002678,0.000431,0.011518
88628000,0.0324,0.013523,0.002678,0.000431,0.011635
88629000,0.0324,0.013523,0.002678,0.000431,0.010225
88630000,0.0324,0.013523,0.002678,0.000431,0.008580
88631000,0.0324,0.013523,0.002678,0.000431,0.008109
88632000,0.0324,0.013523,0.002678,0.000431,0.008345
88633000,0.0324,0.013523,0.002678,0.000431,0.008227
88634000,0.0324,0.013523,0.002678,0.000431,0.014103
88635000,0.0324,0.013523,0.002678,0.000431,0.007639
88636000,0.0324,0.013523,0.002678,0.000431,0.004584
88637000,0.0324,0.013523,0.002678,0.000431,0.004819
88638000,0.0324,0.013523,0.002678,0.000431,0.005054
88639000,0.0324,0.013523,0.002678,0.000431,0.004349
88640000,0.0324,0.013523,0.002678,0.000431,0.004701
88641000,0.0324,0.013523,0.002678,0.000431,0.004936
88642000,0.0324,0.013523,0.002678,0.000431,0.004701
88643000,0.0324,0.013523,0.002678,0.000431,0.005289
88644000,0.0324,0.013523,0.002678,0.000431,0.004936
88645000,0.0324,0.013523,0.002678,0.000431,0.004819
88646000,0.0324,0.013523,0.002678,0.000431,0.004466
88647000,0.0324,0.013523,0.002678,0.000431,0.004936
88648000,0.0324,0.013523,0.002678,0.000431,0.005524
88649000,0.0324,0.013523,0.002678,0.000431,0.004584
88650000,0.0324,0.013523,0.002678,0.000431,0.004936
88651000,0.0324,0.013523,0.002678,0.000431,0.004819
88652000,0.0324,0.013523,0.002678,0.000431,0.004936
88653000,0.0324,0.013523,0.002678,0.000431,0.005171
88654000,0.0324,0.013523,0.002678,0.000431,0.004819
88655000,0.0324,0.013523,0.002678,0.000431,0.004936
88656000,0.0324,0.013523,0.002678,0.000431,0.004466
88657000,0.0324,0.013523,0.002678,0.000431,0.005641
88658000,0.0324,0.013523,0.002678,0.000431,0.005054
88659000,0.0324,0.013523,0.002678,0.000431,0.004113
88660000,0.0324,0.013523,0.002678,0.000431,0.005641
88661000,0.0324,0.013523,0.002678,0.000431,0.004466
88662000,0.0324,0.013523,0.002678,0.000431,0.004819
88663000,0.0324,0.013523,0.002678,0.000431,0.005171
88664000,0.0324,0.013523,0.002678,0.000431,0.004819
88665000,0.0324,0.013523,0.002678,0.000431,0.005171
88666000,0.0324,0.013523,0.002678,0.000431,0.004701
88667000,0.0324,0.013523,0.002678,0.000431,0.004936
88668000,0.0324,0.013523,0.002678,0.000431,0.004819
88669000,0.0324,0.013523,0.002678,0.000431,0.005054
88670000,0.0324,0.013523,0.002678,0.000431,0.005171
88671000,0.0324,0.013523,0.002678,0.000431,0.004231
88672000,0.0324,0.013523,0.002678,0.000431,0.005641
88673000,0.0324,0.013523,0.002678,0.000431,0.004701
88674000,0.0324,0.013523,0.002678,0.000431,0.004466
88675000,0.0324,0.013523,0.002678,0.000431,0.005641
88676000,0.0324,0.013523,0.002678,0.000431,0.004936
88677000,0.0324,0.013523,0.002678,0.000431,0.004584
88678000,0.0324,0.013523,0.002678,0.000431,0.004584
88679000,0.0324,0.013523,0.002678,0.000431,0.005289
88680000,0.0324,0.013523,0.002678,0.000431,0.005054
88681000,0.0324,0.013523,0.002678,0.000431,0.004584
88682000,0.0324,0.013523,0.002678,0.000431,0.005054
88683000,0.0324,0.013523,0.002678,0.000431,0.004936
88684000,0.0324,0.013523,0.002678,0.000431,0.005171
88685000,0.0324,0.013523,0.002678,0.000431,0.004819
88686000,0.0324,0.013523,0.002678,0.000431,0.004819
88687000,0.0324,0.013523,0.002678,0.000431,0.005171
88688000,0.0324,0.013523,0.002678,0.000431,0.004701
88689000,0.0324,0.013523,0.002678,0.000431,0.004819
88690000,0.0324,0.013523,0.002678,0.000431,0.004936
88691000,0.0324,0.013523,0.002678,0.000431,0.005171
88692000,0.0324,0.013523,0.002678,0.000431,0.004584
88693000,0.0324,0.013523,0.002678,0.000431,0.004701
88694000,0.0324,0.013523,0.002678,0.000431,0.005641
88695000,0.0324,0.013523,0.002678,0.000431,0.004231
88696000,0.0324,0.013523,0.002678,0.000431,0.005054
88697000,0.0324,0.013523,0.002678,0.000431,0.005524
88698000,0.0324,0.013523,0.002678,0.000431,0.004466
88699000,0.0324,0.013523,0.002678,0.000431,0.005054
88700000,0.0324,0.013523,0.002678,0.000431,0.004584
88701000,0.0324,0.013523,0.002678,0.000431,0.005171
88702000,0.0324,0.013523,0.002678,0.000431,0.005171
88703000,0.0324,0.013523,0.002678,0.000431,0.004701
88704000,0.0324,0.013523,0.002678,0.000431,0.005054
88705000,0.0324,0.013523,0.002678,0.000431,0.004349
88706000,0.0324,0.013523,0.002678,0.000431,0.005641
88707000,0.0324,0.013523,0.002678,0.000431,0.004936
88708000,0.0324,0.013523,0.002678,0.000431,0.004349
88709000,0.0324,0.013523,0.002678,0.000431,0.005524
88710000,0.0324,0.013523,0.002678,0.000431,0.004349
88711000,0.0324,0.013523,0.002678,0.000431,0.005054
88712000,0.0324,0.013523,0.002678,0.000431,0.005054
88713000,0.0324,0.013523,0.002678,0.000431,0.004819
88714000,0.0324,0.013523,0.002678,0.000431,0.005054
88715000,0.0324,0.013523,0.002678,0.000431,0.004701
88716000,0.0324,0.013523,0.002678,0.000431,0.005054
88717000,0.0324,0.013523,0.002678,0.000431,0.004819
88718000,0.0324,0.013523,0.002678,0.000431,0.005171
88719000,0.0324,0.013523,0.002678,0.000431,0.004819
88720000,0.0324,0.013523,0.002678,0.000431,0.004466
88721000,0.0324,0.013523,0.002678,0.000431,0.005641
88722000,0.0324,0.013523,0.002678,0.000431,0.004701
88723000,0.0324,0.013523,0.002678,0.000431,0.004466
88724000,0.0324,0.013523,0.002678,0.000431,0.005641
88725000,0.0324,0.013523,0.002678,0.000431,0.004936
88726000,0.0324,0.013523,0.002678,0.000431,0.004466
88727000,0.0324,0.013523,0.002678,0.000431,0.004701
88728000,0.0324,0.013523,0.002678,0.000431,0.005289
88729000,0.0324,0.013523,0.002678,0.000431,0.004701
88730000,0.0324,0.013523,0.002678,0.000431,0.005054
88731000,0.0324,0.013523,0.002678,0.000431,0.004701
88732000,0.0324,0.013523,0.002678,0.000431,0.005171
88733000,0.0324,0.013523,0.002678,0.000431,0.004936
88734000,0.0324,0.013523,0.002678,0.000431,0.004819
88735000,0.0324,0.013523,0.002678,0.000431,0.005054
88736000,0.0324,0.013523,0.002678,0.000431,0.004466
88737000,0.0324,0.013523,0.002678,0.000431,0.005406
88738000,0.0324,0.013523,0.002678,0.000431,0.004936
88739000,0.0324,0.013523,0.002678,0.000431,0.004466
88740000,0.0324,0.013523,0.002678,0.000431,0.005641
88741000,0.0324,0.013523,0.002678,0.000431,0.004701
88742000,0.0324,0.013523,0.002678,0.000431,0.004466
88743000,0.0324,0.013523,0.002678,0.000431,0.005289
88744000,0.0324,0.013523,0.002678,0.000431,0.005289
88745000,0.0324,0.013523,0.002678,0.000431,0.004584
88746000,0.0324,0.013523,0.002678,0.000431,0.004701
88747000,0.0324,0.013523,0.002678,0.000431,0.005641
88748000,0.0324,0.013523,0.002678,0.000431,0.004113
88749000,0.0324,0.013523,0.002678,0.000431,0.005289
88750000,0.0324,0.013523,0.002678,0.000431,0.004936
88751000,0.0324,0.013523,0.002678,0.000431,0.004819
88752000,0.0324,0.013523,0.002678,0.000431,0.005054
88753000,0.0324,0.013523,0.002678,0.000431,0.004819
88754000,0.0324,0.013523,0.002678,0.000431,0.005171
88755000,0.0324,0.013523,0.002678,0.000431,0.005171
88756000,0.0324,0.013523,0.002678,0.000431,0.004584
88757000,0.0324,0.013523,0.002678,0.000431,0.005054
88758000,0.0324,0.013523,0.002678,0.000431,0.004466
88759000,0.0324,0.013523,0.002678,0.000431,0.005641
88760000,0.0324,0.013523,0.002678,0.000431,0.004349
88761000,0.0324,0.013523,0.002678,0.000431,0.004819
88762000,0.0324,0.013523,0.002678,0.000431,0.005641
88763000,0.0324,0.013523,0.002678,0.000431,0.004349
88764000,0.0324,0.013523,0.002678,0.000431,0.006229
88765000,0.0324,0.013523,0.002678,0.000431,0.004231
88766000,0.0324,0.013523,0.002678,0.000431,0.003878
88767000,0.0324,0.013523,0.002678,0.000431,0.004113
88768000,0.0324,0.013523,0.002678,0.000431,0.003996
88769000,0.0324,0.013523,0.002678,0.000431,0.004113
88770000,0.0324,0.013523,0.002678,0.000431,0.003878
88771000,0.0324,0.013523,0.002678,0.000431,0.004231
88772000,0.0324,0.013523,0.002678,0.000431,0.004113
88773000,0.0324,0.013523,0.002678,0.000431,0.003526
88774000,0.0324,0.013523,0.002678,0.000431,0.004701
88775000,0.0324,0.013523,0.002678,0.000431,0.003878
88776000,0.0324,0.013523,0.002678,0.000431,0.003643
88777000,0.0324,0.013523,0.002678,0.000431,0.004701
88778000,0.0324,0.013523,0.002678,0.000431,0.003526
88779000,0.0324,0.013523,0.002678,0.000431,0.003996
88780000,0.0324,0.013523,0.002678,0.000431,0.003996
88781000,0.0324,0.013523,0.002678,0.000431,0.004231
88782000,0.0324,0.013523,0.002678,0.000431,0.005759
88783000,0.0324,0.013523,0.002678,0.000431,0.003056
88784000,0.0324,0.013523,0.002678,0.000431,0.003291
88785000,0.0324,0.013523,0.002678,0.000431,0.003056
88786000,0.0324,0.013523,0.002678,0.000431,0.003291
88787000,0.0324,0.013523,0.002678,0.000431,0.003291
88788000,0.0324,0.013523,0.002678,0.000431,0.002703
88789000,0.0324,0.013523,0.002678,0.000431,0.003643
88790000,0.0324,0.013523,0.002678,0.000431,0.003056
88791000,0.0324,0.013523,0.002678,0.000431,0.002821
88792000,0.0324,0.013523,0.002678,0.000431,0.003408
88793000,0.0324,0.013523,0.002678,0.000431,0.003408
88794000,0.0324,0.013523,0.002678,0.000431,0.002821
88795000,0.0324,0.013523,0.002678,0.000431,0.003056
88796000,0.0324,0.013523,0.002678,0.000431,0.003761
88797000,0.0324,0.013523,0.002678,0.000431,0.002468
88798000,0.0324,0.013523,0.002678,0.000431,0.003408
88799000,0.0324,0.013523,0.002678,0.000431,0.003291
88800000,0.0324,0.013523,0.002678,0.000431,0.003056
88801000,0.0324,0.013523,0.002678,0.000431,0.003291
88802000,0.0324,0.013523,0.002678,0.000431,0.003056
88803000,0.0324,0.013523,0.002678,0.000431,0.003291
88804000,0.0324,0.013523,0.002678,0.000431,0.004701
88805000,0.0324,0.013523,0.002678,0.000431,0.001645
88806000,0.0324,0.013523,0.002678,0.000431,0.001880
88807000,0.0324,0.013523,0.002678,0.000431,0.001410
88808000,0.0324,0.013523,0.002678,0.000431,0.001645
88809000,0.0324,0.013523,0.002678,0.000431,0.001528
88810000,0.0324,0.013523,0.002678,0.000431,0.001645
88811000,0.0324,0.013523,0.002678,0.000431,0.001763
88812000,0.0324,0.013523,0.002678,0.000431,0.001645
88813000,0.0324,0.013523,0.002678,0.000431,0.001410
88814000,0.0324,0.013523,0.002678,0.000431,0.001293
88815000,0.0324,0.013523,0.002678,0.000431,0.000823
88816000,0.0324,0.013523,0.002678,0.000431,0.000823
88817000,0.0324,0.013523,0.002678,0.000431,0.000940
88818000,0.0324,0.013523,0.002678,0.000431,0.000823
88819000,0.0324,0.013523,0.002678,0.000431,0.000823
88820000,0.0324,0.013523,0.002678,0.000431,0.000940
88821000,0.0324,0.013523,0.002678,0.000431,0.002821
88822000,0.0324,0.013523,0.002678,0.000431,0.432621
88823000,0.0324,0.013523,0.002678,0.000431,0.712338
88824000,0.0324,0.013523,0.002678,0.000431,0.138331
88825000,0.0324,0.013523,0.002678,0.000431,0.134100
88826000,0.0324,0.013523,0.002678,0.000431,0.215429
88827000,0.0324,0.013523,0.002678,0.000431,0.542628
88828000,0.0324,0.013523,0.002678,0.000431,0.267024
88829000,0.0324,0.013523,0.002678,0.000431,0.328491
88830000,0.0324,0.013523,0.002678,0.000431,0.176292
88831000,0.0324,0.013523,0.002678,0.000431,0.148908
88832000,0.0324,0.013523,0.002678,0.000431,0.110829
88833000,0.0324,0.013523,0.002678,0.000431,0.382554
88834000,0.0324,0.013523,0.002678,0.000431,0.319442
88835000,0.0324,0.013523,0.002678,0.000431,0.079449
88836000,0.0324,0.013523,0.002678,0.000431,0.066051
88837000,0.0324,0.013523,0.002678,0.000431,0.063348
88838000,0.0324,0.013523,0.002678,0.000431,0.046541
88839000,0.0324,0.013523,0.002678,0.000431,0.051595
88840000,0.0324,0.013523,0.002678,0.000431,0.041017
88841000,0.0324,0.013523,0.002678,0.000431,0.038314
88842000,0.0324,0.013523,0.002678,0.000431,0.036551
88843000,0.0324,0.013523,0.002678,0.000431,0.027737
88844000,0.0324,0.013523,0.002678,0.000431,0.024681
88845000,0.0324,0.013523,0.002678,0.000431,0.023623
88846000,0.0324,0.013523,0.002678,0.000431,0.013398
88847000,0.0324,0.013523,0.002678,0.000431,0.013046
88848000,0.0324,0.013523,0.002678,0.000431,0.015749
88849000,0.0324,0.013523,0.002678,0.000431,0.013281
88850000,0.0324,0.013523,0.002678,0.000431,0.010813
88851000,0.0324,0.013523,0.002678,0.000431,0.010107
88852000,0.0324,0.013523,0.002678,0.000431,0.013281
88853000,0.0324,0.013523,0.002678,0.000431,0.010342
88854000,0.0324,0.013523,0.002678,0.000431,0.007992
88855000,0.0324,0.013523,0.002678,0.000431,0.008227
88856000,0.0324,0.013523,0.002678,0.000431,0.008697
88857000,0.0324,0.013523,0.002678,0.000431,0.008109
88858000,0.0324,0.013523,0.002678,0.000431,0.007404
88859000,0.0324,0.013523,0.002678,0.000431,0.008109
88860000,0.0324,0.013523,0.002678,0.000431,0.005171
88861000,0.0324,0.013523,0.002678,0.000431,0.004936
88862000,0.0324,0.013523,0.002678,0.000431,0.005054
88863000,0.0324,0.013523,0.002678,0.000431,0.007522
88864000,0.0324,0.013523,0.002678,0.000431,0.004231
88865000,0.0324,0.013523,0.002678,0.000431,0.006111
88866000,0.0324,0.013523,0.002678,0.000431,0.003526
88867000,0.0324,0.013523,0.002678,0.000431,0.003408
88868000,0.0324,0.013523,0.002678,0.000431,0.003408
88869000,0.0324,0.013523,0.002678,0.000431,0.003291
88870000,0.0324,0.013523,0.002678,0.000431,0.003526
88871000,0.0324,0.013523,0.002678,0.000431,0.003408
88872000,0.0324,0.013523,0.002678,0.000431,0.003408
88873000,0.0324,0.013523,0.002678,0.000431,0.003291
88874000,0.0324,0.013523,0.002678,0.000431,0.003291
88875000,0.0324,0.013523,0.002678,0.000431,0.003526
88876000,0.0324,0.013523,0.002678,0.000431,0.003408
88877000,0.0324,0.013523,0.002678,0.000431,0.003408
88878000,0.0324,0.013523,0.002678,0.000431,0.003291
88879000,0.0324,0.013523,0.002678,0.000431,0.003408
88880000,0.0324,0.013523,0.002678,0.000431,0.003291
88881000,0.0324,0.013523,0.002678,0.000431,0.003408
88882000,0.0324,0.013523,0.002678,0.000431,0.003526
88883000,0.0324,0.013523,0.002678,0.000431,0.003291
88884000,0.0324,0.013523,0.002678,0.000431,0.003173
88885000,0.0324,0.013523,0.002678,0.000431,0.003643
88886000,0.0324,0.013523,0.002678,0.000431,0.003291
88887000,0.0324,0.013523,0.002678,0.000431,0.003526
88888000,0.0324,0.013523,0.002678,0.000431,0.002938
88889000,0.0324,0.013523,0.002678,0.000431,0.003526
88890000,0.0324,0.013523,0.002678,0.000431,0.003526
88891000,0.0324,0.013523,0.002678,0.000431,0.003173
88892000,0.0324,0.013523,0.002678,0.000431,0.003526
88893000,0.0324,0.013523,0.002678,0.000431,0.003173
88894000,0.0324,0.013523,0.002678,0.000431,0.003408
88895000,0.0324,0.013523,0.002678,0.000431,0.003408
88896000,0.0324,0.013523,0.002678,0.000431,0.003173
88897000,0.0324,0.013523,0.002678,0.000431,0.003526
88898000,0.0324,0.013523,0.002678,0.000431,0.003291
88899000,0.0324,0.013523,0.002678,0.000431,0.003526
88900000,0.0324,0.013523,0.002678,0.000431,0.003173
88901000,0.0324,0.013523,0.002678,0.000431,0.003291
88902000,0.0324,0.013523,0.002678,0.000431,0.005171
88903000,0.0324,0.013523,0.002678,0.000431,0.002468
88904000,0.0324,0.013523,0.002678,0.000431,0.002468
88905000,0.0324,0.013523,0.002678,0.000431,0.002586
88906000,0.0324,0.013523,0.002678,0.000431,0.002468
88907000,0.0324,0.013523,0.002678,0.000431,0.002468
88908000,0.0324,0.013523,0.002678,0.000431,0.002586
88909000,0.0324,0.013523,0.002678,0.000431,0.002468
88910000,0.0324,0.013523,0.002678,0.000431,0.002468
88911000,0.0324,0.013523,0.002678,0.000431,0.002351
88912000,0.0324,0.013523,0.002678,0.000431,0.002703
88913000,0.0324,0.013523,0.002678,0.000431,0.002703
88914000,0.0324,0.013523,0.002678,0.000431,0.002351
88915000,0.0324,0.013523,0.002678,0.000431,0.002586
88916000,0.0324,0.013523,0.002678,0.000431,0.002233
88917000,0.0324,0.013523,0.002678,0.000431,0.002703
88918000,0.0324,0.013523,0.002678,0.000431,0.002586
88919000,0.0324,0.013523,0.002678,0.000431,0.003761
88920000,0.0324,0.013523,0.002678,0.000431,0.001645
88921000,0.0324,0.013523,0.002678,0.000431,0.001645
88922000,0.0324,0.013523,0.002678,0.000431,0.001763
88923000,0.0324,0.013523,0.002678,0.000431,0.001528
88924000,0.0324,0.013523,0.002678,0.000431,0.001645
88925000,0.0324,0.013523,0.002678,0.000431,0.001763
88926000,0.0324,0.013523,0.002678,0.000431,0.001763
88927000,0.0324,0.013523,0.002678,0.000431,0.001528
88928000,0.0324,0.013523,0.002678,0.000431,0.001763
88929000,0.0324,0.013523,0.002678,0.000431,0.001880
88930000,0.0324,0.013523,0.002678,0.000431,0.001528
88931000,0.0324,0.013523,0.002678,0.000431,0.001645
88932000,0.0324,0.013523,0.002678,0.000431,0.001880
88933000,0.0324,0.013523,0.002678,0.000431,0.004819
88934000,0.0324,0.013523,0.002678,0.000431,0.000940
88935000,0.0324,0.013523,0.002678,0.000431,0.000823
88936000,0.0324,0.013523,0.002678,0.000431,0.000705
88937000,0.0324,0.013523,0.002678,0.000431,0.000940
88938000,0.0324,0.013523,0.002678,0.000431,0.000940
88939000,0.0324,0.013523,0.002678,0.000431,0.000705
88940000,0.0324,0.013523,0.002678,0.000431,0.000940
88941000,0.0324,0.013523,0.002678,0.000431,0.000705
88942000,0.0324,0.013523,0.002678,0.000431,0.000940
88943000,0.0324,0.013523,0.002678,0.000431,0.000940
88944000,0.0324,0.013523,0.002678,0.000431,0.000705
88945000,0.0324,0.013523,0.002678,0.000431,0.000940
88946000,0.0324,0.013523,0.002678,0.000431,0.000705
88947000,0.0324,0.013523,0.002678,0.000431,0.000940
88948000,0.0324,0.013523,0.002678,0.000431,0.000823
88949000,0.0324,0.013523,0.002678,0.000431,0.000823
88950000,0.0324,0.013523,0.002678,0.000431,0.000823
88951000,0.0324,0.013523,0.002678,0.000431,0.000823
88952000,0.0324,0.013523,0.002678,0.000431,0.000940
88953000,0.0324,0.013523,0.002678,0.000431,0.000705
88954000,0.0324,0.013523,0.002678,0.000431,0.000940
88955000,0.0324,0.013523,0.002678,0.000431,0.000823
88956000,0.0324,0.013523,0.002678,0.000431,0.000823
88957000,0.0324,0.013523,0.002678,0.000431,0.000823
88958000,0.0324,0.013523,0.002678,0.000431,0.000823
88959000,0.0324,0.013523,0.002678,0.000431,0.000823
88960000,0.0324,0.013523,0.002678,0.000431,0.000823
88961000,0.0324,0.013523,0.002678,0.000431,0.000940
88962000,0.0324,0.013523,0.002678,0.000431,0.000705
88963000,0.0324,0.013523,0.002678,0.000431,0.000940
88964000,0.0324,0.013523,0.002678,0.000431,0.000705
88965000,0.0324,0.013523,0.002678,0.000431,0.000940
88966000,0.0324,0.013523,0.002678,0.000431,0.000940
88967000,0.0324,0.013523,0.002678,0.000431,0.000705
88968000,0.0324,0.013523,0.002678,0.000431,0.000940
88969000,0.0324,0.013523,0.002678,0.000431,0.000705
88970000,0.0324,0.013523,0.002678,0.000431,0.000940
88971000,0.0324,0.013523,0.002678,0.000431,0.000823
88972000,0.0324,0.013523,0.002678,0.000431,0.000823
88973000,0.0324,0.013523,0.002678,0.000431,0.000823
88974000,0.0324,0.013523,0.002678,0.000431,0.015749
88975000,0.0324,0.013523,0.002678,0.000431,0.687070
88976000,0.0324,0.013523,0.002678,0.000431,0.570364
88977000,0.0324,0.013523,0.002678,0.000431,0.135392
88978000,0.0324,0.013523,0.002678,0.000431,0.136333
88979000,0.0324,0.013523,0.002678,0.000431,0.599981
88980000,0.0324,0.013523,0.002678,0.000431,0.241050
88981000,0.0324,0.013523,0.002678,0.000431,0.304986
88982000,0.0324,0.013523,0.002678,0.000431,0.231531
88983000,0.0324,0.013523,0.002678,0.000431,0.149848
88984000,0.0324,0.013523,0.002678,0.000431,0.112122
88985000,0.0324,0.013523,0.002678,0.000431,0.459770
88986000,0.0324,0.013523,0.002678,0.000431,0.271490
88987000,0.0324,0.013523,0.002678,0.000431,0.106833
88988000,0.0324,0.013523,0.002678,0.000431,0.107421
88989000,0.0324,0.013523,0.002678,0.000431,0.091437
88990000,0.0324,0.013523,0.002678,0.000431,0.077921
88991000,0.0324,0.013523,0.002678,0.000431,0.071105
88992000,0.0324,0.013523,0.002678,0.000431,0.063113
88993000,0.0324,0.013523,0.002678,0.000431,0.053593
88994000,0.0324,0.013523,0.002678,0.000431,0.053828
88995000,0.0324,0.013523,0.002678,0.000431,0.041605
88996000,0.0324,0.013523,0.002678,0.000431,0.036316
88997000,0.0324,0.013523,0.002678,0.000431,0.036081
88998000,0.0324,0.013523,0.002678,0.000431,0.032790
88999000,0.0324,0.013523,0.002678,0.000431,0.025621
