Cycle,Area(mm^2),PeakDynamic(W),SubthresholdLeakage(W),GateLeakage(W),RunTimeDynamic(W)
104000000,0.0324,0.013523,0.002678,0.000431,0.000705
104001000,0.0324,0.013523,0.002678,0.000431,0.000940
104002000,0.0324,0.013523,0.002678,0.000431,0.000940
104003000,0.0324,0.013523,0.002678,0.000431,0.000823
104004000,0.0324,0.013523,0.002678,0.000431,0.000823
104005000,0.0324,0.013523,0.002678,0.000431,0.000940
104006000,0.0324,0.013523,0.002678,0.000431,0.000940
104007000,0.0324,0.013523,0.002678,0.000431,0.160661
104008000,0.0324,0.013523,0.002678,0.000431,0.474931
104009000,0.0324,0.013523,0.002678,0.000431,0.529935
104010000,0.0324,0.013523,0.002678,0.000431,0.135392
104011000,0.0324,0.013523,0.002678,0.000431,0.130809
104012000,0.0324,0.013523,0.002678,0.000431,0.544978
104013000,0.0324,0.013523,0.002678,0.000431,0.236937
104014000,0.0324,0.013523,0.002678,0.000431,0.236584
104015000,0.0324,0.013523,0.002678,0.000431,0.326846
104016000,0.0324,0.013523,0.002678,0.000431,0.144912
104017000,0.0324,0.013523,0.002678,0.000431,0.147498
104018000,0.0324,0.013523,0.002678,0.000431,0.121524
104019000,0.0324,0.013523,0.002678,0.000431,0.282420
104020000,0.0324,0.013523,0.002678,0.000431,0.339656
104021000,0.0324,0.013523,0.002678,0.000431,0.099546
104022000,0.0324,0.013523,0.002678,0.000431,0.078391
104023000,0.0324,0.013523,0.002678,0.000431,0.078979
104024000,0.0324,0.013523,0.002678,0.000431,0.067814
104025000,0.0324,0.013523,0.002678,0.000431,0.060997
104026000,0.0324,0.013523,0.002678,0.000431,0.055356
104027000,0.0324,0.013523,0.002678,0.000431,0.048187
104028000,0.0324,0.013523,0.002678,0.000431,0.050890
104029000,0.0324,0.013523,0.002678,0.000431,0.044191
104030000,0.0324,0.013523,0.002678,0.000431,0.036904
104031000,0.0324,0.013523,0.002678,0.000431,0.034318
104032000,0.0324,0.013523,0.002678,0.000431,0.029970
104033000,0.0324,0.013523,0.002678,0.000431,0.025504
104034000,0.0324,0.013523,0.002678,0.000431,0.024563
104035000,0.0324,0.013523,0.002678,0.000431,0.026796
104036000,0.0324,0.013523,0.002678,0.000431,0.020450
104037000,0.0324,0.013523,0.002678,0.000431,0.022095
104038000,0.0324,0.013523,0.002678,0.000431,0.021625
104039000,0.0324,0.013523,0.002678,0.000431,0.021155
104040000,0.0324,0.013523,0.002678,0.000431,0.023271
104041000,0.0324,0.013523,0.002678,0.000431,0.015631
104042000,0.0324,0.013523,0.002678,0.000431,0.015396
104043000,0.0324,0.013523,0.002678,0.000431,0.015279
104044000,0.0324,0.013523,0.002678,0.000431,0.011518
104045000,0.0324,0.013523,0.002678,0.000431,0.012458
104046000,0.0324,0.013523,0.002678,0.000431,0.015279
104047000,0.0324,0.013523,0.002678,0.000431,0.014456
104048000,0.0324,0.013523,0.002678,0.000431,0.006582
104049000,0.0324,0.013523,0.002678,0.000431,0.007992
104050000,0.0324,0.013523,0.002678,0.000431,0.006229
104051000,0.0324,0.013523,0.002678,0.000431,0.004936
104052000,0.0324,0.013523,0.002678,0.000431,0.006347
104053000,0.0324,0.013523,0.002678,0.000431,0.007639
104054000,0.0324,0.013523,0.002678,0.000431,0.003291
104055000,0.0324,0.013523,0.002678,0.000431,0.003643
104056000,0.0324,0.013523,0.002678,0.000431,0.005524
104057000,0.0324,0.013523,0.002678,0.000431,0.002586
104058000,0.0324,0.013523,0.002678,0.000431,0.002703
104059000,0.0324,0.013523,0.002678,0.000431,0.002351
104060000,0.0324,0.013523,0.002678,0.000431,0.002821
104061000,0.0324,0.013523,0.002678,0.000431,0.002586
104062000,0.0324,0.013523,0.002678,0.000431,0.002586
104063000,0.0324,0.013523,0.002678,0.000431,0.002468
104064000,0.0324,0.013523,0.002678,0.000431,0.002586
104065000,0.0324,0.013523,0.002678,0.000431,0.003761
104066000,0.0324,0.013523,0.002678,0.000431,0.001763
104067000,0.0324,0.013523,0.002678,0.000431,0.001763
104068000,0.0324,0.013523,0.002678,0.000431,0.001528
104069000,0.0324,0.013523,0.002678,0.000431,0.003761
104070000,0.0324,0.013523,0.002678,0.000431,0.000940
104071000,0.0324,0.013523,0.002678,0.000431,0.000823
104072000,0.0324,0.013523,0.002678,0.000431,0.000823
104073000,0.0324,0.013523,0.002678,0.000431,0.000823
104074000,0.0324,0.013523,0.002678,0.000431,0.000705
104075000,0.0324,0.013523,0.002678,0.000431,0.000940
104076000,0.0324,0.013523,0.002678,0.000431,0.000940
104077000,0.0324,0.013523,0.002678,0.000431,0.000705
104078000,0.0324,0.013523,0.002678,0.000431,0.000940
104079000,0.0324,0.013523,0.002678,0.000431,0.000705
104080000,0.0324,0.013523,0.002678,0.000431,0.000940
104081000,0.0324,0.013523,0.002678,0.000431,0.000823
104082000,0.0324,0.013523,0.002678,0.000431,0.000823
104083000,0.0324,0.013523,0.002678,0.000431,0.000940
104084000,0.0324,0.013523,0.002678,0.000431,0.000705
104085000,0.0324,0.013523,0.002678,0.000431,0.000940
104086000,0.0324,0.013523,0.002678,0.000431,0.000823
104087000,0.0324,0.013523,0.002678,0.000431,0.000823
104088000,0.0324,0.013523,0.002678,0.000431,0.000823
104089000,0.0324,0.013523,0.002678,0.000431,0.000823
104090000,0.0324,0.013523,0.002678,0.000431,0.000940
104091000,0.0324,0.013523,0.002678,0.000431,0.000705
104092000,0.0324,0.013523,0.002678,0.000431,0.000940
104093000,0.0324,0.013523,0.002678,0.000431,0.000705
104094000,0.0324,0.013523,0.002678,0.000431,0.000940
104095000,0.0324,0.013523,0.002678,0.000431,0.000823
104096000,0.0324,0.013523,0.002678,0.000431,0.000823
104097000,0.0324,0.013523,0.002678,0.000431,0.000705
104098000,0.0324,0.013523,0.002678,0.000431,0.000940
104099000,0.0324,0.013523,0.002678,0.000431,0.000940
104100000,0.0324,0.013523,0.002678,0.000431,0.000705
104101000,0.0324,0.013523,0.002678,0.000431,0.000940
104102000,0.0324,0.013523,0.002678,0.000431,0.000705
104103000,0.0324,0.013523,0.002678,0.000431,0.000940
104104000,0.0324,0.013523,0.002678,0.000431,0.000823
104105000,0.0324,0.013523,0.002678,0.000431,0.000823
104106000,0.0324,0.013523,0.002678,0.000431,0.000940
104107000,0.0324,0.013523,0.002678,0.000431,0.000705
104108000,0.0324,0.013523,0.002678,0.000431,0.000940
104109000,0.0324,0.013523,0.002678,0.000431,0.000823
104110000,0.0324,0.013523,0.002678,0.000431,0.000823
104111000,0.0324,0.013523,0.002678,0.000431,0.000823
104112000,0.0324,0.013523,0.002678,0.000431,0.000823
104113000,0.0324,0.013523,0.002678,0.000431,0.000823
104114000,0.0324,0.013523,0.002678,0.000431,0.000823
104115000,0.0324,0.013523,0.002678,0.000431,0.000940
104116000,0.0324,0.013523,0.002678,0.000431,0.000705
104117000,0.0324,0.013523,0.002678,0.000431,0.000823
104118000,0.0324,0.013523,0.002678,0.000431,0.000940
104119000,0.0324,0.013523,0.002678,0.000431,0.000823
104120000,0.0324,0.013523,0.002678,0.000431,0.000823
104121000,0.0324,0.013523,0.002678,0.000431,0.000823
104122000,0.0324,0.013523,0.002678,0.000431,0.000823
104123000,0.0324,0.013523,0.002678,0.000431,0.000823
104124000,0.0324,0.013523,0.002678,0.000431,0.000940
104125000,0.0324,0.013523,0.002678,0.000431,0.000823
104126000,0.0324,0.013523,0.002678,0.000431,0.000823
104127000,0.0324,0.013523,0.002678,0.000431,0.000705
104128000,0.0324,0.013523,0.002678,0.000431,0.000940
104129000,0.0324,0.013523,0.002678,0.000431,0.000940
104130000,0.0324,0.013523,0.002678,0.000431,0.000705
104131000,0.0324,0.013523,0.002678,0.000431,0.000940
104132000,0.0324,0.013523,0.002678,0.000431,0.000705
104133000,0.0324,0.013523,0.002678,0.000431,0.000940
104134000,0.0324,0.013523,0.002678,0.000431,0.000823
104135000,0.0324,0.013523,0.002678,0.000431,0.000823
104136000,0.0324,0.013523,0.002678,0.000431,0.000940
104137000,0.0324,0.013523,0.002678,0.000431,0.000705
104138000,0.0324,0.013523,0.002678,0.000431,0.000940
104139000,0.0324,0.013523,0.002678,0.000431,0.000823
104140000,0.0324,0.013523,0.002678,0.000431,0.000823
104141000,0.0324,0.013523,0.002678,0.000431,0.000823
104142000,0.0324,0.013523,0.002678,0.000431,0.000823
104143000,0.0324,0.013523,0.002678,0.000431,0.000705
104144000,0.0324,0.013523,0.002678,0.000431,0.000940
104145000,0.0324,0.013523,0.002678,0.000431,0.000940
104146000,0.0324,0.013523,0.002678,0.000431,0.207555
104147000,0.0324,0.013523,0.002678,0.000431,0.528054
104148000,0.0324,0.013523,0.002678,0.000431,0.475754
104149000,0.0324,0.013523,0.002678,0.000431,0.132337
104150000,0.0324,0.013523,0.002678,0.000431,0.133512
104151000,0.0324,0.013523,0.002678,0.000431,0.573302
104152000,0.0324,0.013523,0.002678,0.000431,0.232823
104153000,0.0324,0.013523,0.002678,0.000431,0.240228
104154000,0.0324,0.013523,0.002678,0.000431,0.302282
104155000,0.0324,0.013523,0.002678,0.000431,0.144090
104156000,0.0324,0.013523,0.002678,0.000431,0.149848
104157000,0.0324,0.013523,0.002678,0.000431,0.108126
104158000,0.0324,0.013523,0.002678,0.000431,0.418400
104159000,0.0324,0.013523,0.002678,0.000431,0.156783
104160000,0.0324,0.013523,0.002678,0.000431,0.053710
104161000,0.0324,0.013523,0.002678,0.000431,0.049949
104162000,0.0324,0.013523,0.002678,0.000431,0.039607
104163000,0.0324,0.013523,0.002678,0.000431,0.033260
104164000,0.0324,0.013523,0.002678,0.000431,0.030675
104165000,0.0324,0.013523,0.002678,0.000431,0.033025
104166000,0.0324,0.013523,0.002678,0.000431,0.021508
104167000,0.0324,0.013523,0.002678,0.000431,0.016689
104168000,0.0324,0.013523,0.002678,0.000431,0.014809
104169000,0.0324,0.013523,0.002678,0.000431,0.019392
104170000,0.0324,0.013523,0.002678,0.000431,0.011635
104171000,0.0324,0.013523,0.002678,0.000431,0.013751
104172000,0.0324,0.013523,0.002678,0.000431,0.012105
104173000,0.0324,0.013523,0.002678,0.000431,0.009520
104174000,0.0324,0.013523,0.002678,0.000431,0.010930
104175000,0.0324,0.013523,0.002678,0.000431,0.008462
104176000,0.0324,0.013523,0.002678,0.000431,0.008227
104177000,0.0324,0.013523,0.002678,0.000431,0.008580
104178000,0.0324,0.013523,0.002678,0.000431,0.011400
104179000,0.0324,0.013523,0.002678,0.000431,0.006817
104180000,0.0324,0.013523,0.002678,0.000431,0.006934
104181000,0.0324,0.013523,0.002678,0.000431,0.005759
104182000,0.0324,0.013523,0.002678,0.000431,0.006347
104183000,0.0324,0.013523,0.002678,0.000431,0.007287
104184000,0.0324,0.013523,0.002678,0.000431,0.006111
104185000,0.0324,0.013523,0.002678,0.000431,0.004466
104186000,0.0324,0.013523,0.002678,0.000431,0.003878
104187000,0.0324,0.013523,0.002678,0.000431,0.004349
104188000,0.0324,0.013523,0.002678,0.000431,0.004466
104189000,0.0324,0.013523,0.002678,0.000431,0.003761
104190000,0.0324,0.013523,0.002678,0.000431,0.004466
104191000,0.0324,0.013523,0.002678,0.000431,0.003878
104192000,0.0324,0.013523,0.002678,0.000431,0.004466
104193000,0.0324,0.013523,0.002678,0.000431,0.003761
104194000,0.0324,0.013523,0.002678,0.000431,0.004231
104195000,0.0324,0.013523,0.002678,0.000431,0.010578
104196000,0.0324,0.013523,0.002678,0.000431,0.001645
104197000,0.0324,0.013523,0.002678,0.000431,0.001880
104198000,0.0324,0.013523,0.002678,0.000431,0.001763
104199000,0.0324,0.013523,0.002678,0.000431,0.001645
104200000,0.0324,0.013523,0.002678,0.000431,0.001763
104201000,0.0324,0.013523,0.002678,0.000431,0.001645
104202000,0.0324,0.013523,0.002678,0.000431,0.001763
104203000,0.0324,0.013523,0.002678,0.000431,0.001528
104204000,0.0324,0.013523,0.002678,0.000431,0.001880
104205000,0.0324,0.013523,0.002678,0.000431,0.002586
104206000,0.0324,0.013523,0.002678,0.000431,0.001998
104207000,0.0324,0.013523,0.002678,0.000431,0.000940
104208000,0.0324,0.013523,0.002678,0.000431,0.000705
104209000,0.0324,0.013523,0.002678,0.000431,0.000940
104210000,0.0324,0.013523,0.002678,0.000431,0.000823
104211000,0.0324,0.013523,0.002678,0.000431,0.000823
104212000,0.0324,0.013523,0.002678,0.000431,0.000823
104213000,0.0324,0.013523,0.002678,0.000431,0.000823
104214000,0.0324,0.013523,0.002678,0.000431,0.000823
104215000,0.0324,0.013523,0.002678,0.000431,0.000823
104216000,0.0324,0.013523,0.002678,0.000431,0.000940
104217000,0.0324,0.013523,0.002678,0.000431,0.000823
104218000,0.0324,0.013523,0.002678,0.000431,0.000705
104219000,0.0324,0.013523,0.002678,0.000431,0.000940
104220000,0.0324,0.013523,0.002678,0.000431,0.000823
104221000,0.0324,0.013523,0.002678,0.000431,0.000823
104222000,0.0324,0.013523,0.002678,0.000431,0.000823
104223000,0.0324,0.013523,0.002678,0.000431,0.000823
104224000,0.0324,0.013523,0.002678,0.000431,0.000823
104225000,0.0324,0.013523,0.002678,0.000431,0.000940
104226000,0.0324,0.013523,0.002678,0.000431,0.000823
104227000,0.0324,0.013523,0.002678,0.000431,0.000823
104228000,0.0324,0.013523,0.002678,0.000431,0.000705
104229000,0.0324,0.013523,0.002678,0.000431,0.000940
104230000,0.0324,0.013523,0.002678,0.000431,0.000940
104231000,0.0324,0.013523,0.002678,0.000431,0.000705
104232000,0.0324,0.013523,0.002678,0.000431,0.000940
104233000,0.0324,0.013523,0.002678,0.000431,0.000705
104234000,0.0324,0.013523,0.002678,0.000431,0.000940
104235000,0.0324,0.013523,0.002678,0.000431,0.000823
104236000,0.0324,0.013523,0.002678,0.000431,0.000823
104237000,0.0324,0.013523,0.002678,0.000431,0.000940
104238000,0.0324,0.013523,0.002678,0.000431,0.001410
104239000,0.0324,0.013523,0.002678,0.000431,0.265849
104240000,0.0324,0.013523,0.002678,0.000431,0.621724
104241000,0.0324,0.013523,0.002678,0.000431,0.280540
104242000,0.0324,0.013523,0.002678,0.000431,0.131632
104243000,0.0324,0.013523,0.002678,0.000431,0.133982
104244000,0.0324,0.013523,0.002678,0.000431,0.612557
104245000,0.0324,0.013523,0.002678,0.000431,0.251628
104246000,0.0324,0.013523,0.002678,0.000431,0.274898
104247000,0.0324,0.013523,0.002678,0.000431,0.275016
104248000,0.0324,0.013523,0.002678,0.000431,0.143384
104249000,0.0324,0.013523,0.002678,0.000431,0.157253
104250000,0.0324,0.013523,0.002678,0.000431,0.127753
104251000,0.0324,0.013523,0.002678,0.000431,0.470700
104252000,0.0324,0.013523,0.002678,0.000431,0.103072
104253000,0.0324,0.013523,0.002678,0.000431,0.080859
104254000,0.0324,0.013523,0.002678,0.000431,0.066168
104255000,0.0324,0.013523,0.002678,0.000431,0.039960
104256000,0.0324,0.013523,0.002678,0.000431,0.043133
104257000,0.0324,0.013523,0.002678,0.000431,0.036904
104258000,0.0324,0.013523,0.002678,0.000431,0.026561
104259000,0.0324,0.013523,0.002678,0.000431,0.030087
104260000,0.0324,0.013523,0.002678,0.000431,0.023036
104261000,0.0324,0.013523,0.002678,0.000431,0.017747
104262000,0.0324,0.013523,0.002678,0.000431,0.025621
104263000,0.0324,0.013523,0.002678,0.000431,0.016924
104264000,0.0324,0.013523,0.002678,0.000431,0.013046
104265000,0.0324,0.013523,0.002678,0.000431,0.010225
104266000,0.0324,0.013523,0.002678,0.000431,0.010813
104267000,0.0324,0.013523,0.002678,0.000431,0.009990
104268000,0.0324,0.013523,0.002678,0.000431,0.008697
104269000,0.0324,0.013523,0.002678,0.000431,0.010107
104270000,0.0324,0.013523,0.002678,0.000431,0.011988
104271000,0.0324,0.013523,0.002678,0.000431,0.006934
104272000,0.0324,0.013523,0.002678,0.000431,0.007757
104273000,0.0324,0.013523,0.002678,0.000431,0.007287
104274000,0.0324,0.013523,0.002678,0.000431,0.008227
104275000,0.0324,0.013523,0.002678,0.000431,0.006934
104276000,0.0324,0.013523,0.002678,0.000431,0.006111
104277000,0.0324,0.013523,0.002678,0.000431,0.004819
104278000,0.0324,0.013523,0.002678,0.000431,0.005171
104279000,0.0324,0.013523,0.002678,0.000431,0.005406
104280000,0.0324,0.013523,0.002678,0.000431,0.005054
104281000,0.0324,0.013523,0.002678,0.000431,0.005054
104282000,0.0324,0.013523,0.002678,0.000431,0.005406
104283000,0.0324,0.013523,0.002678,0.000431,0.005054
104284000,0.0324,0.013523,0.002678,0.000431,0.005289
104285000,0.0324,0.013523,0.002678,0.000431,0.004936
104286000,0.0324,0.013523,0.002678,0.000431,0.005289
104287000,0.0324,0.013523,0.002678,0.000431,0.005289
104288000,0.0324,0.013523,0.002678,0.000431,0.004936
104289000,0.0324,0.013523,0.002678,0.000431,0.005171
104290000,0.0324,0.013523,0.002678,0.000431,0.005406
104291000,0.0324,0.013523,0.002678,0.000431,0.005171
104292000,0.0324,0.013523,0.002678,0.000431,0.005054
104293000,0.0324,0.013523,0.002678,0.000431,0.005171
104294000,0.0324,0.013523,0.002678,0.000431,0.005289
104295000,0.0324,0.013523,0.002678,0.000431,0.005054
104296000,0.0324,0.013523,0.002678,0.000431,0.004936
104297000,0.0324,0.013523,0.002678,0.000431,0.005289
104298000,0.0324,0.013523,0.002678,0.000431,0.006347
104299000,0.0324,0.013523,0.002678,0.000431,0.005876
104300000,0.0324,0.013523,0.002678,0.000431,0.002468
104301000,0.0324,0.013523,0.002678,0.000431,0.002821
104302000,0.0324,0.013523,0.002678,0.000431,0.002351
104303000,0.0324,0.013523,0.002678,0.000431,0.002703
104304000,0.0324,0.013523,0.002678,0.000431,0.002703
104305000,0.0324,0.013523,0.002678,0.000431,0.002586
104306000,0.0324,0.013523,0.002678,0.000431,0.002586
104307000,0.0324,0.013523,0.002678,0.000431,0.002351
104308000,0.0324,0.013523,0.002678,0.000431,0.002821
104309000,0.0324,0.013523,0.002678,0.000431,0.002703
104310000,0.0324,0.013523,0.002678,0.000431,0.002351
104311000,0.0324,0.013523,0.002678,0.000431,0.002586
104312000,0.0324,0.013523,0.002678,0.000431,0.002703
104313000,0.0324,0.013523,0.002678,0.000431,0.002821
104314000,0.0324,0.013523,0.002678,0.000431,0.002233
104315000,0.0324,0.013523,0.002678,0.000431,0.002703
104316000,0.0324,0.013523,0.002678,0.000431,0.002703
104317000,0.0324,0.013523,0.002678,0.000431,0.002586
104318000,0.0324,0.013523,0.002678,0.000431,0.002468
104319000,0.0324,0.013523,0.002678,0.000431,0.002586
104320000,0.0324,0.013523,0.002678,0.000431,0.002821
104321000,0.0324,0.013523,0.002678,0.000431,0.002351
104322000,0.0324,0.013523,0.002678,0.000431,0.002586
104323000,0.0324,0.013523,0.002678,0.000431,0.002703
104324000,0.0324,0.013523,0.002678,0.000431,0.003526
104325000,0.0324,0.013523,0.002678,0.000431,0.001645
104326000,0.0324,0.013523,0.002678,0.000431,0.001763
104327000,0.0324,0.013523,0.002678,0.000431,0.001763
104328000,0.0324,0.013523,0.002678,0.000431,0.001645
104329000,0.0324,0.013523,0.002678,0.000431,0.003056
104330000,0.0324,0.013523,0.002678,0.000431,0.002586
104331000,0.0324,0.013523,0.002678,0.000431,0.000823
104332000,0.0324,0.013523,0.002678,0.000431,0.000940
104333000,0.0324,0.013523,0.002678,0.000431,0.000823
104334000,0.0324,0.013523,0.002678,0.000431,0.000823
104335000,0.0324,0.013523,0.002678,0.000431,0.000940
104336000,0.0324,0.013523,0.002678,0.000431,0.000940
104337000,0.0324,0.013523,0.002678,0.000431,0.000823
104338000,0.0324,0.013523,0.002678,0.000431,0.000823
104339000,0.0324,0.013523,0.002678,0.000431,0.000940
104340000,0.0324,0.013523,0.002678,0.000431,0.000940
104341000,0.0324,0.013523,0.002678,0.000431,0.000823
104342000,0.0324,0.013523,0.002678,0.000431,0.000823
104343000,0.0324,0.013523,0.002678,0.000431,0.000940
104344000,0.0324,0.013523,0.002678,0.000431,0.000823
104345000,0.0324,0.013523,0.002678,0.000431,0.000940
104346000,0.0324,0.013523,0.002678,0.000431,0.000823
104347000,0.0324,0.013523,0.002678,0.000431,0.000940
104348000,0.0324,0.013523,0.002678,0.000431,0.000823
104349000,0.0324,0.013523,0.002678,0.000431,0.000823
104350000,0.0324,0.013523,0.002678,0.000431,0.000940
104351000,0.0324,0.013523,0.002678,0.000431,0.001645
104352000,0.0324,0.013523,0.002678,0.000431,0.292528
104353000,0.0324,0.013523,0.002678,0.000431,0.646875
104354000,0.0324,0.013523,0.002678,0.000431,0.282655
104355000,0.0324,0.013523,0.002678,0.000431,0.131632
104356000,0.0324,0.013523,0.002678,0.000431,0.156077
104357000,0.0324,0.013523,0.002678,0.000431,0.604330
104358000,0.0324,0.013523,0.002678,0.000431,0.259972
104359000,0.0324,0.013523,0.002678,0.000431,0.306161
104360000,0.0324,0.013523,0.002678,0.000431,0.240228
104361000,0.0324,0.013523,0.002678,0.000431,0.135980
104362000,0.0324,0.013523,0.002678,0.000431,0.128693
104363000,0.0324,0.013523,0.002678,0.000431,0.237642
104364000,0.0324,0.013523,0.002678,0.000431,0.381614
104365000,0.0324,0.013523,0.002678,0.000431,0.104012
104366000,0.0324,0.013523,0.002678,0.000431,0.098606
104367000,0.0324,0.013523,0.002678,0.000431,0.078861
104368000,0.0324,0.013523,0.002678,0.000431,0.075571
104369000,0.0324,0.013523,0.002678,0.000431,0.059822
104370000,0.0324,0.013523,0.002678,0.000431,0.055238
104371000,0.0324,0.013523,0.002678,0.000431,0.049009
104372000,0.0324,0.013523,0.002678,0.000431,0.041723
104373000,0.0324,0.013523,0.002678,0.000431,0.038784
104374000,0.0324,0.013523,0.002678,0.000431,0.027972
104375000,0.0324,0.013523,0.002678,0.000431,0.025269
104376000,0.0324,0.013523,0.002678,0.000431,0.031262
104377000,0.0324,0.013523,0.002678,0.000431,0.020685
104378000,0.0324,0.013523,0.002678,0.000431,0.021038
104379000,0.0324,0.013523,0.002678,0.000431,0.022918
104380000,0.0324,0.013523,0.002678,0.000431,0.021155
104381000,0.0324,0.013523,0.002678,0.000431,0.019157
104382000,0.0324,0.013523,0.002678,0.000431,0.015044
104383000,0.0324,0.013523,0.002678,0.000431,0.019040
104384000,0.0324,0.013523,0.002678,0.000431,0.015161
104385000,0.0324,0.013523,0.002678,0.000431,0.015866
104386000,0.0324,0.013523,0.002678,0.000431,0.012576
104387000,0.0324,0.013523,0.002678,0.000431,0.009520
104388000,0.0324,0.013523,0.002678,0.000431,0.015044
104389000,0.0324,0.013523,0.002678,0.000431,0.007757
104390000,0.0324,0.013523,0.002678,0.000431,0.008697
104391000,0.0324,0.013523,0.002678,0.000431,0.010342
104392000,0.0324,0.013523,0.002678,0.000431,0.008580
104393000,0.0324,0.013523,0.002678,0.000431,0.007169
104394000,0.0324,0.013523,0.002678,0.000431,0.005524
104395000,0.0324,0.013523,0.002678,0.000431,0.005524
104396000,0.0324,0.013523,0.002678,0.000431,0.005524
104397000,0.0324,0.013523,0.002678,0.000431,0.005524
104398000,0.0324,0.013523,0.002678,0.000431,0.006229
104399000,0.0324,0.013523,0.002678,0.000431,0.003996
104400000,0.0324,0.013523,0.002678,0.000431,0.004349
104401000,0.0324,0.013523,0.002678,0.000431,0.003761
104402000,0.0324,0.013523,0.002678,0.000431,0.004349
104403000,0.0324,0.013523,0.002678,0.000431,0.003408
104404000,0.0324,0.013523,0.002678,0.000431,0.003291
104405000,0.0324,0.013523,0.002678,0.000431,0.003173
104406000,0.0324,0.013523,0.002678,0.000431,0.003643
104407000,0.0324,0.013523,0.002678,0.000431,0.003526
104408000,0.0324,0.013523,0.002678,0.000431,0.003056
104409000,0.0324,0.013523,0.002678,0.000431,0.003761
104410000,0.0324,0.013523,0.002678,0.000431,0.003056
104411000,0.0324,0.013523,0.002678,0.000431,0.003643
104412000,0.0324,0.013523,0.002678,0.000431,0.003291
104413000,0.0324,0.013523,0.002678,0.000431,0.003408
104414000,0.0324,0.013523,0.002678,0.000431,0.003408
104415000,0.0324,0.013523,0.002678,0.000431,0.003173
104416000,0.0324,0.013523,0.002678,0.000431,0.003761
104417000,0.0324,0.013523,0.002678,0.000431,0.003291
104418000,0.0324,0.013523,0.002678,0.000431,0.003408
104419000,0.0324,0.013523,0.002678,0.000431,0.003173
104420000,0.0324,0.013523,0.002678,0.000431,0.003526
104421000,0.0324,0.013523,0.002678,0.000431,0.003291
104422000,0.0324,0.013523,0.002678,0.000431,0.003408
104423000,0.0324,0.013523,0.002678,0.000431,0.003526
104424000,0.0324,0.013523,0.002678,0.000431,0.003173
104425000,0.0324,0.013523,0.002678,0.000431,0.003761
104426000,0.0324,0.013523,0.002678,0.000431,0.003056
104427000,0.0324,0.013523,0.002678,0.000431,0.003526
104428000,0.0324,0.013523,0.002678,0.000431,0.003408
104429000,0.0324,0.013523,0.002678,0.000431,0.003291
104430000,0.0324,0.013523,0.002678,0.000431,0.003526
104431000,0.0324,0.013523,0.002678,0.000431,0.003173
104432000,0.0324,0.013523,0.002678,0.000431,0.003526
104433000,0.0324,0.013523,0.002678,0.000431,0.006464
104434000,0.0324,0.013523,0.002678,0.000431,0.002821
104435000,0.0324,0.013523,0.002678,0.000431,0.001763
104436000,0.0324,0.013523,0.002678,0.000431,0.001880
104437000,0.0324,0.013523,0.002678,0.000431,0.001763
104438000,0.0324,0.013523,0.002678,0.000431,0.001763
104439000,0.0324,0.013523,0.002678,0.000431,0.001763
104440000,0.0324,0.013523,0.002678,0.000431,0.001763
104441000,0.0324,0.013523,0.002678,0.000431,0.001645
104442000,0.0324,0.013523,0.002678,0.000431,0.003526
104443000,0.0324,0.013523,0.002678,0.000431,0.001058
104444000,0.0324,0.013523,0.002678,0.000431,0.000940
104445000,0.0324,0.013523,0.002678,0.000431,0.000705
104446000,0.0324,0.013523,0.002678,0.000431,0.000940
104447000,0.0324,0.013523,0.002678,0.000431,0.000940
104448000,0.0324,0.013523,0.002678,0.000431,0.000823
104449000,0.0324,0.013523,0.002678,0.000431,0.000940
104450000,0.0324,0.013523,0.002678,0.000431,0.000823
104451000,0.0324,0.013523,0.002678,0.000431,0.000940
104452000,0.0324,0.013523,0.002678,0.000431,0.000823
104453000,0.0324,0.013523,0.002678,0.000431,0.000823
104454000,0.0324,0.013523,0.002678,0.000431,0.000940
104455000,0.0324,0.013523,0.002678,0.000431,0.000823
104456000,0.0324,0.013523,0.002678,0.000431,0.000823
104457000,0.0324,0.013523,0.002678,0.000431,0.000940
104458000,0.0324,0.013523,0.002678,0.000431,0.000940
104459000,0.0324,0.013523,0.002678,0.000431,0.000940
104460000,0.0324,0.013523,0.002678,0.000431,0.000705
104461000,0.0324,0.013523,0.002678,0.000431,0.000940
104462000,0.0324,0.013523,0.002678,0.000431,0.000940
104463000,0.0324,0.013523,0.002678,0.000431,0.000823
104464000,0.0324,0.013523,0.002678,0.000431,0.000823
104465000,0.0324,0.013523,0.002678,0.000431,0.000940
104466000,0.0324,0.013523,0.002678,0.000431,0.000940
104467000,0.0324,0.013523,0.002678,0.000431,0.000823
104468000,0.0324,0.013523,0.002678,0.000431,0.000823
104469000,0.0324,0.013523,0.002678,0.000431,0.001058
104470000,0.0324,0.013523,0.002678,0.000431,0.000823
104471000,0.0324,0.013523,0.002678,0.000431,0.000940
104472000,0.0324,0.013523,0.002678,0.000431,0.000823
104473000,0.0324,0.013523,0.002678,0.000431,0.000823
104474000,0.0324,0.013523,0.002678,0.000431,0.000940
104475000,0.0324,0.013523,0.002678,0.000431,0.071105
104476000,0.0324,0.013523,0.002678,0.000431,0.515479
104477000,0.0324,0.013523,0.002678,0.000431,0.603037
104478000,0.0324,0.013523,0.002678,0.000431,0.131632
104479000,0.0324,0.013523,0.002678,0.000431,0.133982
104480000,0.0324,0.013523,0.002678,0.000431,0.540865
104481000,0.0324,0.013523,0.002678,0.000431,0.239287
104482000,0.0324,0.013523,0.002678,0.000431,0.238465
104483000,0.0324,0.013523,0.002678,0.000431,0.332840
104484000,0.0324,0.013523,0.002678,0.000431,0.142327
104485000,0.0324,0.013523,0.002678,0.000431,0.145735
104486000,0.0324,0.013523,0.002678,0.000431,0.122464
104487000,0.0324,0.013523,0.002678,0.000431,0.315446
104488000,0.0324,0.013523,0.002678,0.000431,0.304868
104489000,0.0324,0.013523,0.002678,0.000431,0.075453
104490000,0.0324,0.013523,0.002678,0.000431,0.075101
104491000,0.0324,0.013523,0.002678,0.000431,0.055826
104492000,0.0324,0.013523,0.002678,0.000431,0.048774
104493000,0.0324,0.013523,0.002678,0.000431,0.048892
104494000,0.0324,0.013523,0.002678,0.000431,0.040077
104495000,0.0324,0.013523,0.002678,0.000431,0.037727
104496000,0.0324,0.013523,0.002678,0.000431,0.032790
104497000,0.0324,0.013523,0.002678,0.000431,0.033966
104498000,0.0324,0.013523,0.002678,0.000431,0.031968
104499000,0.0324,0.013523,0.002678,0.000431,0.029382
104500000,0.0324,0.013523,0.002678,0.000431,0.026796
104501000,0.0324,0.013523,0.002678,0.000431,0.021860
104502000,0.0324,0.013523,0.002678,0.000431,0.023623
104503000,0.0324,0.013523,0.002678,0.000431,0.018334
104504000,0.0324,0.013523,0.002678,0.000431,0.018334
104505000,0.0324,0.013523,0.002678,0.000431,0.019392
104506000,0.0324,0.013523,0.002678,0.000431,0.021625
104507000,0.0324,0.013523,0.002678,0.000431,0.015514
104508000,0.0324,0.013523,0.002678,0.000431,0.013633
104509000,0.0324,0.013523,0.002678,0.000431,0.011048
104510000,0.0324,0.013523,0.002678,0.000431,0.010695
104511000,0.0324,0.013523,0.002678,0.000431,0.012693
104512000,0.0324,0.013523,0.002678,0.000431,0.010342
104513000,0.0324,0.013523,0.002678,0.000431,0.009990
104514000,0.0324,0.013523,0.002678,0.000431,0.010695
104515000,0.0324,0.013523,0.002678,0.000431,0.012458
104516000,0.0324,0.013523,0.002678,0.000431,0.009637
104517000,0.0324,0.013523,0.002678,0.000431,0.008815
104518000,0.0324,0.013523,0.002678,0.000431,0.010695
104519000,0.0324,0.013523,0.002678,0.000431,0.007992
104520000,0.0324,0.013523,0.002678,0.000431,0.006699
104521000,0.0324,0.013523,0.002678,0.000431,0.008109
104522000,0.0324,0.013523,0.002678,0.000431,0.006934
104523000,0.0324,0.013523,0.002678,0.000431,0.005994
104524000,0.0324,0.013523,0.002678,0.000431,0.006111
104525000,0.0324,0.013523,0.002678,0.000431,0.004701
104526000,0.0324,0.013523,0.002678,0.000431,0.004819
104527000,0.0324,0.013523,0.002678,0.000431,0.004936
104528000,0.0324,0.013523,0.002678,0.000431,0.005406
104529000,0.0324,0.013523,0.002678,0.000431,0.004819
104530000,0.0324,0.013523,0.002678,0.000431,0.004584
104531000,0.0324,0.013523,0.002678,0.000431,0.005524
104532000,0.0324,0.013523,0.002678,0.000431,0.004819
104533000,0.0324,0.013523,0.002678,0.000431,0.004819
104534000,0.0324,0.013523,0.002678,0.000431,0.004936
104535000,0.0324,0.013523,0.002678,0.000431,0.005289
104536000,0.0324,0.013523,0.002678,0.000431,0.004936
104537000,0.0324,0.013523,0.002678,0.000431,0.004466
104538000,0.0324,0.013523,0.002678,0.000431,0.005171
104539000,0.0324,0.013523,0.002678,0.000431,0.005171
104540000,0.0324,0.013523,0.002678,0.000431,0.005171
104541000,0.0324,0.013523,0.002678,0.000431,0.004701
104542000,0.0324,0.013523,0.002678,0.000431,0.007639
104543000,0.0324,0.013523,0.002678,0.000431,0.002468
104544000,0.0324,0.013523,0.002678,0.000431,0.002586
104545000,0.0324,0.013523,0.002678,0.000431,0.002586
104546000,0.0324,0.013523,0.002678,0.000431,0.002468
104547000,0.0324,0.013523,0.002678,0.000431,0.002703
104548000,0.0324,0.013523,0.002678,0.000431,0.002351
104549000,0.0324,0.013523,0.002678,0.000431,0.002703
104550000,0.0324,0.013523,0.002678,0.000431,0.002586
104551000,0.0324,0.013523,0.002678,0.000431,0.002586
104552000,0.0324,0.013523,0.002678,0.000431,0.002468
104553000,0.0324,0.013523,0.002678,0.000431,0.002586
104554000,0.0324,0.013523,0.002678,0.000431,0.002468
104555000,0.0324,0.013523,0.002678,0.000431,0.003643
104556000,0.0324,0.013523,0.002678,0.000431,0.001645
104557000,0.0324,0.013523,0.002678,0.000431,0.004701
104558000,0.0324,0.013523,0.002678,0.000431,0.000823
104559000,0.0324,0.013523,0.002678,0.000431,0.000940
104560000,0.0324,0.013523,0.002678,0.000431,0.000823
104561000,0.0324,0.013523,0.002678,0.000431,0.000823
104562000,0.0324,0.013523,0.002678,0.000431,0.000823
104563000,0.0324,0.013523,0.002678,0.000431,0.000823
104564000,0.0324,0.013523,0.002678,0.000431,0.000823
104565000,0.0324,0.013523,0.002678,0.000431,0.000823
104566000,0.0324,0.013523,0.002678,0.000431,0.000823
104567000,0.0324,0.013523,0.002678,0.000431,0.000823
104568000,0.0324,0.013523,0.002678,0.000431,0.000940
104569000,0.0324,0.013523,0.002678,0.000431,0.000823
104570000,0.0324,0.013523,0.002678,0.000431,0.000823
104571000,0.0324,0.013523,0.002678,0.000431,0.000705
104572000,0.0324,0.013523,0.002678,0.000431,0.000940
104573000,0.0324,0.013523,0.002678,0.000431,0.000940
104574000,0.0324,0.013523,0.002678,0.000431,0.000705
104575000,0.0324,0.013523,0.002678,0.000431,0.000940
104576000,0.0324,0.013523,0.002678,0.000431,0.000705
104577000,0.0324,0.013523,0.002678,0.000431,0.000940
104578000,0.0324,0.013523,0.002678,0.000431,0.000823
104579000,0.0324,0.013523,0.002678,0.000431,0.000823
104580000,0.0324,0.013523,0.002678,0.000431,0.000940
104581000,0.0324,0.013523,0.002678,0.000431,0.000705
104582000,0.0324,0.013523,0.002678,0.000431,0.000940
104583000,0.0324,0.013523,0.002678,0.000431,0.000823
104584000,0.0324,0.013523,0.002678,0.000431,0.000823
104585000,0.0324,0.013523,0.002678,0.000431,0.000823
104586000,0.0324,0.013523,0.002678,0.000431,0.000823
104587000,0.0324,0.013523,0.002678,0.000431,0.000823
104588000,0.0324,0.013523,0.002678,0.000431,0.000823
104589000,0.0324,0.013523,0.002678,0.000431,0.000940
104590000,0.0324,0.013523,0.002678,0.000431,0.000705
104591000,0.0324,0.013523,0.002678,0.000431,0.000940
104592000,0.0324,0.013523,0.002678,0.000431,0.000823
104593000,0.0324,0.013523,0.002678,0.000431,0.000823
104594000,0.0324,0.013523,0.002678,0.000431,0.000705
104595000,0.0324,0.013523,0.002678,0.000431,0.000940
104596000,0.0324,0.013523,0.002678,0.000431,0.000940
104597000,0.0324,0.013523,0.002678,0.000431,0.000705
104598000,0.0324,0.013523,0.002678,0.000431,0.000940
104599000,0.0324,0.013523,0.002678,0.000431,0.000705
104600000,0.0324,0.013523,0.002678,0.000431,0.000940
104601000,0.0324,0.013523,0.002678,0.000431,0.000823
104602000,0.0324,0.013523,0.002678,0.000431,0.000823
104603000,0.0324,0.013523,0.002678,0.000431,0.000940
104604000,0.0324,0.013523,0.002678,0.000431,0.000705
104605000,0.0324,0.013523,0.002678,0.000431,0.000940
104606000,0.0324,0.013523,0.002678,0.000431,0.000705
104607000,0.0324,0.013523,0.002678,0.000431,0.000940
104608000,0.0324,0.013523,0.002678,0.000431,0.000823
104609000,0.0324,0.013523,0.002678,0.000431,0.000823
104610000,0.0324,0.013523,0.002678,0.000431,0.000823
104611000,0.0324,0.013523,0.002678,0.000431,0.000823
104612000,0.0324,0.013523,0.002678,0.000431,0.000940
104613000,0.0324,0.013523,0.002678,0.000431,0.000705
104614000,0.0324,0.013523,0.002678,0.000431,0.000823
104615000,0.0324,0.013523,0.002678,0.000431,0.000940
104616000,0.0324,0.013523,0.002678,0.000431,0.000823
104617000,0.0324,0.013523,0.002678,0.000431,0.000823
104618000,0.0324,0.013523,0.002678,0.000431,0.000823
104619000,0.0324,0.013523,0.002678,0.000431,0.000705
104620000,0.0324,0.013523,0.002678,0.000431,0.000940
104621000,0.0324,0.013523,0.002678,0.000431,0.000940
104622000,0.0324,0.013523,0.002678,0.000431,0.000705
104623000,0.0324,0.013523,0.002678,0.000431,0.067344
104624000,0.0324,0.013523,0.002678,0.000431,0.479515
104625000,0.0324,0.013523,0.002678,0.000431,0.605153
104626000,0.0324,0.013523,0.002678,0.000431,0.132572
104627000,0.0324,0.013523,0.002678,0.000431,0.133512
104628000,0.0324,0.013523,0.002678,0.000431,0.559669
104629000,0.0324,0.013523,0.002678,0.000431,0.237407
104630000,0.0324,0.013523,0.002678,0.000431,0.275839
104631000,0.0324,0.013523,0.002678,0.000431,0.326728
104632000,0.0324,0.013523,0.002678,0.000431,0.144207
104633000,0.0324,0.013523,0.002678,0.000431,0.153962
104634000,0.0324,0.013523,0.002678,0.000431,0.107421
104635000,0.0324,0.013523,0.002678,0.000431,0.418518
104636000,0.0324,0.013523,0.002678,0.000431,0.235409
104637000,0.0324,0.013523,0.002678,0.000431,0.129751
104638000,0.0324,0.013523,0.002678,0.000431,0.101309
104639000,0.0324,0.013523,0.002678,0.000431,0.087088
104640000,0.0324,0.013523,0.002678,0.000431,0.079919
104641000,0.0324,0.013523,0.002678,0.000431,0.068166
104642000,0.0324,0.013523,0.002678,0.000431,0.065228
104643000,0.0324,0.013523,0.002678,0.000431,0.046306
104644000,0.0324,0.013523,0.002678,0.000431,0.039725
104645000,0.0324,0.013523,0.002678,0.000431,0.036551
104646000,0.0324,0.013523,0.002678,0.000431,0.028912
104647000,0.0324,0.013523,0.002678,0.000431,0.024798
104648000,0.0324,0.013523,0.002678,0.000431,0.024328
104649000,0.0324,0.013523,0.002678,0.000431,0.019627
104650000,0.0324,0.013523,0.002678,0.000431,0.020332
104651000,0.0324,0.013523,0.002678,0.000431,0.022095
104652000,0.0324,0.013523,0.002678,0.000431,0.020097
104653000,0.0324,0.013523,0.002678,0.000431,0.015984
104654000,0.0324,0.013523,0.002678,0.000431,0.013633
104655000,0.0324,0.013523,0.002678,0.000431,0.015396
104656000,0.0324,0.013523,0.002678,0.000431,0.014809
104657000,0.0324,0.013523,0.002678,0.000431,0.014338
104658000,0.0324,0.013523,0.002678,0.000431,0.013046
104659000,0.0324,0.013523,0.002678,0.000431,0.012340
104660000,0.0324,0.013523,0.002678,0.000431,0.009285
104661000,0.0324,0.013523,0.002678,0.000431,0.007992
104662000,0.0324,0.013523,0.002678,0.000431,0.009050
104663000,0.0324,0.013523,0.002678,0.000431,0.004349
104664000,0.0324,0.013523,0.002678,0.000431,0.005759
104665000,0.0324,0.013523,0.002678,0.000431,0.003173
104666000,0.0324,0.013523,0.002678,0.000431,0.003643
104667000,0.0324,0.013523,0.002678,0.000431,0.003643
104668000,0.0324,0.013523,0.002678,0.000431,0.003291
104669000,0.0324,0.013523,0.002678,0.000431,0.003761
104670000,0.0324,0.013523,0.002678,0.000431,0.003408
104671000,0.0324,0.013523,0.002678,0.000431,0.003643
104672000,0.0324,0.013523,0.002678,0.000431,0.004936
104673000,0.0324,0.013523,0.002678,0.000431,0.005289
104674000,0.0324,0.013523,0.002678,0.000431,0.001645
104675000,0.0324,0.013523,0.002678,0.000431,0.001645
104676000,0.0324,0.013523,0.002678,0.000431,0.001763
104677000,0.0324,0.013523,0.002678,0.000431,0.001528
104678000,0.0324,0.013523,0.002678,0.000431,0.001763
104679000,0.0324,0.013523,0.002678,0.000431,0.001645
104680000,0.0324,0.013523,0.002678,0.000431,0.001645
104681000,0.0324,0.013523,0.002678,0.000431,0.001763
104682000,0.0324,0.013523,0.002678,0.000431,0.001528
104683000,0.0324,0.013523,0.002678,0.000431,0.001880
104684000,0.0324,0.013523,0.002678,0.000431,0.001645
104685000,0.0324,0.013523,0.002678,0.000431,0.001645
104686000,0.0324,0.013523,0.002678,0.000431,0.001645
104687000,0.0324,0.013523,0.002678,0.000431,0.001528
104688000,0.0324,0.013523,0.002678,0.000431,0.001763
104689000,0.0324,0.013523,0.002678,0.000431,0.001763
104690000,0.0324,0.013523,0.002678,0.000431,0.001645
104691000,0.0324,0.013523,0.002678,0.000431,0.001645
104692000,0.0324,0.013523,0.002678,0.000431,0.001528
104693000,0.0324,0.013523,0.002678,0.000431,0.001880
104694000,0.0324,0.013523,0.002678,0.000431,0.001645
104695000,0.0324,0.013523,0.002678,0.000431,0.001645
104696000,0.0324,0.013523,0.002678,0.000431,0.001763
104697000,0.0324,0.013523,0.002678,0.000431,0.001528
104698000,0.0324,0.013523,0.002678,0.000431,0.001763
104699000,0.0324,0.013523,0.002678,0.000431,0.001763
104700000,0.0324,0.013523,0.002678,0.000431,0.001528
104701000,0.0324,0.013523,0.002678,0.000431,0.001763
104702000,0.0324,0.013523,0.002678,0.000431,0.001528
104703000,0.0324,0.013523,0.002678,0.000431,0.001880
104704000,0.0324,0.013523,0.002678,0.000431,0.001763
104705000,0.0324,0.013523,0.002678,0.000431,0.001528
104706000,0.0324,0.013523,0.002678,0.000431,0.001763
104707000,0.0324,0.013523,0.002678,0.000431,0.001528
104708000,0.0324,0.013523,0.002678,0.000431,0.001880
104709000,0.0324,0.013523,0.002678,0.000431,0.001528
104710000,0.0324,0.013523,0.002678,0.000431,0.001763
104711000,0.0324,0.013523,0.002678,0.000431,0.001645
104712000,0.0324,0.013523,0.002678,0.000431,0.001645
104713000,0.0324,0.013523,0.002678,0.000431,0.001645
104714000,0.0324,0.013523,0.002678,0.000431,0.001645
104715000,0.0324,0.013523,0.002678,0.000431,0.001880
104716000,0.0324,0.013523,0.002678,0.000431,0.001528
104717000,0.0324,0.013523,0.002678,0.000431,0.001763
104718000,0.0324,0.013523,0.002678,0.000431,0.001528
104719000,0.0324,0.013523,0.002678,0.000431,0.001763
104720000,0.0324,0.013523,0.002678,0.000431,0.001645
104721000,0.0324,0.013523,0.002678,0.000431,0.001645
104722000,0.0324,0.013523,0.002678,0.000431,0.001763
104723000,0.0324,0.013523,0.002678,0.000431,0.001528
104724000,0.0324,0.013523,0.002678,0.000431,0.001880
104725000,0.0324,0.013523,0.002678,0.000431,0.001528
104726000,0.0324,0.013523,0.002678,0.000431,0.001763
104727000,0.0324,0.013523,0.002678,0.000431,0.004113
104728000,0.0324,0.013523,0.002678,0.000431,0.000705
104729000,0.0324,0.013523,0.002678,0.000431,0.000940
104730000,0.0324,0.013523,0.002678,0.000431,0.000705
104731000,0.0324,0.013523,0.002678,0.000431,0.000940
104732000,0.0324,0.013523,0.002678,0.000431,0.000823
104733000,0.0324,0.013523,0.002678,0.000431,0.000823
104734000,0.0324,0.013523,0.002678,0.000431,0.000823
104735000,0.0324,0.013523,0.002678,0.000431,0.000823
104736000,0.0324,0.013523,0.002678,0.000431,0.000940
104737000,0.0324,0.013523,0.002678,0.000431,0.000705
104738000,0.0324,0.013523,0.002678,0.000431,0.000940
104739000,0.0324,0.013523,0.002678,0.000431,0.002233
104740000,0.0324,0.013523,0.002678,0.000431,0.352702
104741000,0.0324,0.013523,0.002678,0.000431,0.656747
104742000,0.0324,0.013523,0.002678,0.000431,0.264203
104743000,0.0324,0.013523,0.002678,0.000431,0.132807
104744000,0.0324,0.013523,0.002678,0.000431,0.161249
104745000,0.0324,0.013523,0.002678,0.000431,0.583175
104746000,0.0324,0.013523,0.002678,0.000431,0.284066
104747000,0.0324,0.013523,0.002678,0.000431,0.274428
104748000,0.0324,0.013523,0.002678,0.000431,0.215899
104749000,0.0324,0.013523,0.002678,0.000431,0.142444
104750000,0.0324,0.013523,0.002678,0.000431,0.144912
104751000,0.0324,0.013523,0.002678,0.000431,0.230003
104752000,0.0324,0.013523,0.002678,0.000431,0.351292
104753000,0.0324,0.013523,0.002678,0.000431,0.047011
104754000,0.0324,0.013523,0.002678,0.000431,0.040665
104755000,0.0324,0.013523,0.002678,0.000431,0.035846
104756000,0.0324,0.013523,0.002678,0.000431,0.027972
104757000,0.0324,0.013523,0.002678,0.000431,0.031733
104758000,0.0324,0.013523,0.002678,0.000431,0.027619
104759000,0.0324,0.013523,0.002678,0.000431,0.020332
104760000,0.0324,0.013523,0.002678,0.000431,0.018099
104761000,0.0324,0.013523,0.002678,0.000431,0.018099
104762000,0.0324,0.013523,0.002678,0.000431,0.013046
104763000,0.0324,0.013523,0.002678,0.000431,0.014926
104764000,0.0324,0.013523,0.002678,0.000431,0.010460
104765000,0.0324,0.013523,0.002678,0.000431,0.011283
104766000,0.0324,0.013523,0.002678,0.000431,0.009167
104767000,0.0324,0.013523,0.002678,0.000431,0.010460
104768000,0.0324,0.013523,0.002678,0.000431,0.009402
104769000,0.0324,0.013523,0.002678,0.000431,0.008697
104770000,0.0324,0.013523,0.002678,0.000431,0.007639
104771000,0.0324,0.013523,0.002678,0.000431,0.008815
104772000,0.0324,0.013523,0.002678,0.000431,0.005054
104773000,0.0324,0.013523,0.002678,0.000431,0.005759
104774000,0.0324,0.013523,0.002678,0.000431,0.005171
104775000,0.0324,0.013523,0.002678,0.000431,0.005641
104776000,0.0324,0.013523,0.002678,0.000431,0.005289
104777000,0.0324,0.013523,0.002678,0.000431,0.004819
104778000,0.0324,0.013523,0.002678,0.000431,0.005054
104779000,0.0324,0.013523,0.002678,0.000431,0.004701
104780000,0.0324,0.013523,0.002678,0.000431,0.004819
104781000,0.0324,0.013523,0.002678,0.000431,0.005054
104782000,0.0324,0.013523,0.002678,0.000431,0.004819
104783000,0.0324,0.013523,0.002678,0.000431,0.004936
104784000,0.0324,0.013523,0.002678,0.000431,0.005289
104785000,0.0324,0.013523,0.002678,0.000431,0.005054
104786000,0.0324,0.013523,0.002678,0.000431,0.003761
104787000,0.0324,0.013523,0.002678,0.000431,0.004113
104788000,0.0324,0.013523,0.002678,0.000431,0.007169
104789000,0.0324,0.013523,0.002678,0.000431,0.002703
104790000,0.0324,0.013523,0.002678,0.000431,0.002586
104791000,0.0324,0.013523,0.002678,0.000431,0.002116
104792000,0.0324,0.013523,0.002678,0.000431,0.002586
104793000,0.0324,0.013523,0.002678,0.000431,0.002468
104794000,0.0324,0.013523,0.002678,0.000431,0.002351
104795000,0.0324,0.013523,0.002678,0.000431,0.002468
104796000,0.0324,0.013523,0.002678,0.000431,0.002351
104797000,0.0324,0.013523,0.002678,0.000431,0.002586
104798000,0.0324,0.013523,0.002678,0.000431,0.002468
104799000,0.0324,0.013523,0.002678,0.000431,0.002233
104800000,0.0324,0.013523,0.002678,0.000431,0.002821
104801000,0.0324,0.013523,0.002678,0.000431,0.002233
104802000,0.0324,0.013523,0.002678,0.000431,0.002586
104803000,0.0324,0.013523,0.002678,0.000431,0.002351
104804000,0.0324,0.013523,0.002678,0.000431,0.002468
104805000,0.0324,0.013523,0.002678,0.000431,0.002703
104806000,0.0324,0.013523,0.002678,0.000431,0.001998
104807000,0.0324,0.013523,0.002678,0.000431,0.002821
104808000,0.0324,0.013523,0.002678,0.000431,0.001880
104809000,0.0324,0.013523,0.002678,0.000431,0.001645
104810000,0.0324,0.013523,0.002678,0.000431,0.001645
104811000,0.0324,0.013523,0.002678,0.000431,0.001763
104812000,0.0324,0.013523,0.002678,0.000431,0.001880
104813000,0.0324,0.013523,0.002678,0.000431,0.001528
104814000,0.0324,0.013523,0.002678,0.000431,0.001763
104815000,0.0324,0.013523,0.002678,0.000431,0.003761
104816000,0.0324,0.013523,0.002678,0.000431,0.001058
104817000,0.0324,0.013523,0.002678,0.000431,0.000823
104818000,0.0324,0.013523,0.002678,0.000431,0.000823
104819000,0.0324,0.013523,0.002678,0.000431,0.000940
104820000,0.0324,0.013523,0.002678,0.000431,0.000823
104821000,0.0324,0.013523,0.002678,0.000431,0.071927
104822000,0.0324,0.013523,0.002678,0.000431,0.498907
104823000,0.0324,0.013523,0.002678,0.000431,0.545213
104824000,0.0324,0.013523,0.002678,0.000431,0.132572
104825000,0.0324,0.013523,0.002678,0.000431,0.132102
104826000,0.0324,0.013523,0.002678,0.000431,0.554145
104827000,0.0324,0.013523,0.002678,0.000431,0.224361
104828000,0.0324,0.013523,0.002678,0.000431,0.250100
104829000,0.0324,0.013523,0.002678,0.000431,0.340714
104830000,0.0324,0.013523,0.002678,0.000431,0.137038
104831000,0.0324,0.013523,0.002678,0.000431,0.137861
104832000,0.0324,0.013523,0.002678,0.000431,0.150083
104833000,0.0324,0.013523,0.002678,0.000431,0.224009
104834000,0.0324,0.013523,0.002678,0.000431,0.372094
104835000,0.0324,0.013523,0.002678,0.000431,0.070282
104836000,0.0324,0.013523,0.002678,0.000431,0.060174
104837000,0.0324,0.013523,0.002678,0.000431,0.051125
104838000,0.0324,0.013523,0.002678,0.000431,0.045366
104839000,0.0324,0.013523,0.002678,0.000431,0.040312
104840000,0.0324,0.013523,0.002678,0.000431,0.027502
104841000,0.0324,0.013523,0.002678,0.000431,0.025856
104842000,0.0324,0.013523,0.002678,0.000431,0.026796
104843000,0.0324,0.013523,0.002678,0.000431,0.026561
104844000,0.0324,0.013523,0.002678,0.000431,0.023153
104845000,0.0324,0.013523,0.002678,0.000431,0.020332
104846000,0.0324,0.013523,0.002678,0.000431,0.020097
104847000,0.0324,0.013523,0.002678,0.000431,0.017864
104848000,0.0324,0.013523,0.002678,0.000431,0.017159
104849000,0.0324,0.013523,0.002678,0.000431,0.015279
104850000,0.0324,0.013523,0.002678,0.000431,0.013633
104851000,0.0324,0.013523,0.002678,0.000431,0.014456
104852000,0.0324,0.013523,0.002678,0.000431,0.014103
104853000,0.0324,0.013523,0.002678,0.000431,0.011753
104854000,0.0324,0.013523,0.002678,0.000431,0.011400
104855000,0.0324,0.013523,0.002678,0.000431,0.011988
104856000,0.0324,0.013523,0.002678,0.000431,0.010930
104857000,0.0324,0.013523,0.002678,0.000431,0.011753
104858000,0.0324,0.013523,0.002678,0.000431,0.012928
104859000,0.0324,0.013523,0.002678,0.000431,0.010930
104860000,0.0324,0.013523,0.002678,0.000431,0.012105
104861000,0.0324,0.013523,0.002678,0.000431,0.008815
104862000,0.0324,0.013523,0.002678,0.000431,0.010578
104863000,0.0324,0.013523,0.002678,0.000431,0.009285
104864000,0.0324,0.013523,0.002678,0.000431,0.009990
104865000,0.0324,0.013523,0.002678,0.000431,0.010107
104866000,0.0324,0.013523,0.002678,0.000431,0.009402
104867000,0.0324,0.013523,0.002678,0.000431,0.010460
104868000,0.0324,0.013523,0.002678,0.000431,0.010342
104869000,0.0324,0.013523,0.002678,0.000431,0.008462
104870000,0.0324,0.013523,0.002678,0.000431,0.009167
104871000,0.0324,0.013523,0.002678,0.000431,0.008815
104872000,0.0324,0.013523,0.002678,0.000431,0.009755
104873000,0.0324,0.013523,0.002678,0.000431,0.010225
104874000,0.0324,0.013523,0.002678,0.000431,0.006464
104875000,0.0324,0.013523,0.002678,0.000431,0.007757
104876000,0.0324,0.013523,0.002678,0.000431,0.007757
104877000,0.0324,0.013523,0.002678,0.000431,0.006934
104878000,0.0324,0.013523,0.002678,0.000431,0.007169
104879000,0.0324,0.013523,0.002678,0.000431,0.005406
104880000,0.0324,0.013523,0.002678,0.000431,0.007287
104881000,0.0324,0.013523,0.002678,0.000431,0.005406
104882000,0.0324,0.013523,0.002678,0.000431,0.007992
104883000,0.0324,0.013523,0.002678,0.000431,0.005759
104884000,0.0324,0.013523,0.002678,0.000431,0.005054
104885000,0.0324,0.013523,0.002678,0.000431,0.005994
104886000,0.0324,0.013523,0.002678,0.000431,0.005171
104887000,0.0324,0.013523,0.002678,0.000431,0.005524
104888000,0.0324,0.013523,0.002678,0.000431,0.007404
104889000,0.0324,0.013523,0.002678,0.000431,0.004701
104890000,0.0324,0.013523,0.002678,0.000431,0.004819
104891000,0.0324,0.013523,0.002678,0.000431,0.004819
104892000,0.0324,0.013523,0.002678,0.000431,0.004466
104893000,0.0324,0.013523,0.002678,0.000431,0.005406
104894000,0.0324,0.013523,0.002678,0.000431,0.004231
104895000,0.0324,0.013523,0.002678,0.000431,0.005054
104896000,0.0324,0.013523,0.002678,0.000431,0.004584
104897000,0.0324,0.013523,0.002678,0.000431,0.004701
104898000,0.0324,0.013523,0.002678,0.000431,0.006817
104899000,0.0324,0.013523,0.002678,0.000431,0.003761
104900000,0.0324,0.013523,0.002678,0.000431,0.001645
104901000,0.0324,0.013523,0.002678,0.000431,0.001880
104902000,0.0324,0.013523,0.002678,0.000431,0.001763
104903000,0.0324,0.013523,0.002678,0.000431,0.001763
104904000,0.0324,0.013523,0.002678,0.000431,0.004701
104905000,0.0324,0.013523,0.002678,0.000431,0.001058
104906000,0.0324,0.013523,0.002678,0.000431,0.000940
104907000,0.0324,0.013523,0.002678,0.000431,0.000705
104908000,0.0324,0.013523,0.002678,0.000431,0.000940
104909000,0.0324,0.013523,0.002678,0.000431,0.000705
104910000,0.0324,0.013523,0.002678,0.000431,0.000940
104911000,0.0324,0.013523,0.002678,0.000431,0.000823
104912000,0.0324,0.013523,0.002678,0.000431,0.000823
104913000,0.0324,0.013523,0.002678,0.000431,0.000940
104914000,0.0324,0.013523,0.002678,0.000431,0.000705
104915000,0.0324,0.013523,0.002678,0.000431,0.000940
104916000,0.0324,0.013523,0.002678,0.000431,0.000823
104917000,0.0324,0.013523,0.002678,0.000431,0.002116
104918000,0.0324,0.013523,0.002678,0.000431,0.349999
104919000,0.0324,0.013523,0.002678,0.000431,0.660156
104920000,0.0324,0.013523,0.002678,0.000431,0.196625
104921000,0.0324,0.013523,0.002678,0.000431,0.132337
104922000,0.0324,0.013523,0.002678,0.000431,0.140446
104923000,0.0324,0.013523,0.002678,0.000431,0.602449
104924000,0.0324,0.013523,0.002678,0.000431,0.261735
104925000,0.0324,0.013523,0.002678,0.000431,0.278894
104926000,0.0324,0.013523,0.002678,0.000431,0.248337
104927000,0.0324,0.013523,0.002678,0.000431,0.141974
104928000,0.0324,0.013523,0.002678,0.000431,0.156548
104929000,0.0324,0.013523,0.002678,0.000431,0.146205
104930000,0.0324,0.013523,0.002678,0.000431,0.458712
104931000,0.0324,0.013523,0.002678,0.000431,0.100134
104932000,0.0324,0.013523,0.002678,0.000431,0.079096
104933000,0.0324,0.013523,0.002678,0.000431,0.068049
104934000,0.0324,0.013523,0.002678,0.000431,0.049832
104935000,0.0324,0.013523,0.002678,0.000431,0.051477
104936000,0.0324,0.013523,0.002678,0.000431,0.045836
104937000,0.0324,0.013523,0.002678,0.000431,0.036786
104938000,0.0324,0.013523,0.002678,0.000431,0.027502
104939000,0.0324,0.013523,0.002678,0.000431,0.024563
104940000,0.0324,0.013523,0.002678,0.000431,0.023623
104941000,0.0324,0.013523,0.002678,0.000431,0.022095
104942000,0.0324,0.013523,0.002678,0.000431,0.022448
104943000,0.0324,0.013523,0.002678,0.000431,0.021508
104944000,0.0324,0.013523,0.002678,0.000431,0.018334
104945000,0.0324,0.013523,0.002678,0.000431,0.019980
104946000,0.0324,0.013523,0.002678,0.000431,0.021038
104947000,0.0324,0.013523,0.002678,0.000431,0.018334
104948000,0.0324,0.013523,0.002678,0.000431,0.014221
104949000,0.0324,0.013523,0.002678,0.000431,0.015396
104950000,0.0324,0.013523,0.002678,0.000431,0.014809
104951000,0.0324,0.013523,0.002678,0.000431,0.016454
104952000,0.0324,0.013523,0.002678,0.000431,0.011988
104953000,0.0324,0.013523,0.002678,0.000431,0.013281
104954000,0.0324,0.013523,0.002678,0.000431,0.012105
104955000,0.0324,0.013523,0.002678,0.000431,0.009167
104956000,0.0324,0.013523,0.002678,0.000431,0.009167
104957000,0.0324,0.013523,0.002678,0.000431,0.009520
104958000,0.0324,0.013523,0.002678,0.000431,0.009285
104959000,0.0324,0.013523,0.002678,0.000431,0.009167
104960000,0.0324,0.013523,0.002678,0.000431,0.009285
104961000,0.0324,0.013523,0.002678,0.000431,0.009872
104962000,0.0324,0.013523,0.002678,0.000431,0.011400
104963000,0.0324,0.013523,0.002678,0.000431,0.008462
104964000,0.0324,0.013523,0.002678,0.000431,0.007522
104965000,0.0324,0.013523,0.002678,0.000431,0.007874
104966000,0.0324,0.013523,0.002678,0.000431,0.007874
104967000,0.0324,0.013523,0.002678,0.000431,0.007404
104968000,0.0324,0.013523,0.002678,0.000431,0.007874
104969000,0.0324,0.013523,0.002678,0.000431,0.007522
104970000,0.0324,0.013523,0.002678,0.000431,0.007757
104971000,0.0324,0.013523,0.002678,0.000431,0.007874
104972000,0.0324,0.013523,0.002678,0.000431,0.008697
104973000,0.0324,0.013523,0.002678,0.000431,0.008227
104974000,0.0324,0.013523,0.002678,0.000431,0.009990
104975000,0.0324,0.013523,0.002678,0.000431,0.005289
104976000,0.0324,0.013523,0.002678,0.000431,0.004701
104977000,0.0324,0.013523,0.002678,0.000431,0.005759
104978000,0.0324,0.013523,0.002678,0.000431,0.004819
104979000,0.0324,0.013523,0.002678,0.000431,0.005171
104980000,0.0324,0.013523,0.002678,0.000431,0.005406
104981000,0.0324,0.013523,0.002678,0.000431,0.004819
104982000,0.0324,0.013523,0.002678,0.000431,0.005171
104983000,0.0324,0.013523,0.002678,0.000431,0.005171
104984000,0.0324,0.013523,0.002678,0.000431,0.006699
104985000,0.0324,0.013523,0.002678,0.000431,0.004584
104986000,0.0324,0.013523,0.002678,0.000431,0.003996
104987000,0.0324,0.013523,0.002678,0.000431,0.004466
104988000,0.0324,0.013523,0.002678,0.000431,0.004466
104989000,0.0324,0.013523,0.002678,0.000431,0.004113
104990000,0.0324,0.013523,0.002678,0.000431,0.004584
104991000,0.0324,0.013523,0.002678,0.000431,0.004349
104992000,0.0324,0.013523,0.002678,0.000431,0.004349
104993000,0.0324,0.013523,0.002678,0.000431,0.004349
104994000,0.0324,0.013523,0.002678,0.000431,0.004231
104995000,0.0324,0.013523,0.002678,0.000431,0.004466
104996000,0.0324,0.013523,0.002678,0.000431,0.004231
104997000,0.0324,0.013523,0.002678,0.000431,0.004349
104998000,0.0324,0.013523,0.002678,0.000431,0.008462
104999000,0.0324,0.013523,0.002678,0.000431,0.003878
