Cycle,Area(mm^2),PeakDynamic(W),SubthresholdLeakage(W),GateLeakage(W),RunTimeDynamic(W)
57000000,0.0324,0.013523,0.002678,0.000431,0.000823
57001000,0.0324,0.013523,0.002678,0.000431,0.000823
57002000,0.0324,0.013523,0.002678,0.000431,0.000823
57003000,0.0324,0.013523,0.002678,0.000431,0.000823
57004000,0.0324,0.013523,0.002678,0.000431,0.000940
57005000,0.0324,0.013523,0.002678,0.000431,0.000705
57006000,0.0324,0.013523,0.002678,0.000431,0.000940
57007000,0.0324,0.013523,0.002678,0.000431,0.000705
57008000,0.0324,0.013523,0.002678,0.000431,0.000823
57009000,0.0324,0.013523,0.002678,0.000431,0.000940
57010000,0.0324,0.013523,0.002678,0.000431,0.000823
57011000,0.0324,0.013523,0.002678,0.000431,0.000823
57012000,0.0324,0.013523,0.002678,0.000431,0.000823
57013000,0.0324,0.013523,0.002678,0.000431,0.000823
57014000,0.0324,0.013523,0.002678,0.000431,0.000823
57015000,0.0324,0.013523,0.002678,0.000431,0.000940
57016000,0.0324,0.013523,0.002678,0.000431,0.000823
57017000,0.0324,0.013523,0.002678,0.000431,0.000823
57018000,0.0324,0.013523,0.002678,0.000431,0.008227
57019000,0.0324,0.013523,0.002678,0.000431,0.454481
57020000,0.0324,0.013523,0.002678,0.000431,0.631009
57021000,0.0324,0.013523,0.002678,0.000431,0.132572
57022000,0.0324,0.013523,0.002678,0.000431,0.133512
57023000,0.0324,0.013523,0.002678,0.000431,0.239757
57024000,0.0324,0.013523,0.002678,0.000431,0.576593
57025000,0.0324,0.013523,0.002678,0.000431,0.231413
57026000,0.0324,0.013523,0.002678,0.000431,0.298287
57027000,0.0324,0.013523,0.002678,0.000431,0.181111
57028000,0.0324,0.013523,0.002678,0.000431,0.143737
57029000,0.0324,0.013523,0.002678,0.000431,0.142209
57030000,0.0324,0.013523,0.002678,0.000431,0.232706
57031000,0.0324,0.013523,0.002678,0.000431,0.349764
57032000,0.0324,0.013523,0.002678,0.000431,0.032790
57033000,0.0324,0.013523,0.002678,0.000431,0.025151
57034000,0.0324,0.013523,0.002678,0.000431,0.021860
57035000,0.0324,0.013523,0.002678,0.000431,0.016807
57036000,0.0324,0.013523,0.002678,0.000431,0.013398
57037000,0.0324,0.013523,0.002678,0.000431,0.011048
57038000,0.0324,0.013523,0.002678,0.000431,0.006817
57039000,0.0324,0.013523,0.002678,0.000431,0.005759
57040000,0.0324,0.013523,0.002678,0.000431,0.005994
57041000,0.0324,0.013523,0.002678,0.000431,0.006817
57042000,0.0324,0.013523,0.002678,0.000431,0.004349
57043000,0.0324,0.013523,0.002678,0.000431,0.003996
57044000,0.0324,0.013523,0.002678,0.000431,0.004349
57045000,0.0324,0.013523,0.002678,0.000431,0.004231
57046000,0.0324,0.013523,0.002678,0.000431,0.004113
57047000,0.0324,0.013523,0.002678,0.000431,0.003761
57048000,0.0324,0.013523,0.002678,0.000431,0.003996
57049000,0.0324,0.013523,0.002678,0.000431,0.003996
57050000,0.0324,0.013523,0.002678,0.000431,0.003878
57051000,0.0324,0.013523,0.002678,0.000431,0.003526
57052000,0.0324,0.013523,0.002678,0.000431,0.003173
57053000,0.0324,0.013523,0.002678,0.000431,0.003173
57054000,0.0324,0.013523,0.002678,0.000431,0.003291
57055000,0.0324,0.013523,0.002678,0.000431,0.003526
57056000,0.0324,0.013523,0.002678,0.000431,0.003056
57057000,0.0324,0.013523,0.002678,0.000431,0.003056
57058000,0.0324,0.013523,0.002678,0.000431,0.003526
57059000,0.0324,0.013523,0.002678,0.000431,0.003173
57060000,0.0324,0.013523,0.002678,0.000431,0.003408
57061000,0.0324,0.013523,0.002678,0.000431,0.003291
57062000,0.0324,0.013523,0.002678,0.000431,0.003173
57063000,0.0324,0.013523,0.002678,0.000431,0.003291
57064000,0.0324,0.013523,0.002678,0.000431,0.003408
57065000,0.0324,0.013523,0.002678,0.000431,0.003291
57066000,0.0324,0.013523,0.002678,0.000431,0.003291
57067000,0.0324,0.013523,0.002678,0.000431,0.003408
57068000,0.0324,0.013523,0.002678,0.000431,0.002938
57069000,0.0324,0.013523,0.002678,0.000431,0.003643
57070000,0.0324,0.013523,0.002678,0.000431,0.005406
57071000,0.0324,0.013523,0.002678,0.000431,0.004584
57072000,0.0324,0.013523,0.002678,0.000431,0.001645
57073000,0.0324,0.013523,0.002678,0.000431,0.003643
57074000,0.0324,0.013523,0.002678,0.000431,0.000823
57075000,0.0324,0.013523,0.002678,0.000431,0.000940
57076000,0.0324,0.013523,0.002678,0.000431,0.000823
57077000,0.0324,0.013523,0.002678,0.000431,0.000940
57078000,0.0324,0.013523,0.002678,0.000431,0.000823
57079000,0.0324,0.013523,0.002678,0.000431,0.000823
57080000,0.0324,0.013523,0.002678,0.000431,0.000940
57081000,0.0324,0.013523,0.002678,0.000431,0.000940
57082000,0.0324,0.013523,0.002678,0.000431,0.108596
57083000,0.0324,0.013523,0.002678,0.000431,0.460593
57084000,0.0324,0.013523,0.002678,0.000431,0.541570
57085000,0.0324,0.013523,0.002678,0.000431,0.133865
57086000,0.0324,0.013523,0.002678,0.000431,0.131632
57087000,0.0324,0.013523,0.002678,0.000431,0.549562
57088000,0.0324,0.013523,0.002678,0.000431,0.232823
57089000,0.0324,0.013523,0.002678,0.000431,0.241403
57090000,0.0324,0.013523,0.002678,0.000431,0.319559
57091000,0.0324,0.013523,0.002678,0.000431,0.134217
57092000,0.0324,0.013523,0.002678,0.000431,0.143972
57093000,0.0324,0.013523,0.002678,0.000431,0.160308
57094000,0.0324,0.013523,0.002678,0.000431,0.144912
57095000,0.0324,0.013523,0.002678,0.000431,0.433561
57096000,0.0324,0.013523,0.002678,0.000431,0.014103
57097000,0.0324,0.013523,0.002678,0.000431,0.007639
57098000,0.0324,0.013523,0.002678,0.000431,0.004113
57099000,0.0324,0.013523,0.002678,0.000431,0.005289
57100000,0.0324,0.013523,0.002678,0.000431,0.003408
57101000,0.0324,0.013523,0.002678,0.000431,0.005524
57102000,0.0324,0.013523,0.002678,0.000431,0.000940
57103000,0.0324,0.013523,0.002678,0.000431,0.000940
57104000,0.0324,0.013523,0.002678,0.000431,0.000705
57105000,0.0324,0.013523,0.002678,0.000431,0.000940
57106000,0.0324,0.013523,0.002678,0.000431,0.000940
57107000,0.0324,0.013523,0.002678,0.000431,0.000823
57108000,0.0324,0.013523,0.002678,0.000431,0.000823
57109000,0.0324,0.013523,0.002678,0.000431,0.000940
57110000,0.0324,0.013523,0.002678,0.000431,0.000940
57111000,0.0324,0.013523,0.002678,0.000431,0.000823
57112000,0.0324,0.013523,0.002678,0.000431,0.000823
57113000,0.0324,0.013523,0.002678,0.000431,0.000940
57114000,0.0324,0.013523,0.002678,0.000431,0.000823
57115000,0.0324,0.013523,0.002678,0.000431,0.000940
57116000,0.0324,0.013523,0.002678,0.000431,0.000823
57117000,0.0324,0.013523,0.002678,0.000431,0.000940
57118000,0.0324,0.013523,0.002678,0.000431,0.000823
57119000,0.0324,0.013523,0.002678,0.000431,0.000823
57120000,0.0324,0.013523,0.002678,0.000431,0.000940
57121000,0.0324,0.013523,0.002678,0.000431,0.000940
57122000,0.0324,0.013523,0.002678,0.000431,0.000823
57123000,0.0324,0.013523,0.002678,0.000431,0.000823
57124000,0.0324,0.013523,0.002678,0.000431,0.000940
57125000,0.0324,0.013523,0.002678,0.000431,0.000940
57126000,0.0324,0.013523,0.002678,0.000431,0.000823
57127000,0.0324,0.013523,0.002678,0.000431,0.000823
57128000,0.0324,0.013523,0.002678,0.000431,0.000940
57129000,0.0324,0.013523,0.002678,0.000431,0.000823
57130000,0.0324,0.013523,0.002678,0.000431,0.000940
57131000,0.0324,0.013523,0.002678,0.000431,0.000823
57132000,0.0324,0.013523,0.002678,0.000431,0.000940
57133000,0.0324,0.013523,0.002678,0.000431,0.000823
57134000,0.0324,0.013523,0.002678,0.000431,0.000823
57135000,0.0324,0.013523,0.002678,0.000431,0.000940
57136000,0.0324,0.013523,0.002678,0.000431,0.000940
57137000,0.0324,0.013523,0.002678,0.000431,0.000823
57138000,0.0324,0.013523,0.002678,0.000431,0.000823
57139000,0.0324,0.013523,0.002678,0.000431,0.000940
57140000,0.0324,0.013523,0.002678,0.000431,0.000940
57141000,0.0324,0.013523,0.002678,0.000431,0.000705
57142000,0.0324,0.013523,0.002678,0.000431,0.000940
57143000,0.0324,0.013523,0.002678,0.000431,0.000940
57144000,0.0324,0.013523,0.002678,0.000431,0.000940
57145000,0.0324,0.013523,0.002678,0.000431,0.000705
57146000,0.0324,0.013523,0.002678,0.000431,0.000940
57147000,0.0324,0.013523,0.002678,0.000431,0.000940
57148000,0.0324,0.013523,0.002678,0.000431,0.000940
57149000,0.0324,0.013523,0.002678,0.000431,0.208142
57150000,0.0324,0.013523,0.002678,0.000431,0.571540
57151000,0.0324,0.013523,0.002678,0.000431,0.332605
57152000,0.0324,0.013523,0.002678,0.000431,0.131867
57153000,0.0324,0.013523,0.002678,0.000431,0.132807
57154000,0.0324,0.013523,0.002678,0.000431,0.581177
57155000,0.0324,0.013523,0.002678,0.000431,0.245634
57156000,0.0324,0.013523,0.002678,0.000431,0.259385
57157000,0.0324,0.013523,0.002678,0.000431,0.293585
57158000,0.0324,0.013523,0.002678,0.000431,0.143267
57159000,0.0324,0.013523,0.002678,0.000431,0.141621
57160000,0.0324,0.013523,0.002678,0.000431,0.119174
57161000,0.0324,0.013523,0.002678,0.000431,0.298404
57162000,0.0324,0.013523,0.002678,0.000431,0.275604
57163000,0.0324,0.013523,0.002678,0.000431,0.026561
57164000,0.0324,0.013523,0.002678,0.000431,0.024328
57165000,0.0324,0.013523,0.002678,0.000431,0.024211
57166000,0.0324,0.013523,0.002678,0.000431,0.015279
57167000,0.0324,0.013523,0.002678,0.000431,0.015749
57168000,0.0324,0.013523,0.002678,0.000431,0.019980
57169000,0.0324,0.013523,0.002678,0.000431,0.012458
57170000,0.0324,0.013523,0.002678,0.000431,0.014221
57171000,0.0324,0.013523,0.002678,0.000431,0.012928
57172000,0.0324,0.013523,0.002678,0.000431,0.010813
57173000,0.0324,0.013523,0.002678,0.000431,0.011283
57174000,0.0324,0.013523,0.002678,0.000431,0.010813
57175000,0.0324,0.013523,0.002678,0.000431,0.011753
57176000,0.0324,0.013523,0.002678,0.000431,0.007639
57177000,0.0324,0.013523,0.002678,0.000431,0.009990
57178000,0.0324,0.013523,0.002678,0.000431,0.006699
57179000,0.0324,0.013523,0.002678,0.000431,0.005994
57180000,0.0324,0.013523,0.002678,0.000431,0.006347
57181000,0.0324,0.013523,0.002678,0.000431,0.005994
57182000,0.0324,0.013523,0.002678,0.000431,0.005994
57183000,0.0324,0.013523,0.002678,0.000431,0.005876
57184000,0.0324,0.013523,0.002678,0.000431,0.006347
57185000,0.0324,0.013523,0.002678,0.000431,0.006934
57186000,0.0324,0.013523,0.002678,0.000431,0.009167
57187000,0.0324,0.013523,0.002678,0.000431,0.006464
57188000,0.0324,0.013523,0.002678,0.000431,0.001763
57189000,0.0324,0.013523,0.002678,0.000431,0.001880
57190000,0.0324,0.013523,0.002678,0.000431,0.001645
57191000,0.0324,0.013523,0.002678,0.000431,0.001645
57192000,0.0324,0.013523,0.002678,0.000431,0.001763
57193000,0.0324,0.013523,0.002678,0.000431,0.001645
57194000,0.0324,0.013523,0.002678,0.000431,0.001763
57195000,0.0324,0.013523,0.002678,0.000431,0.001645
57196000,0.0324,0.013523,0.002678,0.000431,0.001763
57197000,0.0324,0.013523,0.002678,0.000431,0.001645
57198000,0.0324,0.013523,0.002678,0.000431,0.001763
57199000,0.0324,0.013523,0.002678,0.000431,0.001763
57200000,0.0324,0.013523,0.002678,0.000431,0.001763
57201000,0.0324,0.013523,0.002678,0.000431,0.001528
57202000,0.0324,0.013523,0.002678,0.000431,0.001763
57203000,0.0324,0.013523,0.002678,0.000431,0.004349
57204000,0.0324,0.013523,0.002678,0.000431,0.000940
57205000,0.0324,0.013523,0.002678,0.000431,0.000940
57206000,0.0324,0.013523,0.002678,0.000431,0.000705
57207000,0.0324,0.013523,0.002678,0.000431,0.000940
57208000,0.0324,0.013523,0.002678,0.000431,0.000705
57209000,0.0324,0.013523,0.002678,0.000431,0.001645
57210000,0.0324,0.013523,0.002678,0.000431,0.327551
57211000,0.0324,0.013523,0.002678,0.000431,0.677785
57212000,0.0324,0.013523,0.002678,0.000431,0.143502
57213000,0.0324,0.013523,0.002678,0.000431,0.132572
57214000,0.0324,0.013523,0.002678,0.000431,0.150083
57215000,0.0324,0.013523,0.002678,0.000431,0.662506
57216000,0.0324,0.013523,0.002678,0.000431,0.226242
57217000,0.0324,0.013523,0.002678,0.000431,0.250923
57218000,0.0324,0.013523,0.002678,0.000431,0.259972
57219000,0.0324,0.013523,0.002678,0.000431,0.141739
57220000,0.0324,0.013523,0.002678,0.000431,0.177468
57221000,0.0324,0.013523,0.002678,0.000431,0.085796
57222000,0.0324,0.013523,0.002678,0.000431,0.462356
57223000,0.0324,0.013523,0.002678,0.000431,0.101897
57224000,0.0324,0.013523,0.002678,0.000431,0.055591
57225000,0.0324,0.013523,0.002678,0.000431,0.031968
57226000,0.0324,0.013523,0.002678,0.000431,0.025974
57227000,0.0324,0.013523,0.002678,0.000431,0.025621
57228000,0.0324,0.013523,0.002678,0.000431,0.025386
57229000,0.0324,0.013523,0.002678,0.000431,0.022918
57230000,0.0324,0.013523,0.002678,0.000431,0.023976
57231000,0.0324,0.013523,0.002678,0.000431,0.017982
57232000,0.0324,0.013523,0.002678,0.000431,0.013751
57233000,0.0324,0.013523,0.002678,0.000431,0.015044
57234000,0.0324,0.013523,0.002678,0.000431,0.014573
57235000,0.0324,0.013523,0.002678,0.000431,0.014456
57236000,0.0324,0.013523,0.002678,0.000431,0.013633
57237000,0.0324,0.013523,0.002678,0.000431,0.010813
57238000,0.0324,0.013523,0.002678,0.000431,0.011870
57239000,0.0324,0.013523,0.002678,0.000431,0.012105
57240000,0.0324,0.013523,0.002678,0.000431,0.010342
57241000,0.0324,0.013523,0.002678,0.000431,0.010695
57242000,0.0324,0.013523,0.002678,0.000431,0.012928
57243000,0.0324,0.013523,0.002678,0.000431,0.010225
57244000,0.0324,0.013523,0.002678,0.000431,0.009637
57245000,0.0324,0.013523,0.002678,0.000431,0.010460
57246000,0.0324,0.013523,0.002678,0.000431,0.009402
57247000,0.0324,0.013523,0.002678,0.000431,0.008109
57248000,0.0324,0.013523,0.002678,0.000431,0.008109
57249000,0.0324,0.013523,0.002678,0.000431,0.008109
57250000,0.0324,0.013523,0.002678,0.000431,0.010813
57251000,0.0324,0.013523,0.002678,0.000431,0.007639
57252000,0.0324,0.013523,0.002678,0.000431,0.006817
57253000,0.0324,0.013523,0.002678,0.000431,0.007287
57254000,0.0324,0.013523,0.002678,0.000431,0.007639
57255000,0.0324,0.013523,0.002678,0.000431,0.008109
57256000,0.0324,0.013523,0.002678,0.000431,0.005524
57257000,0.0324,0.013523,0.002678,0.000431,0.004936
57258000,0.0324,0.013523,0.002678,0.000431,0.006582
57259000,0.0324,0.013523,0.002678,0.000431,0.004349
57260000,0.0324,0.013523,0.002678,0.000431,0.003761
57261000,0.0324,0.013523,0.002678,0.000431,0.004349
57262000,0.0324,0.013523,0.002678,0.000431,0.003878
57263000,0.0324,0.013523,0.002678,0.000431,0.004231
57264000,0.0324,0.013523,0.002678,0.000431,0.004349
57265000,0.0324,0.013523,0.002678,0.000431,0.003761
57266000,0.0324,0.013523,0.002678,0.000431,0.004349
57267000,0.0324,0.013523,0.002678,0.000431,0.003996
57268000,0.0324,0.013523,0.002678,0.000431,0.004113
57269000,0.0324,0.013523,0.002678,0.000431,0.004113
57270000,0.0324,0.013523,0.002678,0.000431,0.004113
57271000,0.0324,0.013523,0.002678,0.000431,0.004113
57272000,0.0324,0.013523,0.002678,0.000431,0.003996
57273000,0.0324,0.013523,0.002678,0.000431,0.004231
57274000,0.0324,0.013523,0.002678,0.000431,0.003878
57275000,0.0324,0.013523,0.002678,0.000431,0.004349
57276000,0.0324,0.013523,0.002678,0.000431,0.003878
57277000,0.0324,0.013523,0.002678,0.000431,0.003996
57278000,0.0324,0.013523,0.002678,0.000431,0.004349
57279000,0.0324,0.013523,0.002678,0.000431,0.003878
57280000,0.0324,0.013523,0.002678,0.000431,0.004113
57281000,0.0324,0.013523,0.002678,0.000431,0.004231
57282000,0.0324,0.013523,0.002678,0.000431,0.003996
57283000,0.0324,0.013523,0.002678,0.000431,0.003996
57284000,0.0324,0.013523,0.002678,0.000431,0.003643
57285000,0.0324,0.013523,0.002678,0.000431,0.003056
57286000,0.0324,0.013523,0.002678,0.000431,0.003408
57287000,0.0324,0.013523,0.002678,0.000431,0.003056
57288000,0.0324,0.013523,0.002678,0.000431,0.003291
57289000,0.0324,0.013523,0.002678,0.000431,0.003526
57290000,0.0324,0.013523,0.002678,0.000431,0.002938
57291000,0.0324,0.013523,0.002678,0.000431,0.003526
57292000,0.0324,0.013523,0.002678,0.000431,0.004231
57293000,0.0324,0.013523,0.002678,0.000431,0.002586
57294000,0.0324,0.013523,0.002678,0.000431,0.002351
57295000,0.0324,0.013523,0.002678,0.000431,0.002351
57296000,0.0324,0.013523,0.002678,0.000431,0.002703
57297000,0.0324,0.013523,0.002678,0.000431,0.002233
57298000,0.0324,0.013523,0.002678,0.000431,0.002468
57299000,0.0324,0.013523,0.002678,0.000431,0.006464
57300000,0.0324,0.013523,0.002678,0.000431,0.000705
57301000,0.0324,0.013523,0.002678,0.000431,0.000940
57302000,0.0324,0.013523,0.002678,0.000431,0.000940
57303000,0.0324,0.013523,0.002678,0.000431,0.000705
57304000,0.0324,0.013523,0.002678,0.000431,0.000940
57305000,0.0324,0.013523,0.002678,0.000431,0.000705
57306000,0.0324,0.013523,0.002678,0.000431,0.000940
57307000,0.0324,0.013523,0.002678,0.000431,0.000940
57308000,0.0324,0.013523,0.002678,0.000431,0.000705
57309000,0.0324,0.013523,0.002678,0.000431,0.000940
57310000,0.0324,0.013523,0.002678,0.000431,0.000705
57311000,0.0324,0.013523,0.002678,0.000431,0.000940
57312000,0.0324,0.013523,0.002678,0.000431,0.000823
57313000,0.0324,0.013523,0.002678,0.000431,0.000823
57314000,0.0324,0.013523,0.002678,0.000431,0.000823
57315000,0.0324,0.013523,0.002678,0.000431,0.000823
57316000,0.0324,0.013523,0.002678,0.000431,0.000940
57317000,0.0324,0.013523,0.002678,0.000431,0.000705
57318000,0.0324,0.013523,0.002678,0.000431,0.000940
57319000,0.0324,0.013523,0.002678,0.000431,0.000705
57320000,0.0324,0.013523,0.002678,0.000431,0.000823
57321000,0.0324,0.013523,0.002678,0.000431,0.000940
57322000,0.0324,0.013523,0.002678,0.000431,0.000823
57323000,0.0324,0.013523,0.002678,0.000431,0.000823
57324000,0.0324,0.013523,0.002678,0.000431,0.000823
57325000,0.0324,0.013523,0.002678,0.000431,0.000823
57326000,0.0324,0.013523,0.002678,0.000431,0.000823
57327000,0.0324,0.013523,0.002678,0.000431,0.000940
57328000,0.0324,0.013523,0.002678,0.000431,0.000823
57329000,0.0324,0.013523,0.002678,0.000431,0.000823
57330000,0.0324,0.013523,0.002678,0.000431,0.000705
57331000,0.0324,0.013523,0.002678,0.000431,0.000940
57332000,0.0324,0.013523,0.002678,0.000431,0.000940
57333000,0.0324,0.013523,0.002678,0.000431,0.000705
57334000,0.0324,0.013523,0.002678,0.000431,0.000940
57335000,0.0324,0.013523,0.002678,0.000431,0.000705
57336000,0.0324,0.013523,0.002678,0.000431,0.000940
57337000,0.0324,0.013523,0.002678,0.000431,0.000823
57338000,0.0324,0.013523,0.002678,0.000431,0.000823
57339000,0.0324,0.013523,0.002678,0.000431,0.000823
57340000,0.0324,0.013523,0.002678,0.000431,0.000823
57341000,0.0324,0.013523,0.002678,0.000431,0.000940
57342000,0.0324,0.013523,0.002678,0.000431,0.000705
57343000,0.0324,0.013523,0.002678,0.000431,0.000940
57344000,0.0324,0.013523,0.002678,0.000431,0.000823
57345000,0.0324,0.013523,0.002678,0.000431,0.000823
57346000,0.0324,0.013523,0.002678,0.000431,0.000823
57347000,0.0324,0.013523,0.002678,0.000431,0.000823
57348000,0.0324,0.013523,0.002678,0.000431,0.000823
57349000,0.0324,0.013523,0.002678,0.000431,0.000823
57350000,0.0324,0.013523,0.002678,0.000431,0.000940
57351000,0.0324,0.013523,0.002678,0.000431,0.000705
57352000,0.0324,0.013523,0.002678,0.000431,0.000940
57353000,0.0324,0.013523,0.002678,0.000431,0.000705
57354000,0.0324,0.013523,0.002678,0.000431,0.000940
57355000,0.0324,0.013523,0.002678,0.000431,0.000940
57356000,0.0324,0.013523,0.002678,0.000431,0.000705
57357000,0.0324,0.013523,0.002678,0.000431,0.000940
57358000,0.0324,0.013523,0.002678,0.000431,0.000705
57359000,0.0324,0.013523,0.002678,0.000431,0.000940
57360000,0.0324,0.013523,0.002678,0.000431,0.000823
57361000,0.0324,0.013523,0.002678,0.000431,0.000823
57362000,0.0324,0.013523,0.002678,0.000431,0.000823
57363000,0.0324,0.013523,0.002678,0.000431,0.000823
57364000,0.0324,0.013523,0.002678,0.000431,0.000823
57365000,0.0324,0.013523,0.002678,0.000431,0.000823
57366000,0.0324,0.013523,0.002678,0.000431,0.000940
57367000,0.0324,0.013523,0.002678,0.000431,0.000823
57368000,0.0324,0.013523,0.002678,0.000431,0.000705
57369000,0.0324,0.013523,0.002678,0.000431,0.000940
57370000,0.0324,0.013523,0.002678,0.000431,0.000823
57371000,0.0324,0.013523,0.002678,0.000431,0.000823
57372000,0.0324,0.013523,0.002678,0.000431,0.000823
57373000,0.0324,0.013523,0.002678,0.000431,0.000823
57374000,0.0324,0.013523,0.002678,0.000431,0.000823
57375000,0.0324,0.013523,0.002678,0.000431,0.000940
57376000,0.0324,0.013523,0.002678,0.000431,0.000823
57377000,0.0324,0.013523,0.002678,0.000431,0.000823
57378000,0.0324,0.013523,0.002678,0.000431,0.000705
57379000,0.0324,0.013523,0.002678,0.000431,0.000940
57380000,0.0324,0.013523,0.002678,0.000431,0.000940
57381000,0.0324,0.013523,0.002678,0.000431,0.000705
57382000,0.0324,0.013523,0.002678,0.000431,0.000940
57383000,0.0324,0.013523,0.002678,0.000431,0.000705
57384000,0.0324,0.013523,0.002678,0.000431,0.000940
57385000,0.0324,0.013523,0.002678,0.000431,0.000823
57386000,0.0324,0.013523,0.002678,0.000431,0.000823
57387000,0.0324,0.013523,0.002678,0.000431,0.000940
57388000,0.0324,0.013523,0.002678,0.000431,0.000705
57389000,0.0324,0.013523,0.002678,0.000431,0.000940
57390000,0.0324,0.013523,0.002678,0.000431,0.000705
57391000,0.0324,0.013523,0.002678,0.000431,0.000940
57392000,0.0324,0.013523,0.002678,0.000431,0.000823
57393000,0.0324,0.013523,0.002678,0.000431,0.000823
57394000,0.0324,0.013523,0.002678,0.000431,0.000823
57395000,0.0324,0.013523,0.002678,0.000431,0.000823
57396000,0.0324,0.013523,0.002678,0.000431,0.000823
57397000,0.0324,0.013523,0.002678,0.000431,0.000823
57398000,0.0324,0.013523,0.002678,0.000431,0.000940
57399000,0.0324,0.013523,0.002678,0.000431,0.000705
57400000,0.0324,0.013523,0.002678,0.000431,0.000940
57401000,0.0324,0.013523,0.002678,0.000431,0.000705
57402000,0.0324,0.013523,0.002678,0.000431,0.000940
57403000,0.0324,0.013523,0.002678,0.000431,0.000940
57404000,0.0324,0.013523,0.002678,0.000431,0.000705
57405000,0.0324,0.013523,0.002678,0.000431,0.000940
57406000,0.0324,0.013523,0.002678,0.000431,0.000705
57407000,0.0324,0.013523,0.002678,0.000431,0.000940
57408000,0.0324,0.013523,0.002678,0.000431,0.000823
57409000,0.0324,0.013523,0.002678,0.000431,0.000823
57410000,0.0324,0.013523,0.002678,0.000431,0.000823
57411000,0.0324,0.013523,0.002678,0.000431,0.000823
57412000,0.0324,0.013523,0.002678,0.000431,0.000940
57413000,0.0324,0.013523,0.002678,0.000431,0.000705
57414000,0.0324,0.013523,0.002678,0.000431,0.000940
57415000,0.0324,0.013523,0.002678,0.000431,0.000823
57416000,0.0324,0.013523,0.002678,0.000431,0.000823
57417000,0.0324,0.013523,0.002678,0.000431,0.000823
57418000,0.0324,0.013523,0.002678,0.000431,0.000823
57419000,0.0324,0.013523,0.002678,0.000431,0.000823
57420000,0.0324,0.013523,0.002678,0.000431,0.000823
57421000,0.0324,0.013523,0.002678,0.000431,0.000705
57422000,0.0324,0.013523,0.002678,0.000431,0.000940
57423000,0.0324,0.013523,0.002678,0.000431,0.000940
57424000,0.0324,0.013523,0.002678,0.000431,0.000705
57425000,0.0324,0.013523,0.002678,0.000431,0.000940
57426000,0.0324,0.013523,0.002678,0.000431,0.000705
57427000,0.0324,0.013523,0.002678,0.000431,0.000940
57428000,0.0324,0.013523,0.002678,0.000431,0.000940
57429000,0.0324,0.013523,0.002678,0.000431,0.000705
57430000,0.0324,0.013523,0.002678,0.000431,0.000940
57431000,0.0324,0.013523,0.002678,0.000431,0.000705
57432000,0.0324,0.013523,0.002678,0.000431,0.000940
57433000,0.0324,0.013523,0.002678,0.000431,0.000823
57434000,0.0324,0.013523,0.002678,0.000431,0.000823
57435000,0.0324,0.013523,0.002678,0.000431,0.000823
57436000,0.0324,0.013523,0.002678,0.000431,0.000823
57437000,0.0324,0.013523,0.002678,0.000431,0.000940
57438000,0.0324,0.013523,0.002678,0.000431,0.000823
57439000,0.0324,0.013523,0.002678,0.000431,0.000823
57440000,0.0324,0.013523,0.002678,0.000431,0.000823
57441000,0.0324,0.013523,0.002678,0.000431,0.000823
57442000,0.0324,0.013523,0.002678,0.000431,0.000823
57443000,0.0324,0.013523,0.002678,0.000431,0.000823
57444000,0.0324,0.013523,0.002678,0.000431,0.000940
57445000,0.0324,0.013523,0.002678,0.000431,0.000705
57446000,0.0324,0.013523,0.002678,0.000431,0.000940
57447000,0.0324,0.013523,0.002678,0.000431,0.000823
57448000,0.0324,0.013523,0.002678,0.000431,0.000823
57449000,0.0324,0.013523,0.002678,0.000431,0.000705
57450000,0.0324,0.013523,0.002678,0.000431,0.000940
57451000,0.0324,0.013523,0.002678,0.000431,0.000940
57452000,0.0324,0.013523,0.002678,0.000431,0.000705
57453000,0.0324,0.013523,0.002678,0.000431,0.000940
57454000,0.0324,0.013523,0.002678,0.000431,0.000705
57455000,0.0324,0.013523,0.002678,0.000431,0.000940
57456000,0.0324,0.013523,0.002678,0.000431,0.000823
57457000,0.0324,0.013523,0.002678,0.000431,0.000823
57458000,0.0324,0.013523,0.002678,0.000431,0.000940
57459000,0.0324,0.013523,0.002678,0.000431,0.000705
57460000,0.0324,0.013523,0.002678,0.000431,0.000940
57461000,0.0324,0.013523,0.002678,0.000431,0.000823
57462000,0.0324,0.013523,0.002678,0.000431,0.000823
57463000,0.0324,0.013523,0.002678,0.000431,0.000823
57464000,0.0324,0.013523,0.002678,0.000431,0.000823
57465000,0.0324,0.013523,0.002678,0.000431,0.000823
57466000,0.0324,0.013523,0.002678,0.000431,0.000823
57467000,0.0324,0.013523,0.002678,0.000431,0.000705
57468000,0.0324,0.013523,0.002678,0.000431,0.000940
57469000,0.0324,0.013523,0.002678,0.000431,0.000705
57470000,0.0324,0.013523,0.002678,0.000431,0.000823
57471000,0.0324,0.013523,0.002678,0.000431,0.015984
57472000,0.0324,0.013523,0.002678,0.000431,0.494324
57473000,0.0324,0.013523,0.002678,0.000431,0.599746
57474000,0.0324,0.013523,0.002678,0.000431,0.132337
57475000,0.0324,0.013523,0.002678,0.000431,0.133042
57476000,0.0324,0.013523,0.002678,0.000431,0.402887
57477000,0.0324,0.013523,0.002678,0.000431,0.353290
57478000,0.0324,0.013523,0.002678,0.000431,0.226242
57479000,0.0324,0.013523,0.002678,0.000431,0.311802
57480000,0.0324,0.013523,0.002678,0.000431,0.189455
57481000,0.0324,0.013523,0.002678,0.000431,0.138683
57482000,0.0324,0.013523,0.002678,0.000431,0.170298
57483000,0.0324,0.013523,0.002678,0.000431,0.109184
57484000,0.0324,0.013523,0.002678,0.000431,0.488565
57485000,0.0324,0.013523,0.002678,0.000431,0.132924
57486000,0.0324,0.013523,0.002678,0.000431,0.086971
57487000,0.0324,0.013523,0.002678,0.000431,0.076511
57488000,0.0324,0.013523,0.002678,0.000431,0.062055
57489000,0.0324,0.013523,0.002678,0.000431,0.043720
57490000,0.0324,0.013523,0.002678,0.000431,0.038902
57491000,0.0324,0.013523,0.002678,0.000431,0.028794
57492000,0.0324,0.013523,0.002678,0.000431,0.024093
57493000,0.0324,0.013523,0.002678,0.000431,0.021743
57494000,0.0324,0.013523,0.002678,0.000431,0.016571
57495000,0.0324,0.013523,0.002678,0.000431,0.016101
57496000,0.0324,0.013523,0.002678,0.000431,0.013398
57497000,0.0324,0.013523,0.002678,0.000431,0.011165
57498000,0.0324,0.013523,0.002678,0.000431,0.012576
57499000,0.0324,0.013523,0.002678,0.000431,0.013751
57500000,0.0324,0.013523,0.002678,0.000431,0.010225
57501000,0.0324,0.013523,0.002678,0.000431,0.009637
57502000,0.0324,0.013523,0.002678,0.000431,0.009285
57503000,0.0324,0.013523,0.002678,0.000431,0.006699
57504000,0.0324,0.013523,0.002678,0.000431,0.005994
57505000,0.0324,0.013523,0.002678,0.000431,0.005171
57506000,0.0324,0.013523,0.002678,0.000431,0.005876
57507000,0.0324,0.013523,0.002678,0.000431,0.005994
57508000,0.0324,0.013523,0.002678,0.000431,0.005054
57509000,0.0324,0.013523,0.002678,0.000431,0.006111
57510000,0.0324,0.013523,0.002678,0.000431,0.004819
57511000,0.0324,0.013523,0.002678,0.000431,0.004936
57512000,0.0324,0.013523,0.002678,0.000431,0.004936
57513000,0.0324,0.013523,0.002678,0.000431,0.005406
57514000,0.0324,0.013523,0.002678,0.000431,0.006111
57515000,0.0324,0.013523,0.002678,0.000431,0.004349
57516000,0.0324,0.013523,0.002678,0.000431,0.004231
57517000,0.0324,0.013523,0.002678,0.000431,0.006464
57518000,0.0324,0.013523,0.002678,0.000431,0.003761
57519000,0.0324,0.013523,0.002678,0.000431,0.003056
57520000,0.0324,0.013523,0.002678,0.000431,0.003643
57521000,0.0324,0.013523,0.002678,0.000431,0.003173
57522000,0.0324,0.013523,0.002678,0.000431,0.003173
57523000,0.0324,0.013523,0.002678,0.000431,0.003408
57524000,0.0324,0.013523,0.002678,0.000431,0.003526
57525000,0.0324,0.013523,0.002678,0.000431,0.003173
57526000,0.0324,0.013523,0.002678,0.000431,0.003173
57527000,0.0324,0.013523,0.002678,0.000431,0.003526
57528000,0.0324,0.013523,0.002678,0.000431,0.003173
57529000,0.0324,0.013523,0.002678,0.000431,0.003291
57530000,0.0324,0.013523,0.002678,0.000431,0.003173
57531000,0.0324,0.013523,0.002678,0.000431,0.002586
57532000,0.0324,0.013523,0.002678,0.000431,0.002351
57533000,0.0324,0.013523,0.002678,0.000431,0.002586
57534000,0.0324,0.013523,0.002678,0.000431,0.002586
57535000,0.0324,0.013523,0.002678,0.000431,0.002468
57536000,0.0324,0.013523,0.002678,0.000431,0.002351
57537000,0.0324,0.013523,0.002678,0.000431,0.002703
57538000,0.0324,0.013523,0.002678,0.000431,0.002468
57539000,0.0324,0.013523,0.002678,0.000431,0.002351
57540000,0.0324,0.013523,0.002678,0.000431,0.002703
57541000,0.0324,0.013523,0.002678,0.000431,0.002468
57542000,0.0324,0.013523,0.002678,0.000431,0.002351
57543000,0.0324,0.013523,0.002678,0.000431,0.002703
57544000,0.0324,0.013523,0.002678,0.000431,0.002468
57545000,0.0324,0.013523,0.002678,0.000431,0.002586
57546000,0.0324,0.013523,0.002678,0.000431,0.002468
57547000,0.0324,0.013523,0.002678,0.000431,0.002468
57548000,0.0324,0.013523,0.002678,0.000431,0.002586
57549000,0.0324,0.013523,0.002678,0.000431,0.002351
57550000,0.0324,0.013523,0.002678,0.000431,0.002586
57551000,0.0324,0.013523,0.002678,0.000431,0.002703
57552000,0.0324,0.013523,0.002678,0.000431,0.002351
57553000,0.0324,0.013523,0.002678,0.000431,0.002586
57554000,0.0324,0.013523,0.002678,0.000431,0.002351
57555000,0.0324,0.013523,0.002678,0.000431,0.002703
57556000,0.0324,0.013523,0.002678,0.000431,0.004701
57557000,0.0324,0.013523,0.002678,0.000431,0.001763
57558000,0.0324,0.013523,0.002678,0.000431,0.001645
57559000,0.0324,0.013523,0.002678,0.000431,0.001528
57560000,0.0324,0.013523,0.002678,0.000431,0.001880
57561000,0.0324,0.013523,0.002678,0.000431,0.001645
57562000,0.0324,0.013523,0.002678,0.000431,0.001645
57563000,0.0324,0.013523,0.002678,0.000431,0.001645
57564000,0.0324,0.013523,0.002678,0.000431,0.001645
57565000,0.0324,0.013523,0.002678,0.000431,0.001763
57566000,0.0324,0.013523,0.002678,0.000431,0.001763
57567000,0.0324,0.013523,0.002678,0.000431,0.001645
57568000,0.0324,0.013523,0.002678,0.000431,0.001645
57569000,0.0324,0.013523,0.002678,0.000431,0.001528
57570000,0.0324,0.013523,0.002678,0.000431,0.001763
57571000,0.0324,0.013523,0.002678,0.000431,0.001763
57572000,0.0324,0.013523,0.002678,0.000431,0.001645
57573000,0.0324,0.013523,0.002678,0.000431,0.001645
57574000,0.0324,0.013523,0.002678,0.000431,0.001528
57575000,0.0324,0.013523,0.002678,0.000431,0.001880
57576000,0.0324,0.013523,0.002678,0.000431,0.001645
57577000,0.0324,0.013523,0.002678,0.000431,0.001645
57578000,0.0324,0.013523,0.002678,0.000431,0.001763
57579000,0.0324,0.013523,0.002678,0.000431,0.001410
57580000,0.0324,0.013523,0.002678,0.000431,0.001880
57581000,0.0324,0.013523,0.002678,0.000431,0.001763
57582000,0.0324,0.013523,0.002678,0.000431,0.001528
57583000,0.0324,0.013523,0.002678,0.000431,0.001763
57584000,0.0324,0.013523,0.002678,0.000431,0.001528
57585000,0.0324,0.013523,0.002678,0.000431,0.001763
57586000,0.0324,0.013523,0.002678,0.000431,0.001763
57587000,0.0324,0.013523,0.002678,0.000431,0.001410
57588000,0.0324,0.013523,0.002678,0.000431,0.004113
57589000,0.0324,0.013523,0.002678,0.000431,0.000705
57590000,0.0324,0.013523,0.002678,0.000431,0.000940
57591000,0.0324,0.013523,0.002678,0.000431,0.000823
57592000,0.0324,0.013523,0.002678,0.000431,0.000823
57593000,0.0324,0.013523,0.002678,0.000431,0.000823
57594000,0.0324,0.013523,0.002678,0.000431,0.000823
57595000,0.0324,0.013523,0.002678,0.000431,0.000940
57596000,0.0324,0.013523,0.002678,0.000431,0.000705
57597000,0.0324,0.013523,0.002678,0.000431,0.000940
57598000,0.0324,0.013523,0.002678,0.000431,0.000705
57599000,0.0324,0.013523,0.002678,0.000431,0.000940
57600000,0.0324,0.013523,0.002678,0.000431,0.000823
57601000,0.0324,0.013523,0.002678,0.000431,0.000823
57602000,0.0324,0.013523,0.002678,0.000431,0.000823
57603000,0.0324,0.013523,0.002678,0.000431,0.000823
57604000,0.0324,0.013523,0.002678,0.000431,0.000940
57605000,0.0324,0.013523,0.002678,0.000431,0.000705
57606000,0.0324,0.013523,0.002678,0.000431,0.000940
57607000,0.0324,0.013523,0.002678,0.000431,0.000705
57608000,0.0324,0.013523,0.002678,0.000431,0.000940
57609000,0.0324,0.013523,0.002678,0.000431,0.000823
57610000,0.0324,0.013523,0.002678,0.000431,0.000823
57611000,0.0324,0.013523,0.002678,0.000431,0.000940
57612000,0.0324,0.013523,0.002678,0.000431,0.002821
57613000,0.0324,0.013523,0.002678,0.000431,0.441318
57614000,0.0324,0.013523,0.002678,0.000431,0.718332
57615000,0.0324,0.013523,0.002678,0.000431,0.135392
57616000,0.0324,0.013523,0.002678,0.000431,0.134452
57617000,0.0324,0.013523,0.002678,0.000431,0.241403
57618000,0.0324,0.013523,0.002678,0.000431,0.527937
57619000,0.0324,0.013523,0.002678,0.000431,0.267377
57620000,0.0324,0.013523,0.002678,0.000431,0.333075
57621000,0.0324,0.013523,0.002678,0.000431,0.164657
57622000,0.0324,0.013523,0.002678,0.000431,0.145500
57623000,0.0324,0.013523,0.002678,0.000431,0.109301
57624000,0.0324,0.013523,0.002678,0.000431,0.374915
57625000,0.0324,0.013523,0.002678,0.000431,0.242461
57626000,0.0324,0.013523,0.002678,0.000431,0.062407
57627000,0.0324,0.013523,0.002678,0.000431,0.052535
57628000,0.0324,0.013523,0.002678,0.000431,0.045601
57629000,0.0324,0.013523,0.002678,0.000431,0.037962
57630000,0.0324,0.013523,0.002678,0.000431,0.035494
57631000,0.0324,0.013523,0.002678,0.000431,0.030675
57632000,0.0324,0.013523,0.002678,0.000431,0.025269
57633000,0.0324,0.013523,0.002678,0.000431,0.019040
57634000,0.0324,0.013523,0.002678,0.000431,0.017982
57635000,0.0324,0.013523,0.002678,0.000431,0.017042
57636000,0.0324,0.013523,0.002678,0.000431,0.013986
57637000,0.0324,0.013523,0.002678,0.000431,0.013398
57638000,0.0324,0.013523,0.002678,0.000431,0.014691
57639000,0.0324,0.013523,0.002678,0.000431,0.011635
57640000,0.0324,0.013523,0.002678,0.000431,0.003996
57641000,0.0324,0.013523,0.002678,0.000431,0.004113
57642000,0.0324,0.013523,0.002678,0.000431,0.004231
57643000,0.0324,0.013523,0.002678,0.000431,0.003878
57644000,0.0324,0.013523,0.002678,0.000431,0.005994
57645000,0.0324,0.013523,0.002678,0.000431,0.003291
57646000,0.0324,0.013523,0.002678,0.000431,0.003173
57647000,0.0324,0.013523,0.002678,0.000431,0.005641
57648000,0.0324,0.013523,0.002678,0.000431,0.001645
57649000,0.0324,0.013523,0.002678,0.000431,0.001763
57650000,0.0324,0.013523,0.002678,0.000431,0.001763
57651000,0.0324,0.013523,0.002678,0.000431,0.001763
57652000,0.0324,0.013523,0.002678,0.000431,0.003408
57653000,0.0324,0.013523,0.002678,0.000431,0.000940
57654000,0.0324,0.013523,0.002678,0.000431,0.000823
57655000,0.0324,0.013523,0.002678,0.000431,0.000823
57656000,0.0324,0.013523,0.002678,0.000431,0.000705
57657000,0.0324,0.013523,0.002678,0.000431,0.000940
57658000,0.0324,0.013523,0.002678,0.000431,0.000940
57659000,0.0324,0.013523,0.002678,0.000431,0.000823
57660000,0.0324,0.013523,0.002678,0.000431,0.000823
57661000,0.0324,0.013523,0.002678,0.000431,0.000705
57662000,0.0324,0.013523,0.002678,0.000431,0.000940
57663000,0.0324,0.013523,0.002678,0.000431,0.000705
57664000,0.0324,0.013523,0.002678,0.000431,0.000940
57665000,0.0324,0.013523,0.002678,0.000431,0.000823
57666000,0.0324,0.013523,0.002678,0.000431,0.000705
57667000,0.0324,0.013523,0.002678,0.000431,0.014221
57668000,0.0324,0.013523,0.002678,0.000431,0.507134
57669000,0.0324,0.013523,0.002678,0.000431,0.594458
57670000,0.0324,0.013523,0.002678,0.000431,0.137626
57671000,0.0324,0.013523,0.002678,0.000431,0.131632
57672000,0.0324,0.013523,0.002678,0.000431,0.360576
57673000,0.0324,0.013523,0.002678,0.000431,0.405590
57674000,0.0324,0.013523,0.002678,0.000431,0.227300
57675000,0.0324,0.013523,0.002678,0.000431,0.332722
57676000,0.0324,0.013523,0.002678,0.000431,0.185459
57677000,0.0324,0.013523,0.002678,0.000431,0.145970
57678000,0.0324,0.013523,0.002678,0.000431,0.138683
57679000,0.0324,0.013523,0.002678,0.000431,0.240228
57680000,0.0324,0.013523,0.002678,0.000431,0.387490
57681000,0.0324,0.013523,0.002678,0.000431,0.084620
57682000,0.0324,0.013523,0.002678,0.000431,0.067814
57683000,0.0324,0.013523,0.002678,0.000431,0.059117
57684000,0.0324,0.013523,0.002678,0.000431,0.053358
57685000,0.0324,0.013523,0.002678,0.000431,0.042663
57686000,0.0324,0.013523,0.002678,0.000431,0.040665
57687000,0.0324,0.013523,0.002678,0.000431,0.029265
57688000,0.0324,0.013523,0.002678,0.000431,0.031498
57689000,0.0324,0.013523,0.002678,0.000431,0.022213
57690000,0.0324,0.013523,0.002678,0.000431,0.020802
57691000,0.0324,0.013523,0.002678,0.000431,0.015396
57692000,0.0324,0.013523,0.002678,0.000431,0.014926
57693000,0.0324,0.013523,0.002678,0.000431,0.013046
57694000,0.0324,0.013523,0.002678,0.000431,0.015631
57695000,0.0324,0.013523,0.002678,0.000431,0.009755
57696000,0.0324,0.013523,0.002678,0.000431,0.008815
57697000,0.0324,0.013523,0.002678,0.000431,0.009167
57698000,0.0324,0.013523,0.002678,0.000431,0.005994
57699000,0.0324,0.013523,0.002678,0.000431,0.008227
57700000,0.0324,0.013523,0.002678,0.000431,0.005054
57701000,0.0324,0.013523,0.002678,0.000431,0.005524
57702000,0.0324,0.013523,0.002678,0.000431,0.009637
57703000,0.0324,0.013523,0.002678,0.000431,0.003526
57704000,0.0324,0.013523,0.002678,0.000431,0.002468
57705000,0.0324,0.013523,0.002678,0.000431,0.002468
57706000,0.0324,0.013523,0.002678,0.000431,0.003056
57707000,0.0324,0.013523,0.002678,0.000431,0.001998
57708000,0.0324,0.013523,0.002678,0.000431,0.000823
57709000,0.0324,0.013523,0.002678,0.000431,0.000940
57710000,0.0324,0.013523,0.002678,0.000431,0.000940
57711000,0.0324,0.013523,0.002678,0.000431,0.000823
57712000,0.0324,0.013523,0.002678,0.000431,0.000823
57713000,0.0324,0.013523,0.002678,0.000431,0.000940
57714000,0.0324,0.013523,0.002678,0.000431,0.000823
57715000,0.0324,0.013523,0.002678,0.000431,0.000940
57716000,0.0324,0.013523,0.002678,0.000431,0.000823
57717000,0.0324,0.013523,0.002678,0.000431,0.000940
57718000,0.0324,0.013523,0.002678,0.000431,0.000823
57719000,0.0324,0.013523,0.002678,0.000431,0.000823
57720000,0.0324,0.013523,0.002678,0.000431,0.000940
57721000,0.0324,0.013523,0.002678,0.000431,0.000940
57722000,0.0324,0.013523,0.002678,0.000431,0.000823
57723000,0.0324,0.013523,0.002678,0.000431,0.000823
57724000,0.0324,0.013523,0.002678,0.000431,0.000940
57725000,0.0324,0.013523,0.002678,0.000431,0.000940
57726000,0.0324,0.013523,0.002678,0.000431,0.000705
57727000,0.0324,0.013523,0.002678,0.000431,0.000940
57728000,0.0324,0.013523,0.002678,0.000431,0.000940
57729000,0.0324,0.013523,0.002678,0.000431,0.000940
57730000,0.0324,0.013523,0.002678,0.000431,0.000705
57731000,0.0324,0.013523,0.002678,0.000431,0.000940
57732000,0.0324,0.013523,0.002678,0.000431,0.014573
57733000,0.0324,0.013523,0.002678,0.000431,0.530170
57734000,0.0324,0.013523,0.002678,0.000431,0.601274
57735000,0.0324,0.013523,0.002678,0.000431,0.134922
57736000,0.0324,0.013523,0.002678,0.000431,0.132102
57737000,0.0324,0.013523,0.002678,0.000431,0.453894
57738000,0.0324,0.013523,0.002678,0.000431,0.365513
57739000,0.0324,0.013523,0.002678,0.000431,0.238230
57740000,0.0324,0.013523,0.002678,0.000431,0.359871
57741000,0.0324,0.013523,0.002678,0.000431,0.143972
57742000,0.0324,0.013523,0.002678,0.000431,0.167478
57743000,0.0324,0.013523,0.002678,0.000431,0.096961
57744000,0.0324,0.013523,0.002678,0.000431,0.473756
57745000,0.0324,0.013523,0.002678,0.000431,0.109184
57746000,0.0324,0.013523,0.002678,0.000431,0.054533
57747000,0.0324,0.013523,0.002678,0.000431,0.046189
57748000,0.0324,0.013523,0.002678,0.000431,0.040900
57749000,0.0324,0.013523,0.002678,0.000431,0.026209
57750000,0.0324,0.013523,0.002678,0.000431,0.021978
57751000,0.0324,0.013523,0.002678,0.000431,0.017512
57752000,0.0324,0.013523,0.002678,0.000431,0.025621
57753000,0.0324,0.013523,0.002678,0.000431,0.013633
57754000,0.0324,0.013523,0.002678,0.000431,0.016336
57755000,0.0324,0.013523,0.002678,0.000431,0.014809
57756000,0.0324,0.013523,0.002678,0.000431,0.012811
57757000,0.0324,0.013523,0.002678,0.000431,0.006817
57758000,0.0324,0.013523,0.002678,0.000431,0.006934
57759000,0.0324,0.013523,0.002678,0.000431,0.008815
57760000,0.0324,0.013523,0.002678,0.000431,0.005406
57761000,0.0324,0.013523,0.002678,0.000431,0.006582
57762000,0.0324,0.013523,0.002678,0.000431,0.004349
57763000,0.0324,0.013523,0.002678,0.000431,0.006347
57764000,0.0324,0.013523,0.002678,0.000431,0.001763
57765000,0.0324,0.013523,0.002678,0.000431,0.001880
57766000,0.0324,0.013523,0.002678,0.000431,0.001410
57767000,0.0324,0.013523,0.002678,0.000431,0.001763
57768000,0.0324,0.013523,0.002678,0.000431,0.001645
57769000,0.0324,0.013523,0.002678,0.000431,0.001763
57770000,0.0324,0.013523,0.002678,0.000431,0.001645
57771000,0.0324,0.013523,0.002678,0.000431,0.001645
57772000,0.0324,0.013523,0.002678,0.000431,0.001528
57773000,0.0324,0.013523,0.002678,0.000431,0.001763
57774000,0.0324,0.013523,0.002678,0.000431,0.001880
57775000,0.0324,0.013523,0.002678,0.000431,0.001410
57776000,0.0324,0.013523,0.002678,0.000431,0.001880
57777000,0.0324,0.013523,0.002678,0.000431,0.001528
57778000,0.0324,0.013523,0.002678,0.000431,0.001763
57779000,0.0324,0.013523,0.002678,0.000431,0.001763
57780000,0.0324,0.013523,0.002678,0.000431,0.001528
57781000,0.0324,0.013523,0.002678,0.000431,0.001763
57782000,0.0324,0.013523,0.002678,0.000431,0.001528
57783000,0.0324,0.013523,0.002678,0.000431,0.001763
57784000,0.0324,0.013523,0.002678,0.000431,0.001645
57785000,0.0324,0.013523,0.002678,0.000431,0.001763
57786000,0.0324,0.013523,0.002678,0.000431,0.001645
57787000,0.0324,0.013523,0.002678,0.000431,0.001645
57788000,0.0324,0.013523,0.002678,0.000431,0.001645
57789000,0.0324,0.013523,0.002678,0.000431,0.001645
57790000,0.0324,0.013523,0.002678,0.000431,0.001880
57791000,0.0324,0.013523,0.002678,0.000431,0.001528
57792000,0.0324,0.013523,0.002678,0.000431,0.001763
57793000,0.0324,0.013523,0.002678,0.000431,0.001528
57794000,0.0324,0.013523,0.002678,0.000431,0.001763
57795000,0.0324,0.013523,0.002678,0.000431,0.001645
57796000,0.0324,0.013523,0.002678,0.000431,0.001645
57797000,0.0324,0.013523,0.002678,0.000431,0.001880
57798000,0.0324,0.013523,0.002678,0.000431,0.001528
57799000,0.0324,0.013523,0.002678,0.000431,0.001763
57800000,0.0324,0.013523,0.002678,0.000431,0.001528
57801000,0.0324,0.013523,0.002678,0.000431,0.001763
57802000,0.0324,0.013523,0.002678,0.000431,0.001763
57803000,0.0324,0.013523,0.002678,0.000431,0.001528
57804000,0.0324,0.013523,0.002678,0.000431,0.001880
57805000,0.0324,0.013523,0.002678,0.000431,0.001410
57806000,0.0324,0.013523,0.002678,0.000431,0.001880
57807000,0.0324,0.013523,0.002678,0.000431,0.001645
57808000,0.0324,0.013523,0.002678,0.000431,0.001645
57809000,0.0324,0.013523,0.002678,0.000431,0.001763
57810000,0.0324,0.013523,0.002678,0.000431,0.001528
57811000,0.0324,0.013523,0.002678,0.000431,0.001645
57812000,0.0324,0.013523,0.002678,0.000431,0.001763
57813000,0.0324,0.013523,0.002678,0.000431,0.001763
57814000,0.0324,0.013523,0.002678,0.000431,0.001528
57815000,0.0324,0.013523,0.002678,0.000431,0.001763
57816000,0.0324,0.013523,0.002678,0.000431,0.001528
57817000,0.0324,0.013523,0.002678,0.000431,0.001763
57818000,0.0324,0.013523,0.002678,0.000431,0.002703
57819000,0.0324,0.013523,0.002678,0.000431,0.001880
57820000,0.0324,0.013523,0.002678,0.000431,0.000823
57821000,0.0324,0.013523,0.002678,0.000431,0.000940
57822000,0.0324,0.013523,0.002678,0.000431,0.000823
57823000,0.0324,0.013523,0.002678,0.000431,0.000823
57824000,0.0324,0.013523,0.002678,0.000431,0.000823
57825000,0.0324,0.013523,0.002678,0.000431,0.000823
57826000,0.0324,0.013523,0.002678,0.000431,0.000823
57827000,0.0324,0.013523,0.002678,0.000431,0.000940
57828000,0.0324,0.013523,0.002678,0.000431,0.000823
57829000,0.0324,0.013523,0.002678,0.000431,0.000823
57830000,0.0324,0.013523,0.002678,0.000431,0.000705
57831000,0.0324,0.013523,0.002678,0.000431,0.000940
57832000,0.0324,0.013523,0.002678,0.000431,0.000940
57833000,0.0324,0.013523,0.002678,0.000431,0.000705
57834000,0.0324,0.013523,0.002678,0.000431,0.000940
57835000,0.0324,0.013523,0.002678,0.000431,0.000705
57836000,0.0324,0.013523,0.002678,0.000431,0.000940
57837000,0.0324,0.013523,0.002678,0.000431,0.000823
57838000,0.0324,0.013523,0.002678,0.000431,0.000823
57839000,0.0324,0.013523,0.002678,0.000431,0.000823
57840000,0.0324,0.013523,0.002678,0.000431,0.000823
57841000,0.0324,0.013523,0.002678,0.000431,0.000940
57842000,0.0324,0.013523,0.002678,0.000431,0.000823
57843000,0.0324,0.013523,0.002678,0.000431,0.000823
57844000,0.0324,0.013523,0.002678,0.000431,0.000940
57845000,0.0324,0.013523,0.002678,0.000431,0.000705
57846000,0.0324,0.013523,0.002678,0.000431,0.000940
57847000,0.0324,0.013523,0.002678,0.000431,0.000705
57848000,0.0324,0.013523,0.002678,0.000431,0.000940
57849000,0.0324,0.013523,0.002678,0.000431,0.000705
57850000,0.0324,0.013523,0.002678,0.000431,0.000940
57851000,0.0324,0.013523,0.002678,0.000431,0.000940
57852000,0.0324,0.013523,0.002678,0.000431,0.000705
57853000,0.0324,0.013523,0.002678,0.000431,0.000940
57854000,0.0324,0.013523,0.002678,0.000431,0.000705
57855000,0.0324,0.013523,0.002678,0.000431,0.000940
57856000,0.0324,0.013523,0.002678,0.000431,0.000823
57857000,0.0324,0.013523,0.002678,0.000431,0.000823
57858000,0.0324,0.013523,0.002678,0.000431,0.000823
57859000,0.0324,0.013523,0.002678,0.000431,0.000823
57860000,0.0324,0.013523,0.002678,0.000431,0.071105
57861000,0.0324,0.013523,0.002678,0.000431,0.460710
57862000,0.0324,0.013523,0.002678,0.000431,0.610794
57863000,0.0324,0.013523,0.002678,0.000431,0.131161
57864000,0.0324,0.013523,0.002678,0.000431,0.133982
57865000,0.0324,0.013523,0.002678,0.000431,0.531933
57866000,0.0324,0.013523,0.002678,0.000431,0.255859
57867000,0.0324,0.013523,0.002678,0.000431,0.272313
57868000,0.0324,0.013523,0.002678,0.000431,0.311802
57869000,0.0324,0.013523,0.002678,0.000431,0.155490
57870000,0.0324,0.013523,0.002678,0.000431,0.142914
57871000,0.0324,0.013523,0.002678,0.000431,0.135275
57872000,0.0324,0.013523,0.002678,0.000431,0.239405
57873000,0.0324,0.013523,0.002678,0.000431,0.377971
57874000,0.0324,0.013523,0.002678,0.000431,0.082975
57875000,0.0324,0.013523,0.002678,0.000431,0.065816
57876000,0.0324,0.013523,0.002678,0.000431,0.043015
57877000,0.0324,0.013523,0.002678,0.000431,0.042663
57878000,0.0324,0.013523,0.002678,0.000431,0.030205
57879000,0.0324,0.013523,0.002678,0.000431,0.024446
57880000,0.0324,0.013523,0.002678,0.000431,0.017982
57881000,0.0324,0.013523,0.002678,0.000431,0.022330
57882000,0.0324,0.013523,0.002678,0.000431,0.013163
57883000,0.0324,0.013523,0.002678,0.000431,0.011283
57884000,0.0324,0.013523,0.002678,0.000431,0.008345
57885000,0.0324,0.013523,0.002678,0.000431,0.006582
57886000,0.0324,0.013523,0.002678,0.000431,0.006699
57887000,0.0324,0.013523,0.002678,0.000431,0.006464
57888000,0.0324,0.013523,0.002678,0.000431,0.007757
57889000,0.0324,0.013523,0.002678,0.000431,0.005759
57890000,0.0324,0.013523,0.002678,0.000431,0.005759
57891000,0.0324,0.013523,0.002678,0.000431,0.005406
57892000,0.0324,0.013523,0.002678,0.000431,0.009167
57893000,0.0324,0.013523,0.002678,0.000431,0.004584
57894000,0.0324,0.013523,0.002678,0.000431,0.006111
57895000,0.0324,0.013523,0.002678,0.000431,0.005406
57896000,0.0324,0.013523,0.002678,0.000431,0.004113
57897000,0.0324,0.013523,0.002678,0.000431,0.003643
57898000,0.0324,0.013523,0.002678,0.000431,0.004349
57899000,0.0324,0.013523,0.002678,0.000431,0.003878
57900000,0.0324,0.013523,0.002678,0.000431,0.004113
57901000,0.0324,0.013523,0.002678,0.000431,0.004113
57902000,0.0324,0.013523,0.002678,0.000431,0.003996
57903000,0.0324,0.013523,0.002678,0.000431,0.005876
57904000,0.0324,0.013523,0.002678,0.000431,0.003526
57905000,0.0324,0.013523,0.002678,0.000431,0.002821
57906000,0.0324,0.013523,0.002678,0.000431,0.003408
57907000,0.0324,0.013523,0.002678,0.000431,0.002938
57908000,0.0324,0.013523,0.002678,0.000431,0.003173
57909000,0.0324,0.013523,0.002678,0.000431,0.002821
57910000,0.0324,0.013523,0.002678,0.000431,0.001763
57911000,0.0324,0.013523,0.002678,0.000431,0.001763
57912000,0.0324,0.013523,0.002678,0.000431,0.001528
57913000,0.0324,0.013523,0.002678,0.000431,0.001645
57914000,0.0324,0.013523,0.002678,0.000431,0.001763
57915000,0.0324,0.013523,0.002678,0.000431,0.001763
57916000,0.0324,0.013523,0.002678,0.000431,0.001528
57917000,0.0324,0.013523,0.002678,0.000431,0.001763
57918000,0.0324,0.013523,0.002678,0.000431,0.001645
57919000,0.0324,0.013523,0.002678,0.000431,0.001763
57920000,0.0324,0.013523,0.002678,0.000431,0.001645
57921000,0.0324,0.013523,0.002678,0.000431,0.001880
57922000,0.0324,0.013523,0.002678,0.000431,0.001645
57923000,0.0324,0.013523,0.002678,0.000431,0.001645
57924000,0.0324,0.013523,0.002678,0.000431,0.002586
57925000,0.0324,0.013523,0.002678,0.000431,0.001880
57926000,0.0324,0.013523,0.002678,0.000431,0.000940
57927000,0.0324,0.013523,0.002678,0.000431,0.000940
57928000,0.0324,0.013523,0.002678,0.000431,0.000705
57929000,0.0324,0.013523,0.002678,0.000431,0.000940
57930000,0.0324,0.013523,0.002678,0.000431,0.000705
57931000,0.0324,0.013523,0.002678,0.000431,0.000940
57932000,0.0324,0.013523,0.002678,0.000431,0.000940
57933000,0.0324,0.013523,0.002678,0.000431,0.000705
57934000,0.0324,0.013523,0.002678,0.000431,0.000940
57935000,0.0324,0.013523,0.002678,0.000431,0.000705
57936000,0.0324,0.013523,0.002678,0.000431,0.000940
57937000,0.0324,0.013523,0.002678,0.000431,0.000823
57938000,0.0324,0.013523,0.002678,0.000431,0.000823
57939000,0.0324,0.013523,0.002678,0.000431,0.000823
57940000,0.0324,0.013523,0.002678,0.000431,0.000823
57941000,0.0324,0.013523,0.002678,0.000431,0.000940
57942000,0.0324,0.013523,0.002678,0.000431,0.000705
57943000,0.0324,0.013523,0.002678,0.000431,0.000940
57944000,0.0324,0.013523,0.002678,0.000431,0.000823
57945000,0.0324,0.013523,0.002678,0.000431,0.000823
57946000,0.0324,0.013523,0.002678,0.000431,0.000823
57947000,0.0324,0.013523,0.002678,0.000431,0.000823
57948000,0.0324,0.013523,0.002678,0.000431,0.000705
57949000,0.0324,0.013523,0.002678,0.000431,0.000940
57950000,0.0324,0.013523,0.002678,0.000431,0.000940
57951000,0.0324,0.013523,0.002678,0.000431,0.000705
57952000,0.0324,0.013523,0.002678,0.000431,0.000940
57953000,0.0324,0.013523,0.002678,0.000431,0.000705
57954000,0.0324,0.013523,0.002678,0.000431,0.000940
57955000,0.0324,0.013523,0.002678,0.000431,0.000940
57956000,0.0324,0.013523,0.002678,0.000431,0.000705
57957000,0.0324,0.013523,0.002678,0.000431,0.000940
57958000,0.0324,0.013523,0.002678,0.000431,0.000705
57959000,0.0324,0.013523,0.002678,0.000431,0.000940
57960000,0.0324,0.013523,0.002678,0.000431,0.000940
57961000,0.0324,0.013523,0.002678,0.000431,0.224009
57962000,0.0324,0.013523,0.002678,0.000431,0.638766
57963000,0.0324,0.013523,0.002678,0.000431,0.356698
57964000,0.0324,0.013523,0.002678,0.000431,0.131632
57965000,0.0324,0.013523,0.002678,0.000431,0.133982
57966000,0.0324,0.013523,0.002678,0.000431,0.599746
57967000,0.0324,0.013523,0.002678,0.000431,0.259737
57968000,0.0324,0.013523,0.002678,0.000431,0.242343
57969000,0.0324,0.013523,0.002678,0.000431,0.229533
57970000,0.0324,0.013523,0.002678,0.000431,0.137978
57971000,0.0324,0.013523,0.002678,0.000431,0.148203
57972000,0.0324,0.013523,0.002678,0.000431,0.115295
57973000,0.0324,0.013523,0.002678,0.000431,0.425099
57974000,0.0324,0.013523,0.002678,0.000431,0.269492
57975000,0.0324,0.013523,0.002678,0.000431,0.122699
57976000,0.0324,0.013523,0.002678,0.000431,0.097666
57977000,0.0324,0.013523,0.002678,0.000431,0.096256
57978000,0.0324,0.013523,0.002678,0.000431,0.066286
57979000,0.0324,0.013523,0.002678,0.000431,0.060880
57980000,0.0324,0.013523,0.002678,0.000431,0.056414
57981000,0.0324,0.013523,0.002678,0.000431,0.043250
57982000,0.0324,0.013523,0.002678,0.000431,0.034318
57983000,0.0324,0.013523,0.002678,0.000431,0.040195
57984000,0.0324,0.013523,0.002678,0.000431,0.027972
57985000,0.0324,0.013523,0.002678,0.000431,0.023388
57986000,0.0324,0.013523,0.002678,0.000431,0.021038
57987000,0.0324,0.013523,0.002678,0.000431,0.016454
57988000,0.0324,0.013523,0.002678,0.000431,0.018217
57989000,0.0324,0.013523,0.002678,0.000431,0.016571
57990000,0.0324,0.013523,0.002678,0.000431,0.018217
57991000,0.0324,0.013523,0.002678,0.000431,0.013633
57992000,0.0324,0.013523,0.002678,0.000431,0.012458
57993000,0.0324,0.013523,0.002678,0.000431,0.012928
57994000,0.0324,0.013523,0.002678,0.000431,0.011518
57995000,0.0324,0.013523,0.002678,0.000431,0.011870
57996000,0.0324,0.013523,0.002678,0.000431,0.012458
57997000,0.0324,0.013523,0.002678,0.000431,0.011165
57998000,0.0324,0.013523,0.002678,0.000431,0.011165
57999000,0.0324,0.013523,0.002678,0.000431,0.011048
