Cycle,Area(mm^2),PeakDynamic(W),SubthresholdLeakage(W),GateLeakage(W),RunTimeDynamic(W)
125000000,0.0324,0.013523,0.002678,0.000431,0.001293
125001000,0.0324,0.013523,0.002678,0.000431,0.001763
125002000,0.0324,0.013523,0.002678,0.000431,0.001293
125003000,0.0324,0.013523,0.002678,0.000431,0.001528
125004000,0.0324,0.013523,0.002678,0.000431,0.001645
125005000,0.0324,0.013523,0.002678,0.000431,0.001410
125006000,0.0324,0.013523,0.002678,0.000431,0.001175
125007000,0.0324,0.013523,0.002678,0.000431,0.001880
125008000,0.0324,0.013523,0.002678,0.000431,0.001175
125009000,0.0324,0.013523,0.002678,0.000431,0.001645
125010000,0.0324,0.013523,0.002678,0.000431,0.001645
125011000,0.0324,0.013523,0.002678,0.000431,0.001410
125012000,0.0324,0.013523,0.002678,0.000431,0.001410
125013000,0.0324,0.013523,0.002678,0.000431,0.001645
125014000,0.0324,0.013523,0.002678,0.000431,0.001293
125015000,0.0324,0.013523,0.002678,0.000431,0.001528
125016000,0.0324,0.013523,0.002678,0.000431,0.001528
125017000,0.0324,0.013523,0.002678,0.000431,0.001293
125018000,0.0324,0.013523,0.002678,0.000431,0.001410
125019000,0.0324,0.013523,0.002678,0.000431,0.001645
125020000,0.0324,0.013523,0.002678,0.000431,0.001293
125021000,0.0324,0.013523,0.002678,0.000431,0.001763
125022000,0.0324,0.013523,0.002678,0.000431,0.001293
125023000,0.0324,0.013523,0.002678,0.000431,0.001528
125024000,0.0324,0.013523,0.002678,0.000431,0.001410
125025000,0.0324,0.013523,0.002678,0.000431,0.001645
125026000,0.0324,0.013523,0.002678,0.000431,0.001175
125027000,0.0324,0.013523,0.002678,0.000431,0.001880
125028000,0.0324,0.013523,0.002678,0.000431,0.001175
125029000,0.0324,0.013523,0.002678,0.000431,0.001645
125030000,0.0324,0.013523,0.002678,0.000431,0.001410
125031000,0.0324,0.013523,0.002678,0.000431,0.001645
125032000,0.0324,0.013523,0.002678,0.000431,0.001175
125033000,0.0324,0.013523,0.002678,0.000431,0.001880
125034000,0.0324,0.013523,0.002678,0.000431,0.001293
125035000,0.0324,0.013523,0.002678,0.000431,0.001528
125036000,0.0324,0.013523,0.002678,0.000431,0.001528
125037000,0.0324,0.013523,0.002678,0.000431,0.001293
125038000,0.0324,0.013523,0.002678,0.000431,0.001645
125039000,0.0324,0.013523,0.002678,0.000431,0.001410
125040000,0.0324,0.013523,0.002678,0.000431,0.001293
125041000,0.0324,0.013523,0.002678,0.000431,0.000823
125042000,0.0324,0.013523,0.002678,0.000431,0.000823
125043000,0.0324,0.013523,0.002678,0.000431,0.000940
125044000,0.0324,0.013523,0.002678,0.000431,0.000705
125045000,0.0324,0.013523,0.002678,0.000431,0.000940
125046000,0.0324,0.013523,0.002678,0.000431,0.000823
125047000,0.0324,0.013523,0.002678,0.000431,0.000823
125048000,0.0324,0.013523,0.002678,0.000431,0.000823
125049000,0.0324,0.013523,0.002678,0.000431,0.000823
125050000,0.0324,0.013523,0.002678,0.000431,0.000823
125051000,0.0324,0.013523,0.002678,0.000431,0.000823
125052000,0.0324,0.013523,0.002678,0.000431,0.000940
125053000,0.0324,0.013523,0.002678,0.000431,0.000705
125054000,0.0324,0.013523,0.002678,0.000431,0.000940
125055000,0.0324,0.013523,0.002678,0.000431,0.000823
125056000,0.0324,0.013523,0.002678,0.000431,0.000823
125057000,0.0324,0.013523,0.002678,0.000431,0.000823
125058000,0.0324,0.013523,0.002678,0.000431,0.000823
125059000,0.0324,0.013523,0.002678,0.000431,0.000940
125060000,0.0324,0.013523,0.002678,0.000431,0.000705
125061000,0.0324,0.013523,0.002678,0.000431,0.000940
125062000,0.0324,0.013523,0.002678,0.000431,0.000705
125063000,0.0324,0.013523,0.002678,0.000431,0.000940
125064000,0.0324,0.013523,0.002678,0.000431,0.000823
125065000,0.0324,0.013523,0.002678,0.000431,0.000823
125066000,0.0324,0.013523,0.002678,0.000431,0.000940
125067000,0.0324,0.013523,0.002678,0.000431,0.000705
125068000,0.0324,0.013523,0.002678,0.000431,0.000940
125069000,0.0324,0.013523,0.002678,0.000431,0.000823
125070000,0.0324,0.013523,0.002678,0.000431,0.000823
125071000,0.0324,0.013523,0.002678,0.000431,0.000823
125072000,0.0324,0.013523,0.002678,0.000431,0.000823
125073000,0.0324,0.013523,0.002678,0.000431,0.000940
125074000,0.0324,0.013523,0.002678,0.000431,0.000705
125075000,0.0324,0.013523,0.002678,0.000431,0.000940
125076000,0.0324,0.013523,0.002678,0.000431,0.000823
125077000,0.0324,0.013523,0.002678,0.000431,0.000823
125078000,0.0324,0.013523,0.002678,0.000431,0.000823
125079000,0.0324,0.013523,0.002678,0.000431,0.000823
125080000,0.0324,0.013523,0.002678,0.000431,0.000823
125081000,0.0324,0.013523,0.002678,0.000431,0.000823
125082000,0.0324,0.013523,0.002678,0.000431,0.000823
125083000,0.0324,0.013523,0.002678,0.000431,0.000823
125084000,0.0324,0.013523,0.002678,0.000431,0.000940
125085000,0.0324,0.013523,0.002678,0.000431,0.000823
125086000,0.0324,0.013523,0.002678,0.000431,0.000823
125087000,0.0324,0.013523,0.002678,0.000431,0.000705
125088000,0.0324,0.013523,0.002678,0.000431,0.000940
125089000,0.0324,0.013523,0.002678,0.000431,0.000940
125090000,0.0324,0.013523,0.002678,0.000431,0.000705
125091000,0.0324,0.013523,0.002678,0.000431,0.000940
125092000,0.0324,0.013523,0.002678,0.000431,0.000705
125093000,0.0324,0.013523,0.002678,0.000431,0.000940
125094000,0.0324,0.013523,0.002678,0.000431,0.000705
125095000,0.0324,0.013523,0.002678,0.000431,0.000940
125096000,0.0324,0.013523,0.002678,0.000431,0.000823
125097000,0.0324,0.013523,0.002678,0.000431,0.000823
125098000,0.0324,0.013523,0.002678,0.000431,0.000823
125099000,0.0324,0.013523,0.002678,0.000431,0.000823
125100000,0.0324,0.013523,0.002678,0.000431,0.000940
125101000,0.0324,0.013523,0.002678,0.000431,0.000705
125102000,0.0324,0.013523,0.002678,0.000431,0.000940
125103000,0.0324,0.013523,0.002678,0.000431,0.000823
125104000,0.0324,0.013523,0.002678,0.000431,0.000823
125105000,0.0324,0.013523,0.002678,0.000431,0.000823
125106000,0.0324,0.013523,0.002678,0.000431,0.000823
125107000,0.0324,0.013523,0.002678,0.000431,0.000823
125108000,0.0324,0.013523,0.002678,0.000431,0.000823
125109000,0.0324,0.013523,0.002678,0.000431,0.000823
125110000,0.0324,0.013523,0.002678,0.000431,0.000823
125111000,0.0324,0.013523,0.002678,0.000431,0.000940
125112000,0.0324,0.013523,0.002678,0.000431,0.000823
125113000,0.0324,0.013523,0.002678,0.000431,0.000823
125114000,0.0324,0.013523,0.002678,0.000431,0.000705
125115000,0.0324,0.013523,0.002678,0.000431,0.000940
125116000,0.0324,0.013523,0.002678,0.000431,0.000940
125117000,0.0324,0.013523,0.002678,0.000431,0.000705
125118000,0.0324,0.013523,0.002678,0.000431,0.000940
125119000,0.0324,0.013523,0.002678,0.000431,0.000705
125120000,0.0324,0.013523,0.002678,0.000431,0.000940
125121000,0.0324,0.013523,0.002678,0.000431,0.000823
125122000,0.0324,0.013523,0.002678,0.000431,0.000823
125123000,0.0324,0.013523,0.002678,0.000431,0.000940
125124000,0.0324,0.013523,0.002678,0.000431,0.000705
125125000,0.0324,0.013523,0.002678,0.000431,0.000940
125126000,0.0324,0.013523,0.002678,0.000431,0.000823
125127000,0.0324,0.013523,0.002678,0.000431,0.000823
125128000,0.0324,0.013523,0.002678,0.000431,0.000823
125129000,0.0324,0.013523,0.002678,0.000431,0.000823
125130000,0.0324,0.013523,0.002678,0.000431,0.000823
125131000,0.0324,0.013523,0.002678,0.000431,0.000823
125132000,0.0324,0.013523,0.002678,0.000431,0.000940
125133000,0.0324,0.013523,0.002678,0.000431,0.000705
125134000,0.0324,0.013523,0.002678,0.000431,0.000940
125135000,0.0324,0.013523,0.002678,0.000431,0.000823
125136000,0.0324,0.013523,0.002678,0.000431,0.000823
125137000,0.0324,0.013523,0.002678,0.000431,0.000705
125138000,0.0324,0.013523,0.002678,0.000431,0.000940
125139000,0.0324,0.013523,0.002678,0.000431,0.000940
125140000,0.0324,0.013523,0.002678,0.000431,0.000705
125141000,0.0324,0.013523,0.002678,0.000431,0.000940
125142000,0.0324,0.013523,0.002678,0.000431,0.000705
125143000,0.0324,0.013523,0.002678,0.000431,0.000940
125144000,0.0324,0.013523,0.002678,0.000431,0.000823
125145000,0.0324,0.013523,0.002678,0.000431,0.000823
125146000,0.0324,0.013523,0.002678,0.000431,0.000940
125147000,0.0324,0.013523,0.002678,0.000431,0.000705
125148000,0.0324,0.013523,0.002678,0.000431,0.000940
125149000,0.0324,0.013523,0.002678,0.000431,0.000823
125150000,0.0324,0.013523,0.002678,0.000431,0.000823
125151000,0.0324,0.013523,0.002678,0.000431,0.000823
125152000,0.0324,0.013523,0.002678,0.000431,0.000823
125153000,0.0324,0.013523,0.002678,0.000431,0.000823
125154000,0.0324,0.013523,0.002678,0.000431,0.000823
125155000,0.0324,0.013523,0.002678,0.000431,0.000940
125156000,0.0324,0.013523,0.002678,0.000431,0.000705
125157000,0.0324,0.013523,0.002678,0.000431,0.000823
125158000,0.0324,0.013523,0.002678,0.000431,0.000940
125159000,0.0324,0.013523,0.002678,0.000431,0.000823
125160000,0.0324,0.013523,0.002678,0.000431,0.000823
125161000,0.0324,0.013523,0.002678,0.000431,0.000823
125162000,0.0324,0.013523,0.002678,0.000431,0.000705
125163000,0.0324,0.013523,0.002678,0.000431,0.000940
125164000,0.0324,0.013523,0.002678,0.000431,0.000940
125165000,0.0324,0.013523,0.002678,0.000431,0.000705
125166000,0.0324,0.013523,0.002678,0.000431,0.000940
125167000,0.0324,0.013523,0.002678,0.000431,0.000705
125168000,0.0324,0.013523,0.002678,0.000431,0.000940
125169000,0.0324,0.013523,0.002678,0.000431,0.000940
125170000,0.0324,0.013523,0.002678,0.000431,0.000705
125171000,0.0324,0.013523,0.002678,0.000431,0.000940
125172000,0.0324,0.013523,0.002678,0.000431,0.000705
125173000,0.0324,0.013523,0.002678,0.000431,0.000940
125174000,0.0324,0.013523,0.002678,0.000431,0.000823
125175000,0.0324,0.013523,0.002678,0.000431,0.000823
125176000,0.0324,0.013523,0.002678,0.000431,0.000823
125177000,0.0324,0.013523,0.002678,0.000431,0.000823
125178000,0.0324,0.013523,0.002678,0.000431,0.000940
125179000,0.0324,0.013523,0.002678,0.000431,0.000705
125180000,0.0324,0.013523,0.002678,0.000431,0.000940
125181000,0.0324,0.013523,0.002678,0.000431,0.000823
125182000,0.0324,0.013523,0.002678,0.000431,0.000823
125183000,0.0324,0.013523,0.002678,0.000431,0.000823
125184000,0.0324,0.013523,0.002678,0.000431,0.000823
125185000,0.0324,0.013523,0.002678,0.000431,0.000823
125186000,0.0324,0.013523,0.002678,0.000431,0.000823
125187000,0.0324,0.013523,0.002678,0.000431,0.000940
125188000,0.0324,0.013523,0.002678,0.000431,0.000705
125189000,0.0324,0.013523,0.002678,0.000431,0.000940
125190000,0.0324,0.013523,0.002678,0.000431,0.000705
125191000,0.0324,0.013523,0.002678,0.000431,0.000940
125192000,0.0324,0.013523,0.002678,0.000431,0.000940
125193000,0.0324,0.013523,0.002678,0.000431,0.000705
125194000,0.0324,0.013523,0.002678,0.000431,0.000940
125195000,0.0324,0.013523,0.002678,0.000431,0.000705
125196000,0.0324,0.013523,0.002678,0.000431,0.000940
125197000,0.0324,0.013523,0.002678,0.000431,0.000823
125198000,0.0324,0.013523,0.002678,0.000431,0.000823
125199000,0.0324,0.013523,0.002678,0.000431,0.000823
125200000,0.0324,0.013523,0.002678,0.000431,0.000823
125201000,0.0324,0.013523,0.002678,0.000431,0.000823
125202000,0.0324,0.013523,0.002678,0.000431,0.000823
125203000,0.0324,0.013523,0.002678,0.000431,0.000940
125204000,0.0324,0.013523,0.002678,0.000431,0.000705
125205000,0.0324,0.013523,0.002678,0.000431,0.000823
125206000,0.0324,0.013523,0.002678,0.000431,0.000940
125207000,0.0324,0.013523,0.002678,0.000431,0.000823
125208000,0.0324,0.013523,0.002678,0.000431,0.000823
125209000,0.0324,0.013523,0.002678,0.000431,0.000823
125210000,0.0324,0.013523,0.002678,0.000431,0.000823
125211000,0.0324,0.013523,0.002678,0.000431,0.000823
125212000,0.0324,0.013523,0.002678,0.000431,0.000940
125213000,0.0324,0.013523,0.002678,0.000431,0.000705
125214000,0.0324,0.013523,0.002678,0.000431,0.000940
125215000,0.0324,0.013523,0.002678,0.000431,0.000705
125216000,0.0324,0.013523,0.002678,0.000431,0.000940
125217000,0.0324,0.013523,0.002678,0.000431,0.000940
125218000,0.0324,0.013523,0.002678,0.000431,0.000705
125219000,0.0324,0.013523,0.002678,0.000431,0.000940
125220000,0.0324,0.013523,0.002678,0.000431,0.000705
125221000,0.0324,0.013523,0.002678,0.000431,0.000940
125222000,0.0324,0.013523,0.002678,0.000431,0.000823
125223000,0.0324,0.013523,0.002678,0.000431,0.000823
125224000,0.0324,0.013523,0.002678,0.000431,0.000823
125225000,0.0324,0.013523,0.002678,0.000431,0.000823
125226000,0.0324,0.013523,0.002678,0.000431,0.000940
125227000,0.0324,0.013523,0.002678,0.000431,0.000705
125228000,0.0324,0.013523,0.002678,0.000431,0.000940
125229000,0.0324,0.013523,0.002678,0.000431,0.000823
125230000,0.0324,0.013523,0.002678,0.000431,0.000823
125231000,0.0324,0.013523,0.002678,0.000431,0.000823
125232000,0.0324,0.013523,0.002678,0.000431,0.000823
125233000,0.0324,0.013523,0.002678,0.000431,0.000823
125234000,0.0324,0.013523,0.002678,0.000431,0.000823
125235000,0.0324,0.013523,0.002678,0.000431,0.000940
125236000,0.0324,0.013523,0.002678,0.000431,0.000705
125237000,0.0324,0.013523,0.002678,0.000431,0.000940
125238000,0.0324,0.013523,0.002678,0.000431,0.000705
125239000,0.0324,0.013523,0.002678,0.000431,0.000940
125240000,0.0324,0.013523,0.002678,0.000431,0.000940
125241000,0.0324,0.013523,0.002678,0.000431,0.000705
125242000,0.0324,0.013523,0.002678,0.000431,0.000940
125243000,0.0324,0.013523,0.002678,0.000431,0.000705
125244000,0.0324,0.013523,0.002678,0.000431,0.000940
125245000,0.0324,0.013523,0.002678,0.000431,0.000823
125246000,0.0324,0.013523,0.002678,0.000431,0.000823
125247000,0.0324,0.013523,0.002678,0.000431,0.000823
125248000,0.0324,0.013523,0.002678,0.000431,0.000823
125249000,0.0324,0.013523,0.002678,0.000431,0.000940
125250000,0.0324,0.013523,0.002678,0.000431,0.000705
125251000,0.0324,0.013523,0.002678,0.000431,0.000940
125252000,0.0324,0.013523,0.002678,0.000431,0.000823
125253000,0.0324,0.013523,0.002678,0.000431,0.000823
125254000,0.0324,0.013523,0.002678,0.000431,0.000823
125255000,0.0324,0.013523,0.002678,0.000431,0.000823
125256000,0.0324,0.013523,0.002678,0.000431,0.088969
125257000,0.0324,0.013523,0.002678,0.000431,0.425805
125258000,0.0324,0.013523,0.002678,0.000431,0.551325
125259000,0.0324,0.013523,0.002678,0.000431,0.132572
125260000,0.0324,0.013523,0.002678,0.000431,0.132572
125261000,0.0324,0.013523,0.002678,0.000431,0.558611
125262000,0.0324,0.013523,0.002678,0.000431,0.222128
125263000,0.0324,0.013523,0.002678,0.000431,0.239757
125264000,0.0324,0.013523,0.002678,0.000431,0.326493
125265000,0.0324,0.013523,0.002678,0.000431,0.174412
125266000,0.0324,0.013523,0.002678,0.000431,0.137155
125267000,0.0324,0.013523,0.002678,0.000431,0.156312
125268000,0.0324,0.013523,0.002678,0.000431,0.150789
125269000,0.0324,0.013523,0.002678,0.000431,0.441553
125270000,0.0324,0.013523,0.002678,0.000431,0.067344
125271000,0.0324,0.013523,0.002678,0.000431,0.044896
125272000,0.0324,0.013523,0.002678,0.000431,0.038667
125273000,0.0324,0.013523,0.002678,0.000431,0.035964
125274000,0.0324,0.013523,0.002678,0.000431,0.035023
125275000,0.0324,0.013523,0.002678,0.000431,0.031145
125276000,0.0324,0.013523,0.002678,0.000431,0.023036
125277000,0.0324,0.013523,0.002678,0.000431,0.024798
125278000,0.0324,0.013523,0.002678,0.000431,0.021038
125279000,0.0324,0.013523,0.002678,0.000431,0.024681
125280000,0.0324,0.013523,0.002678,0.000431,0.018805
125281000,0.0324,0.013523,0.002678,0.000431,0.020450
125282000,0.0324,0.013523,0.002678,0.000431,0.015514
125283000,0.0324,0.013523,0.002678,0.000431,0.016924
125284000,0.0324,0.013523,0.002678,0.000431,0.014573
125285000,0.0324,0.013523,0.002678,0.000431,0.014573
125286000,0.0324,0.013523,0.002678,0.000431,0.015514
125287000,0.0324,0.013523,0.002678,0.000431,0.014456
125288000,0.0324,0.013523,0.002678,0.000431,0.015749
125289000,0.0324,0.013523,0.002678,0.000431,0.013751
125290000,0.0324,0.013523,0.002678,0.000431,0.013281
125291000,0.0324,0.013523,0.002678,0.000431,0.013281
125292000,0.0324,0.013523,0.002678,0.000431,0.014456
125293000,0.0324,0.013523,0.002678,0.000431,0.013046
125294000,0.0324,0.013523,0.002678,0.000431,0.013633
125295000,0.0324,0.013523,0.002678,0.000431,0.012928
125296000,0.0324,0.013523,0.002678,0.000431,0.010695
125297000,0.0324,0.013523,0.002678,0.000431,0.010578
125298000,0.0324,0.013523,0.002678,0.000431,0.011753
125299000,0.0324,0.013523,0.002678,0.000431,0.011400
125300000,0.0324,0.013523,0.002678,0.000431,0.007992
125301000,0.0324,0.013523,0.002678,0.000431,0.007757
125302000,0.0324,0.013523,0.002678,0.000431,0.007639
125303000,0.0324,0.013523,0.002678,0.000431,0.006934
125304000,0.0324,0.013523,0.002678,0.000431,0.007874
125305000,0.0324,0.013523,0.002678,0.000431,0.007757
125306000,0.0324,0.013523,0.002678,0.000431,0.009872
125307000,0.0324,0.013523,0.002678,0.000431,0.005289
125308000,0.0324,0.013523,0.002678,0.000431,0.005054
125309000,0.0324,0.013523,0.002678,0.000431,0.004936
125310000,0.0324,0.013523,0.002678,0.000431,0.005171
125311000,0.0324,0.013523,0.002678,0.000431,0.005054
125312000,0.0324,0.013523,0.002678,0.000431,0.006582
125313000,0.0324,0.013523,0.002678,0.000431,0.004349
125314000,0.0324,0.013523,0.002678,0.000431,0.003643
125315000,0.0324,0.013523,0.002678,0.000431,0.004466
125316000,0.0324,0.013523,0.002678,0.000431,0.006464
125317000,0.0324,0.013523,0.002678,0.000431,0.003291
125318000,0.0324,0.013523,0.002678,0.000431,0.003291
125319000,0.0324,0.013523,0.002678,0.000431,0.003291
125320000,0.0324,0.013523,0.002678,0.000431,0.003526
125321000,0.0324,0.013523,0.002678,0.000431,0.002938
125322000,0.0324,0.013523,0.002678,0.000431,0.003408
125323000,0.0324,0.013523,0.002678,0.000431,0.003526
125324000,0.0324,0.013523,0.002678,0.000431,0.002938
125325000,0.0324,0.013523,0.002678,0.000431,0.005641
125326000,0.0324,0.013523,0.002678,0.000431,0.002351
125327000,0.0324,0.013523,0.002678,0.000431,0.002351
125328000,0.0324,0.013523,0.002678,0.000431,0.002586
125329000,0.0324,0.013523,0.002678,0.000431,0.002351
125330000,0.0324,0.013523,0.002678,0.000431,0.002468
125331000,0.0324,0.013523,0.002678,0.000431,0.002233
125332000,0.0324,0.013523,0.002678,0.000431,0.002468
125333000,0.0324,0.013523,0.002678,0.000431,0.002703
125334000,0.0324,0.013523,0.002678,0.000431,0.006347
125335000,0.0324,0.013523,0.002678,0.000431,0.000940
125336000,0.0324,0.013523,0.002678,0.000431,0.000940
125337000,0.0324,0.013523,0.002678,0.000431,0.000823
125338000,0.0324,0.013523,0.002678,0.000431,0.000705
125339000,0.0324,0.013523,0.002678,0.000431,0.000940
125340000,0.0324,0.013523,0.002678,0.000431,0.000823
125341000,0.0324,0.013523,0.002678,0.000431,0.000823
125342000,0.0324,0.013523,0.002678,0.000431,0.000823
125343000,0.0324,0.013523,0.002678,0.000431,0.000823
125344000,0.0324,0.013523,0.002678,0.000431,0.000823
125345000,0.0324,0.013523,0.002678,0.000431,0.000940
125346000,0.0324,0.013523,0.002678,0.000431,0.000823
125347000,0.0324,0.013523,0.002678,0.000431,0.000823
125348000,0.0324,0.013523,0.002678,0.000431,0.000705
125349000,0.0324,0.013523,0.002678,0.000431,0.000940
125350000,0.0324,0.013523,0.002678,0.000431,0.000940
125351000,0.0324,0.013523,0.002678,0.000431,0.000705
125352000,0.0324,0.013523,0.002678,0.000431,0.000940
125353000,0.0324,0.013523,0.002678,0.000431,0.000705
125354000,0.0324,0.013523,0.002678,0.000431,0.000940
125355000,0.0324,0.013523,0.002678,0.000431,0.000823
125356000,0.0324,0.013523,0.002678,0.000431,0.000823
125357000,0.0324,0.013523,0.002678,0.000431,0.000940
125358000,0.0324,0.013523,0.002678,0.000431,0.000705
125359000,0.0324,0.013523,0.002678,0.000431,0.000940
125360000,0.0324,0.013523,0.002678,0.000431,0.000705
125361000,0.0324,0.013523,0.002678,0.000431,0.000940
125362000,0.0324,0.013523,0.002678,0.000431,0.000823
125363000,0.0324,0.013523,0.002678,0.000431,0.000823
125364000,0.0324,0.013523,0.002678,0.000431,0.000823
125365000,0.0324,0.013523,0.002678,0.000431,0.000823
125366000,0.0324,0.013523,0.002678,0.000431,0.000940
125367000,0.0324,0.013523,0.002678,0.000431,0.000705
125368000,0.0324,0.013523,0.002678,0.000431,0.000940
125369000,0.0324,0.013523,0.002678,0.000431,0.000705
125370000,0.0324,0.013523,0.002678,0.000431,0.000940
125371000,0.0324,0.013523,0.002678,0.000431,0.000705
125372000,0.0324,0.013523,0.002678,0.000431,0.000940
125373000,0.0324,0.013523,0.002678,0.000431,0.000940
125374000,0.0324,0.013523,0.002678,0.000431,0.000705
125375000,0.0324,0.013523,0.002678,0.000431,0.000940
125376000,0.0324,0.013523,0.002678,0.000431,0.000705
125377000,0.0324,0.013523,0.002678,0.000431,0.000940
125378000,0.0324,0.013523,0.002678,0.000431,0.000823
125379000,0.0324,0.013523,0.002678,0.000431,0.000823
125380000,0.0324,0.013523,0.002678,0.000431,0.000823
125381000,0.0324,0.013523,0.002678,0.000431,0.000823
125382000,0.0324,0.013523,0.002678,0.000431,0.000940
125383000,0.0324,0.013523,0.002678,0.000431,0.000705
125384000,0.0324,0.013523,0.002678,0.000431,0.000940
125385000,0.0324,0.013523,0.002678,0.000431,0.000823
125386000,0.0324,0.013523,0.002678,0.000431,0.000823
125387000,0.0324,0.013523,0.002678,0.000431,0.000823
125388000,0.0324,0.013523,0.002678,0.000431,0.000823
125389000,0.0324,0.013523,0.002678,0.000431,0.000940
125390000,0.0324,0.013523,0.002678,0.000431,0.000705
125391000,0.0324,0.013523,0.002678,0.000431,0.000823
125392000,0.0324,0.013523,0.002678,0.000431,0.000940
125393000,0.0324,0.013523,0.002678,0.000431,0.000823
125394000,0.0324,0.013523,0.002678,0.000431,0.000823
125395000,0.0324,0.013523,0.002678,0.000431,0.000823
125396000,0.0324,0.013523,0.002678,0.000431,0.000705
125397000,0.0324,0.013523,0.002678,0.000431,0.000940
125398000,0.0324,0.013523,0.002678,0.000431,0.000940
125399000,0.0324,0.013523,0.002678,0.000431,0.000705
125400000,0.0324,0.013523,0.002678,0.000431,0.000940
125401000,0.0324,0.013523,0.002678,0.000431,0.000705
125402000,0.0324,0.013523,0.002678,0.000431,0.000940
125403000,0.0324,0.013523,0.002678,0.000431,0.000940
125404000,0.0324,0.013523,0.002678,0.000431,0.000705
125405000,0.0324,0.013523,0.002678,0.000431,0.000940
125406000,0.0324,0.013523,0.002678,0.000431,0.000705
125407000,0.0324,0.013523,0.002678,0.000431,0.000940
125408000,0.0324,0.013523,0.002678,0.000431,0.000823
125409000,0.0324,0.013523,0.002678,0.000431,0.000823
125410000,0.0324,0.013523,0.002678,0.000431,0.000823
125411000,0.0324,0.013523,0.002678,0.000431,0.000823
125412000,0.0324,0.013523,0.002678,0.000431,0.000940
125413000,0.0324,0.013523,0.002678,0.000431,0.000705
125414000,0.0324,0.013523,0.002678,0.000431,0.000940
125415000,0.0324,0.013523,0.002678,0.000431,0.000823
125416000,0.0324,0.013523,0.002678,0.000431,0.000823
125417000,0.0324,0.013523,0.002678,0.000431,0.000823
125418000,0.0324,0.013523,0.002678,0.000431,0.000823
125419000,0.0324,0.013523,0.002678,0.000431,0.000705
125420000,0.0324,0.013523,0.002678,0.000431,0.000940
125421000,0.0324,0.013523,0.002678,0.000431,0.000940
125422000,0.0324,0.013523,0.002678,0.000431,0.000705
125423000,0.0324,0.013523,0.002678,0.000431,0.000940
125424000,0.0324,0.013523,0.002678,0.000431,0.000705
125425000,0.0324,0.013523,0.002678,0.000431,0.000940
125426000,0.0324,0.013523,0.002678,0.000431,0.000940
125427000,0.0324,0.013523,0.002678,0.000431,0.000705
125428000,0.0324,0.013523,0.002678,0.000431,0.000940
125429000,0.0324,0.013523,0.002678,0.000431,0.000705
125430000,0.0324,0.013523,0.002678,0.000431,0.000940
125431000,0.0324,0.013523,0.002678,0.000431,0.000823
125432000,0.0324,0.013523,0.002678,0.000431,0.000823
125433000,0.0324,0.013523,0.002678,0.000431,0.000823
125434000,0.0324,0.013523,0.002678,0.000431,0.000823
125435000,0.0324,0.013523,0.002678,0.000431,0.000940
125436000,0.0324,0.013523,0.002678,0.000431,0.000705
125437000,0.0324,0.013523,0.002678,0.000431,0.000940
125438000,0.0324,0.013523,0.002678,0.000431,0.000823
125439000,0.0324,0.013523,0.002678,0.000431,0.000823
125440000,0.0324,0.013523,0.002678,0.000431,0.000823
125441000,0.0324,0.013523,0.002678,0.000431,0.000823
125442000,0.0324,0.013523,0.002678,0.000431,0.000823
125443000,0.0324,0.013523,0.002678,0.000431,0.000823
125444000,0.0324,0.013523,0.002678,0.000431,0.000823
125445000,0.0324,0.013523,0.002678,0.000431,0.000823
125446000,0.0324,0.013523,0.002678,0.000431,0.000940
125447000,0.0324,0.013523,0.002678,0.000431,0.000823
125448000,0.0324,0.013523,0.002678,0.000431,0.000823
125449000,0.0324,0.013523,0.002678,0.000431,0.000705
125450000,0.0324,0.013523,0.002678,0.000431,0.000940
125451000,0.0324,0.013523,0.002678,0.000431,0.000940
125452000,0.0324,0.013523,0.002678,0.000431,0.000705
125453000,0.0324,0.013523,0.002678,0.000431,0.000940
125454000,0.0324,0.013523,0.002678,0.000431,0.000705
125455000,0.0324,0.013523,0.002678,0.000431,0.000940
125456000,0.0324,0.013523,0.002678,0.000431,0.000823
125457000,0.0324,0.013523,0.002678,0.000431,0.000823
125458000,0.0324,0.013523,0.002678,0.000431,0.000940
125459000,0.0324,0.013523,0.002678,0.000431,0.000705
125460000,0.0324,0.013523,0.002678,0.000431,0.000940
125461000,0.0324,0.013523,0.002678,0.000431,0.000823
125462000,0.0324,0.013523,0.002678,0.000431,0.000823
125463000,0.0324,0.013523,0.002678,0.000431,0.000823
125464000,0.0324,0.013523,0.002678,0.000431,0.000823
125465000,0.0324,0.013523,0.002678,0.000431,0.000823
125466000,0.0324,0.013523,0.002678,0.000431,0.000823
125467000,0.0324,0.013523,0.002678,0.000431,0.000940
125468000,0.0324,0.013523,0.002678,0.000431,0.000823
125469000,0.0324,0.013523,0.002678,0.000431,0.000823
125470000,0.0324,0.013523,0.002678,0.000431,0.000823
125471000,0.0324,0.013523,0.002678,0.000431,0.000823
125472000,0.0324,0.013523,0.002678,0.000431,0.000705
125473000,0.0324,0.013523,0.002678,0.000431,0.000940
125474000,0.0324,0.013523,0.002678,0.000431,0.000940
125475000,0.0324,0.013523,0.002678,0.000431,0.000705
125476000,0.0324,0.013523,0.002678,0.000431,0.000940
125477000,0.0324,0.013523,0.002678,0.000431,0.000705
125478000,0.0324,0.013523,0.002678,0.000431,0.000940
125479000,0.0324,0.013523,0.002678,0.000431,0.000823
125480000,0.0324,0.013523,0.002678,0.000431,0.000823
125481000,0.0324,0.013523,0.002678,0.000431,0.000940
125482000,0.0324,0.013523,0.002678,0.000431,0.000705
125483000,0.0324,0.013523,0.002678,0.000431,0.000940
125484000,0.0324,0.013523,0.002678,0.000431,0.000823
125485000,0.0324,0.013523,0.002678,0.000431,0.000823
125486000,0.0324,0.013523,0.002678,0.000431,0.000823
125487000,0.0324,0.013523,0.002678,0.000431,0.000823
125488000,0.0324,0.013523,0.002678,0.000431,0.000940
125489000,0.0324,0.013523,0.002678,0.000431,0.000705
125490000,0.0324,0.013523,0.002678,0.000431,0.000940
125491000,0.0324,0.013523,0.002678,0.000431,0.000705
125492000,0.0324,0.013523,0.002678,0.000431,0.000823
125493000,0.0324,0.013523,0.002678,0.000431,0.000940
125494000,0.0324,0.013523,0.002678,0.000431,0.000823
125495000,0.0324,0.013523,0.002678,0.000431,0.000823
125496000,0.0324,0.013523,0.002678,0.000431,0.000823
125497000,0.0324,0.013523,0.002678,0.000431,0.000823
125498000,0.0324,0.013523,0.002678,0.000431,0.000823
125499000,0.0324,0.013523,0.002678,0.000431,0.000940
125500000,0.0324,0.013523,0.002678,0.000431,0.000705
125501000,0.0324,0.013523,0.002678,0.000431,0.000940
125502000,0.0324,0.013523,0.002678,0.000431,0.000705
125503000,0.0324,0.013523,0.002678,0.000431,0.000940
125504000,0.0324,0.013523,0.002678,0.000431,0.000940
125505000,0.0324,0.013523,0.002678,0.000431,0.000705
125506000,0.0324,0.013523,0.002678,0.000431,0.000940
125507000,0.0324,0.013523,0.002678,0.000431,0.000705
125508000,0.0324,0.013523,0.002678,0.000431,0.000940
125509000,0.0324,0.013523,0.002678,0.000431,0.000823
125510000,0.0324,0.013523,0.002678,0.000431,0.000823
125511000,0.0324,0.013523,0.002678,0.000431,0.000940
125512000,0.0324,0.013523,0.002678,0.000431,0.000705
125513000,0.0324,0.013523,0.002678,0.000431,0.000940
125514000,0.0324,0.013523,0.002678,0.000431,0.000823
125515000,0.0324,0.013523,0.002678,0.000431,0.000823
125516000,0.0324,0.013523,0.002678,0.000431,0.000823
125517000,0.0324,0.013523,0.002678,0.000431,0.000823
125518000,0.0324,0.013523,0.002678,0.000431,0.000940
125519000,0.0324,0.013523,0.002678,0.000431,0.000705
125520000,0.0324,0.013523,0.002678,0.000431,0.000940
125521000,0.0324,0.013523,0.002678,0.000431,0.000823
125522000,0.0324,0.013523,0.002678,0.000431,0.000823
125523000,0.0324,0.013523,0.002678,0.000431,0.000823
125524000,0.0324,0.013523,0.002678,0.000431,0.000823
125525000,0.0324,0.013523,0.002678,0.000431,0.000823
125526000,0.0324,0.013523,0.002678,0.000431,0.000823
125527000,0.0324,0.013523,0.002678,0.000431,0.000940
125528000,0.0324,0.013523,0.002678,0.000431,0.000823
125529000,0.0324,0.013523,0.002678,0.000431,0.000823
125530000,0.0324,0.013523,0.002678,0.000431,0.000705
125531000,0.0324,0.013523,0.002678,0.000431,0.000940
125532000,0.0324,0.013523,0.002678,0.000431,0.000940
125533000,0.0324,0.013523,0.002678,0.000431,0.000705
125534000,0.0324,0.013523,0.002678,0.000431,0.000940
125535000,0.0324,0.013523,0.002678,0.000431,0.000705
125536000,0.0324,0.013523,0.002678,0.000431,0.000940
125537000,0.0324,0.013523,0.002678,0.000431,0.000823
125538000,0.0324,0.013523,0.002678,0.000431,0.000823
125539000,0.0324,0.013523,0.002678,0.000431,0.000823
125540000,0.0324,0.013523,0.002678,0.000431,0.000823
125541000,0.0324,0.013523,0.002678,0.000431,0.000940
125542000,0.0324,0.013523,0.002678,0.000431,0.000823
125543000,0.0324,0.013523,0.002678,0.000431,0.000823
125544000,0.0324,0.013523,0.002678,0.000431,0.000823
125545000,0.0324,0.013523,0.002678,0.000431,0.000823
125546000,0.0324,0.013523,0.002678,0.000431,0.000823
125547000,0.0324,0.013523,0.002678,0.000431,0.000823
125548000,0.0324,0.013523,0.002678,0.000431,0.000940
125549000,0.0324,0.013523,0.002678,0.000431,0.000705
125550000,0.0324,0.013523,0.002678,0.000431,0.000823
125551000,0.0324,0.013523,0.002678,0.000431,0.000940
125552000,0.0324,0.013523,0.002678,0.000431,0.000823
125553000,0.0324,0.013523,0.002678,0.000431,0.000823
125554000,0.0324,0.013523,0.002678,0.000431,0.000823
125555000,0.0324,0.013523,0.002678,0.000431,0.000823
125556000,0.0324,0.013523,0.002678,0.000431,0.000823
125557000,0.0324,0.013523,0.002678,0.000431,0.000940
125558000,0.0324,0.013523,0.002678,0.000431,0.000823
125559000,0.0324,0.013523,0.002678,0.000431,0.000823
125560000,0.0324,0.013523,0.002678,0.000431,0.000705
125561000,0.0324,0.013523,0.002678,0.000431,0.000940
125562000,0.0324,0.013523,0.002678,0.000431,0.000940
125563000,0.0324,0.013523,0.002678,0.000431,0.000705
125564000,0.0324,0.013523,0.002678,0.000431,0.000940
125565000,0.0324,0.013523,0.002678,0.000431,0.000705
125566000,0.0324,0.013523,0.002678,0.000431,0.000940
125567000,0.0324,0.013523,0.002678,0.000431,0.000940
125568000,0.0324,0.013523,0.002678,0.000431,0.000705
125569000,0.0324,0.013523,0.002678,0.000431,0.000940
125570000,0.0324,0.013523,0.002678,0.000431,0.000705
125571000,0.0324,0.013523,0.002678,0.000431,0.000940
125572000,0.0324,0.013523,0.002678,0.000431,0.000823
125573000,0.0324,0.013523,0.002678,0.000431,0.000823
125574000,0.0324,0.013523,0.002678,0.000431,0.000823
125575000,0.0324,0.013523,0.002678,0.000431,0.000823
125576000,0.0324,0.013523,0.002678,0.000431,0.000940
125577000,0.0324,0.013523,0.002678,0.000431,0.000705
125578000,0.0324,0.013523,0.002678,0.000431,0.000940
125579000,0.0324,0.013523,0.002678,0.000431,0.000823
125580000,0.0324,0.013523,0.002678,0.000431,0.000823
125581000,0.0324,0.013523,0.002678,0.000431,0.000823
125582000,0.0324,0.013523,0.002678,0.000431,0.000823
125583000,0.0324,0.013523,0.002678,0.000431,0.000940
125584000,0.0324,0.013523,0.002678,0.000431,0.000705
125585000,0.0324,0.013523,0.002678,0.000431,0.000940
125586000,0.0324,0.013523,0.002678,0.000431,0.000823
125587000,0.0324,0.013523,0.002678,0.000431,0.000823
125588000,0.0324,0.013523,0.002678,0.000431,0.000705
125589000,0.0324,0.013523,0.002678,0.000431,0.000940
125590000,0.0324,0.013523,0.002678,0.000431,0.000940
125591000,0.0324,0.013523,0.002678,0.000431,0.000705
125592000,0.0324,0.013523,0.002678,0.000431,0.000940
125593000,0.0324,0.013523,0.002678,0.000431,0.000705
125594000,0.0324,0.013523,0.002678,0.000431,0.000940
125595000,0.0324,0.013523,0.002678,0.000431,0.000940
125596000,0.0324,0.013523,0.002678,0.000431,0.000705
125597000,0.0324,0.013523,0.002678,0.000431,0.000940
125598000,0.0324,0.013523,0.002678,0.000431,0.000705
125599000,0.0324,0.013523,0.002678,0.000431,0.000940
125600000,0.0324,0.013523,0.002678,0.000431,0.000823
125601000,0.0324,0.013523,0.002678,0.000431,0.000823
125602000,0.0324,0.013523,0.002678,0.000431,0.000823
125603000,0.0324,0.013523,0.002678,0.000431,0.000823
125604000,0.0324,0.013523,0.002678,0.000431,0.000940
125605000,0.0324,0.013523,0.002678,0.000431,0.000823
125606000,0.0324,0.013523,0.002678,0.000431,0.000823
125607000,0.0324,0.013523,0.002678,0.000431,0.000823
125608000,0.0324,0.013523,0.002678,0.000431,0.000823
125609000,0.0324,0.013523,0.002678,0.000431,0.000823
125610000,0.0324,0.013523,0.002678,0.000431,0.000823
125611000,0.0324,0.013523,0.002678,0.000431,0.000940
125612000,0.0324,0.013523,0.002678,0.000431,0.000705
125613000,0.0324,0.013523,0.002678,0.000431,0.000823
125614000,0.0324,0.013523,0.002678,0.000431,0.000940
125615000,0.0324,0.013523,0.002678,0.000431,0.000823
125616000,0.0324,0.013523,0.002678,0.000431,0.000823
125617000,0.0324,0.013523,0.002678,0.000431,0.000823
125618000,0.0324,0.013523,0.002678,0.000431,0.000705
125619000,0.0324,0.013523,0.002678,0.000431,0.000940
125620000,0.0324,0.013523,0.002678,0.000431,0.000940
125621000,0.0324,0.013523,0.002678,0.000431,0.000705
125622000,0.0324,0.013523,0.002678,0.000431,0.000940
125623000,0.0324,0.013523,0.002678,0.000431,0.000705
125624000,0.0324,0.013523,0.002678,0.000431,0.000940
125625000,0.0324,0.013523,0.002678,0.000431,0.000940
125626000,0.0324,0.013523,0.002678,0.000431,0.000705
125627000,0.0324,0.013523,0.002678,0.000431,0.000940
125628000,0.0324,0.013523,0.002678,0.000431,0.000705
125629000,0.0324,0.013523,0.002678,0.000431,0.000940
125630000,0.0324,0.013523,0.002678,0.000431,0.000823
125631000,0.0324,0.013523,0.002678,0.000431,0.000823
125632000,0.0324,0.013523,0.002678,0.000431,0.000823
125633000,0.0324,0.013523,0.002678,0.000431,0.000823
125634000,0.0324,0.013523,0.002678,0.000431,0.000940
125635000,0.0324,0.013523,0.002678,0.000431,0.000705
125636000,0.0324,0.013523,0.002678,0.000431,0.000940
125637000,0.0324,0.013523,0.002678,0.000431,0.000823
125638000,0.0324,0.013523,0.002678,0.000431,0.000823
125639000,0.0324,0.013523,0.002678,0.000431,0.000823
125640000,0.0324,0.013523,0.002678,0.000431,0.000823
125641000,0.0324,0.013523,0.002678,0.000431,0.000823
125642000,0.0324,0.013523,0.002678,0.000431,0.000823
125643000,0.0324,0.013523,0.002678,0.000431,0.000940
125644000,0.0324,0.013523,0.002678,0.000431,0.000705
125645000,0.0324,0.013523,0.002678,0.000431,0.000940
125646000,0.0324,0.013523,0.002678,0.000431,0.000705
125647000,0.0324,0.013523,0.002678,0.000431,0.000940
125648000,0.0324,0.013523,0.002678,0.000431,0.000940
125649000,0.0324,0.013523,0.002678,0.000431,0.000705
125650000,0.0324,0.013523,0.002678,0.000431,0.000940
125651000,0.0324,0.013523,0.002678,0.000431,0.000705
125652000,0.0324,0.013523,0.002678,0.000431,0.000940
125653000,0.0324,0.013523,0.002678,0.000431,0.000823
125654000,0.0324,0.013523,0.002678,0.000431,0.000823
125655000,0.0324,0.013523,0.002678,0.000431,0.000823
125656000,0.0324,0.013523,0.002678,0.000431,0.000823
125657000,0.0324,0.013523,0.002678,0.000431,0.000940
125658000,0.0324,0.013523,0.002678,0.000431,0.000705
125659000,0.0324,0.013523,0.002678,0.000431,0.000940
125660000,0.0324,0.013523,0.002678,0.000431,0.000823
125661000,0.0324,0.013523,0.002678,0.000431,0.000823
125662000,0.0324,0.013523,0.002678,0.000431,0.000940
125663000,0.0324,0.013523,0.002678,0.000431,0.000823
125664000,0.0324,0.013523,0.002678,0.000431,0.000940
125665000,0.0324,0.013523,0.002678,0.000431,0.000823
125666000,0.0324,0.013523,0.002678,0.000431,0.000823
125667000,0.0324,0.013523,0.002678,0.000431,0.000823
125668000,0.0324,0.013523,0.002678,0.000431,0.000823
125669000,0.0324,0.013523,0.002678,0.000431,0.000823
125670000,0.0324,0.013523,0.002678,0.000431,0.000823
125671000,0.0324,0.013523,0.002678,0.000431,0.000823
125672000,0.0324,0.013523,0.002678,0.000431,0.000823
125673000,0.0324,0.013523,0.002678,0.000431,0.000823
125674000,0.0324,0.013523,0.002678,0.000431,0.000940
125675000,0.0324,0.013523,0.002678,0.000431,0.000823
125676000,0.0324,0.013523,0.002678,0.000431,0.000823
125677000,0.0324,0.013523,0.002678,0.000431,0.000705
125678000,0.0324,0.013523,0.002678,0.000431,0.000940
125679000,0.0324,0.013523,0.002678,0.000431,0.000940
125680000,0.0324,0.013523,0.002678,0.000431,0.000705
125681000,0.0324,0.013523,0.002678,0.000431,0.000940
125682000,0.0324,0.013523,0.002678,0.000431,0.000705
125683000,0.0324,0.013523,0.002678,0.000431,0.000940
125684000,0.0324,0.013523,0.002678,0.000431,0.000823
125685000,0.0324,0.013523,0.002678,0.000431,0.000823
125686000,0.0324,0.013523,0.002678,0.000431,0.000940
125687000,0.0324,0.013523,0.002678,0.000431,0.000705
125688000,0.0324,0.013523,0.002678,0.000431,0.000940
125689000,0.0324,0.013523,0.002678,0.000431,0.000823
125690000,0.0324,0.013523,0.002678,0.000431,0.000823
125691000,0.0324,0.013523,0.002678,0.000431,0.000823
125692000,0.0324,0.013523,0.002678,0.000431,0.000823
125693000,0.0324,0.013523,0.002678,0.000431,0.000940
125694000,0.0324,0.013523,0.002678,0.000431,0.000705
125695000,0.0324,0.013523,0.002678,0.000431,0.000940
125696000,0.0324,0.013523,0.002678,0.000431,0.000823
125697000,0.0324,0.013523,0.002678,0.000431,0.000823
125698000,0.0324,0.013523,0.002678,0.000431,0.000823
125699000,0.0324,0.013523,0.002678,0.000431,0.000823
125700000,0.0324,0.013523,0.002678,0.000431,0.000705
125701000,0.0324,0.013523,0.002678,0.000431,0.000940
125702000,0.0324,0.013523,0.002678,0.000431,0.000940
125703000,0.0324,0.013523,0.002678,0.000431,0.000705
125704000,0.0324,0.013523,0.002678,0.000431,0.000940
125705000,0.0324,0.013523,0.002678,0.000431,0.000705
125706000,0.0324,0.013523,0.002678,0.000431,0.000940
125707000,0.0324,0.013523,0.002678,0.000431,0.000940
125708000,0.0324,0.013523,0.002678,0.000431,0.000705
125709000,0.0324,0.013523,0.002678,0.000431,0.000940
125710000,0.0324,0.013523,0.002678,0.000431,0.000705
125711000,0.0324,0.013523,0.002678,0.000431,0.000940
125712000,0.0324,0.013523,0.002678,0.000431,0.000823
125713000,0.0324,0.013523,0.002678,0.000431,0.000823
125714000,0.0324,0.013523,0.002678,0.000431,0.000823
125715000,0.0324,0.013523,0.002678,0.000431,0.000823
125716000,0.0324,0.013523,0.002678,0.000431,0.000940
125717000,0.0324,0.013523,0.002678,0.000431,0.000705
125718000,0.0324,0.013523,0.002678,0.000431,0.000940
125719000,0.0324,0.013523,0.002678,0.000431,0.000705
125720000,0.0324,0.013523,0.002678,0.000431,0.000823
125721000,0.0324,0.013523,0.002678,0.000431,0.000940
125722000,0.0324,0.013523,0.002678,0.000431,0.000823
125723000,0.0324,0.013523,0.002678,0.000431,0.000823
125724000,0.0324,0.013523,0.002678,0.000431,0.000823
125725000,0.0324,0.013523,0.002678,0.000431,0.000823
125726000,0.0324,0.013523,0.002678,0.000431,0.000823
125727000,0.0324,0.013523,0.002678,0.000431,0.000940
125728000,0.0324,0.013523,0.002678,0.000431,0.000823
125729000,0.0324,0.013523,0.002678,0.000431,0.000823
125730000,0.0324,0.013523,0.002678,0.000431,0.000705
125731000,0.0324,0.013523,0.002678,0.000431,0.000940
125732000,0.0324,0.013523,0.002678,0.000431,0.000940
125733000,0.0324,0.013523,0.002678,0.000431,0.000705
125734000,0.0324,0.013523,0.002678,0.000431,0.000940
125735000,0.0324,0.013523,0.002678,0.000431,0.000705
125736000,0.0324,0.013523,0.002678,0.000431,0.000940
125737000,0.0324,0.013523,0.002678,0.000431,0.000823
125738000,0.0324,0.013523,0.002678,0.000431,0.000823
125739000,0.0324,0.013523,0.002678,0.000431,0.000823
125740000,0.0324,0.013523,0.002678,0.000431,0.000823
125741000,0.0324,0.013523,0.002678,0.000431,0.000940
125742000,0.0324,0.013523,0.002678,0.000431,0.000823
125743000,0.0324,0.013523,0.002678,0.000431,0.000823
125744000,0.0324,0.013523,0.002678,0.000431,0.000823
125745000,0.0324,0.013523,0.002678,0.000431,0.000823
125746000,0.0324,0.013523,0.002678,0.000431,0.000823
125747000,0.0324,0.013523,0.002678,0.000431,0.000823
125748000,0.0324,0.013523,0.002678,0.000431,0.000940
125749000,0.0324,0.013523,0.002678,0.000431,0.000705
125750000,0.0324,0.013523,0.002678,0.000431,0.000940
125751000,0.0324,0.013523,0.002678,0.000431,0.000823
125752000,0.0324,0.013523,0.002678,0.000431,0.000823
125753000,0.0324,0.013523,0.002678,0.000431,0.000705
125754000,0.0324,0.013523,0.002678,0.000431,0.000940
125755000,0.0324,0.013523,0.002678,0.000431,0.000940
125756000,0.0324,0.013523,0.002678,0.000431,0.000705
125757000,0.0324,0.013523,0.002678,0.000431,0.000940
125758000,0.0324,0.013523,0.002678,0.000431,0.000705
125759000,0.0324,0.013523,0.002678,0.000431,0.000940
125760000,0.0324,0.013523,0.002678,0.000431,0.000823
125761000,0.0324,0.013523,0.002678,0.000431,0.071222
125762000,0.0324,0.013523,0.002678,0.000431,0.447547
125763000,0.0324,0.013523,0.002678,0.000431,0.603977
125764000,0.0324,0.013523,0.002678,0.000431,0.130221
125765000,0.0324,0.013523,0.002678,0.000431,0.134452
125766000,0.0324,0.013523,0.002678,0.000431,0.550384
125767000,0.0324,0.013523,0.002678,0.000431,0.227887
125768000,0.0324,0.013523,0.002678,0.000431,0.251863
125769000,0.0324,0.013523,0.002678,0.000431,0.332370
125770000,0.0324,0.013523,0.002678,0.000431,0.137861
125771000,0.0324,0.013523,0.002678,0.000431,0.152904
125772000,0.0324,0.013523,0.002678,0.000431,0.137273
125773000,0.0324,0.013523,0.002678,0.000431,0.233411
125774000,0.0324,0.013523,0.002678,0.000431,0.370449
125775000,0.0324,0.013523,0.002678,0.000431,0.057354
125776000,0.0324,0.013523,0.002678,0.000431,0.058176
125777000,0.0324,0.013523,0.002678,0.000431,0.041370
125778000,0.0324,0.013523,0.002678,0.000431,0.037727
125779000,0.0324,0.013523,0.002678,0.000431,0.029970
125780000,0.0324,0.013523,0.002678,0.000431,0.023976
125781000,0.0324,0.013523,0.002678,0.000431,0.020450
125782000,0.0324,0.013523,0.002678,0.000431,0.016454
125783000,0.0324,0.013523,0.002678,0.000431,0.009990
125784000,0.0324,0.013523,0.002678,0.000431,0.011988
125785000,0.0324,0.013523,0.002678,0.000431,0.013398
125786000,0.0324,0.013523,0.002678,0.000431,0.010578
125787000,0.0324,0.013523,0.002678,0.000431,0.006229
125788000,0.0324,0.013523,0.002678,0.000431,0.006817
125789000,0.0324,0.013523,0.002678,0.000431,0.006111
125790000,0.0324,0.013523,0.002678,0.000431,0.006817
125791000,0.0324,0.013523,0.002678,0.000431,0.007874
125792000,0.0324,0.013523,0.002678,0.000431,0.006111
125793000,0.0324,0.013523,0.002678,0.000431,0.005406
125794000,0.0324,0.013523,0.002678,0.000431,0.005994
125795000,0.0324,0.013523,0.002678,0.000431,0.005524
125796000,0.0324,0.013523,0.002678,0.000431,0.006111
125797000,0.0324,0.013523,0.002678,0.000431,0.003761
125798000,0.0324,0.013523,0.002678,0.000431,0.003408
125799000,0.0324,0.013523,0.002678,0.000431,0.003526
125800000,0.0324,0.013523,0.002678,0.000431,0.003526
125801000,0.0324,0.013523,0.002678,0.000431,0.003291
125802000,0.0324,0.013523,0.002678,0.000431,0.003526
125803000,0.0324,0.013523,0.002678,0.000431,0.003526
125804000,0.0324,0.013523,0.002678,0.000431,0.003526
125805000,0.0324,0.013523,0.002678,0.000431,0.003291
125806000,0.0324,0.013523,0.002678,0.000431,0.005171
125807000,0.0324,0.013523,0.002678,0.000431,0.002821
125808000,0.0324,0.013523,0.002678,0.000431,0.002468
125809000,0.0324,0.013523,0.002678,0.000431,0.004466
125810000,0.0324,0.013523,0.002678,0.000431,0.001880
125811000,0.0324,0.013523,0.002678,0.000431,0.001763
125812000,0.0324,0.013523,0.002678,0.000431,0.001645
125813000,0.0324,0.013523,0.002678,0.000431,0.001763
125814000,0.0324,0.013523,0.002678,0.000431,0.001880
125815000,0.0324,0.013523,0.002678,0.000431,0.001645
125816000,0.0324,0.013523,0.002678,0.000431,0.001763
125817000,0.0324,0.013523,0.002678,0.000431,0.001763
125818000,0.0324,0.013523,0.002678,0.000431,0.001763
125819000,0.0324,0.013523,0.002678,0.000431,0.001763
125820000,0.0324,0.013523,0.002678,0.000431,0.001645
125821000,0.0324,0.013523,0.002678,0.000431,0.001880
125822000,0.0324,0.013523,0.002678,0.000431,0.001763
125823000,0.0324,0.013523,0.002678,0.000431,0.001763
125824000,0.0324,0.013523,0.002678,0.000431,0.001763
125825000,0.0324,0.013523,0.002678,0.000431,0.001763
125826000,0.0324,0.013523,0.002678,0.000431,0.001763
125827000,0.0324,0.013523,0.002678,0.000431,0.001763
125828000,0.0324,0.013523,0.002678,0.000431,0.001763
125829000,0.0324,0.013523,0.002678,0.000431,0.001763
125830000,0.0324,0.013523,0.002678,0.000431,0.001763
125831000,0.0324,0.013523,0.002678,0.000431,0.001763
125832000,0.0324,0.013523,0.002678,0.000431,0.001645
125833000,0.0324,0.013523,0.002678,0.000431,0.003761
125834000,0.0324,0.013523,0.002678,0.000431,0.000940
125835000,0.0324,0.013523,0.002678,0.000431,0.000823
125836000,0.0324,0.013523,0.002678,0.000431,0.000940
125837000,0.0324,0.013523,0.002678,0.000431,0.000823
125838000,0.0324,0.013523,0.002678,0.000431,0.000823
125839000,0.0324,0.013523,0.002678,0.000431,0.000940
125840000,0.0324,0.013523,0.002678,0.000431,0.000940
125841000,0.0324,0.013523,0.002678,0.000431,0.000823
125842000,0.0324,0.013523,0.002678,0.000431,0.000823
125843000,0.0324,0.013523,0.002678,0.000431,0.000940
125844000,0.0324,0.013523,0.002678,0.000431,0.000940
125845000,0.0324,0.013523,0.002678,0.000431,0.000705
125846000,0.0324,0.013523,0.002678,0.000431,0.000940
125847000,0.0324,0.013523,0.002678,0.000431,0.000940
125848000,0.0324,0.013523,0.002678,0.000431,0.000940
125849000,0.0324,0.013523,0.002678,0.000431,0.000705
125850000,0.0324,0.013523,0.002678,0.000431,0.000940
125851000,0.0324,0.013523,0.002678,0.000431,0.000940
125852000,0.0324,0.013523,0.002678,0.000431,0.000823
125853000,0.0324,0.013523,0.002678,0.000431,0.000940
125854000,0.0324,0.013523,0.002678,0.000431,0.000823
125855000,0.0324,0.013523,0.002678,0.000431,0.000940
125856000,0.0324,0.013523,0.002678,0.000431,0.000823
125857000,0.0324,0.013523,0.002678,0.000431,0.000823
125858000,0.0324,0.013523,0.002678,0.000431,0.000940
125859000,0.0324,0.013523,0.002678,0.000431,0.000940
125860000,0.0324,0.013523,0.002678,0.000431,0.000823
125861000,0.0324,0.013523,0.002678,0.000431,0.000823
125862000,0.0324,0.013523,0.002678,0.000431,0.000940
125863000,0.0324,0.013523,0.002678,0.000431,0.000940
125864000,0.0324,0.013523,0.002678,0.000431,0.000705
125865000,0.0324,0.013523,0.002678,0.000431,0.000940
125866000,0.0324,0.013523,0.002678,0.000431,0.000940
125867000,0.0324,0.013523,0.002678,0.000431,0.000940
125868000,0.0324,0.013523,0.002678,0.000431,0.000705
125869000,0.0324,0.013523,0.002678,0.000431,0.000940
125870000,0.0324,0.013523,0.002678,0.000431,0.000940
125871000,0.0324,0.013523,0.002678,0.000431,0.000823
125872000,0.0324,0.013523,0.002678,0.000431,0.000823
125873000,0.0324,0.013523,0.002678,0.000431,0.000940
125874000,0.0324,0.013523,0.002678,0.000431,0.000823
125875000,0.0324,0.013523,0.002678,0.000431,0.000940
125876000,0.0324,0.013523,0.002678,0.000431,0.000823
125877000,0.0324,0.013523,0.002678,0.000431,0.000940
125878000,0.0324,0.013523,0.002678,0.000431,0.000823
125879000,0.0324,0.013523,0.002678,0.000431,0.000823
125880000,0.0324,0.013523,0.002678,0.000431,0.000940
125881000,0.0324,0.013523,0.002678,0.000431,0.000940
125882000,0.0324,0.013523,0.002678,0.000431,0.000823
125883000,0.0324,0.013523,0.002678,0.000431,0.000823
125884000,0.0324,0.013523,0.002678,0.000431,0.000940
125885000,0.0324,0.013523,0.002678,0.000431,0.000940
125886000,0.0324,0.013523,0.002678,0.000431,0.000823
125887000,0.0324,0.013523,0.002678,0.000431,0.000823
125888000,0.0324,0.013523,0.002678,0.000431,0.000940
125889000,0.0324,0.013523,0.002678,0.000431,0.000940
125890000,0.0324,0.013523,0.002678,0.000431,0.000823
125891000,0.0324,0.013523,0.002678,0.000431,0.000823
125892000,0.0324,0.013523,0.002678,0.000431,0.000940
125893000,0.0324,0.013523,0.002678,0.000431,0.000823
125894000,0.0324,0.013523,0.002678,0.000431,0.000940
125895000,0.0324,0.013523,0.002678,0.000431,0.000823
125896000,0.0324,0.013523,0.002678,0.000431,0.000940
125897000,0.0324,0.013523,0.002678,0.000431,0.000823
125898000,0.0324,0.013523,0.002678,0.000431,0.000823
125899000,0.0324,0.013523,0.002678,0.000431,0.000940
125900000,0.0324,0.013523,0.002678,0.000431,0.000940
125901000,0.0324,0.013523,0.002678,0.000431,0.000823
125902000,0.0324,0.013523,0.002678,0.000431,0.000823
125903000,0.0324,0.013523,0.002678,0.000431,0.000940
125904000,0.0324,0.013523,0.002678,0.000431,0.070752
125905000,0.0324,0.013523,0.002678,0.000431,0.461651
125906000,0.0324,0.013523,0.002678,0.000431,0.601627
125907000,0.0324,0.013523,0.002678,0.000431,0.132219
125908000,0.0324,0.013523,0.002678,0.000431,0.133865
125909000,0.0324,0.013523,0.002678,0.000431,0.603860
125910000,0.0324,0.013523,0.002678,0.000431,0.244929
125911000,0.0324,0.013523,0.002678,0.000431,0.233293
125912000,0.0324,0.013523,0.002678,0.000431,0.329784
125913000,0.0324,0.013523,0.002678,0.000431,0.138918
125914000,0.0324,0.013523,0.002678,0.000431,0.152669
125915000,0.0324,0.013523,0.002678,0.000431,0.100369
125916000,0.0324,0.013523,0.002678,0.000431,0.405825
125917000,0.0324,0.013523,0.002678,0.000431,0.132924
125918000,0.0324,0.013523,0.002678,0.000431,0.003643
125919000,0.0324,0.013523,0.002678,0.000431,0.003056
125920000,0.0324,0.013523,0.002678,0.000431,0.003643
125921000,0.0324,0.013523,0.002678,0.000431,0.003761
125922000,0.0324,0.013523,0.002678,0.000431,0.003526
125923000,0.0324,0.013523,0.002678,0.000431,0.003173
125924000,0.0324,0.013523,0.002678,0.000431,0.003643
125925000,0.0324,0.013523,0.002678,0.000431,0.003643
125926000,0.0324,0.013523,0.002678,0.000431,0.003526
125927000,0.0324,0.013523,0.002678,0.000431,0.003173
125928000,0.0324,0.013523,0.002678,0.000431,0.003761
125929000,0.0324,0.013523,0.002678,0.000431,0.003643
125930000,0.0324,0.013523,0.002678,0.000431,0.003408
125931000,0.0324,0.013523,0.002678,0.000431,0.003291
125932000,0.0324,0.013523,0.002678,0.000431,0.003643
125933000,0.0324,0.013523,0.002678,0.000431,0.003526
125934000,0.0324,0.013523,0.002678,0.000431,0.003526
125935000,0.0324,0.013523,0.002678,0.000431,0.003408
125936000,0.0324,0.013523,0.002678,0.000431,0.003761
125937000,0.0324,0.013523,0.002678,0.000431,0.003291
125938000,0.0324,0.013523,0.002678,0.000431,0.003408
125939000,0.0324,0.013523,0.002678,0.000431,0.003643
125940000,0.0324,0.013523,0.002678,0.000431,0.003761
125941000,0.0324,0.013523,0.002678,0.000431,0.003408
125942000,0.0324,0.013523,0.002678,0.000431,0.003291
125943000,0.0324,0.013523,0.002678,0.000431,0.004701
125944000,0.0324,0.013523,0.002678,0.000431,0.002821
125945000,0.0324,0.013523,0.002678,0.000431,0.003996
125946000,0.0324,0.013523,0.002678,0.000431,0.001763
125947000,0.0324,0.013523,0.002678,0.000431,0.001880
125948000,0.0324,0.013523,0.002678,0.000431,0.001880
125949000,0.0324,0.013523,0.002678,0.000431,0.001528
125950000,0.0324,0.013523,0.002678,0.000431,0.001763
125951000,0.0324,0.013523,0.002678,0.000431,0.001880
125952000,0.0324,0.013523,0.002678,0.000431,0.001763
125953000,0.0324,0.013523,0.002678,0.000431,0.001763
125954000,0.0324,0.013523,0.002678,0.000431,0.001645
125955000,0.0324,0.013523,0.002678,0.000431,0.001880
125956000,0.0324,0.013523,0.002678,0.000431,0.001645
125957000,0.0324,0.013523,0.002678,0.000431,0.001763
125958000,0.0324,0.013523,0.002678,0.000431,0.001763
125959000,0.0324,0.013523,0.002678,0.000431,0.001880
125960000,0.0324,0.013523,0.002678,0.000431,0.001645
125961000,0.0324,0.013523,0.002678,0.000431,0.003173
125962000,0.0324,0.013523,0.002678,0.000431,0.000940
125963000,0.0324,0.013523,0.002678,0.000431,0.000940
125964000,0.0324,0.013523,0.002678,0.000431,0.000705
125965000,0.0324,0.013523,0.002678,0.000431,0.000940
125966000,0.0324,0.013523,0.002678,0.000431,0.000940
125967000,0.0324,0.013523,0.002678,0.000431,0.000823
125968000,0.0324,0.013523,0.002678,0.000431,0.000940
125969000,0.0324,0.013523,0.002678,0.000431,0.000823
125970000,0.0324,0.013523,0.002678,0.000431,0.000940
125971000,0.0324,0.013523,0.002678,0.000431,0.000823
125972000,0.0324,0.013523,0.002678,0.000431,0.000823
125973000,0.0324,0.013523,0.002678,0.000431,0.000940
125974000,0.0324,0.013523,0.002678,0.000431,0.000940
125975000,0.0324,0.013523,0.002678,0.000431,0.000823
125976000,0.0324,0.013523,0.002678,0.000431,0.000823
125977000,0.0324,0.013523,0.002678,0.000431,0.000940
125978000,0.0324,0.013523,0.002678,0.000431,0.000940
125979000,0.0324,0.013523,0.002678,0.000431,0.000705
125980000,0.0324,0.013523,0.002678,0.000431,0.000940
125981000,0.0324,0.013523,0.002678,0.000431,0.000940
125982000,0.0324,0.013523,0.002678,0.000431,0.000940
125983000,0.0324,0.013523,0.002678,0.000431,0.000705
125984000,0.0324,0.013523,0.002678,0.000431,0.000940
125985000,0.0324,0.013523,0.002678,0.000431,0.000940
125986000,0.0324,0.013523,0.002678,0.000431,0.000823
125987000,0.0324,0.013523,0.002678,0.000431,0.000823
125988000,0.0324,0.013523,0.002678,0.000431,0.000940
125989000,0.0324,0.013523,0.002678,0.000431,0.000940
125990000,0.0324,0.013523,0.002678,0.000431,0.000823
125991000,0.0324,0.013523,0.002678,0.000431,0.000823
125992000,0.0324,0.013523,0.002678,0.000431,0.000940
125993000,0.0324,0.013523,0.002678,0.000431,0.000823
125994000,0.0324,0.013523,0.002678,0.000431,0.000940
125995000,0.0324,0.013523,0.002678,0.000431,0.000823
125996000,0.0324,0.013523,0.002678,0.000431,0.000940
125997000,0.0324,0.013523,0.002678,0.000431,0.000823
125998000,0.0324,0.013523,0.002678,0.000431,0.000823
125999000,0.0324,0.013523,0.002678,0.000431,0.070869
