Cycle,Area(mm^2),PeakDynamic(W),SubthresholdLeakage(W),GateLeakage(W),RunTimeDynamic(W)
56000000,0.0324,0.013523,0.002678,0.000431,0.000823
56001000,0.0324,0.013523,0.002678,0.000431,0.000823
56002000,0.0324,0.013523,0.002678,0.000431,0.000823
56003000,0.0324,0.013523,0.002678,0.000431,0.000823
56004000,0.0324,0.013523,0.002678,0.000431,0.000940
56005000,0.0324,0.013523,0.002678,0.000431,0.000705
56006000,0.0324,0.013523,0.002678,0.000431,0.000940
56007000,0.0324,0.013523,0.002678,0.000431,0.000823
56008000,0.0324,0.013523,0.002678,0.000431,0.000823
56009000,0.0324,0.013523,0.002678,0.000431,0.000705
56010000,0.0324,0.013523,0.002678,0.000431,0.000940
56011000,0.0324,0.013523,0.002678,0.000431,0.000940
56012000,0.0324,0.013523,0.002678,0.000431,0.000705
56013000,0.0324,0.013523,0.002678,0.000431,0.000940
56014000,0.0324,0.013523,0.002678,0.000431,0.000705
56015000,0.0324,0.013523,0.002678,0.000431,0.000940
56016000,0.0324,0.013523,0.002678,0.000431,0.000823
56017000,0.0324,0.013523,0.002678,0.000431,0.000823
56018000,0.0324,0.013523,0.002678,0.000431,0.000940
56019000,0.0324,0.013523,0.002678,0.000431,0.000705
56020000,0.0324,0.013523,0.002678,0.000431,0.000940
56021000,0.0324,0.013523,0.002678,0.000431,0.000823
56022000,0.0324,0.013523,0.002678,0.000431,0.000823
56023000,0.0324,0.013523,0.002678,0.000431,0.000823
56024000,0.0324,0.013523,0.002678,0.000431,0.000823
56025000,0.0324,0.013523,0.002678,0.000431,0.000823
56026000,0.0324,0.013523,0.002678,0.000431,0.000823
56027000,0.0324,0.013523,0.002678,0.000431,0.000940
56028000,0.0324,0.013523,0.002678,0.000431,0.000823
56029000,0.0324,0.013523,0.002678,0.000431,0.000705
56030000,0.0324,0.013523,0.002678,0.000431,0.000940
56031000,0.0324,0.013523,0.002678,0.000431,0.000823
56032000,0.0324,0.013523,0.002678,0.000431,0.000823
56033000,0.0324,0.013523,0.002678,0.000431,0.000823
56034000,0.0324,0.013523,0.002678,0.000431,0.000823
56035000,0.0324,0.013523,0.002678,0.000431,0.000823
56036000,0.0324,0.013523,0.002678,0.000431,0.000940
56037000,0.0324,0.013523,0.002678,0.000431,0.000823
56038000,0.0324,0.013523,0.002678,0.000431,0.000823
56039000,0.0324,0.013523,0.002678,0.000431,0.000705
56040000,0.0324,0.013523,0.002678,0.000431,0.000940
56041000,0.0324,0.013523,0.002678,0.000431,0.000705
56042000,0.0324,0.013523,0.002678,0.000431,0.000940
56043000,0.0324,0.013523,0.002678,0.000431,0.000823
56044000,0.0324,0.013523,0.002678,0.000431,0.000823
56045000,0.0324,0.013523,0.002678,0.000431,0.000705
56046000,0.0324,0.013523,0.002678,0.000431,0.000940
56047000,0.0324,0.013523,0.002678,0.000431,0.000940
56048000,0.0324,0.013523,0.002678,0.000431,0.000705
56049000,0.0324,0.013523,0.002678,0.000431,0.000940
56050000,0.0324,0.013523,0.002678,0.000431,0.000705
56051000,0.0324,0.013523,0.002678,0.000431,0.000940
56052000,0.0324,0.013523,0.002678,0.000431,0.000823
56053000,0.0324,0.013523,0.002678,0.000431,0.000823
56054000,0.0324,0.013523,0.002678,0.000431,0.000940
56055000,0.0324,0.013523,0.002678,0.000431,0.000705
56056000,0.0324,0.013523,0.002678,0.000431,0.000940
56057000,0.0324,0.013523,0.002678,0.000431,0.000823
56058000,0.0324,0.013523,0.002678,0.000431,0.000823
56059000,0.0324,0.013523,0.002678,0.000431,0.000823
56060000,0.0324,0.013523,0.002678,0.000431,0.000823
56061000,0.0324,0.013523,0.002678,0.000431,0.000823
56062000,0.0324,0.013523,0.002678,0.000431,0.000823
56063000,0.0324,0.013523,0.002678,0.000431,0.000940
56064000,0.0324,0.013523,0.002678,0.000431,0.000705
56065000,0.0324,0.013523,0.002678,0.000431,0.000940
56066000,0.0324,0.013523,0.002678,0.000431,0.000823
56067000,0.0324,0.013523,0.002678,0.000431,0.000823
56068000,0.0324,0.013523,0.002678,0.000431,0.000705
56069000,0.0324,0.013523,0.002678,0.000431,0.000940
56070000,0.0324,0.013523,0.002678,0.000431,0.000940
56071000,0.0324,0.013523,0.002678,0.000431,0.000705
56072000,0.0324,0.013523,0.002678,0.000431,0.000940
56073000,0.0324,0.013523,0.002678,0.000431,0.000940
56074000,0.0324,0.013523,0.002678,0.000431,0.000705
56075000,0.0324,0.013523,0.002678,0.000431,0.000823
56076000,0.0324,0.013523,0.002678,0.000431,0.000823
56077000,0.0324,0.013523,0.002678,0.000431,0.000823
56078000,0.0324,0.013523,0.002678,0.000431,0.000823
56079000,0.0324,0.013523,0.002678,0.000431,0.001880
56080000,0.0324,0.013523,0.002678,0.000431,0.355405
56081000,0.0324,0.013523,0.002678,0.000431,0.694944
56082000,0.0324,0.013523,0.002678,0.000431,0.145970
56083000,0.0324,0.013523,0.002678,0.000431,0.133865
56084000,0.0324,0.013523,0.002678,0.000431,0.186517
56085000,0.0324,0.013523,0.002678,0.000431,0.577063
56086000,0.0324,0.013523,0.002678,0.000431,0.262440
56087000,0.0324,0.013523,0.002678,0.000431,0.313918
56088000,0.0324,0.013523,0.002678,0.000431,0.240345
56089000,0.0324,0.013523,0.002678,0.000431,0.141739
56090000,0.0324,0.013523,0.002678,0.000431,0.114355
56091000,0.0324,0.013523,0.002678,0.000431,0.289119
56092000,0.0324,0.013523,0.002678,0.000431,0.340832
56093000,0.0324,0.013523,0.002678,0.000431,0.088969
56094000,0.0324,0.013523,0.002678,0.000431,0.059939
56095000,0.0324,0.013523,0.002678,0.000431,0.053005
56096000,0.0324,0.013523,0.002678,0.000431,0.049127
56097000,0.0324,0.013523,0.002678,0.000431,0.043485
56098000,0.0324,0.013523,0.002678,0.000431,0.040312
56099000,0.0324,0.013523,0.002678,0.000431,0.027149
56100000,0.0324,0.013523,0.002678,0.000431,0.024916
56101000,0.0324,0.013523,0.002678,0.000431,0.021038
56102000,0.0324,0.013523,0.002678,0.000431,0.021978
56103000,0.0324,0.013523,0.002678,0.000431,0.018687
56104000,0.0324,0.013523,0.002678,0.000431,0.016689
56105000,0.0324,0.013523,0.002678,0.000431,0.015866
56106000,0.0324,0.013523,0.002678,0.000431,0.014221
56107000,0.0324,0.013523,0.002678,0.000431,0.009520
56108000,0.0324,0.013523,0.002678,0.000431,0.011870
56109000,0.0324,0.013523,0.002678,0.000431,0.012811
56110000,0.0324,0.013523,0.002678,0.000431,0.008345
56111000,0.0324,0.013523,0.002678,0.000431,0.005171
56112000,0.0324,0.013523,0.002678,0.000431,0.005054
56113000,0.0324,0.013523,0.002678,0.000431,0.006934
56114000,0.0324,0.013523,0.002678,0.000431,0.004466
56115000,0.0324,0.013523,0.002678,0.000431,0.005054
56116000,0.0324,0.013523,0.002678,0.000431,0.003761
56117000,0.0324,0.013523,0.002678,0.000431,0.003056
56118000,0.0324,0.013523,0.002678,0.000431,0.003526
56119000,0.0324,0.013523,0.002678,0.000431,0.003643
56120000,0.0324,0.013523,0.002678,0.000431,0.003173
56121000,0.0324,0.013523,0.002678,0.000431,0.003291
56122000,0.0324,0.013523,0.002678,0.000431,0.003408
56123000,0.0324,0.013523,0.002678,0.000431,0.003643
56124000,0.0324,0.013523,0.002678,0.000431,0.003291
56125000,0.0324,0.013523,0.002678,0.000431,0.004584
56126000,0.0324,0.013523,0.002678,0.000431,0.002468
56127000,0.0324,0.013523,0.002678,0.000431,0.002703
56128000,0.0324,0.013523,0.002678,0.000431,0.004231
56129000,0.0324,0.013523,0.002678,0.000431,0.001528
56130000,0.0324,0.013523,0.002678,0.000431,0.001763
56131000,0.0324,0.013523,0.002678,0.000431,0.001645
56132000,0.0324,0.013523,0.002678,0.000431,0.001763
56133000,0.0324,0.013523,0.002678,0.000431,0.001645
56134000,0.0324,0.013523,0.002678,0.000431,0.001528
56135000,0.0324,0.013523,0.002678,0.000431,0.001528
56136000,0.0324,0.013523,0.002678,0.000431,0.003526
56137000,0.0324,0.013523,0.002678,0.000431,0.001058
56138000,0.0324,0.013523,0.002678,0.000431,0.000705
56139000,0.0324,0.013523,0.002678,0.000431,0.000940
56140000,0.0324,0.013523,0.002678,0.000431,0.000705
56141000,0.0324,0.013523,0.002678,0.000431,0.000940
56142000,0.0324,0.013523,0.002678,0.000431,0.000940
56143000,0.0324,0.013523,0.002678,0.000431,0.000705
56144000,0.0324,0.013523,0.002678,0.000431,0.000940
56145000,0.0324,0.013523,0.002678,0.000431,0.000705
56146000,0.0324,0.013523,0.002678,0.000431,0.000940
56147000,0.0324,0.013523,0.002678,0.000431,0.000823
56148000,0.0324,0.013523,0.002678,0.000431,0.000823
56149000,0.0324,0.013523,0.002678,0.000431,0.000823
56150000,0.0324,0.013523,0.002678,0.000431,0.000823
56151000,0.0324,0.013523,0.002678,0.000431,0.000940
56152000,0.0324,0.013523,0.002678,0.000431,0.000705
56153000,0.0324,0.013523,0.002678,0.000431,0.000940
56154000,0.0324,0.013523,0.002678,0.000431,0.000823
56155000,0.0324,0.013523,0.002678,0.000431,0.000823
56156000,0.0324,0.013523,0.002678,0.000431,0.000823
56157000,0.0324,0.013523,0.002678,0.000431,0.000823
56158000,0.0324,0.013523,0.002678,0.000431,0.000823
56159000,0.0324,0.013523,0.002678,0.000431,0.000823
56160000,0.0324,0.013523,0.002678,0.000431,0.000940
56161000,0.0324,0.013523,0.002678,0.000431,0.000705
56162000,0.0324,0.013523,0.002678,0.000431,0.000940
56163000,0.0324,0.013523,0.002678,0.000431,0.000705
56164000,0.0324,0.013523,0.002678,0.000431,0.000940
56165000,0.0324,0.013523,0.002678,0.000431,0.000940
56166000,0.0324,0.013523,0.002678,0.000431,0.000705
56167000,0.0324,0.013523,0.002678,0.000431,0.000940
56168000,0.0324,0.013523,0.002678,0.000431,0.000705
56169000,0.0324,0.013523,0.002678,0.000431,0.000940
56170000,0.0324,0.013523,0.002678,0.000431,0.000823
56171000,0.0324,0.013523,0.002678,0.000431,0.000823
56172000,0.0324,0.013523,0.002678,0.000431,0.000823
56173000,0.0324,0.013523,0.002678,0.000431,0.000823
56174000,0.0324,0.013523,0.002678,0.000431,0.000940
56175000,0.0324,0.013523,0.002678,0.000431,0.000705
56176000,0.0324,0.013523,0.002678,0.000431,0.000940
56177000,0.0324,0.013523,0.002678,0.000431,0.000823
56178000,0.0324,0.013523,0.002678,0.000431,0.000823
56179000,0.0324,0.013523,0.002678,0.000431,0.000823
56180000,0.0324,0.013523,0.002678,0.000431,0.000823
56181000,0.0324,0.013523,0.002678,0.000431,0.000940
56182000,0.0324,0.013523,0.002678,0.000431,0.000705
56183000,0.0324,0.013523,0.002678,0.000431,0.000823
56184000,0.0324,0.013523,0.002678,0.000431,0.000940
56185000,0.0324,0.013523,0.002678,0.000431,0.000823
56186000,0.0324,0.013523,0.002678,0.000431,0.000823
56187000,0.0324,0.013523,0.002678,0.000431,0.000823
56188000,0.0324,0.013523,0.002678,0.000431,0.000705
56189000,0.0324,0.013523,0.002678,0.000431,0.000940
56190000,0.0324,0.013523,0.002678,0.000431,0.000940
56191000,0.0324,0.013523,0.002678,0.000431,0.000705
56192000,0.0324,0.013523,0.002678,0.000431,0.000940
56193000,0.0324,0.013523,0.002678,0.000431,0.000705
56194000,0.0324,0.013523,0.002678,0.000431,0.000940
56195000,0.0324,0.013523,0.002678,0.000431,0.000940
56196000,0.0324,0.013523,0.002678,0.000431,0.000705
56197000,0.0324,0.013523,0.002678,0.000431,0.000940
56198000,0.0324,0.013523,0.002678,0.000431,0.000705
56199000,0.0324,0.013523,0.002678,0.000431,0.000940
56200000,0.0324,0.013523,0.002678,0.000431,0.000823
56201000,0.0324,0.013523,0.002678,0.000431,0.000823
56202000,0.0324,0.013523,0.002678,0.000431,0.000823
56203000,0.0324,0.013523,0.002678,0.000431,0.000823
56204000,0.0324,0.013523,0.002678,0.000431,0.000940
56205000,0.0324,0.013523,0.002678,0.000431,0.000705
56206000,0.0324,0.013523,0.002678,0.000431,0.000940
56207000,0.0324,0.013523,0.002678,0.000431,0.000705
56208000,0.0324,0.013523,0.002678,0.000431,0.000940
56209000,0.0324,0.013523,0.002678,0.000431,0.000823
56210000,0.0324,0.013523,0.002678,0.000431,0.000823
56211000,0.0324,0.013523,0.002678,0.000431,0.000823
56212000,0.0324,0.013523,0.002678,0.000431,0.000823
56213000,0.0324,0.013523,0.002678,0.000431,0.000940
56214000,0.0324,0.013523,0.002678,0.000431,0.000705
56215000,0.0324,0.013523,0.002678,0.000431,0.000940
56216000,0.0324,0.013523,0.002678,0.000431,0.000705
56217000,0.0324,0.013523,0.002678,0.000431,0.000940
56218000,0.0324,0.013523,0.002678,0.000431,0.000823
56219000,0.0324,0.013523,0.002678,0.000431,0.000823
56220000,0.0324,0.013523,0.002678,0.000431,0.000940
56221000,0.0324,0.013523,0.002678,0.000431,0.000705
56222000,0.0324,0.013523,0.002678,0.000431,0.000940
56223000,0.0324,0.013523,0.002678,0.000431,0.000823
56224000,0.0324,0.013523,0.002678,0.000431,0.000823
56225000,0.0324,0.013523,0.002678,0.000431,0.000823
56226000,0.0324,0.013523,0.002678,0.000431,0.000823
56227000,0.0324,0.013523,0.002678,0.000431,0.000823
56228000,0.0324,0.013523,0.002678,0.000431,0.000823
56229000,0.0324,0.013523,0.002678,0.000431,0.000940
56230000,0.0324,0.013523,0.002678,0.000431,0.000823
56231000,0.0324,0.013523,0.002678,0.000431,0.000823
56232000,0.0324,0.013523,0.002678,0.000431,0.000823
56233000,0.0324,0.013523,0.002678,0.000431,0.000823
56234000,0.0324,0.013523,0.002678,0.000431,0.000823
56235000,0.0324,0.013523,0.002678,0.000431,0.078979
56236000,0.0324,0.013523,0.002678,0.000431,0.577298
56237000,0.0324,0.013523,0.002678,0.000431,0.539572
56238000,0.0324,0.013523,0.002678,0.000431,0.134452
56239000,0.0324,0.013523,0.002678,0.000431,0.132102
56240000,0.0324,0.013523,0.002678,0.000431,0.556731
56241000,0.0324,0.013523,0.002678,0.000431,0.242461
56242000,0.0324,0.013523,0.002678,0.000431,0.266436
56243000,0.0324,0.013523,0.002678,0.000431,0.303223
56244000,0.0324,0.013523,0.002678,0.000431,0.150319
56245000,0.0324,0.013523,0.002678,0.000431,0.167948
56246000,0.0324,0.013523,0.002678,0.000431,0.102250
56247000,0.0324,0.013523,0.002678,0.000431,0.472581
56248000,0.0324,0.013523,0.002678,0.000431,0.128811
56249000,0.0324,0.013523,0.002678,0.000431,0.071692
56250000,0.0324,0.013523,0.002678,0.000431,0.055003
56251000,0.0324,0.013523,0.002678,0.000431,0.053945
56252000,0.0324,0.013523,0.002678,0.000431,0.041958
56253000,0.0324,0.013523,0.002678,0.000431,0.039960
56254000,0.0324,0.013523,0.002678,0.000431,0.026679
56255000,0.0324,0.013523,0.002678,0.000431,0.021155
56256000,0.0324,0.013523,0.002678,0.000431,0.021978
56257000,0.0324,0.013523,0.002678,0.000431,0.021273
56258000,0.0324,0.013523,0.002678,0.000431,0.020920
56259000,0.0324,0.013523,0.002678,0.000431,0.016924
56260000,0.0324,0.013523,0.002678,0.000431,0.017629
56261000,0.0324,0.013523,0.002678,0.000431,0.016807
56262000,0.0324,0.013523,0.002678,0.000431,0.017864
56263000,0.0324,0.013523,0.002678,0.000431,0.016807
56264000,0.0324,0.013523,0.002678,0.000431,0.015044
56265000,0.0324,0.013523,0.002678,0.000431,0.016924
56266000,0.0324,0.013523,0.002678,0.000431,0.015161
56267000,0.0324,0.013523,0.002678,0.000431,0.011870
56268000,0.0324,0.013523,0.002678,0.000431,0.011283
56269000,0.0324,0.013523,0.002678,0.000431,0.013986
56270000,0.0324,0.013523,0.002678,0.000431,0.010225
56271000,0.0324,0.013523,0.002678,0.000431,0.009990
56272000,0.0324,0.013523,0.002678,0.000431,0.009872
56273000,0.0324,0.013523,0.002678,0.000431,0.009402
56274000,0.0324,0.013523,0.002678,0.000431,0.010107
56275000,0.0324,0.013523,0.002678,0.000431,0.009520
56276000,0.0324,0.013523,0.002678,0.000431,0.009402
56277000,0.0324,0.013523,0.002678,0.000431,0.009050
56278000,0.0324,0.013523,0.002678,0.000431,0.009167
56279000,0.0324,0.013523,0.002678,0.000431,0.009285
56280000,0.0324,0.013523,0.002678,0.000431,0.008932
56281000,0.0324,0.013523,0.002678,0.000431,0.009402
56282000,0.0324,0.013523,0.002678,0.000431,0.010813
56283000,0.0324,0.013523,0.002678,0.000431,0.009637
56284000,0.0324,0.013523,0.002678,0.000431,0.007874
56285000,0.0324,0.013523,0.002678,0.000431,0.007404
56286000,0.0324,0.013523,0.002678,0.000431,0.009167
56287000,0.0324,0.013523,0.002678,0.000431,0.006817
56288000,0.0324,0.013523,0.002678,0.000431,0.008345
56289000,0.0324,0.013523,0.002678,0.000431,0.006817
56290000,0.0324,0.013523,0.002678,0.000431,0.005994
56291000,0.0324,0.013523,0.002678,0.000431,0.004819
56292000,0.0324,0.013523,0.002678,0.000431,0.005054
56293000,0.0324,0.013523,0.002678,0.000431,0.004819
56294000,0.0324,0.013523,0.002678,0.000431,0.005054
56295000,0.0324,0.013523,0.002678,0.000431,0.005171
56296000,0.0324,0.013523,0.002678,0.000431,0.004701
56297000,0.0324,0.013523,0.002678,0.000431,0.005289
56298000,0.0324,0.013523,0.002678,0.000431,0.008697
56299000,0.0324,0.013523,0.002678,0.000431,0.003761
56300000,0.0324,0.013523,0.002678,0.000431,0.004349
56301000,0.0324,0.013523,0.002678,0.000431,0.003996
56302000,0.0324,0.013523,0.002678,0.000431,0.003878
56303000,0.0324,0.013523,0.002678,0.000431,0.004701
56304000,0.0324,0.013523,0.002678,0.000431,0.003408
56305000,0.0324,0.013523,0.002678,0.000431,0.004231
56306000,0.0324,0.013523,0.002678,0.000431,0.004113
56307000,0.0324,0.013523,0.002678,0.000431,0.003878
56308000,0.0324,0.013523,0.002678,0.000431,0.004113
56309000,0.0324,0.013523,0.002678,0.000431,0.003996
56310000,0.0324,0.013523,0.002678,0.000431,0.003996
56311000,0.0324,0.013523,0.002678,0.000431,0.003878
56312000,0.0324,0.013523,0.002678,0.000431,0.003173
56313000,0.0324,0.013523,0.002678,0.000431,0.003173
56314000,0.0324,0.013523,0.002678,0.000431,0.003526
56315000,0.0324,0.013523,0.002678,0.000431,0.003056
56316000,0.0324,0.013523,0.002678,0.000431,0.003643
56317000,0.0324,0.013523,0.002678,0.000431,0.003056
56318000,0.0324,0.013523,0.002678,0.000431,0.003408
56319000,0.0324,0.013523,0.002678,0.000431,0.002938
56320000,0.0324,0.013523,0.002678,0.000431,0.003408
56321000,0.0324,0.013523,0.002678,0.000431,0.003761
56322000,0.0324,0.013523,0.002678,0.000431,0.002821
56323000,0.0324,0.013523,0.002678,0.000431,0.003526
56324000,0.0324,0.013523,0.002678,0.000431,0.003056
56325000,0.0324,0.013523,0.002678,0.000431,0.003526
56326000,0.0324,0.013523,0.002678,0.000431,0.003408
56327000,0.0324,0.013523,0.002678,0.000431,0.002938
56328000,0.0324,0.013523,0.002678,0.000431,0.003408
56329000,0.0324,0.013523,0.002678,0.000431,0.003291
56330000,0.0324,0.013523,0.002678,0.000431,0.003408
56331000,0.0324,0.013523,0.002678,0.000431,0.003291
56332000,0.0324,0.013523,0.002678,0.000431,0.003291
56333000,0.0324,0.013523,0.002678,0.000431,0.003056
56334000,0.0324,0.013523,0.002678,0.000431,0.003526
56335000,0.0324,0.013523,0.002678,0.000431,0.003643
56336000,0.0324,0.013523,0.002678,0.000431,0.003173
56337000,0.0324,0.013523,0.002678,0.000431,0.003291
56338000,0.0324,0.013523,0.002678,0.000431,0.003408
56339000,0.0324,0.013523,0.002678,0.000431,0.003408
56340000,0.0324,0.013523,0.002678,0.000431,0.003291
56341000,0.0324,0.013523,0.002678,0.000431,0.003526
56342000,0.0324,0.013523,0.002678,0.000431,0.003291
56343000,0.0324,0.013523,0.002678,0.000431,0.003291
56344000,0.0324,0.013523,0.002678,0.000431,0.003291
56345000,0.0324,0.013523,0.002678,0.000431,0.003643
56346000,0.0324,0.013523,0.002678,0.000431,0.003173
56347000,0.0324,0.013523,0.002678,0.000431,0.003408
56348000,0.0324,0.013523,0.002678,0.000431,0.003408
56349000,0.0324,0.013523,0.002678,0.000431,0.003408
56350000,0.0324,0.013523,0.002678,0.000431,0.003173
56351000,0.0324,0.013523,0.002678,0.000431,0.003408
56352000,0.0324,0.013523,0.002678,0.000431,0.003173
56353000,0.0324,0.013523,0.002678,0.000431,0.003408
56354000,0.0324,0.013523,0.002678,0.000431,0.004113
56355000,0.0324,0.013523,0.002678,0.000431,0.003056
56356000,0.0324,0.013523,0.002678,0.000431,0.001645
56357000,0.0324,0.013523,0.002678,0.000431,0.001763
56358000,0.0324,0.013523,0.002678,0.000431,0.001763
56359000,0.0324,0.013523,0.002678,0.000431,0.001645
56360000,0.0324,0.013523,0.002678,0.000431,0.001763
56361000,0.0324,0.013523,0.002678,0.000431,0.001528
56362000,0.0324,0.013523,0.002678,0.000431,0.001880
56363000,0.0324,0.013523,0.002678,0.000431,0.001763
56364000,0.0324,0.013523,0.002678,0.000431,0.001645
56365000,0.0324,0.013523,0.002678,0.000431,0.001645
56366000,0.0324,0.013523,0.002678,0.000431,0.001763
56367000,0.0324,0.013523,0.002678,0.000431,0.001880
56368000,0.0324,0.013523,0.002678,0.000431,0.001528
56369000,0.0324,0.013523,0.002678,0.000431,0.001763
56370000,0.0324,0.013523,0.002678,0.000431,0.001763
56371000,0.0324,0.013523,0.002678,0.000431,0.001645
56372000,0.0324,0.013523,0.002678,0.000431,0.001763
56373000,0.0324,0.013523,0.002678,0.000431,0.001645
56374000,0.0324,0.013523,0.002678,0.000431,0.001763
56375000,0.0324,0.013523,0.002678,0.000431,0.001645
56376000,0.0324,0.013523,0.002678,0.000431,0.001763
56377000,0.0324,0.013523,0.002678,0.000431,0.001645
56378000,0.0324,0.013523,0.002678,0.000431,0.001880
56379000,0.0324,0.013523,0.002678,0.000431,0.001528
56380000,0.0324,0.013523,0.002678,0.000431,0.001763
56381000,0.0324,0.013523,0.002678,0.000431,0.001645
56382000,0.0324,0.013523,0.002678,0.000431,0.001880
56383000,0.0324,0.013523,0.002678,0.000431,0.001645
56384000,0.0324,0.013523,0.002678,0.000431,0.001645
56385000,0.0324,0.013523,0.002678,0.000431,0.001880
56386000,0.0324,0.013523,0.002678,0.000431,0.001645
56387000,0.0324,0.013523,0.002678,0.000431,0.001645
56388000,0.0324,0.013523,0.002678,0.000431,0.001763
56389000,0.0324,0.013523,0.002678,0.000431,0.001763
56390000,0.0324,0.013523,0.002678,0.000431,0.001763
56391000,0.0324,0.013523,0.002678,0.000431,0.001645
56392000,0.0324,0.013523,0.002678,0.000431,0.001645
56393000,0.0324,0.013523,0.002678,0.000431,0.001763
56394000,0.0324,0.013523,0.002678,0.000431,0.001763
56395000,0.0324,0.013523,0.002678,0.000431,0.001645
56396000,0.0324,0.013523,0.002678,0.000431,0.001763
56397000,0.0324,0.013523,0.002678,0.000431,0.001763
56398000,0.0324,0.013523,0.002678,0.000431,0.001645
56399000,0.0324,0.013523,0.002678,0.000431,0.001528
56400000,0.0324,0.013523,0.002678,0.000431,0.001880
56401000,0.0324,0.013523,0.002678,0.000431,0.001880
56402000,0.0324,0.013523,0.002678,0.000431,0.001410
56403000,0.0324,0.013523,0.002678,0.000431,0.001880
56404000,0.0324,0.013523,0.002678,0.000431,0.001645
56405000,0.0324,0.013523,0.002678,0.000431,0.001880
56406000,0.0324,0.013523,0.002678,0.000431,0.001528
56407000,0.0324,0.013523,0.002678,0.000431,0.001763
56408000,0.0324,0.013523,0.002678,0.000431,0.001763
56409000,0.0324,0.013523,0.002678,0.000431,0.001645
56410000,0.0324,0.013523,0.002678,0.000431,0.001763
56411000,0.0324,0.013523,0.002678,0.000431,0.001645
56412000,0.0324,0.013523,0.002678,0.000431,0.001880
56413000,0.0324,0.013523,0.002678,0.000431,0.001645
56414000,0.0324,0.013523,0.002678,0.000431,0.001645
56415000,0.0324,0.013523,0.002678,0.000431,0.001763
56416000,0.0324,0.013523,0.002678,0.000431,0.001645
56417000,0.0324,0.013523,0.002678,0.000431,0.001880
56418000,0.0324,0.013523,0.002678,0.000431,0.001528
56419000,0.0324,0.013523,0.002678,0.000431,0.001763
56420000,0.0324,0.013523,0.002678,0.000431,0.001645
56421000,0.0324,0.013523,0.002678,0.000431,0.001763
56422000,0.0324,0.013523,0.002678,0.000431,0.001763
56423000,0.0324,0.013523,0.002678,0.000431,0.001763
56424000,0.0324,0.013523,0.002678,0.000431,0.001645
56425000,0.0324,0.013523,0.002678,0.000431,0.001645
56426000,0.0324,0.013523,0.002678,0.000431,0.001880
56427000,0.0324,0.013523,0.002678,0.000431,0.001645
56428000,0.0324,0.013523,0.002678,0.000431,0.001763
56429000,0.0324,0.013523,0.002678,0.000431,0.001528
56430000,0.0324,0.013523,0.002678,0.000431,0.001880
56431000,0.0324,0.013523,0.002678,0.000431,0.001763
56432000,0.0324,0.013523,0.002678,0.000431,0.001645
56433000,0.0324,0.013523,0.002678,0.000431,0.001645
56434000,0.0324,0.013523,0.002678,0.000431,0.001763
56435000,0.0324,0.013523,0.002678,0.000431,0.001763
56436000,0.0324,0.013523,0.002678,0.000431,0.001763
56437000,0.0324,0.013523,0.002678,0.000431,0.001645
56438000,0.0324,0.013523,0.002678,0.000431,0.001763
56439000,0.0324,0.013523,0.002678,0.000431,0.001645
56440000,0.0324,0.013523,0.002678,0.000431,0.001645
56441000,0.0324,0.013523,0.002678,0.000431,0.001763
56442000,0.0324,0.013523,0.002678,0.000431,0.001763
56443000,0.0324,0.013523,0.002678,0.000431,0.001645
56444000,0.0324,0.013523,0.002678,0.000431,0.001763
56445000,0.0324,0.013523,0.002678,0.000431,0.001645
56446000,0.0324,0.013523,0.002678,0.000431,0.001880
56447000,0.0324,0.013523,0.002678,0.000431,0.001410
56448000,0.0324,0.013523,0.002678,0.000431,0.001880
56449000,0.0324,0.013523,0.002678,0.000431,0.001880
56450000,0.0324,0.013523,0.002678,0.000431,0.001528
56451000,0.0324,0.013523,0.002678,0.000431,0.001880
56452000,0.0324,0.013523,0.002678,0.000431,0.001528
56453000,0.0324,0.013523,0.002678,0.000431,0.001880
56454000,0.0324,0.013523,0.002678,0.000431,0.001645
56455000,0.0324,0.013523,0.002678,0.000431,0.001645
56456000,0.0324,0.013523,0.002678,0.000431,0.001763
56457000,0.0324,0.013523,0.002678,0.000431,0.001763
56458000,0.0324,0.013523,0.002678,0.000431,0.001763
56459000,0.0324,0.013523,0.002678,0.000431,0.001528
56460000,0.0324,0.013523,0.002678,0.000431,0.001880
56461000,0.0324,0.013523,0.002678,0.000431,0.001763
56462000,0.0324,0.013523,0.002678,0.000431,0.001410
56463000,0.0324,0.013523,0.002678,0.000431,0.001880
56464000,0.0324,0.013523,0.002678,0.000431,0.001763
56465000,0.0324,0.013523,0.002678,0.000431,0.001763
56466000,0.0324,0.013523,0.002678,0.000431,0.001528
56467000,0.0324,0.013523,0.002678,0.000431,0.001763
56468000,0.0324,0.013523,0.002678,0.000431,0.001763
56469000,0.0324,0.013523,0.002678,0.000431,0.001763
56470000,0.0324,0.013523,0.002678,0.000431,0.001528
56471000,0.0324,0.013523,0.002678,0.000431,0.001880
56472000,0.0324,0.013523,0.002678,0.000431,0.001645
56473000,0.0324,0.013523,0.002678,0.000431,0.001763
56474000,0.0324,0.013523,0.002678,0.000431,0.001763
56475000,0.0324,0.013523,0.002678,0.000431,0.003408
56476000,0.0324,0.013523,0.002678,0.000431,0.000940
56477000,0.0324,0.013523,0.002678,0.000431,0.000705
56478000,0.0324,0.013523,0.002678,0.000431,0.000940
56479000,0.0324,0.013523,0.002678,0.000431,0.000823
56480000,0.0324,0.013523,0.002678,0.000431,0.000823
56481000,0.0324,0.013523,0.002678,0.000431,0.000823
56482000,0.0324,0.013523,0.002678,0.000431,0.000823
56483000,0.0324,0.013523,0.002678,0.000431,0.000940
56484000,0.0324,0.013523,0.002678,0.000431,0.000705
56485000,0.0324,0.013523,0.002678,0.000431,0.000940
56486000,0.0324,0.013523,0.002678,0.000431,0.000823
56487000,0.0324,0.013523,0.002678,0.000431,0.000823
56488000,0.0324,0.013523,0.002678,0.000431,0.000823
56489000,0.0324,0.013523,0.002678,0.000431,0.000823
56490000,0.0324,0.013523,0.002678,0.000431,0.000823
56491000,0.0324,0.013523,0.002678,0.000431,0.000823
56492000,0.0324,0.013523,0.002678,0.000431,0.000940
56493000,0.0324,0.013523,0.002678,0.000431,0.000705
56494000,0.0324,0.013523,0.002678,0.000431,0.000940
56495000,0.0324,0.013523,0.002678,0.000431,0.000705
56496000,0.0324,0.013523,0.002678,0.000431,0.000940
56497000,0.0324,0.013523,0.002678,0.000431,0.000940
56498000,0.0324,0.013523,0.002678,0.000431,0.000705
56499000,0.0324,0.013523,0.002678,0.000431,0.000940
56500000,0.0324,0.013523,0.002678,0.000431,0.000705
56501000,0.0324,0.013523,0.002678,0.000431,0.000940
56502000,0.0324,0.013523,0.002678,0.000431,0.000823
56503000,0.0324,0.013523,0.002678,0.000431,0.000823
56504000,0.0324,0.013523,0.002678,0.000431,0.000940
56505000,0.0324,0.013523,0.002678,0.000431,0.000705
56506000,0.0324,0.013523,0.002678,0.000431,0.000940
56507000,0.0324,0.013523,0.002678,0.000431,0.000823
56508000,0.0324,0.013523,0.002678,0.000431,0.000823
56509000,0.0324,0.013523,0.002678,0.000431,0.000823
56510000,0.0324,0.013523,0.002678,0.000431,0.000823
56511000,0.0324,0.013523,0.002678,0.000431,0.000940
56512000,0.0324,0.013523,0.002678,0.000431,0.000705
56513000,0.0324,0.013523,0.002678,0.000431,0.000940
56514000,0.0324,0.013523,0.002678,0.000431,0.000705
56515000,0.0324,0.013523,0.002678,0.000431,0.000823
56516000,0.0324,0.013523,0.002678,0.000431,0.000940
56517000,0.0324,0.013523,0.002678,0.000431,0.000823
56518000,0.0324,0.013523,0.002678,0.000431,0.000823
56519000,0.0324,0.013523,0.002678,0.000431,0.000823
56520000,0.0324,0.013523,0.002678,0.000431,0.000823
56521000,0.0324,0.013523,0.002678,0.000431,0.000823
56522000,0.0324,0.013523,0.002678,0.000431,0.000940
56523000,0.0324,0.013523,0.002678,0.000431,0.000823
56524000,0.0324,0.013523,0.002678,0.000431,0.000823
56525000,0.0324,0.013523,0.002678,0.000431,0.000705
56526000,0.0324,0.013523,0.002678,0.000431,0.000940
56527000,0.0324,0.013523,0.002678,0.000431,0.000940
56528000,0.0324,0.013523,0.002678,0.000431,0.000705
56529000,0.0324,0.013523,0.002678,0.000431,0.000940
56530000,0.0324,0.013523,0.002678,0.000431,0.000705
56531000,0.0324,0.013523,0.002678,0.000431,0.000940
56532000,0.0324,0.013523,0.002678,0.000431,0.000823
56533000,0.0324,0.013523,0.002678,0.000431,0.000823
56534000,0.0324,0.013523,0.002678,0.000431,0.000940
56535000,0.0324,0.013523,0.002678,0.000431,0.000705
56536000,0.0324,0.013523,0.002678,0.000431,0.000940
56537000,0.0324,0.013523,0.002678,0.000431,0.000823
56538000,0.0324,0.013523,0.002678,0.000431,0.000823
56539000,0.0324,0.013523,0.002678,0.000431,0.000823
56540000,0.0324,0.013523,0.002678,0.000431,0.000823
56541000,0.0324,0.013523,0.002678,0.000431,0.000940
56542000,0.0324,0.013523,0.002678,0.000431,0.000705
56543000,0.0324,0.013523,0.002678,0.000431,0.000940
56544000,0.0324,0.013523,0.002678,0.000431,0.000823
56545000,0.0324,0.013523,0.002678,0.000431,0.000823
56546000,0.0324,0.013523,0.002678,0.000431,0.000823
56547000,0.0324,0.013523,0.002678,0.000431,0.000823
56548000,0.0324,0.013523,0.002678,0.000431,0.000940
56549000,0.0324,0.013523,0.002678,0.000431,0.000705
56550000,0.0324,0.013523,0.002678,0.000431,0.000940
56551000,0.0324,0.013523,0.002678,0.000431,0.000823
56552000,0.0324,0.013523,0.002678,0.000431,0.000823
56553000,0.0324,0.013523,0.002678,0.000431,0.000705
56554000,0.0324,0.013523,0.002678,0.000431,0.000940
56555000,0.0324,0.013523,0.002678,0.000431,0.000940
56556000,0.0324,0.013523,0.002678,0.000431,0.000705
56557000,0.0324,0.013523,0.002678,0.000431,0.000940
56558000,0.0324,0.013523,0.002678,0.000431,0.000705
56559000,0.0324,0.013523,0.002678,0.000431,0.000940
56560000,0.0324,0.013523,0.002678,0.000431,0.000823
56561000,0.0324,0.013523,0.002678,0.000431,0.000823
56562000,0.0324,0.013523,0.002678,0.000431,0.000940
56563000,0.0324,0.013523,0.002678,0.000431,0.000705
56564000,0.0324,0.013523,0.002678,0.000431,0.000940
56565000,0.0324,0.013523,0.002678,0.000431,0.000823
56566000,0.0324,0.013523,0.002678,0.000431,0.000823
56567000,0.0324,0.013523,0.002678,0.000431,0.000823
56568000,0.0324,0.013523,0.002678,0.000431,0.000823
56569000,0.0324,0.013523,0.002678,0.000431,0.000940
56570000,0.0324,0.013523,0.002678,0.000431,0.000705
56571000,0.0324,0.013523,0.002678,0.000431,0.000940
56572000,0.0324,0.013523,0.002678,0.000431,0.000823
56573000,0.0324,0.013523,0.002678,0.000431,0.000823
56574000,0.0324,0.013523,0.002678,0.000431,0.000823
56575000,0.0324,0.013523,0.002678,0.000431,0.000823
56576000,0.0324,0.013523,0.002678,0.000431,0.000940
56577000,0.0324,0.013523,0.002678,0.000431,0.000705
56578000,0.0324,0.013523,0.002678,0.000431,0.000823
56579000,0.0324,0.013523,0.002678,0.000431,0.000940
56580000,0.0324,0.013523,0.002678,0.000431,0.000823
56581000,0.0324,0.013523,0.002678,0.000431,0.000823
56582000,0.0324,0.013523,0.002678,0.000431,0.000823
56583000,0.0324,0.013523,0.002678,0.000431,0.000705
56584000,0.0324,0.013523,0.002678,0.000431,0.000940
56585000,0.0324,0.013523,0.002678,0.000431,0.000940
56586000,0.0324,0.013523,0.002678,0.000431,0.000705
56587000,0.0324,0.013523,0.002678,0.000431,0.000940
56588000,0.0324,0.013523,0.002678,0.000431,0.000705
56589000,0.0324,0.013523,0.002678,0.000431,0.000940
56590000,0.0324,0.013523,0.002678,0.000431,0.000940
56591000,0.0324,0.013523,0.002678,0.000431,0.000705
56592000,0.0324,0.013523,0.002678,0.000431,0.000940
56593000,0.0324,0.013523,0.002678,0.000431,0.000705
56594000,0.0324,0.013523,0.002678,0.000431,0.000940
56595000,0.0324,0.013523,0.002678,0.000431,0.000823
56596000,0.0324,0.013523,0.002678,0.000431,0.000823
56597000,0.0324,0.013523,0.002678,0.000431,0.000940
56598000,0.0324,0.013523,0.002678,0.000431,0.000823
56599000,0.0324,0.013523,0.002678,0.000431,0.000823
56600000,0.0324,0.013523,0.002678,0.000431,0.000940
56601000,0.0324,0.013523,0.002678,0.000431,0.000705
56602000,0.0324,0.013523,0.002678,0.000431,0.000940
56603000,0.0324,0.013523,0.002678,0.000431,0.000823
56604000,0.0324,0.013523,0.002678,0.000431,0.000823
56605000,0.0324,0.013523,0.002678,0.000431,0.000823
56606000,0.0324,0.013523,0.002678,0.000431,0.000823
56607000,0.0324,0.013523,0.002678,0.000431,0.000823
56608000,0.0324,0.013523,0.002678,0.000431,0.000823
56609000,0.0324,0.013523,0.002678,0.000431,0.000940
56610000,0.0324,0.013523,0.002678,0.000431,0.000705
56611000,0.0324,0.013523,0.002678,0.000431,0.000940
56612000,0.0324,0.013523,0.002678,0.000431,0.000823
56613000,0.0324,0.013523,0.002678,0.000431,0.000823
56614000,0.0324,0.013523,0.002678,0.000431,0.000705
56615000,0.0324,0.013523,0.002678,0.000431,0.000940
56616000,0.0324,0.013523,0.002678,0.000431,0.000940
56617000,0.0324,0.013523,0.002678,0.000431,0.000705
56618000,0.0324,0.013523,0.002678,0.000431,0.000940
56619000,0.0324,0.013523,0.002678,0.000431,0.000705
56620000,0.0324,0.013523,0.002678,0.000431,0.000940
56621000,0.0324,0.013523,0.002678,0.000431,0.000940
56622000,0.0324,0.013523,0.002678,0.000431,0.000705
56623000,0.0324,0.013523,0.002678,0.000431,0.000940
56624000,0.0324,0.013523,0.002678,0.000431,0.000705
56625000,0.0324,0.013523,0.002678,0.000431,0.000940
56626000,0.0324,0.013523,0.002678,0.000431,0.000823
56627000,0.0324,0.013523,0.002678,0.000431,0.000823
56628000,0.0324,0.013523,0.002678,0.000431,0.000823
56629000,0.0324,0.013523,0.002678,0.000431,0.000823
56630000,0.0324,0.013523,0.002678,0.000431,0.000940
56631000,0.0324,0.013523,0.002678,0.000431,0.000940
56632000,0.0324,0.013523,0.002678,0.000431,0.000940
56633000,0.0324,0.013523,0.002678,0.000431,0.002703
56634000,0.0324,0.013523,0.002678,0.000431,0.408410
56635000,0.0324,0.013523,0.002678,0.000431,0.709400
56636000,0.0324,0.013523,0.002678,0.000431,0.139976
56637000,0.0324,0.013523,0.002678,0.000431,0.133512
56638000,0.0324,0.013523,0.002678,0.000431,0.160426
56639000,0.0324,0.013523,0.002678,0.000431,0.563665
56640000,0.0324,0.013523,0.002678,0.000431,0.240228
56641000,0.0324,0.013523,0.002678,0.000431,0.289237
56642000,0.0324,0.013523,0.002678,0.000431,0.223186
56643000,0.0324,0.013523,0.002678,0.000431,0.138448
56644000,0.0324,0.013523,0.002678,0.000431,0.172179
56645000,0.0324,0.013523,0.002678,0.000431,0.124815
56646000,0.0324,0.013523,0.002678,0.000431,0.459888
56647000,0.0324,0.013523,0.002678,0.000431,0.067931
56648000,0.0324,0.013523,0.002678,0.000431,0.045954
56649000,0.0324,0.013523,0.002678,0.000431,0.044661
56650000,0.0324,0.013523,0.002678,0.000431,0.036786
56651000,0.0324,0.013523,0.002678,0.000431,0.029617
56652000,0.0324,0.013523,0.002678,0.000431,0.015984
56653000,0.0324,0.013523,0.002678,0.000431,0.019157
56654000,0.0324,0.013523,0.002678,0.000431,0.019980
56655000,0.0324,0.013523,0.002678,0.000431,0.007287
56656000,0.0324,0.013523,0.002678,0.000431,0.007639
56657000,0.0324,0.013523,0.002678,0.000431,0.007052
56658000,0.0324,0.013523,0.002678,0.000431,0.008580
56659000,0.0324,0.013523,0.002678,0.000431,0.007404
56660000,0.0324,0.013523,0.002678,0.000431,0.006699
56661000,0.0324,0.013523,0.002678,0.000431,0.007522
56662000,0.0324,0.013523,0.002678,0.000431,0.006699
56663000,0.0324,0.013523,0.002678,0.000431,0.005994
56664000,0.0324,0.013523,0.002678,0.000431,0.006229
56665000,0.0324,0.013523,0.002678,0.000431,0.006111
56666000,0.0324,0.013523,0.002678,0.000431,0.004349
56667000,0.0324,0.013523,0.002678,0.000431,0.005406
56668000,0.0324,0.013523,0.002678,0.000431,0.005054
56669000,0.0324,0.013523,0.002678,0.000431,0.004584
56670000,0.0324,0.013523,0.002678,0.000431,0.005171
56671000,0.0324,0.013523,0.002678,0.000431,0.004819
56672000,0.0324,0.013523,0.002678,0.000431,0.005289
56673000,0.0324,0.013523,0.002678,0.000431,0.004701
56674000,0.0324,0.013523,0.002678,0.000431,0.004936
56675000,0.0324,0.013523,0.002678,0.000431,0.004819
56676000,0.0324,0.013523,0.002678,0.000431,0.004936
56677000,0.0324,0.013523,0.002678,0.000431,0.005054
56678000,0.0324,0.013523,0.002678,0.000431,0.004936
56679000,0.0324,0.013523,0.002678,0.000431,0.004936
56680000,0.0324,0.013523,0.002678,0.000431,0.004701
56681000,0.0324,0.013523,0.002678,0.000431,0.005289
56682000,0.0324,0.013523,0.002678,0.000431,0.004701
56683000,0.0324,0.013523,0.002678,0.000431,0.005054
56684000,0.0324,0.013523,0.002678,0.000431,0.004819
56685000,0.0324,0.013523,0.002678,0.000431,0.004819
56686000,0.0324,0.013523,0.002678,0.000431,0.006464
56687000,0.0324,0.013523,0.002678,0.000431,0.003761
56688000,0.0324,0.013523,0.002678,0.000431,0.004584
56689000,0.0324,0.013523,0.002678,0.000431,0.003761
56690000,0.0324,0.013523,0.002678,0.000431,0.004231
56691000,0.0324,0.013523,0.002678,0.000431,0.003878
56692000,0.0324,0.013523,0.002678,0.000431,0.004231
56693000,0.0324,0.013523,0.002678,0.000431,0.004231
56694000,0.0324,0.013523,0.002678,0.000431,0.003643
56695000,0.0324,0.013523,0.002678,0.000431,0.004584
56696000,0.0324,0.013523,0.002678,0.000431,0.003761
56697000,0.0324,0.013523,0.002678,0.000431,0.004349
56698000,0.0324,0.013523,0.002678,0.000431,0.003996
56699000,0.0324,0.013523,0.002678,0.000431,0.003878
56700000,0.0324,0.013523,0.002678,0.000431,0.004113
56701000,0.0324,0.013523,0.002678,0.000431,0.004349
56702000,0.0324,0.013523,0.002678,0.000431,0.003996
56703000,0.0324,0.013523,0.002678,0.000431,0.003996
56704000,0.0324,0.013523,0.002678,0.000431,0.004231
56705000,0.0324,0.013523,0.002678,0.000431,0.003878
56706000,0.0324,0.013523,0.002678,0.000431,0.004584
56707000,0.0324,0.013523,0.002678,0.000431,0.003761
56708000,0.0324,0.013523,0.002678,0.000431,0.004231
56709000,0.0324,0.013523,0.002678,0.000431,0.003878
56710000,0.0324,0.013523,0.002678,0.000431,0.004113
56711000,0.0324,0.013523,0.002678,0.000431,0.004584
56712000,0.0324,0.013523,0.002678,0.000431,0.003643
56713000,0.0324,0.013523,0.002678,0.000431,0.004349
56714000,0.0324,0.013523,0.002678,0.000431,0.003761
56715000,0.0324,0.013523,0.002678,0.000431,0.005171
56716000,0.0324,0.013523,0.002678,0.000431,0.004113
56717000,0.0324,0.013523,0.002678,0.000431,0.003173
56718000,0.0324,0.013523,0.002678,0.000431,0.003408
56719000,0.0324,0.013523,0.002678,0.000431,0.003056
56720000,0.0324,0.013523,0.002678,0.000431,0.003526
56721000,0.0324,0.013523,0.002678,0.000431,0.003056
56722000,0.0324,0.013523,0.002678,0.000431,0.003291
56723000,0.0324,0.013523,0.002678,0.000431,0.002938
56724000,0.0324,0.013523,0.002678,0.000431,0.003526
56725000,0.0324,0.013523,0.002678,0.000431,0.003291
56726000,0.0324,0.013523,0.002678,0.000431,0.003291
56727000,0.0324,0.013523,0.002678,0.000431,0.003056
56728000,0.0324,0.013523,0.002678,0.000431,0.003291
56729000,0.0324,0.013523,0.002678,0.000431,0.003291
56730000,0.0324,0.013523,0.002678,0.000431,0.003173
56731000,0.0324,0.013523,0.002678,0.000431,0.003643
56732000,0.0324,0.013523,0.002678,0.000431,0.002821
56733000,0.0324,0.013523,0.002678,0.000431,0.003526
56734000,0.0324,0.013523,0.002678,0.000431,0.003173
56735000,0.0324,0.013523,0.002678,0.000431,0.003291
56736000,0.0324,0.013523,0.002678,0.000431,0.003761
56737000,0.0324,0.013523,0.002678,0.000431,0.001645
56738000,0.0324,0.013523,0.002678,0.000431,0.001763
56739000,0.0324,0.013523,0.002678,0.000431,0.001528
56740000,0.0324,0.013523,0.002678,0.000431,0.001763
56741000,0.0324,0.013523,0.002678,0.000431,0.001763
56742000,0.0324,0.013523,0.002678,0.000431,0.001528
56743000,0.0324,0.013523,0.002678,0.000431,0.001763
56744000,0.0324,0.013523,0.002678,0.000431,0.001763
56745000,0.0324,0.013523,0.002678,0.000431,0.001645
56746000,0.0324,0.013523,0.002678,0.000431,0.001763
56747000,0.0324,0.013523,0.002678,0.000431,0.001645
56748000,0.0324,0.013523,0.002678,0.000431,0.001880
56749000,0.0324,0.013523,0.002678,0.000431,0.001645
56750000,0.0324,0.013523,0.002678,0.000431,0.001645
56751000,0.0324,0.013523,0.002678,0.000431,0.001763
56752000,0.0324,0.013523,0.002678,0.000431,0.001410
56753000,0.0324,0.013523,0.002678,0.000431,0.001880
56754000,0.0324,0.013523,0.002678,0.000431,0.001763
56755000,0.0324,0.013523,0.002678,0.000431,0.001528
56756000,0.0324,0.013523,0.002678,0.000431,0.001763
56757000,0.0324,0.013523,0.002678,0.000431,0.001528
56758000,0.0324,0.013523,0.002678,0.000431,0.001880
56759000,0.0324,0.013523,0.002678,0.000431,0.001645
56760000,0.0324,0.013523,0.002678,0.000431,0.001528
56761000,0.0324,0.013523,0.002678,0.000431,0.001880
56762000,0.0324,0.013523,0.002678,0.000431,0.001528
56763000,0.0324,0.013523,0.002678,0.000431,0.001763
56764000,0.0324,0.013523,0.002678,0.000431,0.001645
56765000,0.0324,0.013523,0.002678,0.000431,0.001528
56766000,0.0324,0.013523,0.002678,0.000431,0.001763
56767000,0.0324,0.013523,0.002678,0.000431,0.001763
56768000,0.0324,0.013523,0.002678,0.000431,0.001763
56769000,0.0324,0.013523,0.002678,0.000431,0.001528
56770000,0.0324,0.013523,0.002678,0.000431,0.001645
56771000,0.0324,0.013523,0.002678,0.000431,0.001645
56772000,0.0324,0.013523,0.002678,0.000431,0.001880
56773000,0.0324,0.013523,0.002678,0.000431,0.001528
56774000,0.0324,0.013523,0.002678,0.000431,0.001763
56775000,0.0324,0.013523,0.002678,0.000431,0.001410
56776000,0.0324,0.013523,0.002678,0.000431,0.001880
56777000,0.0324,0.013523,0.002678,0.000431,0.001763
56778000,0.0324,0.013523,0.002678,0.000431,0.001528
56779000,0.0324,0.013523,0.002678,0.000431,0.001880
56780000,0.0324,0.013523,0.002678,0.000431,0.001410
56781000,0.0324,0.013523,0.002678,0.000431,0.001880
56782000,0.0324,0.013523,0.002678,0.000431,0.001645
56783000,0.0324,0.013523,0.002678,0.000431,0.001645
56784000,0.0324,0.013523,0.002678,0.000431,0.001763
56785000,0.0324,0.013523,0.002678,0.000431,0.001528
56786000,0.0324,0.013523,0.002678,0.000431,0.001880
56787000,0.0324,0.013523,0.002678,0.000431,0.001528
56788000,0.0324,0.013523,0.002678,0.000431,0.001763
56789000,0.0324,0.013523,0.002678,0.000431,0.001645
56790000,0.0324,0.013523,0.002678,0.000431,0.001645
56791000,0.0324,0.013523,0.002678,0.000431,0.001645
56792000,0.0324,0.013523,0.002678,0.000431,0.001645
56793000,0.0324,0.013523,0.002678,0.000431,0.001763
56794000,0.0324,0.013523,0.002678,0.000431,0.001528
56795000,0.0324,0.013523,0.002678,0.000431,0.001763
56796000,0.0324,0.013523,0.002678,0.000431,0.001763
56797000,0.0324,0.013523,0.002678,0.000431,0.001645
56798000,0.0324,0.013523,0.002678,0.000431,0.001528
56799000,0.0324,0.013523,0.002678,0.000431,0.001763
56800000,0.0324,0.013523,0.002678,0.000431,0.001645
56801000,0.0324,0.013523,0.002678,0.000431,0.001645
56802000,0.0324,0.013523,0.002678,0.000431,0.001880
56803000,0.0324,0.013523,0.002678,0.000431,0.001410
56804000,0.0324,0.013523,0.002678,0.000431,0.001880
56805000,0.0324,0.013523,0.002678,0.000431,0.001528
56806000,0.0324,0.013523,0.002678,0.000431,0.001763
56807000,0.0324,0.013523,0.002678,0.000431,0.001880
56808000,0.0324,0.013523,0.002678,0.000431,0.001410
56809000,0.0324,0.013523,0.002678,0.000431,0.001880
56810000,0.0324,0.013523,0.002678,0.000431,0.001528
56811000,0.0324,0.013523,0.002678,0.000431,0.001763
56812000,0.0324,0.013523,0.002678,0.000431,0.001645
56813000,0.0324,0.013523,0.002678,0.000431,0.001645
56814000,0.0324,0.013523,0.002678,0.000431,0.001880
56815000,0.0324,0.013523,0.002678,0.000431,0.001410
56816000,0.0324,0.013523,0.002678,0.000431,0.001880
56817000,0.0324,0.013523,0.002678,0.000431,0.001763
56818000,0.0324,0.013523,0.002678,0.000431,0.001763
56819000,0.0324,0.013523,0.002678,0.000431,0.003056
56820000,0.0324,0.013523,0.002678,0.000431,0.000823
56821000,0.0324,0.013523,0.002678,0.000431,0.000823
56822000,0.0324,0.013523,0.002678,0.000431,0.000823
56823000,0.0324,0.013523,0.002678,0.000431,0.000940
56824000,0.0324,0.013523,0.002678,0.000431,0.000705
56825000,0.0324,0.013523,0.002678,0.000431,0.000940
56826000,0.0324,0.013523,0.002678,0.000431,0.000823
56827000,0.0324,0.013523,0.002678,0.000431,0.000823
56828000,0.0324,0.013523,0.002678,0.000431,0.000705
56829000,0.0324,0.013523,0.002678,0.000431,0.000940
56830000,0.0324,0.013523,0.002678,0.000431,0.000940
56831000,0.0324,0.013523,0.002678,0.000431,0.000705
56832000,0.0324,0.013523,0.002678,0.000431,0.000940
56833000,0.0324,0.013523,0.002678,0.000431,0.000705
56834000,0.0324,0.013523,0.002678,0.000431,0.000940
56835000,0.0324,0.013523,0.002678,0.000431,0.000823
56836000,0.0324,0.013523,0.002678,0.000431,0.000823
56837000,0.0324,0.013523,0.002678,0.000431,0.000940
56838000,0.0324,0.013523,0.002678,0.000431,0.000705
56839000,0.0324,0.013523,0.002678,0.000431,0.000940
56840000,0.0324,0.013523,0.002678,0.000431,0.000823
56841000,0.0324,0.013523,0.002678,0.000431,0.000823
56842000,0.0324,0.013523,0.002678,0.000431,0.000823
56843000,0.0324,0.013523,0.002678,0.000431,0.000823
56844000,0.0324,0.013523,0.002678,0.000431,0.000823
56845000,0.0324,0.013523,0.002678,0.000431,0.000823
56846000,0.0324,0.013523,0.002678,0.000431,0.000940
56847000,0.0324,0.013523,0.002678,0.000431,0.000705
56848000,0.0324,0.013523,0.002678,0.000431,0.000823
56849000,0.0324,0.013523,0.002678,0.000431,0.000940
56850000,0.0324,0.013523,0.002678,0.000431,0.000823
56851000,0.0324,0.013523,0.002678,0.000431,0.000823
56852000,0.0324,0.013523,0.002678,0.000431,0.000823
56853000,0.0324,0.013523,0.002678,0.000431,0.000705
56854000,0.0324,0.013523,0.002678,0.000431,0.000940
56855000,0.0324,0.013523,0.002678,0.000431,0.000940
56856000,0.0324,0.013523,0.002678,0.000431,0.000705
56857000,0.0324,0.013523,0.002678,0.000431,0.000940
56858000,0.0324,0.013523,0.002678,0.000431,0.000705
56859000,0.0324,0.013523,0.002678,0.000431,0.000940
56860000,0.0324,0.013523,0.002678,0.000431,0.000940
56861000,0.0324,0.013523,0.002678,0.000431,0.000705
56862000,0.0324,0.013523,0.002678,0.000431,0.000940
56863000,0.0324,0.013523,0.002678,0.000431,0.000705
56864000,0.0324,0.013523,0.002678,0.000431,0.000940
56865000,0.0324,0.013523,0.002678,0.000431,0.000823
56866000,0.0324,0.013523,0.002678,0.000431,0.000823
56867000,0.0324,0.013523,0.002678,0.000431,0.000823
56868000,0.0324,0.013523,0.002678,0.000431,0.000823
56869000,0.0324,0.013523,0.002678,0.000431,0.000940
56870000,0.0324,0.013523,0.002678,0.000431,0.000705
56871000,0.0324,0.013523,0.002678,0.000431,0.000940
56872000,0.0324,0.013523,0.002678,0.000431,0.000705
56873000,0.0324,0.013523,0.002678,0.000431,0.000940
56874000,0.0324,0.013523,0.002678,0.000431,0.000823
56875000,0.0324,0.013523,0.002678,0.000431,0.000823
56876000,0.0324,0.013523,0.002678,0.000431,0.000705
56877000,0.0324,0.013523,0.002678,0.000431,0.000940
56878000,0.0324,0.013523,0.002678,0.000431,0.000940
56879000,0.0324,0.013523,0.002678,0.000431,0.000705
56880000,0.0324,0.013523,0.002678,0.000431,0.000940
56881000,0.0324,0.013523,0.002678,0.000431,0.000705
56882000,0.0324,0.013523,0.002678,0.000431,0.000940
56883000,0.0324,0.013523,0.002678,0.000431,0.000823
56884000,0.0324,0.013523,0.002678,0.000431,0.000823
56885000,0.0324,0.013523,0.002678,0.000431,0.000940
56886000,0.0324,0.013523,0.002678,0.000431,0.000705
56887000,0.0324,0.013523,0.002678,0.000431,0.000940
56888000,0.0324,0.013523,0.002678,0.000431,0.000823
56889000,0.0324,0.013523,0.002678,0.000431,0.000823
56890000,0.0324,0.013523,0.002678,0.000431,0.000823
56891000,0.0324,0.013523,0.002678,0.000431,0.000823
56892000,0.0324,0.013523,0.002678,0.000431,0.000823
56893000,0.0324,0.013523,0.002678,0.000431,0.000823
56894000,0.0324,0.013523,0.002678,0.000431,0.000940
56895000,0.0324,0.013523,0.002678,0.000431,0.000705
56896000,0.0324,0.013523,0.002678,0.000431,0.000823
56897000,0.0324,0.013523,0.002678,0.000431,0.000940
56898000,0.0324,0.013523,0.002678,0.000431,0.000823
56899000,0.0324,0.013523,0.002678,0.000431,0.000823
56900000,0.0324,0.013523,0.002678,0.000431,0.000823
56901000,0.0324,0.013523,0.002678,0.000431,0.000823
56902000,0.0324,0.013523,0.002678,0.000431,0.000823
56903000,0.0324,0.013523,0.002678,0.000431,0.000940
56904000,0.0324,0.013523,0.002678,0.000431,0.000705
56905000,0.0324,0.013523,0.002678,0.000431,0.000940
56906000,0.0324,0.013523,0.002678,0.000431,0.000705
56907000,0.0324,0.013523,0.002678,0.000431,0.000940
56908000,0.0324,0.013523,0.002678,0.000431,0.000940
56909000,0.0324,0.013523,0.002678,0.000431,0.000705
56910000,0.0324,0.013523,0.002678,0.000431,0.000940
56911000,0.0324,0.013523,0.002678,0.000431,0.000705
56912000,0.0324,0.013523,0.002678,0.000431,0.000940
56913000,0.0324,0.013523,0.002678,0.000431,0.000823
56914000,0.0324,0.013523,0.002678,0.000431,0.000823
56915000,0.0324,0.013523,0.002678,0.000431,0.000823
56916000,0.0324,0.013523,0.002678,0.000431,0.000823
56917000,0.0324,0.013523,0.002678,0.000431,0.000940
56918000,0.0324,0.013523,0.002678,0.000431,0.000705
56919000,0.0324,0.013523,0.002678,0.000431,0.000940
56920000,0.0324,0.013523,0.002678,0.000431,0.000823
56921000,0.0324,0.013523,0.002678,0.000431,0.000823
56922000,0.0324,0.013523,0.002678,0.000431,0.000823
56923000,0.0324,0.013523,0.002678,0.000431,0.000823
56924000,0.0324,0.013523,0.002678,0.000431,0.000705
56925000,0.0324,0.013523,0.002678,0.000431,0.000940
56926000,0.0324,0.013523,0.002678,0.000431,0.000940
56927000,0.0324,0.013523,0.002678,0.000431,0.000705
56928000,0.0324,0.013523,0.002678,0.000431,0.000940
56929000,0.0324,0.013523,0.002678,0.000431,0.000705
56930000,0.0324,0.013523,0.002678,0.000431,0.000940
56931000,0.0324,0.013523,0.002678,0.000431,0.000823
56932000,0.0324,0.013523,0.002678,0.000431,0.000823
56933000,0.0324,0.013523,0.002678,0.000431,0.000940
56934000,0.0324,0.013523,0.002678,0.000431,0.000705
56935000,0.0324,0.013523,0.002678,0.000431,0.000940
56936000,0.0324,0.013523,0.002678,0.000431,0.000705
56937000,0.0324,0.013523,0.002678,0.000431,0.000940
56938000,0.0324,0.013523,0.002678,0.000431,0.000705
56939000,0.0324,0.013523,0.002678,0.000431,0.000940
56940000,0.0324,0.013523,0.002678,0.000431,0.000705
56941000,0.0324,0.013523,0.002678,0.000431,0.000940
56942000,0.0324,0.013523,0.002678,0.000431,0.000940
56943000,0.0324,0.013523,0.002678,0.000431,0.000705
56944000,0.0324,0.013523,0.002678,0.000431,0.000940
56945000,0.0324,0.013523,0.002678,0.000431,0.000705
56946000,0.0324,0.013523,0.002678,0.000431,0.000940
56947000,0.0324,0.013523,0.002678,0.000431,0.000823
56948000,0.0324,0.013523,0.002678,0.000431,0.000823
56949000,0.0324,0.013523,0.002678,0.000431,0.000823
56950000,0.0324,0.013523,0.002678,0.000431,0.000823
56951000,0.0324,0.013523,0.002678,0.000431,0.000940
56952000,0.0324,0.013523,0.002678,0.000431,0.000705
56953000,0.0324,0.013523,0.002678,0.000431,0.000940
56954000,0.0324,0.013523,0.002678,0.000431,0.000823
56955000,0.0324,0.013523,0.002678,0.000431,0.000823
56956000,0.0324,0.013523,0.002678,0.000431,0.000823
56957000,0.0324,0.013523,0.002678,0.000431,0.000823
56958000,0.0324,0.013523,0.002678,0.000431,0.000823
56959000,0.0324,0.013523,0.002678,0.000431,0.000823
56960000,0.0324,0.013523,0.002678,0.000431,0.000823
56961000,0.0324,0.013523,0.002678,0.000431,0.000823
56962000,0.0324,0.013523,0.002678,0.000431,0.000940
56963000,0.0324,0.013523,0.002678,0.000431,0.000823
56964000,0.0324,0.013523,0.002678,0.000431,0.000823
56965000,0.0324,0.013523,0.002678,0.000431,0.000705
56966000,0.0324,0.013523,0.002678,0.000431,0.000940
56967000,0.0324,0.013523,0.002678,0.000431,0.000940
56968000,0.0324,0.013523,0.002678,0.000431,0.000705
56969000,0.0324,0.013523,0.002678,0.000431,0.000940
56970000,0.0324,0.013523,0.002678,0.000431,0.000705
56971000,0.0324,0.013523,0.002678,0.000431,0.000940
56972000,0.0324,0.013523,0.002678,0.000431,0.000823
56973000,0.0324,0.013523,0.002678,0.000431,0.000823
56974000,0.0324,0.013523,0.002678,0.000431,0.000940
56975000,0.0324,0.013523,0.002678,0.000431,0.000705
56976000,0.0324,0.013523,0.002678,0.000431,0.000940
56977000,0.0324,0.013523,0.002678,0.000431,0.000823
56978000,0.0324,0.013523,0.002678,0.000431,0.000823
56979000,0.0324,0.013523,0.002678,0.000431,0.000823
56980000,0.0324,0.013523,0.002678,0.000431,0.000823
56981000,0.0324,0.013523,0.002678,0.000431,0.000940
56982000,0.0324,0.013523,0.002678,0.000431,0.000705
56983000,0.0324,0.013523,0.002678,0.000431,0.000940
56984000,0.0324,0.013523,0.002678,0.000431,0.000823
56985000,0.0324,0.013523,0.002678,0.000431,0.000823
56986000,0.0324,0.013523,0.002678,0.000431,0.000823
56987000,0.0324,0.013523,0.002678,0.000431,0.000823
56988000,0.0324,0.013523,0.002678,0.000431,0.000705
56989000,0.0324,0.013523,0.002678,0.000431,0.000940
56990000,0.0324,0.013523,0.002678,0.000431,0.000940
56991000,0.0324,0.013523,0.002678,0.000431,0.000705
56992000,0.0324,0.013523,0.002678,0.000431,0.000940
56993000,0.0324,0.013523,0.002678,0.000431,0.000705
56994000,0.0324,0.013523,0.002678,0.000431,0.000940
56995000,0.0324,0.013523,0.002678,0.000431,0.000940
56996000,0.0324,0.013523,0.002678,0.000431,0.000705
56997000,0.0324,0.013523,0.002678,0.000431,0.000940
56998000,0.0324,0.013523,0.002678,0.000431,0.000705
56999000,0.0324,0.013523,0.002678,0.000431,0.000940
