Cycle,Area(mm^2),PeakDynamic(W),SubthresholdLeakage(W),GateLeakage(W),RunTimeDynamic(W)
101000000,0.0324,0.013523,0.002678,0.000431,0.002468
101001000,0.0324,0.013523,0.002678,0.000431,0.001998
101002000,0.0324,0.013523,0.002678,0.000431,0.002468
101003000,0.0324,0.013523,0.002678,0.000431,0.002233
101004000,0.0324,0.013523,0.002678,0.000431,0.002233
101005000,0.0324,0.013523,0.002678,0.000431,0.002468
101006000,0.0324,0.013523,0.002678,0.000431,0.001998
101007000,0.0324,0.013523,0.002678,0.000431,0.002468
101008000,0.0324,0.013523,0.002678,0.000431,0.002233
101009000,0.0324,0.013523,0.002678,0.000431,0.002233
101010000,0.0324,0.013523,0.002678,0.000431,0.002821
101011000,0.0324,0.013523,0.002678,0.000431,0.001645
101012000,0.0324,0.013523,0.002678,0.000431,0.002821
101013000,0.0324,0.013523,0.002678,0.000431,0.002233
101014000,0.0324,0.013523,0.002678,0.000431,0.002233
101015000,0.0324,0.013523,0.002678,0.000431,0.002468
101016000,0.0324,0.013523,0.002678,0.000431,0.001998
101017000,0.0324,0.013523,0.002678,0.000431,0.002468
101018000,0.0324,0.013523,0.002678,0.000431,0.002468
101019000,0.0324,0.013523,0.002678,0.000431,0.001998
101020000,0.0324,0.013523,0.002678,0.000431,0.002468
101021000,0.0324,0.013523,0.002678,0.000431,0.001880
101022000,0.0324,0.013523,0.002678,0.000431,0.002586
101023000,0.0324,0.013523,0.002678,0.000431,0.002821
101024000,0.0324,0.013523,0.002678,0.000431,0.001645
101025000,0.0324,0.013523,0.002678,0.000431,0.002821
101026000,0.0324,0.013523,0.002678,0.000431,0.001880
101027000,0.0324,0.013523,0.002678,0.000431,0.002586
101028000,0.0324,0.013523,0.002678,0.000431,0.002116
101029000,0.0324,0.013523,0.002678,0.000431,0.002351
101030000,0.0324,0.013523,0.002678,0.000431,0.002468
101031000,0.0324,0.013523,0.002678,0.000431,0.002116
101032000,0.0324,0.013523,0.002678,0.000431,0.002351
101033000,0.0324,0.013523,0.002678,0.000431,0.002468
101034000,0.0324,0.013523,0.002678,0.000431,0.001998
101035000,0.0324,0.013523,0.002678,0.000431,0.002468
101036000,0.0324,0.013523,0.002678,0.000431,0.002233
101037000,0.0324,0.013523,0.002678,0.000431,0.002233
101038000,0.0324,0.013523,0.002678,0.000431,0.002821
101039000,0.0324,0.013523,0.002678,0.000431,0.001645
101040000,0.0324,0.013523,0.002678,0.000431,0.002821
101041000,0.0324,0.013523,0.002678,0.000431,0.002116
101042000,0.0324,0.013523,0.002678,0.000431,0.002351
101043000,0.0324,0.013523,0.002678,0.000431,0.002116
101044000,0.0324,0.013523,0.002678,0.000431,0.002351
101045000,0.0324,0.013523,0.002678,0.000431,0.002468
101046000,0.0324,0.013523,0.002678,0.000431,0.002468
101047000,0.0324,0.013523,0.002678,0.000431,0.001998
101048000,0.0324,0.013523,0.002678,0.000431,0.002468
101049000,0.0324,0.013523,0.002678,0.000431,0.001880
101050000,0.0324,0.013523,0.002678,0.000431,0.002586
101051000,0.0324,0.013523,0.002678,0.000431,0.002821
101052000,0.0324,0.013523,0.002678,0.000431,0.001645
101053000,0.0324,0.013523,0.002678,0.000431,0.002821
101054000,0.0324,0.013523,0.002678,0.000431,0.001880
101055000,0.0324,0.013523,0.002678,0.000431,0.002586
101056000,0.0324,0.013523,0.002678,0.000431,0.002116
101057000,0.0324,0.013523,0.002678,0.000431,0.002351
101058000,0.0324,0.013523,0.002678,0.000431,0.002468
101059000,0.0324,0.013523,0.002678,0.000431,0.002116
101060000,0.0324,0.013523,0.002678,0.000431,0.002351
101061000,0.0324,0.013523,0.002678,0.000431,0.002468
101062000,0.0324,0.013523,0.002678,0.000431,0.001998
101063000,0.0324,0.013523,0.002678,0.000431,0.002468
101064000,0.0324,0.013523,0.002678,0.000431,0.002233
101065000,0.0324,0.013523,0.002678,0.000431,0.002233
101066000,0.0324,0.013523,0.002678,0.000431,0.002821
101067000,0.0324,0.013523,0.002678,0.000431,0.001645
101068000,0.0324,0.013523,0.002678,0.000431,0.002821
101069000,0.0324,0.013523,0.002678,0.000431,0.002116
101070000,0.0324,0.013523,0.002678,0.000431,0.002351
101071000,0.0324,0.013523,0.002678,0.000431,0.002468
101072000,0.0324,0.013523,0.002678,0.000431,0.001998
101073000,0.0324,0.013523,0.002678,0.000431,0.002468
101074000,0.0324,0.013523,0.002678,0.000431,0.002468
101075000,0.0324,0.013523,0.002678,0.000431,0.001998
101076000,0.0324,0.013523,0.002678,0.000431,0.002468
101077000,0.0324,0.013523,0.002678,0.000431,0.001880
101078000,0.0324,0.013523,0.002678,0.000431,0.002586
101079000,0.0324,0.013523,0.002678,0.000431,0.002821
101080000,0.0324,0.013523,0.002678,0.000431,0.001645
101081000,0.0324,0.013523,0.002678,0.000431,0.002821
101082000,0.0324,0.013523,0.002678,0.000431,0.001880
101083000,0.0324,0.013523,0.002678,0.000431,0.002586
101084000,0.0324,0.013523,0.002678,0.000431,0.002116
101085000,0.0324,0.013523,0.002678,0.000431,0.002351
101086000,0.0324,0.013523,0.002678,0.000431,0.002116
101087000,0.0324,0.013523,0.002678,0.000431,0.002468
101088000,0.0324,0.013523,0.002678,0.000431,0.002351
101089000,0.0324,0.013523,0.002678,0.000431,0.002468
101090000,0.0324,0.013523,0.002678,0.000431,0.001998
101091000,0.0324,0.013523,0.002678,0.000431,0.002468
101092000,0.0324,0.013523,0.002678,0.000431,0.002233
101093000,0.0324,0.013523,0.002678,0.000431,0.002233
101094000,0.0324,0.013523,0.002678,0.000431,0.002468
101095000,0.0324,0.013523,0.002678,0.000431,0.001998
101096000,0.0324,0.013523,0.002678,0.000431,0.001175
101097000,0.0324,0.013523,0.002678,0.000431,0.000705
101098000,0.0324,0.013523,0.002678,0.000431,0.000940
101099000,0.0324,0.013523,0.002678,0.000431,0.000823
101100000,0.0324,0.013523,0.002678,0.000431,0.000823
101101000,0.0324,0.013523,0.002678,0.000431,0.000940
101102000,0.0324,0.013523,0.002678,0.000431,0.000823
101103000,0.0324,0.013523,0.002678,0.000431,0.000823
101104000,0.0324,0.013523,0.002678,0.000431,0.012458
101105000,0.0324,0.013523,0.002678,0.000431,0.395717
101106000,0.0324,0.013523,0.002678,0.000431,0.606916
101107000,0.0324,0.013523,0.002678,0.000431,0.132807
101108000,0.0324,0.013523,0.002678,0.000431,0.132807
101109000,0.0324,0.013523,0.002678,0.000431,0.132572
101110000,0.0324,0.013523,0.002678,0.000431,0.598689
101111000,0.0324,0.013523,0.002678,0.000431,0.246104
101112000,0.0324,0.013523,0.002678,0.000431,0.244811
101113000,0.0324,0.013523,0.002678,0.000431,0.288414
101114000,0.0324,0.013523,0.002678,0.000431,0.136450
101115000,0.0324,0.013523,0.002678,0.000431,0.146910
101116000,0.0324,0.013523,0.002678,0.000431,0.107538
101117000,0.0324,0.013523,0.002678,0.000431,0.383847
101118000,0.0324,0.013523,0.002678,0.000431,0.154785
101119000,0.0324,0.013523,0.002678,0.000431,0.000823
101120000,0.0324,0.013523,0.002678,0.000431,0.000705
101121000,0.0324,0.013523,0.002678,0.000431,0.000940
101122000,0.0324,0.013523,0.002678,0.000431,0.000940
101123000,0.0324,0.013523,0.002678,0.000431,0.000705
101124000,0.0324,0.013523,0.002678,0.000431,0.000940
101125000,0.0324,0.013523,0.002678,0.000431,0.000705
101126000,0.0324,0.013523,0.002678,0.000431,0.000940
101127000,0.0324,0.013523,0.002678,0.000431,0.000940
101128000,0.0324,0.013523,0.002678,0.000431,0.000705
101129000,0.0324,0.013523,0.002678,0.000431,0.000940
101130000,0.0324,0.013523,0.002678,0.000431,0.000705
101131000,0.0324,0.013523,0.002678,0.000431,0.000940
101132000,0.0324,0.013523,0.002678,0.000431,0.000823
101133000,0.0324,0.013523,0.002678,0.000431,0.000823
101134000,0.0324,0.013523,0.002678,0.000431,0.000823
101135000,0.0324,0.013523,0.002678,0.000431,0.000823
101136000,0.0324,0.013523,0.002678,0.000431,0.000940
101137000,0.0324,0.013523,0.002678,0.000431,0.000705
101138000,0.0324,0.013523,0.002678,0.000431,0.000940
101139000,0.0324,0.013523,0.002678,0.000431,0.000823
101140000,0.0324,0.013523,0.002678,0.000431,0.000705
101141000,0.0324,0.013523,0.002678,0.000431,0.000940
101142000,0.0324,0.013523,0.002678,0.000431,0.000823
101143000,0.0324,0.013523,0.002678,0.000431,0.000823
101144000,0.0324,0.013523,0.002678,0.000431,0.000823
101145000,0.0324,0.013523,0.002678,0.000431,0.000823
101146000,0.0324,0.013523,0.002678,0.000431,0.000823
101147000,0.0324,0.013523,0.002678,0.000431,0.000940
101148000,0.0324,0.013523,0.002678,0.000431,0.000823
101149000,0.0324,0.013523,0.002678,0.000431,0.000823
101150000,0.0324,0.013523,0.002678,0.000431,0.000705
101151000,0.0324,0.013523,0.002678,0.000431,0.000940
101152000,0.0324,0.013523,0.002678,0.000431,0.000940
101153000,0.0324,0.013523,0.002678,0.000431,0.000705
101154000,0.0324,0.013523,0.002678,0.000431,0.000940
101155000,0.0324,0.013523,0.002678,0.000431,0.000705
101156000,0.0324,0.013523,0.002678,0.000431,0.000940
101157000,0.0324,0.013523,0.002678,0.000431,0.000823
101158000,0.0324,0.013523,0.002678,0.000431,0.000823
101159000,0.0324,0.013523,0.002678,0.000431,0.000823
101160000,0.0324,0.013523,0.002678,0.000431,0.000823
101161000,0.0324,0.013523,0.002678,0.000431,0.000940
101162000,0.0324,0.013523,0.002678,0.000431,0.000705
101163000,0.0324,0.013523,0.002678,0.000431,0.000940
101164000,0.0324,0.013523,0.002678,0.000431,0.000823
101165000,0.0324,0.013523,0.002678,0.000431,0.000823
101166000,0.0324,0.013523,0.002678,0.000431,0.000823
101167000,0.0324,0.013523,0.002678,0.000431,0.000823
101168000,0.0324,0.013523,0.002678,0.000431,0.000940
101169000,0.0324,0.013523,0.002678,0.000431,0.000705
101170000,0.0324,0.013523,0.002678,0.000431,0.000940
101171000,0.0324,0.013523,0.002678,0.000431,0.000705
101172000,0.0324,0.013523,0.002678,0.000431,0.000940
101173000,0.0324,0.013523,0.002678,0.000431,0.000705
101174000,0.0324,0.013523,0.002678,0.000431,0.000940
101175000,0.0324,0.013523,0.002678,0.000431,0.000823
101176000,0.0324,0.013523,0.002678,0.000431,0.000823
101177000,0.0324,0.013523,0.002678,0.000431,0.000940
101178000,0.0324,0.013523,0.002678,0.000431,0.000705
101179000,0.0324,0.013523,0.002678,0.000431,0.000940
101180000,0.0324,0.013523,0.002678,0.000431,0.000823
101181000,0.0324,0.013523,0.002678,0.000431,0.000823
101182000,0.0324,0.013523,0.002678,0.000431,0.000823
101183000,0.0324,0.013523,0.002678,0.000431,0.000823
101184000,0.0324,0.013523,0.002678,0.000431,0.000823
101185000,0.0324,0.013523,0.002678,0.000431,0.000823
101186000,0.0324,0.013523,0.002678,0.000431,0.000940
101187000,0.0324,0.013523,0.002678,0.000431,0.000823
101188000,0.0324,0.013523,0.002678,0.000431,0.000823
101189000,0.0324,0.013523,0.002678,0.000431,0.000823
101190000,0.0324,0.013523,0.002678,0.000431,0.000823
101191000,0.0324,0.013523,0.002678,0.000431,0.000823
101192000,0.0324,0.013523,0.002678,0.000431,0.000823
101193000,0.0324,0.013523,0.002678,0.000431,0.000823
101194000,0.0324,0.013523,0.002678,0.000431,0.000823
101195000,0.0324,0.013523,0.002678,0.000431,0.000940
101196000,0.0324,0.013523,0.002678,0.000431,0.000823
101197000,0.0324,0.013523,0.002678,0.000431,0.000823
101198000,0.0324,0.013523,0.002678,0.000431,0.000705
101199000,0.0324,0.013523,0.002678,0.000431,0.000940
101200000,0.0324,0.013523,0.002678,0.000431,0.000940
101201000,0.0324,0.013523,0.002678,0.000431,0.000705
101202000,0.0324,0.013523,0.002678,0.000431,0.000940
101203000,0.0324,0.013523,0.002678,0.000431,0.000705
101204000,0.0324,0.013523,0.002678,0.000431,0.000940
101205000,0.0324,0.013523,0.002678,0.000431,0.000823
101206000,0.0324,0.013523,0.002678,0.000431,0.000823
101207000,0.0324,0.013523,0.002678,0.000431,0.000940
101208000,0.0324,0.013523,0.002678,0.000431,0.000705
101209000,0.0324,0.013523,0.002678,0.000431,0.000940
101210000,0.0324,0.013523,0.002678,0.000431,0.000823
101211000,0.0324,0.013523,0.002678,0.000431,0.000823
101212000,0.0324,0.013523,0.002678,0.000431,0.000823
101213000,0.0324,0.013523,0.002678,0.000431,0.000823
101214000,0.0324,0.013523,0.002678,0.000431,0.000823
101215000,0.0324,0.013523,0.002678,0.000431,0.000823
101216000,0.0324,0.013523,0.002678,0.000431,0.000940
101217000,0.0324,0.013523,0.002678,0.000431,0.000705
101218000,0.0324,0.013523,0.002678,0.000431,0.000940
101219000,0.0324,0.013523,0.002678,0.000431,0.000823
101220000,0.0324,0.013523,0.002678,0.000431,0.000823
101221000,0.0324,0.013523,0.002678,0.000431,0.000705
101222000,0.0324,0.013523,0.002678,0.000431,0.000940
101223000,0.0324,0.013523,0.002678,0.000431,0.000940
101224000,0.0324,0.013523,0.002678,0.000431,0.000705
101225000,0.0324,0.013523,0.002678,0.000431,0.000940
101226000,0.0324,0.013523,0.002678,0.000431,0.000705
101227000,0.0324,0.013523,0.002678,0.000431,0.000940
101228000,0.0324,0.013523,0.002678,0.000431,0.000823
101229000,0.0324,0.013523,0.002678,0.000431,0.000823
101230000,0.0324,0.013523,0.002678,0.000431,0.000823
101231000,0.0324,0.013523,0.002678,0.000431,0.000823
101232000,0.0324,0.013523,0.002678,0.000431,0.000940
101233000,0.0324,0.013523,0.002678,0.000431,0.000705
101234000,0.0324,0.013523,0.002678,0.000431,0.000940
101235000,0.0324,0.013523,0.002678,0.000431,0.000823
101236000,0.0324,0.013523,0.002678,0.000431,0.000823
101237000,0.0324,0.013523,0.002678,0.000431,0.000823
101238000,0.0324,0.013523,0.002678,0.000431,0.000823
101239000,0.0324,0.013523,0.002678,0.000431,0.000823
101240000,0.0324,0.013523,0.002678,0.000431,0.000823
101241000,0.0324,0.013523,0.002678,0.000431,0.000823
101242000,0.0324,0.013523,0.002678,0.000431,0.000823
101243000,0.0324,0.013523,0.002678,0.000431,0.000940
101244000,0.0324,0.013523,0.002678,0.000431,0.000823
101245000,0.0324,0.013523,0.002678,0.000431,0.000823
101246000,0.0324,0.013523,0.002678,0.000431,0.000705
101247000,0.0324,0.013523,0.002678,0.000431,0.000940
101248000,0.0324,0.013523,0.002678,0.000431,0.000940
101249000,0.0324,0.013523,0.002678,0.000431,0.000705
101250000,0.0324,0.013523,0.002678,0.000431,0.000940
101251000,0.0324,0.013523,0.002678,0.000431,0.000705
101252000,0.0324,0.013523,0.002678,0.000431,0.000940
101253000,0.0324,0.013523,0.002678,0.000431,0.000823
101254000,0.0324,0.013523,0.002678,0.000431,0.000823
101255000,0.0324,0.013523,0.002678,0.000431,0.000940
101256000,0.0324,0.013523,0.002678,0.000431,0.000705
101257000,0.0324,0.013523,0.002678,0.000431,0.000940
101258000,0.0324,0.013523,0.002678,0.000431,0.000823
101259000,0.0324,0.013523,0.002678,0.000431,0.000823
101260000,0.0324,0.013523,0.002678,0.000431,0.000823
101261000,0.0324,0.013523,0.002678,0.000431,0.000823
101262000,0.0324,0.013523,0.002678,0.000431,0.000823
101263000,0.0324,0.013523,0.002678,0.000431,0.000823
101264000,0.0324,0.013523,0.002678,0.000431,0.000940
101265000,0.0324,0.013523,0.002678,0.000431,0.000705
101266000,0.0324,0.013523,0.002678,0.000431,0.000940
101267000,0.0324,0.013523,0.002678,0.000431,0.000823
101268000,0.0324,0.013523,0.002678,0.000431,0.000823
101269000,0.0324,0.013523,0.002678,0.000431,0.000705
101270000,0.0324,0.013523,0.002678,0.000431,0.000940
101271000,0.0324,0.013523,0.002678,0.000431,0.000940
101272000,0.0324,0.013523,0.002678,0.000431,0.000705
101273000,0.0324,0.013523,0.002678,0.000431,0.000940
101274000,0.0324,0.013523,0.002678,0.000431,0.000705
101275000,0.0324,0.013523,0.002678,0.000431,0.000940
101276000,0.0324,0.013523,0.002678,0.000431,0.000823
101277000,0.0324,0.013523,0.002678,0.000431,0.000823
101278000,0.0324,0.013523,0.002678,0.000431,0.000940
101279000,0.0324,0.013523,0.002678,0.000431,0.000705
101280000,0.0324,0.013523,0.002678,0.000431,0.000940
101281000,0.0324,0.013523,0.002678,0.000431,0.000823
101282000,0.0324,0.013523,0.002678,0.000431,0.000823
101283000,0.0324,0.013523,0.002678,0.000431,0.000823
101284000,0.0324,0.013523,0.002678,0.000431,0.000823
101285000,0.0324,0.013523,0.002678,0.000431,0.000705
101286000,0.0324,0.013523,0.002678,0.000431,0.000940
101287000,0.0324,0.013523,0.002678,0.000431,0.000823
101288000,0.0324,0.013523,0.002678,0.000431,0.000823
101289000,0.0324,0.013523,0.002678,0.000431,0.000823
101290000,0.0324,0.013523,0.002678,0.000431,0.000823
101291000,0.0324,0.013523,0.002678,0.000431,0.000940
101292000,0.0324,0.013523,0.002678,0.000431,0.000705
101293000,0.0324,0.013523,0.002678,0.000431,0.000940
101294000,0.0324,0.013523,0.002678,0.000431,0.000705
101295000,0.0324,0.013523,0.002678,0.000431,0.000940
101296000,0.0324,0.013523,0.002678,0.000431,0.000705
101297000,0.0324,0.013523,0.002678,0.000431,0.000940
101298000,0.0324,0.013523,0.002678,0.000431,0.000940
101299000,0.0324,0.013523,0.002678,0.000431,0.000705
101300000,0.0324,0.013523,0.002678,0.000431,0.000940
101301000,0.0324,0.013523,0.002678,0.000431,0.000705
101302000,0.0324,0.013523,0.002678,0.000431,0.000940
101303000,0.0324,0.013523,0.002678,0.000431,0.000823
101304000,0.0324,0.013523,0.002678,0.000431,0.000823
101305000,0.0324,0.013523,0.002678,0.000431,0.000823
101306000,0.0324,0.013523,0.002678,0.000431,0.000823
101307000,0.0324,0.013523,0.002678,0.000431,0.000823
101308000,0.0324,0.013523,0.002678,0.000431,0.000823
101309000,0.0324,0.013523,0.002678,0.000431,0.000940
101310000,0.0324,0.013523,0.002678,0.000431,0.000823
101311000,0.0324,0.013523,0.002678,0.000431,0.000823
101312000,0.0324,0.013523,0.002678,0.000431,0.000823
101313000,0.0324,0.013523,0.002678,0.000431,0.000823
101314000,0.0324,0.013523,0.002678,0.000431,0.000823
101315000,0.0324,0.013523,0.002678,0.000431,0.000823
101316000,0.0324,0.013523,0.002678,0.000431,0.000705
101317000,0.0324,0.013523,0.002678,0.000431,0.000940
101318000,0.0324,0.013523,0.002678,0.000431,0.000940
101319000,0.0324,0.013523,0.002678,0.000431,0.000705
101320000,0.0324,0.013523,0.002678,0.000431,0.000940
101321000,0.0324,0.013523,0.002678,0.000431,0.000705
101322000,0.0324,0.013523,0.002678,0.000431,0.000940
101323000,0.0324,0.013523,0.002678,0.000431,0.000940
101324000,0.0324,0.013523,0.002678,0.000431,0.000705
101325000,0.0324,0.013523,0.002678,0.000431,0.000940
101326000,0.0324,0.013523,0.002678,0.000431,0.000705
101327000,0.0324,0.013523,0.002678,0.000431,0.000940
101328000,0.0324,0.013523,0.002678,0.000431,0.000823
101329000,0.0324,0.013523,0.002678,0.000431,0.000823
101330000,0.0324,0.013523,0.002678,0.000431,0.000823
101331000,0.0324,0.013523,0.002678,0.000431,0.000823
101332000,0.0324,0.013523,0.002678,0.000431,0.000823
101333000,0.0324,0.013523,0.002678,0.000431,0.000823
101334000,0.0324,0.013523,0.002678,0.000431,0.000940
101335000,0.0324,0.013523,0.002678,0.000431,0.000823
101336000,0.0324,0.013523,0.002678,0.000431,0.000823
101337000,0.0324,0.013523,0.002678,0.000431,0.000823
101338000,0.0324,0.013523,0.002678,0.000431,0.000823
101339000,0.0324,0.013523,0.002678,0.000431,0.000823
101340000,0.0324,0.013523,0.002678,0.000431,0.000823
101341000,0.0324,0.013523,0.002678,0.000431,0.000940
101342000,0.0324,0.013523,0.002678,0.000431,0.000705
101343000,0.0324,0.013523,0.002678,0.000431,0.000940
101344000,0.0324,0.013523,0.002678,0.000431,0.000705
101345000,0.0324,0.013523,0.002678,0.000431,0.000940
101346000,0.0324,0.013523,0.002678,0.000431,0.000823
101347000,0.0324,0.013523,0.002678,0.000431,0.000823
101348000,0.0324,0.013523,0.002678,0.000431,0.000940
101349000,0.0324,0.013523,0.002678,0.000431,0.000705
101350000,0.0324,0.013523,0.002678,0.000431,0.000940
101351000,0.0324,0.013523,0.002678,0.000431,0.000823
101352000,0.0324,0.013523,0.002678,0.000431,0.000823
101353000,0.0324,0.013523,0.002678,0.000431,0.000823
101354000,0.0324,0.013523,0.002678,0.000431,0.000823
101355000,0.0324,0.013523,0.002678,0.000431,0.000940
101356000,0.0324,0.013523,0.002678,0.000431,0.000705
101357000,0.0324,0.013523,0.002678,0.000431,0.000940
101358000,0.0324,0.013523,0.002678,0.000431,0.000705
101359000,0.0324,0.013523,0.002678,0.000431,0.000823
101360000,0.0324,0.013523,0.002678,0.000431,0.000940
101361000,0.0324,0.013523,0.002678,0.000431,0.000823
101362000,0.0324,0.013523,0.002678,0.000431,0.000823
101363000,0.0324,0.013523,0.002678,0.000431,0.000823
101364000,0.0324,0.013523,0.002678,0.000431,0.000705
101365000,0.0324,0.013523,0.002678,0.000431,0.000940
101366000,0.0324,0.013523,0.002678,0.000431,0.000940
101367000,0.0324,0.013523,0.002678,0.000431,0.000705
101368000,0.0324,0.013523,0.002678,0.000431,0.000940
101369000,0.0324,0.013523,0.002678,0.000431,0.000705
101370000,0.0324,0.013523,0.002678,0.000431,0.000940
101371000,0.0324,0.013523,0.002678,0.000431,0.000940
101372000,0.0324,0.013523,0.002678,0.000431,0.000705
101373000,0.0324,0.013523,0.002678,0.000431,0.000940
101374000,0.0324,0.013523,0.002678,0.000431,0.000705
101375000,0.0324,0.013523,0.002678,0.000431,0.000940
101376000,0.0324,0.013523,0.002678,0.000431,0.000823
101377000,0.0324,0.013523,0.002678,0.000431,0.000823
101378000,0.0324,0.013523,0.002678,0.000431,0.000823
101379000,0.0324,0.013523,0.002678,0.000431,0.000823
101380000,0.0324,0.013523,0.002678,0.000431,0.000940
101381000,0.0324,0.013523,0.002678,0.000431,0.000705
101382000,0.0324,0.013523,0.002678,0.000431,0.000940
101383000,0.0324,0.013523,0.002678,0.000431,0.000823
101384000,0.0324,0.013523,0.002678,0.000431,0.000823
101385000,0.0324,0.013523,0.002678,0.000431,0.000823
101386000,0.0324,0.013523,0.002678,0.000431,0.000823
101387000,0.0324,0.013523,0.002678,0.000431,0.000823
101388000,0.0324,0.013523,0.002678,0.000431,0.000823
101389000,0.0324,0.013523,0.002678,0.000431,0.000940
101390000,0.0324,0.013523,0.002678,0.000431,0.000823
101391000,0.0324,0.013523,0.002678,0.000431,0.000823
101392000,0.0324,0.013523,0.002678,0.000431,0.000705
101393000,0.0324,0.013523,0.002678,0.000431,0.000940
101394000,0.0324,0.013523,0.002678,0.000431,0.000940
101395000,0.0324,0.013523,0.002678,0.000431,0.000705
101396000,0.0324,0.013523,0.002678,0.000431,0.000940
101397000,0.0324,0.013523,0.002678,0.000431,0.000705
101398000,0.0324,0.013523,0.002678,0.000431,0.000940
101399000,0.0324,0.013523,0.002678,0.000431,0.000823
101400000,0.0324,0.013523,0.002678,0.000431,0.000823
101401000,0.0324,0.013523,0.002678,0.000431,0.000823
101402000,0.0324,0.013523,0.002678,0.000431,0.000823
101403000,0.0324,0.013523,0.002678,0.000431,0.000940
101404000,0.0324,0.013523,0.002678,0.000431,0.000705
101405000,0.0324,0.013523,0.002678,0.000431,0.000940
101406000,0.0324,0.013523,0.002678,0.000431,0.000705
101407000,0.0324,0.013523,0.002678,0.000431,0.000823
101408000,0.0324,0.013523,0.002678,0.000431,0.000940
101409000,0.0324,0.013523,0.002678,0.000431,0.000823
101410000,0.0324,0.013523,0.002678,0.000431,0.000823
101411000,0.0324,0.013523,0.002678,0.000431,0.000823
101412000,0.0324,0.013523,0.002678,0.000431,0.000823
101413000,0.0324,0.013523,0.002678,0.000431,0.000823
101414000,0.0324,0.013523,0.002678,0.000431,0.000940
101415000,0.0324,0.013523,0.002678,0.000431,0.000823
101416000,0.0324,0.013523,0.002678,0.000431,0.000823
101417000,0.0324,0.013523,0.002678,0.000431,0.000705
101418000,0.0324,0.013523,0.002678,0.000431,0.000940
101419000,0.0324,0.013523,0.002678,0.000431,0.000940
101420000,0.0324,0.013523,0.002678,0.000431,0.000705
101421000,0.0324,0.013523,0.002678,0.000431,0.000940
101422000,0.0324,0.013523,0.002678,0.000431,0.000705
101423000,0.0324,0.013523,0.002678,0.000431,0.000940
101424000,0.0324,0.013523,0.002678,0.000431,0.000823
101425000,0.0324,0.013523,0.002678,0.000431,0.000823
101426000,0.0324,0.013523,0.002678,0.000431,0.000823
101427000,0.0324,0.013523,0.002678,0.000431,0.000823
101428000,0.0324,0.013523,0.002678,0.000431,0.000940
101429000,0.0324,0.013523,0.002678,0.000431,0.000823
101430000,0.0324,0.013523,0.002678,0.000431,0.000823
101431000,0.0324,0.013523,0.002678,0.000431,0.000823
101432000,0.0324,0.013523,0.002678,0.000431,0.000823
101433000,0.0324,0.013523,0.002678,0.000431,0.000823
101434000,0.0324,0.013523,0.002678,0.000431,0.000823
101435000,0.0324,0.013523,0.002678,0.000431,0.000940
101436000,0.0324,0.013523,0.002678,0.000431,0.000705
101437000,0.0324,0.013523,0.002678,0.000431,0.000940
101438000,0.0324,0.013523,0.002678,0.000431,0.000705
101439000,0.0324,0.013523,0.002678,0.000431,0.000940
101440000,0.0324,0.013523,0.002678,0.000431,0.000705
101441000,0.0324,0.013523,0.002678,0.000431,0.000940
101442000,0.0324,0.013523,0.002678,0.000431,0.000940
101443000,0.0324,0.013523,0.002678,0.000431,0.000705
101444000,0.0324,0.013523,0.002678,0.000431,0.000940
101445000,0.0324,0.013523,0.002678,0.000431,0.000705
101446000,0.0324,0.013523,0.002678,0.000431,0.000940
101447000,0.0324,0.013523,0.002678,0.000431,0.002586
101448000,0.0324,0.013523,0.002678,0.000431,0.343652
101449000,0.0324,0.013523,0.002678,0.000431,0.645700
101450000,0.0324,0.013523,0.002678,0.000431,0.130221
101451000,0.0324,0.013523,0.002678,0.000431,0.134922
101452000,0.0324,0.013523,0.002678,0.000431,0.144090
101453000,0.0324,0.013523,0.002678,0.000431,0.628423
101454000,0.0324,0.013523,0.002678,0.000431,0.256682
101455000,0.0324,0.013523,0.002678,0.000431,0.281245
101456000,0.0324,0.013523,0.002678,0.000431,0.223539
101457000,0.0324,0.013523,0.002678,0.000431,0.136920
101458000,0.0324,0.013523,0.002678,0.000431,0.145852
101459000,0.0324,0.013523,0.002678,0.000431,0.100252
101460000,0.0324,0.013523,0.002678,0.000431,0.408410
101461000,0.0324,0.013523,0.002678,0.000431,0.195567
101462000,0.0324,0.013523,0.002678,0.000431,0.064758
101463000,0.0324,0.013523,0.002678,0.000431,0.043485
101464000,0.0324,0.013523,0.002678,0.000431,0.047481
101465000,0.0324,0.013523,0.002678,0.000431,0.029382
101466000,0.0324,0.013523,0.002678,0.000431,0.031262
101467000,0.0324,0.013523,0.002678,0.000431,0.028442
101468000,0.0324,0.013523,0.002678,0.000431,0.023858
101469000,0.0324,0.013523,0.002678,0.000431,0.023858
101470000,0.0324,0.013523,0.002678,0.000431,0.019275
101471000,0.0324,0.013523,0.002678,0.000431,0.018569
101472000,0.0324,0.013523,0.002678,0.000431,0.016219
101473000,0.0324,0.013523,0.002678,0.000431,0.015279
101474000,0.0324,0.013523,0.002678,0.000431,0.015161
101475000,0.0324,0.013523,0.002678,0.000431,0.012576
101476000,0.0324,0.013523,0.002678,0.000431,0.009285
101477000,0.0324,0.013523,0.002678,0.000431,0.009637
101478000,0.0324,0.013523,0.002678,0.000431,0.008932
101479000,0.0324,0.013523,0.002678,0.000431,0.008815
101480000,0.0324,0.013523,0.002678,0.000431,0.009167
101481000,0.0324,0.013523,0.002678,0.000431,0.009637
101482000,0.0324,0.013523,0.002678,0.000431,0.009520
101483000,0.0324,0.013523,0.002678,0.000431,0.007169
101484000,0.0324,0.013523,0.002678,0.000431,0.007052
101485000,0.0324,0.013523,0.002678,0.000431,0.006817
101486000,0.0324,0.013523,0.002678,0.000431,0.007052
101487000,0.0324,0.013523,0.002678,0.000431,0.006817
101488000,0.0324,0.013523,0.002678,0.000431,0.006582
101489000,0.0324,0.013523,0.002678,0.000431,0.007169
101490000,0.0324,0.013523,0.002678,0.000431,0.006347
101491000,0.0324,0.013523,0.002678,0.000431,0.005759
101492000,0.0324,0.013523,0.002678,0.000431,0.005524
101493000,0.0324,0.013523,0.002678,0.000431,0.005641
101494000,0.0324,0.013523,0.002678,0.000431,0.006229
101495000,0.0324,0.013523,0.002678,0.000431,0.005289
101496000,0.0324,0.013523,0.002678,0.000431,0.005054
101497000,0.0324,0.013523,0.002678,0.000431,0.006817
101498000,0.0324,0.013523,0.002678,0.000431,0.004584
101499000,0.0324,0.013523,0.002678,0.000431,0.004113
101500000,0.0324,0.013523,0.002678,0.000431,0.003996
101501000,0.0324,0.013523,0.002678,0.000431,0.004584
101502000,0.0324,0.013523,0.002678,0.000431,0.004113
101503000,0.0324,0.013523,0.002678,0.000431,0.004349
101504000,0.0324,0.013523,0.002678,0.000431,0.003996
101505000,0.0324,0.013523,0.002678,0.000431,0.007169
101506000,0.0324,0.013523,0.002678,0.000431,0.003291
101507000,0.0324,0.013523,0.002678,0.000431,0.002821
101508000,0.0324,0.013523,0.002678,0.000431,0.002586
101509000,0.0324,0.013523,0.002678,0.000431,0.004936
101510000,0.0324,0.013523,0.002678,0.000431,0.001998
101511000,0.0324,0.013523,0.002678,0.000431,0.001528
101512000,0.0324,0.013523,0.002678,0.000431,0.001763
101513000,0.0324,0.013523,0.002678,0.000431,0.001763
101514000,0.0324,0.013523,0.002678,0.000431,0.001645
101515000,0.0324,0.013523,0.002678,0.000431,0.001763
101516000,0.0324,0.013523,0.002678,0.000431,0.001763
101517000,0.0324,0.013523,0.002678,0.000431,0.001528
101518000,0.0324,0.013523,0.002678,0.000431,0.001763
101519000,0.0324,0.013523,0.002678,0.000431,0.001645
101520000,0.0324,0.013523,0.002678,0.000431,0.003173
101521000,0.0324,0.013523,0.002678,0.000431,0.000823
101522000,0.0324,0.013523,0.002678,0.000431,0.000823
101523000,0.0324,0.013523,0.002678,0.000431,0.000940
101524000,0.0324,0.013523,0.002678,0.000431,0.000940
101525000,0.0324,0.013523,0.002678,0.000431,0.000823
101526000,0.0324,0.013523,0.002678,0.000431,0.000823
101527000,0.0324,0.013523,0.002678,0.000431,0.000940
101528000,0.0324,0.013523,0.002678,0.000431,0.000823
101529000,0.0324,0.013523,0.002678,0.000431,0.000940
101530000,0.0324,0.013523,0.002678,0.000431,0.000823
101531000,0.0324,0.013523,0.002678,0.000431,0.000940
101532000,0.0324,0.013523,0.002678,0.000431,0.000823
101533000,0.0324,0.013523,0.002678,0.000431,0.000823
101534000,0.0324,0.013523,0.002678,0.000431,0.000940
101535000,0.0324,0.013523,0.002678,0.000431,0.000940
101536000,0.0324,0.013523,0.002678,0.000431,0.000705
101537000,0.0324,0.013523,0.002678,0.000431,0.000940
101538000,0.0324,0.013523,0.002678,0.000431,0.000940
101539000,0.0324,0.013523,0.002678,0.000431,0.000940
101540000,0.0324,0.013523,0.002678,0.000431,0.000705
101541000,0.0324,0.013523,0.002678,0.000431,0.000940
101542000,0.0324,0.013523,0.002678,0.000431,0.000940
101543000,0.0324,0.013523,0.002678,0.000431,0.000823
101544000,0.0324,0.013523,0.002678,0.000431,0.000823
101545000,0.0324,0.013523,0.002678,0.000431,0.000940
101546000,0.0324,0.013523,0.002678,0.000431,0.000940
101547000,0.0324,0.013523,0.002678,0.000431,0.000823
101548000,0.0324,0.013523,0.002678,0.000431,0.000823
101549000,0.0324,0.013523,0.002678,0.000431,0.000940
101550000,0.0324,0.013523,0.002678,0.000431,0.000823
101551000,0.0324,0.013523,0.002678,0.000431,0.000940
101552000,0.0324,0.013523,0.002678,0.000431,0.000823
101553000,0.0324,0.013523,0.002678,0.000431,0.000940
101554000,0.0324,0.013523,0.002678,0.000431,0.000823
101555000,0.0324,0.013523,0.002678,0.000431,0.000823
101556000,0.0324,0.013523,0.002678,0.000431,0.000940
101557000,0.0324,0.013523,0.002678,0.000431,0.000940
101558000,0.0324,0.013523,0.002678,0.000431,0.000940
101559000,0.0324,0.013523,0.002678,0.000431,0.000705
101560000,0.0324,0.013523,0.002678,0.000431,0.000940
101561000,0.0324,0.013523,0.002678,0.000431,0.000940
101562000,0.0324,0.013523,0.002678,0.000431,0.000823
101563000,0.0324,0.013523,0.002678,0.000431,0.000823
101564000,0.0324,0.013523,0.002678,0.000431,0.000940
101565000,0.0324,0.013523,0.002678,0.000431,0.000940
101566000,0.0324,0.013523,0.002678,0.000431,0.000823
101567000,0.0324,0.013523,0.002678,0.000431,0.000823
101568000,0.0324,0.013523,0.002678,0.000431,0.000940
101569000,0.0324,0.013523,0.002678,0.000431,0.000823
101570000,0.0324,0.013523,0.002678,0.000431,0.000940
101571000,0.0324,0.013523,0.002678,0.000431,0.000823
101572000,0.0324,0.013523,0.002678,0.000431,0.000940
101573000,0.0324,0.013523,0.002678,0.000431,0.000823
101574000,0.0324,0.013523,0.002678,0.000431,0.000823
101575000,0.0324,0.013523,0.002678,0.000431,0.000940
101576000,0.0324,0.013523,0.002678,0.000431,0.000940
101577000,0.0324,0.013523,0.002678,0.000431,0.000823
101578000,0.0324,0.013523,0.002678,0.000431,0.000823
101579000,0.0324,0.013523,0.002678,0.000431,0.000940
101580000,0.0324,0.013523,0.002678,0.000431,0.000940
101581000,0.0324,0.013523,0.002678,0.000431,0.000823
101582000,0.0324,0.013523,0.002678,0.000431,0.000823
101583000,0.0324,0.013523,0.002678,0.000431,0.000940
101584000,0.0324,0.013523,0.002678,0.000431,0.000823
101585000,0.0324,0.013523,0.002678,0.000431,0.000940
101586000,0.0324,0.013523,0.002678,0.000431,0.000823
101587000,0.0324,0.013523,0.002678,0.000431,0.000940
101588000,0.0324,0.013523,0.002678,0.000431,0.000823
101589000,0.0324,0.013523,0.002678,0.000431,0.000823
101590000,0.0324,0.013523,0.002678,0.000431,0.000940
101591000,0.0324,0.013523,0.002678,0.000431,0.000940
101592000,0.0324,0.013523,0.002678,0.000431,0.000823
101593000,0.0324,0.013523,0.002678,0.000431,0.000823
101594000,0.0324,0.013523,0.002678,0.000431,0.000940
101595000,0.0324,0.013523,0.002678,0.000431,0.000940
101596000,0.0324,0.013523,0.002678,0.000431,0.000705
101597000,0.0324,0.013523,0.002678,0.000431,0.000940
101598000,0.0324,0.013523,0.002678,0.000431,0.000940
101599000,0.0324,0.013523,0.002678,0.000431,0.000940
101600000,0.0324,0.013523,0.002678,0.000431,0.000705
101601000,0.0324,0.013523,0.002678,0.000431,0.000940
101602000,0.0324,0.013523,0.002678,0.000431,0.013868
101603000,0.0324,0.013523,0.002678,0.000431,0.485039
101604000,0.0324,0.013523,0.002678,0.000431,0.608326
101605000,0.0324,0.013523,0.002678,0.000431,0.132572
101606000,0.0324,0.013523,0.002678,0.000431,0.133042
101607000,0.0324,0.013523,0.002678,0.000431,0.278777
101608000,0.0324,0.013523,0.002678,0.000431,0.527819
101609000,0.0324,0.013523,0.002678,0.000431,0.236467
101610000,0.0324,0.013523,0.002678,0.000431,0.235997
101611000,0.0324,0.013523,0.002678,0.000431,0.192511
101612000,0.0324,0.013523,0.002678,0.000431,0.135745
101613000,0.0324,0.013523,0.002678,0.000431,0.188280
101614000,0.0324,0.013523,0.002678,0.000431,0.089792
101615000,0.0324,0.013523,0.002678,0.000431,0.471523
101616000,0.0324,0.013523,0.002678,0.000431,0.149731
101617000,0.0324,0.013523,0.002678,0.000431,0.093552
101618000,0.0324,0.013523,0.002678,0.000431,0.077686
101619000,0.0324,0.013523,0.002678,0.000431,0.072867
101620000,0.0324,0.013523,0.002678,0.000431,0.059117
101621000,0.0324,0.013523,0.002678,0.000431,0.060409
101622000,0.0324,0.013523,0.002678,0.000431,0.039137
101623000,0.0324,0.013523,0.002678,0.000431,0.039725
101624000,0.0324,0.013523,0.002678,0.000431,0.029382
101625000,0.0324,0.013523,0.002678,0.000431,0.026444
101626000,0.0324,0.013523,0.002678,0.000431,0.023271
101627000,0.0324,0.013523,0.002678,0.000431,0.023036
101628000,0.0324,0.013523,0.002678,0.000431,0.026444
101629000,0.0324,0.013523,0.002678,0.000431,0.023036
101630000,0.0324,0.013523,0.002678,0.000431,0.018922
101631000,0.0324,0.013523,0.002678,0.000431,0.021743
101632000,0.0324,0.013523,0.002678,0.000431,0.015396
101633000,0.0324,0.013523,0.002678,0.000431,0.014221
101634000,0.0324,0.013523,0.002678,0.000431,0.014809
101635000,0.0324,0.013523,0.002678,0.000431,0.016454
101636000,0.0324,0.013523,0.002678,0.000431,0.015279
101637000,0.0324,0.013523,0.002678,0.000431,0.013398
101638000,0.0324,0.013523,0.002678,0.000431,0.013398
101639000,0.0324,0.013523,0.002678,0.000431,0.011753
101640000,0.0324,0.013523,0.002678,0.000431,0.012928
101641000,0.0324,0.013523,0.002678,0.000431,0.012458
101642000,0.0324,0.013523,0.002678,0.000431,0.013398
101643000,0.0324,0.013523,0.002678,0.000431,0.010930
101644000,0.0324,0.013523,0.002678,0.000431,0.011400
101645000,0.0324,0.013523,0.002678,0.000431,0.010342
101646000,0.0324,0.013523,0.002678,0.000431,0.012340
101647000,0.0324,0.013523,0.002678,0.000431,0.009520
101648000,0.0324,0.013523,0.002678,0.000431,0.010578
101649000,0.0324,0.013523,0.002678,0.000431,0.009050
101650000,0.0324,0.013523,0.002678,0.000431,0.007052
101651000,0.0324,0.013523,0.002678,0.000431,0.006582
101652000,0.0324,0.013523,0.002678,0.000431,0.008932
101653000,0.0324,0.013523,0.002678,0.000431,0.005641
101654000,0.0324,0.013523,0.002678,0.000431,0.005876
101655000,0.0324,0.013523,0.002678,0.000431,0.005994
101656000,0.0324,0.013523,0.002678,0.000431,0.006111
101657000,0.0324,0.013523,0.002678,0.000431,0.005759
101658000,0.0324,0.013523,0.002678,0.000431,0.005876
101659000,0.0324,0.013523,0.002678,0.000431,0.005759
101660000,0.0324,0.013523,0.002678,0.000431,0.005994
101661000,0.0324,0.013523,0.002678,0.000431,0.006111
101662000,0.0324,0.013523,0.002678,0.000431,0.005524
101663000,0.0324,0.013523,0.002678,0.000431,0.006229
101664000,0.0324,0.013523,0.002678,0.000431,0.008109
101665000,0.0324,0.013523,0.002678,0.000431,0.004584
101666000,0.0324,0.013523,0.002678,0.000431,0.005406
101667000,0.0324,0.013523,0.002678,0.000431,0.004819
101668000,0.0324,0.013523,0.002678,0.000431,0.005171
101669000,0.0324,0.013523,0.002678,0.000431,0.005289
101670000,0.0324,0.013523,0.002678,0.000431,0.004701
101671000,0.0324,0.013523,0.002678,0.000431,0.006699
101672000,0.0324,0.013523,0.002678,0.000431,0.003996
101673000,0.0324,0.013523,0.002678,0.000431,0.004231
101674000,0.0324,0.013523,0.002678,0.000431,0.004349
101675000,0.0324,0.013523,0.002678,0.000431,0.004349
101676000,0.0324,0.013523,0.002678,0.000431,0.003996
101677000,0.0324,0.013523,0.002678,0.000431,0.004113
101678000,0.0324,0.013523,0.002678,0.000431,0.003761
101679000,0.0324,0.013523,0.002678,0.000431,0.004466
101680000,0.0324,0.013523,0.002678,0.000431,0.004349
101681000,0.0324,0.013523,0.002678,0.000431,0.003996
101682000,0.0324,0.013523,0.002678,0.000431,0.003996
101683000,0.0324,0.013523,0.002678,0.000431,0.003996
101684000,0.0324,0.013523,0.002678,0.000431,0.004231
101685000,0.0324,0.013523,0.002678,0.000431,0.004349
101686000,0.0324,0.013523,0.002678,0.000431,0.003996
101687000,0.0324,0.013523,0.002678,0.000431,0.004231
101688000,0.0324,0.013523,0.002678,0.000431,0.003761
101689000,0.0324,0.013523,0.002678,0.000431,0.004231
101690000,0.0324,0.013523,0.002678,0.000431,0.004349
101691000,0.0324,0.013523,0.002678,0.000431,0.004113
101692000,0.0324,0.013523,0.002678,0.000431,0.003996
101693000,0.0324,0.013523,0.002678,0.000431,0.004113
101694000,0.0324,0.013523,0.002678,0.000431,0.004113
101695000,0.0324,0.013523,0.002678,0.000431,0.004113
101696000,0.0324,0.013523,0.002678,0.000431,0.004231
101697000,0.0324,0.013523,0.002678,0.000431,0.006464
101698000,0.0324,0.013523,0.002678,0.000431,0.003996
101699000,0.0324,0.013523,0.002678,0.000431,0.003526
101700000,0.0324,0.013523,0.002678,0.000431,0.002468
101701000,0.0324,0.013523,0.002678,0.000431,0.002586
101702000,0.0324,0.013523,0.002678,0.000431,0.002468
101703000,0.0324,0.013523,0.002678,0.000431,0.002233
101704000,0.0324,0.013523,0.002678,0.000431,0.002116
101705000,0.0324,0.013523,0.002678,0.000431,0.001880
101706000,0.0324,0.013523,0.002678,0.000431,0.001763
101707000,0.0324,0.013523,0.002678,0.000431,0.001763
101708000,0.0324,0.013523,0.002678,0.000431,0.001645
101709000,0.0324,0.013523,0.002678,0.000431,0.001645
101710000,0.0324,0.013523,0.002678,0.000431,0.001763
101711000,0.0324,0.013523,0.002678,0.000431,0.001763
101712000,0.0324,0.013523,0.002678,0.000431,0.001528
101713000,0.0324,0.013523,0.002678,0.000431,0.001880
101714000,0.0324,0.013523,0.002678,0.000431,0.001645
101715000,0.0324,0.013523,0.002678,0.000431,0.001880
101716000,0.0324,0.013523,0.002678,0.000431,0.001528
101717000,0.0324,0.013523,0.002678,0.000431,0.002821
101718000,0.0324,0.013523,0.002678,0.000431,0.001880
101719000,0.0324,0.013523,0.002678,0.000431,0.000940
101720000,0.0324,0.013523,0.002678,0.000431,0.000940
101721000,0.0324,0.013523,0.002678,0.000431,0.000705
101722000,0.0324,0.013523,0.002678,0.000431,0.000940
101723000,0.0324,0.013523,0.002678,0.000431,0.000705
101724000,0.0324,0.013523,0.002678,0.000431,0.000940
101725000,0.0324,0.013523,0.002678,0.000431,0.000823
101726000,0.0324,0.013523,0.002678,0.000431,0.000823
101727000,0.0324,0.013523,0.002678,0.000431,0.000940
101728000,0.0324,0.013523,0.002678,0.000431,0.000705
101729000,0.0324,0.013523,0.002678,0.000431,0.000940
101730000,0.0324,0.013523,0.002678,0.000431,0.000823
101731000,0.0324,0.013523,0.002678,0.000431,0.000823
101732000,0.0324,0.013523,0.002678,0.000431,0.000823
101733000,0.0324,0.013523,0.002678,0.000431,0.000823
101734000,0.0324,0.013523,0.002678,0.000431,0.000823
101735000,0.0324,0.013523,0.002678,0.000431,0.000823
101736000,0.0324,0.013523,0.002678,0.000431,0.000705
101737000,0.0324,0.013523,0.002678,0.000431,0.000823
101738000,0.0324,0.013523,0.002678,0.000431,0.000823
101739000,0.0324,0.013523,0.002678,0.000431,0.000940
101740000,0.0324,0.013523,0.002678,0.000431,0.000823
101741000,0.0324,0.013523,0.002678,0.000431,0.000823
101742000,0.0324,0.013523,0.002678,0.000431,0.000940
101743000,0.0324,0.013523,0.002678,0.000431,0.000823
101744000,0.0324,0.013523,0.002678,0.000431,0.079332
101745000,0.0324,0.013523,0.002678,0.000431,0.574713
101746000,0.0324,0.013523,0.002678,0.000431,0.556849
101747000,0.0324,0.013523,0.002678,0.000431,0.133982
101748000,0.0324,0.013523,0.002678,0.000431,0.132102
101749000,0.0324,0.013523,0.002678,0.000431,0.570012
101750000,0.0324,0.013523,0.002678,0.000431,0.273253
101751000,0.0324,0.013523,0.002678,0.000431,0.247044
101752000,0.0324,0.013523,0.002678,0.000431,0.319912
101753000,0.0324,0.013523,0.002678,0.000431,0.143619
101754000,0.0324,0.013523,0.002678,0.000431,0.169123
101755000,0.0324,0.013523,0.002678,0.000431,0.094493
101756000,0.0324,0.013523,0.002678,0.000431,0.471406
101757000,0.0324,0.013523,0.002678,0.000431,0.109066
101758000,0.0324,0.013523,0.002678,0.000431,0.078744
101759000,0.0324,0.013523,0.002678,0.000431,0.071457
101760000,0.0324,0.013523,0.002678,0.000431,0.050772
101761000,0.0324,0.013523,0.002678,0.000431,0.048539
101762000,0.0324,0.013523,0.002678,0.000431,0.044778
101763000,0.0324,0.013523,0.002678,0.000431,0.044426
101764000,0.0324,0.013523,0.002678,0.000431,0.037844
101765000,0.0324,0.013523,0.002678,0.000431,0.035494
101766000,0.0324,0.013523,0.002678,0.000431,0.036199
101767000,0.0324,0.013523,0.002678,0.000431,0.033260
101768000,0.0324,0.013523,0.002678,0.000431,0.029617
101769000,0.0324,0.013523,0.002678,0.000431,0.020802
101770000,0.0324,0.013523,0.002678,0.000431,0.021155
101771000,0.0324,0.013523,0.002678,0.000431,0.020450
101772000,0.0324,0.013523,0.002678,0.000431,0.018569
101773000,0.0324,0.013523,0.002678,0.000431,0.015984
101774000,0.0324,0.013523,0.002678,0.000431,0.015396
101775000,0.0324,0.013523,0.002678,0.000431,0.014456
101776000,0.0324,0.013523,0.002678,0.000431,0.014103
101777000,0.0324,0.013523,0.002678,0.000431,0.011283
101778000,0.0324,0.013523,0.002678,0.000431,0.011400
101779000,0.0324,0.013523,0.002678,0.000431,0.010107
101780000,0.0324,0.013523,0.002678,0.000431,0.010460
101781000,0.0324,0.013523,0.002678,0.000431,0.010695
101782000,0.0324,0.013523,0.002678,0.000431,0.011165
101783000,0.0324,0.013523,0.002678,0.000431,0.010225
101784000,0.0324,0.013523,0.002678,0.000431,0.010578
101785000,0.0324,0.013523,0.002678,0.000431,0.012811
101786000,0.0324,0.013523,0.002678,0.000431,0.009050
101787000,0.0324,0.013523,0.002678,0.000431,0.009990
101788000,0.0324,0.013523,0.002678,0.000431,0.009050
101789000,0.0324,0.013523,0.002678,0.000431,0.005994
101790000,0.0324,0.013523,0.002678,0.000431,0.005994
101791000,0.0324,0.013523,0.002678,0.000431,0.006347
101792000,0.0324,0.013523,0.002678,0.000431,0.007639
101793000,0.0324,0.013523,0.002678,0.000431,0.004701
101794000,0.0324,0.013523,0.002678,0.000431,0.005171
101795000,0.0324,0.013523,0.002678,0.000431,0.005054
101796000,0.0324,0.013523,0.002678,0.000431,0.004701
101797000,0.0324,0.013523,0.002678,0.000431,0.002938
101798000,0.0324,0.013523,0.002678,0.000431,0.004231
101799000,0.0324,0.013523,0.002678,0.000431,0.004701
101800000,0.0324,0.013523,0.002678,0.000431,0.001880
101801000,0.0324,0.013523,0.002678,0.000431,0.001410
101802000,0.0324,0.013523,0.002678,0.000431,0.001645
101803000,0.0324,0.013523,0.002678,0.000431,0.001293
101804000,0.0324,0.013523,0.002678,0.000431,0.001763
101805000,0.0324,0.013523,0.002678,0.000431,0.001880
101806000,0.0324,0.013523,0.002678,0.000431,0.001175
101807000,0.0324,0.013523,0.002678,0.000431,0.001880
101808000,0.0324,0.013523,0.002678,0.000431,0.001293
101809000,0.0324,0.013523,0.002678,0.000431,0.001763
101810000,0.0324,0.013523,0.002678,0.000431,0.001645
101811000,0.0324,0.013523,0.002678,0.000431,0.001410
101812000,0.0324,0.013523,0.002678,0.000431,0.001645
101813000,0.0324,0.013523,0.002678,0.000431,0.001528
101814000,0.0324,0.013523,0.002678,0.000431,0.001293
101815000,0.0324,0.013523,0.002678,0.000431,0.001410
101816000,0.0324,0.013523,0.002678,0.000431,0.071692
101817000,0.0324,0.013523,0.002678,0.000431,0.534518
101818000,0.0324,0.013523,0.002678,0.000431,0.548269
101819000,0.0324,0.013523,0.002678,0.000431,0.132102
101820000,0.0324,0.013523,0.002678,0.000431,0.133982
101821000,0.0324,0.013523,0.002678,0.000431,0.580589
101822000,0.0324,0.013523,0.002678,0.000431,0.274076
101823000,0.0324,0.013523,0.002678,0.000431,0.228945
101824000,0.0324,0.013523,0.002678,0.000431,0.297346
101825000,0.0324,0.013523,0.002678,0.000431,0.143032
101826000,0.0324,0.013523,0.002678,0.000431,0.146793
101827000,0.0324,0.013523,0.002678,0.000431,0.105775
101828000,0.0324,0.013523,0.002678,0.000431,0.421456
101829000,0.0324,0.013523,0.002678,0.000431,0.196390
101830000,0.0324,0.013523,0.002678,0.000431,0.095668
101831000,0.0324,0.013523,0.002678,0.000431,0.085561
101832000,0.0324,0.013523,0.002678,0.000431,0.068989
101833000,0.0324,0.013523,0.002678,0.000431,0.062760
101834000,0.0324,0.013523,0.002678,0.000431,0.066051
101835000,0.0324,0.013523,0.002678,0.000431,0.051360
101836000,0.0324,0.013523,0.002678,0.000431,0.041605
101837000,0.0324,0.013523,0.002678,0.000431,0.041723
101838000,0.0324,0.013523,0.002678,0.000431,0.038902
101839000,0.0324,0.013523,0.002678,0.000431,0.031850
101840000,0.0324,0.013523,0.002678,0.000431,0.033496
101841000,0.0324,0.013523,0.002678,0.000431,0.030087
101842000,0.0324,0.013523,0.002678,0.000431,0.025739
101843000,0.0324,0.013523,0.002678,0.000431,0.027267
101844000,0.0324,0.013523,0.002678,0.000431,0.032438
101845000,0.0324,0.013523,0.002678,0.000431,0.019157
101846000,0.0324,0.013523,0.002678,0.000431,0.016336
101847000,0.0324,0.013523,0.002678,0.000431,0.014926
101848000,0.0324,0.013523,0.002678,0.000431,0.016219
101849000,0.0324,0.013523,0.002678,0.000431,0.019157
101850000,0.0324,0.013523,0.002678,0.000431,0.013281
101851000,0.0324,0.013523,0.002678,0.000431,0.013516
101852000,0.0324,0.013523,0.002678,0.000431,0.013281
101853000,0.0324,0.013523,0.002678,0.000431,0.014926
101854000,0.0324,0.013523,0.002678,0.000431,0.012693
101855000,0.0324,0.013523,0.002678,0.000431,0.011518
101856000,0.0324,0.013523,0.002678,0.000431,0.013398
101857000,0.0324,0.013523,0.002678,0.000431,0.012105
101858000,0.0324,0.013523,0.002678,0.000431,0.012340
101859000,0.0324,0.013523,0.002678,0.000431,0.012105
101860000,0.0324,0.013523,0.002678,0.000431,0.012105
101861000,0.0324,0.013523,0.002678,0.000431,0.012223
101862000,0.0324,0.013523,0.002678,0.000431,0.014456
101863000,0.0324,0.013523,0.002678,0.000431,0.010578
101864000,0.0324,0.013523,0.002678,0.000431,0.008462
101865000,0.0324,0.013523,0.002678,0.000431,0.007992
101866000,0.0324,0.013523,0.002678,0.000431,0.009285
101867000,0.0324,0.013523,0.002678,0.000431,0.008345
101868000,0.0324,0.013523,0.002678,0.000431,0.008109
101869000,0.0324,0.013523,0.002678,0.000431,0.007404
101870000,0.0324,0.013523,0.002678,0.000431,0.009990
101871000,0.0324,0.013523,0.002678,0.000431,0.007052
101872000,0.0324,0.013523,0.002678,0.000431,0.003761
101873000,0.0324,0.013523,0.002678,0.000431,0.004584
101874000,0.0324,0.013523,0.002678,0.000431,0.003878
101875000,0.0324,0.013523,0.002678,0.000431,0.004466
101876000,0.0324,0.013523,0.002678,0.000431,0.003878
101877000,0.0324,0.013523,0.002678,0.000431,0.004349
101878000,0.0324,0.013523,0.002678,0.000431,0.004349
101879000,0.0324,0.013523,0.002678,0.000431,0.003643
101880000,0.0324,0.013523,0.002678,0.000431,0.004584
101881000,0.0324,0.013523,0.002678,0.000431,0.004113
101882000,0.0324,0.013523,0.002678,0.000431,0.004231
101883000,0.0324,0.013523,0.002678,0.000431,0.003761
101884000,0.0324,0.013523,0.002678,0.000431,0.005759
101885000,0.0324,0.013523,0.002678,0.000431,0.005054
101886000,0.0324,0.013523,0.002678,0.000431,0.003173
101887000,0.0324,0.013523,0.002678,0.000431,0.003408
101888000,0.0324,0.013523,0.002678,0.000431,0.003291
101889000,0.0324,0.013523,0.002678,0.000431,0.003408
101890000,0.0324,0.013523,0.002678,0.000431,0.003056
101891000,0.0324,0.013523,0.002678,0.000431,0.003408
101892000,0.0324,0.013523,0.002678,0.000431,0.003408
101893000,0.0324,0.013523,0.002678,0.000431,0.003291
101894000,0.0324,0.013523,0.002678,0.000431,0.003291
101895000,0.0324,0.013523,0.002678,0.000431,0.003878
101896000,0.0324,0.013523,0.002678,0.000431,0.001763
101897000,0.0324,0.013523,0.002678,0.000431,0.001645
101898000,0.0324,0.013523,0.002678,0.000431,0.001645
101899000,0.0324,0.013523,0.002678,0.000431,0.001528
101900000,0.0324,0.013523,0.002678,0.000431,0.001763
101901000,0.0324,0.013523,0.002678,0.000431,0.001880
101902000,0.0324,0.013523,0.002678,0.000431,0.001528
101903000,0.0324,0.013523,0.002678,0.000431,0.001763
101904000,0.0324,0.013523,0.002678,0.000431,0.001410
101905000,0.0324,0.013523,0.002678,0.000431,0.001880
101906000,0.0324,0.013523,0.002678,0.000431,0.001763
101907000,0.0324,0.013523,0.002678,0.000431,0.001528
101908000,0.0324,0.013523,0.002678,0.000431,0.001880
101909000,0.0324,0.013523,0.002678,0.000431,0.001410
101910000,0.0324,0.013523,0.002678,0.000431,0.001880
101911000,0.0324,0.013523,0.002678,0.000431,0.001528
101912000,0.0324,0.013523,0.002678,0.000431,0.004231
101913000,0.0324,0.013523,0.002678,0.000431,0.000940
101914000,0.0324,0.013523,0.002678,0.000431,0.000705
101915000,0.0324,0.013523,0.002678,0.000431,0.000940
101916000,0.0324,0.013523,0.002678,0.000431,0.000823
101917000,0.0324,0.013523,0.002678,0.000431,0.000823
101918000,0.0324,0.013523,0.002678,0.000431,0.000823
101919000,0.0324,0.013523,0.002678,0.000431,0.000823
101920000,0.0324,0.013523,0.002678,0.000431,0.000823
101921000,0.0324,0.013523,0.002678,0.000431,0.000823
101922000,0.0324,0.013523,0.002678,0.000431,0.000940
101923000,0.0324,0.013523,0.002678,0.000431,0.000705
101924000,0.0324,0.013523,0.002678,0.000431,0.000823
101925000,0.0324,0.013523,0.002678,0.000431,0.000940
101926000,0.0324,0.013523,0.002678,0.000431,0.000823
101927000,0.0324,0.013523,0.002678,0.000431,0.000823
101928000,0.0324,0.013523,0.002678,0.000431,0.000823
101929000,0.0324,0.013523,0.002678,0.000431,0.000823
101930000,0.0324,0.013523,0.002678,0.000431,0.000823
101931000,0.0324,0.013523,0.002678,0.000431,0.000940
101932000,0.0324,0.013523,0.002678,0.000431,0.000823
101933000,0.0324,0.013523,0.002678,0.000431,0.000823
101934000,0.0324,0.013523,0.002678,0.000431,0.000705
101935000,0.0324,0.013523,0.002678,0.000431,0.000940
101936000,0.0324,0.013523,0.002678,0.000431,0.000940
101937000,0.0324,0.013523,0.002678,0.000431,0.000705
101938000,0.0324,0.013523,0.002678,0.000431,0.000940
101939000,0.0324,0.013523,0.002678,0.000431,0.000705
101940000,0.0324,0.013523,0.002678,0.000431,0.000940
101941000,0.0324,0.013523,0.002678,0.000431,0.000940
101942000,0.0324,0.013523,0.002678,0.000431,0.000705
101943000,0.0324,0.013523,0.002678,0.000431,0.000940
101944000,0.0324,0.013523,0.002678,0.000431,0.000705
101945000,0.0324,0.013523,0.002678,0.000431,0.000940
101946000,0.0324,0.013523,0.002678,0.000431,0.000823
101947000,0.0324,0.013523,0.002678,0.000431,0.000823
101948000,0.0324,0.013523,0.002678,0.000431,0.000823
101949000,0.0324,0.013523,0.002678,0.000431,0.000823
101950000,0.0324,0.013523,0.002678,0.000431,0.000940
101951000,0.0324,0.013523,0.002678,0.000431,0.000705
101952000,0.0324,0.013523,0.002678,0.000431,0.000940
101953000,0.0324,0.013523,0.002678,0.000431,0.000823
101954000,0.0324,0.013523,0.002678,0.000431,0.000823
101955000,0.0324,0.013523,0.002678,0.000431,0.000823
101956000,0.0324,0.013523,0.002678,0.000431,0.000823
101957000,0.0324,0.013523,0.002678,0.000431,0.000940
101958000,0.0324,0.013523,0.002678,0.000431,0.000705
101959000,0.0324,0.013523,0.002678,0.000431,0.000940
101960000,0.0324,0.013523,0.002678,0.000431,0.000823
101961000,0.0324,0.013523,0.002678,0.000431,0.000823
101962000,0.0324,0.013523,0.002678,0.000431,0.000705
101963000,0.0324,0.013523,0.002678,0.000431,0.000940
101964000,0.0324,0.013523,0.002678,0.000431,0.000940
101965000,0.0324,0.013523,0.002678,0.000431,0.000705
101966000,0.0324,0.013523,0.002678,0.000431,0.000940
101967000,0.0324,0.013523,0.002678,0.000431,0.013751
101968000,0.0324,0.013523,0.002678,0.000431,0.538162
101969000,0.0324,0.013523,0.002678,0.000431,0.588111
101970000,0.0324,0.013523,0.002678,0.000431,0.133982
101971000,0.0324,0.013523,0.002678,0.000431,0.131632
101972000,0.0324,0.013523,0.002678,0.000431,0.495146
101973000,0.0324,0.013523,0.002678,0.000431,0.315446
101974000,0.0324,0.013523,0.002678,0.000431,0.305338
101975000,0.0324,0.013523,0.002678,0.000431,0.334133
101976000,0.0324,0.013523,0.002678,0.000431,0.137155
101977000,0.0324,0.013523,0.002678,0.000431,0.177350
101978000,0.0324,0.013523,0.002678,0.000431,0.082857
101979000,0.0324,0.013523,0.002678,0.000431,0.494559
101980000,0.0324,0.013523,0.002678,0.000431,0.121994
101981000,0.0324,0.013523,0.002678,0.000431,0.095785
101982000,0.0324,0.013523,0.002678,0.000431,0.076746
101983000,0.0324,0.013523,0.002678,0.000431,0.062290
101984000,0.0324,0.013523,0.002678,0.000431,0.064053
101985000,0.0324,0.013523,0.002678,0.000431,0.056061
101986000,0.0324,0.013523,0.002678,0.000431,0.047246
101987000,0.0324,0.013523,0.002678,0.000431,0.044308
101988000,0.0324,0.013523,0.002678,0.000431,0.044308
101989000,0.0324,0.013523,0.002678,0.000431,0.045248
101990000,0.0324,0.013523,0.002678,0.000431,0.034436
101991000,0.0324,0.013523,0.002678,0.000431,0.031027
101992000,0.0324,0.013523,0.002678,0.000431,0.030322
101993000,0.0324,0.013523,0.002678,0.000431,0.024446
101994000,0.0324,0.013523,0.002678,0.000431,0.016454
101995000,0.0324,0.013523,0.002678,0.000431,0.018805
101996000,0.0324,0.013523,0.002678,0.000431,0.015396
101997000,0.0324,0.013523,0.002678,0.000431,0.014926
101998000,0.0324,0.013523,0.002678,0.000431,0.010578
101999000,0.0324,0.013523,0.002678,0.000431,0.010695
