Cycle,Area(mm^2),PeakDynamic(W),SubthresholdLeakage(W),GateLeakage(W),RunTimeDynamic(W)
84000000,0.0324,0.013523,0.002678,0.000431,0.610794
84001000,0.0324,0.013523,0.002678,0.000431,0.134452
84002000,0.0324,0.013523,0.002678,0.000431,0.130809
84003000,0.0324,0.013523,0.002678,0.000431,0.345063
84004000,0.0324,0.013523,0.002678,0.000431,0.448017
84005000,0.0324,0.013523,0.002678,0.000431,0.228240
84006000,0.0324,0.013523,0.002678,0.000431,0.305456
84007000,0.0324,0.013523,0.002678,0.000431,0.169241
84008000,0.0324,0.013523,0.002678,0.000431,0.149261
84009000,0.0324,0.013523,0.002678,0.000431,0.129281
84010000,0.0324,0.013523,0.002678,0.000431,0.255506
84011000,0.0324,0.013523,0.002678,0.000431,0.350234
84012000,0.0324,0.013523,0.002678,0.000431,0.066991
84013000,0.0324,0.013523,0.002678,0.000431,0.045836
84014000,0.0324,0.013523,0.002678,0.000431,0.043720
84015000,0.0324,0.013523,0.002678,0.000431,0.038079
84016000,0.0324,0.013523,0.002678,0.000431,0.034671
84017000,0.0324,0.013523,0.002678,0.000431,0.031498
84018000,0.0324,0.013523,0.002678,0.000431,0.034671
84019000,0.0324,0.013523,0.002678,0.000431,0.024916
84020000,0.0324,0.013523,0.002678,0.000431,0.022565
84021000,0.0324,0.013523,0.002678,0.000431,0.017864
84022000,0.0324,0.013523,0.002678,0.000431,0.017512
84023000,0.0324,0.013523,0.002678,0.000431,0.012928
84024000,0.0324,0.013523,0.002678,0.000431,0.012576
84025000,0.0324,0.013523,0.002678,0.000431,0.012811
84026000,0.0324,0.013523,0.002678,0.000431,0.014573
84027000,0.0324,0.013523,0.002678,0.000431,0.012811
84028000,0.0324,0.013523,0.002678,0.000431,0.010460
84029000,0.0324,0.013523,0.002678,0.000431,0.011400
84030000,0.0324,0.013523,0.002678,0.000431,0.011400
84031000,0.0324,0.013523,0.002678,0.000431,0.012223
84032000,0.0324,0.013523,0.002678,0.000431,0.009990
84033000,0.0324,0.013523,0.002678,0.000431,0.012693
84034000,0.0324,0.013523,0.002678,0.000431,0.009285
84035000,0.0324,0.013523,0.002678,0.000431,0.007404
84036000,0.0324,0.013523,0.002678,0.000431,0.008109
84037000,0.0324,0.013523,0.002678,0.000431,0.008580
84038000,0.0324,0.013523,0.002678,0.000431,0.007992
84039000,0.0324,0.013523,0.002678,0.000431,0.006817
84040000,0.0324,0.013523,0.002678,0.000431,0.006934
84041000,0.0324,0.013523,0.002678,0.000431,0.006817
84042000,0.0324,0.013523,0.002678,0.000431,0.008815
84043000,0.0324,0.013523,0.002678,0.000431,0.011165
84044000,0.0324,0.013523,0.002678,0.000431,0.004231
84045000,0.0324,0.013523,0.002678,0.000431,0.004349
84046000,0.0324,0.013523,0.002678,0.000431,0.004113
84047000,0.0324,0.013523,0.002678,0.000431,0.004584
84048000,0.0324,0.013523,0.002678,0.000431,0.005406
84049000,0.0324,0.013523,0.002678,0.000431,0.003643
84050000,0.0324,0.013523,0.002678,0.000431,0.003408
84051000,0.0324,0.013523,0.002678,0.000431,0.003408
84052000,0.0324,0.013523,0.002678,0.000431,0.003173
84053000,0.0324,0.013523,0.002678,0.000431,0.003761
84054000,0.0324,0.013523,0.002678,0.000431,0.003526
84055000,0.0324,0.013523,0.002678,0.000431,0.004819
84056000,0.0324,0.013523,0.002678,0.000431,0.002821
84057000,0.0324,0.013523,0.002678,0.000431,0.002233
84058000,0.0324,0.013523,0.002678,0.000431,0.002821
84059000,0.0324,0.013523,0.002678,0.000431,0.002468
84060000,0.0324,0.013523,0.002678,0.000431,0.002586
84061000,0.0324,0.013523,0.002678,0.000431,0.002586
84062000,0.0324,0.013523,0.002678,0.000431,0.002351
84063000,0.0324,0.013523,0.002678,0.000431,0.002821
84064000,0.0324,0.013523,0.002678,0.000431,0.002351
84065000,0.0324,0.013523,0.002678,0.000431,0.002821
84066000,0.0324,0.013523,0.002678,0.000431,0.002351
84067000,0.0324,0.013523,0.002678,0.000431,0.002586
84068000,0.0324,0.013523,0.002678,0.000431,0.002586
84069000,0.0324,0.013523,0.002678,0.000431,0.002468
84070000,0.0324,0.013523,0.002678,0.000431,0.002468
84071000,0.0324,0.013523,0.002678,0.000431,0.002586
84072000,0.0324,0.013523,0.002678,0.000431,0.002586
84073000,0.0324,0.013523,0.002678,0.000431,0.002586
84074000,0.0324,0.013523,0.002678,0.000431,0.002586
84075000,0.0324,0.013523,0.002678,0.000431,0.002586
84076000,0.0324,0.013523,0.002678,0.000431,0.002468
84077000,0.0324,0.013523,0.002678,0.000431,0.002351
84078000,0.0324,0.013523,0.002678,0.000431,0.003526
84079000,0.0324,0.013523,0.002678,0.000431,0.003056
84080000,0.0324,0.013523,0.002678,0.000431,0.001410
84081000,0.0324,0.013523,0.002678,0.000431,0.001880
84082000,0.0324,0.013523,0.002678,0.000431,0.001410
84083000,0.0324,0.013523,0.002678,0.000431,0.001880
84084000,0.0324,0.013523,0.002678,0.000431,0.001645
84085000,0.0324,0.013523,0.002678,0.000431,0.001645
84086000,0.0324,0.013523,0.002678,0.000431,0.001880
84087000,0.0324,0.013523,0.002678,0.000431,0.001410
84088000,0.0324,0.013523,0.002678,0.000431,0.001880
84089000,0.0324,0.013523,0.002678,0.000431,0.001645
84090000,0.0324,0.013523,0.002678,0.000431,0.001645
84091000,0.0324,0.013523,0.002678,0.000431,0.001645
84092000,0.0324,0.013523,0.002678,0.000431,0.001645
84093000,0.0324,0.013523,0.002678,0.000431,0.001880
84094000,0.0324,0.013523,0.002678,0.000431,0.001410
84095000,0.0324,0.013523,0.002678,0.000431,0.001880
84096000,0.0324,0.013523,0.002678,0.000431,0.001645
84097000,0.0324,0.013523,0.002678,0.000431,0.001645
84098000,0.0324,0.013523,0.002678,0.000431,0.001645
84099000,0.0324,0.013523,0.002678,0.000431,0.001645
84100000,0.0324,0.013523,0.002678,0.000431,0.001645
84101000,0.0324,0.013523,0.002678,0.000431,0.001645
84102000,0.0324,0.013523,0.002678,0.000431,0.001880
84103000,0.0324,0.013523,0.002678,0.000431,0.001410
84104000,0.0324,0.013523,0.002678,0.000431,0.001880
84105000,0.0324,0.013523,0.002678,0.000431,0.001645
84106000,0.0324,0.013523,0.002678,0.000431,0.001645
84107000,0.0324,0.013523,0.002678,0.000431,0.001645
84108000,0.0324,0.013523,0.002678,0.000431,0.001645
84109000,0.0324,0.013523,0.002678,0.000431,0.001645
84110000,0.0324,0.013523,0.002678,0.000431,0.001645
84111000,0.0324,0.013523,0.002678,0.000431,0.001645
84112000,0.0324,0.013523,0.002678,0.000431,0.001645
84113000,0.0324,0.013523,0.002678,0.000431,0.001645
84114000,0.0324,0.013523,0.002678,0.000431,0.001763
84115000,0.0324,0.013523,0.002678,0.000431,0.001763
84116000,0.0324,0.013523,0.002678,0.000431,0.001645
84117000,0.0324,0.013523,0.002678,0.000431,0.001645
84118000,0.0324,0.013523,0.002678,0.000431,0.001410
84119000,0.0324,0.013523,0.002678,0.000431,0.001880
84120000,0.0324,0.013523,0.002678,0.000431,0.001880
84121000,0.0324,0.013523,0.002678,0.000431,0.001410
84122000,0.0324,0.013523,0.002678,0.000431,0.001880
84123000,0.0324,0.013523,0.002678,0.000431,0.001410
84124000,0.0324,0.013523,0.002678,0.000431,0.001880
84125000,0.0324,0.013523,0.002678,0.000431,0.001880
84126000,0.0324,0.013523,0.002678,0.000431,0.001410
84127000,0.0324,0.013523,0.002678,0.000431,0.001880
84128000,0.0324,0.013523,0.002678,0.000431,0.001410
84129000,0.0324,0.013523,0.002678,0.000431,0.001880
84130000,0.0324,0.013523,0.002678,0.000431,0.001645
84131000,0.0324,0.013523,0.002678,0.000431,0.001645
84132000,0.0324,0.013523,0.002678,0.000431,0.001880
84133000,0.0324,0.013523,0.002678,0.000431,0.001410
84134000,0.0324,0.013523,0.002678,0.000431,0.001880
84135000,0.0324,0.013523,0.002678,0.000431,0.001645
84136000,0.0324,0.013523,0.002678,0.000431,0.001645
84137000,0.0324,0.013523,0.002678,0.000431,0.001645
84138000,0.0324,0.013523,0.002678,0.000431,0.001645
84139000,0.0324,0.013523,0.002678,0.000431,0.001645
84140000,0.0324,0.013523,0.002678,0.000431,0.001645
84141000,0.0324,0.013523,0.002678,0.000431,0.001880
84142000,0.0324,0.013523,0.002678,0.000431,0.001645
84143000,0.0324,0.013523,0.002678,0.000431,0.001645
84144000,0.0324,0.013523,0.002678,0.000431,0.001645
84145000,0.0324,0.013523,0.002678,0.000431,0.001645
84146000,0.0324,0.013523,0.002678,0.000431,0.001645
84147000,0.0324,0.013523,0.002678,0.000431,0.001645
84148000,0.0324,0.013523,0.002678,0.000431,0.001880
84149000,0.0324,0.013523,0.002678,0.000431,0.001410
84150000,0.0324,0.013523,0.002678,0.000431,0.001880
84151000,0.0324,0.013523,0.002678,0.000431,0.001410
84152000,0.0324,0.013523,0.002678,0.000431,0.001880
84153000,0.0324,0.013523,0.002678,0.000431,0.001880
84154000,0.0324,0.013523,0.002678,0.000431,0.001410
84155000,0.0324,0.013523,0.002678,0.000431,0.001880
84156000,0.0324,0.013523,0.002678,0.000431,0.001410
84157000,0.0324,0.013523,0.002678,0.000431,0.001880
84158000,0.0324,0.013523,0.002678,0.000431,0.001645
84159000,0.0324,0.013523,0.002678,0.000431,0.001645
84160000,0.0324,0.013523,0.002678,0.000431,0.001645
84161000,0.0324,0.013523,0.002678,0.000431,0.001645
84162000,0.0324,0.013523,0.002678,0.000431,0.001880
84163000,0.0324,0.013523,0.002678,0.000431,0.001410
84164000,0.0324,0.013523,0.002678,0.000431,0.001880
84165000,0.0324,0.013523,0.002678,0.000431,0.001645
84166000,0.0324,0.013523,0.002678,0.000431,0.001645
84167000,0.0324,0.013523,0.002678,0.000431,0.001645
84168000,0.0324,0.013523,0.002678,0.000431,0.001645
84169000,0.0324,0.013523,0.002678,0.000431,0.001645
84170000,0.0324,0.013523,0.002678,0.000431,0.001645
84171000,0.0324,0.013523,0.002678,0.000431,0.001645
84172000,0.0324,0.013523,0.002678,0.000431,0.001645
84173000,0.0324,0.013523,0.002678,0.000431,0.001880
84174000,0.0324,0.013523,0.002678,0.000431,0.001645
84175000,0.0324,0.013523,0.002678,0.000431,0.001645
84176000,0.0324,0.013523,0.002678,0.000431,0.001410
84177000,0.0324,0.013523,0.002678,0.000431,0.001880
84178000,0.0324,0.013523,0.002678,0.000431,0.001880
84179000,0.0324,0.013523,0.002678,0.000431,0.001410
84180000,0.0324,0.013523,0.002678,0.000431,0.001880
84181000,0.0324,0.013523,0.002678,0.000431,0.001410
84182000,0.0324,0.013523,0.002678,0.000431,0.068636
84183000,0.0324,0.013523,0.002678,0.000431,0.487859
84184000,0.0324,0.013523,0.002678,0.000431,0.588581
84185000,0.0324,0.013523,0.002678,0.000431,0.133042
84186000,0.0324,0.013523,0.002678,0.000431,0.133042
84187000,0.0324,0.013523,0.002678,0.000431,0.560492
84188000,0.0324,0.013523,0.002678,0.000431,0.236937
84189000,0.0324,0.013523,0.002678,0.000431,0.279012
84190000,0.0324,0.013523,0.002678,0.000431,0.322732
84191000,0.0324,0.013523,0.002678,0.000431,0.143737
84192000,0.0324,0.013523,0.002678,0.000431,0.142209
84193000,0.0324,0.013523,0.002678,0.000431,0.110712
84194000,0.0324,0.013523,0.002678,0.000431,0.400889
84195000,0.0324,0.013523,0.002678,0.000431,0.247984
84196000,0.0324,0.013523,0.002678,0.000431,0.090967
84197000,0.0324,0.013523,0.002678,0.000431,0.062995
84198000,0.0324,0.013523,0.002678,0.000431,0.067109
84199000,0.0324,0.013523,0.002678,0.000431,0.053240
84200000,0.0324,0.013523,0.002678,0.000431,0.044896
84201000,0.0324,0.013523,0.002678,0.000431,0.044426
84202000,0.0324,0.013523,0.002678,0.000431,0.039842
84203000,0.0324,0.013523,0.002678,0.000431,0.028207
84204000,0.0324,0.013523,0.002678,0.000431,0.022683
84205000,0.0324,0.013523,0.002678,0.000431,0.020450
84206000,0.0324,0.013523,0.002678,0.000431,0.019392
84207000,0.0324,0.013523,0.002678,0.000431,0.022448
84208000,0.0324,0.013523,0.002678,0.000431,0.021155
84209000,0.0324,0.013523,0.002678,0.000431,0.017629
84210000,0.0324,0.013523,0.002678,0.000431,0.015514
84211000,0.0324,0.013523,0.002678,0.000431,0.013986
84212000,0.0324,0.013523,0.002678,0.000431,0.011048
84213000,0.0324,0.013523,0.002678,0.000431,0.011283
84214000,0.0324,0.013523,0.002678,0.000431,0.014691
84215000,0.0324,0.013523,0.002678,0.000431,0.009167
84216000,0.0324,0.013523,0.002678,0.000431,0.008815
84217000,0.0324,0.013523,0.002678,0.000431,0.009050
84218000,0.0324,0.013523,0.002678,0.000431,0.010342
84219000,0.0324,0.013523,0.002678,0.000431,0.009167
84220000,0.0324,0.013523,0.002678,0.000431,0.007757
84221000,0.0324,0.013523,0.002678,0.000431,0.007052
84222000,0.0324,0.013523,0.002678,0.000431,0.007404
84223000,0.0324,0.013523,0.002678,0.000431,0.007169
84224000,0.0324,0.013523,0.002678,0.000431,0.008462
84225000,0.0324,0.013523,0.002678,0.000431,0.006347
84226000,0.0324,0.013523,0.002678,0.000431,0.006699
84227000,0.0324,0.013523,0.002678,0.000431,0.006464
84228000,0.0324,0.013523,0.002678,0.000431,0.006347
84229000,0.0324,0.013523,0.002678,0.000431,0.006464
84230000,0.0324,0.013523,0.002678,0.000431,0.006817
84231000,0.0324,0.013523,0.002678,0.000431,0.006582
84232000,0.0324,0.013523,0.002678,0.000431,0.006347
84233000,0.0324,0.013523,0.002678,0.000431,0.006347
84234000,0.0324,0.013523,0.002678,0.000431,0.006699
84235000,0.0324,0.013523,0.002678,0.000431,0.008932
84236000,0.0324,0.013523,0.002678,0.000431,0.005876
84237000,0.0324,0.013523,0.002678,0.000431,0.005406
84238000,0.0324,0.013523,0.002678,0.000431,0.005759
84239000,0.0324,0.013523,0.002678,0.000431,0.007757
84240000,0.0324,0.013523,0.002678,0.000431,0.003996
84241000,0.0324,0.013523,0.002678,0.000431,0.004113
84242000,0.0324,0.013523,0.002678,0.000431,0.004466
84243000,0.0324,0.013523,0.002678,0.000431,0.002116
84244000,0.0324,0.013523,0.002678,0.000431,0.002703
84245000,0.0324,0.013523,0.002678,0.000431,0.002586
84246000,0.0324,0.013523,0.002678,0.000431,0.002116
84247000,0.0324,0.013523,0.002678,0.000431,0.002468
84248000,0.0324,0.013523,0.002678,0.000431,0.002586
84249000,0.0324,0.013523,0.002678,0.000431,0.002233
84250000,0.0324,0.013523,0.002678,0.000431,0.002586
84251000,0.0324,0.013523,0.002678,0.000431,0.002351
84252000,0.0324,0.013523,0.002678,0.000431,0.002351
84253000,0.0324,0.013523,0.002678,0.000431,0.002586
84254000,0.0324,0.013523,0.002678,0.000431,0.002351
84255000,0.0324,0.013523,0.002678,0.000431,0.002116
84256000,0.0324,0.013523,0.002678,0.000431,0.002821
84257000,0.0324,0.013523,0.002678,0.000431,0.002351
84258000,0.0324,0.013523,0.002678,0.000431,0.003643
84259000,0.0324,0.013523,0.002678,0.000431,0.001763
84260000,0.0324,0.013523,0.002678,0.000431,0.001293
84261000,0.0324,0.013523,0.002678,0.000431,0.001645
84262000,0.0324,0.013523,0.002678,0.000431,0.001645
84263000,0.0324,0.013523,0.002678,0.000431,0.001410
84264000,0.0324,0.013523,0.002678,0.000431,0.001645
84265000,0.0324,0.013523,0.002678,0.000431,0.001528
84266000,0.0324,0.013523,0.002678,0.000431,0.001528
84267000,0.0324,0.013523,0.002678,0.000431,0.001645
84268000,0.0324,0.013523,0.002678,0.000431,0.001410
84269000,0.0324,0.013523,0.002678,0.000431,0.001645
84270000,0.0324,0.013523,0.002678,0.000431,0.001528
84271000,0.0324,0.013523,0.002678,0.000431,0.001528
84272000,0.0324,0.013523,0.002678,0.000431,0.001645
84273000,0.0324,0.013523,0.002678,0.000431,0.001528
84274000,0.0324,0.013523,0.002678,0.000431,0.001528
84275000,0.0324,0.013523,0.002678,0.000431,0.001645
84276000,0.0324,0.013523,0.002678,0.000431,0.001410
84277000,0.0324,0.013523,0.002678,0.000431,0.001645
84278000,0.0324,0.013523,0.002678,0.000431,0.001645
84279000,0.0324,0.013523,0.002678,0.000431,0.001410
84280000,0.0324,0.013523,0.002678,0.000431,0.001880
84281000,0.0324,0.013523,0.002678,0.000431,0.001410
84282000,0.0324,0.013523,0.002678,0.000431,0.001645
84283000,0.0324,0.013523,0.002678,0.000431,0.001528
84284000,0.0324,0.013523,0.002678,0.000431,0.001528
84285000,0.0324,0.013523,0.002678,0.000431,0.001880
84286000,0.0324,0.013523,0.002678,0.000431,0.001175
84287000,0.0324,0.013523,0.002678,0.000431,0.001880
84288000,0.0324,0.013523,0.002678,0.000431,0.001528
84289000,0.0324,0.013523,0.002678,0.000431,0.001528
84290000,0.0324,0.013523,0.002678,0.000431,0.001645
84291000,0.0324,0.013523,0.002678,0.000431,0.001410
84292000,0.0324,0.013523,0.002678,0.000431,0.001645
84293000,0.0324,0.013523,0.002678,0.000431,0.001528
84294000,0.0324,0.013523,0.002678,0.000431,0.000940
84295000,0.0324,0.013523,0.002678,0.000431,0.000823
84296000,0.0324,0.013523,0.002678,0.000431,0.000823
84297000,0.0324,0.013523,0.002678,0.000431,0.000823
84298000,0.0324,0.013523,0.002678,0.000431,0.000823
84299000,0.0324,0.013523,0.002678,0.000431,0.000940
84300000,0.0324,0.013523,0.002678,0.000431,0.000823
84301000,0.0324,0.013523,0.002678,0.000431,0.000823
84302000,0.0324,0.013523,0.002678,0.000431,0.000940
84303000,0.0324,0.013523,0.002678,0.000431,0.000823
84304000,0.0324,0.013523,0.002678,0.000431,0.000823
84305000,0.0324,0.013523,0.002678,0.000431,0.000823
84306000,0.0324,0.013523,0.002678,0.000431,0.000823
84307000,0.0324,0.013523,0.002678,0.000431,0.000940
84308000,0.0324,0.013523,0.002678,0.000431,0.000823
84309000,0.0324,0.013523,0.002678,0.000431,0.000823
84310000,0.0324,0.013523,0.002678,0.000431,0.000940
84311000,0.0324,0.013523,0.002678,0.000431,0.000705
84312000,0.0324,0.013523,0.002678,0.000431,0.000940
84313000,0.0324,0.013523,0.002678,0.000431,0.000823
84314000,0.0324,0.013523,0.002678,0.000431,0.000823
84315000,0.0324,0.013523,0.002678,0.000431,0.000940
84316000,0.0324,0.013523,0.002678,0.000431,0.000823
84317000,0.0324,0.013523,0.002678,0.000431,0.000823
84318000,0.0324,0.013523,0.002678,0.000431,0.000940
84319000,0.0324,0.013523,0.002678,0.000431,0.000705
84320000,0.0324,0.013523,0.002678,0.000431,0.000940
84321000,0.0324,0.013523,0.002678,0.000431,0.000823
84322000,0.0324,0.013523,0.002678,0.000431,0.000823
84323000,0.0324,0.013523,0.002678,0.000431,0.000940
84324000,0.0324,0.013523,0.002678,0.000431,0.025504
84325000,0.0324,0.013523,0.002678,0.000431,0.573773
84326000,0.0324,0.013523,0.002678,0.000431,0.591872
84327000,0.0324,0.013523,0.002678,0.000431,0.132924
84328000,0.0324,0.013523,0.002678,0.000431,0.134452
84329000,0.0324,0.013523,0.002678,0.000431,0.575888
84330000,0.0324,0.013523,0.002678,0.000431,0.237995
84331000,0.0324,0.013523,0.002678,0.000431,0.296053
84332000,0.0324,0.013523,0.002678,0.000431,0.280070
84333000,0.0324,0.013523,0.002678,0.000431,0.152904
84334000,0.0324,0.013523,0.002678,0.000431,0.173119
84335000,0.0324,0.013523,0.002678,0.000431,0.084973
84336000,0.0324,0.013523,0.002678,0.000431,0.486332
84337000,0.0324,0.013523,0.002678,0.000431,0.090732
84338000,0.0324,0.013523,0.002678,0.000431,0.041017
84339000,0.0324,0.013523,0.002678,0.000431,0.041135
84340000,0.0324,0.013523,0.002678,0.000431,0.042545
84341000,0.0324,0.013523,0.002678,0.000431,0.036904
84342000,0.0324,0.013523,0.002678,0.000431,0.022448
84343000,0.0324,0.013523,0.002678,0.000431,0.017394
84344000,0.0324,0.013523,0.002678,0.000431,0.015514
84345000,0.0324,0.013523,0.002678,0.000431,0.017042
84346000,0.0324,0.013523,0.002678,0.000431,0.016924
84347000,0.0324,0.013523,0.002678,0.000431,0.016336
84348000,0.0324,0.013523,0.002678,0.000431,0.016336
84349000,0.0324,0.013523,0.002678,0.000431,0.012223
84350000,0.0324,0.013523,0.002678,0.000431,0.010813
84351000,0.0324,0.013523,0.002678,0.000431,0.011400
84352000,0.0324,0.013523,0.002678,0.000431,0.010225
84353000,0.0324,0.013523,0.002678,0.000431,0.010107
84354000,0.0324,0.013523,0.002678,0.000431,0.009872
84355000,0.0324,0.013523,0.002678,0.000431,0.011048
84356000,0.0324,0.013523,0.002678,0.000431,0.011400
84357000,0.0324,0.013523,0.002678,0.000431,0.008462
84358000,0.0324,0.013523,0.002678,0.000431,0.008345
84359000,0.0324,0.013523,0.002678,0.000431,0.009167
84360000,0.0324,0.013523,0.002678,0.000431,0.007052
84361000,0.0324,0.013523,0.002678,0.000431,0.008109
84362000,0.0324,0.013523,0.002678,0.000431,0.006817
84363000,0.0324,0.013523,0.002678,0.000431,0.006582
84364000,0.0324,0.013523,0.002678,0.000431,0.009637
84365000,0.0324,0.013523,0.002678,0.000431,0.005524
84366000,0.0324,0.013523,0.002678,0.000431,0.005054
84367000,0.0324,0.013523,0.002678,0.000431,0.005994
84368000,0.0324,0.013523,0.002678,0.000431,0.003996
84369000,0.0324,0.013523,0.002678,0.000431,0.004584
84370000,0.0324,0.013523,0.002678,0.000431,0.004466
84371000,0.0324,0.013523,0.002678,0.000431,0.003643
84372000,0.0324,0.013523,0.002678,0.000431,0.004584
84373000,0.0324,0.013523,0.002678,0.000431,0.003996
84374000,0.0324,0.013523,0.002678,0.000431,0.004349
84375000,0.0324,0.013523,0.002678,0.000431,0.004231
84376000,0.0324,0.013523,0.002678,0.000431,0.005641
84377000,0.0324,0.013523,0.002678,0.000431,0.003526
84378000,0.0324,0.013523,0.002678,0.000431,0.003173
84379000,0.0324,0.013523,0.002678,0.000431,0.003408
84380000,0.0324,0.013523,0.002678,0.000431,0.003291
84381000,0.0324,0.013523,0.002678,0.000431,0.003408
84382000,0.0324,0.013523,0.002678,0.000431,0.003291
84383000,0.0324,0.013523,0.002678,0.000431,0.003173
84384000,0.0324,0.013523,0.002678,0.000431,0.003526
84385000,0.0324,0.013523,0.002678,0.000431,0.003408
84386000,0.0324,0.013523,0.002678,0.000431,0.003056
84387000,0.0324,0.013523,0.002678,0.000431,0.003408
84388000,0.0324,0.013523,0.002678,0.000431,0.003291
84389000,0.0324,0.013523,0.002678,0.000431,0.003408
84390000,0.0324,0.013523,0.002678,0.000431,0.003408
84391000,0.0324,0.013523,0.002678,0.000431,0.003056
84392000,0.0324,0.013523,0.002678,0.000431,0.003643
84393000,0.0324,0.013523,0.002678,0.000431,0.003173
84394000,0.0324,0.013523,0.002678,0.000431,0.003291
84395000,0.0324,0.013523,0.002678,0.000431,0.003526
84396000,0.0324,0.013523,0.002678,0.000431,0.004466
84397000,0.0324,0.013523,0.002678,0.000431,0.001763
84398000,0.0324,0.013523,0.002678,0.000431,0.001763
84399000,0.0324,0.013523,0.002678,0.000431,0.001880
84400000,0.0324,0.013523,0.002678,0.000431,0.001763
84401000,0.0324,0.013523,0.002678,0.000431,0.001528
84402000,0.0324,0.013523,0.002678,0.000431,0.003526
84403000,0.0324,0.013523,0.002678,0.000431,0.001058
84404000,0.0324,0.013523,0.002678,0.000431,0.000823
84405000,0.0324,0.013523,0.002678,0.000431,0.000823
84406000,0.0324,0.013523,0.002678,0.000431,0.000940
84407000,0.0324,0.013523,0.002678,0.000431,0.000940
84408000,0.0324,0.013523,0.002678,0.000431,0.000823
84409000,0.0324,0.013523,0.002678,0.000431,0.000823
84410000,0.0324,0.013523,0.002678,0.000431,0.000940
84411000,0.0324,0.013523,0.002678,0.000431,0.000940
84412000,0.0324,0.013523,0.002678,0.000431,0.000823
84413000,0.0324,0.013523,0.002678,0.000431,0.000823
84414000,0.0324,0.013523,0.002678,0.000431,0.000940
84415000,0.0324,0.013523,0.002678,0.000431,0.000823
84416000,0.0324,0.013523,0.002678,0.000431,0.000940
84417000,0.0324,0.013523,0.002678,0.000431,0.000823
84418000,0.0324,0.013523,0.002678,0.000431,0.000940
84419000,0.0324,0.013523,0.002678,0.000431,0.000823
84420000,0.0324,0.013523,0.002678,0.000431,0.000823
84421000,0.0324,0.013523,0.002678,0.000431,0.000940
84422000,0.0324,0.013523,0.002678,0.000431,0.000940
84423000,0.0324,0.013523,0.002678,0.000431,0.000823
84424000,0.0324,0.013523,0.002678,0.000431,0.000823
84425000,0.0324,0.013523,0.002678,0.000431,0.000940
84426000,0.0324,0.013523,0.002678,0.000431,0.000940
84427000,0.0324,0.013523,0.002678,0.000431,0.000705
84428000,0.0324,0.013523,0.002678,0.000431,0.000940
84429000,0.0324,0.013523,0.002678,0.000431,0.000940
84430000,0.0324,0.013523,0.002678,0.000431,0.000940
84431000,0.0324,0.013523,0.002678,0.000431,0.000705
84432000,0.0324,0.013523,0.002678,0.000431,0.000940
84433000,0.0324,0.013523,0.002678,0.000431,0.000940
84434000,0.0324,0.013523,0.002678,0.000431,0.000823
84435000,0.0324,0.013523,0.002678,0.000431,0.000940
84436000,0.0324,0.013523,0.002678,0.000431,0.000823
84437000,0.0324,0.013523,0.002678,0.000431,0.000940
84438000,0.0324,0.013523,0.002678,0.000431,0.000823
84439000,0.0324,0.013523,0.002678,0.000431,0.000823
84440000,0.0324,0.013523,0.002678,0.000431,0.000940
84441000,0.0324,0.013523,0.002678,0.000431,0.000823
84442000,0.0324,0.013523,0.002678,0.000431,0.000823
84443000,0.0324,0.013523,0.002678,0.000431,0.000940
84444000,0.0324,0.013523,0.002678,0.000431,0.000940
84445000,0.0324,0.013523,0.002678,0.000431,0.000940
84446000,0.0324,0.013523,0.002678,0.000431,0.000705
84447000,0.0324,0.013523,0.002678,0.000431,0.000940
84448000,0.0324,0.013523,0.002678,0.000431,0.000940
84449000,0.0324,0.013523,0.002678,0.000431,0.000823
84450000,0.0324,0.013523,0.002678,0.000431,0.000823
84451000,0.0324,0.013523,0.002678,0.000431,0.000940
84452000,0.0324,0.013523,0.002678,0.000431,0.000940
84453000,0.0324,0.013523,0.002678,0.000431,0.000823
84454000,0.0324,0.013523,0.002678,0.000431,0.000823
84455000,0.0324,0.013523,0.002678,0.000431,0.000940
84456000,0.0324,0.013523,0.002678,0.000431,0.000823
84457000,0.0324,0.013523,0.002678,0.000431,0.000940
84458000,0.0324,0.013523,0.002678,0.000431,0.000823
84459000,0.0324,0.013523,0.002678,0.000431,0.000940
84460000,0.0324,0.013523,0.002678,0.000431,0.000823
84461000,0.0324,0.013523,0.002678,0.000431,0.000823
84462000,0.0324,0.013523,0.002678,0.000431,0.000940
84463000,0.0324,0.013523,0.002678,0.000431,0.000940
84464000,0.0324,0.013523,0.002678,0.000431,0.000823
84465000,0.0324,0.013523,0.002678,0.000431,0.000823
84466000,0.0324,0.013523,0.002678,0.000431,0.000940
84467000,0.0324,0.013523,0.002678,0.000431,0.000940
84468000,0.0324,0.013523,0.002678,0.000431,0.000823
84469000,0.0324,0.013523,0.002678,0.000431,0.000823
84470000,0.0324,0.013523,0.002678,0.000431,0.000940
84471000,0.0324,0.013523,0.002678,0.000431,0.000940
84472000,0.0324,0.013523,0.002678,0.000431,0.000823
84473000,0.0324,0.013523,0.002678,0.000431,0.000823
84474000,0.0324,0.013523,0.002678,0.000431,0.001880
84475000,0.0324,0.013523,0.002678,0.000431,0.367158
84476000,0.0324,0.013523,0.002678,0.000431,0.680606
84477000,0.0324,0.013523,0.002678,0.000431,0.163717
84478000,0.0324,0.013523,0.002678,0.000431,0.133042
84479000,0.0324,0.013523,0.002678,0.000431,0.183579
84480000,0.0324,0.013523,0.002678,0.000431,0.626190
84481000,0.0324,0.013523,0.002678,0.000431,0.279364
84482000,0.0324,0.013523,0.002678,0.000431,0.246222
84483000,0.0324,0.013523,0.002678,0.000431,0.197212
84484000,0.0324,0.013523,0.002678,0.000431,0.143619
84485000,0.0324,0.013523,0.002678,0.000431,0.150789
84486000,0.0324,0.013523,0.002678,0.000431,0.161601
84487000,0.0324,0.013523,0.002678,0.000431,0.455774
84488000,0.0324,0.013523,0.002678,0.000431,0.085561
84489000,0.0324,0.013523,0.002678,0.000431,0.063935
84490000,0.0324,0.013523,0.002678,0.000431,0.057236
84491000,0.0324,0.013523,0.002678,0.000431,0.043720
84492000,0.0324,0.013523,0.002678,0.000431,0.042898
84493000,0.0324,0.013523,0.002678,0.000431,0.029265
84494000,0.0324,0.013523,0.002678,0.000431,0.022095
84495000,0.0324,0.013523,0.002678,0.000431,0.020332
84496000,0.0324,0.013523,0.002678,0.000431,0.014103
84497000,0.0324,0.013523,0.002678,0.000431,0.011165
84498000,0.0324,0.013523,0.002678,0.000431,0.011870
84499000,0.0324,0.013523,0.002678,0.000431,0.009167
84500000,0.0324,0.013523,0.002678,0.000431,0.009167
84501000,0.0324,0.013523,0.002678,0.000431,0.009990
84502000,0.0324,0.013523,0.002678,0.000431,0.009520
84503000,0.0324,0.013523,0.002678,0.000431,0.009285
84504000,0.0324,0.013523,0.002678,0.000431,0.009402
84505000,0.0324,0.013523,0.002678,0.000431,0.009285
84506000,0.0324,0.013523,0.002678,0.000431,0.009990
84507000,0.0324,0.013523,0.002678,0.000431,0.007052
84508000,0.0324,0.013523,0.002678,0.000431,0.009402
84509000,0.0324,0.013523,0.002678,0.000431,0.005641
84510000,0.0324,0.013523,0.002678,0.000431,0.005406
84511000,0.0324,0.013523,0.002678,0.000431,0.005759
84512000,0.0324,0.013523,0.002678,0.000431,0.009637
84513000,0.0324,0.013523,0.002678,0.000431,0.003878
84514000,0.0324,0.013523,0.002678,0.000431,0.003996
84515000,0.0324,0.013523,0.002678,0.000431,0.004113
84516000,0.0324,0.013523,0.002678,0.000431,0.004113
84517000,0.0324,0.013523,0.002678,0.000431,0.006111
84518000,0.0324,0.013523,0.002678,0.000431,0.003408
84519000,0.0324,0.013523,0.002678,0.000431,0.003173
84520000,0.0324,0.013523,0.002678,0.000431,0.002821
84521000,0.0324,0.013523,0.002678,0.000431,0.003761
84522000,0.0324,0.013523,0.002678,0.000431,0.003291
84523000,0.0324,0.013523,0.002678,0.000431,0.002821
84524000,0.0324,0.013523,0.002678,0.000431,0.002703
84525000,0.0324,0.013523,0.002678,0.000431,0.002233
84526000,0.0324,0.013523,0.002678,0.000431,0.002703
84527000,0.0324,0.013523,0.002678,0.000431,0.002468
84528000,0.0324,0.013523,0.002678,0.000431,0.002468
84529000,0.0324,0.013523,0.002678,0.000431,0.002586
84530000,0.0324,0.013523,0.002678,0.000431,0.004113
84531000,0.0324,0.013523,0.002678,0.000431,0.001763
84532000,0.0324,0.013523,0.002678,0.000431,0.001528
84533000,0.0324,0.013523,0.002678,0.000431,0.001880
84534000,0.0324,0.013523,0.002678,0.000431,0.001645
84535000,0.0324,0.013523,0.002678,0.000431,0.004231
84536000,0.0324,0.013523,0.002678,0.000431,0.000940
84537000,0.0324,0.013523,0.002678,0.000431,0.000823
84538000,0.0324,0.013523,0.002678,0.000431,0.000823
84539000,0.0324,0.013523,0.002678,0.000431,0.000823
84540000,0.0324,0.013523,0.002678,0.000431,0.000705
84541000,0.0324,0.013523,0.002678,0.000431,0.000940
84542000,0.0324,0.013523,0.002678,0.000431,0.000940
84543000,0.0324,0.013523,0.002678,0.000431,0.000705
84544000,0.0324,0.013523,0.002678,0.000431,0.000940
84545000,0.0324,0.013523,0.002678,0.000431,0.000705
84546000,0.0324,0.013523,0.002678,0.000431,0.000940
84547000,0.0324,0.013523,0.002678,0.000431,0.000940
84548000,0.0324,0.013523,0.002678,0.000431,0.000705
84549000,0.0324,0.013523,0.002678,0.000431,0.000940
84550000,0.0324,0.013523,0.002678,0.000431,0.000705
84551000,0.0324,0.013523,0.002678,0.000431,0.000940
84552000,0.0324,0.013523,0.002678,0.000431,0.000823
84553000,0.0324,0.013523,0.002678,0.000431,0.000823
84554000,0.0324,0.013523,0.002678,0.000431,0.000823
84555000,0.0324,0.013523,0.002678,0.000431,0.000823
84556000,0.0324,0.013523,0.002678,0.000431,0.000940
84557000,0.0324,0.013523,0.002678,0.000431,0.000705
84558000,0.0324,0.013523,0.002678,0.000431,0.000940
84559000,0.0324,0.013523,0.002678,0.000431,0.000705
84560000,0.0324,0.013523,0.002678,0.000431,0.000940
84561000,0.0324,0.013523,0.002678,0.000431,0.000823
84562000,0.0324,0.013523,0.002678,0.000431,0.000823
84563000,0.0324,0.013523,0.002678,0.000431,0.000705
84564000,0.0324,0.013523,0.002678,0.000431,0.000940
84565000,0.0324,0.013523,0.002678,0.000431,0.000940
84566000,0.0324,0.013523,0.002678,0.000431,0.000705
84567000,0.0324,0.013523,0.002678,0.000431,0.000940
84568000,0.0324,0.013523,0.002678,0.000431,0.000940
84569000,0.0324,0.013523,0.002678,0.000431,0.000705
84570000,0.0324,0.013523,0.002678,0.000431,0.000940
84571000,0.0324,0.013523,0.002678,0.000431,0.000823
84572000,0.0324,0.013523,0.002678,0.000431,0.014103
84573000,0.0324,0.013523,0.002678,0.000431,0.564253
84574000,0.0324,0.013523,0.002678,0.000431,0.591167
84575000,0.0324,0.013523,0.002678,0.000431,0.131867
84576000,0.0324,0.013523,0.002678,0.000431,0.134570
84577000,0.0324,0.013523,0.002678,0.000431,0.537809
84578000,0.0324,0.013523,0.002678,0.000431,0.278894
84579000,0.0324,0.013523,0.002678,0.000431,0.267377
84580000,0.0324,0.013523,0.002678,0.000431,0.336718
84581000,0.0324,0.013523,0.002678,0.000431,0.139741
84582000,0.0324,0.013523,0.002678,0.000431,0.172414
84583000,0.0324,0.013523,0.002678,0.000431,0.087088
84584000,0.0324,0.013523,0.002678,0.000431,0.489622
84585000,0.0324,0.013523,0.002678,0.000431,0.095903
84586000,0.0324,0.013523,0.002678,0.000431,0.045601
84587000,0.0324,0.013523,0.002678,0.000431,0.038079
84588000,0.0324,0.013523,0.002678,0.000431,0.026209
84589000,0.0324,0.013523,0.002678,0.000431,0.028324
84590000,0.0324,0.013523,0.002678,0.000431,0.023153
84591000,0.0324,0.013523,0.002678,0.000431,0.018334
84592000,0.0324,0.013523,0.002678,0.000431,0.015866
84593000,0.0324,0.013523,0.002678,0.000431,0.014338
84594000,0.0324,0.013523,0.002678,0.000431,0.011988
84595000,0.0324,0.013523,0.002678,0.000431,0.012693
84596000,0.0324,0.013523,0.002678,0.000431,0.011988
84597000,0.0324,0.013523,0.002678,0.000431,0.011165
84598000,0.0324,0.013523,0.002678,0.000431,0.010460
84599000,0.0324,0.013523,0.002678,0.000431,0.014221
84600000,0.0324,0.013523,0.002678,0.000431,0.012105
84601000,0.0324,0.013523,0.002678,0.000431,0.009755
84602000,0.0324,0.013523,0.002678,0.000431,0.015396
84603000,0.0324,0.013523,0.002678,0.000431,0.007992
84604000,0.0324,0.013523,0.002678,0.000431,0.010225
84605000,0.0324,0.013523,0.002678,0.000431,0.007992
84606000,0.0324,0.013523,0.002678,0.000431,0.005054
84607000,0.0324,0.013523,0.002678,0.000431,0.005641
84608000,0.0324,0.013523,0.002678,0.000431,0.004936
84609000,0.0324,0.013523,0.002678,0.000431,0.004936
84610000,0.0324,0.013523,0.002678,0.000431,0.004466
84611000,0.0324,0.013523,0.002678,0.000431,0.005054
84612000,0.0324,0.013523,0.002678,0.000431,0.005289
84613000,0.0324,0.013523,0.002678,0.000431,0.004466
84614000,0.0324,0.013523,0.002678,0.000431,0.004936
84615000,0.0324,0.013523,0.002678,0.000431,0.004936
84616000,0.0324,0.013523,0.002678,0.000431,0.004701
84617000,0.0324,0.013523,0.002678,0.000431,0.004819
84618000,0.0324,0.013523,0.002678,0.000431,0.004701
84619000,0.0324,0.013523,0.002678,0.000431,0.005289
84620000,0.0324,0.013523,0.002678,0.000431,0.005054
84621000,0.0324,0.013523,0.002678,0.000431,0.004349
84622000,0.0324,0.013523,0.002678,0.000431,0.005406
84623000,0.0324,0.013523,0.002678,0.000431,0.004701
84624000,0.0324,0.013523,0.002678,0.000431,0.005054
84625000,0.0324,0.013523,0.002678,0.000431,0.004819
84626000,0.0324,0.013523,0.002678,0.000431,0.004819
84627000,0.0324,0.013523,0.002678,0.000431,0.005054
84628000,0.0324,0.013523,0.002678,0.000431,0.005054
84629000,0.0324,0.013523,0.002678,0.000431,0.004584
84630000,0.0324,0.013523,0.002678,0.000431,0.005289
84631000,0.0324,0.013523,0.002678,0.000431,0.004584
84632000,0.0324,0.013523,0.002678,0.000431,0.005054
84633000,0.0324,0.013523,0.002678,0.000431,0.005171
84634000,0.0324,0.013523,0.002678,0.000431,0.006582
84635000,0.0324,0.013523,0.002678,0.000431,0.005759
84636000,0.0324,0.013523,0.002678,0.000431,0.002233
84637000,0.0324,0.013523,0.002678,0.000431,0.002703
84638000,0.0324,0.013523,0.002678,0.000431,0.002703
84639000,0.0324,0.013523,0.002678,0.000431,0.002468
84640000,0.0324,0.013523,0.002678,0.000431,0.002351
84641000,0.0324,0.013523,0.002678,0.000431,0.002703
84642000,0.0324,0.013523,0.002678,0.000431,0.002586
84643000,0.0324,0.013523,0.002678,0.000431,0.002586
84644000,0.0324,0.013523,0.002678,0.000431,0.002468
84645000,0.0324,0.013523,0.002678,0.000431,0.002586
84646000,0.0324,0.013523,0.002678,0.000431,0.002586
84647000,0.0324,0.013523,0.002678,0.000431,0.002468
84648000,0.0324,0.013523,0.002678,0.000431,0.002586
84649000,0.0324,0.013523,0.002678,0.000431,0.002586
84650000,0.0324,0.013523,0.002678,0.000431,0.002351
84651000,0.0324,0.013523,0.002678,0.000431,0.002586
84652000,0.0324,0.013523,0.002678,0.000431,0.002586
84653000,0.0324,0.013523,0.002678,0.000431,0.002351
84654000,0.0324,0.013523,0.002678,0.000431,0.002468
84655000,0.0324,0.013523,0.002678,0.000431,0.002703
84656000,0.0324,0.013523,0.002678,0.000431,0.002821
84657000,0.0324,0.013523,0.002678,0.000431,0.002116
84658000,0.0324,0.013523,0.002678,0.000431,0.002586
84659000,0.0324,0.013523,0.002678,0.000431,0.002586
84660000,0.0324,0.013523,0.002678,0.000431,0.002468
84661000,0.0324,0.013523,0.002678,0.000431,0.002468
84662000,0.0324,0.013523,0.002678,0.000431,0.002586
84663000,0.0324,0.013523,0.002678,0.000431,0.002821
84664000,0.0324,0.013523,0.002678,0.000431,0.002233
84665000,0.0324,0.013523,0.002678,0.000431,0.002468
84666000,0.0324,0.013523,0.002678,0.000431,0.002703
84667000,0.0324,0.013523,0.002678,0.000431,0.002586
84668000,0.0324,0.013523,0.002678,0.000431,0.002351
84669000,0.0324,0.013523,0.002678,0.000431,0.002468
84670000,0.0324,0.013523,0.002678,0.000431,0.002821
84671000,0.0324,0.013523,0.002678,0.000431,0.002468
84672000,0.0324,0.013523,0.002678,0.000431,0.002233
84673000,0.0324,0.013523,0.002678,0.000431,0.002821
84674000,0.0324,0.013523,0.002678,0.000431,0.002586
84675000,0.0324,0.013523,0.002678,0.000431,0.002586
84676000,0.0324,0.013523,0.002678,0.000431,0.002116
84677000,0.0324,0.013523,0.002678,0.000431,0.002821
84678000,0.0324,0.013523,0.002678,0.000431,0.002586
84679000,0.0324,0.013523,0.002678,0.000431,0.002468
84680000,0.0324,0.013523,0.002678,0.000431,0.002468
84681000,0.0324,0.013523,0.002678,0.000431,0.002586
84682000,0.0324,0.013523,0.002678,0.000431,0.002586
84683000,0.0324,0.013523,0.002678,0.000431,0.002233
84684000,0.0324,0.013523,0.002678,0.000431,0.004466
84685000,0.0324,0.013523,0.002678,0.000431,0.001645
84686000,0.0324,0.013523,0.002678,0.000431,0.002938
84687000,0.0324,0.013523,0.002678,0.000431,0.407705
84688000,0.0324,0.013523,0.002678,0.000431,0.682134
84689000,0.0324,0.013523,0.002678,0.000431,0.134100
84690000,0.0324,0.013523,0.002678,0.000431,0.134922
84691000,0.0324,0.013523,0.002678,0.000431,0.200973
84692000,0.0324,0.013523,0.002678,0.000431,0.608914
84693000,0.0324,0.013523,0.002678,0.000431,0.243166
84694000,0.0324,0.013523,0.002678,0.000431,0.325318
84695000,0.0324,0.013523,0.002678,0.000431,0.186987
84696000,0.0324,0.013523,0.002678,0.000431,0.149378
84697000,0.0324,0.013523,0.002678,0.000431,0.112239
84698000,0.0324,0.013523,0.002678,0.000431,0.306161
84699000,0.0324,0.013523,0.002678,0.000431,0.278307
84700000,0.0324,0.013523,0.002678,0.000431,0.021390
84701000,0.0324,0.013523,0.002678,0.000431,0.010107
84702000,0.0324,0.013523,0.002678,0.000431,0.008932
84703000,0.0324,0.013523,0.002678,0.000431,0.005994
84704000,0.0324,0.013523,0.002678,0.000431,0.006111
84705000,0.0324,0.013523,0.002678,0.000431,0.006347
84706000,0.0324,0.013523,0.002678,0.000431,0.006111
84707000,0.0324,0.013523,0.002678,0.000431,0.005289
84708000,0.0324,0.013523,0.002678,0.000431,0.005524
84709000,0.0324,0.013523,0.002678,0.000431,0.004701
84710000,0.0324,0.013523,0.002678,0.000431,0.005171
84711000,0.0324,0.013523,0.002678,0.000431,0.004584
84712000,0.0324,0.013523,0.002678,0.000431,0.005171
84713000,0.0324,0.013523,0.002678,0.000431,0.004701
84714000,0.0324,0.013523,0.002678,0.000431,0.005054
84715000,0.0324,0.013523,0.002678,0.000431,0.004701
84716000,0.0324,0.013523,0.002678,0.000431,0.004936
84717000,0.0324,0.013523,0.002678,0.000431,0.004584
84718000,0.0324,0.013523,0.002678,0.000431,0.005171
84719000,0.0324,0.013523,0.002678,0.000431,0.004701
84720000,0.0324,0.013523,0.002678,0.000431,0.005054
84721000,0.0324,0.013523,0.002678,0.000431,0.004584
84722000,0.0324,0.013523,0.002678,0.000431,0.005406
84723000,0.0324,0.013523,0.002678,0.000431,0.004349
84724000,0.0324,0.013523,0.002678,0.000431,0.004936
84725000,0.0324,0.013523,0.002678,0.000431,0.005289
84726000,0.0324,0.013523,0.002678,0.000431,0.004819
84727000,0.0324,0.013523,0.002678,0.000431,0.004819
84728000,0.0324,0.013523,0.002678,0.000431,0.004819
84729000,0.0324,0.013523,0.002678,0.000431,0.004936
84730000,0.0324,0.013523,0.002678,0.000431,0.004936
84731000,0.0324,0.013523,0.002678,0.000431,0.004584
84732000,0.0324,0.013523,0.002678,0.000431,0.005171
84733000,0.0324,0.013523,0.002678,0.000431,0.004701
84734000,0.0324,0.013523,0.002678,0.000431,0.006934
84735000,0.0324,0.013523,0.002678,0.000431,0.004231
84736000,0.0324,0.013523,0.002678,0.000431,0.004819
84737000,0.0324,0.013523,0.002678,0.000431,0.004231
84738000,0.0324,0.013523,0.002678,0.000431,0.003173
84739000,0.0324,0.013523,0.002678,0.000431,0.002586
84740000,0.0324,0.013523,0.002678,0.000431,0.002586
84741000,0.0324,0.013523,0.002678,0.000431,0.002703
84742000,0.0324,0.013523,0.002678,0.000431,0.002586
84743000,0.0324,0.013523,0.002678,0.000431,0.004349
84744000,0.0324,0.013523,0.002678,0.000431,0.001880
84745000,0.0324,0.013523,0.002678,0.000431,0.001645
84746000,0.0324,0.013523,0.002678,0.000431,0.001645
84747000,0.0324,0.013523,0.002678,0.000431,0.001763
84748000,0.0324,0.013523,0.002678,0.000431,0.001763
84749000,0.0324,0.013523,0.002678,0.000431,0.001645
84750000,0.0324,0.013523,0.002678,0.000431,0.001763
84751000,0.0324,0.013523,0.002678,0.000431,0.001645
84752000,0.0324,0.013523,0.002678,0.000431,0.001763
84753000,0.0324,0.013523,0.002678,0.000431,0.001763
84754000,0.0324,0.013523,0.002678,0.000431,0.001528
84755000,0.0324,0.013523,0.002678,0.000431,0.001880
84756000,0.0324,0.013523,0.002678,0.000431,0.001528
84757000,0.0324,0.013523,0.002678,0.000431,0.001880
84758000,0.0324,0.013523,0.002678,0.000431,0.001763
84759000,0.0324,0.013523,0.002678,0.000431,0.002586
84760000,0.0324,0.013523,0.002678,0.000431,0.002938
84761000,0.0324,0.013523,0.002678,0.000431,0.000705
84762000,0.0324,0.013523,0.002678,0.000431,0.000940
84763000,0.0324,0.013523,0.002678,0.000431,0.000940
84764000,0.0324,0.013523,0.002678,0.000431,0.000940
84765000,0.0324,0.013523,0.002678,0.000431,0.000705
84766000,0.0324,0.013523,0.002678,0.000431,0.000940
84767000,0.0324,0.013523,0.002678,0.000431,0.000940
84768000,0.0324,0.013523,0.002678,0.000431,0.000823
84769000,0.0324,0.013523,0.002678,0.000431,0.000823
84770000,0.0324,0.013523,0.002678,0.000431,0.000940
84771000,0.0324,0.013523,0.002678,0.000431,0.000940
84772000,0.0324,0.013523,0.002678,0.000431,0.000823
84773000,0.0324,0.013523,0.002678,0.000431,0.000823
84774000,0.0324,0.013523,0.002678,0.000431,0.000940
84775000,0.0324,0.013523,0.002678,0.000431,0.000823
84776000,0.0324,0.013523,0.002678,0.000431,0.000940
84777000,0.0324,0.013523,0.002678,0.000431,0.000823
84778000,0.0324,0.013523,0.002678,0.000431,0.000940
84779000,0.0324,0.013523,0.002678,0.000431,0.000823
84780000,0.0324,0.013523,0.002678,0.000431,0.000823
84781000,0.0324,0.013523,0.002678,0.000431,0.000940
84782000,0.0324,0.013523,0.002678,0.000431,0.000940
84783000,0.0324,0.013523,0.002678,0.000431,0.000823
84784000,0.0324,0.013523,0.002678,0.000431,0.000823
84785000,0.0324,0.013523,0.002678,0.000431,0.000940
84786000,0.0324,0.013523,0.002678,0.000431,0.000940
84787000,0.0324,0.013523,0.002678,0.000431,0.000823
84788000,0.0324,0.013523,0.002678,0.000431,0.000823
84789000,0.0324,0.013523,0.002678,0.000431,0.000940
84790000,0.0324,0.013523,0.002678,0.000431,0.000823
84791000,0.0324,0.013523,0.002678,0.000431,0.000940
84792000,0.0324,0.013523,0.002678,0.000431,0.000823
84793000,0.0324,0.013523,0.002678,0.000431,0.000940
84794000,0.0324,0.013523,0.002678,0.000431,0.000823
84795000,0.0324,0.013523,0.002678,0.000431,0.000823
84796000,0.0324,0.013523,0.002678,0.000431,0.000940
84797000,0.0324,0.013523,0.002678,0.000431,0.000940
84798000,0.0324,0.013523,0.002678,0.000431,0.000823
84799000,0.0324,0.013523,0.002678,0.000431,0.000823
84800000,0.0324,0.013523,0.002678,0.000431,0.000940
84801000,0.0324,0.013523,0.002678,0.000431,0.000940
84802000,0.0324,0.013523,0.002678,0.000431,0.000705
84803000,0.0324,0.013523,0.002678,0.000431,0.000940
84804000,0.0324,0.013523,0.002678,0.000431,0.000940
84805000,0.0324,0.013523,0.002678,0.000431,0.000940
84806000,0.0324,0.013523,0.002678,0.000431,0.000705
84807000,0.0324,0.013523,0.002678,0.000431,0.000940
84808000,0.0324,0.013523,0.002678,0.000431,0.000940
84809000,0.0324,0.013523,0.002678,0.000431,0.000823
84810000,0.0324,0.013523,0.002678,0.000431,0.000940
84811000,0.0324,0.013523,0.002678,0.000431,0.000823
84812000,0.0324,0.013523,0.002678,0.000431,0.000940
84813000,0.0324,0.013523,0.002678,0.000431,0.000823
84814000,0.0324,0.013523,0.002678,0.000431,0.001645
84815000,0.0324,0.013523,0.002678,0.000431,0.328961
84816000,0.0324,0.013523,0.002678,0.000431,0.680723
84817000,0.0324,0.013523,0.002678,0.000431,0.139388
84818000,0.0324,0.013523,0.002678,0.000431,0.133512
84819000,0.0324,0.013523,0.002678,0.000431,0.132102
84820000,0.0324,0.013523,0.002678,0.000431,0.612909
84821000,0.0324,0.013523,0.002678,0.000431,0.223539
84822000,0.0324,0.013523,0.002678,0.000431,0.282420
84823000,0.0324,0.013523,0.002678,0.000431,0.266554
84824000,0.0324,0.013523,0.002678,0.000431,0.147263
84825000,0.0324,0.013523,0.002678,0.000431,0.138918
84826000,0.0324,0.013523,0.002678,0.000431,0.100839
84827000,0.0324,0.013523,0.002678,0.000431,0.440848
84828000,0.0324,0.013523,0.002678,0.000431,0.227887
84829000,0.0324,0.013523,0.002678,0.000431,0.091437
84830000,0.0324,0.013523,0.002678,0.000431,0.075101
84831000,0.0324,0.013523,0.002678,0.000431,0.071575
84832000,0.0324,0.013523,0.002678,0.000431,0.065698
84833000,0.0324,0.013523,0.002678,0.000431,0.053828
84834000,0.0324,0.013523,0.002678,0.000431,0.051360
84835000,0.0324,0.013523,0.002678,0.000431,0.045483
84836000,0.0324,0.013523,0.002678,0.000431,0.042898
84837000,0.0324,0.013523,0.002678,0.000431,0.040077
84838000,0.0324,0.013523,0.002678,0.000431,0.029265
84839000,0.0324,0.013523,0.002678,0.000431,0.027737
84840000,0.0324,0.013523,0.002678,0.000431,0.031615
84841000,0.0324,0.013523,0.002678,0.000431,0.028324
84842000,0.0324,0.013523,0.002678,0.000431,0.025504
84843000,0.0324,0.013523,0.002678,0.000431,0.025974
84844000,0.0324,0.013523,0.002678,0.000431,0.026679
84845000,0.0324,0.013523,0.002678,0.000431,0.024563
84846000,0.0324,0.013523,0.002678,0.000431,0.023388
84847000,0.0324,0.013523,0.002678,0.000431,0.024211
84848000,0.0324,0.013523,0.002678,0.000431,0.024211
84849000,0.0324,0.013523,0.002678,0.000431,0.023506
84850000,0.0324,0.013523,0.002678,0.000431,0.023506
84851000,0.0324,0.013523,0.002678,0.000431,0.021038
84852000,0.0324,0.013523,0.002678,0.000431,0.023153
84853000,0.0324,0.013523,0.002678,0.000431,0.021978
84854000,0.0324,0.013523,0.002678,0.000431,0.021860
84855000,0.0324,0.013523,0.002678,0.000431,0.022918
84856000,0.0324,0.013523,0.002678,0.000431,0.021978
84857000,0.0324,0.013523,0.002678,0.000431,0.021508
84858000,0.0324,0.013523,0.002678,0.000431,0.027031
84859000,0.0324,0.013523,0.002678,0.000431,0.017629
84860000,0.0324,0.013523,0.002678,0.000431,0.017042
84861000,0.0324,0.013523,0.002678,0.000431,0.015396
84862000,0.0324,0.013523,0.002678,0.000431,0.015514
84863000,0.0324,0.013523,0.002678,0.000431,0.015514
84864000,0.0324,0.013523,0.002678,0.000431,0.014456
84865000,0.0324,0.013523,0.002678,0.000431,0.013398
84866000,0.0324,0.013523,0.002678,0.000431,0.013751
84867000,0.0324,0.013523,0.002678,0.000431,0.014691
84868000,0.0324,0.013523,0.002678,0.000431,0.013281
84869000,0.0324,0.013523,0.002678,0.000431,0.012105
84870000,0.0324,0.013523,0.002678,0.000431,0.012576
84871000,0.0324,0.013523,0.002678,0.000431,0.012223
84872000,0.0324,0.013523,0.002678,0.000431,0.016219
84873000,0.0324,0.013523,0.002678,0.000431,0.010225
84874000,0.0324,0.013523,0.002678,0.000431,0.012576
84875000,0.0324,0.013523,0.002678,0.000431,0.009402
84876000,0.0324,0.013523,0.002678,0.000431,0.009520
84877000,0.0324,0.013523,0.002678,0.000431,0.010342
84878000,0.0324,0.013523,0.002678,0.000431,0.009755
84879000,0.0324,0.013523,0.002678,0.000431,0.010578
84880000,0.0324,0.013523,0.002678,0.000431,0.007992
84881000,0.0324,0.013523,0.002678,0.000431,0.009402
84882000,0.0324,0.013523,0.002678,0.000431,0.011165
84883000,0.0324,0.013523,0.002678,0.000431,0.006111
84884000,0.0324,0.013523,0.002678,0.000431,0.006582
84885000,0.0324,0.013523,0.002678,0.000431,0.003526
84886000,0.0324,0.013523,0.002678,0.000431,0.004701
84887000,0.0324,0.013523,0.002678,0.000431,0.003996
84888000,0.0324,0.013523,0.002678,0.000431,0.001880
84889000,0.0324,0.013523,0.002678,0.000431,0.001645
84890000,0.0324,0.013523,0.002678,0.000431,0.001645
84891000,0.0324,0.013523,0.002678,0.000431,0.001645
84892000,0.0324,0.013523,0.002678,0.000431,0.001763
84893000,0.0324,0.013523,0.002678,0.000431,0.003056
84894000,0.0324,0.013523,0.002678,0.000431,0.000823
84895000,0.0324,0.013523,0.002678,0.000431,0.000823
84896000,0.0324,0.013523,0.002678,0.000431,0.000823
84897000,0.0324,0.013523,0.002678,0.000431,0.000823
84898000,0.0324,0.013523,0.002678,0.000431,0.000940
84899000,0.0324,0.013523,0.002678,0.000431,0.000705
84900000,0.0324,0.013523,0.002678,0.000431,0.000940
84901000,0.0324,0.013523,0.002678,0.000431,0.000823
84902000,0.0324,0.013523,0.002678,0.000431,0.000823
84903000,0.0324,0.013523,0.002678,0.000431,0.014691
84904000,0.0324,0.013523,0.002678,0.000431,0.578709
84905000,0.0324,0.013523,0.002678,0.000431,0.589051
84906000,0.0324,0.013523,0.002678,0.000431,0.133982
84907000,0.0324,0.013523,0.002678,0.000431,0.133512
84908000,0.0324,0.013523,0.002678,0.000431,0.545566
84909000,0.0324,0.013523,0.002678,0.000431,0.277954
84910000,0.0324,0.013523,0.002678,0.000431,0.247514
84911000,0.0324,0.013523,0.002678,0.000431,0.321205
84912000,0.0324,0.013523,0.002678,0.000431,0.138918
84913000,0.0324,0.013523,0.002678,0.000431,0.185812
84914000,0.0324,0.013523,0.002678,0.000431,0.083563
84915000,0.0324,0.013523,0.002678,0.000431,0.473051
84916000,0.0324,0.013523,0.002678,0.000431,0.105070
84917000,0.0324,0.013523,0.002678,0.000431,0.074748
84918000,0.0324,0.013523,0.002678,0.000431,0.053358
84919000,0.0324,0.013523,0.002678,0.000431,0.051830
84920000,0.0324,0.013523,0.002678,0.000431,0.046424
84921000,0.0324,0.013523,0.002678,0.000431,0.047716
84922000,0.0324,0.013523,0.002678,0.000431,0.042545
84923000,0.0324,0.013523,0.002678,0.000431,0.029735
84924000,0.0324,0.013523,0.002678,0.000431,0.032790
84925000,0.0324,0.013523,0.002678,0.000431,0.031733
84926000,0.0324,0.013523,0.002678,0.000431,0.027267
84927000,0.0324,0.013523,0.002678,0.000431,0.021860
84928000,0.0324,0.013523,0.002678,0.000431,0.019980
84929000,0.0324,0.013523,0.002678,0.000431,0.016571
84930000,0.0324,0.013523,0.002678,0.000431,0.018452
84931000,0.0324,0.013523,0.002678,0.000431,0.013868
84932000,0.0324,0.013523,0.002678,0.000431,0.016689
84933000,0.0324,0.013523,0.002678,0.000431,0.015631
84934000,0.0324,0.013523,0.002678,0.000431,0.015044
84935000,0.0324,0.013523,0.002678,0.000431,0.011283
84936000,0.0324,0.013523,0.002678,0.000431,0.011165
84937000,0.0324,0.013523,0.002678,0.000431,0.009990
84938000,0.0324,0.013523,0.002678,0.000431,0.010578
84939000,0.0324,0.013523,0.002678,0.000431,0.008815
84940000,0.0324,0.013523,0.002678,0.000431,0.007874
84941000,0.0324,0.013523,0.002678,0.000431,0.008109
84942000,0.0324,0.013523,0.002678,0.000431,0.007522
84943000,0.0324,0.013523,0.002678,0.000431,0.007404
84944000,0.0324,0.013523,0.002678,0.000431,0.007874
84945000,0.0324,0.013523,0.002678,0.000431,0.007052
84946000,0.0324,0.013523,0.002678,0.000431,0.007874
84947000,0.0324,0.013523,0.002678,0.000431,0.007287
84948000,0.0324,0.013523,0.002678,0.000431,0.009285
84949000,0.0324,0.013523,0.002678,0.000431,0.008109
84950000,0.0324,0.013523,0.002678,0.000431,0.005641
84951000,0.0324,0.013523,0.002678,0.000431,0.005876
84952000,0.0324,0.013523,0.002678,0.000431,0.005994
84953000,0.0324,0.013523,0.002678,0.000431,0.006111
84954000,0.0324,0.013523,0.002678,0.000431,0.005994
84955000,0.0324,0.013523,0.002678,0.000431,0.005524
84956000,0.0324,0.013523,0.002678,0.000431,0.005876
84957000,0.0324,0.013523,0.002678,0.000431,0.005876
84958000,0.0324,0.013523,0.002678,0.000431,0.006111
84959000,0.0324,0.013523,0.002678,0.000431,0.005759
84960000,0.0324,0.013523,0.002678,0.000431,0.005876
84961000,0.0324,0.013523,0.002678,0.000431,0.005759
84962000,0.0324,0.013523,0.002678,0.000431,0.005641
84963000,0.0324,0.013523,0.002678,0.000431,0.006229
84964000,0.0324,0.013523,0.002678,0.000431,0.005759
84965000,0.0324,0.013523,0.002678,0.000431,0.007404
84966000,0.0324,0.013523,0.002678,0.000431,0.006229
84967000,0.0324,0.013523,0.002678,0.000431,0.005054
84968000,0.0324,0.013523,0.002678,0.000431,0.004701
84969000,0.0324,0.013523,0.002678,0.000431,0.005289
84970000,0.0324,0.013523,0.002678,0.000431,0.005406
84971000,0.0324,0.013523,0.002678,0.000431,0.010695
84972000,0.0324,0.013523,0.002678,0.000431,0.002586
84973000,0.0324,0.013523,0.002678,0.000431,0.002586
84974000,0.0324,0.013523,0.002678,0.000431,0.002586
84975000,0.0324,0.013523,0.002678,0.000431,0.002586
84976000,0.0324,0.013523,0.002678,0.000431,0.002468
84977000,0.0324,0.013523,0.002678,0.000431,0.002468
84978000,0.0324,0.013523,0.002678,0.000431,0.002586
84979000,0.0324,0.013523,0.002678,0.000431,0.002351
84980000,0.0324,0.013523,0.002678,0.000431,0.002586
84981000,0.0324,0.013523,0.002678,0.000431,0.002468
84982000,0.0324,0.013523,0.002678,0.000431,0.002586
84983000,0.0324,0.013523,0.002678,0.000431,0.002468
84984000,0.0324,0.013523,0.002678,0.000431,0.002468
84985000,0.0324,0.013523,0.002678,0.000431,0.002468
84986000,0.0324,0.013523,0.002678,0.000431,0.002586
84987000,0.0324,0.013523,0.002678,0.000431,0.002468
84988000,0.0324,0.013523,0.002678,0.000431,0.002586
84989000,0.0324,0.013523,0.002678,0.000431,0.002586
84990000,0.0324,0.013523,0.002678,0.000431,0.002586
84991000,0.0324,0.013523,0.002678,0.000431,0.003996
84992000,0.0324,0.013523,0.002678,0.000431,0.003761
84993000,0.0324,0.013523,0.002678,0.000431,0.000940
84994000,0.0324,0.013523,0.002678,0.000431,0.000823
84995000,0.0324,0.013523,0.002678,0.000431,0.000823
84996000,0.0324,0.013523,0.002678,0.000431,0.000940
84997000,0.0324,0.013523,0.002678,0.000431,0.000705
84998000,0.0324,0.013523,0.002678,0.000431,0.000940
84999000,0.0324,0.013523,0.002678,0.000431,0.000823
