Cycle,Area(mm^2),PeakDynamic(W),SubthresholdLeakage(W),GateLeakage(W),RunTimeDynamic(W)
115000000,0.0324,0.013523,0.002678,0.000431,0.046659
115001000,0.0324,0.013523,0.002678,0.000431,0.029617
115002000,0.0324,0.013523,0.002678,0.000431,0.025739
115003000,0.0324,0.013523,0.002678,0.000431,0.027854
115004000,0.0324,0.013523,0.002678,0.000431,0.024093
115005000,0.0324,0.013523,0.002678,0.000431,0.029970
115006000,0.0324,0.013523,0.002678,0.000431,0.023506
115007000,0.0324,0.013523,0.002678,0.000431,0.020920
115008000,0.0324,0.013523,0.002678,0.000431,0.019745
115009000,0.0324,0.013523,0.002678,0.000431,0.018805
115010000,0.0324,0.013523,0.002678,0.000431,0.021508
115011000,0.0324,0.013523,0.002678,0.000431,0.016924
115012000,0.0324,0.013523,0.002678,0.000431,0.017864
115013000,0.0324,0.013523,0.002678,0.000431,0.016101
115014000,0.0324,0.013523,0.002678,0.000431,0.017042
115015000,0.0324,0.013523,0.002678,0.000431,0.014456
115016000,0.0324,0.013523,0.002678,0.000431,0.015631
115017000,0.0324,0.013523,0.002678,0.000431,0.012223
115018000,0.0324,0.013523,0.002678,0.000431,0.015631
115019000,0.0324,0.013523,0.002678,0.000431,0.010695
115020000,0.0324,0.013523,0.002678,0.000431,0.011165
115021000,0.0324,0.013523,0.002678,0.000431,0.010813
115022000,0.0324,0.013523,0.002678,0.000431,0.011870
115023000,0.0324,0.013523,0.002678,0.000431,0.009402
115024000,0.0324,0.013523,0.002678,0.000431,0.009637
115025000,0.0324,0.013523,0.002678,0.000431,0.010460
115026000,0.0324,0.013523,0.002678,0.000431,0.009755
115027000,0.0324,0.013523,0.002678,0.000431,0.011518
115028000,0.0324,0.013523,0.002678,0.000431,0.009050
115029000,0.0324,0.013523,0.002678,0.000431,0.008697
115030000,0.0324,0.013523,0.002678,0.000431,0.011518
115031000,0.0324,0.013523,0.002678,0.000431,0.008227
115032000,0.0324,0.013523,0.002678,0.000431,0.007522
115033000,0.0324,0.013523,0.002678,0.000431,0.007169
115034000,0.0324,0.013523,0.002678,0.000431,0.006464
115035000,0.0324,0.013523,0.002678,0.000431,0.006699
115036000,0.0324,0.013523,0.002678,0.000431,0.008109
115037000,0.0324,0.013523,0.002678,0.000431,0.005759
115038000,0.0324,0.013523,0.002678,0.000431,0.006229
115039000,0.0324,0.013523,0.002678,0.000431,0.005641
115040000,0.0324,0.013523,0.002678,0.000431,0.006111
115041000,0.0324,0.013523,0.002678,0.000431,0.007287
115042000,0.0324,0.013523,0.002678,0.000431,0.005641
115043000,0.0324,0.013523,0.002678,0.000431,0.004231
115044000,0.0324,0.013523,0.002678,0.000431,0.006582
115045000,0.0324,0.013523,0.002678,0.000431,0.003643
115046000,0.0324,0.013523,0.002678,0.000431,0.003291
115047000,0.0324,0.013523,0.002678,0.000431,0.003291
115048000,0.0324,0.013523,0.002678,0.000431,0.003526
115049000,0.0324,0.013523,0.002678,0.000431,0.003526
115050000,0.0324,0.013523,0.002678,0.000431,0.003408
115051000,0.0324,0.013523,0.002678,0.000431,0.003291
115052000,0.0324,0.013523,0.002678,0.000431,0.003526
115053000,0.0324,0.013523,0.002678,0.000431,0.003526
115054000,0.0324,0.013523,0.002678,0.000431,0.003291
115055000,0.0324,0.013523,0.002678,0.000431,0.003291
115056000,0.0324,0.013523,0.002678,0.000431,0.004701
115057000,0.0324,0.013523,0.002678,0.000431,0.003526
115058000,0.0324,0.013523,0.002678,0.000431,0.002586
115059000,0.0324,0.013523,0.002678,0.000431,0.002703
115060000,0.0324,0.013523,0.002678,0.000431,0.002351
115061000,0.0324,0.013523,0.002678,0.000431,0.002703
115062000,0.0324,0.013523,0.002678,0.000431,0.002351
115063000,0.0324,0.013523,0.002678,0.000431,0.002703
115064000,0.0324,0.013523,0.002678,0.000431,0.002703
115065000,0.0324,0.013523,0.002678,0.000431,0.002233
115066000,0.0324,0.013523,0.002678,0.000431,0.002821
115067000,0.0324,0.013523,0.002678,0.000431,0.002468
115068000,0.0324,0.013523,0.002678,0.000431,0.002703
115069000,0.0324,0.013523,0.002678,0.000431,0.004113
115070000,0.0324,0.013523,0.002678,0.000431,0.001880
115071000,0.0324,0.013523,0.002678,0.000431,0.001645
115072000,0.0324,0.013523,0.002678,0.000431,0.001645
115073000,0.0324,0.013523,0.002678,0.000431,0.001880
115074000,0.0324,0.013523,0.002678,0.000431,0.001410
115075000,0.0324,0.013523,0.002678,0.000431,0.001763
115076000,0.0324,0.013523,0.002678,0.000431,0.001645
115077000,0.0324,0.013523,0.002678,0.000431,0.001763
115078000,0.0324,0.013523,0.002678,0.000431,0.001645
115079000,0.0324,0.013523,0.002678,0.000431,0.001645
115080000,0.0324,0.013523,0.002678,0.000431,0.001528
115081000,0.0324,0.013523,0.002678,0.000431,0.001763
115082000,0.0324,0.013523,0.002678,0.000431,0.001880
115083000,0.0324,0.013523,0.002678,0.000431,0.001410
115084000,0.0324,0.013523,0.002678,0.000431,0.001880
115085000,0.0324,0.013523,0.002678,0.000431,0.001410
115086000,0.0324,0.013523,0.002678,0.000431,0.001880
115087000,0.0324,0.013523,0.002678,0.000431,0.001645
115088000,0.0324,0.013523,0.002678,0.000431,0.001645
115089000,0.0324,0.013523,0.002678,0.000431,0.002821
115090000,0.0324,0.013523,0.002678,0.000431,0.002233
115091000,0.0324,0.013523,0.002678,0.000431,0.000823
115092000,0.0324,0.013523,0.002678,0.000431,0.000823
115093000,0.0324,0.013523,0.002678,0.000431,0.000940
115094000,0.0324,0.013523,0.002678,0.000431,0.000823
115095000,0.0324,0.013523,0.002678,0.000431,0.000823
115096000,0.0324,0.013523,0.002678,0.000431,0.000705
115097000,0.0324,0.013523,0.002678,0.000431,0.000940
115098000,0.0324,0.013523,0.002678,0.000431,0.000940
115099000,0.0324,0.013523,0.002678,0.000431,0.000705
115100000,0.0324,0.013523,0.002678,0.000431,0.000940
115101000,0.0324,0.013523,0.002678,0.000431,0.000705
115102000,0.0324,0.013523,0.002678,0.000431,0.000940
115103000,0.0324,0.013523,0.002678,0.000431,0.000823
115104000,0.0324,0.013523,0.002678,0.000431,0.000823
115105000,0.0324,0.013523,0.002678,0.000431,0.000940
115106000,0.0324,0.013523,0.002678,0.000431,0.000705
115107000,0.0324,0.013523,0.002678,0.000431,0.000940
115108000,0.0324,0.013523,0.002678,0.000431,0.000823
115109000,0.0324,0.013523,0.002678,0.000431,0.000823
115110000,0.0324,0.013523,0.002678,0.000431,0.000823
115111000,0.0324,0.013523,0.002678,0.000431,0.000823
115112000,0.0324,0.013523,0.002678,0.000431,0.000823
115113000,0.0324,0.013523,0.002678,0.000431,0.000823
115114000,0.0324,0.013523,0.002678,0.000431,0.000940
115115000,0.0324,0.013523,0.002678,0.000431,0.000705
115116000,0.0324,0.013523,0.002678,0.000431,0.000940
115117000,0.0324,0.013523,0.002678,0.000431,0.000823
115118000,0.0324,0.013523,0.002678,0.000431,0.000823
115119000,0.0324,0.013523,0.002678,0.000431,0.000705
115120000,0.0324,0.013523,0.002678,0.000431,0.000940
115121000,0.0324,0.013523,0.002678,0.000431,0.000940
115122000,0.0324,0.013523,0.002678,0.000431,0.000705
115123000,0.0324,0.013523,0.002678,0.000431,0.000940
115124000,0.0324,0.013523,0.002678,0.000431,0.000705
115125000,0.0324,0.013523,0.002678,0.000431,0.000940
115126000,0.0324,0.013523,0.002678,0.000431,0.000823
115127000,0.0324,0.013523,0.002678,0.000431,0.000823
115128000,0.0324,0.013523,0.002678,0.000431,0.000940
115129000,0.0324,0.013523,0.002678,0.000431,0.000705
115130000,0.0324,0.013523,0.002678,0.000431,0.000940
115131000,0.0324,0.013523,0.002678,0.000431,0.000705
115132000,0.0324,0.013523,0.002678,0.000431,0.000940
115133000,0.0324,0.013523,0.002678,0.000431,0.000823
115134000,0.0324,0.013523,0.002678,0.000431,0.000823
115135000,0.0324,0.013523,0.002678,0.000431,0.000823
115136000,0.0324,0.013523,0.002678,0.000431,0.000823
115137000,0.0324,0.013523,0.002678,0.000431,0.000823
115138000,0.0324,0.013523,0.002678,0.000431,0.000823
115139000,0.0324,0.013523,0.002678,0.000431,0.000823
115140000,0.0324,0.013523,0.002678,0.000431,0.000823
115141000,0.0324,0.013523,0.002678,0.000431,0.000940
115142000,0.0324,0.013523,0.002678,0.000431,0.000823
115143000,0.0324,0.013523,0.002678,0.000431,0.000823
115144000,0.0324,0.013523,0.002678,0.000431,0.000705
115145000,0.0324,0.013523,0.002678,0.000431,0.000940
115146000,0.0324,0.013523,0.002678,0.000431,0.000940
115147000,0.0324,0.013523,0.002678,0.000431,0.000705
115148000,0.0324,0.013523,0.002678,0.000431,0.000940
115149000,0.0324,0.013523,0.002678,0.000431,0.000705
115150000,0.0324,0.013523,0.002678,0.000431,0.000940
115151000,0.0324,0.013523,0.002678,0.000431,0.000823
115152000,0.0324,0.013523,0.002678,0.000431,0.000823
115153000,0.0324,0.013523,0.002678,0.000431,0.000940
115154000,0.0324,0.013523,0.002678,0.000431,0.003291
115155000,0.0324,0.013523,0.002678,0.000431,0.401946
115156000,0.0324,0.013523,0.002678,0.000431,0.707872
115157000,0.0324,0.013523,0.002678,0.000431,0.138918
115158000,0.0324,0.013523,0.002678,0.000431,0.133042
115159000,0.0324,0.013523,0.002678,0.000431,0.148321
115160000,0.0324,0.013523,0.002678,0.000431,0.568014
115161000,0.0324,0.013523,0.002678,0.000431,0.236819
115162000,0.0324,0.013523,0.002678,0.000431,0.236232
115163000,0.0324,0.013523,0.002678,0.000431,0.235409
115164000,0.0324,0.013523,0.002678,0.000431,0.147263
115165000,0.0324,0.013523,0.002678,0.000431,0.164187
115166000,0.0324,0.013523,0.002678,0.000431,0.105188
115167000,0.0324,0.013523,0.002678,0.000431,0.423572
115168000,0.0324,0.013523,0.002678,0.000431,0.192629
115169000,0.0324,0.013523,0.002678,0.000431,0.095903
115170000,0.0324,0.013523,0.002678,0.000431,0.072867
115171000,0.0324,0.013523,0.002678,0.000431,0.064876
115172000,0.0324,0.013523,0.002678,0.000431,0.053358
115173000,0.0324,0.013523,0.002678,0.000431,0.045131
115174000,0.0324,0.013523,0.002678,0.000431,0.038314
115175000,0.0324,0.013523,0.002678,0.000431,0.033966
115176000,0.0324,0.013523,0.002678,0.000431,0.033143
115177000,0.0324,0.013523,0.002678,0.000431,0.029500
115178000,0.0324,0.013523,0.002678,0.000431,0.023741
115179000,0.0324,0.013523,0.002678,0.000431,0.021038
115180000,0.0324,0.013523,0.002678,0.000431,0.020685
115181000,0.0324,0.013523,0.002678,0.000431,0.017982
115182000,0.0324,0.013523,0.002678,0.000431,0.016571
115183000,0.0324,0.013523,0.002678,0.000431,0.015161
115184000,0.0324,0.013523,0.002678,0.000431,0.014926
115185000,0.0324,0.013523,0.002678,0.000431,0.011048
115186000,0.0324,0.013523,0.002678,0.000431,0.010225
115187000,0.0324,0.013523,0.002678,0.000431,0.012928
115188000,0.0324,0.013523,0.002678,0.000431,0.011400
115189000,0.0324,0.013523,0.002678,0.000431,0.007522
115190000,0.0324,0.013523,0.002678,0.000431,0.008462
115191000,0.0324,0.013523,0.002678,0.000431,0.007874
115192000,0.0324,0.013523,0.002678,0.000431,0.010107
115193000,0.0324,0.013523,0.002678,0.000431,0.007757
115194000,0.0324,0.013523,0.002678,0.000431,0.008580
115195000,0.0324,0.013523,0.002678,0.000431,0.005524
115196000,0.0324,0.013523,0.002678,0.000431,0.004819
115197000,0.0324,0.013523,0.002678,0.000431,0.008227
115198000,0.0324,0.013523,0.002678,0.000431,0.003291
115199000,0.0324,0.013523,0.002678,0.000431,0.003291
115200000,0.0324,0.013523,0.002678,0.000431,0.003526
115201000,0.0324,0.013523,0.002678,0.000431,0.003173
115202000,0.0324,0.013523,0.002678,0.000431,0.003526
115203000,0.0324,0.013523,0.002678,0.000431,0.003173
115204000,0.0324,0.013523,0.002678,0.000431,0.003408
115205000,0.0324,0.013523,0.002678,0.000431,0.003408
115206000,0.0324,0.013523,0.002678,0.000431,0.003291
115207000,0.0324,0.013523,0.002678,0.000431,0.003408
115208000,0.0324,0.013523,0.002678,0.000431,0.003173
115209000,0.0324,0.013523,0.002678,0.000431,0.005171
115210000,0.0324,0.013523,0.002678,0.000431,0.002468
115211000,0.0324,0.013523,0.002678,0.000431,0.002703
115212000,0.0324,0.013523,0.002678,0.000431,0.002351
115213000,0.0324,0.013523,0.002678,0.000431,0.002586
115214000,0.0324,0.013523,0.002678,0.000431,0.002468
115215000,0.0324,0.013523,0.002678,0.000431,0.002586
115216000,0.0324,0.013523,0.002678,0.000431,0.002351
115217000,0.0324,0.013523,0.002678,0.000431,0.002586
115218000,0.0324,0.013523,0.002678,0.000431,0.002468
115219000,0.0324,0.013523,0.002678,0.000431,0.002468
115220000,0.0324,0.013523,0.002678,0.000431,0.002821
115221000,0.0324,0.013523,0.002678,0.000431,0.002233
115222000,0.0324,0.013523,0.002678,0.000431,0.002703
115223000,0.0324,0.013523,0.002678,0.000431,0.002233
115224000,0.0324,0.013523,0.002678,0.000431,0.002703
115225000,0.0324,0.013523,0.002678,0.000431,0.002586
115226000,0.0324,0.013523,0.002678,0.000431,0.002351
115227000,0.0324,0.013523,0.002678,0.000431,0.002703
115228000,0.0324,0.013523,0.002678,0.000431,0.002351
115229000,0.0324,0.013523,0.002678,0.000431,0.002586
115230000,0.0324,0.013523,0.002678,0.000431,0.002468
115231000,0.0324,0.013523,0.002678,0.000431,0.002586
115232000,0.0324,0.013523,0.002678,0.000431,0.003761
115233000,0.0324,0.013523,0.002678,0.000431,0.001528
115234000,0.0324,0.013523,0.002678,0.000431,0.001880
115235000,0.0324,0.013523,0.002678,0.000431,0.001410
115236000,0.0324,0.013523,0.002678,0.000431,0.003408
115237000,0.0324,0.013523,0.002678,0.000431,0.000823
115238000,0.0324,0.013523,0.002678,0.000431,0.000823
115239000,0.0324,0.013523,0.002678,0.000431,0.000705
115240000,0.0324,0.013523,0.002678,0.000431,0.000940
115241000,0.0324,0.013523,0.002678,0.000431,0.000940
115242000,0.0324,0.013523,0.002678,0.000431,0.000705
115243000,0.0324,0.013523,0.002678,0.000431,0.000940
115244000,0.0324,0.013523,0.002678,0.000431,0.000940
115245000,0.0324,0.013523,0.002678,0.000431,0.000823
115246000,0.0324,0.013523,0.002678,0.000431,0.000823
115247000,0.0324,0.013523,0.002678,0.000431,0.000940
115248000,0.0324,0.013523,0.002678,0.000431,0.000823
115249000,0.0324,0.013523,0.002678,0.000431,0.000940
115250000,0.0324,0.013523,0.002678,0.000431,0.000823
115251000,0.0324,0.013523,0.002678,0.000431,0.000940
115252000,0.0324,0.013523,0.002678,0.000431,0.000823
115253000,0.0324,0.013523,0.002678,0.000431,0.000823
115254000,0.0324,0.013523,0.002678,0.000431,0.002116
115255000,0.0324,0.013523,0.002678,0.000431,0.423337
115256000,0.0324,0.013523,0.002678,0.000431,0.701408
115257000,0.0324,0.013523,0.002678,0.000431,0.133277
115258000,0.0324,0.013523,0.002678,0.000431,0.133042
115259000,0.0324,0.013523,0.002678,0.000431,0.231413
115260000,0.0324,0.013523,0.002678,0.000431,0.524528
115261000,0.0324,0.013523,0.002678,0.000431,0.275486
115262000,0.0324,0.013523,0.002678,0.000431,0.305926
115263000,0.0324,0.013523,0.002678,0.000431,0.197682
115264000,0.0324,0.013523,0.002678,0.000431,0.143384
115265000,0.0324,0.013523,0.002678,0.000431,0.132337
115266000,0.0324,0.013523,0.002678,0.000431,0.239875
115267000,0.0324,0.013523,0.002678,0.000431,0.362222
115268000,0.0324,0.013523,0.002678,0.000431,0.058294
115269000,0.0324,0.013523,0.002678,0.000431,0.044191
115270000,0.0324,0.013523,0.002678,0.000431,0.040900
115271000,0.0324,0.013523,0.002678,0.000431,0.033496
115272000,0.0324,0.013523,0.002678,0.000431,0.026444
115273000,0.0324,0.013523,0.002678,0.000431,0.015984
115274000,0.0324,0.013523,0.002678,0.000431,0.015044
115275000,0.0324,0.013523,0.002678,0.000431,0.018217
115276000,0.0324,0.013523,0.002678,0.000431,0.013868
115277000,0.0324,0.013523,0.002678,0.000431,0.014221
115278000,0.0324,0.013523,0.002678,0.000431,0.017512
115279000,0.0324,0.013523,0.002678,0.000431,0.013633
115280000,0.0324,0.013523,0.002678,0.000431,0.011283
115281000,0.0324,0.013523,0.002678,0.000431,0.011635
115282000,0.0324,0.013523,0.002678,0.000431,0.010342
115283000,0.0324,0.013523,0.002678,0.000431,0.011400
115284000,0.0324,0.013523,0.002678,0.000431,0.011753
115285000,0.0324,0.013523,0.002678,0.000431,0.008345
115286000,0.0324,0.013523,0.002678,0.000431,0.007169
115287000,0.0324,0.013523,0.002678,0.000431,0.010460
115288000,0.0324,0.013523,0.002678,0.000431,0.008580
115289000,0.0324,0.013523,0.002678,0.000431,0.005289
115290000,0.0324,0.013523,0.002678,0.000431,0.006817
115291000,0.0324,0.013523,0.002678,0.000431,0.003878
115292000,0.0324,0.013523,0.002678,0.000431,0.004113
115293000,0.0324,0.013523,0.002678,0.000431,0.006582
115294000,0.0324,0.013523,0.002678,0.000431,0.005759
115295000,0.0324,0.013523,0.002678,0.000431,0.002821
115296000,0.0324,0.013523,0.002678,0.000431,0.001528
115297000,0.0324,0.013523,0.002678,0.000431,0.001528
115298000,0.0324,0.013523,0.002678,0.000431,0.001645
115299000,0.0324,0.013523,0.002678,0.000431,0.001645
115300000,0.0324,0.013523,0.002678,0.000431,0.001410
115301000,0.0324,0.013523,0.002678,0.000431,0.001645
115302000,0.0324,0.013523,0.002678,0.000431,0.001645
115303000,0.0324,0.013523,0.002678,0.000431,0.001410
115304000,0.0324,0.013523,0.002678,0.000431,0.001880
115305000,0.0324,0.013523,0.002678,0.000431,0.001175
115306000,0.0324,0.013523,0.002678,0.000431,0.001880
115307000,0.0324,0.013523,0.002678,0.000431,0.001410
115308000,0.0324,0.013523,0.002678,0.000431,0.001645
115309000,0.0324,0.013523,0.002678,0.000431,0.001645
115310000,0.0324,0.013523,0.002678,0.000431,0.001410
115311000,0.0324,0.013523,0.002678,0.000431,0.001645
115312000,0.0324,0.013523,0.002678,0.000431,0.001645
115313000,0.0324,0.013523,0.002678,0.000431,0.001645
115314000,0.0324,0.013523,0.002678,0.000431,0.001410
115315000,0.0324,0.013523,0.002678,0.000431,0.001645
115316000,0.0324,0.013523,0.002678,0.000431,0.001410
115317000,0.0324,0.013523,0.002678,0.000431,0.001880
115318000,0.0324,0.013523,0.002678,0.000431,0.001410
115319000,0.0324,0.013523,0.002678,0.000431,0.001645
115320000,0.0324,0.013523,0.002678,0.000431,0.001293
115321000,0.0324,0.013523,0.002678,0.000431,0.001763
115322000,0.0324,0.013523,0.002678,0.000431,0.001880
115323000,0.0324,0.013523,0.002678,0.000431,0.001175
115324000,0.0324,0.013523,0.002678,0.000431,0.001880
115325000,0.0324,0.013523,0.002678,0.000431,0.001293
115326000,0.0324,0.013523,0.002678,0.000431,0.001763
115327000,0.0324,0.013523,0.002678,0.000431,0.001645
115328000,0.0324,0.013523,0.002678,0.000431,0.001410
115329000,0.0324,0.013523,0.002678,0.000431,0.001645
115330000,0.0324,0.013523,0.002678,0.000431,0.001528
115331000,0.0324,0.013523,0.002678,0.000431,0.001528
115332000,0.0324,0.013523,0.002678,0.000431,0.001645
115333000,0.0324,0.013523,0.002678,0.000431,0.001528
115334000,0.0324,0.013523,0.002678,0.000431,0.001528
115335000,0.0324,0.013523,0.002678,0.000431,0.001645
115336000,0.0324,0.013523,0.002678,0.000431,0.001410
115337000,0.0324,0.013523,0.002678,0.000431,0.001880
115338000,0.0324,0.013523,0.002678,0.000431,0.001410
115339000,0.0324,0.013523,0.002678,0.000431,0.001645
115340000,0.0324,0.013523,0.002678,0.000431,0.001410
115341000,0.0324,0.013523,0.002678,0.000431,0.001645
115342000,0.0324,0.013523,0.002678,0.000431,0.001880
115343000,0.0324,0.013523,0.002678,0.000431,0.001175
115344000,0.0324,0.013523,0.002678,0.000431,0.001880
115345000,0.0324,0.013523,0.002678,0.000431,0.001410
115346000,0.0324,0.013523,0.002678,0.000431,0.001645
115347000,0.0324,0.013523,0.002678,0.000431,0.001645
115348000,0.0324,0.013523,0.002678,0.000431,0.001410
115349000,0.0324,0.013523,0.002678,0.000431,0.001645
115350000,0.0324,0.013523,0.002678,0.000431,0.001645
115351000,0.0324,0.013523,0.002678,0.000431,0.001410
115352000,0.0324,0.013523,0.002678,0.000431,0.001645
115353000,0.0324,0.013523,0.002678,0.000431,0.001645
115354000,0.0324,0.013523,0.002678,0.000431,0.001410
115355000,0.0324,0.013523,0.002678,0.000431,0.001880
115356000,0.0324,0.013523,0.002678,0.000431,0.001175
115357000,0.0324,0.013523,0.002678,0.000431,0.001880
115358000,0.0324,0.013523,0.002678,0.000431,0.001293
115359000,0.0324,0.013523,0.002678,0.000431,0.001763
115360000,0.0324,0.013523,0.002678,0.000431,0.001645
115361000,0.0324,0.013523,0.002678,0.000431,0.001410
115362000,0.0324,0.013523,0.002678,0.000431,0.001880
115363000,0.0324,0.013523,0.002678,0.000431,0.001293
115364000,0.0324,0.013523,0.002678,0.000431,0.001763
115365000,0.0324,0.013523,0.002678,0.000431,0.001645
115366000,0.0324,0.013523,0.002678,0.000431,0.001410
115367000,0.0324,0.013523,0.002678,0.000431,0.001645
115368000,0.0324,0.013523,0.002678,0.000431,0.001528
115369000,0.0324,0.013523,0.002678,0.000431,0.001528
115370000,0.0324,0.013523,0.002678,0.000431,0.001645
115371000,0.0324,0.013523,0.002678,0.000431,0.001410
115372000,0.0324,0.013523,0.002678,0.000431,0.001645
115373000,0.0324,0.013523,0.002678,0.000431,0.001645
115374000,0.0324,0.013523,0.002678,0.000431,0.001410
115375000,0.0324,0.013523,0.002678,0.000431,0.001880
115376000,0.0324,0.013523,0.002678,0.000431,0.001175
115377000,0.0324,0.013523,0.002678,0.000431,0.001880
115378000,0.0324,0.013523,0.002678,0.000431,0.001410
115379000,0.0324,0.013523,0.002678,0.000431,0.001645
115380000,0.0324,0.013523,0.002678,0.000431,0.001645
115381000,0.0324,0.013523,0.002678,0.000431,0.001410
115382000,0.0324,0.013523,0.002678,0.000431,0.001880
115383000,0.0324,0.013523,0.002678,0.000431,0.001410
115384000,0.0324,0.013523,0.002678,0.000431,0.001645
115385000,0.0324,0.013523,0.002678,0.000431,0.001175
115386000,0.0324,0.013523,0.002678,0.000431,0.001880
115387000,0.0324,0.013523,0.002678,0.000431,0.373975
115388000,0.0324,0.013523,0.002678,0.000431,0.700938
115389000,0.0324,0.013523,0.002678,0.000431,0.140564
115390000,0.0324,0.013523,0.002678,0.000431,0.133982
115391000,0.0324,0.013523,0.002678,0.000431,0.224714
115392000,0.0324,0.013523,0.002678,0.000431,0.601862
115393000,0.0324,0.013523,0.002678,0.000431,0.275016
115394000,0.0324,0.013523,0.002678,0.000431,0.301225
115395000,0.0324,0.013523,0.002678,0.000431,0.161484
115396000,0.0324,0.013523,0.002678,0.000431,0.148673
115397000,0.0324,0.013523,0.002678,0.000431,0.100957
115398000,0.0324,0.013523,0.002678,0.000431,0.370214
115399000,0.0324,0.013523,0.002678,0.000431,0.194862
115400000,0.0324,0.013523,0.002678,0.000431,0.016571
115401000,0.0324,0.013523,0.002678,0.000431,0.012693
115402000,0.0324,0.013523,0.002678,0.000431,0.012458
115403000,0.0324,0.013523,0.002678,0.000431,0.010695
115404000,0.0324,0.013523,0.002678,0.000431,0.007757
115405000,0.0324,0.013523,0.002678,0.000431,0.007522
115406000,0.0324,0.013523,0.002678,0.000431,0.010695
115407000,0.0324,0.013523,0.002678,0.000431,0.006111
115408000,0.0324,0.013523,0.002678,0.000431,0.005876
115409000,0.0324,0.013523,0.002678,0.000431,0.005524
115410000,0.0324,0.013523,0.002678,0.000431,0.006229
115411000,0.0324,0.013523,0.002678,0.000431,0.006111
115412000,0.0324,0.013523,0.002678,0.000431,0.007052
115413000,0.0324,0.013523,0.002678,0.000431,0.005054
115414000,0.0324,0.013523,0.002678,0.000431,0.005171
115415000,0.0324,0.013523,0.002678,0.000431,0.005171
115416000,0.0324,0.013523,0.002678,0.000431,0.004819
115417000,0.0324,0.013523,0.002678,0.000431,0.005289
115418000,0.0324,0.013523,0.002678,0.000431,0.005171
115419000,0.0324,0.013523,0.002678,0.000431,0.006347
115420000,0.0324,0.013523,0.002678,0.000431,0.006229
115421000,0.0324,0.013523,0.002678,0.000431,0.003056
115422000,0.0324,0.013523,0.002678,0.000431,0.003643
115423000,0.0324,0.013523,0.002678,0.000431,0.003173
115424000,0.0324,0.013523,0.002678,0.000431,0.003408
115425000,0.0324,0.013523,0.002678,0.000431,0.003526
115426000,0.0324,0.013523,0.002678,0.000431,0.003291
115427000,0.0324,0.013523,0.002678,0.000431,0.003526
115428000,0.0324,0.013523,0.002678,0.000431,0.003056
115429000,0.0324,0.013523,0.002678,0.000431,0.003761
115430000,0.0324,0.013523,0.002678,0.000431,0.003291
115431000,0.0324,0.013523,0.002678,0.000431,0.003408
115432000,0.0324,0.013523,0.002678,0.000431,0.003173
115433000,0.0324,0.013523,0.002678,0.000431,0.003526
115434000,0.0324,0.013523,0.002678,0.000431,0.003761
115435000,0.0324,0.013523,0.002678,0.000431,0.002938
115436000,0.0324,0.013523,0.002678,0.000431,0.003643
115437000,0.0324,0.013523,0.002678,0.000431,0.004231
115438000,0.0324,0.013523,0.002678,0.000431,0.002938
115439000,0.0324,0.013523,0.002678,0.000431,0.002116
115440000,0.0324,0.013523,0.002678,0.000431,0.002821
115441000,0.0324,0.013523,0.002678,0.000431,0.002468
115442000,0.0324,0.013523,0.002678,0.000431,0.003761
115443000,0.0324,0.013523,0.002678,0.000431,0.001880
115444000,0.0324,0.013523,0.002678,0.000431,0.001410
115445000,0.0324,0.013523,0.002678,0.000431,0.001880
115446000,0.0324,0.013523,0.002678,0.000431,0.001528
115447000,0.0324,0.013523,0.002678,0.000431,0.001763
115448000,0.0324,0.013523,0.002678,0.000431,0.001645
115449000,0.0324,0.013523,0.002678,0.000431,0.003526
115450000,0.0324,0.013523,0.002678,0.000431,0.001058
115451000,0.0324,0.013523,0.002678,0.000431,0.000705
115452000,0.0324,0.013523,0.002678,0.000431,0.000940
115453000,0.0324,0.013523,0.002678,0.000431,0.000823
115454000,0.0324,0.013523,0.002678,0.000431,0.000823
115455000,0.0324,0.013523,0.002678,0.000431,0.000823
115456000,0.0324,0.013523,0.002678,0.000431,0.000823
115457000,0.0324,0.013523,0.002678,0.000431,0.000823
115458000,0.0324,0.013523,0.002678,0.000431,0.000823
115459000,0.0324,0.013523,0.002678,0.000431,0.000823
115460000,0.0324,0.013523,0.002678,0.000431,0.000823
115461000,0.0324,0.013523,0.002678,0.000431,0.000940
115462000,0.0324,0.013523,0.002678,0.000431,0.000823
115463000,0.0324,0.013523,0.002678,0.000431,0.000823
115464000,0.0324,0.013523,0.002678,0.000431,0.000705
115465000,0.0324,0.013523,0.002678,0.000431,0.000940
115466000,0.0324,0.013523,0.002678,0.000431,0.000940
115467000,0.0324,0.013523,0.002678,0.000431,0.000705
115468000,0.0324,0.013523,0.002678,0.000431,0.000940
115469000,0.0324,0.013523,0.002678,0.000431,0.000705
115470000,0.0324,0.013523,0.002678,0.000431,0.000823
115471000,0.0324,0.013523,0.002678,0.000431,0.000940
115472000,0.0324,0.013523,0.002678,0.000431,0.000823
115473000,0.0324,0.013523,0.002678,0.000431,0.000823
115474000,0.0324,0.013523,0.002678,0.000431,0.000823
115475000,0.0324,0.013523,0.002678,0.000431,0.000823
115476000,0.0324,0.013523,0.002678,0.000431,0.000823
115477000,0.0324,0.013523,0.002678,0.000431,0.000940
115478000,0.0324,0.013523,0.002678,0.000431,0.000705
115479000,0.0324,0.013523,0.002678,0.000431,0.000940
115480000,0.0324,0.013523,0.002678,0.000431,0.000823
115481000,0.0324,0.013523,0.002678,0.000431,0.000823
115482000,0.0324,0.013523,0.002678,0.000431,0.000705
115483000,0.0324,0.013523,0.002678,0.000431,0.000940
115484000,0.0324,0.013523,0.002678,0.000431,0.000940
115485000,0.0324,0.013523,0.002678,0.000431,0.000705
115486000,0.0324,0.013523,0.002678,0.000431,0.000940
115487000,0.0324,0.013523,0.002678,0.000431,0.000705
115488000,0.0324,0.013523,0.002678,0.000431,0.000940
115489000,0.0324,0.013523,0.002678,0.000431,0.000823
115490000,0.0324,0.013523,0.002678,0.000431,0.000823
115491000,0.0324,0.013523,0.002678,0.000431,0.000940
115492000,0.0324,0.013523,0.002678,0.000431,0.000705
115493000,0.0324,0.013523,0.002678,0.000431,0.000940
115494000,0.0324,0.013523,0.002678,0.000431,0.000823
115495000,0.0324,0.013523,0.002678,0.000431,0.000823
115496000,0.0324,0.013523,0.002678,0.000431,0.000823
115497000,0.0324,0.013523,0.002678,0.000431,0.000823
115498000,0.0324,0.013523,0.002678,0.000431,0.000823
115499000,0.0324,0.013523,0.002678,0.000431,0.000823
115500000,0.0324,0.013523,0.002678,0.000431,0.000940
115501000,0.0324,0.013523,0.002678,0.000431,0.000705
115502000,0.0324,0.013523,0.002678,0.000431,0.000823
115503000,0.0324,0.013523,0.002678,0.000431,0.000940
115504000,0.0324,0.013523,0.002678,0.000431,0.000823
115505000,0.0324,0.013523,0.002678,0.000431,0.000823
115506000,0.0324,0.013523,0.002678,0.000431,0.000823
115507000,0.0324,0.013523,0.002678,0.000431,0.000823
115508000,0.0324,0.013523,0.002678,0.000431,0.000823
115509000,0.0324,0.013523,0.002678,0.000431,0.000940
115510000,0.0324,0.013523,0.002678,0.000431,0.000705
115511000,0.0324,0.013523,0.002678,0.000431,0.000940
115512000,0.0324,0.013523,0.002678,0.000431,0.000705
115513000,0.0324,0.013523,0.002678,0.000431,0.000940
115514000,0.0324,0.013523,0.002678,0.000431,0.000940
115515000,0.0324,0.013523,0.002678,0.000431,0.000705
115516000,0.0324,0.013523,0.002678,0.000431,0.000940
115517000,0.0324,0.013523,0.002678,0.000431,0.000705
115518000,0.0324,0.013523,0.002678,0.000431,0.000940
115519000,0.0324,0.013523,0.002678,0.000431,0.000823
115520000,0.0324,0.013523,0.002678,0.000431,0.000823
115521000,0.0324,0.013523,0.002678,0.000431,0.000823
115522000,0.0324,0.013523,0.002678,0.000431,0.000823
115523000,0.0324,0.013523,0.002678,0.000431,0.000940
115524000,0.0324,0.013523,0.002678,0.000431,0.000705
115525000,0.0324,0.013523,0.002678,0.000431,0.000940
115526000,0.0324,0.013523,0.002678,0.000431,0.000823
115527000,0.0324,0.013523,0.002678,0.000431,0.000823
115528000,0.0324,0.013523,0.002678,0.000431,0.000823
115529000,0.0324,0.013523,0.002678,0.000431,0.000823
115530000,0.0324,0.013523,0.002678,0.000431,0.000823
115531000,0.0324,0.013523,0.002678,0.000431,0.000823
115532000,0.0324,0.013523,0.002678,0.000431,0.000940
115533000,0.0324,0.013523,0.002678,0.000431,0.000823
115534000,0.0324,0.013523,0.002678,0.000431,0.000823
115535000,0.0324,0.013523,0.002678,0.000431,0.000705
115536000,0.0324,0.013523,0.002678,0.000431,0.000940
115537000,0.0324,0.013523,0.002678,0.000431,0.000940
115538000,0.0324,0.013523,0.002678,0.000431,0.000705
115539000,0.0324,0.013523,0.002678,0.000431,0.000940
115540000,0.0324,0.013523,0.002678,0.000431,0.000705
115541000,0.0324,0.013523,0.002678,0.000431,0.000940
115542000,0.0324,0.013523,0.002678,0.000431,0.000823
115543000,0.0324,0.013523,0.002678,0.000431,0.000823
115544000,0.0324,0.013523,0.002678,0.000431,0.000823
115545000,0.0324,0.013523,0.002678,0.000431,0.000823
115546000,0.0324,0.013523,0.002678,0.000431,0.000940
115547000,0.0324,0.013523,0.002678,0.000431,0.000823
115548000,0.0324,0.013523,0.002678,0.000431,0.000823
115549000,0.0324,0.013523,0.002678,0.000431,0.000823
115550000,0.0324,0.013523,0.002678,0.000431,0.000823
115551000,0.0324,0.013523,0.002678,0.000431,0.000823
115552000,0.0324,0.013523,0.002678,0.000431,0.000823
115553000,0.0324,0.013523,0.002678,0.000431,0.000940
115554000,0.0324,0.013523,0.002678,0.000431,0.000705
115555000,0.0324,0.013523,0.002678,0.000431,0.000823
115556000,0.0324,0.013523,0.002678,0.000431,0.000940
115557000,0.0324,0.013523,0.002678,0.000431,0.000823
115558000,0.0324,0.013523,0.002678,0.000431,0.000823
115559000,0.0324,0.013523,0.002678,0.000431,0.000823
115560000,0.0324,0.013523,0.002678,0.000431,0.000705
115561000,0.0324,0.013523,0.002678,0.000431,0.000940
115562000,0.0324,0.013523,0.002678,0.000431,0.000940
115563000,0.0324,0.013523,0.002678,0.000431,0.000705
115564000,0.0324,0.013523,0.002678,0.000431,0.000940
115565000,0.0324,0.013523,0.002678,0.000431,0.000705
115566000,0.0324,0.013523,0.002678,0.000431,0.000940
115567000,0.0324,0.013523,0.002678,0.000431,0.000940
115568000,0.0324,0.013523,0.002678,0.000431,0.000705
115569000,0.0324,0.013523,0.002678,0.000431,0.000940
115570000,0.0324,0.013523,0.002678,0.000431,0.000705
115571000,0.0324,0.013523,0.002678,0.000431,0.000940
115572000,0.0324,0.013523,0.002678,0.000431,0.000823
115573000,0.0324,0.013523,0.002678,0.000431,0.000823
115574000,0.0324,0.013523,0.002678,0.000431,0.000823
115575000,0.0324,0.013523,0.002678,0.000431,0.000823
115576000,0.0324,0.013523,0.002678,0.000431,0.000940
115577000,0.0324,0.013523,0.002678,0.000431,0.000705
115578000,0.0324,0.013523,0.002678,0.000431,0.000940
115579000,0.0324,0.013523,0.002678,0.000431,0.000823
115580000,0.0324,0.013523,0.002678,0.000431,0.000823
115581000,0.0324,0.013523,0.002678,0.000431,0.000823
115582000,0.0324,0.013523,0.002678,0.000431,0.000823
115583000,0.0324,0.013523,0.002678,0.000431,0.000823
115584000,0.0324,0.013523,0.002678,0.000431,0.000823
115585000,0.0324,0.013523,0.002678,0.000431,0.000940
115586000,0.0324,0.013523,0.002678,0.000431,0.000705
115587000,0.0324,0.013523,0.002678,0.000431,0.000940
115588000,0.0324,0.013523,0.002678,0.000431,0.000705
115589000,0.0324,0.013523,0.002678,0.000431,0.000940
115590000,0.0324,0.013523,0.002678,0.000431,0.000940
115591000,0.0324,0.013523,0.002678,0.000431,0.000705
115592000,0.0324,0.013523,0.002678,0.000431,0.000940
115593000,0.0324,0.013523,0.002678,0.000431,0.000705
115594000,0.0324,0.013523,0.002678,0.000431,0.000940
115595000,0.0324,0.013523,0.002678,0.000431,0.000823
115596000,0.0324,0.013523,0.002678,0.000431,0.000823
115597000,0.0324,0.013523,0.002678,0.000431,0.000823
115598000,0.0324,0.013523,0.002678,0.000431,0.000823
115599000,0.0324,0.013523,0.002678,0.000431,0.000940
115600000,0.0324,0.013523,0.002678,0.000431,0.000705
115601000,0.0324,0.013523,0.002678,0.000431,0.000940
115602000,0.0324,0.013523,0.002678,0.000431,0.000823
115603000,0.0324,0.013523,0.002678,0.000431,0.000823
115604000,0.0324,0.013523,0.002678,0.000431,0.000823
115605000,0.0324,0.013523,0.002678,0.000431,0.000823
115606000,0.0324,0.013523,0.002678,0.000431,0.000823
115607000,0.0324,0.013523,0.002678,0.000431,0.000823
115608000,0.0324,0.013523,0.002678,0.000431,0.000823
115609000,0.0324,0.013523,0.002678,0.000431,0.000823
115610000,0.0324,0.013523,0.002678,0.000431,0.000940
115611000,0.0324,0.013523,0.002678,0.000431,0.000823
115612000,0.0324,0.013523,0.002678,0.000431,0.000823
115613000,0.0324,0.013523,0.002678,0.000431,0.000705
115614000,0.0324,0.013523,0.002678,0.000431,0.000940
115615000,0.0324,0.013523,0.002678,0.000431,0.000940
115616000,0.0324,0.013523,0.002678,0.000431,0.000705
115617000,0.0324,0.013523,0.002678,0.000431,0.000940
115618000,0.0324,0.013523,0.002678,0.000431,0.000705
115619000,0.0324,0.013523,0.002678,0.000431,0.000940
115620000,0.0324,0.013523,0.002678,0.000431,0.000823
115621000,0.0324,0.013523,0.002678,0.000431,0.000823
115622000,0.0324,0.013523,0.002678,0.000431,0.000940
115623000,0.0324,0.013523,0.002678,0.000431,0.000705
115624000,0.0324,0.013523,0.002678,0.000431,0.000940
115625000,0.0324,0.013523,0.002678,0.000431,0.000823
115626000,0.0324,0.013523,0.002678,0.000431,0.000823
115627000,0.0324,0.013523,0.002678,0.000431,0.000823
115628000,0.0324,0.013523,0.002678,0.000431,0.000823
115629000,0.0324,0.013523,0.002678,0.000431,0.000940
115630000,0.0324,0.013523,0.002678,0.000431,0.000705
115631000,0.0324,0.013523,0.002678,0.000431,0.000940
115632000,0.0324,0.013523,0.002678,0.000431,0.000705
115633000,0.0324,0.013523,0.002678,0.000431,0.000940
115634000,0.0324,0.013523,0.002678,0.000431,0.000823
115635000,0.0324,0.013523,0.002678,0.000431,0.000823
115636000,0.0324,0.013523,0.002678,0.000431,0.000705
115637000,0.0324,0.013523,0.002678,0.000431,0.000940
115638000,0.0324,0.013523,0.002678,0.000431,0.000940
115639000,0.0324,0.013523,0.002678,0.000431,0.000705
115640000,0.0324,0.013523,0.002678,0.000431,0.000940
115641000,0.0324,0.013523,0.002678,0.000431,0.000705
115642000,0.0324,0.013523,0.002678,0.000431,0.000940
115643000,0.0324,0.013523,0.002678,0.000431,0.000823
115644000,0.0324,0.013523,0.002678,0.000431,0.000823
115645000,0.0324,0.013523,0.002678,0.000431,0.000940
115646000,0.0324,0.013523,0.002678,0.000431,0.000705
115647000,0.0324,0.013523,0.002678,0.000431,0.000940
115648000,0.0324,0.013523,0.002678,0.000431,0.000823
115649000,0.0324,0.013523,0.002678,0.000431,0.000823
115650000,0.0324,0.013523,0.002678,0.000431,0.000823
115651000,0.0324,0.013523,0.002678,0.000431,0.000823
115652000,0.0324,0.013523,0.002678,0.000431,0.000823
115653000,0.0324,0.013523,0.002678,0.000431,0.000823
115654000,0.0324,0.013523,0.002678,0.000431,0.000940
115655000,0.0324,0.013523,0.002678,0.000431,0.000705
115656000,0.0324,0.013523,0.002678,0.000431,0.000823
115657000,0.0324,0.013523,0.002678,0.000431,0.000940
115658000,0.0324,0.013523,0.002678,0.000431,0.000823
115659000,0.0324,0.013523,0.002678,0.000431,0.000823
115660000,0.0324,0.013523,0.002678,0.000431,0.000823
115661000,0.0324,0.013523,0.002678,0.000431,0.000823
115662000,0.0324,0.013523,0.002678,0.000431,0.000823
115663000,0.0324,0.013523,0.002678,0.000431,0.000940
115664000,0.0324,0.013523,0.002678,0.000431,0.000823
115665000,0.0324,0.013523,0.002678,0.000431,0.000823
115666000,0.0324,0.013523,0.002678,0.000431,0.000705
115667000,0.0324,0.013523,0.002678,0.000431,0.000940
115668000,0.0324,0.013523,0.002678,0.000431,0.000940
115669000,0.0324,0.013523,0.002678,0.000431,0.000705
115670000,0.0324,0.013523,0.002678,0.000431,0.000940
115671000,0.0324,0.013523,0.002678,0.000431,0.000705
115672000,0.0324,0.013523,0.002678,0.000431,0.000940
115673000,0.0324,0.013523,0.002678,0.000431,0.000823
115674000,0.0324,0.013523,0.002678,0.000431,0.000823
115675000,0.0324,0.013523,0.002678,0.000431,0.000823
115676000,0.0324,0.013523,0.002678,0.000431,0.013868
115677000,0.0324,0.013523,0.002678,0.000431,0.429683
115678000,0.0324,0.013523,0.002678,0.000431,0.600569
115679000,0.0324,0.013523,0.002678,0.000431,0.132689
115680000,0.0324,0.013523,0.002678,0.000431,0.131044
115681000,0.0324,0.013523,0.002678,0.000431,0.281598
115682000,0.0324,0.013523,0.002678,0.000431,0.490915
115683000,0.0324,0.013523,0.002678,0.000431,0.266554
115684000,0.0324,0.013523,0.002678,0.000431,0.279012
115685000,0.0324,0.013523,0.002678,0.000431,0.207672
115686000,0.0324,0.013523,0.002678,0.000431,0.133277
115687000,0.0324,0.013523,0.002678,0.000431,0.183697
115688000,0.0324,0.013523,0.002678,0.000431,0.088734
115689000,0.0324,0.013523,0.002678,0.000431,0.491503
115690000,0.0324,0.013523,0.002678,0.000431,0.165245
115691000,0.0324,0.013523,0.002678,0.000431,0.112122
115692000,0.0324,0.013523,0.002678,0.000431,0.091202
115693000,0.0324,0.013523,0.002678,0.000431,0.074748
115694000,0.0324,0.013523,0.002678,0.000431,0.055356
115695000,0.0324,0.013523,0.002678,0.000431,0.052770
115696000,0.0324,0.013523,0.002678,0.000431,0.043838
115697000,0.0324,0.013523,0.002678,0.000431,0.046424
115698000,0.0324,0.013523,0.002678,0.000431,0.027149
115699000,0.0324,0.013523,0.002678,0.000431,0.023036
115700000,0.0324,0.013523,0.002678,0.000431,0.021155
115701000,0.0324,0.013523,0.002678,0.000431,0.017277
115702000,0.0324,0.013523,0.002678,0.000431,0.013281
115703000,0.0324,0.013523,0.002678,0.000431,0.013633
115704000,0.0324,0.013523,0.002678,0.000431,0.016219
115705000,0.0324,0.013523,0.002678,0.000431,0.011635
115706000,0.0324,0.013523,0.002678,0.000431,0.010107
115707000,0.0324,0.013523,0.002678,0.000431,0.011988
115708000,0.0324,0.013523,0.002678,0.000431,0.009872
115709000,0.0324,0.013523,0.002678,0.000431,0.009285
115710000,0.0324,0.013523,0.002678,0.000431,0.010578
115711000,0.0324,0.013523,0.002678,0.000431,0.009402
115712000,0.0324,0.013523,0.002678,0.000431,0.009990
115713000,0.0324,0.013523,0.002678,0.000431,0.008697
115714000,0.0324,0.013523,0.002678,0.000431,0.009520
115715000,0.0324,0.013523,0.002678,0.000431,0.007169
115716000,0.0324,0.013523,0.002678,0.000431,0.006582
115717000,0.0324,0.013523,0.002678,0.000431,0.008462
115718000,0.0324,0.013523,0.002678,0.000431,0.005876
115719000,0.0324,0.013523,0.002678,0.000431,0.006111
115720000,0.0324,0.013523,0.002678,0.000431,0.006111
115721000,0.0324,0.013523,0.002678,0.000431,0.008345
115722000,0.0324,0.013523,0.002678,0.000431,0.005054
115723000,0.0324,0.013523,0.002678,0.000431,0.005054
115724000,0.0324,0.013523,0.002678,0.000431,0.005524
115725000,0.0324,0.013523,0.002678,0.000431,0.006111
115726000,0.0324,0.013523,0.002678,0.000431,0.005759
115727000,0.0324,0.013523,0.002678,0.000431,0.005994
115728000,0.0324,0.013523,0.002678,0.000431,0.003291
115729000,0.0324,0.013523,0.002678,0.000431,0.005524
115730000,0.0324,0.013523,0.002678,0.000431,0.002468
115731000,0.0324,0.013523,0.002678,0.000431,0.003643
115732000,0.0324,0.013523,0.002678,0.000431,0.001645
115733000,0.0324,0.013523,0.002678,0.000431,0.001763
115734000,0.0324,0.013523,0.002678,0.000431,0.003056
115735000,0.0324,0.013523,0.002678,0.000431,0.002703
115736000,0.0324,0.013523,0.002678,0.000431,0.000823
115737000,0.0324,0.013523,0.002678,0.000431,0.000823
115738000,0.0324,0.013523,0.002678,0.000431,0.000823
115739000,0.0324,0.013523,0.002678,0.000431,0.000823
115740000,0.0324,0.013523,0.002678,0.000431,0.000940
115741000,0.0324,0.013523,0.002678,0.000431,0.000705
115742000,0.0324,0.013523,0.002678,0.000431,0.000940
115743000,0.0324,0.013523,0.002678,0.000431,0.000823
115744000,0.0324,0.013523,0.002678,0.000431,0.000823
115745000,0.0324,0.013523,0.002678,0.000431,0.000823
115746000,0.0324,0.013523,0.002678,0.000431,0.000823
115747000,0.0324,0.013523,0.002678,0.000431,0.000823
115748000,0.0324,0.013523,0.002678,0.000431,0.000823
115749000,0.0324,0.013523,0.002678,0.000431,0.071105
115750000,0.0324,0.013523,0.002678,0.000431,0.580119
115751000,0.0324,0.013523,0.002678,0.000431,0.581882
115752000,0.0324,0.013523,0.002678,0.000431,0.148086
115753000,0.0324,0.013523,0.002678,0.000431,0.137743
115754000,0.0324,0.013523,0.002678,0.000431,0.589051
115755000,0.0324,0.013523,0.002678,0.000431,0.243636
115756000,0.0324,0.013523,0.002678,0.000431,0.276896
115757000,0.0324,0.013523,0.002678,0.000431,0.285358
115758000,0.0324,0.013523,0.002678,0.000431,0.150319
115759000,0.0324,0.013523,0.002678,0.000431,0.160543
115760000,0.0324,0.013523,0.002678,0.000431,0.155960
115761000,0.0324,0.013523,0.002678,0.000431,0.465882
115762000,0.0324,0.013523,0.002678,0.000431,0.125873
115763000,0.0324,0.013523,0.002678,0.000431,0.098724
115764000,0.0324,0.013523,0.002678,0.000431,0.066991
115765000,0.0324,0.013523,0.002678,0.000431,0.065111
115766000,0.0324,0.013523,0.002678,0.000431,0.043368
115767000,0.0324,0.013523,0.002678,0.000431,0.037491
115768000,0.0324,0.013523,0.002678,0.000431,0.031027
115769000,0.0324,0.013523,0.002678,0.000431,0.031733
115770000,0.0324,0.013523,0.002678,0.000431,0.021038
115771000,0.0324,0.013523,0.002678,0.000431,0.017159
115772000,0.0324,0.013523,0.002678,0.000431,0.011518
115773000,0.0324,0.013523,0.002678,0.000431,0.011400
115774000,0.0324,0.013523,0.002678,0.000431,0.015279
115775000,0.0324,0.013523,0.002678,0.000431,0.010342
115776000,0.0324,0.013523,0.002678,0.000431,0.006111
115777000,0.0324,0.013523,0.002678,0.000431,0.007287
115778000,0.0324,0.013523,0.002678,0.000431,0.005054
115779000,0.0324,0.013523,0.002678,0.000431,0.007287
115780000,0.0324,0.013523,0.002678,0.000431,0.004349
115781000,0.0324,0.013523,0.002678,0.000431,0.004466
115782000,0.0324,0.013523,0.002678,0.000431,0.005524
115783000,0.0324,0.013523,0.002678,0.000431,0.004584
115784000,0.0324,0.013523,0.002678,0.000431,0.003408
115785000,0.0324,0.013523,0.002678,0.000431,0.003761
115786000,0.0324,0.013523,0.002678,0.000431,0.003408
115787000,0.0324,0.013523,0.002678,0.000431,0.003526
115788000,0.0324,0.013523,0.002678,0.000431,0.004113
115789000,0.0324,0.013523,0.002678,0.000431,0.003408
115790000,0.0324,0.013523,0.002678,0.000431,0.003526
115791000,0.0324,0.013523,0.002678,0.000431,0.003291
115792000,0.0324,0.013523,0.002678,0.000431,0.003761
115793000,0.0324,0.013523,0.002678,0.000431,0.004819
115794000,0.0324,0.013523,0.002678,0.000431,0.002938
115795000,0.0324,0.013523,0.002678,0.000431,0.002703
115796000,0.0324,0.013523,0.002678,0.000431,0.002468
115797000,0.0324,0.013523,0.002678,0.000431,0.002821
115798000,0.0324,0.013523,0.002678,0.000431,0.002821
115799000,0.0324,0.013523,0.002678,0.000431,0.003878
115800000,0.0324,0.013523,0.002678,0.000431,0.003056
115801000,0.0324,0.013523,0.002678,0.000431,0.001880
115802000,0.0324,0.013523,0.002678,0.000431,0.001880
115803000,0.0324,0.013523,0.002678,0.000431,0.001763
115804000,0.0324,0.013523,0.002678,0.000431,0.002116
115805000,0.0324,0.013523,0.002678,0.000431,0.001645
115806000,0.0324,0.013523,0.002678,0.000431,0.001880
115807000,0.0324,0.013523,0.002678,0.000431,0.001880
115808000,0.0324,0.013523,0.002678,0.000431,0.001763
115809000,0.0324,0.013523,0.002678,0.000431,0.002116
115810000,0.0324,0.013523,0.002678,0.000431,0.001645
115811000,0.0324,0.013523,0.002678,0.000431,0.001880
115812000,0.0324,0.013523,0.002678,0.000431,0.001880
115813000,0.0324,0.013523,0.002678,0.000431,0.001763
115814000,0.0324,0.013523,0.002678,0.000431,0.002116
115815000,0.0324,0.013523,0.002678,0.000431,0.001645
115816000,0.0324,0.013523,0.002678,0.000431,0.001763
115817000,0.0324,0.013523,0.002678,0.000431,0.001998
115818000,0.0324,0.013523,0.002678,0.000431,0.001763
115819000,0.0324,0.013523,0.002678,0.000431,0.001998
115820000,0.0324,0.013523,0.002678,0.000431,0.001763
115821000,0.0324,0.013523,0.002678,0.000431,0.001880
115822000,0.0324,0.013523,0.002678,0.000431,0.001880
115823000,0.0324,0.013523,0.002678,0.000431,0.001880
115824000,0.0324,0.013523,0.002678,0.000431,0.001998
115825000,0.0324,0.013523,0.002678,0.000431,0.001763
115826000,0.0324,0.013523,0.002678,0.000431,0.001763
115827000,0.0324,0.013523,0.002678,0.000431,0.001998
115828000,0.0324,0.013523,0.002678,0.000431,0.001763
115829000,0.0324,0.013523,0.002678,0.000431,0.001998
115830000,0.0324,0.013523,0.002678,0.000431,0.003408
115831000,0.0324,0.013523,0.002678,0.000431,0.001058
115832000,0.0324,0.013523,0.002678,0.000431,0.001293
115833000,0.0324,0.013523,0.002678,0.000431,0.000940
115834000,0.0324,0.013523,0.002678,0.000431,0.001293
115835000,0.0324,0.013523,0.002678,0.000431,0.000823
115836000,0.0324,0.013523,0.002678,0.000431,0.001175
115837000,0.0324,0.013523,0.002678,0.000431,0.001175
115838000,0.0324,0.013523,0.002678,0.000431,0.000705
115839000,0.0324,0.013523,0.002678,0.000431,0.001410
115840000,0.0324,0.013523,0.002678,0.000431,0.000940
115841000,0.0324,0.013523,0.002678,0.000431,0.000940
115842000,0.0324,0.013523,0.002678,0.000431,0.047599
115843000,0.0324,0.013523,0.002678,0.000431,0.560844
115844000,0.0324,0.013523,0.002678,0.000431,0.605270
115845000,0.0324,0.013523,0.002678,0.000431,0.131749
115846000,0.0324,0.013523,0.002678,0.000431,0.133512
115847000,0.0324,0.013523,0.002678,0.000431,0.572715
115848000,0.0324,0.013523,0.002678,0.000431,0.232001
115849000,0.0324,0.013523,0.002678,0.000431,0.284888
115850000,0.0324,0.013523,0.002678,0.000431,0.327669
115851000,0.0324,0.013523,0.002678,0.000431,0.147498
115852000,0.0324,0.013523,0.002678,0.000431,0.172061
115853000,0.0324,0.013523,0.002678,0.000431,0.087206
115854000,0.0324,0.013523,0.002678,0.000431,0.490093
115855000,0.0324,0.013523,0.002678,0.000431,0.116588
115856000,0.0324,0.013523,0.002678,0.000431,0.077216
115857000,0.0324,0.013523,0.002678,0.000431,0.060645
115858000,0.0324,0.013523,0.002678,0.000431,0.055473
115859000,0.0324,0.013523,0.002678,0.000431,0.040077
115860000,0.0324,0.013523,0.002678,0.000431,0.030792
115861000,0.0324,0.013523,0.002678,0.000431,0.026561
115862000,0.0324,0.013523,0.002678,0.000431,0.018099
115863000,0.0324,0.013523,0.002678,0.000431,0.014691
115864000,0.0324,0.013523,0.002678,0.000431,0.012811
115865000,0.0324,0.013523,0.002678,0.000431,0.009285
115866000,0.0324,0.013523,0.002678,0.000431,0.007169
115867000,0.0324,0.013523,0.002678,0.000431,0.010107
115868000,0.0324,0.013523,0.002678,0.000431,0.002821
115869000,0.0324,0.013523,0.002678,0.000431,0.003173
115870000,0.0324,0.013523,0.002678,0.000431,0.003408
115871000,0.0324,0.013523,0.002678,0.000431,0.003173
115872000,0.0324,0.013523,0.002678,0.000431,0.003173
115873000,0.0324,0.013523,0.002678,0.000431,0.003173
115874000,0.0324,0.013523,0.002678,0.000431,0.003056
115875000,0.0324,0.013523,0.002678,0.000431,0.007522
115876000,0.0324,0.013523,0.002678,0.000431,0.001410
115877000,0.0324,0.013523,0.002678,0.000431,0.001293
115878000,0.0324,0.013523,0.002678,0.000431,0.000940
115879000,0.0324,0.013523,0.002678,0.000431,0.001763
115880000,0.0324,0.013523,0.002678,0.000431,0.001175
115881000,0.0324,0.013523,0.002678,0.000431,0.001175
115882000,0.0324,0.013523,0.002678,0.000431,0.001528
115883000,0.0324,0.013523,0.002678,0.000431,0.001293
115884000,0.0324,0.013523,0.002678,0.000431,0.000823
115885000,0.0324,0.013523,0.002678,0.000431,0.208730
115886000,0.0324,0.013523,0.002678,0.000431,0.542628
115887000,0.0324,0.013523,0.002678,0.000431,0.470230
115888000,0.0324,0.013523,0.002678,0.000431,0.131632
115889000,0.0324,0.013523,0.002678,0.000431,0.133042
115890000,0.0324,0.013523,0.002678,0.000431,0.565193
115891000,0.0324,0.013523,0.002678,0.000431,0.241520
115892000,0.0324,0.013523,0.002678,0.000431,0.290765
115893000,0.0324,0.013523,0.002678,0.000431,0.267847
115894000,0.0324,0.013523,0.002678,0.000431,0.139741
115895000,0.0324,0.013523,0.002678,0.000431,0.183109
115896000,0.0324,0.013523,0.002678,0.000431,0.095668
115897000,0.0324,0.013523,0.002678,0.000431,0.501140
115898000,0.0324,0.013523,0.002678,0.000431,0.145265
115899000,0.0324,0.013523,0.002678,0.000431,0.102132
115900000,0.0324,0.013523,0.002678,0.000431,0.080859
115901000,0.0324,0.013523,0.002678,0.000431,0.075923
115902000,0.0324,0.013523,0.002678,0.000431,0.061115
115903000,0.0324,0.013523,0.002678,0.000431,0.055708
115904000,0.0324,0.013523,0.002678,0.000431,0.043720
115905000,0.0324,0.013523,0.002678,0.000431,0.031380
115906000,0.0324,0.013523,0.002678,0.000431,0.031380
115907000,0.0324,0.013523,0.002678,0.000431,0.024211
115908000,0.0324,0.013523,0.002678,0.000431,0.018805
115909000,0.0324,0.013523,0.002678,0.000431,0.016219
115910000,0.0324,0.013523,0.002678,0.000431,0.016336
115911000,0.0324,0.013523,0.002678,0.000431,0.017277
115912000,0.0324,0.013523,0.002678,0.000431,0.011165
115913000,0.0324,0.013523,0.002678,0.000431,0.010813
115914000,0.0324,0.013523,0.002678,0.000431,0.008932
115915000,0.0324,0.013523,0.002678,0.000431,0.009285
115916000,0.0324,0.013523,0.002678,0.000431,0.009167
115917000,0.0324,0.013523,0.002678,0.000431,0.009520
115918000,0.0324,0.013523,0.002678,0.000431,0.009402
115919000,0.0324,0.013523,0.002678,0.000431,0.010460
115920000,0.0324,0.013523,0.002678,0.000431,0.008462
115921000,0.0324,0.013523,0.002678,0.000431,0.010695
115922000,0.0324,0.013523,0.002678,0.000431,0.007052
115923000,0.0324,0.013523,0.002678,0.000431,0.008227
115924000,0.0324,0.013523,0.002678,0.000431,0.007639
115925000,0.0324,0.013523,0.002678,0.000431,0.005876
115926000,0.0324,0.013523,0.002678,0.000431,0.007639
115927000,0.0324,0.013523,0.002678,0.000431,0.004584
115928000,0.0324,0.013523,0.002678,0.000431,0.004466
115929000,0.0324,0.013523,0.002678,0.000431,0.004349
115930000,0.0324,0.013523,0.002678,0.000431,0.004231
115931000,0.0324,0.013523,0.002678,0.000431,0.004819
115932000,0.0324,0.013523,0.002678,0.000431,0.004113
115933000,0.0324,0.013523,0.002678,0.000431,0.006464
115934000,0.0324,0.013523,0.002678,0.000431,0.003408
115935000,0.0324,0.013523,0.002678,0.000431,0.003408
115936000,0.0324,0.013523,0.002678,0.000431,0.003996
115937000,0.0324,0.013523,0.002678,0.000431,0.003526
115938000,0.0324,0.013523,0.002678,0.000431,0.006347
115939000,0.0324,0.013523,0.002678,0.000431,0.003056
115940000,0.0324,0.013523,0.002678,0.000431,0.001528
115941000,0.0324,0.013523,0.002678,0.000431,0.001763
115942000,0.0324,0.013523,0.002678,0.000431,0.001645
115943000,0.0324,0.013523,0.002678,0.000431,0.001645
115944000,0.0324,0.013523,0.002678,0.000431,0.001763
115945000,0.0324,0.013523,0.002678,0.000431,0.001528
115946000,0.0324,0.013523,0.002678,0.000431,0.001645
115947000,0.0324,0.013523,0.002678,0.000431,0.001763
115948000,0.0324,0.013523,0.002678,0.000431,0.001645
115949000,0.0324,0.013523,0.002678,0.000431,0.001645
115950000,0.0324,0.013523,0.002678,0.000431,0.001763
115951000,0.0324,0.013523,0.002678,0.000431,0.001528
115952000,0.0324,0.013523,0.002678,0.000431,0.001763
115953000,0.0324,0.013523,0.002678,0.000431,0.001645
115954000,0.0324,0.013523,0.002678,0.000431,0.001645
115955000,0.0324,0.013523,0.002678,0.000431,0.001880
115956000,0.0324,0.013523,0.002678,0.000431,0.001410
115957000,0.0324,0.013523,0.002678,0.000431,0.001880
115958000,0.0324,0.013523,0.002678,0.000431,0.004349
115959000,0.0324,0.013523,0.002678,0.000431,0.000940
115960000,0.0324,0.013523,0.002678,0.000431,0.000823
115961000,0.0324,0.013523,0.002678,0.000431,0.000823
115962000,0.0324,0.013523,0.002678,0.000431,0.000705
115963000,0.0324,0.013523,0.002678,0.000431,0.000940
115964000,0.0324,0.013523,0.002678,0.000431,0.000940
115965000,0.0324,0.013523,0.002678,0.000431,0.000705
115966000,0.0324,0.013523,0.002678,0.000431,0.000940
115967000,0.0324,0.013523,0.002678,0.000431,0.000705
115968000,0.0324,0.013523,0.002678,0.000431,0.071340
115969000,0.0324,0.013523,0.002678,0.000431,0.581529
115970000,0.0324,0.013523,0.002678,0.000431,0.570482
115971000,0.0324,0.013523,0.002678,0.000431,0.137743
115972000,0.0324,0.013523,0.002678,0.000431,0.133982
115973000,0.0324,0.013523,0.002678,0.000431,0.597513
115974000,0.0324,0.013523,0.002678,0.000431,0.258562
115975000,0.0324,0.013523,0.002678,0.000431,0.325553
115976000,0.0324,0.013523,0.002678,0.000431,0.261735
115977000,0.0324,0.013523,0.002678,0.000431,0.151024
115978000,0.0324,0.013523,0.002678,0.000431,0.110359
115979000,0.0324,0.013523,0.002678,0.000431,0.311567
115980000,0.0324,0.013523,0.002678,0.000431,0.315211
115981000,0.0324,0.013523,0.002678,0.000431,0.085443
115982000,0.0324,0.013523,0.002678,0.000431,0.062290
115983000,0.0324,0.013523,0.002678,0.000431,0.050890
115984000,0.0324,0.013523,0.002678,0.000431,0.041840
115985000,0.0324,0.013523,0.002678,0.000431,0.038549
115986000,0.0324,0.013523,0.002678,0.000431,0.029029
115987000,0.0324,0.013523,0.002678,0.000431,0.027031
115988000,0.0324,0.013523,0.002678,0.000431,0.027619
115989000,0.0324,0.013523,0.002678,0.000431,0.020215
115990000,0.0324,0.013523,0.002678,0.000431,0.019862
115991000,0.0324,0.013523,0.002678,0.000431,0.021155
115992000,0.0324,0.013523,0.002678,0.000431,0.015279
115993000,0.0324,0.013523,0.002678,0.000431,0.016689
115994000,0.0324,0.013523,0.002678,0.000431,0.018334
115995000,0.0324,0.013523,0.002678,0.000431,0.013281
115996000,0.0324,0.013523,0.002678,0.000431,0.012576
115997000,0.0324,0.013523,0.002678,0.000431,0.010107
115998000,0.0324,0.013523,0.002678,0.000431,0.010695
115999000,0.0324,0.013523,0.002678,0.000431,0.011635
