Cycle,Area(mm^2),PeakDynamic(W),SubthresholdLeakage(W),GateLeakage(W),RunTimeDynamic(W)
111000000,0.0324,0.013523,0.002678,0.000431,0.000823
111001000,0.0324,0.013523,0.002678,0.000431,0.000940
111002000,0.0324,0.013523,0.002678,0.000431,0.000705
111003000,0.0324,0.013523,0.002678,0.000431,0.000823
111004000,0.0324,0.013523,0.002678,0.000431,0.000940
111005000,0.0324,0.013523,0.002678,0.000431,0.000823
111006000,0.0324,0.013523,0.002678,0.000431,0.000823
111007000,0.0324,0.013523,0.002678,0.000431,0.000823
111008000,0.0324,0.013523,0.002678,0.000431,0.000705
111009000,0.0324,0.013523,0.002678,0.000431,0.000940
111010000,0.0324,0.013523,0.002678,0.000431,0.000940
111011000,0.0324,0.013523,0.002678,0.000431,0.000705
111012000,0.0324,0.013523,0.002678,0.000431,0.000940
111013000,0.0324,0.013523,0.002678,0.000431,0.000705
111014000,0.0324,0.013523,0.002678,0.000431,0.000940
111015000,0.0324,0.013523,0.002678,0.000431,0.000940
111016000,0.0324,0.013523,0.002678,0.000431,0.000705
111017000,0.0324,0.013523,0.002678,0.000431,0.000940
111018000,0.0324,0.013523,0.002678,0.000431,0.000705
111019000,0.0324,0.013523,0.002678,0.000431,0.000940
111020000,0.0324,0.013523,0.002678,0.000431,0.000823
111021000,0.0324,0.013523,0.002678,0.000431,0.000823
111022000,0.0324,0.013523,0.002678,0.000431,0.000823
111023000,0.0324,0.013523,0.002678,0.000431,0.000823
111024000,0.0324,0.013523,0.002678,0.000431,0.000940
111025000,0.0324,0.013523,0.002678,0.000431,0.000705
111026000,0.0324,0.013523,0.002678,0.000431,0.000940
111027000,0.0324,0.013523,0.002678,0.000431,0.000823
111028000,0.0324,0.013523,0.002678,0.000431,0.000823
111029000,0.0324,0.013523,0.002678,0.000431,0.000823
111030000,0.0324,0.013523,0.002678,0.000431,0.000823
111031000,0.0324,0.013523,0.002678,0.000431,0.000823
111032000,0.0324,0.013523,0.002678,0.000431,0.000823
111033000,0.0324,0.013523,0.002678,0.000431,0.000823
111034000,0.0324,0.013523,0.002678,0.000431,0.000823
111035000,0.0324,0.013523,0.002678,0.000431,0.000940
111036000,0.0324,0.013523,0.002678,0.000431,0.000705
111037000,0.0324,0.013523,0.002678,0.000431,0.000940
111038000,0.0324,0.013523,0.002678,0.000431,0.000823
111039000,0.0324,0.013523,0.002678,0.000431,0.000823
111040000,0.0324,0.013523,0.002678,0.000431,0.000823
111041000,0.0324,0.013523,0.002678,0.000431,0.000823
111042000,0.0324,0.013523,0.002678,0.000431,0.000940
111043000,0.0324,0.013523,0.002678,0.000431,0.000705
111044000,0.0324,0.013523,0.002678,0.000431,0.000940
111045000,0.0324,0.013523,0.002678,0.000431,0.193804
111046000,0.0324,0.013523,0.002678,0.000431,0.496557
111047000,0.0324,0.013523,0.002678,0.000431,0.452366
111048000,0.0324,0.013523,0.002678,0.000431,0.132102
111049000,0.0324,0.013523,0.002678,0.000431,0.132572
111050000,0.0324,0.013523,0.002678,0.000431,0.592812
111051000,0.0324,0.013523,0.002678,0.000431,0.280540
111052000,0.0324,0.013523,0.002678,0.000431,0.225184
111053000,0.0324,0.013523,0.002678,0.000431,0.307924
111054000,0.0324,0.013523,0.002678,0.000431,0.143854
111055000,0.0324,0.013523,0.002678,0.000431,0.151729
111056000,0.0324,0.013523,0.002678,0.000431,0.104365
111057000,0.0324,0.013523,0.002678,0.000431,0.455657
111058000,0.0324,0.013523,0.002678,0.000431,0.091319
111059000,0.0324,0.013523,0.002678,0.000431,0.009285
111060000,0.0324,0.013523,0.002678,0.000431,0.011518
111061000,0.0324,0.013523,0.002678,0.000431,0.008462
111062000,0.0324,0.013523,0.002678,0.000431,0.007639
111063000,0.0324,0.013523,0.002678,0.000431,0.007874
111064000,0.0324,0.013523,0.002678,0.000431,0.008345
111065000,0.0324,0.013523,0.002678,0.000431,0.007757
111066000,0.0324,0.013523,0.002678,0.000431,0.006699
111067000,0.0324,0.013523,0.002678,0.000431,0.007052
111068000,0.0324,0.013523,0.002678,0.000431,0.006464
111069000,0.0324,0.013523,0.002678,0.000431,0.006934
111070000,0.0324,0.013523,0.002678,0.000431,0.006464
111071000,0.0324,0.013523,0.002678,0.000431,0.008462
111072000,0.0324,0.013523,0.002678,0.000431,0.005641
111073000,0.0324,0.013523,0.002678,0.000431,0.005524
111074000,0.0324,0.013523,0.002678,0.000431,0.005406
111075000,0.0324,0.013523,0.002678,0.000431,0.005289
111076000,0.0324,0.013523,0.002678,0.000431,0.005054
111077000,0.0324,0.013523,0.002678,0.000431,0.005171
111078000,0.0324,0.013523,0.002678,0.000431,0.005054
111079000,0.0324,0.013523,0.002678,0.000431,0.005406
111080000,0.0324,0.013523,0.002678,0.000431,0.005171
111081000,0.0324,0.013523,0.002678,0.000431,0.005524
111082000,0.0324,0.013523,0.002678,0.000431,0.004701
111083000,0.0324,0.013523,0.002678,0.000431,0.004466
111084000,0.0324,0.013523,0.002678,0.000431,0.004231
111085000,0.0324,0.013523,0.002678,0.000431,0.003996
111086000,0.0324,0.013523,0.002678,0.000431,0.004466
111087000,0.0324,0.013523,0.002678,0.000431,0.004349
111088000,0.0324,0.013523,0.002678,0.000431,0.004349
111089000,0.0324,0.013523,0.002678,0.000431,0.004231
111090000,0.0324,0.013523,0.002678,0.000431,0.004466
111091000,0.0324,0.013523,0.002678,0.000431,0.004349
111092000,0.0324,0.013523,0.002678,0.000431,0.004349
111093000,0.0324,0.013523,0.002678,0.000431,0.004349
111094000,0.0324,0.013523,0.002678,0.000431,0.005994
111095000,0.0324,0.013523,0.002678,0.000431,0.003526
111096000,0.0324,0.013523,0.002678,0.000431,0.003408
111097000,0.0324,0.013523,0.002678,0.000431,0.003526
111098000,0.0324,0.013523,0.002678,0.000431,0.003761
111099000,0.0324,0.013523,0.002678,0.000431,0.003056
111100000,0.0324,0.013523,0.002678,0.000431,0.003526
111101000,0.0324,0.013523,0.002678,0.000431,0.003643
111102000,0.0324,0.013523,0.002678,0.000431,0.003526
111103000,0.0324,0.013523,0.002678,0.000431,0.003408
111104000,0.0324,0.013523,0.002678,0.000431,0.003408
111105000,0.0324,0.013523,0.002678,0.000431,0.003643
111106000,0.0324,0.013523,0.002678,0.000431,0.003643
111107000,0.0324,0.013523,0.002678,0.000431,0.003056
111108000,0.0324,0.013523,0.002678,0.000431,0.003643
111109000,0.0324,0.013523,0.002678,0.000431,0.003526
111110000,0.0324,0.013523,0.002678,0.000431,0.003526
111111000,0.0324,0.013523,0.002678,0.000431,0.003526
111112000,0.0324,0.013523,0.002678,0.000431,0.003408
111113000,0.0324,0.013523,0.002678,0.000431,0.003643
111114000,0.0324,0.013523,0.002678,0.000431,0.003291
111115000,0.0324,0.013523,0.002678,0.000431,0.003408
111116000,0.0324,0.013523,0.002678,0.000431,0.003643
111117000,0.0324,0.013523,0.002678,0.000431,0.003643
111118000,0.0324,0.013523,0.002678,0.000431,0.003056
111119000,0.0324,0.013523,0.002678,0.000431,0.003643
111120000,0.0324,0.013523,0.002678,0.000431,0.003643
111121000,0.0324,0.013523,0.002678,0.000431,0.003526
111122000,0.0324,0.013523,0.002678,0.000431,0.003291
111123000,0.0324,0.013523,0.002678,0.000431,0.003408
111124000,0.0324,0.013523,0.002678,0.000431,0.003761
111125000,0.0324,0.013523,0.002678,0.000431,0.003408
111126000,0.0324,0.013523,0.002678,0.000431,0.003173
111127000,0.0324,0.013523,0.002678,0.000431,0.003761
111128000,0.0324,0.013523,0.002678,0.000431,0.003526
111129000,0.0324,0.013523,0.002678,0.000431,0.003408
111130000,0.0324,0.013523,0.002678,0.000431,0.003526
111131000,0.0324,0.013523,0.002678,0.000431,0.003408
111132000,0.0324,0.013523,0.002678,0.000431,0.003526
111133000,0.0324,0.013523,0.002678,0.000431,0.003408
111134000,0.0324,0.013523,0.002678,0.000431,0.003408
111135000,0.0324,0.013523,0.002678,0.000431,0.003761
111136000,0.0324,0.013523,0.002678,0.000431,0.003291
111137000,0.0324,0.013523,0.002678,0.000431,0.003408
111138000,0.0324,0.013523,0.002678,0.000431,0.003643
111139000,0.0324,0.013523,0.002678,0.000431,0.003526
111140000,0.0324,0.013523,0.002678,0.000431,0.003526
111141000,0.0324,0.013523,0.002678,0.000431,0.003173
111142000,0.0324,0.013523,0.002678,0.000431,0.003643
111143000,0.0324,0.013523,0.002678,0.000431,0.003643
111144000,0.0324,0.013523,0.002678,0.000431,0.003526
111145000,0.0324,0.013523,0.002678,0.000431,0.003173
111146000,0.0324,0.013523,0.002678,0.000431,0.003761
111147000,0.0324,0.013523,0.002678,0.000431,0.003408
111148000,0.0324,0.013523,0.002678,0.000431,0.004936
111149000,0.0324,0.013523,0.002678,0.000431,0.002468
111150000,0.0324,0.013523,0.002678,0.000431,0.002703
111151000,0.0324,0.013523,0.002678,0.000431,0.002703
111152000,0.0324,0.013523,0.002678,0.000431,0.002586
111153000,0.0324,0.013523,0.002678,0.000431,0.002468
111154000,0.0324,0.013523,0.002678,0.000431,0.002586
111155000,0.0324,0.013523,0.002678,0.000431,0.002468
111156000,0.0324,0.013523,0.002678,0.000431,0.002468
111157000,0.0324,0.013523,0.002678,0.000431,0.002586
111158000,0.0324,0.013523,0.002678,0.000431,0.002703
111159000,0.0324,0.013523,0.002678,0.000431,0.002351
111160000,0.0324,0.013523,0.002678,0.000431,0.002468
111161000,0.0324,0.013523,0.002678,0.000431,0.002586
111162000,0.0324,0.013523,0.002678,0.000431,0.002821
111163000,0.0324,0.013523,0.002678,0.000431,0.002116
111164000,0.0324,0.013523,0.002678,0.000431,0.002586
111165000,0.0324,0.013523,0.002678,0.000431,0.002821
111166000,0.0324,0.013523,0.002678,0.000431,0.002468
111167000,0.0324,0.013523,0.002678,0.000431,0.002468
111168000,0.0324,0.013523,0.002678,0.000431,0.002351
111169000,0.0324,0.013523,0.002678,0.000431,0.002821
111170000,0.0324,0.013523,0.002678,0.000431,0.002468
111171000,0.0324,0.013523,0.002678,0.000431,0.002468
111172000,0.0324,0.013523,0.002678,0.000431,0.002586
111173000,0.0324,0.013523,0.002678,0.000431,0.002468
111174000,0.0324,0.013523,0.002678,0.000431,0.002586
111175000,0.0324,0.013523,0.002678,0.000431,0.002351
111176000,0.0324,0.013523,0.002678,0.000431,0.002703
111177000,0.0324,0.013523,0.002678,0.000431,0.002821
111178000,0.0324,0.013523,0.002678,0.000431,0.002116
111179000,0.0324,0.013523,0.002678,0.000431,0.002586
111180000,0.0324,0.013523,0.002678,0.000431,0.002586
111181000,0.0324,0.013523,0.002678,0.000431,0.002821
111182000,0.0324,0.013523,0.002678,0.000431,0.002116
111183000,0.0324,0.013523,0.002678,0.000431,0.002586
111184000,0.0324,0.013523,0.002678,0.000431,0.002821
111185000,0.0324,0.013523,0.002678,0.000431,0.002468
111186000,0.0324,0.013523,0.002678,0.000431,0.002233
111187000,0.0324,0.013523,0.002678,0.000431,0.002703
111188000,0.0324,0.013523,0.002678,0.000431,0.002703
111189000,0.0324,0.013523,0.002678,0.000431,0.002468
111190000,0.0324,0.013523,0.002678,0.000431,0.002468
111191000,0.0324,0.013523,0.002678,0.000431,0.002586
111192000,0.0324,0.013523,0.002678,0.000431,0.002468
111193000,0.0324,0.013523,0.002678,0.000431,0.002586
111194000,0.0324,0.013523,0.002678,0.000431,0.002468
111195000,0.0324,0.013523,0.002678,0.000431,0.002586
111196000,0.0324,0.013523,0.002678,0.000431,0.002468
111197000,0.0324,0.013523,0.002678,0.000431,0.002468
111198000,0.0324,0.013523,0.002678,0.000431,0.002586
111199000,0.0324,0.013523,0.002678,0.000431,0.002703
111200000,0.0324,0.013523,0.002678,0.000431,0.002586
111201000,0.0324,0.013523,0.002678,0.000431,0.002233
111202000,0.0324,0.013523,0.002678,0.000431,0.002586
111203000,0.0324,0.013523,0.002678,0.000431,0.002586
111204000,0.0324,0.013523,0.002678,0.000431,0.002821
111205000,0.0324,0.013523,0.002678,0.000431,0.001998
111206000,0.0324,0.013523,0.002678,0.000431,0.002703
111207000,0.0324,0.013523,0.002678,0.000431,0.002821
111208000,0.0324,0.013523,0.002678,0.000431,0.002468
111209000,0.0324,0.013523,0.002678,0.000431,0.002233
111210000,0.0324,0.013523,0.002678,0.000431,0.002586
111211000,0.0324,0.013523,0.002678,0.000431,0.002821
111212000,0.0324,0.013523,0.002678,0.000431,0.002468
111213000,0.0324,0.013523,0.002678,0.000431,0.002233
111214000,0.0324,0.013523,0.002678,0.000431,0.002821
111215000,0.0324,0.013523,0.002678,0.000431,0.002468
111216000,0.0324,0.013523,0.002678,0.000431,0.002586
111217000,0.0324,0.013523,0.002678,0.000431,0.002351
111218000,0.0324,0.013523,0.002678,0.000431,0.002703
111219000,0.0324,0.013523,0.002678,0.000431,0.002468
111220000,0.0324,0.013523,0.002678,0.000431,0.002468
111221000,0.0324,0.013523,0.002678,0.000431,0.002586
111222000,0.0324,0.013523,0.002678,0.000431,0.002586
111223000,0.0324,0.013523,0.002678,0.000431,0.002468
111224000,0.0324,0.013523,0.002678,0.000431,0.002468
111225000,0.0324,0.013523,0.002678,0.000431,0.002586
111226000,0.0324,0.013523,0.002678,0.000431,0.002821
111227000,0.0324,0.013523,0.002678,0.000431,0.002468
111228000,0.0324,0.013523,0.002678,0.000431,0.002233
111229000,0.0324,0.013523,0.002678,0.000431,0.002703
111230000,0.0324,0.013523,0.002678,0.000431,0.002703
111231000,0.0324,0.013523,0.002678,0.000431,0.002468
111232000,0.0324,0.013523,0.002678,0.000431,0.002233
111233000,0.0324,0.013523,0.002678,0.000431,0.002821
111234000,0.0324,0.013523,0.002678,0.000431,0.002468
111235000,0.0324,0.013523,0.002678,0.000431,0.002586
111236000,0.0324,0.013523,0.002678,0.000431,0.002468
111237000,0.0324,0.013523,0.002678,0.000431,0.002586
111238000,0.0324,0.013523,0.002678,0.000431,0.002468
111239000,0.0324,0.013523,0.002678,0.000431,0.002468
111240000,0.0324,0.013523,0.002678,0.000431,0.002586
111241000,0.0324,0.013523,0.002678,0.000431,0.002703
111242000,0.0324,0.013523,0.002678,0.000431,0.002233
111243000,0.0324,0.013523,0.002678,0.000431,0.002586
111244000,0.0324,0.013523,0.002678,0.000431,0.002586
111245000,0.0324,0.013523,0.002678,0.000431,0.002821
111246000,0.0324,0.013523,0.002678,0.000431,0.002116
111247000,0.0324,0.013523,0.002678,0.000431,0.002586
111248000,0.0324,0.013523,0.002678,0.000431,0.002821
111249000,0.0324,0.013523,0.002678,0.000431,0.002468
111250000,0.0324,0.013523,0.002678,0.000431,0.002468
111251000,0.0324,0.013523,0.002678,0.000431,0.002351
111252000,0.0324,0.013523,0.002678,0.000431,0.002821
111253000,0.0324,0.013523,0.002678,0.000431,0.002468
111254000,0.0324,0.013523,0.002678,0.000431,0.002468
111255000,0.0324,0.013523,0.002678,0.000431,0.002586
111256000,0.0324,0.013523,0.002678,0.000431,0.002468
111257000,0.0324,0.013523,0.002678,0.000431,0.002586
111258000,0.0324,0.013523,0.002678,0.000431,0.002351
111259000,0.0324,0.013523,0.002678,0.000431,0.002703
111260000,0.0324,0.013523,0.002678,0.000431,0.002703
111261000,0.0324,0.013523,0.002678,0.000431,0.002233
111262000,0.0324,0.013523,0.002678,0.000431,0.002586
111263000,0.0324,0.013523,0.002678,0.000431,0.002586
111264000,0.0324,0.013523,0.002678,0.000431,0.002821
111265000,0.0324,0.013523,0.002678,0.000431,0.002116
111266000,0.0324,0.013523,0.002678,0.000431,0.002586
111267000,0.0324,0.013523,0.002678,0.000431,0.002821
111268000,0.0324,0.013523,0.002678,0.000431,0.002468
111269000,0.0324,0.013523,0.002678,0.000431,0.002233
111270000,0.0324,0.013523,0.002678,0.000431,0.002703
111271000,0.0324,0.013523,0.002678,0.000431,0.002703
111272000,0.0324,0.013523,0.002678,0.000431,0.002468
111273000,0.0324,0.013523,0.002678,0.000431,0.002233
111274000,0.0324,0.013523,0.002678,0.000431,0.002821
111275000,0.0324,0.013523,0.002678,0.000431,0.002468
111276000,0.0324,0.013523,0.002678,0.000431,0.002586
111277000,0.0324,0.013523,0.002678,0.000431,0.002468
111278000,0.0324,0.013523,0.002678,0.000431,0.002586
111279000,0.0324,0.013523,0.002678,0.000431,0.002468
111280000,0.0324,0.013523,0.002678,0.000431,0.002468
111281000,0.0324,0.013523,0.002678,0.000431,0.002586
111282000,0.0324,0.013523,0.002678,0.000431,0.002703
111283000,0.0324,0.013523,0.002678,0.000431,0.002351
111284000,0.0324,0.013523,0.002678,0.000431,0.002468
111285000,0.0324,0.013523,0.002678,0.000431,0.002586
111286000,0.0324,0.013523,0.002678,0.000431,0.002821
111287000,0.0324,0.013523,0.002678,0.000431,0.002468
111288000,0.0324,0.013523,0.002678,0.000431,0.002233
111289000,0.0324,0.013523,0.002678,0.000431,0.002821
111290000,0.0324,0.013523,0.002678,0.000431,0.002468
111291000,0.0324,0.013523,0.002678,0.000431,0.002586
111292000,0.0324,0.013523,0.002678,0.000431,0.002233
111293000,0.0324,0.013523,0.002678,0.000431,0.002821
111294000,0.0324,0.013523,0.002678,0.000431,0.002468
111295000,0.0324,0.013523,0.002678,0.000431,0.002468
111296000,0.0324,0.013523,0.002678,0.000431,0.002586
111297000,0.0324,0.013523,0.002678,0.000431,0.002586
111298000,0.0324,0.013523,0.002678,0.000431,0.002468
111299000,0.0324,0.013523,0.002678,0.000431,0.002351
111300000,0.0324,0.013523,0.002678,0.000431,0.002703
111301000,0.0324,0.013523,0.002678,0.000431,0.002821
111302000,0.0324,0.013523,0.002678,0.000431,0.002116
111303000,0.0324,0.013523,0.002678,0.000431,0.002586
111304000,0.0324,0.013523,0.002678,0.000431,0.002586
111305000,0.0324,0.013523,0.002678,0.000431,0.002821
111306000,0.0324,0.013523,0.002678,0.000431,0.002116
111307000,0.0324,0.013523,0.002678,0.000431,0.002586
111308000,0.0324,0.013523,0.002678,0.000431,0.002821
111309000,0.0324,0.013523,0.002678,0.000431,0.002468
111310000,0.0324,0.013523,0.002678,0.000431,0.002468
111311000,0.0324,0.013523,0.002678,0.000431,0.002468
111312000,0.0324,0.013523,0.002678,0.000431,0.002703
111313000,0.0324,0.013523,0.002678,0.000431,0.002468
111314000,0.0324,0.013523,0.002678,0.000431,0.002468
111315000,0.0324,0.013523,0.002678,0.000431,0.002586
111316000,0.0324,0.013523,0.002678,0.000431,0.002468
111317000,0.0324,0.013523,0.002678,0.000431,0.002586
111318000,0.0324,0.013523,0.002678,0.000431,0.002468
111319000,0.0324,0.013523,0.002678,0.000431,0.002586
111320000,0.0324,0.013523,0.002678,0.000431,0.002703
111321000,0.0324,0.013523,0.002678,0.000431,0.002233
111322000,0.0324,0.013523,0.002678,0.000431,0.002586
111323000,0.0324,0.013523,0.002678,0.000431,0.002703
111324000,0.0324,0.013523,0.002678,0.000431,0.002703
111325000,0.0324,0.013523,0.002678,0.000431,0.002116
111326000,0.0324,0.013523,0.002678,0.000431,0.002586
111327000,0.0324,0.013523,0.002678,0.000431,0.002821
111328000,0.0324,0.013523,0.002678,0.000431,0.002468
111329000,0.0324,0.013523,0.002678,0.000431,0.002233
111330000,0.0324,0.013523,0.002678,0.000431,0.002821
111331000,0.0324,0.013523,0.002678,0.000431,0.002468
111332000,0.0324,0.013523,0.002678,0.000431,0.002586
111333000,0.0324,0.013523,0.002678,0.000431,0.002233
111334000,0.0324,0.013523,0.002678,0.000431,0.002821
111335000,0.0324,0.013523,0.002678,0.000431,0.002586
111336000,0.0324,0.013523,0.002678,0.000431,0.002351
111337000,0.0324,0.013523,0.002678,0.000431,0.002586
111338000,0.0324,0.013523,0.002678,0.000431,0.002586
111339000,0.0324,0.013523,0.002678,0.000431,0.002468
111340000,0.0324,0.013523,0.002678,0.000431,0.002351
111341000,0.0324,0.013523,0.002678,0.000431,0.002703
111342000,0.0324,0.013523,0.002678,0.000431,0.002821
111343000,0.0324,0.013523,0.002678,0.000431,0.002233
111344000,0.0324,0.013523,0.002678,0.000431,0.002468
111345000,0.0324,0.013523,0.002678,0.000431,0.002586
111346000,0.0324,0.013523,0.002678,0.000431,0.002821
111347000,0.0324,0.013523,0.002678,0.000431,0.002468
111348000,0.0324,0.013523,0.002678,0.000431,0.002233
111349000,0.0324,0.013523,0.002678,0.000431,0.002821
111350000,0.0324,0.013523,0.002678,0.000431,0.002468
111351000,0.0324,0.013523,0.002678,0.000431,0.002586
111352000,0.0324,0.013523,0.002678,0.000431,0.002351
111353000,0.0324,0.013523,0.002678,0.000431,0.002703
111354000,0.0324,0.013523,0.002678,0.000431,0.002468
111355000,0.0324,0.013523,0.002678,0.000431,0.002468
111356000,0.0324,0.013523,0.002678,0.000431,0.002586
111357000,0.0324,0.013523,0.002678,0.000431,0.002586
111358000,0.0324,0.013523,0.002678,0.000431,0.002468
111359000,0.0324,0.013523,0.002678,0.000431,0.002468
111360000,0.0324,0.013523,0.002678,0.000431,0.002586
111361000,0.0324,0.013523,0.002678,0.000431,0.002821
111362000,0.0324,0.013523,0.002678,0.000431,0.002116
111363000,0.0324,0.013523,0.002678,0.000431,0.002586
111364000,0.0324,0.013523,0.002678,0.000431,0.002703
111365000,0.0324,0.013523,0.002678,0.000431,0.002703
111366000,0.0324,0.013523,0.002678,0.000431,0.002116
111367000,0.0324,0.013523,0.002678,0.000431,0.002586
111368000,0.0324,0.013523,0.002678,0.000431,0.002821
111369000,0.0324,0.013523,0.002678,0.000431,0.002468
111370000,0.0324,0.013523,0.002678,0.000431,0.002468
111371000,0.0324,0.013523,0.002678,0.000431,0.002586
111372000,0.0324,0.013523,0.002678,0.000431,0.002586
111373000,0.0324,0.013523,0.002678,0.000431,0.002468
111374000,0.0324,0.013523,0.002678,0.000431,0.002468
111375000,0.0324,0.013523,0.002678,0.000431,0.002586
111376000,0.0324,0.013523,0.002678,0.000431,0.002586
111377000,0.0324,0.013523,0.002678,0.000431,0.002351
111378000,0.0324,0.013523,0.002678,0.000431,0.002586
111379000,0.0324,0.013523,0.002678,0.000431,0.002586
111380000,0.0324,0.013523,0.002678,0.000431,0.002703
111381000,0.0324,0.013523,0.002678,0.000431,0.002116
111382000,0.0324,0.013523,0.002678,0.000431,0.002703
111383000,0.0324,0.013523,0.002678,0.000431,0.002821
111384000,0.0324,0.013523,0.002678,0.000431,0.002468
111385000,0.0324,0.013523,0.002678,0.000431,0.002233
111386000,0.0324,0.013523,0.002678,0.000431,0.002586
111387000,0.0324,0.013523,0.002678,0.000431,0.002821
111388000,0.0324,0.013523,0.002678,0.000431,0.002468
111389000,0.0324,0.013523,0.002678,0.000431,0.002233
111390000,0.0324,0.013523,0.002678,0.000431,0.002821
111391000,0.0324,0.013523,0.002678,0.000431,0.002468
111392000,0.0324,0.013523,0.002678,0.000431,0.002586
111393000,0.0324,0.013523,0.002678,0.000431,0.002351
111394000,0.0324,0.013523,0.002678,0.000431,0.002703
111395000,0.0324,0.013523,0.002678,0.000431,0.002468
111396000,0.0324,0.013523,0.002678,0.000431,0.002468
111397000,0.0324,0.013523,0.002678,0.000431,0.002586
111398000,0.0324,0.013523,0.002678,0.000431,0.002586
111399000,0.0324,0.013523,0.002678,0.000431,0.002468
111400000,0.0324,0.013523,0.002678,0.000431,0.002468
111401000,0.0324,0.013523,0.002678,0.000431,0.002586
111402000,0.0324,0.013523,0.002678,0.000431,0.002821
111403000,0.0324,0.013523,0.002678,0.000431,0.002351
111404000,0.0324,0.013523,0.002678,0.000431,0.002351
111405000,0.0324,0.013523,0.002678,0.000431,0.002703
111406000,0.0324,0.013523,0.002678,0.000431,0.002703
111407000,0.0324,0.013523,0.002678,0.000431,0.002468
111408000,0.0324,0.013523,0.002678,0.000431,0.002233
111409000,0.0324,0.013523,0.002678,0.000431,0.006464
111410000,0.0324,0.013523,0.002678,0.000431,0.000940
111411000,0.0324,0.013523,0.002678,0.000431,0.000940
111412000,0.0324,0.013523,0.002678,0.000431,0.001880
111413000,0.0324,0.013523,0.002678,0.000431,0.334485
111414000,0.0324,0.013523,0.002678,0.000431,0.676375
111415000,0.0324,0.013523,0.002678,0.000431,0.145030
111416000,0.0324,0.013523,0.002678,0.000431,0.133159
111417000,0.0324,0.013523,0.002678,0.000431,0.157018
111418000,0.0324,0.013523,0.002678,0.000431,0.652164
111419000,0.0324,0.013523,0.002678,0.000431,0.247162
111420000,0.0324,0.013523,0.002678,0.000431,0.281010
111421000,0.0324,0.013523,0.002678,0.000431,0.219073
111422000,0.0324,0.013523,0.002678,0.000431,0.137390
111423000,0.0324,0.013523,0.002678,0.000431,0.149848
111424000,0.0324,0.013523,0.002678,0.000431,0.172766
111425000,0.0324,0.013523,0.002678,0.000431,0.420046
111426000,0.0324,0.013523,0.002678,0.000431,0.058529
111427000,0.0324,0.013523,0.002678,0.000431,0.045013
111428000,0.0324,0.013523,0.002678,0.000431,0.047246
111429000,0.0324,0.013523,0.002678,0.000431,0.042428
111430000,0.0324,0.013523,0.002678,0.000431,0.036434
111431000,0.0324,0.013523,0.002678,0.000431,0.031262
111432000,0.0324,0.013523,0.002678,0.000431,0.027267
111433000,0.0324,0.013523,0.002678,0.000431,0.028794
111434000,0.0324,0.013523,0.002678,0.000431,0.019980
111435000,0.0324,0.013523,0.002678,0.000431,0.021743
111436000,0.0324,0.013523,0.002678,0.000431,0.021038
111437000,0.0324,0.013523,0.002678,0.000431,0.019745
111438000,0.0324,0.013523,0.002678,0.000431,0.014926
111439000,0.0324,0.013523,0.002678,0.000431,0.017042
111440000,0.0324,0.013523,0.002678,0.000431,0.014926
111441000,0.0324,0.013523,0.002678,0.000431,0.015514
111442000,0.0324,0.013523,0.002678,0.000431,0.014809
111443000,0.0324,0.013523,0.002678,0.000431,0.012223
111444000,0.0324,0.013523,0.002678,0.000431,0.016219
111445000,0.0324,0.013523,0.002678,0.000431,0.013633
111446000,0.0324,0.013523,0.002678,0.000431,0.013046
111447000,0.0324,0.013523,0.002678,0.000431,0.011048
111448000,0.0324,0.013523,0.002678,0.000431,0.010107
111449000,0.0324,0.013523,0.002678,0.000431,0.010813
111450000,0.0324,0.013523,0.002678,0.000431,0.010225
111451000,0.0324,0.013523,0.002678,0.000431,0.011518
111452000,0.0324,0.013523,0.002678,0.000431,0.009167
111453000,0.0324,0.013523,0.002678,0.000431,0.009755
111454000,0.0324,0.013523,0.002678,0.000431,0.009402
111455000,0.0324,0.013523,0.002678,0.000431,0.010695
111456000,0.0324,0.013523,0.002678,0.000431,0.008932
111457000,0.0324,0.013523,0.002678,0.000431,0.008580
111458000,0.0324,0.013523,0.002678,0.000431,0.008932
111459000,0.0324,0.013523,0.002678,0.000431,0.008109
111460000,0.0324,0.013523,0.002678,0.000431,0.008815
111461000,0.0324,0.013523,0.002678,0.000431,0.007874
111462000,0.0324,0.013523,0.002678,0.000431,0.008580
111463000,0.0324,0.013523,0.002678,0.000431,0.010460
111464000,0.0324,0.013523,0.002678,0.000431,0.007052
111465000,0.0324,0.013523,0.002678,0.000431,0.006582
111466000,0.0324,0.013523,0.002678,0.000431,0.005524
111467000,0.0324,0.013523,0.002678,0.000431,0.007992
111468000,0.0324,0.013523,0.002678,0.000431,0.004349
111469000,0.0324,0.013523,0.002678,0.000431,0.004584
111470000,0.0324,0.013523,0.002678,0.000431,0.004819
111471000,0.0324,0.013523,0.002678,0.000431,0.004113
111472000,0.0324,0.013523,0.002678,0.000431,0.005524
111473000,0.0324,0.013523,0.002678,0.000431,0.003996
111474000,0.0324,0.013523,0.002678,0.000431,0.005054
111475000,0.0324,0.013523,0.002678,0.000431,0.004584
111476000,0.0324,0.013523,0.002678,0.000431,0.004349
111477000,0.0324,0.013523,0.002678,0.000431,0.005054
111478000,0.0324,0.013523,0.002678,0.000431,0.004231
111479000,0.0324,0.013523,0.002678,0.000431,0.004936
111480000,0.0324,0.013523,0.002678,0.000431,0.004584
111481000,0.0324,0.013523,0.002678,0.000431,0.004584
111482000,0.0324,0.013523,0.002678,0.000431,0.004819
111483000,0.0324,0.013523,0.002678,0.000431,0.004466
111484000,0.0324,0.013523,0.002678,0.000431,0.004584
111485000,0.0324,0.013523,0.002678,0.000431,0.005054
111486000,0.0324,0.013523,0.002678,0.000431,0.004113
111487000,0.0324,0.013523,0.002678,0.000431,0.005171
111488000,0.0324,0.013523,0.002678,0.000431,0.004231
111489000,0.0324,0.013523,0.002678,0.000431,0.004701
111490000,0.0324,0.013523,0.002678,0.000431,0.004936
111491000,0.0324,0.013523,0.002678,0.000431,0.003996
111492000,0.0324,0.013523,0.002678,0.000431,0.003878
111493000,0.0324,0.013523,0.002678,0.000431,0.003408
111494000,0.0324,0.013523,0.002678,0.000431,0.003173
111495000,0.0324,0.013523,0.002678,0.000431,0.006111
111496000,0.0324,0.013523,0.002678,0.000431,0.001998
111497000,0.0324,0.013523,0.002678,0.000431,0.000823
111498000,0.0324,0.013523,0.002678,0.000431,0.072397
111499000,0.0324,0.013523,0.002678,0.000431,0.486097
111500000,0.0324,0.013523,0.002678,0.000431,0.557554
111501000,0.0324,0.013523,0.002678,0.000431,0.132102
111502000,0.0324,0.013523,0.002678,0.000431,0.133042
111503000,0.0324,0.013523,0.002678,0.000431,0.559317
111504000,0.0324,0.013523,0.002678,0.000431,0.228827
111505000,0.0324,0.013523,0.002678,0.000431,0.280422
111506000,0.0324,0.013523,0.002678,0.000431,0.319912
111507000,0.0324,0.013523,0.002678,0.000431,0.137508
111508000,0.0324,0.013523,0.002678,0.000431,0.147263
111509000,0.0324,0.013523,0.002678,0.000431,0.110006
111510000,0.0324,0.013523,0.002678,0.000431,0.330724
111511000,0.0324,0.013523,0.002678,0.000431,0.299462
111512000,0.0324,0.013523,0.002678,0.000431,0.093905
111513000,0.0324,0.013523,0.002678,0.000431,0.084033
111514000,0.0324,0.013523,0.002678,0.000431,0.075923
111515000,0.0324,0.013523,0.002678,0.000431,0.063465
111516000,0.0324,0.013523,0.002678,0.000431,0.049127
111517000,0.0324,0.013523,0.002678,0.000431,0.040430
111518000,0.0324,0.013523,0.002678,0.000431,0.041487
111519000,0.0324,0.013523,0.002678,0.000431,0.035964
111520000,0.0324,0.013523,0.002678,0.000431,0.030087
111521000,0.0324,0.013523,0.002678,0.000431,0.027149
111522000,0.0324,0.013523,0.002678,0.000431,0.018217
111523000,0.0324,0.013523,0.002678,0.000431,0.018452
111524000,0.0324,0.013523,0.002678,0.000431,0.024093
111525000,0.0324,0.013523,0.002678,0.000431,0.019745
111526000,0.0324,0.013523,0.002678,0.000431,0.015161
111527000,0.0324,0.013523,0.002678,0.000431,0.014573
111528000,0.0324,0.013523,0.002678,0.000431,0.012223
111529000,0.0324,0.013523,0.002678,0.000431,0.013633
111530000,0.0324,0.013523,0.002678,0.000431,0.010813
111531000,0.0324,0.013523,0.002678,0.000431,0.009872
111532000,0.0324,0.013523,0.002678,0.000431,0.009872
111533000,0.0324,0.013523,0.002678,0.000431,0.009167
111534000,0.0324,0.013523,0.002678,0.000431,0.011753
111535000,0.0324,0.013523,0.002678,0.000431,0.009755
111536000,0.0324,0.013523,0.002678,0.000431,0.010225
111537000,0.0324,0.013523,0.002678,0.000431,0.005289
111538000,0.0324,0.013523,0.002678,0.000431,0.005054
111539000,0.0324,0.013523,0.002678,0.000431,0.006464
111540000,0.0324,0.013523,0.002678,0.000431,0.003761
111541000,0.0324,0.013523,0.002678,0.000431,0.004466
111542000,0.0324,0.013523,0.002678,0.000431,0.004466
111543000,0.0324,0.013523,0.002678,0.000431,0.004113
111544000,0.0324,0.013523,0.002678,0.000431,0.005524
111545000,0.0324,0.013523,0.002678,0.000431,0.006347
111546000,0.0324,0.013523,0.002678,0.000431,0.001880
111547000,0.0324,0.013523,0.002678,0.000431,0.003056
111548000,0.0324,0.013523,0.002678,0.000431,0.000823
111549000,0.0324,0.013523,0.002678,0.000431,0.000823
111550000,0.0324,0.013523,0.002678,0.000431,0.000823
111551000,0.0324,0.013523,0.002678,0.000431,0.000823
111552000,0.0324,0.013523,0.002678,0.000431,0.000823
111553000,0.0324,0.013523,0.002678,0.000431,0.000940
111554000,0.0324,0.013523,0.002678,0.000431,0.000823
111555000,0.0324,0.013523,0.002678,0.000431,0.000705
111556000,0.0324,0.013523,0.002678,0.000431,0.000940
111557000,0.0324,0.013523,0.002678,0.000431,0.000823
111558000,0.0324,0.013523,0.002678,0.000431,0.000823
111559000,0.0324,0.013523,0.002678,0.000431,0.000823
111560000,0.0324,0.013523,0.002678,0.000431,0.000823
111561000,0.0324,0.013523,0.002678,0.000431,0.000823
111562000,0.0324,0.013523,0.002678,0.000431,0.000940
111563000,0.0324,0.013523,0.002678,0.000431,0.000823
111564000,0.0324,0.013523,0.002678,0.000431,0.000823
111565000,0.0324,0.013523,0.002678,0.000431,0.000705
111566000,0.0324,0.013523,0.002678,0.000431,0.000940
111567000,0.0324,0.013523,0.002678,0.000431,0.000940
111568000,0.0324,0.013523,0.002678,0.000431,0.125520
111569000,0.0324,0.013523,0.002678,0.000431,0.522060
111570000,0.0324,0.013523,0.002678,0.000431,0.538162
111571000,0.0324,0.013523,0.002678,0.000431,0.135392
111572000,0.0324,0.013523,0.002678,0.000431,0.131632
111573000,0.0324,0.013523,0.002678,0.000431,0.565193
111574000,0.0324,0.013523,0.002678,0.000431,0.243166
111575000,0.0324,0.013523,0.002678,0.000431,0.266789
111576000,0.0324,0.013523,0.002678,0.000431,0.288414
111577000,0.0324,0.013523,0.002678,0.000431,0.149261
111578000,0.0324,0.013523,0.002678,0.000431,0.155137
111579000,0.0324,0.013523,0.002678,0.000431,0.109066
111580000,0.0324,0.013523,0.002678,0.000431,0.449898
111581000,0.0324,0.013523,0.002678,0.000431,0.258209
111582000,0.0324,0.013523,0.002678,0.000431,0.137978
111583000,0.0324,0.013523,0.002678,0.000431,0.115648
111584000,0.0324,0.013523,0.002678,0.000431,0.100839
111585000,0.0324,0.013523,0.002678,0.000431,0.083210
111586000,0.0324,0.013523,0.002678,0.000431,0.063230
111587000,0.0324,0.013523,0.002678,0.000431,0.046659
111588000,0.0324,0.013523,0.002678,0.000431,0.045601
111589000,0.0324,0.013523,0.002678,0.000431,0.039019
111590000,0.0324,0.013523,0.002678,0.000431,0.028794
111591000,0.0324,0.013523,0.002678,0.000431,0.025151
111592000,0.0324,0.013523,0.002678,0.000431,0.019627
111593000,0.0324,0.013523,0.002678,0.000431,0.025151
111594000,0.0324,0.013523,0.002678,0.000431,0.016336
111595000,0.0324,0.013523,0.002678,0.000431,0.016101
111596000,0.0324,0.013523,0.002678,0.000431,0.010930
111597000,0.0324,0.013523,0.002678,0.000431,0.013398
111598000,0.0324,0.013523,0.002678,0.000431,0.007757
111599000,0.0324,0.013523,0.002678,0.000431,0.008462
111600000,0.0324,0.013523,0.002678,0.000431,0.008815
111601000,0.0324,0.013523,0.002678,0.000431,0.007992
111602000,0.0324,0.013523,0.002678,0.000431,0.008227
111603000,0.0324,0.013523,0.002678,0.000431,0.008580
111604000,0.0324,0.013523,0.002678,0.000431,0.008932
111605000,0.0324,0.013523,0.002678,0.000431,0.011988
111606000,0.0324,0.013523,0.002678,0.000431,0.010930
111607000,0.0324,0.013523,0.002678,0.000431,0.007639
111608000,0.0324,0.013523,0.002678,0.000431,0.007287
111609000,0.0324,0.013523,0.002678,0.000431,0.004231
111610000,0.0324,0.013523,0.002678,0.000431,0.004231
111611000,0.0324,0.013523,0.002678,0.000431,0.004231
111612000,0.0324,0.013523,0.002678,0.000431,0.006464
111613000,0.0324,0.013523,0.002678,0.000431,0.003173
111614000,0.0324,0.013523,0.002678,0.000431,0.003408
111615000,0.0324,0.013523,0.002678,0.000431,0.003173
111616000,0.0324,0.013523,0.002678,0.000431,0.003643
111617000,0.0324,0.013523,0.002678,0.000431,0.003173
111618000,0.0324,0.013523,0.002678,0.000431,0.003291
111619000,0.0324,0.013523,0.002678,0.000431,0.003408
111620000,0.0324,0.013523,0.002678,0.000431,0.003291
111621000,0.0324,0.013523,0.002678,0.000431,0.003526
111622000,0.0324,0.013523,0.002678,0.000431,0.003173
111623000,0.0324,0.013523,0.002678,0.000431,0.003996
111624000,0.0324,0.013523,0.002678,0.000431,0.003643
111625000,0.0324,0.013523,0.002678,0.000431,0.002703
111626000,0.0324,0.013523,0.002678,0.000431,0.002351
111627000,0.0324,0.013523,0.002678,0.000431,0.002586
111628000,0.0324,0.013523,0.002678,0.000431,0.002351
111629000,0.0324,0.013523,0.002678,0.000431,0.002586
111630000,0.0324,0.013523,0.002678,0.000431,0.002821
111631000,0.0324,0.013523,0.002678,0.000431,0.002233
111632000,0.0324,0.013523,0.002678,0.000431,0.003878
111633000,0.0324,0.013523,0.002678,0.000431,0.003173
111634000,0.0324,0.013523,0.002678,0.000431,0.001880
111635000,0.0324,0.013523,0.002678,0.000431,0.001763
111636000,0.0324,0.013523,0.002678,0.000431,0.001528
111637000,0.0324,0.013523,0.002678,0.000431,0.001880
111638000,0.0324,0.013523,0.002678,0.000431,0.001410
111639000,0.0324,0.013523,0.002678,0.000431,0.001880
111640000,0.0324,0.013523,0.002678,0.000431,0.001645
111641000,0.0324,0.013523,0.002678,0.000431,0.001645
111642000,0.0324,0.013523,0.002678,0.000431,0.001763
111643000,0.0324,0.013523,0.002678,0.000431,0.001528
111644000,0.0324,0.013523,0.002678,0.000431,0.001763
111645000,0.0324,0.013523,0.002678,0.000431,0.001645
111646000,0.0324,0.013523,0.002678,0.000431,0.001763
111647000,0.0324,0.013523,0.002678,0.000431,0.001528
111648000,0.0324,0.013523,0.002678,0.000431,0.001763
111649000,0.0324,0.013523,0.002678,0.000431,0.001645
111650000,0.0324,0.013523,0.002678,0.000431,0.001645
111651000,0.0324,0.013523,0.002678,0.000431,0.001645
111652000,0.0324,0.013523,0.002678,0.000431,0.001645
111653000,0.0324,0.013523,0.002678,0.000431,0.001763
111654000,0.0324,0.013523,0.002678,0.000431,0.004819
111655000,0.0324,0.013523,0.002678,0.000431,0.001058
111656000,0.0324,0.013523,0.002678,0.000431,0.000705
111657000,0.0324,0.013523,0.002678,0.000431,0.000940
111658000,0.0324,0.013523,0.002678,0.000431,0.000823
111659000,0.0324,0.013523,0.002678,0.000431,0.000823
111660000,0.0324,0.013523,0.002678,0.000431,0.000940
111661000,0.0324,0.013523,0.002678,0.000431,0.000705
111662000,0.0324,0.013523,0.002678,0.000431,0.000940
111663000,0.0324,0.013523,0.002678,0.000431,0.000823
111664000,0.0324,0.013523,0.002678,0.000431,0.000823
111665000,0.0324,0.013523,0.002678,0.000431,0.000823
111666000,0.0324,0.013523,0.002678,0.000431,0.000823
111667000,0.0324,0.013523,0.002678,0.000431,0.000823
111668000,0.0324,0.013523,0.002678,0.000431,0.000823
111669000,0.0324,0.013523,0.002678,0.000431,0.000940
111670000,0.0324,0.013523,0.002678,0.000431,0.000705
111671000,0.0324,0.013523,0.002678,0.000431,0.000823
111672000,0.0324,0.013523,0.002678,0.000431,0.000940
111673000,0.0324,0.013523,0.002678,0.000431,0.000823
111674000,0.0324,0.013523,0.002678,0.000431,0.000823
111675000,0.0324,0.013523,0.002678,0.000431,0.000823
111676000,0.0324,0.013523,0.002678,0.000431,0.000705
111677000,0.0324,0.013523,0.002678,0.000431,0.000940
111678000,0.0324,0.013523,0.002678,0.000431,0.000940
111679000,0.0324,0.013523,0.002678,0.000431,0.000823
111680000,0.0324,0.013523,0.002678,0.000431,0.000823
111681000,0.0324,0.013523,0.002678,0.000431,0.000705
111682000,0.0324,0.013523,0.002678,0.000431,0.000940
111683000,0.0324,0.013523,0.002678,0.000431,0.000940
111684000,0.0324,0.013523,0.002678,0.000431,0.000705
111685000,0.0324,0.013523,0.002678,0.000431,0.000940
111686000,0.0324,0.013523,0.002678,0.000431,0.000705
111687000,0.0324,0.013523,0.002678,0.000431,0.000940
111688000,0.0324,0.013523,0.002678,0.000431,0.000823
111689000,0.0324,0.013523,0.002678,0.000431,0.000823
111690000,0.0324,0.013523,0.002678,0.000431,0.000823
111691000,0.0324,0.013523,0.002678,0.000431,0.000823
111692000,0.0324,0.013523,0.002678,0.000431,0.000940
111693000,0.0324,0.013523,0.002678,0.000431,0.000823
111694000,0.0324,0.013523,0.002678,0.000431,0.000823
111695000,0.0324,0.013523,0.002678,0.000431,0.000823
111696000,0.0324,0.013523,0.002678,0.000431,0.000823
111697000,0.0324,0.013523,0.002678,0.000431,0.000823
111698000,0.0324,0.013523,0.002678,0.000431,0.000823
111699000,0.0324,0.013523,0.002678,0.000431,0.000940
111700000,0.0324,0.013523,0.002678,0.000431,0.001880
111701000,0.0324,0.013523,0.002678,0.000431,0.464941
111702000,0.0324,0.013523,0.002678,0.000431,0.708577
111703000,0.0324,0.013523,0.002678,0.000431,0.178995
111704000,0.0324,0.013523,0.002678,0.000431,0.135510
111705000,0.0324,0.013523,0.002678,0.000431,0.397950
111706000,0.0324,0.013523,0.002678,0.000431,0.385610
111707000,0.0324,0.013523,0.002678,0.000431,0.284888
111708000,0.0324,0.013523,0.002678,0.000431,0.332722
111709000,0.0324,0.013523,0.002678,0.000431,0.153374
111710000,0.0324,0.013523,0.002678,0.000431,0.143502
111711000,0.0324,0.013523,0.002678,0.000431,0.191336
111712000,0.0324,0.013523,0.002678,0.000431,0.384670
111713000,0.0324,0.013523,0.002678,0.000431,0.032555
111714000,0.0324,0.013523,0.002678,0.000431,0.025621
111715000,0.0324,0.013523,0.002678,0.000431,0.021860
111716000,0.0324,0.013523,0.002678,0.000431,0.021625
111717000,0.0324,0.013523,0.002678,0.000431,0.019040
111718000,0.0324,0.013523,0.002678,0.000431,0.015279
111719000,0.0324,0.013523,0.002678,0.000431,0.017629
111720000,0.0324,0.013523,0.002678,0.000431,0.014573
111721000,0.0324,0.013523,0.002678,0.000431,0.012811
111722000,0.0324,0.013523,0.002678,0.000431,0.010578
111723000,0.0324,0.013523,0.002678,0.000431,0.012340
111724000,0.0324,0.013523,0.002678,0.000431,0.009990
111725000,0.0324,0.013523,0.002678,0.000431,0.012928
111726000,0.0324,0.013523,0.002678,0.000431,0.007757
111727000,0.0324,0.013523,0.002678,0.000431,0.009520
111728000,0.0324,0.013523,0.002678,0.000431,0.007169
111729000,0.0324,0.013523,0.002678,0.000431,0.006111
111730000,0.0324,0.013523,0.002678,0.000431,0.005759
111731000,0.0324,0.013523,0.002678,0.000431,0.005876
111732000,0.0324,0.013523,0.002678,0.000431,0.006582
111733000,0.0324,0.013523,0.002678,0.000431,0.003291
111734000,0.0324,0.013523,0.002678,0.000431,0.003526
111735000,0.0324,0.013523,0.002678,0.000431,0.003291
111736000,0.0324,0.013523,0.002678,0.000431,0.003408
111737000,0.0324,0.013523,0.002678,0.000431,0.003291
111738000,0.0324,0.013523,0.002678,0.000431,0.003643
111739000,0.0324,0.013523,0.002678,0.000431,0.003291
111740000,0.0324,0.013523,0.002678,0.000431,0.003291
111741000,0.0324,0.013523,0.002678,0.000431,0.003408
111742000,0.0324,0.013523,0.002678,0.000431,0.003408
111743000,0.0324,0.013523,0.002678,0.000431,0.003526
111744000,0.0324,0.013523,0.002678,0.000431,0.003056
111745000,0.0324,0.013523,0.002678,0.000431,0.003761
111746000,0.0324,0.013523,0.002678,0.000431,0.003173
111747000,0.0324,0.013523,0.002678,0.000431,0.003408
111748000,0.0324,0.013523,0.002678,0.000431,0.003526
111749000,0.0324,0.013523,0.002678,0.000431,0.003291
111750000,0.0324,0.013523,0.002678,0.000431,0.003526
111751000,0.0324,0.013523,0.002678,0.000431,0.003173
111752000,0.0324,0.013523,0.002678,0.000431,0.003643
111753000,0.0324,0.013523,0.002678,0.000431,0.003173
111754000,0.0324,0.013523,0.002678,0.000431,0.003526
111755000,0.0324,0.013523,0.002678,0.000431,0.003291
111756000,0.0324,0.013523,0.002678,0.000431,0.003408
111757000,0.0324,0.013523,0.002678,0.000431,0.004819
111758000,0.0324,0.013523,0.002678,0.000431,0.002586
111759000,0.0324,0.013523,0.002678,0.000431,0.002821
111760000,0.0324,0.013523,0.002678,0.000431,0.002233
111761000,0.0324,0.013523,0.002678,0.000431,0.002703
111762000,0.0324,0.013523,0.002678,0.000431,0.002233
111763000,0.0324,0.013523,0.002678,0.000431,0.002703
111764000,0.0324,0.013523,0.002678,0.000431,0.002468
111765000,0.0324,0.013523,0.002678,0.000431,0.002468
111766000,0.0324,0.013523,0.002678,0.000431,0.002586
111767000,0.0324,0.013523,0.002678,0.000431,0.002351
111768000,0.0324,0.013523,0.002678,0.000431,0.002821
111769000,0.0324,0.013523,0.002678,0.000431,0.002233
111770000,0.0324,0.013523,0.002678,0.000431,0.002703
111771000,0.0324,0.013523,0.002678,0.000431,0.002351
111772000,0.0324,0.013523,0.002678,0.000431,0.002586
111773000,0.0324,0.013523,0.002678,0.000431,0.003291
111774000,0.0324,0.013523,0.002678,0.000431,0.002821
111775000,0.0324,0.013523,0.002678,0.000431,0.001880
111776000,0.0324,0.013523,0.002678,0.000431,0.001528
111777000,0.0324,0.013523,0.002678,0.000431,0.001880
111778000,0.0324,0.013523,0.002678,0.000431,0.001528
111779000,0.0324,0.013523,0.002678,0.000431,0.001763
111780000,0.0324,0.013523,0.002678,0.000431,0.003526
111781000,0.0324,0.013523,0.002678,0.000431,0.000823
111782000,0.0324,0.013523,0.002678,0.000431,0.000823
111783000,0.0324,0.013523,0.002678,0.000431,0.000823
111784000,0.0324,0.013523,0.002678,0.000431,0.000940
111785000,0.0324,0.013523,0.002678,0.000431,0.000823
111786000,0.0324,0.013523,0.002678,0.000431,0.000823
111787000,0.0324,0.013523,0.002678,0.000431,0.000823
111788000,0.0324,0.013523,0.002678,0.000431,0.000823
111789000,0.0324,0.013523,0.002678,0.000431,0.000823
111790000,0.0324,0.013523,0.002678,0.000431,0.000823
111791000,0.0324,0.013523,0.002678,0.000431,0.000940
111792000,0.0324,0.013523,0.002678,0.000431,0.000705
111793000,0.0324,0.013523,0.002678,0.000431,0.000823
111794000,0.0324,0.013523,0.002678,0.000431,0.000940
111795000,0.0324,0.013523,0.002678,0.000431,0.000823
111796000,0.0324,0.013523,0.002678,0.000431,0.000823
111797000,0.0324,0.013523,0.002678,0.000431,0.000823
111798000,0.0324,0.013523,0.002678,0.000431,0.000705
111799000,0.0324,0.013523,0.002678,0.000431,0.000940
111800000,0.0324,0.013523,0.002678,0.000431,0.000940
111801000,0.0324,0.013523,0.002678,0.000431,0.000705
111802000,0.0324,0.013523,0.002678,0.000431,0.000940
111803000,0.0324,0.013523,0.002678,0.000431,0.000705
111804000,0.0324,0.013523,0.002678,0.000431,0.000940
111805000,0.0324,0.013523,0.002678,0.000431,0.000940
111806000,0.0324,0.013523,0.002678,0.000431,0.000705
111807000,0.0324,0.013523,0.002678,0.000431,0.000940
111808000,0.0324,0.013523,0.002678,0.000431,0.000705
111809000,0.0324,0.013523,0.002678,0.000431,0.000940
111810000,0.0324,0.013523,0.002678,0.000431,0.000823
111811000,0.0324,0.013523,0.002678,0.000431,0.000823
111812000,0.0324,0.013523,0.002678,0.000431,0.000823
111813000,0.0324,0.013523,0.002678,0.000431,0.000823
111814000,0.0324,0.013523,0.002678,0.000431,0.000940
111815000,0.0324,0.013523,0.002678,0.000431,0.000705
111816000,0.0324,0.013523,0.002678,0.000431,0.000940
111817000,0.0324,0.013523,0.002678,0.000431,0.000823
111818000,0.0324,0.013523,0.002678,0.000431,0.000823
111819000,0.0324,0.013523,0.002678,0.000431,0.000823
111820000,0.0324,0.013523,0.002678,0.000431,0.000823
111821000,0.0324,0.013523,0.002678,0.000431,0.000705
111822000,0.0324,0.013523,0.002678,0.000431,0.000940
111823000,0.0324,0.013523,0.002678,0.000431,0.000940
111824000,0.0324,0.013523,0.002678,0.000431,0.000705
111825000,0.0324,0.013523,0.002678,0.000431,0.000940
111826000,0.0324,0.013523,0.002678,0.000431,0.000705
111827000,0.0324,0.013523,0.002678,0.000431,0.000940
111828000,0.0324,0.013523,0.002678,0.000431,0.000823
111829000,0.0324,0.013523,0.002678,0.000431,0.000823
111830000,0.0324,0.013523,0.002678,0.000431,0.000940
111831000,0.0324,0.013523,0.002678,0.000431,0.000705
111832000,0.0324,0.013523,0.002678,0.000431,0.000940
111833000,0.0324,0.013523,0.002678,0.000431,0.000823
111834000,0.0324,0.013523,0.002678,0.000431,0.000823
111835000,0.0324,0.013523,0.002678,0.000431,0.000823
111836000,0.0324,0.013523,0.002678,0.000431,0.000823
111837000,0.0324,0.013523,0.002678,0.000431,0.000940
111838000,0.0324,0.013523,0.002678,0.000431,0.000705
111839000,0.0324,0.013523,0.002678,0.000431,0.000940
111840000,0.0324,0.013523,0.002678,0.000431,0.000705
111841000,0.0324,0.013523,0.002678,0.000431,0.000823
111842000,0.0324,0.013523,0.002678,0.000431,0.000940
111843000,0.0324,0.013523,0.002678,0.000431,0.000823
111844000,0.0324,0.013523,0.002678,0.000431,0.000823
111845000,0.0324,0.013523,0.002678,0.000431,0.000823
111846000,0.0324,0.013523,0.002678,0.000431,0.000705
111847000,0.0324,0.013523,0.002678,0.000431,0.000940
111848000,0.0324,0.013523,0.002678,0.000431,0.000940
111849000,0.0324,0.013523,0.002678,0.000431,0.000705
111850000,0.0324,0.013523,0.002678,0.000431,0.000940
111851000,0.0324,0.013523,0.002678,0.000431,0.000705
111852000,0.0324,0.013523,0.002678,0.000431,0.000940
111853000,0.0324,0.013523,0.002678,0.000431,0.000823
111854000,0.0324,0.013523,0.002678,0.000431,0.000823
111855000,0.0324,0.013523,0.002678,0.000431,0.000940
111856000,0.0324,0.013523,0.002678,0.000431,0.000705
111857000,0.0324,0.013523,0.002678,0.000431,0.000940
111858000,0.0324,0.013523,0.002678,0.000431,0.000823
111859000,0.0324,0.013523,0.002678,0.000431,0.000823
111860000,0.0324,0.013523,0.002678,0.000431,0.000823
111861000,0.0324,0.013523,0.002678,0.000431,0.000823
111862000,0.0324,0.013523,0.002678,0.000431,0.000940
111863000,0.0324,0.013523,0.002678,0.000431,0.000705
111864000,0.0324,0.013523,0.002678,0.000431,0.000940
111865000,0.0324,0.013523,0.002678,0.000431,0.000823
111866000,0.0324,0.013523,0.002678,0.000431,0.000823
111867000,0.0324,0.013523,0.002678,0.000431,0.000823
111868000,0.0324,0.013523,0.002678,0.000431,0.000823
111869000,0.0324,0.013523,0.002678,0.000431,0.000705
111870000,0.0324,0.013523,0.002678,0.000431,0.000940
111871000,0.0324,0.013523,0.002678,0.000431,0.000940
111872000,0.0324,0.013523,0.002678,0.000431,0.000705
111873000,0.0324,0.013523,0.002678,0.000431,0.000940
111874000,0.0324,0.013523,0.002678,0.000431,0.000705
111875000,0.0324,0.013523,0.002678,0.000431,0.000940
111876000,0.0324,0.013523,0.002678,0.000431,0.000940
111877000,0.0324,0.013523,0.002678,0.000431,0.000705
111878000,0.0324,0.013523,0.002678,0.000431,0.000940
111879000,0.0324,0.013523,0.002678,0.000431,0.000705
111880000,0.0324,0.013523,0.002678,0.000431,0.000940
111881000,0.0324,0.013523,0.002678,0.000431,0.000823
111882000,0.0324,0.013523,0.002678,0.000431,0.000823
111883000,0.0324,0.013523,0.002678,0.000431,0.000823
111884000,0.0324,0.013523,0.002678,0.000431,0.000823
111885000,0.0324,0.013523,0.002678,0.000431,0.000940
111886000,0.0324,0.013523,0.002678,0.000431,0.000705
111887000,0.0324,0.013523,0.002678,0.000431,0.000940
111888000,0.0324,0.013523,0.002678,0.000431,0.000823
111889000,0.0324,0.013523,0.002678,0.000431,0.000705
111890000,0.0324,0.013523,0.002678,0.000431,0.000940
111891000,0.0324,0.013523,0.002678,0.000431,0.000823
111892000,0.0324,0.013523,0.002678,0.000431,0.000823
111893000,0.0324,0.013523,0.002678,0.000431,0.084503
111894000,0.0324,0.013523,0.002678,0.000431,0.465529
111895000,0.0324,0.013523,0.002678,0.000431,0.549679
111896000,0.0324,0.013523,0.002678,0.000431,0.133512
111897000,0.0324,0.013523,0.002678,0.000431,0.131161
111898000,0.0324,0.013523,0.002678,0.000431,0.556731
111899000,0.0324,0.013523,0.002678,0.000431,0.226477
111900000,0.0324,0.013523,0.002678,0.000431,0.290060
111901000,0.0324,0.013523,0.002678,0.000431,0.281127
111902000,0.0324,0.013523,0.002678,0.000431,0.162071
111903000,0.0324,0.013523,0.002678,0.000431,0.141034
111904000,0.0324,0.013523,0.002678,0.000431,0.148791
111905000,0.0324,0.013523,0.002678,0.000431,0.181699
111906000,0.0324,0.013523,0.002678,0.000431,0.443081
111907000,0.0324,0.013523,0.002678,0.000431,0.088616
111908000,0.0324,0.013523,0.002678,0.000431,0.082740
111909000,0.0324,0.013523,0.002678,0.000431,0.074865
111910000,0.0324,0.013523,0.002678,0.000431,0.064876
111911000,0.0324,0.013523,0.002678,0.000431,0.053593
111912000,0.0324,0.013523,0.002678,0.000431,0.047951
111913000,0.0324,0.013523,0.002678,0.000431,0.043720
111914000,0.0324,0.013523,0.002678,0.000431,0.041017
111915000,0.0324,0.013523,0.002678,0.000431,0.032790
111916000,0.0324,0.013523,0.002678,0.000431,0.028442
111917000,0.0324,0.013523,0.002678,0.000431,0.026561
111918000,0.0324,0.013523,0.002678,0.000431,0.027619
111919000,0.0324,0.013523,0.002678,0.000431,0.023741
111920000,0.0324,0.013523,0.002678,0.000431,0.023388
111921000,0.0324,0.013523,0.002678,0.000431,0.016571
111922000,0.0324,0.013523,0.002678,0.000431,0.014456
111923000,0.0324,0.013523,0.002678,0.000431,0.016924
111924000,0.0324,0.013523,0.002678,0.000431,0.017277
111925000,0.0324,0.013523,0.002678,0.000431,0.011048
111926000,0.0324,0.013523,0.002678,0.000431,0.011518
111927000,0.0324,0.013523,0.002678,0.000431,0.014103
111928000,0.0324,0.013523,0.002678,0.000431,0.010813
111929000,0.0324,0.013523,0.002678,0.000431,0.008815
111930000,0.0324,0.013523,0.002678,0.000431,0.010578
111931000,0.0324,0.013523,0.002678,0.000431,0.009402
111932000,0.0324,0.013523,0.002678,0.000431,0.007052
111933000,0.0324,0.013523,0.002678,0.000431,0.007639
111934000,0.0324,0.013523,0.002678,0.000431,0.007169
111935000,0.0324,0.013523,0.002678,0.000431,0.007757
111936000,0.0324,0.013523,0.002678,0.000431,0.006934
111937000,0.0324,0.013523,0.002678,0.000431,0.007757
111938000,0.0324,0.013523,0.002678,0.000431,0.006582
111939000,0.0324,0.013523,0.002678,0.000431,0.007992
111940000,0.0324,0.013523,0.002678,0.000431,0.007287
111941000,0.0324,0.013523,0.002678,0.000431,0.007169
111942000,0.0324,0.013523,0.002678,0.000431,0.007287
111943000,0.0324,0.013523,0.002678,0.000431,0.008227
111944000,0.0324,0.013523,0.002678,0.000431,0.007757
111945000,0.0324,0.013523,0.002678,0.000431,0.007757
111946000,0.0324,0.013523,0.002678,0.000431,0.005759
111947000,0.0324,0.013523,0.002678,0.000431,0.005524
111948000,0.0324,0.013523,0.002678,0.000431,0.005641
111949000,0.0324,0.013523,0.002678,0.000431,0.005759
111950000,0.0324,0.013523,0.002678,0.000431,0.005876
111951000,0.0324,0.013523,0.002678,0.000431,0.005524
111952000,0.0324,0.013523,0.002678,0.000431,0.005524
111953000,0.0324,0.013523,0.002678,0.000431,0.005994
111954000,0.0324,0.013523,0.002678,0.000431,0.005641
111955000,0.0324,0.013523,0.002678,0.000431,0.005524
111956000,0.0324,0.013523,0.002678,0.000431,0.005524
111957000,0.0324,0.013523,0.002678,0.000431,0.005876
111958000,0.0324,0.013523,0.002678,0.000431,0.005641
111959000,0.0324,0.013523,0.002678,0.000431,0.007757
111960000,0.0324,0.013523,0.002678,0.000431,0.005171
111961000,0.0324,0.013523,0.002678,0.000431,0.004584
111962000,0.0324,0.013523,0.002678,0.000431,0.005994
111963000,0.0324,0.013523,0.002678,0.000431,0.003643
111964000,0.0324,0.013523,0.002678,0.000431,0.003408
111965000,0.0324,0.013523,0.002678,0.000431,0.003408
111966000,0.0324,0.013523,0.002678,0.000431,0.003291
111967000,0.0324,0.013523,0.002678,0.000431,0.003526
111968000,0.0324,0.013523,0.002678,0.000431,0.003408
111969000,0.0324,0.013523,0.002678,0.000431,0.003056
111970000,0.0324,0.013523,0.002678,0.000431,0.003526
111971000,0.0324,0.013523,0.002678,0.000431,0.003643
111972000,0.0324,0.013523,0.002678,0.000431,0.003173
111973000,0.0324,0.013523,0.002678,0.000431,0.003408
111974000,0.0324,0.013523,0.002678,0.000431,0.003408
111975000,0.0324,0.013523,0.002678,0.000431,0.003408
111976000,0.0324,0.013523,0.002678,0.000431,0.003291
111977000,0.0324,0.013523,0.002678,0.000431,0.003408
111978000,0.0324,0.013523,0.002678,0.000431,0.003643
111979000,0.0324,0.013523,0.002678,0.000431,0.003056
111980000,0.0324,0.013523,0.002678,0.000431,0.003643
111981000,0.0324,0.013523,0.002678,0.000431,0.003056
111982000,0.0324,0.013523,0.002678,0.000431,0.003643
111983000,0.0324,0.013523,0.002678,0.000431,0.003408
111984000,0.0324,0.013523,0.002678,0.000431,0.004819
111985000,0.0324,0.013523,0.002678,0.000431,0.002821
111986000,0.0324,0.013523,0.002678,0.000431,0.002233
111987000,0.0324,0.013523,0.002678,0.000431,0.003878
111988000,0.0324,0.013523,0.002678,0.000431,0.002703
111989000,0.0324,0.013523,0.002678,0.000431,0.001645
111990000,0.0324,0.013523,0.002678,0.000431,0.001880
111991000,0.0324,0.013523,0.002678,0.000431,0.001528
111992000,0.0324,0.013523,0.002678,0.000431,0.001763
111993000,0.0324,0.013523,0.002678,0.000431,0.001645
111994000,0.0324,0.013523,0.002678,0.000431,0.001528
111995000,0.0324,0.013523,0.002678,0.000431,0.001763
111996000,0.0324,0.013523,0.002678,0.000431,0.001763
111997000,0.0324,0.013523,0.002678,0.000431,0.001645
111998000,0.0324,0.013523,0.002678,0.000431,0.001645
111999000,0.0324,0.013523,0.002678,0.000431,0.001645
