Cycle,Area(mm^2),PeakDynamic(W),SubthresholdLeakage(W),GateLeakage(W),RunTimeDynamic(W)
81000000,0.0324,0.013523,0.002678,0.000431,0.033966
81001000,0.0324,0.013523,0.002678,0.000431,0.028207
81002000,0.0324,0.013523,0.002678,0.000431,0.026796
81003000,0.0324,0.013523,0.002678,0.000431,0.022565
81004000,0.0324,0.013523,0.002678,0.000431,0.019157
81005000,0.0324,0.013523,0.002678,0.000431,0.018334
81006000,0.0324,0.013523,0.002678,0.000431,0.010578
81007000,0.0324,0.013523,0.002678,0.000431,0.010225
81008000,0.0324,0.013523,0.002678,0.000431,0.009402
81009000,0.0324,0.013523,0.002678,0.000431,0.009520
81010000,0.0324,0.013523,0.002678,0.000431,0.009872
81011000,0.0324,0.013523,0.002678,0.000431,0.009285
81012000,0.0324,0.013523,0.002678,0.000431,0.009872
81013000,0.0324,0.013523,0.002678,0.000431,0.010342
81014000,0.0324,0.013523,0.002678,0.000431,0.009872
81015000,0.0324,0.013523,0.002678,0.000431,0.009167
81016000,0.0324,0.013523,0.002678,0.000431,0.009637
81017000,0.0324,0.013523,0.002678,0.000431,0.009050
81018000,0.0324,0.013523,0.002678,0.000431,0.009167
81019000,0.0324,0.013523,0.002678,0.000431,0.008462
81020000,0.0324,0.013523,0.002678,0.000431,0.009755
81021000,0.0324,0.013523,0.002678,0.000431,0.009285
81022000,0.0324,0.013523,0.002678,0.000431,0.009520
81023000,0.0324,0.013523,0.002678,0.000431,0.011048
81024000,0.0324,0.013523,0.002678,0.000431,0.005994
81025000,0.0324,0.013523,0.002678,0.000431,0.005876
81026000,0.0324,0.013523,0.002678,0.000431,0.005641
81027000,0.0324,0.013523,0.002678,0.000431,0.006111
81028000,0.0324,0.013523,0.002678,0.000431,0.005759
81029000,0.0324,0.013523,0.002678,0.000431,0.005759
81030000,0.0324,0.013523,0.002678,0.000431,0.005994
81031000,0.0324,0.013523,0.002678,0.000431,0.005641
81032000,0.0324,0.013523,0.002678,0.000431,0.006229
81033000,0.0324,0.013523,0.002678,0.000431,0.005759
81034000,0.0324,0.013523,0.002678,0.000431,0.005759
81035000,0.0324,0.013523,0.002678,0.000431,0.009520
81036000,0.0324,0.013523,0.002678,0.000431,0.004349
81037000,0.0324,0.013523,0.002678,0.000431,0.004819
81038000,0.0324,0.013523,0.002678,0.000431,0.004231
81039000,0.0324,0.013523,0.002678,0.000431,0.003173
81040000,0.0324,0.013523,0.002678,0.000431,0.003291
81041000,0.0324,0.013523,0.002678,0.000431,0.003173
81042000,0.0324,0.013523,0.002678,0.000431,0.002938
81043000,0.0324,0.013523,0.002678,0.000431,0.003408
81044000,0.0324,0.013523,0.002678,0.000431,0.002821
81045000,0.0324,0.013523,0.002678,0.000431,0.003291
81046000,0.0324,0.013523,0.002678,0.000431,0.003291
81047000,0.0324,0.013523,0.002678,0.000431,0.002821
81048000,0.0324,0.013523,0.002678,0.000431,0.003643
81049000,0.0324,0.013523,0.002678,0.000431,0.002821
81050000,0.0324,0.013523,0.002678,0.000431,0.003408
81051000,0.0324,0.013523,0.002678,0.000431,0.002938
81052000,0.0324,0.013523,0.002678,0.000431,0.003173
81053000,0.0324,0.013523,0.002678,0.000431,0.003643
81054000,0.0324,0.013523,0.002678,0.000431,0.002468
81055000,0.0324,0.013523,0.002678,0.000431,0.003643
81056000,0.0324,0.013523,0.002678,0.000431,0.002938
81057000,0.0324,0.013523,0.002678,0.000431,0.003173
81058000,0.0324,0.013523,0.002678,0.000431,0.003408
81059000,0.0324,0.013523,0.002678,0.000431,0.003173
81060000,0.0324,0.013523,0.002678,0.000431,0.003291
81061000,0.0324,0.013523,0.002678,0.000431,0.003408
81062000,0.0324,0.013523,0.002678,0.000431,0.003291
81063000,0.0324,0.013523,0.002678,0.000431,0.003056
81064000,0.0324,0.013523,0.002678,0.000431,0.007052
81065000,0.0324,0.013523,0.002678,0.000431,0.000823
81066000,0.0324,0.013523,0.002678,0.000431,0.000940
81067000,0.0324,0.013523,0.002678,0.000431,0.000705
81068000,0.0324,0.013523,0.002678,0.000431,0.000940
81069000,0.0324,0.013523,0.002678,0.000431,0.000705
81070000,0.0324,0.013523,0.002678,0.000431,0.000940
81071000,0.0324,0.013523,0.002678,0.000431,0.000823
81072000,0.0324,0.013523,0.002678,0.000431,0.000823
81073000,0.0324,0.013523,0.002678,0.000431,0.000705
81074000,0.0324,0.013523,0.002678,0.000431,0.000940
81075000,0.0324,0.013523,0.002678,0.000431,0.000940
81076000,0.0324,0.013523,0.002678,0.000431,0.000705
81077000,0.0324,0.013523,0.002678,0.000431,0.000940
81078000,0.0324,0.013523,0.002678,0.000431,0.000705
81079000,0.0324,0.013523,0.002678,0.000431,0.000940
81080000,0.0324,0.013523,0.002678,0.000431,0.000823
81081000,0.0324,0.013523,0.002678,0.000431,0.000823
81082000,0.0324,0.013523,0.002678,0.000431,0.000940
81083000,0.0324,0.013523,0.002678,0.000431,0.000705
81084000,0.0324,0.013523,0.002678,0.000431,0.000940
81085000,0.0324,0.013523,0.002678,0.000431,0.000823
81086000,0.0324,0.013523,0.002678,0.000431,0.000823
81087000,0.0324,0.013523,0.002678,0.000431,0.000823
81088000,0.0324,0.013523,0.002678,0.000431,0.000823
81089000,0.0324,0.013523,0.002678,0.000431,0.000823
81090000,0.0324,0.013523,0.002678,0.000431,0.000823
81091000,0.0324,0.013523,0.002678,0.000431,0.000940
81092000,0.0324,0.013523,0.002678,0.000431,0.000823
81093000,0.0324,0.013523,0.002678,0.000431,0.000823
81094000,0.0324,0.013523,0.002678,0.000431,0.000823
81095000,0.0324,0.013523,0.002678,0.000431,0.000823
81096000,0.0324,0.013523,0.002678,0.000431,0.061232
81097000,0.0324,0.013523,0.002678,0.000431,0.656747
81098000,0.0324,0.013523,0.002678,0.000431,0.582940
81099000,0.0324,0.013523,0.002678,0.000431,0.134452
81100000,0.0324,0.013523,0.002678,0.000431,0.134452
81101000,0.0324,0.013523,0.002678,0.000431,0.547916
81102000,0.0324,0.013523,0.002678,0.000431,0.243989
81103000,0.0324,0.013523,0.002678,0.000431,0.312037
81104000,0.0324,0.013523,0.002678,0.000431,0.250453
81105000,0.0324,0.013523,0.002678,0.000431,0.151141
81106000,0.0324,0.013523,0.002678,0.000431,0.117058
81107000,0.0324,0.013523,0.002678,0.000431,0.322497
81108000,0.0324,0.013523,0.002678,0.000431,0.366805
81109000,0.0324,0.013523,0.002678,0.000431,0.131867
81110000,0.0324,0.013523,0.002678,0.000431,0.113650
81111000,0.0324,0.013523,0.002678,0.000431,0.093200
81112000,0.0324,0.013523,0.002678,0.000431,0.080742
81113000,0.0324,0.013523,0.002678,0.000431,0.060292
81114000,0.0324,0.013523,0.002678,0.000431,0.053005
81115000,0.0324,0.013523,0.002678,0.000431,0.046659
81116000,0.0324,0.013523,0.002678,0.000431,0.038432
81117000,0.0324,0.013523,0.002678,0.000431,0.032203
81118000,0.0324,0.013523,0.002678,0.000431,0.027854
81119000,0.0324,0.013523,0.002678,0.000431,0.032908
81120000,0.0324,0.013523,0.002678,0.000431,0.026209
81121000,0.0324,0.013523,0.002678,0.000431,0.017512
81122000,0.0324,0.013523,0.002678,0.000431,0.024446
81123000,0.0324,0.013523,0.002678,0.000431,0.015044
81124000,0.0324,0.013523,0.002678,0.000431,0.014809
81125000,0.0324,0.013523,0.002678,0.000431,0.013046
81126000,0.0324,0.013523,0.002678,0.000431,0.010342
81127000,0.0324,0.013523,0.002678,0.000431,0.010813
81128000,0.0324,0.013523,0.002678,0.000431,0.010225
81129000,0.0324,0.013523,0.002678,0.000431,0.010578
81130000,0.0324,0.013523,0.002678,0.000431,0.010342
81131000,0.0324,0.013523,0.002678,0.000431,0.013398
81132000,0.0324,0.013523,0.002678,0.000431,0.009167
81133000,0.0324,0.013523,0.002678,0.000431,0.008462
81134000,0.0324,0.013523,0.002678,0.000431,0.009167
81135000,0.0324,0.013523,0.002678,0.000431,0.010930
81136000,0.0324,0.013523,0.002678,0.000431,0.007639
81137000,0.0324,0.013523,0.002678,0.000431,0.007169
81138000,0.0324,0.013523,0.002678,0.000431,0.009402
81139000,0.0324,0.013523,0.002678,0.000431,0.006347
81140000,0.0324,0.013523,0.002678,0.000431,0.006111
81141000,0.0324,0.013523,0.002678,0.000431,0.006582
81142000,0.0324,0.013523,0.002678,0.000431,0.006111
81143000,0.0324,0.013523,0.002678,0.000431,0.006347
81144000,0.0324,0.013523,0.002678,0.000431,0.006347
81145000,0.0324,0.013523,0.002678,0.000431,0.006464
81146000,0.0324,0.013523,0.002678,0.000431,0.006111
81147000,0.0324,0.013523,0.002678,0.000431,0.006111
81148000,0.0324,0.013523,0.002678,0.000431,0.006934
81149000,0.0324,0.013523,0.002678,0.000431,0.006229
81150000,0.0324,0.013523,0.002678,0.000431,0.005759
81151000,0.0324,0.013523,0.002678,0.000431,0.006699
81152000,0.0324,0.013523,0.002678,0.000431,0.006229
81153000,0.0324,0.013523,0.002678,0.000431,0.006699
81154000,0.0324,0.013523,0.002678,0.000431,0.005641
81155000,0.0324,0.013523,0.002678,0.000431,0.006699
81156000,0.0324,0.013523,0.002678,0.000431,0.006699
81157000,0.0324,0.013523,0.002678,0.000431,0.005876
81158000,0.0324,0.013523,0.002678,0.000431,0.006817
81159000,0.0324,0.013523,0.002678,0.000431,0.006699
81160000,0.0324,0.013523,0.002678,0.000431,0.005054
81161000,0.0324,0.013523,0.002678,0.000431,0.004936
81162000,0.0324,0.013523,0.002678,0.000431,0.004819
81163000,0.0324,0.013523,0.002678,0.000431,0.004936
81164000,0.0324,0.013523,0.002678,0.000431,0.004819
81165000,0.0324,0.013523,0.002678,0.000431,0.005054
81166000,0.0324,0.013523,0.002678,0.000431,0.005171
81167000,0.0324,0.013523,0.002678,0.000431,0.004584
81168000,0.0324,0.013523,0.002678,0.000431,0.005289
81169000,0.0324,0.013523,0.002678,0.000431,0.004584
81170000,0.0324,0.013523,0.002678,0.000431,0.005054
81171000,0.0324,0.013523,0.002678,0.000431,0.005406
81172000,0.0324,0.013523,0.002678,0.000431,0.004584
81173000,0.0324,0.013523,0.002678,0.000431,0.006347
81174000,0.0324,0.013523,0.002678,0.000431,0.005641
81175000,0.0324,0.013523,0.002678,0.000431,0.003643
81176000,0.0324,0.013523,0.002678,0.000431,0.003056
81177000,0.0324,0.013523,0.002678,0.000431,0.003291
81178000,0.0324,0.013523,0.002678,0.000431,0.003526
81179000,0.0324,0.013523,0.002678,0.000431,0.003526
81180000,0.0324,0.013523,0.002678,0.000431,0.003291
81181000,0.0324,0.013523,0.002678,0.000431,0.003291
81182000,0.0324,0.013523,0.002678,0.000431,0.003643
81183000,0.0324,0.013523,0.002678,0.000431,0.003408
81184000,0.0324,0.013523,0.002678,0.000431,0.003056
81185000,0.0324,0.013523,0.002678,0.000431,0.003408
81186000,0.0324,0.013523,0.002678,0.000431,0.003526
81187000,0.0324,0.013523,0.002678,0.000431,0.003408
81188000,0.0324,0.013523,0.002678,0.000431,0.003173
81189000,0.0324,0.013523,0.002678,0.000431,0.003526
81190000,0.0324,0.013523,0.002678,0.000431,0.003173
81191000,0.0324,0.013523,0.002678,0.000431,0.003526
81192000,0.0324,0.013523,0.002678,0.000431,0.003526
81193000,0.0324,0.013523,0.002678,0.000431,0.003056
81194000,0.0324,0.013523,0.002678,0.000431,0.003526
81195000,0.0324,0.013523,0.002678,0.000431,0.003056
81196000,0.0324,0.013523,0.002678,0.000431,0.003643
81197000,0.0324,0.013523,0.002678,0.000431,0.003408
81198000,0.0324,0.013523,0.002678,0.000431,0.003291
81199000,0.0324,0.013523,0.002678,0.000431,0.003526
81200000,0.0324,0.013523,0.002678,0.000431,0.003173
81201000,0.0324,0.013523,0.002678,0.000431,0.003408
81202000,0.0324,0.013523,0.002678,0.000431,0.003291
81203000,0.0324,0.013523,0.002678,0.000431,0.003408
81204000,0.0324,0.013523,0.002678,0.000431,0.003643
81205000,0.0324,0.013523,0.002678,0.000431,0.003056
81206000,0.0324,0.013523,0.002678,0.000431,0.003526
81207000,0.0324,0.013523,0.002678,0.000431,0.003291
81208000,0.0324,0.013523,0.002678,0.000431,0.003291
81209000,0.0324,0.013523,0.002678,0.000431,0.004466
81210000,0.0324,0.013523,0.002678,0.000431,0.003878
81211000,0.0324,0.013523,0.002678,0.000431,0.002821
81212000,0.0324,0.013523,0.002678,0.000431,0.002116
81213000,0.0324,0.013523,0.002678,0.000431,0.002586
81214000,0.0324,0.013523,0.002678,0.000431,0.002703
81215000,0.0324,0.013523,0.002678,0.000431,0.002586
81216000,0.0324,0.013523,0.002678,0.000431,0.002233
81217000,0.0324,0.013523,0.002678,0.000431,0.002586
81218000,0.0324,0.013523,0.002678,0.000431,0.002821
81219000,0.0324,0.013523,0.002678,0.000431,0.002468
81220000,0.0324,0.013523,0.002678,0.000431,0.002233
81221000,0.0324,0.013523,0.002678,0.000431,0.002821
81222000,0.0324,0.013523,0.002678,0.000431,0.002468
81223000,0.0324,0.013523,0.002678,0.000431,0.002586
81224000,0.0324,0.013523,0.002678,0.000431,0.002233
81225000,0.0324,0.013523,0.002678,0.000431,0.002821
81226000,0.0324,0.013523,0.002678,0.000431,0.002468
81227000,0.0324,0.013523,0.002678,0.000431,0.002233
81228000,0.0324,0.013523,0.002678,0.000431,0.002821
81229000,0.0324,0.013523,0.002678,0.000431,0.002586
81230000,0.0324,0.013523,0.002678,0.000431,0.002468
81231000,0.0324,0.013523,0.002678,0.000431,0.002351
81232000,0.0324,0.013523,0.002678,0.000431,0.002703
81233000,0.0324,0.013523,0.002678,0.000431,0.002586
81234000,0.0324,0.013523,0.002678,0.000431,0.002468
81235000,0.0324,0.013523,0.002678,0.000431,0.002468
81236000,0.0324,0.013523,0.002678,0.000431,0.002586
81237000,0.0324,0.013523,0.002678,0.000431,0.002468
81238000,0.0324,0.013523,0.002678,0.000431,0.002586
81239000,0.0324,0.013523,0.002678,0.000431,0.002468
81240000,0.0324,0.013523,0.002678,0.000431,0.002586
81241000,0.0324,0.013523,0.002678,0.000431,0.002468
81242000,0.0324,0.013523,0.002678,0.000431,0.002468
81243000,0.0324,0.013523,0.002678,0.000431,0.002703
81244000,0.0324,0.013523,0.002678,0.000431,0.002468
81245000,0.0324,0.013523,0.002678,0.000431,0.002351
81246000,0.0324,0.013523,0.002678,0.000431,0.002586
81247000,0.0324,0.013523,0.002678,0.000431,0.002821
81248000,0.0324,0.013523,0.002678,0.000431,0.002351
81249000,0.0324,0.013523,0.002678,0.000431,0.002351
81250000,0.0324,0.013523,0.002678,0.000431,0.002351
81251000,0.0324,0.013523,0.002678,0.000431,0.002586
81252000,0.0324,0.013523,0.002678,0.000431,0.002821
81253000,0.0324,0.013523,0.002678,0.000431,0.002351
81254000,0.0324,0.013523,0.002678,0.000431,0.002351
81255000,0.0324,0.013523,0.002678,0.000431,0.002703
81256000,0.0324,0.013523,0.002678,0.000431,0.002468
81257000,0.0324,0.013523,0.002678,0.000431,0.001763
81258000,0.0324,0.013523,0.002678,0.000431,0.001645
81259000,0.0324,0.013523,0.002678,0.000431,0.004584
81260000,0.0324,0.013523,0.002678,0.000431,0.000823
81261000,0.0324,0.013523,0.002678,0.000431,0.000823
81262000,0.0324,0.013523,0.002678,0.000431,0.000940
81263000,0.0324,0.013523,0.002678,0.000431,0.000823
81264000,0.0324,0.013523,0.002678,0.000431,0.000940
81265000,0.0324,0.013523,0.002678,0.000431,0.000823
81266000,0.0324,0.013523,0.002678,0.000431,0.000940
81267000,0.0324,0.013523,0.002678,0.000431,0.000940
81268000,0.0324,0.013523,0.002678,0.000431,0.000705
81269000,0.0324,0.013523,0.002678,0.000431,0.001058
81270000,0.0324,0.013523,0.002678,0.000431,0.000823
81271000,0.0324,0.013523,0.002678,0.000431,0.000940
81272000,0.0324,0.013523,0.002678,0.000431,0.000940
81273000,0.0324,0.013523,0.002678,0.000431,0.000823
81274000,0.0324,0.013523,0.002678,0.000431,0.000823
81275000,0.0324,0.013523,0.002678,0.000431,0.000940
81276000,0.0324,0.013523,0.002678,0.000431,0.000940
81277000,0.0324,0.013523,0.002678,0.000431,0.034436
81278000,0.0324,0.013523,0.002678,0.000431,0.630421
81279000,0.0324,0.013523,0.002678,0.000431,0.591049
81280000,0.0324,0.013523,0.002678,0.000431,0.134217
81281000,0.0324,0.013523,0.002678,0.000431,0.133042
81282000,0.0324,0.013523,0.002678,0.000431,0.552853
81283000,0.0324,0.013523,0.002678,0.000431,0.244341
81284000,0.0324,0.013523,0.002678,0.000431,0.283948
81285000,0.0324,0.013523,0.002678,0.000431,0.289707
81286000,0.0324,0.013523,0.002678,0.000431,0.145617
81287000,0.0324,0.013523,0.002678,0.000431,0.159486
81288000,0.0324,0.013523,0.002678,0.000431,0.151729
81289000,0.0324,0.013523,0.002678,0.000431,0.468702
81290000,0.0324,0.013523,0.002678,0.000431,0.140564
81291000,0.0324,0.013523,0.002678,0.000431,0.123640
81292000,0.0324,0.013523,0.002678,0.000431,0.097431
81293000,0.0324,0.013523,0.002678,0.000431,0.078979
81294000,0.0324,0.013523,0.002678,0.000431,0.076041
81295000,0.0324,0.013523,0.002678,0.000431,0.063348
81296000,0.0324,0.013523,0.002678,0.000431,0.052418
81297000,0.0324,0.013523,0.002678,0.000431,0.045366
81298000,0.0324,0.013523,0.002678,0.000431,0.042310
81299000,0.0324,0.013523,0.002678,0.000431,0.040782
81300000,0.0324,0.013523,0.002678,0.000431,0.043603
81301000,0.0324,0.013523,0.002678,0.000431,0.030792
81302000,0.0324,0.013523,0.002678,0.000431,0.031615
81303000,0.0324,0.013523,0.002678,0.000431,0.027031
81304000,0.0324,0.013523,0.002678,0.000431,0.026209
81305000,0.0324,0.013523,0.002678,0.000431,0.023858
81306000,0.0324,0.013523,0.002678,0.000431,0.025856
81307000,0.0324,0.013523,0.002678,0.000431,0.022565
81308000,0.0324,0.013523,0.002678,0.000431,0.025621
81309000,0.0324,0.013523,0.002678,0.000431,0.019862
81310000,0.0324,0.013523,0.002678,0.000431,0.020567
81311000,0.0324,0.013523,0.002678,0.000431,0.021508
81312000,0.0324,0.013523,0.002678,0.000431,0.021625
81313000,0.0324,0.013523,0.002678,0.000431,0.020567
81314000,0.0324,0.013523,0.002678,0.000431,0.020920
81315000,0.0324,0.013523,0.002678,0.000431,0.017512
81316000,0.0324,0.013523,0.002678,0.000431,0.016101
81317000,0.0324,0.013523,0.002678,0.000431,0.016336
81318000,0.0324,0.013523,0.002678,0.000431,0.013046
81319000,0.0324,0.013523,0.002678,0.000431,0.014103
81320000,0.0324,0.013523,0.002678,0.000431,0.011400
81321000,0.0324,0.013523,0.002678,0.000431,0.011870
81322000,0.0324,0.013523,0.002678,0.000431,0.010813
81323000,0.0324,0.013523,0.002678,0.000431,0.010930
81324000,0.0324,0.013523,0.002678,0.000431,0.014809
81325000,0.0324,0.013523,0.002678,0.000431,0.009872
81326000,0.0324,0.013523,0.002678,0.000431,0.009755
81327000,0.0324,0.013523,0.002678,0.000431,0.009285
81328000,0.0324,0.013523,0.002678,0.000431,0.009990
81329000,0.0324,0.013523,0.002678,0.000431,0.009050
81330000,0.0324,0.013523,0.002678,0.000431,0.010460
81331000,0.0324,0.013523,0.002678,0.000431,0.011283
81332000,0.0324,0.013523,0.002678,0.000431,0.010930
81333000,0.0324,0.013523,0.002678,0.000431,0.007404
81334000,0.0324,0.013523,0.002678,0.000431,0.008109
81335000,0.0324,0.013523,0.002678,0.000431,0.008462
81336000,0.0324,0.013523,0.002678,0.000431,0.005876
81337000,0.0324,0.013523,0.002678,0.000431,0.005876
81338000,0.0324,0.013523,0.002678,0.000431,0.006464
81339000,0.0324,0.013523,0.002678,0.000431,0.005759
81340000,0.0324,0.013523,0.002678,0.000431,0.005406
81341000,0.0324,0.013523,0.002678,0.000431,0.006934
81342000,0.0324,0.013523,0.002678,0.000431,0.005524
81343000,0.0324,0.013523,0.002678,0.000431,0.005876
81344000,0.0324,0.013523,0.002678,0.000431,0.006347
81345000,0.0324,0.013523,0.002678,0.000431,0.005876
81346000,0.0324,0.013523,0.002678,0.000431,0.005876
81347000,0.0324,0.013523,0.002678,0.000431,0.005994
81348000,0.0324,0.013523,0.002678,0.000431,0.005876
81349000,0.0324,0.013523,0.002678,0.000431,0.006111
81350000,0.0324,0.013523,0.002678,0.000431,0.005641
81351000,0.0324,0.013523,0.002678,0.000431,0.006464
81352000,0.0324,0.013523,0.002678,0.000431,0.005641
81353000,0.0324,0.013523,0.002678,0.000431,0.006111
81354000,0.0324,0.013523,0.002678,0.000431,0.006229
81355000,0.0324,0.013523,0.002678,0.000431,0.005994
81356000,0.0324,0.013523,0.002678,0.000431,0.005054
81357000,0.0324,0.013523,0.002678,0.000431,0.006699
81358000,0.0324,0.013523,0.002678,0.000431,0.007992
81359000,0.0324,0.013523,0.002678,0.000431,0.005054
81360000,0.0324,0.013523,0.002678,0.000431,0.004701
81361000,0.0324,0.013523,0.002678,0.000431,0.006582
81362000,0.0324,0.013523,0.002678,0.000431,0.004584
81363000,0.0324,0.013523,0.002678,0.000431,0.003761
81364000,0.0324,0.013523,0.002678,0.000431,0.004113
81365000,0.0324,0.013523,0.002678,0.000431,0.003408
81366000,0.0324,0.013523,0.002678,0.000431,0.003996
81367000,0.0324,0.013523,0.002678,0.000431,0.004231
81368000,0.0324,0.013523,0.002678,0.000431,0.002938
81369000,0.0324,0.013523,0.002678,0.000431,0.003291
81370000,0.0324,0.013523,0.002678,0.000431,0.003173
81371000,0.0324,0.013523,0.002678,0.000431,0.002938
81372000,0.0324,0.013523,0.002678,0.000431,0.003526
81373000,0.0324,0.013523,0.002678,0.000431,0.002233
81374000,0.0324,0.013523,0.002678,0.000431,0.002821
81375000,0.0324,0.013523,0.002678,0.000431,0.002468
81376000,0.0324,0.013523,0.002678,0.000431,0.002233
81377000,0.0324,0.013523,0.002678,0.000431,0.002586
81378000,0.0324,0.013523,0.002678,0.000431,0.002116
81379000,0.0324,0.013523,0.002678,0.000431,0.002586
81380000,0.0324,0.013523,0.002678,0.000431,0.002351
81381000,0.0324,0.013523,0.002678,0.000431,0.002586
81382000,0.0324,0.013523,0.002678,0.000431,0.002116
81383000,0.0324,0.013523,0.002678,0.000431,0.001998
81384000,0.0324,0.013523,0.002678,0.000431,0.002468
81385000,0.0324,0.013523,0.002678,0.000431,0.002233
81386000,0.0324,0.013523,0.002678,0.000431,0.002468
81387000,0.0324,0.013523,0.002678,0.000431,0.002116
81388000,0.0324,0.013523,0.002678,0.000431,0.002586
81389000,0.0324,0.013523,0.002678,0.000431,0.002821
81390000,0.0324,0.013523,0.002678,0.000431,0.001880
81391000,0.0324,0.013523,0.002678,0.000431,0.002821
81392000,0.0324,0.013523,0.002678,0.000431,0.002116
81393000,0.0324,0.013523,0.002678,0.000431,0.002468
81394000,0.0324,0.013523,0.002678,0.000431,0.002586
81395000,0.0324,0.013523,0.002678,0.000431,0.002116
81396000,0.0324,0.013523,0.002678,0.000431,0.001645
81397000,0.0324,0.013523,0.002678,0.000431,0.001645
81398000,0.0324,0.013523,0.002678,0.000431,0.001763
81399000,0.0324,0.013523,0.002678,0.000431,0.001645
81400000,0.0324,0.013523,0.002678,0.000431,0.001763
81401000,0.0324,0.013523,0.002678,0.000431,0.001763
81402000,0.0324,0.013523,0.002678,0.000431,0.001528
81403000,0.0324,0.013523,0.002678,0.000431,0.001645
81404000,0.0324,0.013523,0.002678,0.000431,0.001763
81405000,0.0324,0.013523,0.002678,0.000431,0.001763
81406000,0.0324,0.013523,0.002678,0.000431,0.001645
81407000,0.0324,0.013523,0.002678,0.000431,0.001763
81408000,0.0324,0.013523,0.002678,0.000431,0.001528
81409000,0.0324,0.013523,0.002678,0.000431,0.001880
81410000,0.0324,0.013523,0.002678,0.000431,0.001528
81411000,0.0324,0.013523,0.002678,0.000431,0.001763
81412000,0.0324,0.013523,0.002678,0.000431,0.003291
81413000,0.0324,0.013523,0.002678,0.000431,0.002468
81414000,0.0324,0.013523,0.002678,0.000431,0.000940
81415000,0.0324,0.013523,0.002678,0.000431,0.000823
81416000,0.0324,0.013523,0.002678,0.000431,0.000823
81417000,0.0324,0.013523,0.002678,0.000431,0.000823
81418000,0.0324,0.013523,0.002678,0.000431,0.000823
81419000,0.0324,0.013523,0.002678,0.000431,0.000823
81420000,0.0324,0.013523,0.002678,0.000431,0.000823
81421000,0.0324,0.013523,0.002678,0.000431,0.000940
81422000,0.0324,0.013523,0.002678,0.000431,0.000705
81423000,0.0324,0.013523,0.002678,0.000431,0.000940
81424000,0.0324,0.013523,0.002678,0.000431,0.000823
81425000,0.0324,0.013523,0.002678,0.000431,0.000823
81426000,0.0324,0.013523,0.002678,0.000431,0.000705
81427000,0.0324,0.013523,0.002678,0.000431,0.000940
81428000,0.0324,0.013523,0.002678,0.000431,0.000940
81429000,0.0324,0.013523,0.002678,0.000431,0.000705
81430000,0.0324,0.013523,0.002678,0.000431,0.000940
81431000,0.0324,0.013523,0.002678,0.000431,0.000705
81432000,0.0324,0.013523,0.002678,0.000431,0.000940
81433000,0.0324,0.013523,0.002678,0.000431,0.000823
81434000,0.0324,0.013523,0.002678,0.000431,0.000823
81435000,0.0324,0.013523,0.002678,0.000431,0.000940
81436000,0.0324,0.013523,0.002678,0.000431,0.000705
81437000,0.0324,0.013523,0.002678,0.000431,0.000940
81438000,0.0324,0.013523,0.002678,0.000431,0.000823
81439000,0.0324,0.013523,0.002678,0.000431,0.000823
81440000,0.0324,0.013523,0.002678,0.000431,0.000823
81441000,0.0324,0.013523,0.002678,0.000431,0.000823
81442000,0.0324,0.013523,0.002678,0.000431,0.000940
81443000,0.0324,0.013523,0.002678,0.000431,0.000705
81444000,0.0324,0.013523,0.002678,0.000431,0.000940
81445000,0.0324,0.013523,0.002678,0.000431,0.000705
81446000,0.0324,0.013523,0.002678,0.000431,0.000823
81447000,0.0324,0.013523,0.002678,0.000431,0.000940
81448000,0.0324,0.013523,0.002678,0.000431,0.000823
81449000,0.0324,0.013523,0.002678,0.000431,0.000823
81450000,0.0324,0.013523,0.002678,0.000431,0.000823
81451000,0.0324,0.013523,0.002678,0.000431,0.000823
81452000,0.0324,0.013523,0.002678,0.000431,0.000823
81453000,0.0324,0.013523,0.002678,0.000431,0.000940
81454000,0.0324,0.013523,0.002678,0.000431,0.000705
81455000,0.0324,0.013523,0.002678,0.000431,0.000940
81456000,0.0324,0.013523,0.002678,0.000431,0.000705
81457000,0.0324,0.013523,0.002678,0.000431,0.000940
81458000,0.0324,0.013523,0.002678,0.000431,0.000940
81459000,0.0324,0.013523,0.002678,0.000431,0.000705
81460000,0.0324,0.013523,0.002678,0.000431,0.000940
81461000,0.0324,0.013523,0.002678,0.000431,0.000705
81462000,0.0324,0.013523,0.002678,0.000431,0.000940
81463000,0.0324,0.013523,0.002678,0.000431,0.000823
81464000,0.0324,0.013523,0.002678,0.000431,0.000823
81465000,0.0324,0.013523,0.002678,0.000431,0.000823
81466000,0.0324,0.013523,0.002678,0.000431,0.000823
81467000,0.0324,0.013523,0.002678,0.000431,0.000940
81468000,0.0324,0.013523,0.002678,0.000431,0.000705
81469000,0.0324,0.013523,0.002678,0.000431,0.000940
81470000,0.0324,0.013523,0.002678,0.000431,0.000823
81471000,0.0324,0.013523,0.002678,0.000431,0.000823
81472000,0.0324,0.013523,0.002678,0.000431,0.000823
81473000,0.0324,0.013523,0.002678,0.000431,0.000823
81474000,0.0324,0.013523,0.002678,0.000431,0.000705
81475000,0.0324,0.013523,0.002678,0.000431,0.000940
81476000,0.0324,0.013523,0.002678,0.000431,0.000940
81477000,0.0324,0.013523,0.002678,0.000431,0.000705
81478000,0.0324,0.013523,0.002678,0.000431,0.000940
81479000,0.0324,0.013523,0.002678,0.000431,0.000705
81480000,0.0324,0.013523,0.002678,0.000431,0.000940
81481000,0.0324,0.013523,0.002678,0.000431,0.000940
81482000,0.0324,0.013523,0.002678,0.000431,0.000705
81483000,0.0324,0.013523,0.002678,0.000431,0.000940
81484000,0.0324,0.013523,0.002678,0.000431,0.000705
81485000,0.0324,0.013523,0.002678,0.000431,0.000940
81486000,0.0324,0.013523,0.002678,0.000431,0.000823
81487000,0.0324,0.013523,0.002678,0.000431,0.000823
81488000,0.0324,0.013523,0.002678,0.000431,0.000823
81489000,0.0324,0.013523,0.002678,0.000431,0.000823
81490000,0.0324,0.013523,0.002678,0.000431,0.000823
81491000,0.0324,0.013523,0.002678,0.000431,0.000823
81492000,0.0324,0.013523,0.002678,0.000431,0.000940
81493000,0.0324,0.013523,0.002678,0.000431,0.000705
81494000,0.0324,0.013523,0.002678,0.000431,0.000823
81495000,0.0324,0.013523,0.002678,0.000431,0.000940
81496000,0.0324,0.013523,0.002678,0.000431,0.000823
81497000,0.0324,0.013523,0.002678,0.000431,0.000823
81498000,0.0324,0.013523,0.002678,0.000431,0.000823
81499000,0.0324,0.013523,0.002678,0.000431,0.000823
81500000,0.0324,0.013523,0.002678,0.000431,0.000823
81501000,0.0324,0.013523,0.002678,0.000431,0.000940
81502000,0.0324,0.013523,0.002678,0.000431,0.000823
81503000,0.0324,0.013523,0.002678,0.000431,0.000823
81504000,0.0324,0.013523,0.002678,0.000431,0.000705
81505000,0.0324,0.013523,0.002678,0.000431,0.000940
81506000,0.0324,0.013523,0.002678,0.000431,0.000940
81507000,0.0324,0.013523,0.002678,0.000431,0.000705
81508000,0.0324,0.013523,0.002678,0.000431,0.000940
81509000,0.0324,0.013523,0.002678,0.000431,0.000705
81510000,0.0324,0.013523,0.002678,0.000431,0.000940
81511000,0.0324,0.013523,0.002678,0.000431,0.000823
81512000,0.0324,0.013523,0.002678,0.000431,0.000823
81513000,0.0324,0.013523,0.002678,0.000431,0.000940
81514000,0.0324,0.013523,0.002678,0.000431,0.000705
81515000,0.0324,0.013523,0.002678,0.000431,0.000940
81516000,0.0324,0.013523,0.002678,0.000431,0.000823
81517000,0.0324,0.013523,0.002678,0.000431,0.000823
81518000,0.0324,0.013523,0.002678,0.000431,0.000823
81519000,0.0324,0.013523,0.002678,0.000431,0.000823
81520000,0.0324,0.013523,0.002678,0.000431,0.000823
81521000,0.0324,0.013523,0.002678,0.000431,0.000823
81522000,0.0324,0.013523,0.002678,0.000431,0.000940
81523000,0.0324,0.013523,0.002678,0.000431,0.000705
81524000,0.0324,0.013523,0.002678,0.000431,0.000940
81525000,0.0324,0.013523,0.002678,0.000431,0.000823
81526000,0.0324,0.013523,0.002678,0.000431,0.000823
81527000,0.0324,0.013523,0.002678,0.000431,0.000705
81528000,0.0324,0.013523,0.002678,0.000431,0.000940
81529000,0.0324,0.013523,0.002678,0.000431,0.000940
81530000,0.0324,0.013523,0.002678,0.000431,0.000705
81531000,0.0324,0.013523,0.002678,0.000431,0.000940
81532000,0.0324,0.013523,0.002678,0.000431,0.000705
81533000,0.0324,0.013523,0.002678,0.000431,0.000940
81534000,0.0324,0.013523,0.002678,0.000431,0.000823
81535000,0.0324,0.013523,0.002678,0.000431,0.000823
81536000,0.0324,0.013523,0.002678,0.000431,0.000940
81537000,0.0324,0.013523,0.002678,0.000431,0.000705
81538000,0.0324,0.013523,0.002678,0.000431,0.000940
81539000,0.0324,0.013523,0.002678,0.000431,0.000823
81540000,0.0324,0.013523,0.002678,0.000431,0.000823
81541000,0.0324,0.013523,0.002678,0.000431,0.048187
81542000,0.0324,0.013523,0.002678,0.000431,0.584703
81543000,0.0324,0.013523,0.002678,0.000431,0.598336
81544000,0.0324,0.013523,0.002678,0.000431,0.133042
81545000,0.0324,0.013523,0.002678,0.000431,0.134922
81546000,0.0324,0.013523,0.002678,0.000431,0.624075
81547000,0.0324,0.013523,0.002678,0.000431,0.243636
81548000,0.0324,0.013523,0.002678,0.000431,0.270080
81549000,0.0324,0.013523,0.002678,0.000431,0.276779
81550000,0.0324,0.013523,0.002678,0.000431,0.142562
81551000,0.0324,0.013523,0.002678,0.000431,0.159368
81552000,0.0324,0.013523,0.002678,0.000431,0.137038
81553000,0.0324,0.013523,0.002678,0.000431,0.465882
81554000,0.0324,0.013523,0.002678,0.000431,0.084268
81555000,0.0324,0.013523,0.002678,0.000431,0.057589
81556000,0.0324,0.013523,0.002678,0.000431,0.046071
81557000,0.0324,0.013523,0.002678,0.000431,0.046306
81558000,0.0324,0.013523,0.002678,0.000431,0.032673
81559000,0.0324,0.013523,0.002678,0.000431,0.030087
81560000,0.0324,0.013523,0.002678,0.000431,0.023976
81561000,0.0324,0.013523,0.002678,0.000431,0.025386
81562000,0.0324,0.013523,0.002678,0.000431,0.021625
81563000,0.0324,0.013523,0.002678,0.000431,0.022448
81564000,0.0324,0.013523,0.002678,0.000431,0.024328
81565000,0.0324,0.013523,0.002678,0.000431,0.017629
81566000,0.0324,0.013523,0.002678,0.000431,0.015984
81567000,0.0324,0.013523,0.002678,0.000431,0.011165
81568000,0.0324,0.013523,0.002678,0.000431,0.014221
81569000,0.0324,0.013523,0.002678,0.000431,0.008345
81570000,0.0324,0.013523,0.002678,0.000431,0.009285
81571000,0.0324,0.013523,0.002678,0.000431,0.008227
81572000,0.0324,0.013523,0.002678,0.000431,0.008932
81573000,0.0324,0.013523,0.002678,0.000431,0.008697
81574000,0.0324,0.013523,0.002678,0.000431,0.008697
81575000,0.0324,0.013523,0.002678,0.000431,0.011518
81576000,0.0324,0.013523,0.002678,0.000431,0.010342
81577000,0.0324,0.013523,0.002678,0.000431,0.006229
81578000,0.0324,0.013523,0.002678,0.000431,0.009755
81579000,0.0324,0.013523,0.002678,0.000431,0.004701
81580000,0.0324,0.013523,0.002678,0.000431,0.004584
81581000,0.0324,0.013523,0.002678,0.000431,0.004701
81582000,0.0324,0.013523,0.002678,0.000431,0.004701
81583000,0.0324,0.013523,0.002678,0.000431,0.003291
81584000,0.0324,0.013523,0.002678,0.000431,0.003526
81585000,0.0324,0.013523,0.002678,0.000431,0.003643
81586000,0.0324,0.013523,0.002678,0.000431,0.005524
81587000,0.0324,0.013523,0.002678,0.000431,0.002821
81588000,0.0324,0.013523,0.002678,0.000431,0.002351
81589000,0.0324,0.013523,0.002678,0.000431,0.002703
81590000,0.0324,0.013523,0.002678,0.000431,0.002586
81591000,0.0324,0.013523,0.002678,0.000431,0.002351
81592000,0.0324,0.013523,0.002678,0.000431,0.002468
81593000,0.0324,0.013523,0.002678,0.000431,0.002703
81594000,0.0324,0.013523,0.002678,0.000431,0.002468
81595000,0.0324,0.013523,0.002678,0.000431,0.002468
81596000,0.0324,0.013523,0.002678,0.000431,0.002821
81597000,0.0324,0.013523,0.002678,0.000431,0.002468
81598000,0.0324,0.013523,0.002678,0.000431,0.002586
81599000,0.0324,0.013523,0.002678,0.000431,0.002233
81600000,0.0324,0.013523,0.002678,0.000431,0.002821
81601000,0.0324,0.013523,0.002678,0.000431,0.002586
81602000,0.0324,0.013523,0.002678,0.000431,0.003761
81603000,0.0324,0.013523,0.002678,0.000431,0.001763
81604000,0.0324,0.013523,0.002678,0.000431,0.001645
81605000,0.0324,0.013523,0.002678,0.000431,0.001763
81606000,0.0324,0.013523,0.002678,0.000431,0.001645
81607000,0.0324,0.013523,0.002678,0.000431,0.001763
81608000,0.0324,0.013523,0.002678,0.000431,0.001880
81609000,0.0324,0.013523,0.002678,0.000431,0.001528
81610000,0.0324,0.013523,0.002678,0.000431,0.001763
81611000,0.0324,0.013523,0.002678,0.000431,0.001763
81612000,0.0324,0.013523,0.002678,0.000431,0.001763
81613000,0.0324,0.013523,0.002678,0.000431,0.001645
81614000,0.0324,0.013523,0.002678,0.000431,0.001645
81615000,0.0324,0.013523,0.002678,0.000431,0.001763
81616000,0.0324,0.013523,0.002678,0.000431,0.001763
81617000,0.0324,0.013523,0.002678,0.000431,0.001763
81618000,0.0324,0.013523,0.002678,0.000431,0.001528
81619000,0.0324,0.013523,0.002678,0.000431,0.001880
81620000,0.0324,0.013523,0.002678,0.000431,0.001645
81621000,0.0324,0.013523,0.002678,0.000431,0.001763
81622000,0.0324,0.013523,0.002678,0.000431,0.001528
81623000,0.0324,0.013523,0.002678,0.000431,0.001880
81624000,0.0324,0.013523,0.002678,0.000431,0.001763
81625000,0.0324,0.013523,0.002678,0.000431,0.001528
81626000,0.0324,0.013523,0.002678,0.000431,0.001880
81627000,0.0324,0.013523,0.002678,0.000431,0.001645
81628000,0.0324,0.013523,0.002678,0.000431,0.001763
81629000,0.0324,0.013523,0.002678,0.000431,0.001645
81630000,0.0324,0.013523,0.002678,0.000431,0.001763
81631000,0.0324,0.013523,0.002678,0.000431,0.001880
81632000,0.0324,0.013523,0.002678,0.000431,0.001410
81633000,0.0324,0.013523,0.002678,0.000431,0.001880
81634000,0.0324,0.013523,0.002678,0.000431,0.001763
81635000,0.0324,0.013523,0.002678,0.000431,0.001763
81636000,0.0324,0.013523,0.002678,0.000431,0.001528
81637000,0.0324,0.013523,0.002678,0.000431,0.003761
81638000,0.0324,0.013523,0.002678,0.000431,0.000940
81639000,0.0324,0.013523,0.002678,0.000431,0.000823
81640000,0.0324,0.013523,0.002678,0.000431,0.000940
81641000,0.0324,0.013523,0.002678,0.000431,0.000823
81642000,0.0324,0.013523,0.002678,0.000431,0.000940
81643000,0.0324,0.013523,0.002678,0.000431,0.000823
81644000,0.0324,0.013523,0.002678,0.000431,0.000823
81645000,0.0324,0.013523,0.002678,0.000431,0.000940
81646000,0.0324,0.013523,0.002678,0.000431,0.000823
81647000,0.0324,0.013523,0.002678,0.000431,0.000823
81648000,0.0324,0.013523,0.002678,0.000431,0.013986
81649000,0.0324,0.013523,0.002678,0.000431,0.535223
81650000,0.0324,0.013523,0.002678,0.000431,0.594105
81651000,0.0324,0.013523,0.002678,0.000431,0.132572
81652000,0.0324,0.013523,0.002678,0.000431,0.132572
81653000,0.0324,0.013523,0.002678,0.000431,0.441788
81654000,0.0324,0.013523,0.002678,0.000431,0.338834
81655000,0.0324,0.013523,0.002678,0.000431,0.261735
81656000,0.0324,0.013523,0.002678,0.000431,0.343535
81657000,0.0324,0.013523,0.002678,0.000431,0.159486
81658000,0.0324,0.013523,0.002678,0.000431,0.148086
81659000,0.0324,0.013523,0.002678,0.000431,0.101779
81660000,0.0324,0.013523,0.002678,0.000431,0.360929
81661000,0.0324,0.013523,0.002678,0.000431,0.259737
81662000,0.0324,0.013523,0.002678,0.000431,0.058529
81663000,0.0324,0.013523,0.002678,0.000431,0.045836
81664000,0.0324,0.013523,0.002678,0.000431,0.039725
81665000,0.0324,0.013523,0.002678,0.000431,0.037374
81666000,0.0324,0.013523,0.002678,0.000431,0.032673
81667000,0.0324,0.013523,0.002678,0.000431,0.028794
81668000,0.0324,0.013523,0.002678,0.000431,0.026914
81669000,0.0324,0.013523,0.002678,0.000431,0.022095
81670000,0.0324,0.013523,0.002678,0.000431,0.011283
81671000,0.0324,0.013523,0.002678,0.000431,0.010695
81672000,0.0324,0.013523,0.002678,0.000431,0.009050
81673000,0.0324,0.013523,0.002678,0.000431,0.008815
81674000,0.0324,0.013523,0.002678,0.000431,0.007757
81675000,0.0324,0.013523,0.002678,0.000431,0.008932
81676000,0.0324,0.013523,0.002678,0.000431,0.006699
81677000,0.0324,0.013523,0.002678,0.000431,0.006934
81678000,0.0324,0.013523,0.002678,0.000431,0.006111
81679000,0.0324,0.013523,0.002678,0.000431,0.006699
81680000,0.0324,0.013523,0.002678,0.000431,0.006582
81681000,0.0324,0.013523,0.002678,0.000431,0.006464
81682000,0.0324,0.013523,0.002678,0.000431,0.007992
81683000,0.0324,0.013523,0.002678,0.000431,0.005641
81684000,0.0324,0.013523,0.002678,0.000431,0.005524
81685000,0.0324,0.013523,0.002678,0.000431,0.005759
81686000,0.0324,0.013523,0.002678,0.000431,0.005524
81687000,0.0324,0.013523,0.002678,0.000431,0.005759
81688000,0.0324,0.013523,0.002678,0.000431,0.005641
81689000,0.0324,0.013523,0.002678,0.000431,0.007287
81690000,0.0324,0.013523,0.002678,0.000431,0.004701
81691000,0.0324,0.013523,0.002678,0.000431,0.004584
81692000,0.0324,0.013523,0.002678,0.000431,0.005289
81693000,0.0324,0.013523,0.002678,0.000431,0.004466
81694000,0.0324,0.013523,0.002678,0.000431,0.005054
81695000,0.0324,0.013523,0.002678,0.000431,0.005054
81696000,0.0324,0.013523,0.002678,0.000431,0.004231
81697000,0.0324,0.013523,0.002678,0.000431,0.005406
81698000,0.0324,0.013523,0.002678,0.000431,0.004584
81699000,0.0324,0.013523,0.002678,0.000431,0.004819
81700000,0.0324,0.013523,0.002678,0.000431,0.005406
81701000,0.0324,0.013523,0.002678,0.000431,0.004231
81702000,0.0324,0.013523,0.002678,0.000431,0.005171
81703000,0.0324,0.013523,0.002678,0.000431,0.004701
81704000,0.0324,0.013523,0.002678,0.000431,0.004701
81705000,0.0324,0.013523,0.002678,0.000431,0.005289
81706000,0.0324,0.013523,0.002678,0.000431,0.004349
81707000,0.0324,0.013523,0.002678,0.000431,0.005171
81708000,0.0324,0.013523,0.002678,0.000431,0.006699
81709000,0.0324,0.013523,0.002678,0.000431,0.004231
81710000,0.0324,0.013523,0.002678,0.000431,0.004349
81711000,0.0324,0.013523,0.002678,0.000431,0.003408
81712000,0.0324,0.013523,0.002678,0.000431,0.004349
81713000,0.0324,0.013523,0.002678,0.000431,0.003761
81714000,0.0324,0.013523,0.002678,0.000431,0.004113
81715000,0.0324,0.013523,0.002678,0.000431,0.005759
81716000,0.0324,0.013523,0.002678,0.000431,0.004584
81717000,0.0324,0.013523,0.002678,0.000431,0.002468
81718000,0.0324,0.013523,0.002678,0.000431,0.002351
81719000,0.0324,0.013523,0.002678,0.000431,0.002468
81720000,0.0324,0.013523,0.002678,0.000431,0.004819
81721000,0.0324,0.013523,0.002678,0.000431,0.001058
81722000,0.0324,0.013523,0.002678,0.000431,0.000705
81723000,0.0324,0.013523,0.002678,0.000431,0.000940
81724000,0.0324,0.013523,0.002678,0.000431,0.000705
81725000,0.0324,0.013523,0.002678,0.000431,0.000940
81726000,0.0324,0.013523,0.002678,0.000431,0.000705
81727000,0.0324,0.013523,0.002678,0.000431,0.000940
81728000,0.0324,0.013523,0.002678,0.000431,0.000823
81729000,0.0324,0.013523,0.002678,0.000431,0.000823
81730000,0.0324,0.013523,0.002678,0.000431,0.000823
81731000,0.0324,0.013523,0.002678,0.000431,0.000823
81732000,0.0324,0.013523,0.002678,0.000431,0.000940
81733000,0.0324,0.013523,0.002678,0.000431,0.000705
81734000,0.0324,0.013523,0.002678,0.000431,0.000940
81735000,0.0324,0.013523,0.002678,0.000431,0.000823
81736000,0.0324,0.013523,0.002678,0.000431,0.000823
81737000,0.0324,0.013523,0.002678,0.000431,0.000823
81738000,0.0324,0.013523,0.002678,0.000431,0.000823
81739000,0.0324,0.013523,0.002678,0.000431,0.000823
81740000,0.0324,0.013523,0.002678,0.000431,0.000823
81741000,0.0324,0.013523,0.002678,0.000431,0.000940
81742000,0.0324,0.013523,0.002678,0.000431,0.000705
81743000,0.0324,0.013523,0.002678,0.000431,0.000940
81744000,0.0324,0.013523,0.002678,0.000431,0.000705
81745000,0.0324,0.013523,0.002678,0.000431,0.000940
81746000,0.0324,0.013523,0.002678,0.000431,0.000940
81747000,0.0324,0.013523,0.002678,0.000431,0.000705
81748000,0.0324,0.013523,0.002678,0.000431,0.000940
81749000,0.0324,0.013523,0.002678,0.000431,0.000705
81750000,0.0324,0.013523,0.002678,0.000431,0.000940
81751000,0.0324,0.013523,0.002678,0.000431,0.000823
81752000,0.0324,0.013523,0.002678,0.000431,0.000823
81753000,0.0324,0.013523,0.002678,0.000431,0.195449
81754000,0.0324,0.013523,0.002678,0.000431,0.450015
81755000,0.0324,0.013523,0.002678,0.000431,0.523353
81756000,0.0324,0.013523,0.002678,0.000431,0.135392
81757000,0.0324,0.013523,0.002678,0.000431,0.131161
81758000,0.0324,0.013523,0.002678,0.000431,0.636063
81759000,0.0324,0.013523,0.002678,0.000431,0.263733
81760000,0.0324,0.013523,0.002678,0.000431,0.289119
81761000,0.0324,0.013523,0.002678,0.000431,0.260560
81762000,0.0324,0.013523,0.002678,0.000431,0.138918
81763000,0.0324,0.013523,0.002678,0.000431,0.150789
81764000,0.0324,0.013523,0.002678,0.000431,0.149966
81765000,0.0324,0.013523,0.002678,0.000431,0.457890
81766000,0.0324,0.013523,0.002678,0.000431,0.108596
81767000,0.0324,0.013523,0.002678,0.000431,0.085325
81768000,0.0324,0.013523,0.002678,0.000431,0.063230
81769000,0.0324,0.013523,0.002678,0.000431,0.056531
81770000,0.0324,0.013523,0.002678,0.000431,0.056061
81771000,0.0324,0.013523,0.002678,0.000431,0.055591
81772000,0.0324,0.013523,0.002678,0.000431,0.045836
81773000,0.0324,0.013523,0.002678,0.000431,0.036434
81774000,0.0324,0.013523,0.002678,0.000431,0.030322
81775000,0.0324,0.013523,0.002678,0.000431,0.034318
81776000,0.0324,0.013523,0.002678,0.000431,0.029617
81777000,0.0324,0.013523,0.002678,0.000431,0.024916
81778000,0.0324,0.013523,0.002678,0.000431,0.032673
81779000,0.0324,0.013523,0.002678,0.000431,0.024798
81780000,0.0324,0.013523,0.002678,0.000431,0.014456
81781000,0.0324,0.013523,0.002678,0.000431,0.014338
81782000,0.0324,0.013523,0.002678,0.000431,0.015044
81783000,0.0324,0.013523,0.002678,0.000431,0.013163
81784000,0.0324,0.013523,0.002678,0.000431,0.012928
81785000,0.0324,0.013523,0.002678,0.000431,0.014221
81786000,0.0324,0.013523,0.002678,0.000431,0.013986
81787000,0.0324,0.013523,0.002678,0.000431,0.011165
81788000,0.0324,0.013523,0.002678,0.000431,0.010225
81789000,0.0324,0.013523,0.002678,0.000431,0.012105
81790000,0.0324,0.013523,0.002678,0.000431,0.009402
81791000,0.0324,0.013523,0.002678,0.000431,0.009285
81792000,0.0324,0.013523,0.002678,0.000431,0.009990
81793000,0.0324,0.013523,0.002678,0.000431,0.008462
81794000,0.0324,0.013523,0.002678,0.000431,0.006347
81795000,0.0324,0.013523,0.002678,0.000431,0.005524
81796000,0.0324,0.013523,0.002678,0.000431,0.005759
81797000,0.0324,0.013523,0.002678,0.000431,0.006229
81798000,0.0324,0.013523,0.002678,0.000431,0.005994
81799000,0.0324,0.013523,0.002678,0.000431,0.005641
81800000,0.0324,0.013523,0.002678,0.000431,0.005994
81801000,0.0324,0.013523,0.002678,0.000431,0.007757
81802000,0.0324,0.013523,0.002678,0.000431,0.005289
81803000,0.0324,0.013523,0.002678,0.000431,0.004819
81804000,0.0324,0.013523,0.002678,0.000431,0.005406
81805000,0.0324,0.013523,0.002678,0.000431,0.007404
81806000,0.0324,0.013523,0.002678,0.000431,0.004231
81807000,0.0324,0.013523,0.002678,0.000431,0.004349
81808000,0.0324,0.013523,0.002678,0.000431,0.004231
81809000,0.0324,0.013523,0.002678,0.000431,0.004113
81810000,0.0324,0.013523,0.002678,0.000431,0.004113
81811000,0.0324,0.013523,0.002678,0.000431,0.004349
81812000,0.0324,0.013523,0.002678,0.000431,0.004231
81813000,0.0324,0.013523,0.002678,0.000431,0.004349
81814000,0.0324,0.013523,0.002678,0.000431,0.004113
81815000,0.0324,0.013523,0.002678,0.000431,0.004349
81816000,0.0324,0.013523,0.002678,0.000431,0.004231
81817000,0.0324,0.013523,0.002678,0.000431,0.004231
81818000,0.0324,0.013523,0.002678,0.000431,0.004113
81819000,0.0324,0.013523,0.002678,0.000431,0.004466
81820000,0.0324,0.013523,0.002678,0.000431,0.004113
81821000,0.0324,0.013523,0.002678,0.000431,0.004231
81822000,0.0324,0.013523,0.002678,0.000431,0.004466
81823000,0.0324,0.013523,0.002678,0.000431,0.003996
81824000,0.0324,0.013523,0.002678,0.000431,0.004231
81825000,0.0324,0.013523,0.002678,0.000431,0.004231
81826000,0.0324,0.013523,0.002678,0.000431,0.004584
81827000,0.0324,0.013523,0.002678,0.000431,0.003878
81828000,0.0324,0.013523,0.002678,0.000431,0.004231
81829000,0.0324,0.013523,0.002678,0.000431,0.004584
81830000,0.0324,0.013523,0.002678,0.000431,0.004113
81831000,0.0324,0.013523,0.002678,0.000431,0.003996
81832000,0.0324,0.013523,0.002678,0.000431,0.004231
81833000,0.0324,0.013523,0.002678,0.000431,0.004466
81834000,0.0324,0.013523,0.002678,0.000431,0.004231
81835000,0.0324,0.013523,0.002678,0.000431,0.005524
81836000,0.0324,0.013523,0.002678,0.000431,0.002703
81837000,0.0324,0.013523,0.002678,0.000431,0.002586
81838000,0.0324,0.013523,0.002678,0.000431,0.002703
81839000,0.0324,0.013523,0.002678,0.000431,0.002468
81840000,0.0324,0.013523,0.002678,0.000431,0.002703
81841000,0.0324,0.013523,0.002678,0.000431,0.002468
81842000,0.0324,0.013523,0.002678,0.000431,0.002703
81843000,0.0324,0.013523,0.002678,0.000431,0.003996
81844000,0.0324,0.013523,0.002678,0.000431,0.001763
81845000,0.0324,0.013523,0.002678,0.000431,0.001763
81846000,0.0324,0.013523,0.002678,0.000431,0.001645
81847000,0.0324,0.013523,0.002678,0.000431,0.001763
81848000,0.0324,0.013523,0.002678,0.000431,0.001880
81849000,0.0324,0.013523,0.002678,0.000431,0.001763
81850000,0.0324,0.013523,0.002678,0.000431,0.001645
81851000,0.0324,0.013523,0.002678,0.000431,0.001763
81852000,0.0324,0.013523,0.002678,0.000431,0.001763
81853000,0.0324,0.013523,0.002678,0.000431,0.001763
81854000,0.0324,0.013523,0.002678,0.000431,0.001880
81855000,0.0324,0.013523,0.002678,0.000431,0.001645
81856000,0.0324,0.013523,0.002678,0.000431,0.001763
81857000,0.0324,0.013523,0.002678,0.000431,0.001763
81858000,0.0324,0.013523,0.002678,0.000431,0.001763
81859000,0.0324,0.013523,0.002678,0.000431,0.001763
81860000,0.0324,0.013523,0.002678,0.000431,0.001645
81861000,0.0324,0.013523,0.002678,0.000431,0.001880
81862000,0.0324,0.013523,0.002678,0.000431,0.001763
81863000,0.0324,0.013523,0.002678,0.000431,0.001763
81864000,0.0324,0.013523,0.002678,0.000431,0.001763
81865000,0.0324,0.013523,0.002678,0.000431,0.001645
81866000,0.0324,0.013523,0.002678,0.000431,0.001763
81867000,0.0324,0.013523,0.002678,0.000431,0.001880
81868000,0.0324,0.013523,0.002678,0.000431,0.001763
81869000,0.0324,0.013523,0.002678,0.000431,0.001645
81870000,0.0324,0.013523,0.002678,0.000431,0.001763
81871000,0.0324,0.013523,0.002678,0.000431,0.001763
81872000,0.0324,0.013523,0.002678,0.000431,0.001763
81873000,0.0324,0.013523,0.002678,0.000431,0.001763
81874000,0.0324,0.013523,0.002678,0.000431,0.001763
81875000,0.0324,0.013523,0.002678,0.000431,0.001645
81876000,0.0324,0.013523,0.002678,0.000431,0.001880
81877000,0.0324,0.013523,0.002678,0.000431,0.001763
81878000,0.0324,0.013523,0.002678,0.000431,0.001645
81879000,0.0324,0.013523,0.002678,0.000431,0.001763
81880000,0.0324,0.013523,0.002678,0.000431,0.001763
81881000,0.0324,0.013523,0.002678,0.000431,0.001763
81882000,0.0324,0.013523,0.002678,0.000431,0.001880
81883000,0.0324,0.013523,0.002678,0.000431,0.001645
81884000,0.0324,0.013523,0.002678,0.000431,0.001763
81885000,0.0324,0.013523,0.002678,0.000431,0.001763
81886000,0.0324,0.013523,0.002678,0.000431,0.001763
81887000,0.0324,0.013523,0.002678,0.000431,0.001763
81888000,0.0324,0.013523,0.002678,0.000431,0.001645
81889000,0.0324,0.013523,0.002678,0.000431,0.001880
81890000,0.0324,0.013523,0.002678,0.000431,0.001763
81891000,0.0324,0.013523,0.002678,0.000431,0.001763
81892000,0.0324,0.013523,0.002678,0.000431,0.001763
81893000,0.0324,0.013523,0.002678,0.000431,0.001645
81894000,0.0324,0.013523,0.002678,0.000431,0.001763
81895000,0.0324,0.013523,0.002678,0.000431,0.001880
81896000,0.0324,0.013523,0.002678,0.000431,0.001763
81897000,0.0324,0.013523,0.002678,0.000431,0.001645
81898000,0.0324,0.013523,0.002678,0.000431,0.001763
81899000,0.0324,0.013523,0.002678,0.000431,0.001763
81900000,0.0324,0.013523,0.002678,0.000431,0.001763
81901000,0.0324,0.013523,0.002678,0.000431,0.001763
81902000,0.0324,0.013523,0.002678,0.000431,0.001763
81903000,0.0324,0.013523,0.002678,0.000431,0.001763
81904000,0.0324,0.013523,0.002678,0.000431,0.001763
81905000,0.0324,0.013523,0.002678,0.000431,0.001763
81906000,0.0324,0.013523,0.002678,0.000431,0.001645
81907000,0.0324,0.013523,0.002678,0.000431,0.001763
81908000,0.0324,0.013523,0.002678,0.000431,0.001880
81909000,0.0324,0.013523,0.002678,0.000431,0.001763
81910000,0.0324,0.013523,0.002678,0.000431,0.001645
81911000,0.0324,0.013523,0.002678,0.000431,0.001763
81912000,0.0324,0.013523,0.002678,0.000431,0.001763
81913000,0.0324,0.013523,0.002678,0.000431,0.001763
81914000,0.0324,0.013523,0.002678,0.000431,0.001880
81915000,0.0324,0.013523,0.002678,0.000431,0.004936
81916000,0.0324,0.013523,0.002678,0.000431,0.000940
81917000,0.0324,0.013523,0.002678,0.000431,0.000823
81918000,0.0324,0.013523,0.002678,0.000431,0.000823
81919000,0.0324,0.013523,0.002678,0.000431,0.000940
81920000,0.0324,0.013523,0.002678,0.000431,0.000940
81921000,0.0324,0.013523,0.002678,0.000431,0.000705
81922000,0.0324,0.013523,0.002678,0.000431,0.000940
81923000,0.0324,0.013523,0.002678,0.000431,0.001880
81924000,0.0324,0.013523,0.002678,0.000431,0.367746
81925000,0.0324,0.013523,0.002678,0.000431,0.665445
81926000,0.0324,0.013523,0.002678,0.000431,0.227535
81927000,0.0324,0.013523,0.002678,0.000431,0.131632
81928000,0.0324,0.013523,0.002678,0.000431,0.151729
81929000,0.0324,0.013523,0.002678,0.000431,0.612087
81930000,0.0324,0.013523,0.002678,0.000431,0.267847
81931000,0.0324,0.013523,0.002678,0.000431,0.279952
81932000,0.0324,0.013523,0.002678,0.000431,0.235879
81933000,0.0324,0.013523,0.002678,0.000431,0.145382
81934000,0.0324,0.013523,0.002678,0.000431,0.139623
81935000,0.0324,0.013523,0.002678,0.000431,0.229768
81936000,0.0324,0.013523,0.002678,0.000431,0.377148
81937000,0.0324,0.013523,0.002678,0.000431,0.073690
81938000,0.0324,0.013523,0.002678,0.000431,0.060645
81939000,0.0324,0.013523,0.002678,0.000431,0.060174
81940000,0.0324,0.013523,0.002678,0.000431,0.040782
81941000,0.0324,0.013523,0.002678,0.000431,0.036316
81942000,0.0324,0.013523,0.002678,0.000431,0.043603
81943000,0.0324,0.013523,0.002678,0.000431,0.032438
81944000,0.0324,0.013523,0.002678,0.000431,0.032085
81945000,0.0324,0.013523,0.002678,0.000431,0.022095
81946000,0.0324,0.013523,0.002678,0.000431,0.018452
81947000,0.0324,0.013523,0.002678,0.000431,0.015984
81948000,0.0324,0.013523,0.002678,0.000431,0.015631
81949000,0.0324,0.013523,0.002678,0.000431,0.011048
81950000,0.0324,0.013523,0.002678,0.000431,0.013868
81951000,0.0324,0.013523,0.002678,0.000431,0.010695
81952000,0.0324,0.013523,0.002678,0.000431,0.009637
81953000,0.0324,0.013523,0.002678,0.000431,0.010342
81954000,0.0324,0.013523,0.002678,0.000431,0.007404
81955000,0.0324,0.013523,0.002678,0.000431,0.005759
81956000,0.0324,0.013523,0.002678,0.000431,0.006111
81957000,0.0324,0.013523,0.002678,0.000431,0.005759
81958000,0.0324,0.013523,0.002678,0.000431,0.005759
81959000,0.0324,0.013523,0.002678,0.000431,0.007052
81960000,0.0324,0.013523,0.002678,0.000431,0.005759
81961000,0.0324,0.013523,0.002678,0.000431,0.005406
81962000,0.0324,0.013523,0.002678,0.000431,0.004701
81963000,0.0324,0.013523,0.002678,0.000431,0.005054
81964000,0.0324,0.013523,0.002678,0.000431,0.004936
81965000,0.0324,0.013523,0.002678,0.000431,0.005289
81966000,0.0324,0.013523,0.002678,0.000431,0.005054
81967000,0.0324,0.013523,0.002678,0.000431,0.004819
81968000,0.0324,0.013523,0.002678,0.000431,0.005054
81969000,0.0324,0.013523,0.002678,0.000431,0.004936
81970000,0.0324,0.013523,0.002678,0.000431,0.005289
81971000,0.0324,0.013523,0.002678,0.000431,0.006464
81972000,0.0324,0.013523,0.002678,0.000431,0.004466
81973000,0.0324,0.013523,0.002678,0.000431,0.003996
81974000,0.0324,0.013523,0.002678,0.000431,0.004349
81975000,0.0324,0.013523,0.002678,0.000431,0.005171
81976000,0.0324,0.013523,0.002678,0.000431,0.004231
81977000,0.0324,0.013523,0.002678,0.000431,0.003526
81978000,0.0324,0.013523,0.002678,0.000431,0.003291
81979000,0.0324,0.013523,0.002678,0.000431,0.003526
81980000,0.0324,0.013523,0.002678,0.000431,0.003291
81981000,0.0324,0.013523,0.002678,0.000431,0.003408
81982000,0.0324,0.013523,0.002678,0.000431,0.003408
81983000,0.0324,0.013523,0.002678,0.000431,0.003173
81984000,0.0324,0.013523,0.002678,0.000431,0.003643
81985000,0.0324,0.013523,0.002678,0.000431,0.003291
81986000,0.0324,0.013523,0.002678,0.000431,0.003643
81987000,0.0324,0.013523,0.002678,0.000431,0.003173
81988000,0.0324,0.013523,0.002678,0.000431,0.005054
81989000,0.0324,0.013523,0.002678,0.000431,0.005524
81990000,0.0324,0.013523,0.002678,0.000431,0.001645
81991000,0.0324,0.013523,0.002678,0.000431,0.004113
81992000,0.0324,0.013523,0.002678,0.000431,0.000823
81993000,0.0324,0.013523,0.002678,0.000431,0.000823
81994000,0.0324,0.013523,0.002678,0.000431,0.000823
81995000,0.0324,0.013523,0.002678,0.000431,0.000940
81996000,0.0324,0.013523,0.002678,0.000431,0.000823
81997000,0.0324,0.013523,0.002678,0.000431,0.000823
81998000,0.0324,0.013523,0.002678,0.000431,0.000705
81999000,0.0324,0.013523,0.002678,0.000431,0.000940
