Cycle,Area(mm^2),PeakDynamic(W),SubthresholdLeakage(W),GateLeakage(W),RunTimeDynamic(W)
21000000,0.0324,0.013523,0.002678,0.000431,0.000940
21001000,0.0324,0.013523,0.002678,0.000431,0.000940
21002000,0.0324,0.013523,0.002678,0.000431,0.000823
21003000,0.0324,0.013523,0.002678,0.000431,0.000823
21004000,0.0324,0.013523,0.002678,0.000431,0.000940
21005000,0.0324,0.013523,0.002678,0.000431,0.000823
21006000,0.0324,0.013523,0.002678,0.000431,0.000940
21007000,0.0324,0.013523,0.002678,0.000431,0.000823
21008000,0.0324,0.013523,0.002678,0.000431,0.000940
21009000,0.0324,0.013523,0.002678,0.000431,0.000823
21010000,0.0324,0.013523,0.002678,0.000431,0.000823
21011000,0.0324,0.013523,0.002678,0.000431,0.000940
21012000,0.0324,0.013523,0.002678,0.000431,0.000940
21013000,0.0324,0.013523,0.002678,0.000431,0.000823
21014000,0.0324,0.013523,0.002678,0.000431,0.000823
21015000,0.0324,0.013523,0.002678,0.000431,0.000940
21016000,0.0324,0.013523,0.002678,0.000431,0.000940
21017000,0.0324,0.013523,0.002678,0.000431,0.000705
21018000,0.0324,0.013523,0.002678,0.000431,0.000940
21019000,0.0324,0.013523,0.002678,0.000431,0.000940
21020000,0.0324,0.013523,0.002678,0.000431,0.000940
21021000,0.0324,0.013523,0.002678,0.000431,0.000705
21022000,0.0324,0.013523,0.002678,0.000431,0.000940
21023000,0.0324,0.013523,0.002678,0.000431,0.000940
21024000,0.0324,0.013523,0.002678,0.000431,0.000823
21025000,0.0324,0.013523,0.002678,0.000431,0.000940
21026000,0.0324,0.013523,0.002678,0.000431,0.000823
21027000,0.0324,0.013523,0.002678,0.000431,0.000940
21028000,0.0324,0.013523,0.002678,0.000431,0.000823
21029000,0.0324,0.013523,0.002678,0.000431,0.000823
21030000,0.0324,0.013523,0.002678,0.000431,0.184284
21031000,0.0324,0.013523,0.002678,0.000431,0.467762
21032000,0.0324,0.013523,0.002678,0.000431,0.451426
21033000,0.0324,0.013523,0.002678,0.000431,0.133042
21034000,0.0324,0.013523,0.002678,0.000431,0.131161
21035000,0.0324,0.013523,0.002678,0.000431,0.555908
21036000,0.0324,0.013523,0.002678,0.000431,0.245751
21037000,0.0324,0.013523,0.002678,0.000431,0.237407
21038000,0.0324,0.013523,0.002678,0.000431,0.310039
21039000,0.0324,0.013523,0.002678,0.000431,0.134452
21040000,0.0324,0.013523,0.002678,0.000431,0.142797
21041000,0.0324,0.013523,0.002678,0.000431,0.158428
21042000,0.0324,0.013523,0.002678,0.000431,0.160308
21043000,0.0324,0.013523,0.002678,0.000431,0.415815
21044000,0.0324,0.013523,0.002678,0.000431,0.028442
21045000,0.0324,0.013523,0.002678,0.000431,0.017982
21046000,0.0324,0.013523,0.002678,0.000431,0.018452
21047000,0.0324,0.013523,0.002678,0.000431,0.014221
21048000,0.0324,0.013523,0.002678,0.000431,0.018217
21049000,0.0324,0.013523,0.002678,0.000431,0.014221
21050000,0.0324,0.013523,0.002678,0.000431,0.010695
21051000,0.0324,0.013523,0.002678,0.000431,0.010342
21052000,0.0324,0.013523,0.002678,0.000431,0.010930
21053000,0.0324,0.013523,0.002678,0.000431,0.010342
21054000,0.0324,0.013523,0.002678,0.000431,0.011635
21055000,0.0324,0.013523,0.002678,0.000431,0.008580
21056000,0.0324,0.013523,0.002678,0.000431,0.009520
21057000,0.0324,0.013523,0.002678,0.000431,0.008932
21058000,0.0324,0.013523,0.002678,0.000431,0.009285
21059000,0.0324,0.013523,0.002678,0.000431,0.009167
21060000,0.0324,0.013523,0.002678,0.000431,0.008815
21061000,0.0324,0.013523,0.002678,0.000431,0.009167
21062000,0.0324,0.013523,0.002678,0.000431,0.009050
21063000,0.0324,0.013523,0.002678,0.000431,0.012105
21064000,0.0324,0.013523,0.002678,0.000431,0.007169
21065000,0.0324,0.013523,0.002678,0.000431,0.005876
21066000,0.0324,0.013523,0.002678,0.000431,0.005171
21067000,0.0324,0.013523,0.002678,0.000431,0.005171
21068000,0.0324,0.013523,0.002678,0.000431,0.004584
21069000,0.0324,0.013523,0.002678,0.000431,0.004936
21070000,0.0324,0.013523,0.002678,0.000431,0.006817
21071000,0.0324,0.013523,0.002678,0.000431,0.004231
21072000,0.0324,0.013523,0.002678,0.000431,0.003878
21073000,0.0324,0.013523,0.002678,0.000431,0.004466
21074000,0.0324,0.013523,0.002678,0.000431,0.003643
21075000,0.0324,0.013523,0.002678,0.000431,0.004231
21076000,0.0324,0.013523,0.002678,0.000431,0.004349
21077000,0.0324,0.013523,0.002678,0.000431,0.003761
21078000,0.0324,0.013523,0.002678,0.000431,0.004466
21079000,0.0324,0.013523,0.002678,0.000431,0.003408
21080000,0.0324,0.013523,0.002678,0.000431,0.004584
21081000,0.0324,0.013523,0.002678,0.000431,0.003996
21082000,0.0324,0.013523,0.002678,0.000431,0.003996
21083000,0.0324,0.013523,0.002678,0.000431,0.004113
21084000,0.0324,0.013523,0.002678,0.000431,0.003996
21085000,0.0324,0.013523,0.002678,0.000431,0.003996
21086000,0.0324,0.013523,0.002678,0.000431,0.003996
21087000,0.0324,0.013523,0.002678,0.000431,0.004231
21088000,0.0324,0.013523,0.002678,0.000431,0.003878
21089000,0.0324,0.013523,0.002678,0.000431,0.004231
21090000,0.0324,0.013523,0.002678,0.000431,0.003761
21091000,0.0324,0.013523,0.002678,0.000431,0.004466
21092000,0.0324,0.013523,0.002678,0.000431,0.003878
21093000,0.0324,0.013523,0.002678,0.000431,0.004113
21094000,0.0324,0.013523,0.002678,0.000431,0.004113
21095000,0.0324,0.013523,0.002678,0.000431,0.004349
21096000,0.0324,0.013523,0.002678,0.000431,0.003996
21097000,0.0324,0.013523,0.002678,0.000431,0.003996
21098000,0.0324,0.013523,0.002678,0.000431,0.004349
21099000,0.0324,0.013523,0.002678,0.000431,0.004113
21100000,0.0324,0.013523,0.002678,0.000431,0.003761
21101000,0.0324,0.013523,0.002678,0.000431,0.004349
21102000,0.0324,0.013523,0.002678,0.000431,0.004349
21103000,0.0324,0.013523,0.002678,0.000431,0.004231
21104000,0.0324,0.013523,0.002678,0.000431,0.003761
21105000,0.0324,0.013523,0.002678,0.000431,0.004466
21106000,0.0324,0.013523,0.002678,0.000431,0.004113
21107000,0.0324,0.013523,0.002678,0.000431,0.003878
21108000,0.0324,0.013523,0.002678,0.000431,0.004113
21109000,0.0324,0.013523,0.002678,0.000431,0.004466
21110000,0.0324,0.013523,0.002678,0.000431,0.004113
21111000,0.0324,0.013523,0.002678,0.000431,0.003761
21112000,0.0324,0.013523,0.002678,0.000431,0.004466
21113000,0.0324,0.013523,0.002678,0.000431,0.004113
21114000,0.0324,0.013523,0.002678,0.000431,0.003996
21115000,0.0324,0.013523,0.002678,0.000431,0.004113
21116000,0.0324,0.013523,0.002678,0.000431,0.004466
21117000,0.0324,0.013523,0.002678,0.000431,0.003878
21118000,0.0324,0.013523,0.002678,0.000431,0.004113
21119000,0.0324,0.013523,0.002678,0.000431,0.004113
21120000,0.0324,0.013523,0.002678,0.000431,0.003878
21121000,0.0324,0.013523,0.002678,0.000431,0.004466
21122000,0.0324,0.013523,0.002678,0.000431,0.003878
21123000,0.0324,0.013523,0.002678,0.000431,0.004113
21124000,0.0324,0.013523,0.002678,0.000431,0.003996
21125000,0.0324,0.013523,0.002678,0.000431,0.003996
21126000,0.0324,0.013523,0.002678,0.000431,0.004466
21127000,0.0324,0.013523,0.002678,0.000431,0.003643
21128000,0.0324,0.013523,0.002678,0.000431,0.004349
21129000,0.0324,0.013523,0.002678,0.000431,0.003996
21130000,0.0324,0.013523,0.002678,0.000431,0.003996
21131000,0.0324,0.013523,0.002678,0.000431,0.004349
21132000,0.0324,0.013523,0.002678,0.000431,0.003526
21133000,0.0324,0.013523,0.002678,0.000431,0.004584
21134000,0.0324,0.013523,0.002678,0.000431,0.003996
21135000,0.0324,0.013523,0.002678,0.000431,0.004231
21136000,0.0324,0.013523,0.002678,0.000431,0.003878
21137000,0.0324,0.013523,0.002678,0.000431,0.003878
21138000,0.0324,0.013523,0.002678,0.000431,0.004349
21139000,0.0324,0.013523,0.002678,0.000431,0.004701
21140000,0.0324,0.013523,0.002678,0.000431,0.002468
21141000,0.0324,0.013523,0.002678,0.000431,0.002821
21142000,0.0324,0.013523,0.002678,0.000431,0.002586
21143000,0.0324,0.013523,0.002678,0.000431,0.002233
21144000,0.0324,0.013523,0.002678,0.000431,0.002586
21145000,0.0324,0.013523,0.002678,0.000431,0.002703
21146000,0.0324,0.013523,0.002678,0.000431,0.002468
21147000,0.0324,0.013523,0.002678,0.000431,0.002351
21148000,0.0324,0.013523,0.002678,0.000431,0.002703
21149000,0.0324,0.013523,0.002678,0.000431,0.002351
21150000,0.0324,0.013523,0.002678,0.000431,0.002586
21151000,0.0324,0.013523,0.002678,0.000431,0.002586
21152000,0.0324,0.013523,0.002678,0.000431,0.002351
21153000,0.0324,0.013523,0.002678,0.000431,0.002586
21154000,0.0324,0.013523,0.002678,0.000431,0.002351
21155000,0.0324,0.013523,0.002678,0.000431,0.002586
21156000,0.0324,0.013523,0.002678,0.000431,0.002586
21157000,0.0324,0.013523,0.002678,0.000431,0.002351
21158000,0.0324,0.013523,0.002678,0.000431,0.002586
21159000,0.0324,0.013523,0.002678,0.000431,0.002468
21160000,0.0324,0.013523,0.002678,0.000431,0.002468
21161000,0.0324,0.013523,0.002678,0.000431,0.002468
21162000,0.0324,0.013523,0.002678,0.000431,0.002703
21163000,0.0324,0.013523,0.002678,0.000431,0.002586
21164000,0.0324,0.013523,0.002678,0.000431,0.002351
21165000,0.0324,0.013523,0.002678,0.000431,0.002586
21166000,0.0324,0.013523,0.002678,0.000431,0.002468
21167000,0.0324,0.013523,0.002678,0.000431,0.002703
21168000,0.0324,0.013523,0.002678,0.000431,0.002351
21169000,0.0324,0.013523,0.002678,0.000431,0.002586
21170000,0.0324,0.013523,0.002678,0.000431,0.002703
21171000,0.0324,0.013523,0.002678,0.000431,0.002233
21172000,0.0324,0.013523,0.002678,0.000431,0.002586
21173000,0.0324,0.013523,0.002678,0.000431,0.002586
21174000,0.0324,0.013523,0.002678,0.000431,0.002703
21175000,0.0324,0.013523,0.002678,0.000431,0.002233
21176000,0.0324,0.013523,0.002678,0.000431,0.002586
21177000,0.0324,0.013523,0.002678,0.000431,0.002821
21178000,0.0324,0.013523,0.002678,0.000431,0.002351
21179000,0.0324,0.013523,0.002678,0.000431,0.002351
21180000,0.0324,0.013523,0.002678,0.000431,0.002821
21181000,0.0324,0.013523,0.002678,0.000431,0.002586
21182000,0.0324,0.013523,0.002678,0.000431,0.002351
21183000,0.0324,0.013523,0.002678,0.000431,0.002351
21184000,0.0324,0.013523,0.002678,0.000431,0.002821
21185000,0.0324,0.013523,0.002678,0.000431,0.002586
21186000,0.0324,0.013523,0.002678,0.000431,0.003643
21187000,0.0324,0.013523,0.002678,0.000431,0.001645
21188000,0.0324,0.013523,0.002678,0.000431,0.001645
21189000,0.0324,0.013523,0.002678,0.000431,0.001645
21190000,0.0324,0.013523,0.002678,0.000431,0.001528
21191000,0.0324,0.013523,0.002678,0.000431,0.001763
21192000,0.0324,0.013523,0.002678,0.000431,0.001645
21193000,0.0324,0.013523,0.002678,0.000431,0.001645
21194000,0.0324,0.013523,0.002678,0.000431,0.071457
21195000,0.0324,0.013523,0.002678,0.000431,0.401594
21196000,0.0324,0.013523,0.002678,0.000431,0.604095
21197000,0.0324,0.013523,0.002678,0.000431,0.131632
21198000,0.0324,0.013523,0.002678,0.000431,0.133982
21199000,0.0324,0.013523,0.002678,0.000431,0.545566
21200000,0.0324,0.013523,0.002678,0.000431,0.264438
21201000,0.0324,0.013523,0.002678,0.000431,0.270667
21202000,0.0324,0.013523,0.002678,0.000431,0.358108
21203000,0.0324,0.013523,0.002678,0.000431,0.145147
21204000,0.0324,0.013523,0.002678,0.000431,0.134805
21205000,0.0324,0.013523,0.002678,0.000431,0.105775
21206000,0.0324,0.013523,0.002678,0.000431,0.332252
21207000,0.0324,0.013523,0.002678,0.000431,0.239757
21208000,0.0324,0.013523,0.002678,0.000431,0.011870
21209000,0.0324,0.013523,0.002678,0.000431,0.011753
21210000,0.0324,0.013523,0.002678,0.000431,0.009520
21211000,0.0324,0.013523,0.002678,0.000431,0.006582
21212000,0.0324,0.013523,0.002678,0.000431,0.006229
21213000,0.0324,0.013523,0.002678,0.000431,0.006347
21214000,0.0324,0.013523,0.002678,0.000431,0.004466
21215000,0.0324,0.013523,0.002678,0.000431,0.006229
21216000,0.0324,0.013523,0.002678,0.000431,0.003408
21217000,0.0324,0.013523,0.002678,0.000431,0.003408
21218000,0.0324,0.013523,0.002678,0.000431,0.003408
21219000,0.0324,0.013523,0.002678,0.000431,0.003173
21220000,0.0324,0.013523,0.002678,0.000431,0.003526
21221000,0.0324,0.013523,0.002678,0.000431,0.003643
21222000,0.0324,0.013523,0.002678,0.000431,0.003291
21223000,0.0324,0.013523,0.002678,0.000431,0.003291
21224000,0.0324,0.013523,0.002678,0.000431,0.005641
21225000,0.0324,0.013523,0.002678,0.000431,0.002703
21226000,0.0324,0.013523,0.002678,0.000431,0.002351
21227000,0.0324,0.013523,0.002678,0.000431,0.002821
21228000,0.0324,0.013523,0.002678,0.000431,0.003996
21229000,0.0324,0.013523,0.002678,0.000431,0.001763
21230000,0.0324,0.013523,0.002678,0.000431,0.001645
21231000,0.0324,0.013523,0.002678,0.000431,0.001763
21232000,0.0324,0.013523,0.002678,0.000431,0.001763
21233000,0.0324,0.013523,0.002678,0.000431,0.001528
21234000,0.0324,0.013523,0.002678,0.000431,0.001880
21235000,0.0324,0.013523,0.002678,0.000431,0.001528
21236000,0.0324,0.013523,0.002678,0.000431,0.001763
21237000,0.0324,0.013523,0.002678,0.000431,0.001645
21238000,0.0324,0.013523,0.002678,0.000431,0.001645
21239000,0.0324,0.013523,0.002678,0.000431,0.001645
21240000,0.0324,0.013523,0.002678,0.000431,0.001645
21241000,0.0324,0.013523,0.002678,0.000431,0.001763
21242000,0.0324,0.013523,0.002678,0.000431,0.002703
21243000,0.0324,0.013523,0.002678,0.000431,0.000823
21244000,0.0324,0.013523,0.002678,0.000431,0.000940
21245000,0.0324,0.013523,0.002678,0.000431,0.000705
21246000,0.0324,0.013523,0.002678,0.000431,0.000823
21247000,0.0324,0.013523,0.002678,0.000431,0.000940
21248000,0.0324,0.013523,0.002678,0.000431,0.000823
21249000,0.0324,0.013523,0.002678,0.000431,0.000823
21250000,0.0324,0.013523,0.002678,0.000431,0.000823
21251000,0.0324,0.013523,0.002678,0.000431,0.002586
21252000,0.0324,0.013523,0.002678,0.000431,0.346238
21253000,0.0324,0.013523,0.002678,0.000431,0.666150
21254000,0.0324,0.013523,0.002678,0.000431,0.132572
21255000,0.0324,0.013523,0.002678,0.000431,0.134922
21256000,0.0324,0.013523,0.002678,0.000431,0.132219
21257000,0.0324,0.013523,0.002678,0.000431,0.606445
21258000,0.0324,0.013523,0.002678,0.000431,0.235056
21259000,0.0324,0.013523,0.002678,0.000431,0.274428
21260000,0.0324,0.013523,0.002678,0.000431,0.257269
21261000,0.0324,0.013523,0.002678,0.000431,0.138096
21262000,0.0324,0.013523,0.002678,0.000431,0.139036
21263000,0.0324,0.013523,0.002678,0.000431,0.111299
21264000,0.0324,0.013523,0.002678,0.000431,0.376443
21265000,0.0324,0.013523,0.002678,0.000431,0.189573
21266000,0.0324,0.013523,0.002678,0.000431,0.011870
21267000,0.0324,0.013523,0.002678,0.000431,0.008580
21268000,0.0324,0.013523,0.002678,0.000431,0.010695
21269000,0.0324,0.013523,0.002678,0.000431,0.009637
21270000,0.0324,0.013523,0.002678,0.000431,0.007992
21271000,0.0324,0.013523,0.002678,0.000431,0.004936
21272000,0.0324,0.013523,0.002678,0.000431,0.005289
21273000,0.0324,0.013523,0.002678,0.000431,0.002468
21274000,0.0324,0.013523,0.002678,0.000431,0.002586
21275000,0.0324,0.013523,0.002678,0.000431,0.002703
21276000,0.0324,0.013523,0.002678,0.000431,0.003173
21277000,0.0324,0.013523,0.002678,0.000431,0.002821
21278000,0.0324,0.013523,0.002678,0.000431,0.001528
21279000,0.0324,0.013523,0.002678,0.000431,0.001763
21280000,0.0324,0.013523,0.002678,0.000431,0.001880
21281000,0.0324,0.013523,0.002678,0.000431,0.001528
21282000,0.0324,0.013523,0.002678,0.000431,0.001880
21283000,0.0324,0.013523,0.002678,0.000431,0.001528
21284000,0.0324,0.013523,0.002678,0.000431,0.004349
21285000,0.0324,0.013523,0.002678,0.000431,0.000823
21286000,0.0324,0.013523,0.002678,0.000431,0.000823
21287000,0.0324,0.013523,0.002678,0.000431,0.000940
21288000,0.0324,0.013523,0.002678,0.000431,0.000705
21289000,0.0324,0.013523,0.002678,0.000431,0.000940
21290000,0.0324,0.013523,0.002678,0.000431,0.000705
21291000,0.0324,0.013523,0.002678,0.000431,0.000940
21292000,0.0324,0.013523,0.002678,0.000431,0.000823
21293000,0.0324,0.013523,0.002678,0.000431,0.000823
21294000,0.0324,0.013523,0.002678,0.000431,0.000823
21295000,0.0324,0.013523,0.002678,0.000431,0.000823
21296000,0.0324,0.013523,0.002678,0.000431,0.000940
21297000,0.0324,0.013523,0.002678,0.000431,0.000705
21298000,0.0324,0.013523,0.002678,0.000431,0.000940
21299000,0.0324,0.013523,0.002678,0.000431,0.000823
21300000,0.0324,0.013523,0.002678,0.000431,0.000823
21301000,0.0324,0.013523,0.002678,0.000431,0.000705
21302000,0.0324,0.013523,0.002678,0.000431,0.000940
21303000,0.0324,0.013523,0.002678,0.000431,0.000940
21304000,0.0324,0.013523,0.002678,0.000431,0.000705
21305000,0.0324,0.013523,0.002678,0.000431,0.000940
21306000,0.0324,0.013523,0.002678,0.000431,0.000705
21307000,0.0324,0.013523,0.002678,0.000431,0.000940
21308000,0.0324,0.013523,0.002678,0.000431,0.000823
21309000,0.0324,0.013523,0.002678,0.000431,0.000823
21310000,0.0324,0.013523,0.002678,0.000431,0.000823
21311000,0.0324,0.013523,0.002678,0.000431,0.000823
21312000,0.0324,0.013523,0.002678,0.000431,0.000823
21313000,0.0324,0.013523,0.002678,0.000431,0.000823
21314000,0.0324,0.013523,0.002678,0.000431,0.000940
21315000,0.0324,0.013523,0.002678,0.000431,0.000705
21316000,0.0324,0.013523,0.002678,0.000431,0.000823
21317000,0.0324,0.013523,0.002678,0.000431,0.000940
21318000,0.0324,0.013523,0.002678,0.000431,0.000823
21319000,0.0324,0.013523,0.002678,0.000431,0.000823
21320000,0.0324,0.013523,0.002678,0.000431,0.000823
21321000,0.0324,0.013523,0.002678,0.000431,0.000823
21322000,0.0324,0.013523,0.002678,0.000431,0.000823
21323000,0.0324,0.013523,0.002678,0.000431,0.000940
21324000,0.0324,0.013523,0.002678,0.000431,0.000823
21325000,0.0324,0.013523,0.002678,0.000431,0.000823
21326000,0.0324,0.013523,0.002678,0.000431,0.000705
21327000,0.0324,0.013523,0.002678,0.000431,0.000940
21328000,0.0324,0.013523,0.002678,0.000431,0.000940
21329000,0.0324,0.013523,0.002678,0.000431,0.000705
21330000,0.0324,0.013523,0.002678,0.000431,0.000940
21331000,0.0324,0.013523,0.002678,0.000431,0.000705
21332000,0.0324,0.013523,0.002678,0.000431,0.000940
21333000,0.0324,0.013523,0.002678,0.000431,0.000823
21334000,0.0324,0.013523,0.002678,0.000431,0.000823
21335000,0.0324,0.013523,0.002678,0.000431,0.000823
21336000,0.0324,0.013523,0.002678,0.000431,0.000823
21337000,0.0324,0.013523,0.002678,0.000431,0.000940
21338000,0.0324,0.013523,0.002678,0.000431,0.000705
21339000,0.0324,0.013523,0.002678,0.000431,0.000940
21340000,0.0324,0.013523,0.002678,0.000431,0.000823
21341000,0.0324,0.013523,0.002678,0.000431,0.000823
21342000,0.0324,0.013523,0.002678,0.000431,0.000823
21343000,0.0324,0.013523,0.002678,0.000431,0.000823
21344000,0.0324,0.013523,0.002678,0.000431,0.000823
21345000,0.0324,0.013523,0.002678,0.000431,0.000823
21346000,0.0324,0.013523,0.002678,0.000431,0.000940
21347000,0.0324,0.013523,0.002678,0.000431,0.000705
21348000,0.0324,0.013523,0.002678,0.000431,0.000940
21349000,0.0324,0.013523,0.002678,0.000431,0.000940
21350000,0.0324,0.013523,0.002678,0.000431,0.000823
21351000,0.0324,0.013523,0.002678,0.000431,0.000823
21352000,0.0324,0.013523,0.002678,0.000431,0.000940
21353000,0.0324,0.013523,0.002678,0.000431,0.050420
21354000,0.0324,0.013523,0.002678,0.000431,0.405590
21355000,0.0324,0.013523,0.002678,0.000431,0.609971
21356000,0.0324,0.013523,0.002678,0.000431,0.130221
21357000,0.0324,0.013523,0.002678,0.000431,0.134922
21358000,0.0324,0.013523,0.002678,0.000431,0.496322
21359000,0.0324,0.013523,0.002678,0.000431,0.341067
21360000,0.0324,0.013523,0.002678,0.000431,0.249277
21361000,0.0324,0.013523,0.002678,0.000431,0.236584
21362000,0.0324,0.013523,0.002678,0.000431,0.166185
21363000,0.0324,0.013523,0.002678,0.000431,0.139506
21364000,0.0324,0.013523,0.002678,0.000431,0.183109
21365000,0.0324,0.013523,0.002678,0.000431,0.086971
21366000,0.0324,0.013523,0.002678,0.000431,0.451426
21367000,0.0324,0.013523,0.002678,0.000431,0.063583
21368000,0.0324,0.013523,0.002678,0.000431,0.019040
21369000,0.0324,0.013523,0.002678,0.000431,0.016101
21370000,0.0324,0.013523,0.002678,0.000431,0.015514
21371000,0.0324,0.013523,0.002678,0.000431,0.016807
21372000,0.0324,0.013523,0.002678,0.000431,0.015044
21373000,0.0324,0.013523,0.002678,0.000431,0.012458
21374000,0.0324,0.013523,0.002678,0.000431,0.011400
21375000,0.0324,0.013523,0.002678,0.000431,0.011635
21376000,0.0324,0.013523,0.002678,0.000431,0.011988
21377000,0.0324,0.013523,0.002678,0.000431,0.012811
21378000,0.0324,0.013523,0.002678,0.000431,0.011165
21379000,0.0324,0.013523,0.002678,0.000431,0.007874
21380000,0.0324,0.013523,0.002678,0.000431,0.008697
21381000,0.0324,0.013523,0.002678,0.000431,0.008580
21382000,0.0324,0.013523,0.002678,0.000431,0.008462
21383000,0.0324,0.013523,0.002678,0.000431,0.008697
21384000,0.0324,0.013523,0.002678,0.000431,0.010107
21385000,0.0324,0.013523,0.002678,0.000431,0.009050
21386000,0.0324,0.013523,0.002678,0.000431,0.007169
21387000,0.0324,0.013523,0.002678,0.000431,0.007052
21388000,0.0324,0.013523,0.002678,0.000431,0.006347
21389000,0.0324,0.013523,0.002678,0.000431,0.007169
21390000,0.0324,0.013523,0.002678,0.000431,0.006347
21391000,0.0324,0.013523,0.002678,0.000431,0.006229
21392000,0.0324,0.013523,0.002678,0.000431,0.006229
21393000,0.0324,0.013523,0.002678,0.000431,0.004936
21394000,0.0324,0.013523,0.002678,0.000431,0.008109
21395000,0.0324,0.013523,0.002678,0.000431,0.004466
21396000,0.0324,0.013523,0.002678,0.000431,0.004466
21397000,0.0324,0.013523,0.002678,0.000431,0.005876
21398000,0.0324,0.013523,0.002678,0.000431,0.004113
21399000,0.0324,0.013523,0.002678,0.000431,0.003996
21400000,0.0324,0.013523,0.002678,0.000431,0.003878
21401000,0.0324,0.013523,0.002678,0.000431,0.003996
21402000,0.0324,0.013523,0.002678,0.000431,0.003408
21403000,0.0324,0.013523,0.002678,0.000431,0.004113
21404000,0.0324,0.013523,0.002678,0.000431,0.003291
21405000,0.0324,0.013523,0.002678,0.000431,0.003291
21406000,0.0324,0.013523,0.002678,0.000431,0.005406
21407000,0.0324,0.013523,0.002678,0.000431,0.001998
21408000,0.0324,0.013523,0.002678,0.000431,0.002351
21409000,0.0324,0.013523,0.002678,0.000431,0.002468
21410000,0.0324,0.013523,0.002678,0.000431,0.002233
21411000,0.0324,0.013523,0.002678,0.000431,0.002468
21412000,0.0324,0.013523,0.002678,0.000431,0.002233
21413000,0.0324,0.013523,0.002678,0.000431,0.003526
21414000,0.0324,0.013523,0.002678,0.000431,0.001645
21415000,0.0324,0.013523,0.002678,0.000431,0.001410
21416000,0.0324,0.013523,0.002678,0.000431,0.001175
21417000,0.0324,0.013523,0.002678,0.000431,0.001880
21418000,0.0324,0.013523,0.002678,0.000431,0.001410
21419000,0.0324,0.013523,0.002678,0.000431,0.001410
21420000,0.0324,0.013523,0.002678,0.000431,0.001645
21421000,0.0324,0.013523,0.002678,0.000431,0.001410
21422000,0.0324,0.013523,0.002678,0.000431,0.001410
21423000,0.0324,0.013523,0.002678,0.000431,0.001645
21424000,0.0324,0.013523,0.002678,0.000431,0.001410
21425000,0.0324,0.013523,0.002678,0.000431,0.001410
21426000,0.0324,0.013523,0.002678,0.000431,0.000823
21427000,0.0324,0.013523,0.002678,0.000431,0.000823
21428000,0.0324,0.013523,0.002678,0.000431,0.000823
21429000,0.0324,0.013523,0.002678,0.000431,0.000705
21430000,0.0324,0.013523,0.002678,0.000431,0.000940
21431000,0.0324,0.013523,0.002678,0.000431,0.000940
21432000,0.0324,0.013523,0.002678,0.000431,0.000705
21433000,0.0324,0.013523,0.002678,0.000431,0.000940
21434000,0.0324,0.013523,0.002678,0.000431,0.000705
21435000,0.0324,0.013523,0.002678,0.000431,0.000940
21436000,0.0324,0.013523,0.002678,0.000431,0.000940
21437000,0.0324,0.013523,0.002678,0.000431,0.000705
21438000,0.0324,0.013523,0.002678,0.000431,0.001763
21439000,0.0324,0.013523,0.002678,0.000431,0.312860
21440000,0.0324,0.013523,0.002678,0.000431,0.618903
21441000,0.0324,0.013523,0.002678,0.000431,0.208025
21442000,0.0324,0.013523,0.002678,0.000431,0.131161
21443000,0.0324,0.013523,0.002678,0.000431,0.134452
21444000,0.0324,0.013523,0.002678,0.000431,0.650636
21445000,0.0324,0.013523,0.002678,0.000431,0.228710
21446000,0.0324,0.013523,0.002678,0.000431,0.250688
21447000,0.0324,0.013523,0.002678,0.000431,0.241755
21448000,0.0324,0.013523,0.002678,0.000431,0.133042
21449000,0.0324,0.013523,0.002678,0.000431,0.147733
21450000,0.0324,0.013523,0.002678,0.000431,0.116705
21451000,0.0324,0.013523,0.002678,0.000431,0.298169
21452000,0.0324,0.013523,0.002678,0.000431,0.293115
21453000,0.0324,0.013523,0.002678,0.000431,0.043133
21454000,0.0324,0.013523,0.002678,0.000431,0.038432
21455000,0.0324,0.013523,0.002678,0.000431,0.032673
21456000,0.0324,0.013523,0.002678,0.000431,0.027972
21457000,0.0324,0.013523,0.002678,0.000431,0.021155
21458000,0.0324,0.013523,0.002678,0.000431,0.019040
21459000,0.0324,0.013523,0.002678,0.000431,0.020802
21460000,0.0324,0.013523,0.002678,0.000431,0.016689
21461000,0.0324,0.013523,0.002678,0.000431,0.015749
21462000,0.0324,0.013523,0.002678,0.000431,0.011048
21463000,0.0324,0.013523,0.002678,0.000431,0.014103
21464000,0.0324,0.013523,0.002678,0.000431,0.010460
21465000,0.0324,0.013523,0.002678,0.000431,0.009285
21466000,0.0324,0.013523,0.002678,0.000431,0.008932
21467000,0.0324,0.013523,0.002678,0.000431,0.008932
21468000,0.0324,0.013523,0.002678,0.000431,0.005994
21469000,0.0324,0.013523,0.002678,0.000431,0.004936
21470000,0.0324,0.013523,0.002678,0.000431,0.006582
21471000,0.0324,0.013523,0.002678,0.000431,0.004584
21472000,0.0324,0.013523,0.002678,0.000431,0.003878
21473000,0.0324,0.013523,0.002678,0.000431,0.002351
21474000,0.0324,0.013523,0.002678,0.000431,0.002586
21475000,0.0324,0.013523,0.002678,0.000431,0.002351
21476000,0.0324,0.013523,0.002678,0.000431,0.002586
21477000,0.0324,0.013523,0.002678,0.000431,0.002703
21478000,0.0324,0.013523,0.002678,0.000431,0.002351
21479000,0.0324,0.013523,0.002678,0.000431,0.002586
21480000,0.0324,0.013523,0.002678,0.000431,0.002586
21481000,0.0324,0.013523,0.002678,0.000431,0.004231
21482000,0.0324,0.013523,0.002678,0.000431,0.001645
21483000,0.0324,0.013523,0.002678,0.000431,0.001645
21484000,0.0324,0.013523,0.002678,0.000431,0.001763
21485000,0.0324,0.013523,0.002678,0.000431,0.001528
21486000,0.0324,0.013523,0.002678,0.000431,0.001763
21487000,0.0324,0.013523,0.002678,0.000431,0.001763
21488000,0.0324,0.013523,0.002678,0.000431,0.001645
21489000,0.0324,0.013523,0.002678,0.000431,0.001763
21490000,0.0324,0.013523,0.002678,0.000431,0.003526
21491000,0.0324,0.013523,0.002678,0.000431,0.000940
21492000,0.0324,0.013523,0.002678,0.000431,0.000823
21493000,0.0324,0.013523,0.002678,0.000431,0.000823
21494000,0.0324,0.013523,0.002678,0.000431,0.000705
21495000,0.0324,0.013523,0.002678,0.000431,0.000940
21496000,0.0324,0.013523,0.002678,0.000431,0.000940
21497000,0.0324,0.013523,0.002678,0.000431,0.000705
21498000,0.0324,0.013523,0.002678,0.000431,0.000940
21499000,0.0324,0.013523,0.002678,0.000431,0.000705
21500000,0.0324,0.013523,0.002678,0.000431,0.000940
21501000,0.0324,0.013523,0.002678,0.000431,0.000940
21502000,0.0324,0.013523,0.002678,0.000431,0.000705
21503000,0.0324,0.013523,0.002678,0.000431,0.000940
21504000,0.0324,0.013523,0.002678,0.000431,0.000705
21505000,0.0324,0.013523,0.002678,0.000431,0.000940
21506000,0.0324,0.013523,0.002678,0.000431,0.000823
21507000,0.0324,0.013523,0.002678,0.000431,0.000823
21508000,0.0324,0.013523,0.002678,0.000431,0.000823
21509000,0.0324,0.013523,0.002678,0.000431,0.000823
21510000,0.0324,0.013523,0.002678,0.000431,0.065463
21511000,0.0324,0.013523,0.002678,0.000431,0.455187
21512000,0.0324,0.013523,0.002678,0.000431,0.603272
21513000,0.0324,0.013523,0.002678,0.000431,0.131161
21514000,0.0324,0.013523,0.002678,0.000431,0.134452
21515000,0.0324,0.013523,0.002678,0.000431,0.551207
21516000,0.0324,0.013523,0.002678,0.000431,0.232118
21517000,0.0324,0.013523,0.002678,0.000431,0.284536
21518000,0.0324,0.013523,0.002678,0.000431,0.285593
21519000,0.0324,0.013523,0.002678,0.000431,0.141739
21520000,0.0324,0.013523,0.002678,0.000431,0.147615
21521000,0.0324,0.013523,0.002678,0.000431,0.130691
21522000,0.0324,0.013523,0.002678,0.000431,0.247632
21523000,0.0324,0.013523,0.002678,0.000431,0.360459
21524000,0.0324,0.013523,0.002678,0.000431,0.063818
21525000,0.0324,0.013523,0.002678,0.000431,0.063818
21526000,0.0324,0.013523,0.002678,0.000431,0.042428
21527000,0.0324,0.013523,0.002678,0.000431,0.039254
21528000,0.0324,0.013523,0.002678,0.000431,0.035964
21529000,0.0324,0.013523,0.002678,0.000431,0.029852
21530000,0.0324,0.013523,0.002678,0.000431,0.031615
21531000,0.0324,0.013523,0.002678,0.000431,0.030440
21532000,0.0324,0.013523,0.002678,0.000431,0.024681
21533000,0.0324,0.013523,0.002678,0.000431,0.022095
21534000,0.0324,0.013523,0.002678,0.000431,0.021625
21535000,0.0324,0.013523,0.002678,0.000431,0.021390
21536000,0.0324,0.013523,0.002678,0.000431,0.016571
21537000,0.0324,0.013523,0.002678,0.000431,0.016101
21538000,0.0324,0.013523,0.002678,0.000431,0.016571
21539000,0.0324,0.013523,0.002678,0.000431,0.018922
21540000,0.0324,0.013523,0.002678,0.000431,0.013398
21541000,0.0324,0.013523,0.002678,0.000431,0.014338
21542000,0.0324,0.013523,0.002678,0.000431,0.014338
21543000,0.0324,0.013523,0.002678,0.000431,0.013163
21544000,0.0324,0.013523,0.002678,0.000431,0.014809
21545000,0.0324,0.013523,0.002678,0.000431,0.013516
21546000,0.0324,0.013523,0.002678,0.000431,0.010460
21547000,0.0324,0.013523,0.002678,0.000431,0.011165
21548000,0.0324,0.013523,0.002678,0.000431,0.008580
21549000,0.0324,0.013523,0.002678,0.000431,0.009872
21550000,0.0324,0.013523,0.002678,0.000431,0.009637
21551000,0.0324,0.013523,0.002678,0.000431,0.012340
21552000,0.0324,0.013523,0.002678,0.000431,0.006699
21553000,0.0324,0.013523,0.002678,0.000431,0.006582
21554000,0.0324,0.013523,0.002678,0.000431,0.008345
21555000,0.0324,0.013523,0.002678,0.000431,0.006934
21556000,0.0324,0.013523,0.002678,0.000431,0.006347
21557000,0.0324,0.013523,0.002678,0.000431,0.004349
21558000,0.0324,0.013523,0.002678,0.000431,0.003996
21559000,0.0324,0.013523,0.002678,0.000431,0.005641
21560000,0.0324,0.013523,0.002678,0.000431,0.002821
21561000,0.0324,0.013523,0.002678,0.000431,0.002703
21562000,0.0324,0.013523,0.002678,0.000431,0.003526
21563000,0.0324,0.013523,0.002678,0.000431,0.003173
21564000,0.0324,0.013523,0.002678,0.000431,0.001528
21565000,0.0324,0.013523,0.002678,0.000431,0.001763
21566000,0.0324,0.013523,0.002678,0.000431,0.003291
21567000,0.0324,0.013523,0.002678,0.000431,0.000823
21568000,0.0324,0.013523,0.002678,0.000431,0.000940
21569000,0.0324,0.013523,0.002678,0.000431,0.000705
21570000,0.0324,0.013523,0.002678,0.000431,0.000940
21571000,0.0324,0.013523,0.002678,0.000431,0.000823
21572000,0.0324,0.013523,0.002678,0.000431,0.000823
21573000,0.0324,0.013523,0.002678,0.000431,0.000823
21574000,0.0324,0.013523,0.002678,0.000431,0.000823
21575000,0.0324,0.013523,0.002678,0.000431,0.000940
21576000,0.0324,0.013523,0.002678,0.000431,0.000705
21577000,0.0324,0.013523,0.002678,0.000431,0.000940
21578000,0.0324,0.013523,0.002678,0.000431,0.000823
21579000,0.0324,0.013523,0.002678,0.000431,0.000823
21580000,0.0324,0.013523,0.002678,0.000431,0.000823
21581000,0.0324,0.013523,0.002678,0.000431,0.000823
21582000,0.0324,0.013523,0.002678,0.000431,0.000705
21583000,0.0324,0.013523,0.002678,0.000431,0.000940
21584000,0.0324,0.013523,0.002678,0.000431,0.000940
21585000,0.0324,0.013523,0.002678,0.000431,0.000705
21586000,0.0324,0.013523,0.002678,0.000431,0.000940
21587000,0.0324,0.013523,0.002678,0.000431,0.000705
21588000,0.0324,0.013523,0.002678,0.000431,0.000940
21589000,0.0324,0.013523,0.002678,0.000431,0.000940
21590000,0.0324,0.013523,0.002678,0.000431,0.000705
21591000,0.0324,0.013523,0.002678,0.000431,0.000940
21592000,0.0324,0.013523,0.002678,0.000431,0.000940
21593000,0.0324,0.013523,0.002678,0.000431,0.000705
21594000,0.0324,0.013523,0.002678,0.000431,0.000940
21595000,0.0324,0.013523,0.002678,0.000431,0.000940
21596000,0.0324,0.013523,0.002678,0.000431,0.000823
21597000,0.0324,0.013523,0.002678,0.000431,0.000823
21598000,0.0324,0.013523,0.002678,0.000431,0.000940
21599000,0.0324,0.013523,0.002678,0.000431,0.000823
21600000,0.0324,0.013523,0.002678,0.000431,0.000940
21601000,0.0324,0.013523,0.002678,0.000431,0.000823
21602000,0.0324,0.013523,0.002678,0.000431,0.000823
21603000,0.0324,0.013523,0.002678,0.000431,0.000823
21604000,0.0324,0.013523,0.002678,0.000431,0.000705
21605000,0.0324,0.013523,0.002678,0.000431,0.000940
21606000,0.0324,0.013523,0.002678,0.000431,0.000940
21607000,0.0324,0.013523,0.002678,0.000431,0.000705
21608000,0.0324,0.013523,0.002678,0.000431,0.000940
21609000,0.0324,0.013523,0.002678,0.000431,0.000705
21610000,0.0324,0.013523,0.002678,0.000431,0.000940
21611000,0.0324,0.013523,0.002678,0.000431,0.000940
21612000,0.0324,0.013523,0.002678,0.000431,0.000823
21613000,0.0324,0.013523,0.002678,0.000431,0.000823
21614000,0.0324,0.013523,0.002678,0.000431,0.000940
21615000,0.0324,0.013523,0.002678,0.000431,0.000940
21616000,0.0324,0.013523,0.002678,0.000431,0.000705
21617000,0.0324,0.013523,0.002678,0.000431,0.000940
21618000,0.0324,0.013523,0.002678,0.000431,0.000940
21619000,0.0324,0.013523,0.002678,0.000431,0.000940
21620000,0.0324,0.013523,0.002678,0.000431,0.000823
21621000,0.0324,0.013523,0.002678,0.000431,0.000823
21622000,0.0324,0.013523,0.002678,0.000431,0.000823
21623000,0.0324,0.013523,0.002678,0.000431,0.000823
21624000,0.0324,0.013523,0.002678,0.000431,0.000705
21625000,0.0324,0.013523,0.002678,0.000431,0.000940
21626000,0.0324,0.013523,0.002678,0.000431,0.000940
21627000,0.0324,0.013523,0.002678,0.000431,0.000705
21628000,0.0324,0.013523,0.002678,0.000431,0.000940
21629000,0.0324,0.013523,0.002678,0.000431,0.000705
21630000,0.0324,0.013523,0.002678,0.000431,0.000940
21631000,0.0324,0.013523,0.002678,0.000431,0.000823
21632000,0.0324,0.013523,0.002678,0.000431,0.000940
21633000,0.0324,0.013523,0.002678,0.000431,0.000823
21634000,0.0324,0.013523,0.002678,0.000431,0.000940
21635000,0.0324,0.013523,0.002678,0.000431,0.000940
21636000,0.0324,0.013523,0.002678,0.000431,0.000705
21637000,0.0324,0.013523,0.002678,0.000431,0.000940
21638000,0.0324,0.013523,0.002678,0.000431,0.000940
21639000,0.0324,0.013523,0.002678,0.000431,0.000940
21640000,0.0324,0.013523,0.002678,0.000431,0.000705
21641000,0.0324,0.013523,0.002678,0.000431,0.000940
21642000,0.0324,0.013523,0.002678,0.000431,0.000940
21643000,0.0324,0.013523,0.002678,0.000431,0.000823
21644000,0.0324,0.013523,0.002678,0.000431,0.000823
21645000,0.0324,0.013523,0.002678,0.000431,0.000940
21646000,0.0324,0.013523,0.002678,0.000431,0.000940
21647000,0.0324,0.013523,0.002678,0.000431,0.000823
21648000,0.0324,0.013523,0.002678,0.000431,0.000823
21649000,0.0324,0.013523,0.002678,0.000431,0.000940
21650000,0.0324,0.013523,0.002678,0.000431,0.000823
21651000,0.0324,0.013523,0.002678,0.000431,0.000940
21652000,0.0324,0.013523,0.002678,0.000431,0.000823
21653000,0.0324,0.013523,0.002678,0.000431,0.000940
21654000,0.0324,0.013523,0.002678,0.000431,0.000823
21655000,0.0324,0.013523,0.002678,0.000431,0.000823
21656000,0.0324,0.013523,0.002678,0.000431,0.000940
21657000,0.0324,0.013523,0.002678,0.000431,0.000940
21658000,0.0324,0.013523,0.002678,0.000431,0.000823
21659000,0.0324,0.013523,0.002678,0.000431,0.000823
21660000,0.0324,0.013523,0.002678,0.000431,0.000940
21661000,0.0324,0.013523,0.002678,0.000431,0.000705
21662000,0.0324,0.013523,0.002678,0.000431,0.000940
21663000,0.0324,0.013523,0.002678,0.000431,0.000705
21664000,0.0324,0.013523,0.002678,0.000431,0.000940
21665000,0.0324,0.013523,0.002678,0.000431,0.000940
21666000,0.0324,0.013523,0.002678,0.000431,0.000705
21667000,0.0324,0.013523,0.002678,0.000431,0.000940
21668000,0.0324,0.013523,0.002678,0.000431,0.000705
21669000,0.0324,0.013523,0.002678,0.000431,0.000940
21670000,0.0324,0.013523,0.002678,0.000431,0.000823
21671000,0.0324,0.013523,0.002678,0.000431,0.000940
21672000,0.0324,0.013523,0.002678,0.000431,0.000823
21673000,0.0324,0.013523,0.002678,0.000431,0.000940
21674000,0.0324,0.013523,0.002678,0.000431,0.000823
21675000,0.0324,0.013523,0.002678,0.000431,0.000823
21676000,0.0324,0.013523,0.002678,0.000431,0.000940
21677000,0.0324,0.013523,0.002678,0.000431,0.000940
21678000,0.0324,0.013523,0.002678,0.000431,0.015631
21679000,0.0324,0.013523,0.002678,0.000431,0.522765
21680000,0.0324,0.013523,0.002678,0.000431,0.600687
21681000,0.0324,0.013523,0.002678,0.000431,0.132572
21682000,0.0324,0.013523,0.002678,0.000431,0.133512
21683000,0.0324,0.013523,0.002678,0.000431,0.434737
21684000,0.0324,0.013523,0.002678,0.000431,0.312742
21685000,0.0324,0.013523,0.002678,0.000431,0.237172
21686000,0.0324,0.013523,0.002678,0.000431,0.275133
21687000,0.0324,0.013523,0.002678,0.000431,0.196507
21688000,0.0324,0.013523,0.002678,0.000431,0.142679
21689000,0.0324,0.013523,0.002678,0.000431,0.184637
21690000,0.0324,0.013523,0.002678,0.000431,0.084033
21691000,0.0324,0.013523,0.002678,0.000431,0.457420
21692000,0.0324,0.013523,0.002678,0.000431,0.072985
21693000,0.0324,0.013523,0.002678,0.000431,0.023388
21694000,0.0324,0.013523,0.002678,0.000431,0.016219
21695000,0.0324,0.013523,0.002678,0.000431,0.016101
21696000,0.0324,0.013523,0.002678,0.000431,0.014926
21697000,0.0324,0.013523,0.002678,0.000431,0.012458
21698000,0.0324,0.013523,0.002678,0.000431,0.009285
21699000,0.0324,0.013523,0.002678,0.000431,0.006582
21700000,0.0324,0.013523,0.002678,0.000431,0.005406
21701000,0.0324,0.013523,0.002678,0.000431,0.005994
21702000,0.0324,0.013523,0.002678,0.000431,0.004936
21703000,0.0324,0.013523,0.002678,0.000431,0.005406
21704000,0.0324,0.013523,0.002678,0.000431,0.004936
21705000,0.0324,0.013523,0.002678,0.000431,0.007404
21706000,0.0324,0.013523,0.002678,0.000431,0.004349
21707000,0.0324,0.013523,0.002678,0.000431,0.002468
21708000,0.0324,0.013523,0.002678,0.000431,0.002821
21709000,0.0324,0.013523,0.002678,0.000431,0.002468
21710000,0.0324,0.013523,0.002678,0.000431,0.002821
21711000,0.0324,0.013523,0.002678,0.000431,0.002468
21712000,0.0324,0.013523,0.002678,0.000431,0.002821
21713000,0.0324,0.013523,0.002678,0.000431,0.002703
21714000,0.0324,0.013523,0.002678,0.000431,0.002233
21715000,0.0324,0.013523,0.002678,0.000431,0.004584
21716000,0.0324,0.013523,0.002678,0.000431,0.001998
21717000,0.0324,0.013523,0.002678,0.000431,0.002116
21718000,0.0324,0.013523,0.002678,0.000431,0.001528
21719000,0.0324,0.013523,0.002678,0.000431,0.001880
21720000,0.0324,0.013523,0.002678,0.000431,0.001880
21721000,0.0324,0.013523,0.002678,0.000431,0.001763
21722000,0.0324,0.013523,0.002678,0.000431,0.002821
21723000,0.0324,0.013523,0.002678,0.000431,0.000940
21724000,0.0324,0.013523,0.002678,0.000431,0.000940
21725000,0.0324,0.013523,0.002678,0.000431,0.000940
21726000,0.0324,0.013523,0.002678,0.000431,0.000940
21727000,0.0324,0.013523,0.002678,0.000431,0.000940
21728000,0.0324,0.013523,0.002678,0.000431,0.000940
21729000,0.0324,0.013523,0.002678,0.000431,0.190396
21730000,0.0324,0.013523,0.002678,0.000431,0.572127
21731000,0.0324,0.013523,0.002678,0.000431,0.374680
21732000,0.0324,0.013523,0.002678,0.000431,0.131632
21733000,0.0324,0.013523,0.002678,0.000431,0.132572
21734000,0.0324,0.013523,0.002678,0.000431,0.600334
21735000,0.0324,0.013523,0.002678,0.000431,0.273841
21736000,0.0324,0.013523,0.002678,0.000431,0.237524
21737000,0.0324,0.013523,0.002678,0.000431,0.277719
21738000,0.0324,0.013523,0.002678,0.000431,0.136685
21739000,0.0324,0.013523,0.002678,0.000431,0.143854
21740000,0.0324,0.013523,0.002678,0.000431,0.108008
21741000,0.0324,0.013523,0.002678,0.000431,0.365395
21742000,0.0324,0.013523,0.002678,0.000431,0.244341
21743000,0.0324,0.013523,0.002678,0.000431,0.053358
21744000,0.0324,0.013523,0.002678,0.000431,0.046071
21745000,0.0324,0.013523,0.002678,0.000431,0.038902
21746000,0.0324,0.013523,0.002678,0.000431,0.030910
21747000,0.0324,0.013523,0.002678,0.000431,0.026914
21748000,0.0324,0.013523,0.002678,0.000431,0.030910
21749000,0.0324,0.013523,0.002678,0.000431,0.022095
21750000,0.0324,0.013523,0.002678,0.000431,0.023153
21751000,0.0324,0.013523,0.002678,0.000431,0.015631
21752000,0.0324,0.013523,0.002678,0.000431,0.018569
21753000,0.0324,0.013523,0.002678,0.000431,0.014573
21754000,0.0324,0.013523,0.002678,0.000431,0.012693
21755000,0.0324,0.013523,0.002678,0.000431,0.010813
21756000,0.0324,0.013523,0.002678,0.000431,0.011165
21757000,0.0324,0.013523,0.002678,0.000431,0.011048
21758000,0.0324,0.013523,0.002678,0.000431,0.010342
21759000,0.0324,0.013523,0.002678,0.000431,0.011400
21760000,0.0324,0.013523,0.002678,0.000431,0.012223
21761000,0.0324,0.013523,0.002678,0.000431,0.011635
21762000,0.0324,0.013523,0.002678,0.000431,0.010578
21763000,0.0324,0.013523,0.002678,0.000431,0.006699
21764000,0.0324,0.013523,0.002678,0.000431,0.008227
21765000,0.0324,0.013523,0.002678,0.000431,0.006229
21766000,0.0324,0.013523,0.002678,0.000431,0.005171
21767000,0.0324,0.013523,0.002678,0.000431,0.005994
21768000,0.0324,0.013523,0.002678,0.000431,0.005876
21769000,0.0324,0.013523,0.002678,0.000431,0.005641
21770000,0.0324,0.013523,0.002678,0.000431,0.006111
21771000,0.0324,0.013523,0.002678,0.000431,0.005641
21772000,0.0324,0.013523,0.002678,0.000431,0.006934
21773000,0.0324,0.013523,0.002678,0.000431,0.006347
21774000,0.0324,0.013523,0.002678,0.000431,0.004701
21775000,0.0324,0.013523,0.002678,0.000431,0.004113
21776000,0.0324,0.013523,0.002678,0.000431,0.004231
21777000,0.0324,0.013523,0.002678,0.000431,0.003056
21778000,0.0324,0.013523,0.002678,0.000431,0.003408
21779000,0.0324,0.013523,0.002678,0.000431,0.003526
21780000,0.0324,0.013523,0.002678,0.000431,0.003056
21781000,0.0324,0.013523,0.002678,0.000431,0.003408
21782000,0.0324,0.013523,0.002678,0.000431,0.003291
21783000,0.0324,0.013523,0.002678,0.000431,0.003173
21784000,0.0324,0.013523,0.002678,0.000431,0.003526
21785000,0.0324,0.013523,0.002678,0.000431,0.002938
21786000,0.0324,0.013523,0.002678,0.000431,0.004701
21787000,0.0324,0.013523,0.002678,0.000431,0.002233
21788000,0.0324,0.013523,0.002678,0.000431,0.001645
21789000,0.0324,0.013523,0.002678,0.000431,0.001645
21790000,0.0324,0.013523,0.002678,0.000431,0.001880
21791000,0.0324,0.013523,0.002678,0.000431,0.001763
21792000,0.0324,0.013523,0.002678,0.000431,0.001763
21793000,0.0324,0.013523,0.002678,0.000431,0.003643
21794000,0.0324,0.013523,0.002678,0.000431,0.000940
21795000,0.0324,0.013523,0.002678,0.000431,0.000823
21796000,0.0324,0.013523,0.002678,0.000431,0.000823
21797000,0.0324,0.013523,0.002678,0.000431,0.000940
21798000,0.0324,0.013523,0.002678,0.000431,0.000940
21799000,0.0324,0.013523,0.002678,0.000431,0.000940
21800000,0.0324,0.013523,0.002678,0.000431,0.000705
21801000,0.0324,0.013523,0.002678,0.000431,0.000823
21802000,0.0324,0.013523,0.002678,0.000431,0.000823
21803000,0.0324,0.013523,0.002678,0.000431,0.000940
21804000,0.0324,0.013523,0.002678,0.000431,0.000823
21805000,0.0324,0.013523,0.002678,0.000431,0.000823
21806000,0.0324,0.013523,0.002678,0.000431,0.000705
21807000,0.0324,0.013523,0.002678,0.000431,0.000940
21808000,0.0324,0.013523,0.002678,0.000431,0.000940
21809000,0.0324,0.013523,0.002678,0.000431,0.000705
21810000,0.0324,0.013523,0.002678,0.000431,0.000940
21811000,0.0324,0.013523,0.002678,0.000431,0.000823
21812000,0.0324,0.013523,0.002678,0.000431,0.000940
21813000,0.0324,0.013523,0.002678,0.000431,0.000823
21814000,0.0324,0.013523,0.002678,0.000431,0.000940
21815000,0.0324,0.013523,0.002678,0.000431,0.000823
21816000,0.0324,0.013523,0.002678,0.000431,0.000823
21817000,0.0324,0.013523,0.002678,0.000431,0.000940
21818000,0.0324,0.013523,0.002678,0.000431,0.000940
21819000,0.0324,0.013523,0.002678,0.000431,0.000823
21820000,0.0324,0.013523,0.002678,0.000431,0.000823
21821000,0.0324,0.013523,0.002678,0.000431,0.000940
21822000,0.0324,0.013523,0.002678,0.000431,0.000940
21823000,0.0324,0.013523,0.002678,0.000431,0.000705
21824000,0.0324,0.013523,0.002678,0.000431,0.000940
21825000,0.0324,0.013523,0.002678,0.000431,0.000940
21826000,0.0324,0.013523,0.002678,0.000431,0.000940
21827000,0.0324,0.013523,0.002678,0.000431,0.000823
21828000,0.0324,0.013523,0.002678,0.000431,0.000823
21829000,0.0324,0.013523,0.002678,0.000431,0.000940
21830000,0.0324,0.013523,0.002678,0.000431,0.000823
21831000,0.0324,0.013523,0.002678,0.000431,0.000940
21832000,0.0324,0.013523,0.002678,0.000431,0.000823
21833000,0.0324,0.013523,0.002678,0.000431,0.000940
21834000,0.0324,0.013523,0.002678,0.000431,0.000823
21835000,0.0324,0.013523,0.002678,0.000431,0.000823
21836000,0.0324,0.013523,0.002678,0.000431,0.000940
21837000,0.0324,0.013523,0.002678,0.000431,0.000940
21838000,0.0324,0.013523,0.002678,0.000431,0.000823
21839000,0.0324,0.013523,0.002678,0.000431,0.000823
21840000,0.0324,0.013523,0.002678,0.000431,0.000940
21841000,0.0324,0.013523,0.002678,0.000431,0.000940
21842000,0.0324,0.013523,0.002678,0.000431,0.000705
21843000,0.0324,0.013523,0.002678,0.000431,0.000940
21844000,0.0324,0.013523,0.002678,0.000431,0.000940
21845000,0.0324,0.013523,0.002678,0.000431,0.000940
21846000,0.0324,0.013523,0.002678,0.000431,0.000705
21847000,0.0324,0.013523,0.002678,0.000431,0.000940
21848000,0.0324,0.013523,0.002678,0.000431,0.000940
21849000,0.0324,0.013523,0.002678,0.000431,0.000823
21850000,0.0324,0.013523,0.002678,0.000431,0.000823
21851000,0.0324,0.013523,0.002678,0.000431,0.000940
21852000,0.0324,0.013523,0.002678,0.000431,0.000823
21853000,0.0324,0.013523,0.002678,0.000431,0.000940
21854000,0.0324,0.013523,0.002678,0.000431,0.000823
21855000,0.0324,0.013523,0.002678,0.000431,0.000940
21856000,0.0324,0.013523,0.002678,0.000431,0.000823
21857000,0.0324,0.013523,0.002678,0.000431,0.000823
21858000,0.0324,0.013523,0.002678,0.000431,0.000940
21859000,0.0324,0.013523,0.002678,0.000431,0.000940
21860000,0.0324,0.013523,0.002678,0.000431,0.000823
21861000,0.0324,0.013523,0.002678,0.000431,0.000823
21862000,0.0324,0.013523,0.002678,0.000431,0.000940
21863000,0.0324,0.013523,0.002678,0.000431,0.000940
21864000,0.0324,0.013523,0.002678,0.000431,0.000823
21865000,0.0324,0.013523,0.002678,0.000431,0.000823
21866000,0.0324,0.013523,0.002678,0.000431,0.000940
21867000,0.0324,0.013523,0.002678,0.000431,0.000940
21868000,0.0324,0.013523,0.002678,0.000431,0.000823
21869000,0.0324,0.013523,0.002678,0.000431,0.000823
21870000,0.0324,0.013523,0.002678,0.000431,0.000940
21871000,0.0324,0.013523,0.002678,0.000431,0.000823
21872000,0.0324,0.013523,0.002678,0.000431,0.000940
21873000,0.0324,0.013523,0.002678,0.000431,0.000823
21874000,0.0324,0.013523,0.002678,0.000431,0.000940
21875000,0.0324,0.013523,0.002678,0.000431,0.000823
21876000,0.0324,0.013523,0.002678,0.000431,0.000823
21877000,0.0324,0.013523,0.002678,0.000431,0.000940
21878000,0.0324,0.013523,0.002678,0.000431,0.000940
21879000,0.0324,0.013523,0.002678,0.000431,0.000823
21880000,0.0324,0.013523,0.002678,0.000431,0.001880
21881000,0.0324,0.013523,0.002678,0.000431,0.372564
21882000,0.0324,0.013523,0.002678,0.000431,0.705874
21883000,0.0324,0.013523,0.002678,0.000431,0.138801
21884000,0.0324,0.013523,0.002678,0.000431,0.133747
21885000,0.0324,0.013523,0.002678,0.000431,0.208142
21886000,0.0324,0.013523,0.002678,0.000431,0.603860
21887000,0.0324,0.013523,0.002678,0.000431,0.253391
21888000,0.0324,0.013523,0.002678,0.000431,0.327669
21889000,0.0324,0.013523,0.002678,0.000431,0.183814
21890000,0.0324,0.013523,0.002678,0.000431,0.150554
21891000,0.0324,0.013523,0.002678,0.000431,0.107891
21892000,0.0324,0.013523,0.002678,0.000431,0.328609
21893000,0.0324,0.013523,0.002678,0.000431,0.272313
21894000,0.0324,0.013523,0.002678,0.000431,0.051595
21895000,0.0324,0.013523,0.002678,0.000431,0.038432
21896000,0.0324,0.013523,0.002678,0.000431,0.036434
21897000,0.0324,0.013523,0.002678,0.000431,0.024093
21898000,0.0324,0.013523,0.002678,0.000431,0.023858
21899000,0.0324,0.013523,0.002678,0.000431,0.024211
21900000,0.0324,0.013523,0.002678,0.000431,0.017864
21901000,0.0324,0.013523,0.002678,0.000431,0.020215
21902000,0.0324,0.013523,0.002678,0.000431,0.019275
21903000,0.0324,0.013523,0.002678,0.000431,0.015866
21904000,0.0324,0.013523,0.002678,0.000431,0.014338
21905000,0.0324,0.013523,0.002678,0.000431,0.013986
21906000,0.0324,0.013523,0.002678,0.000431,0.014573
21907000,0.0324,0.013523,0.002678,0.000431,0.014573
21908000,0.0324,0.013523,0.002678,0.000431,0.018687
21909000,0.0324,0.013523,0.002678,0.000431,0.012576
21910000,0.0324,0.013523,0.002678,0.000431,0.012458
21911000,0.0324,0.013523,0.002678,0.000431,0.012928
21912000,0.0324,0.013523,0.002678,0.000431,0.009167
21913000,0.0324,0.013523,0.002678,0.000431,0.006699
21914000,0.0324,0.013523,0.002678,0.000431,0.006817
21915000,0.0324,0.013523,0.002678,0.000431,0.006934
21916000,0.0324,0.013523,0.002678,0.000431,0.006464
21917000,0.0324,0.013523,0.002678,0.000431,0.006347
21918000,0.0324,0.013523,0.002678,0.000431,0.007287
21919000,0.0324,0.013523,0.002678,0.000431,0.008815
21920000,0.0324,0.013523,0.002678,0.000431,0.007052
21921000,0.0324,0.013523,0.002678,0.000431,0.005171
21922000,0.0324,0.013523,0.002678,0.000431,0.005289
21923000,0.0324,0.013523,0.002678,0.000431,0.005054
21924000,0.0324,0.013523,0.002678,0.000431,0.005876
21925000,0.0324,0.013523,0.002678,0.000431,0.002468
21926000,0.0324,0.013523,0.002678,0.000431,0.002703
21927000,0.0324,0.013523,0.002678,0.000431,0.002351
21928000,0.0324,0.013523,0.002678,0.000431,0.002703
21929000,0.0324,0.013523,0.002678,0.000431,0.002468
21930000,0.0324,0.013523,0.002678,0.000431,0.002703
21931000,0.0324,0.013523,0.002678,0.000431,0.002938
21932000,0.0324,0.013523,0.002678,0.000431,0.003291
21933000,0.0324,0.013523,0.002678,0.000431,0.001763
21934000,0.0324,0.013523,0.002678,0.000431,0.001410
21935000,0.0324,0.013523,0.002678,0.000431,0.001880
21936000,0.0324,0.013523,0.002678,0.000431,0.001645
21937000,0.0324,0.013523,0.002678,0.000431,0.001645
21938000,0.0324,0.013523,0.002678,0.000431,0.001645
21939000,0.0324,0.013523,0.002678,0.000431,0.001763
21940000,0.0324,0.013523,0.002678,0.000431,0.001645
21941000,0.0324,0.013523,0.002678,0.000431,0.001880
21942000,0.0324,0.013523,0.002678,0.000431,0.001528
21943000,0.0324,0.013523,0.002678,0.000431,0.001763
21944000,0.0324,0.013523,0.002678,0.000431,0.001410
21945000,0.0324,0.013523,0.002678,0.000431,0.001880
21946000,0.0324,0.013523,0.002678,0.000431,0.001763
21947000,0.0324,0.013523,0.002678,0.000431,0.001528
21948000,0.0324,0.013523,0.002678,0.000431,0.001880
21949000,0.0324,0.013523,0.002678,0.000431,0.001410
21950000,0.0324,0.013523,0.002678,0.000431,0.001880
21951000,0.0324,0.013523,0.002678,0.000431,0.001645
21952000,0.0324,0.013523,0.002678,0.000431,0.001645
21953000,0.0324,0.013523,0.002678,0.000431,0.001763
21954000,0.0324,0.013523,0.002678,0.000431,0.001528
21955000,0.0324,0.013523,0.002678,0.000431,0.001880
21956000,0.0324,0.013523,0.002678,0.000431,0.001528
21957000,0.0324,0.013523,0.002678,0.000431,0.001763
21958000,0.0324,0.013523,0.002678,0.000431,0.001645
21959000,0.0324,0.013523,0.002678,0.000431,0.001645
21960000,0.0324,0.013523,0.002678,0.000431,0.001763
21961000,0.0324,0.013523,0.002678,0.000431,0.001528
21962000,0.0324,0.013523,0.002678,0.000431,0.001763
21963000,0.0324,0.013523,0.002678,0.000431,0.001528
21964000,0.0324,0.013523,0.002678,0.000431,0.001763
21965000,0.0324,0.013523,0.002678,0.000431,0.001645
21966000,0.0324,0.013523,0.002678,0.000431,0.001763
21967000,0.0324,0.013523,0.002678,0.000431,0.001528
21968000,0.0324,0.013523,0.002678,0.000431,0.001763
21969000,0.0324,0.013523,0.002678,0.000431,0.001645
21970000,0.0324,0.013523,0.002678,0.000431,0.001645
21971000,0.0324,0.013523,0.002678,0.000431,0.001880
21972000,0.0324,0.013523,0.002678,0.000431,0.001645
21973000,0.0324,0.013523,0.002678,0.000431,0.001645
21974000,0.0324,0.013523,0.002678,0.000431,0.001645
21975000,0.0324,0.013523,0.002678,0.000431,0.001645
21976000,0.0324,0.013523,0.002678,0.000431,0.001763
21977000,0.0324,0.013523,0.002678,0.000431,0.001645
21978000,0.0324,0.013523,0.002678,0.000431,0.001763
21979000,0.0324,0.013523,0.002678,0.000431,0.001645
21980000,0.0324,0.013523,0.002678,0.000431,0.001763
21981000,0.0324,0.013523,0.002678,0.000431,0.001645
21982000,0.0324,0.013523,0.002678,0.000431,0.001763
21983000,0.0324,0.013523,0.002678,0.000431,0.001763
21984000,0.0324,0.013523,0.002678,0.000431,0.001645
21985000,0.0324,0.013523,0.002678,0.000431,0.003056
21986000,0.0324,0.013523,0.002678,0.000431,0.000823
21987000,0.0324,0.013523,0.002678,0.000431,0.000823
21988000,0.0324,0.013523,0.002678,0.000431,0.000940
21989000,0.0324,0.013523,0.002678,0.000431,0.000705
21990000,0.0324,0.013523,0.002678,0.000431,0.000940
21991000,0.0324,0.013523,0.002678,0.000431,0.000823
21992000,0.0324,0.013523,0.002678,0.000431,0.000705
21993000,0.0324,0.013523,0.002678,0.000431,0.000940
21994000,0.0324,0.013523,0.002678,0.000431,0.000823
21995000,0.0324,0.013523,0.002678,0.000431,0.000823
21996000,0.0324,0.013523,0.002678,0.000431,0.000823
21997000,0.0324,0.013523,0.002678,0.000431,0.000823
21998000,0.0324,0.013523,0.002678,0.000431,0.000823
21999000,0.0324,0.013523,0.002678,0.000431,0.000940
