Cycle,Area(mm^2),PeakDynamic(W),SubthresholdLeakage(W),GateLeakage(W),RunTimeDynamic(W)
126000000,0.0324,0.013523,0.002678,0.000431,0.403709
126001000,0.0324,0.013523,0.002678,0.000431,0.580589
126002000,0.0324,0.013523,0.002678,0.000431,0.131161
126003000,0.0324,0.013523,0.002678,0.000431,0.133982
126004000,0.0324,0.013523,0.002678,0.000431,0.511013
126005000,0.0324,0.013523,0.002678,0.000431,0.261383
126006000,0.0324,0.013523,0.002678,0.000431,0.234704
126007000,0.0324,0.013523,0.002678,0.000431,0.312037
126008000,0.0324,0.013523,0.002678,0.000431,0.190278
126009000,0.0324,0.013523,0.002678,0.000431,0.137626
126010000,0.0324,0.013523,0.002678,0.000431,0.167125
126011000,0.0324,0.013523,0.002678,0.000431,0.114825
126012000,0.0324,0.013523,0.002678,0.000431,0.450133
126013000,0.0324,0.013523,0.002678,0.000431,0.022918
126014000,0.0324,0.013523,0.002678,0.000431,0.001763
126015000,0.0324,0.013523,0.002678,0.000431,0.001645
126016000,0.0324,0.013523,0.002678,0.000431,0.001763
126017000,0.0324,0.013523,0.002678,0.000431,0.001763
126018000,0.0324,0.013523,0.002678,0.000431,0.001763
126019000,0.0324,0.013523,0.002678,0.000431,0.001763
126020000,0.0324,0.013523,0.002678,0.000431,0.001763
126021000,0.0324,0.013523,0.002678,0.000431,0.001763
126022000,0.0324,0.013523,0.002678,0.000431,0.001763
126023000,0.0324,0.013523,0.002678,0.000431,0.001763
126024000,0.0324,0.013523,0.002678,0.000431,0.001645
126025000,0.0324,0.013523,0.002678,0.000431,0.001763
126026000,0.0324,0.013523,0.002678,0.000431,0.001880
126027000,0.0324,0.013523,0.002678,0.000431,0.001645
126028000,0.0324,0.013523,0.002678,0.000431,0.001763
126029000,0.0324,0.013523,0.002678,0.000431,0.001763
126030000,0.0324,0.013523,0.002678,0.000431,0.001763
126031000,0.0324,0.013523,0.002678,0.000431,0.001763
126032000,0.0324,0.013523,0.002678,0.000431,0.001763
126033000,0.0324,0.013523,0.002678,0.000431,0.001880
126034000,0.0324,0.013523,0.002678,0.000431,0.001528
126035000,0.0324,0.013523,0.002678,0.000431,0.001880
126036000,0.0324,0.013523,0.002678,0.000431,0.001763
126037000,0.0324,0.013523,0.002678,0.000431,0.001763
126038000,0.0324,0.013523,0.002678,0.000431,0.001763
126039000,0.0324,0.013523,0.002678,0.000431,0.001645
126040000,0.0324,0.013523,0.002678,0.000431,0.001880
126041000,0.0324,0.013523,0.002678,0.000431,0.001763
126042000,0.0324,0.013523,0.002678,0.000431,0.001763
126043000,0.0324,0.013523,0.002678,0.000431,0.002938
126044000,0.0324,0.013523,0.002678,0.000431,0.000823
126045000,0.0324,0.013523,0.002678,0.000431,0.000940
126046000,0.0324,0.013523,0.002678,0.000431,0.000823
126047000,0.0324,0.013523,0.002678,0.000431,0.000940
126048000,0.0324,0.013523,0.002678,0.000431,0.000823
126049000,0.0324,0.013523,0.002678,0.000431,0.000823
126050000,0.0324,0.013523,0.002678,0.000431,0.000940
126051000,0.0324,0.013523,0.002678,0.000431,0.000940
126052000,0.0324,0.013523,0.002678,0.000431,0.000823
126053000,0.0324,0.013523,0.002678,0.000431,0.000823
126054000,0.0324,0.013523,0.002678,0.000431,0.000940
126055000,0.0324,0.013523,0.002678,0.000431,0.000940
126056000,0.0324,0.013523,0.002678,0.000431,0.000823
126057000,0.0324,0.013523,0.002678,0.000431,0.000823
126058000,0.0324,0.013523,0.002678,0.000431,0.000940
126059000,0.0324,0.013523,0.002678,0.000431,0.000823
126060000,0.0324,0.013523,0.002678,0.000431,0.000940
126061000,0.0324,0.013523,0.002678,0.000431,0.000823
126062000,0.0324,0.013523,0.002678,0.000431,0.000940
126063000,0.0324,0.013523,0.002678,0.000431,0.000823
126064000,0.0324,0.013523,0.002678,0.000431,0.000823
126065000,0.0324,0.013523,0.002678,0.000431,0.000940
126066000,0.0324,0.013523,0.002678,0.000431,0.000940
126067000,0.0324,0.013523,0.002678,0.000431,0.000823
126068000,0.0324,0.013523,0.002678,0.000431,0.000823
126069000,0.0324,0.013523,0.002678,0.000431,0.000940
126070000,0.0324,0.013523,0.002678,0.000431,0.000940
126071000,0.0324,0.013523,0.002678,0.000431,0.000705
126072000,0.0324,0.013523,0.002678,0.000431,0.000940
126073000,0.0324,0.013523,0.002678,0.000431,0.000940
126074000,0.0324,0.013523,0.002678,0.000431,0.000940
126075000,0.0324,0.013523,0.002678,0.000431,0.000705
126076000,0.0324,0.013523,0.002678,0.000431,0.000940
126077000,0.0324,0.013523,0.002678,0.000431,0.000940
126078000,0.0324,0.013523,0.002678,0.000431,0.000823
126079000,0.0324,0.013523,0.002678,0.000431,0.000823
126080000,0.0324,0.013523,0.002678,0.000431,0.000940
126081000,0.0324,0.013523,0.002678,0.000431,0.000940
126082000,0.0324,0.013523,0.002678,0.000431,0.000823
126083000,0.0324,0.013523,0.002678,0.000431,0.000823
126084000,0.0324,0.013523,0.002678,0.000431,0.000940
126085000,0.0324,0.013523,0.002678,0.000431,0.000823
126086000,0.0324,0.013523,0.002678,0.000431,0.000940
126087000,0.0324,0.013523,0.002678,0.000431,0.000823
126088000,0.0324,0.013523,0.002678,0.000431,0.000940
126089000,0.0324,0.013523,0.002678,0.000431,0.000940
126090000,0.0324,0.013523,0.002678,0.000431,0.000705
126091000,0.0324,0.013523,0.002678,0.000431,0.000940
126092000,0.0324,0.013523,0.002678,0.000431,0.000940
126093000,0.0324,0.013523,0.002678,0.000431,0.000940
126094000,0.0324,0.013523,0.002678,0.000431,0.000705
126095000,0.0324,0.013523,0.002678,0.000431,0.000940
126096000,0.0324,0.013523,0.002678,0.000431,0.000940
126097000,0.0324,0.013523,0.002678,0.000431,0.020450
126098000,0.0324,0.013523,0.002678,0.000431,0.416285
126099000,0.0324,0.013523,0.002678,0.000431,0.602567
126100000,0.0324,0.013523,0.002678,0.000431,0.131749
126101000,0.0324,0.013523,0.002678,0.000431,0.131161
126102000,0.0324,0.013523,0.002678,0.000431,0.354583
126103000,0.0324,0.013523,0.002678,0.000431,0.432504
126104000,0.0324,0.013523,0.002678,0.000431,0.266671
126105000,0.0324,0.013523,0.002678,0.000431,0.240463
126106000,0.0324,0.013523,0.002678,0.000431,0.198858
126107000,0.0324,0.013523,0.002678,0.000431,0.135392
126108000,0.0324,0.013523,0.002678,0.000431,0.154079
126109000,0.0324,0.013523,0.002678,0.000431,0.099899
126110000,0.0324,0.013523,0.002678,0.000431,0.412759
126111000,0.0324,0.013523,0.002678,0.000431,0.128341
126112000,0.0324,0.013523,0.002678,0.000431,0.003408
126113000,0.0324,0.013523,0.002678,0.000431,0.004936
126114000,0.0324,0.013523,0.002678,0.000431,0.004466
126115000,0.0324,0.013523,0.002678,0.000431,0.001763
126116000,0.0324,0.013523,0.002678,0.000431,0.001880
126117000,0.0324,0.013523,0.002678,0.000431,0.001528
126118000,0.0324,0.013523,0.002678,0.000431,0.001880
126119000,0.0324,0.013523,0.002678,0.000431,0.001763
126120000,0.0324,0.013523,0.002678,0.000431,0.001763
126121000,0.0324,0.013523,0.002678,0.000431,0.001645
126122000,0.0324,0.013523,0.002678,0.000431,0.001763
126123000,0.0324,0.013523,0.002678,0.000431,0.001880
126124000,0.0324,0.013523,0.002678,0.000431,0.001763
126125000,0.0324,0.013523,0.002678,0.000431,0.001763
126126000,0.0324,0.013523,0.002678,0.000431,0.001645
126127000,0.0324,0.013523,0.002678,0.000431,0.001763
126128000,0.0324,0.013523,0.002678,0.000431,0.001763
126129000,0.0324,0.013523,0.002678,0.000431,0.001763
126130000,0.0324,0.013523,0.002678,0.000431,0.001763
126131000,0.0324,0.013523,0.002678,0.000431,0.001880
126132000,0.0324,0.013523,0.002678,0.000431,0.001645
126133000,0.0324,0.013523,0.002678,0.000431,0.001763
126134000,0.0324,0.013523,0.002678,0.000431,0.001763
126135000,0.0324,0.013523,0.002678,0.000431,0.001763
126136000,0.0324,0.013523,0.002678,0.000431,0.001645
126137000,0.0324,0.013523,0.002678,0.000431,0.001880
126138000,0.0324,0.013523,0.002678,0.000431,0.001763
126139000,0.0324,0.013523,0.002678,0.000431,0.001880
126140000,0.0324,0.013523,0.002678,0.000431,0.001645
126141000,0.0324,0.013523,0.002678,0.000431,0.001645
126142000,0.0324,0.013523,0.002678,0.000431,0.003173
126143000,0.0324,0.013523,0.002678,0.000431,0.000940
126144000,0.0324,0.013523,0.002678,0.000431,0.000705
126145000,0.0324,0.013523,0.002678,0.000431,0.000940
126146000,0.0324,0.013523,0.002678,0.000431,0.000940
126147000,0.0324,0.013523,0.002678,0.000431,0.000823
126148000,0.0324,0.013523,0.002678,0.000431,0.000823
126149000,0.0324,0.013523,0.002678,0.000431,0.000940
126150000,0.0324,0.013523,0.002678,0.000431,0.000940
126151000,0.0324,0.013523,0.002678,0.000431,0.000823
126152000,0.0324,0.013523,0.002678,0.000431,0.000823
126153000,0.0324,0.013523,0.002678,0.000431,0.000940
126154000,0.0324,0.013523,0.002678,0.000431,0.000823
126155000,0.0324,0.013523,0.002678,0.000431,0.000940
126156000,0.0324,0.013523,0.002678,0.000431,0.000823
126157000,0.0324,0.013523,0.002678,0.000431,0.000940
126158000,0.0324,0.013523,0.002678,0.000431,0.000940
126159000,0.0324,0.013523,0.002678,0.000431,0.000705
126160000,0.0324,0.013523,0.002678,0.000431,0.000940
126161000,0.0324,0.013523,0.002678,0.000431,0.000940
126162000,0.0324,0.013523,0.002678,0.000431,0.000940
126163000,0.0324,0.013523,0.002678,0.000431,0.000705
126164000,0.0324,0.013523,0.002678,0.000431,0.000940
126165000,0.0324,0.013523,0.002678,0.000431,0.000940
126166000,0.0324,0.013523,0.002678,0.000431,0.000823
126167000,0.0324,0.013523,0.002678,0.000431,0.000823
126168000,0.0324,0.013523,0.002678,0.000431,0.000940
126169000,0.0324,0.013523,0.002678,0.000431,0.000940
126170000,0.0324,0.013523,0.002678,0.000431,0.000823
126171000,0.0324,0.013523,0.002678,0.000431,0.000823
126172000,0.0324,0.013523,0.002678,0.000431,0.000940
126173000,0.0324,0.013523,0.002678,0.000431,0.000823
126174000,0.0324,0.013523,0.002678,0.000431,0.000940
126175000,0.0324,0.013523,0.002678,0.000431,0.000823
126176000,0.0324,0.013523,0.002678,0.000431,0.000940
126177000,0.0324,0.013523,0.002678,0.000431,0.000823
126178000,0.0324,0.013523,0.002678,0.000431,0.000823
126179000,0.0324,0.013523,0.002678,0.000431,0.000940
126180000,0.0324,0.013523,0.002678,0.000431,0.000940
126181000,0.0324,0.013523,0.002678,0.000431,0.000823
126182000,0.0324,0.013523,0.002678,0.000431,0.000823
126183000,0.0324,0.013523,0.002678,0.000431,0.000940
126184000,0.0324,0.013523,0.002678,0.000431,0.000940
126185000,0.0324,0.013523,0.002678,0.000431,0.000823
126186000,0.0324,0.013523,0.002678,0.000431,0.000823
126187000,0.0324,0.013523,0.002678,0.000431,0.000940
126188000,0.0324,0.013523,0.002678,0.000431,0.000823
126189000,0.0324,0.013523,0.002678,0.000431,0.000940
126190000,0.0324,0.013523,0.002678,0.000431,0.000823
126191000,0.0324,0.013523,0.002678,0.000431,0.000940
126192000,0.0324,0.013523,0.002678,0.000431,0.000823
126193000,0.0324,0.013523,0.002678,0.000431,0.000823
126194000,0.0324,0.013523,0.002678,0.000431,0.000940
126195000,0.0324,0.013523,0.002678,0.000431,0.000940
126196000,0.0324,0.013523,0.002678,0.000431,0.000823
126197000,0.0324,0.013523,0.002678,0.000431,0.000823
126198000,0.0324,0.013523,0.002678,0.000431,0.000940
126199000,0.0324,0.013523,0.002678,0.000431,0.000940
126200000,0.0324,0.013523,0.002678,0.000431,0.000705
126201000,0.0324,0.013523,0.002678,0.000431,0.000940
126202000,0.0324,0.013523,0.002678,0.000431,0.001763
126203000,0.0324,0.013523,0.002678,0.000431,0.306631
126204000,0.0324,0.013523,0.002678,0.000431,0.613732
126205000,0.0324,0.013523,0.002678,0.000431,0.192864
126206000,0.0324,0.013523,0.002678,0.000431,0.131632
126207000,0.0324,0.013523,0.002678,0.000431,0.133512
126208000,0.0324,0.013523,0.002678,0.000431,0.571540
126209000,0.0324,0.013523,0.002678,0.000431,0.234704
126210000,0.0324,0.013523,0.002678,0.000431,0.223304
126211000,0.0324,0.013523,0.002678,0.000431,0.290295
126212000,0.0324,0.013523,0.002678,0.000431,0.143972
126213000,0.0324,0.013523,0.002678,0.000431,0.133747
126214000,0.0324,0.013523,0.002678,0.000431,0.169593
126215000,0.0324,0.013523,0.002678,0.000431,0.124227
126216000,0.0324,0.013523,0.002678,0.000431,0.458948
126217000,0.0324,0.013523,0.002678,0.000431,0.041958
126218000,0.0324,0.013523,0.002678,0.000431,0.031968
126219000,0.0324,0.013523,0.002678,0.000431,0.021390
126220000,0.0324,0.013523,0.002678,0.000431,0.020097
126221000,0.0324,0.013523,0.002678,0.000431,0.018687
126222000,0.0324,0.013523,0.002678,0.000431,0.007639
126223000,0.0324,0.013523,0.002678,0.000431,0.009637
126224000,0.0324,0.013523,0.002678,0.000431,0.005289
126225000,0.0324,0.013523,0.002678,0.000431,0.005406
126226000,0.0324,0.013523,0.002678,0.000431,0.006817
126227000,0.0324,0.013523,0.002678,0.000431,0.003408
126228000,0.0324,0.013523,0.002678,0.000431,0.003408
126229000,0.0324,0.013523,0.002678,0.000431,0.003643
126230000,0.0324,0.013523,0.002678,0.000431,0.003526
126231000,0.0324,0.013523,0.002678,0.000431,0.003291
126232000,0.0324,0.013523,0.002678,0.000431,0.003408
126233000,0.0324,0.013523,0.002678,0.000431,0.003643
126234000,0.0324,0.013523,0.002678,0.000431,0.003408
126235000,0.0324,0.013523,0.002678,0.000431,0.003408
126236000,0.0324,0.013523,0.002678,0.000431,0.003408
126237000,0.0324,0.013523,0.002678,0.000431,0.003643
126238000,0.0324,0.013523,0.002678,0.000431,0.003526
126239000,0.0324,0.013523,0.002678,0.000431,0.003173
126240000,0.0324,0.013523,0.002678,0.000431,0.003643
126241000,0.0324,0.013523,0.002678,0.000431,0.003526
126242000,0.0324,0.013523,0.002678,0.000431,0.003643
126243000,0.0324,0.013523,0.002678,0.000431,0.002938
126244000,0.0324,0.013523,0.002678,0.000431,0.003761
126245000,0.0324,0.013523,0.002678,0.000431,0.003526
126246000,0.0324,0.013523,0.002678,0.000431,0.003526
126247000,0.0324,0.013523,0.002678,0.000431,0.003173
126248000,0.0324,0.013523,0.002678,0.000431,0.003643
126249000,0.0324,0.013523,0.002678,0.000431,0.003526
126250000,0.0324,0.013523,0.002678,0.000431,0.003408
126251000,0.0324,0.013523,0.002678,0.000431,0.003526
126252000,0.0324,0.013523,0.002678,0.000431,0.003408
126253000,0.0324,0.013523,0.002678,0.000431,0.003526
126254000,0.0324,0.013523,0.002678,0.000431,0.003408
126255000,0.0324,0.013523,0.002678,0.000431,0.003408
126256000,0.0324,0.013523,0.002678,0.000431,0.003761
126257000,0.0324,0.013523,0.002678,0.000431,0.003173
126258000,0.0324,0.013523,0.002678,0.000431,0.003643
126259000,0.0324,0.013523,0.002678,0.000431,0.003526
126260000,0.0324,0.013523,0.002678,0.000431,0.003526
126261000,0.0324,0.013523,0.002678,0.000431,0.003173
126262000,0.0324,0.013523,0.002678,0.000431,0.003526
126263000,0.0324,0.013523,0.002678,0.000431,0.003643
126264000,0.0324,0.013523,0.002678,0.000431,0.003408
126265000,0.0324,0.013523,0.002678,0.000431,0.005054
126266000,0.0324,0.013523,0.002678,0.000431,0.002468
126267000,0.0324,0.013523,0.002678,0.000431,0.002586
126268000,0.0324,0.013523,0.002678,0.000431,0.002586
126269000,0.0324,0.013523,0.002678,0.000431,0.002586
126270000,0.0324,0.013523,0.002678,0.000431,0.002468
126271000,0.0324,0.013523,0.002678,0.000431,0.002703
126272000,0.0324,0.013523,0.002678,0.000431,0.002468
126273000,0.0324,0.013523,0.002678,0.000431,0.002703
126274000,0.0324,0.013523,0.002678,0.000431,0.002586
126275000,0.0324,0.013523,0.002678,0.000431,0.002703
126276000,0.0324,0.013523,0.002678,0.000431,0.002468
126277000,0.0324,0.013523,0.002678,0.000431,0.002468
126278000,0.0324,0.013523,0.002678,0.000431,0.004819
126279000,0.0324,0.013523,0.002678,0.000431,0.001998
126280000,0.0324,0.013523,0.002678,0.000431,0.004466
126281000,0.0324,0.013523,0.002678,0.000431,0.000940
126282000,0.0324,0.013523,0.002678,0.000431,0.000823
126283000,0.0324,0.013523,0.002678,0.000431,0.000940
126284000,0.0324,0.013523,0.002678,0.000431,0.000823
126285000,0.0324,0.013523,0.002678,0.000431,0.000940
126286000,0.0324,0.013523,0.002678,0.000431,0.000823
126287000,0.0324,0.013523,0.002678,0.000431,0.000940
126288000,0.0324,0.013523,0.002678,0.000431,0.000823
126289000,0.0324,0.013523,0.002678,0.000431,0.000823
126290000,0.0324,0.013523,0.002678,0.000431,0.000940
126291000,0.0324,0.013523,0.002678,0.000431,0.000940
126292000,0.0324,0.013523,0.002678,0.000431,0.000940
126293000,0.0324,0.013523,0.002678,0.000431,0.013516
126294000,0.0324,0.013523,0.002678,0.000431,0.472228
126295000,0.0324,0.013523,0.002678,0.000431,0.595750
126296000,0.0324,0.013523,0.002678,0.000431,0.132572
126297000,0.0324,0.013523,0.002678,0.000431,0.132689
126298000,0.0324,0.013523,0.002678,0.000431,0.451308
126299000,0.0324,0.013523,0.002678,0.000431,0.388548
126300000,0.0324,0.013523,0.002678,0.000431,0.225066
126301000,0.0324,0.013523,0.002678,0.000431,0.282538
126302000,0.0324,0.013523,0.002678,0.000431,0.159838
126303000,0.0324,0.013523,0.002678,0.000431,0.144795
126304000,0.0324,0.013523,0.002678,0.000431,0.158546
126305000,0.0324,0.013523,0.002678,0.000431,0.154550
126306000,0.0324,0.013523,0.002678,0.000431,0.453071
126307000,0.0324,0.013523,0.002678,0.000431,0.060409
126308000,0.0324,0.013523,0.002678,0.000431,0.043485
126309000,0.0324,0.013523,0.002678,0.000431,0.038902
126310000,0.0324,0.013523,0.002678,0.000431,0.034436
126311000,0.0324,0.013523,0.002678,0.000431,0.020802
126312000,0.0324,0.013523,0.002678,0.000431,0.023741
126313000,0.0324,0.013523,0.002678,0.000431,0.019157
126314000,0.0324,0.013523,0.002678,0.000431,0.015044
126315000,0.0324,0.013523,0.002678,0.000431,0.018099
126316000,0.0324,0.013523,0.002678,0.000431,0.012105
126317000,0.0324,0.013523,0.002678,0.000431,0.012928
126318000,0.0324,0.013523,0.002678,0.000431,0.015984
126319000,0.0324,0.013523,0.002678,0.000431,0.011400
126320000,0.0324,0.013523,0.002678,0.000431,0.012576
126321000,0.0324,0.013523,0.002678,0.000431,0.008815
126322000,0.0324,0.013523,0.002678,0.000431,0.010107
126323000,0.0324,0.013523,0.002678,0.000431,0.007757
126324000,0.0324,0.013523,0.002678,0.000431,0.008580
126325000,0.0324,0.013523,0.002678,0.000431,0.008462
126326000,0.0324,0.013523,0.002678,0.000431,0.005641
126327000,0.0324,0.013523,0.002678,0.000431,0.005876
126328000,0.0324,0.013523,0.002678,0.000431,0.004819
126329000,0.0324,0.013523,0.002678,0.000431,0.005641
126330000,0.0324,0.013523,0.002678,0.000431,0.005406
126331000,0.0324,0.013523,0.002678,0.000431,0.005524
126332000,0.0324,0.013523,0.002678,0.000431,0.005994
126333000,0.0324,0.013523,0.002678,0.000431,0.008697
126334000,0.0324,0.013523,0.002678,0.000431,0.004819
126335000,0.0324,0.013523,0.002678,0.000431,0.005289
126336000,0.0324,0.013523,0.002678,0.000431,0.003996
126337000,0.0324,0.013523,0.002678,0.000431,0.005054
126338000,0.0324,0.013523,0.002678,0.000431,0.005641
126339000,0.0324,0.013523,0.002678,0.000431,0.005406
126340000,0.0324,0.013523,0.002678,0.000431,0.004466
126341000,0.0324,0.013523,0.002678,0.000431,0.002938
126342000,0.0324,0.013523,0.002678,0.000431,0.004349
126343000,0.0324,0.013523,0.002678,0.000431,0.003408
126344000,0.0324,0.013523,0.002678,0.000431,0.003173
126345000,0.0324,0.013523,0.002678,0.000431,0.003291
126346000,0.0324,0.013523,0.002678,0.000431,0.002938
126347000,0.0324,0.013523,0.002678,0.000431,0.003526
126348000,0.0324,0.013523,0.002678,0.000431,0.003056
126349000,0.0324,0.013523,0.002678,0.000431,0.003056
126350000,0.0324,0.013523,0.002678,0.000431,0.003291
126351000,0.0324,0.013523,0.002678,0.000431,0.002938
126352000,0.0324,0.013523,0.002678,0.000431,0.003291
126353000,0.0324,0.013523,0.002678,0.000431,0.003408
126354000,0.0324,0.013523,0.002678,0.000431,0.002703
126355000,0.0324,0.013523,0.002678,0.000431,0.003408
126356000,0.0324,0.013523,0.002678,0.000431,0.003173
126357000,0.0324,0.013523,0.002678,0.000431,0.002938
126358000,0.0324,0.013523,0.002678,0.000431,0.003643
126359000,0.0324,0.013523,0.002678,0.000431,0.003878
126360000,0.0324,0.013523,0.002678,0.000431,0.004349
126361000,0.0324,0.013523,0.002678,0.000431,0.073925
126362000,0.0324,0.013523,0.002678,0.000431,0.465647
126363000,0.0324,0.013523,0.002678,0.000431,0.596691
126364000,0.0324,0.013523,0.002678,0.000431,0.131632
126365000,0.0324,0.013523,0.002678,0.000431,0.133982
126366000,0.0324,0.013523,0.002678,0.000431,0.550149
126367000,0.0324,0.013523,0.002678,0.000431,0.232118
126368000,0.0324,0.013523,0.002678,0.000431,0.284653
126369000,0.0324,0.013523,0.002678,0.000431,0.317209
126370000,0.0324,0.013523,0.002678,0.000431,0.142209
126371000,0.0324,0.013523,0.002678,0.000431,0.138801
126372000,0.0324,0.013523,0.002678,0.000431,0.122817
126373000,0.0324,0.013523,0.002678,0.000431,0.308511
126374000,0.0324,0.013523,0.002678,0.000431,0.280187
126375000,0.0324,0.013523,0.002678,0.000431,0.031027
126376000,0.0324,0.013523,0.002678,0.000431,0.023388
126377000,0.0324,0.013523,0.002678,0.000431,0.022095
126378000,0.0324,0.013523,0.002678,0.000431,0.020097
126379000,0.0324,0.013523,0.002678,0.000431,0.017042
126380000,0.0324,0.013523,0.002678,0.000431,0.017277
126381000,0.0324,0.013523,0.002678,0.000431,0.017159
126382000,0.0324,0.013523,0.002678,0.000431,0.009167
126383000,0.0324,0.013523,0.002678,0.000431,0.008227
126384000,0.0324,0.013523,0.002678,0.000431,0.010460
126385000,0.0324,0.013523,0.002678,0.000431,0.007874
126386000,0.0324,0.013523,0.002678,0.000431,0.007404
126387000,0.0324,0.013523,0.002678,0.000431,0.008697
126388000,0.0324,0.013523,0.002678,0.000431,0.005994
126389000,0.0324,0.013523,0.002678,0.000431,0.006229
126390000,0.0324,0.013523,0.002678,0.000431,0.006111
126391000,0.0324,0.013523,0.002678,0.000431,0.006111
126392000,0.0324,0.013523,0.002678,0.000431,0.005524
126393000,0.0324,0.013523,0.002678,0.000431,0.006347
126394000,0.0324,0.013523,0.002678,0.000431,0.007639
126395000,0.0324,0.013523,0.002678,0.000431,0.005406
126396000,0.0324,0.013523,0.002678,0.000431,0.004936
126397000,0.0324,0.013523,0.002678,0.000431,0.005054
126398000,0.0324,0.013523,0.002678,0.000431,0.005641
126399000,0.0324,0.013523,0.002678,0.000431,0.005054
126400000,0.0324,0.013523,0.002678,0.000431,0.006347
126401000,0.0324,0.013523,0.002678,0.000431,0.004349
126402000,0.0324,0.013523,0.002678,0.000431,0.004466
126403000,0.0324,0.013523,0.002678,0.000431,0.004349
126404000,0.0324,0.013523,0.002678,0.000431,0.004231
126405000,0.0324,0.013523,0.002678,0.000431,0.004466
126406000,0.0324,0.013523,0.002678,0.000431,0.004349
126407000,0.0324,0.013523,0.002678,0.000431,0.004349
126408000,0.0324,0.013523,0.002678,0.000431,0.004231
126409000,0.0324,0.013523,0.002678,0.000431,0.004349
126410000,0.0324,0.013523,0.002678,0.000431,0.004466
126411000,0.0324,0.013523,0.002678,0.000431,0.004231
126412000,0.0324,0.013523,0.002678,0.000431,0.004466
126413000,0.0324,0.013523,0.002678,0.000431,0.004231
126414000,0.0324,0.013523,0.002678,0.000431,0.004466
126415000,0.0324,0.013523,0.002678,0.000431,0.004231
126416000,0.0324,0.013523,0.002678,0.000431,0.004349
126417000,0.0324,0.013523,0.002678,0.000431,0.004584
126418000,0.0324,0.013523,0.002678,0.000431,0.004349
126419000,0.0324,0.013523,0.002678,0.000431,0.004113
126420000,0.0324,0.013523,0.002678,0.000431,0.004349
126421000,0.0324,0.013523,0.002678,0.000431,0.004584
126422000,0.0324,0.013523,0.002678,0.000431,0.004231
126423000,0.0324,0.013523,0.002678,0.000431,0.004113
126424000,0.0324,0.013523,0.002678,0.000431,0.004584
126425000,0.0324,0.013523,0.002678,0.000431,0.004231
126426000,0.0324,0.013523,0.002678,0.000431,0.004584
126427000,0.0324,0.013523,0.002678,0.000431,0.003996
126428000,0.0324,0.013523,0.002678,0.000431,0.004466
126429000,0.0324,0.013523,0.002678,0.000431,0.004349
126430000,0.0324,0.013523,0.002678,0.000431,0.005641
126431000,0.0324,0.013523,0.002678,0.000431,0.003408
126432000,0.0324,0.013523,0.002678,0.000431,0.003291
126433000,0.0324,0.013523,0.002678,0.000431,0.005289
126434000,0.0324,0.013523,0.002678,0.000431,0.002351
126435000,0.0324,0.013523,0.002678,0.000431,0.003291
126436000,0.0324,0.013523,0.002678,0.000431,0.002938
126437000,0.0324,0.013523,0.002678,0.000431,0.001880
126438000,0.0324,0.013523,0.002678,0.000431,0.001528
126439000,0.0324,0.013523,0.002678,0.000431,0.001763
126440000,0.0324,0.013523,0.002678,0.000431,0.001880
126441000,0.0324,0.013523,0.002678,0.000431,0.001645
126442000,0.0324,0.013523,0.002678,0.000431,0.001763
126443000,0.0324,0.013523,0.002678,0.000431,0.001763
126444000,0.0324,0.013523,0.002678,0.000431,0.001880
126445000,0.0324,0.013523,0.002678,0.000431,0.001763
126446000,0.0324,0.013523,0.002678,0.000431,0.001528
126447000,0.0324,0.013523,0.002678,0.000431,0.001880
126448000,0.0324,0.013523,0.002678,0.000431,0.001763
126449000,0.0324,0.013523,0.002678,0.000431,0.001880
126450000,0.0324,0.013523,0.002678,0.000431,0.001528
126451000,0.0324,0.013523,0.002678,0.000431,0.001880
126452000,0.0324,0.013523,0.002678,0.000431,0.001763
126453000,0.0324,0.013523,0.002678,0.000431,0.001645
126454000,0.0324,0.013523,0.002678,0.000431,0.001763
126455000,0.0324,0.013523,0.002678,0.000431,0.001880
126456000,0.0324,0.013523,0.002678,0.000431,0.001645
126457000,0.0324,0.013523,0.002678,0.000431,0.003526
126458000,0.0324,0.013523,0.002678,0.000431,0.001058
126459000,0.0324,0.013523,0.002678,0.000431,0.000940
126460000,0.0324,0.013523,0.002678,0.000431,0.000823
126461000,0.0324,0.013523,0.002678,0.000431,0.000823
126462000,0.0324,0.013523,0.002678,0.000431,0.001763
126463000,0.0324,0.013523,0.002678,0.000431,0.332605
126464000,0.0324,0.013523,0.002678,0.000431,0.644525
126465000,0.0324,0.013523,0.002678,0.000431,0.182404
126466000,0.0324,0.013523,0.002678,0.000431,0.131867
126467000,0.0324,0.013523,0.002678,0.000431,0.132807
126468000,0.0324,0.013523,0.002678,0.000431,0.607621
126469000,0.0324,0.013523,0.002678,0.000431,0.224244
126470000,0.0324,0.013523,0.002678,0.000431,0.299697
126471000,0.0324,0.013523,0.002678,0.000431,0.276309
126472000,0.0324,0.013523,0.002678,0.000431,0.147968
126473000,0.0324,0.013523,0.002678,0.000431,0.170533
126474000,0.0324,0.013523,0.002678,0.000431,0.087088
126475000,0.0324,0.013523,0.002678,0.000431,0.457185
126476000,0.0324,0.013523,0.002678,0.000431,0.074395
126477000,0.0324,0.013523,0.002678,0.000431,0.023623
126478000,0.0324,0.013523,0.002678,0.000431,0.017394
126479000,0.0324,0.013523,0.002678,0.000431,0.017277
126480000,0.0324,0.013523,0.002678,0.000431,0.017629
126481000,0.0324,0.013523,0.002678,0.000431,0.009520
126482000,0.0324,0.013523,0.002678,0.000431,0.009050
126483000,0.0324,0.013523,0.002678,0.000431,0.009637
126484000,0.0324,0.013523,0.002678,0.000431,0.010695
126485000,0.0324,0.013523,0.002678,0.000431,0.009755
126486000,0.0324,0.013523,0.002678,0.000431,0.008932
126487000,0.0324,0.013523,0.002678,0.000431,0.007874
126488000,0.0324,0.013523,0.002678,0.000431,0.007639
126489000,0.0324,0.013523,0.002678,0.000431,0.007639
126490000,0.0324,0.013523,0.002678,0.000431,0.009402
126491000,0.0324,0.013523,0.002678,0.000431,0.007052
126492000,0.0324,0.013523,0.002678,0.000431,0.006699
126493000,0.0324,0.013523,0.002678,0.000431,0.006817
126494000,0.0324,0.013523,0.002678,0.000431,0.006817
126495000,0.0324,0.013523,0.002678,0.000431,0.006699
126496000,0.0324,0.013523,0.002678,0.000431,0.009167
126497000,0.0324,0.013523,0.002678,0.000431,0.007874
126498000,0.0324,0.013523,0.002678,0.000431,0.005054
126499000,0.0324,0.013523,0.002678,0.000431,0.005289
126500000,0.0324,0.013523,0.002678,0.000431,0.004936
126501000,0.0324,0.013523,0.002678,0.000431,0.004936
126502000,0.0324,0.013523,0.002678,0.000431,0.005054
126503000,0.0324,0.013523,0.002678,0.000431,0.006464
126504000,0.0324,0.013523,0.002678,0.000431,0.004936
126505000,0.0324,0.013523,0.002678,0.000431,0.004701
126506000,0.0324,0.013523,0.002678,0.000431,0.003173
126507000,0.0324,0.013523,0.002678,0.000431,0.003526
126508000,0.0324,0.013523,0.002678,0.000431,0.003643
126509000,0.0324,0.013523,0.002678,0.000431,0.003173
126510000,0.0324,0.013523,0.002678,0.000431,0.003408
126511000,0.0324,0.013523,0.002678,0.000431,0.003173
126512000,0.0324,0.013523,0.002678,0.000431,0.003761
126513000,0.0324,0.013523,0.002678,0.000431,0.003173
126514000,0.0324,0.013523,0.002678,0.000431,0.003173
126515000,0.0324,0.013523,0.002678,0.000431,0.003643
126516000,0.0324,0.013523,0.002678,0.000431,0.005171
126517000,0.0324,0.013523,0.002678,0.000431,0.002703
126518000,0.0324,0.013523,0.002678,0.000431,0.003056
126519000,0.0324,0.013523,0.002678,0.000431,0.002821
126520000,0.0324,0.013523,0.002678,0.000431,0.001763
126521000,0.0324,0.013523,0.002678,0.000431,0.001763
126522000,0.0324,0.013523,0.002678,0.000431,0.001528
126523000,0.0324,0.013523,0.002678,0.000431,0.001763
126524000,0.0324,0.013523,0.002678,0.000431,0.001645
126525000,0.0324,0.013523,0.002678,0.000431,0.001763
126526000,0.0324,0.013523,0.002678,0.000431,0.001763
126527000,0.0324,0.013523,0.002678,0.000431,0.001645
126528000,0.0324,0.013523,0.002678,0.000431,0.001880
126529000,0.0324,0.013523,0.002678,0.000431,0.001528
126530000,0.0324,0.013523,0.002678,0.000431,0.001763
126531000,0.0324,0.013523,0.002678,0.000431,0.001880
126532000,0.0324,0.013523,0.002678,0.000431,0.001410
126533000,0.0324,0.013523,0.002678,0.000431,0.001880
126534000,0.0324,0.013523,0.002678,0.000431,0.001528
126535000,0.0324,0.013523,0.002678,0.000431,0.001763
126536000,0.0324,0.013523,0.002678,0.000431,0.001763
126537000,0.0324,0.013523,0.002678,0.000431,0.001528
126538000,0.0324,0.013523,0.002678,0.000431,0.001763
126539000,0.0324,0.013523,0.002678,0.000431,0.001645
126540000,0.0324,0.013523,0.002678,0.000431,0.001763
126541000,0.0324,0.013523,0.002678,0.000431,0.001528
126542000,0.0324,0.013523,0.002678,0.000431,0.001763
126543000,0.0324,0.013523,0.002678,0.000431,0.001763
126544000,0.0324,0.013523,0.002678,0.000431,0.001763
126545000,0.0324,0.013523,0.002678,0.000431,0.001645
126546000,0.0324,0.013523,0.002678,0.000431,0.001645
126547000,0.0324,0.013523,0.002678,0.000431,0.001763
126548000,0.0324,0.013523,0.002678,0.000431,0.001763
126549000,0.0324,0.013523,0.002678,0.000431,0.001528
126550000,0.0324,0.013523,0.002678,0.000431,0.001763
126551000,0.0324,0.013523,0.002678,0.000431,0.001880
126552000,0.0324,0.013523,0.002678,0.000431,0.001763
126553000,0.0324,0.013523,0.002678,0.000431,0.001528
126554000,0.0324,0.013523,0.002678,0.000431,0.002703
126555000,0.0324,0.013523,0.002678,0.000431,0.000940
126556000,0.0324,0.013523,0.002678,0.000431,0.000940
126557000,0.0324,0.013523,0.002678,0.000431,0.000705
126558000,0.0324,0.013523,0.002678,0.000431,0.000940
126559000,0.0324,0.013523,0.002678,0.000431,0.000705
126560000,0.0324,0.013523,0.002678,0.000431,0.000940
126561000,0.0324,0.013523,0.002678,0.000431,0.000823
126562000,0.0324,0.013523,0.002678,0.000431,0.000823
126563000,0.0324,0.013523,0.002678,0.000431,0.000940
126564000,0.0324,0.013523,0.002678,0.000431,0.000705
126565000,0.0324,0.013523,0.002678,0.000431,0.000940
126566000,0.0324,0.013523,0.002678,0.000431,0.001763
126567000,0.0324,0.013523,0.002678,0.000431,0.339656
126568000,0.0324,0.013523,0.002678,0.000431,0.678020
126569000,0.0324,0.013523,0.002678,0.000431,0.144912
126570000,0.0324,0.013523,0.002678,0.000431,0.134452
126571000,0.0324,0.013523,0.002678,0.000431,0.140564
126572000,0.0324,0.013523,0.002678,0.000431,0.604330
126573000,0.0324,0.013523,0.002678,0.000431,0.261030
126574000,0.0324,0.013523,0.002678,0.000431,0.280422
126575000,0.0324,0.013523,0.002678,0.000431,0.229768
126576000,0.0324,0.013523,0.002678,0.000431,0.138331
126577000,0.0324,0.013523,0.002678,0.000431,0.183697
126578000,0.0324,0.013523,0.002678,0.000431,0.087206
126579000,0.0324,0.013523,0.002678,0.000431,0.462121
126580000,0.0324,0.013523,0.002678,0.000431,0.127283
126581000,0.0324,0.013523,0.002678,0.000431,0.071927
126582000,0.0324,0.013523,0.002678,0.000431,0.066051
126583000,0.0324,0.013523,0.002678,0.000431,0.056884
126584000,0.0324,0.013523,0.002678,0.000431,0.053123
126585000,0.0324,0.013523,0.002678,0.000431,0.043720
126586000,0.0324,0.013523,0.002678,0.000431,0.046894
126587000,0.0324,0.013523,0.002678,0.000431,0.039019
126588000,0.0324,0.013523,0.002678,0.000431,0.036551
126589000,0.0324,0.013523,0.002678,0.000431,0.028559
126590000,0.0324,0.013523,0.002678,0.000431,0.022800
126591000,0.0324,0.013523,0.002678,0.000431,0.017747
126592000,0.0324,0.013523,0.002678,0.000431,0.018099
126593000,0.0324,0.013523,0.002678,0.000431,0.020567
126594000,0.0324,0.013523,0.002678,0.000431,0.012340
126595000,0.0324,0.013523,0.002678,0.000431,0.016101
126596000,0.0324,0.013523,0.002678,0.000431,0.010460
126597000,0.0324,0.013523,0.002678,0.000431,0.009402
126598000,0.0324,0.013523,0.002678,0.000431,0.012340
126599000,0.0324,0.013523,0.002678,0.000431,0.006347
126600000,0.0324,0.013523,0.002678,0.000431,0.007052
126601000,0.0324,0.013523,0.002678,0.000431,0.006464
126602000,0.0324,0.013523,0.002678,0.000431,0.006934
126603000,0.0324,0.013523,0.002678,0.000431,0.006699
126604000,0.0324,0.013523,0.002678,0.000431,0.006699
126605000,0.0324,0.013523,0.002678,0.000431,0.008462
126606000,0.0324,0.013523,0.002678,0.000431,0.005524
126607000,0.0324,0.013523,0.002678,0.000431,0.006229
126608000,0.0324,0.013523,0.002678,0.000431,0.005994
126609000,0.0324,0.013523,0.002678,0.000431,0.006934
126610000,0.0324,0.013523,0.002678,0.000431,0.005054
126611000,0.0324,0.013523,0.002678,0.000431,0.004819
126612000,0.0324,0.013523,0.002678,0.000431,0.005406
126613000,0.0324,0.013523,0.002678,0.000431,0.004936
126614000,0.0324,0.013523,0.002678,0.000431,0.005171
126615000,0.0324,0.013523,0.002678,0.000431,0.005171
126616000,0.0324,0.013523,0.002678,0.000431,0.006464
126617000,0.0324,0.013523,0.002678,0.000431,0.004466
126618000,0.0324,0.013523,0.002678,0.000431,0.006817
126619000,0.0324,0.013523,0.002678,0.000431,0.003643
126620000,0.0324,0.013523,0.002678,0.000431,0.003526
126621000,0.0324,0.013523,0.002678,0.000431,0.003173
126622000,0.0324,0.013523,0.002678,0.000431,0.003526
126623000,0.0324,0.013523,0.002678,0.000431,0.003291
126624000,0.0324,0.013523,0.002678,0.000431,0.003643
126625000,0.0324,0.013523,0.002678,0.000431,0.003291
126626000,0.0324,0.013523,0.002678,0.000431,0.005054
126627000,0.0324,0.013523,0.002678,0.000431,0.004349
126628000,0.0324,0.013523,0.002678,0.000431,0.002468
126629000,0.0324,0.013523,0.002678,0.000431,0.002468
126630000,0.0324,0.013523,0.002678,0.000431,0.002586
126631000,0.0324,0.013523,0.002678,0.000431,0.002703
126632000,0.0324,0.013523,0.002678,0.000431,0.004584
126633000,0.0324,0.013523,0.002678,0.000431,0.001880
126634000,0.0324,0.013523,0.002678,0.000431,0.001645
126635000,0.0324,0.013523,0.002678,0.000431,0.001880
126636000,0.0324,0.013523,0.002678,0.000431,0.001880
126637000,0.0324,0.013523,0.002678,0.000431,0.004819
126638000,0.0324,0.013523,0.002678,0.000431,0.000940
126639000,0.0324,0.013523,0.002678,0.000431,0.000705
126640000,0.0324,0.013523,0.002678,0.000431,0.000940
126641000,0.0324,0.013523,0.002678,0.000431,0.000823
126642000,0.0324,0.013523,0.002678,0.000431,0.000823
126643000,0.0324,0.013523,0.002678,0.000431,0.000823
126644000,0.0324,0.013523,0.002678,0.000431,0.000823
126645000,0.0324,0.013523,0.002678,0.000431,0.000940
126646000,0.0324,0.013523,0.002678,0.000431,0.000705
126647000,0.0324,0.013523,0.002678,0.000431,0.000940
126648000,0.0324,0.013523,0.002678,0.000431,0.000823
126649000,0.0324,0.013523,0.002678,0.000431,0.000705
126650000,0.0324,0.013523,0.002678,0.000431,0.000940
126651000,0.0324,0.013523,0.002678,0.000431,0.000823
126652000,0.0324,0.013523,0.002678,0.000431,0.000823
126653000,0.0324,0.013523,0.002678,0.000431,0.000823
126654000,0.0324,0.013523,0.002678,0.000431,0.000823
126655000,0.0324,0.013523,0.002678,0.000431,0.000823
126656000,0.0324,0.013523,0.002678,0.000431,0.000940
126657000,0.0324,0.013523,0.002678,0.000431,0.000823
126658000,0.0324,0.013523,0.002678,0.000431,0.000823
126659000,0.0324,0.013523,0.002678,0.000431,0.000705
126660000,0.0324,0.013523,0.002678,0.000431,0.000940
126661000,0.0324,0.013523,0.002678,0.000431,0.000940
126662000,0.0324,0.013523,0.002678,0.000431,0.000705
126663000,0.0324,0.013523,0.002678,0.000431,0.000940
126664000,0.0324,0.013523,0.002678,0.000431,0.000705
126665000,0.0324,0.013523,0.002678,0.000431,0.000940
126666000,0.0324,0.013523,0.002678,0.000431,0.000823
126667000,0.0324,0.013523,0.002678,0.000431,0.000823
126668000,0.0324,0.013523,0.002678,0.000431,0.000940
126669000,0.0324,0.013523,0.002678,0.000431,0.000705
126670000,0.0324,0.013523,0.002678,0.000431,0.000940
126671000,0.0324,0.013523,0.002678,0.000431,0.000823
126672000,0.0324,0.013523,0.002678,0.000431,0.000823
126673000,0.0324,0.013523,0.002678,0.000431,0.000823
126674000,0.0324,0.013523,0.002678,0.000431,0.000823
126675000,0.0324,0.013523,0.002678,0.000431,0.000823
126676000,0.0324,0.013523,0.002678,0.000431,0.000823
126677000,0.0324,0.013523,0.002678,0.000431,0.000940
126678000,0.0324,0.013523,0.002678,0.000431,0.000705
126679000,0.0324,0.013523,0.002678,0.000431,0.000940
126680000,0.0324,0.013523,0.002678,0.000431,0.000823
126681000,0.0324,0.013523,0.002678,0.000431,0.000823
126682000,0.0324,0.013523,0.002678,0.000431,0.000823
126683000,0.0324,0.013523,0.002678,0.000431,0.000823
126684000,0.0324,0.013523,0.002678,0.000431,0.000940
126685000,0.0324,0.013523,0.002678,0.000431,0.000705
126686000,0.0324,0.013523,0.002678,0.000431,0.000940
126687000,0.0324,0.013523,0.002678,0.000431,0.000705
126688000,0.0324,0.013523,0.002678,0.000431,0.000940
126689000,0.0324,0.013523,0.002678,0.000431,0.000940
126690000,0.0324,0.013523,0.002678,0.000431,0.000705
126691000,0.0324,0.013523,0.002678,0.000431,0.000940
126692000,0.0324,0.013523,0.002678,0.000431,0.000705
126693000,0.0324,0.013523,0.002678,0.000431,0.000940
126694000,0.0324,0.013523,0.002678,0.000431,0.000823
126695000,0.0324,0.013523,0.002678,0.000431,0.000823
126696000,0.0324,0.013523,0.002678,0.000431,0.000823
126697000,0.0324,0.013523,0.002678,0.000431,0.000823
126698000,0.0324,0.013523,0.002678,0.000431,0.000940
126699000,0.0324,0.013523,0.002678,0.000431,0.000705
126700000,0.0324,0.013523,0.002678,0.000431,0.000940
126701000,0.0324,0.013523,0.002678,0.000431,0.000823
126702000,0.0324,0.013523,0.002678,0.000431,0.000823
126703000,0.0324,0.013523,0.002678,0.000431,0.002821
126704000,0.0324,0.013523,0.002678,0.000431,0.432386
126705000,0.0324,0.013523,0.002678,0.000431,0.672026
126706000,0.0324,0.013523,0.002678,0.000431,0.132102
126707000,0.0324,0.013523,0.002678,0.000431,0.133512
126708000,0.0324,0.013523,0.002678,0.000431,0.195802
126709000,0.0324,0.013523,0.002678,0.000431,0.554263
126710000,0.0324,0.013523,0.002678,0.000431,0.279952
126711000,0.0324,0.013523,0.002678,0.000431,0.280892
126712000,0.0324,0.013523,0.002678,0.000431,0.208495
126713000,0.0324,0.013523,0.002678,0.000431,0.149496
126714000,0.0324,0.013523,0.002678,0.000431,0.143384
126715000,0.0324,0.013523,0.002678,0.000431,0.177585
126716000,0.0324,0.013523,0.002678,0.000431,0.406648
126717000,0.0324,0.013523,0.002678,0.000431,0.031615
126718000,0.0324,0.013523,0.002678,0.000431,0.025739
126719000,0.0324,0.013523,0.002678,0.000431,0.025504
126720000,0.0324,0.013523,0.002678,0.000431,0.030792
126721000,0.0324,0.013523,0.002678,0.000431,0.020685
126722000,0.0324,0.013523,0.002678,0.000431,0.017277
126723000,0.0324,0.013523,0.002678,0.000431,0.014338
126724000,0.0324,0.013523,0.002678,0.000431,0.013633
126725000,0.0324,0.013523,0.002678,0.000431,0.015396
126726000,0.0324,0.013523,0.002678,0.000431,0.012928
126727000,0.0324,0.013523,0.002678,0.000431,0.010460
126728000,0.0324,0.013523,0.002678,0.000431,0.016454
126729000,0.0324,0.013523,0.002678,0.000431,0.009990
126730000,0.0324,0.013523,0.002678,0.000431,0.006111
126731000,0.0324,0.013523,0.002678,0.000431,0.006582
126732000,0.0324,0.013523,0.002678,0.000431,0.006817
126733000,0.0324,0.013523,0.002678,0.000431,0.005759
126734000,0.0324,0.013523,0.002678,0.000431,0.006111
126735000,0.0324,0.013523,0.002678,0.000431,0.008227
126736000,0.0324,0.013523,0.002678,0.000431,0.004936
126737000,0.0324,0.013523,0.002678,0.000431,0.004701
126738000,0.0324,0.013523,0.002678,0.000431,0.005054
126739000,0.0324,0.013523,0.002678,0.000431,0.004936
126740000,0.0324,0.013523,0.002678,0.000431,0.004819
126741000,0.0324,0.013523,0.002678,0.000431,0.005171
126742000,0.0324,0.013523,0.002678,0.000431,0.004701
126743000,0.0324,0.013523,0.002678,0.000431,0.004936
126744000,0.0324,0.013523,0.002678,0.000431,0.005054
126745000,0.0324,0.013523,0.002678,0.000431,0.004701
126746000,0.0324,0.013523,0.002678,0.000431,0.005171
126747000,0.0324,0.013523,0.002678,0.000431,0.004936
126748000,0.0324,0.013523,0.002678,0.000431,0.004819
126749000,0.0324,0.013523,0.002678,0.000431,0.005054
126750000,0.0324,0.013523,0.002678,0.000431,0.007169
126751000,0.0324,0.013523,0.002678,0.000431,0.004113
126752000,0.0324,0.013523,0.002678,0.000431,0.003996
126753000,0.0324,0.013523,0.002678,0.000431,0.003526
126754000,0.0324,0.013523,0.002678,0.000431,0.003408
126755000,0.0324,0.013523,0.002678,0.000431,0.003408
126756000,0.0324,0.013523,0.002678,0.000431,0.004819
126757000,0.0324,0.013523,0.002678,0.000431,0.002703
126758000,0.0324,0.013523,0.002678,0.000431,0.002468
126759000,0.0324,0.013523,0.002678,0.000431,0.002468
126760000,0.0324,0.013523,0.002678,0.000431,0.002703
126761000,0.0324,0.013523,0.002678,0.000431,0.002821
126762000,0.0324,0.013523,0.002678,0.000431,0.003996
126763000,0.0324,0.013523,0.002678,0.000431,0.003526
126764000,0.0324,0.013523,0.002678,0.000431,0.000940
126765000,0.0324,0.013523,0.002678,0.000431,0.000940
126766000,0.0324,0.013523,0.002678,0.000431,0.000823
126767000,0.0324,0.013523,0.002678,0.000431,0.000823
126768000,0.0324,0.013523,0.002678,0.000431,0.000940
126769000,0.0324,0.013523,0.002678,0.000431,0.000940
126770000,0.0324,0.013523,0.002678,0.000431,0.000823
126771000,0.0324,0.013523,0.002678,0.000431,0.000823
126772000,0.0324,0.013523,0.002678,0.000431,0.000940
126773000,0.0324,0.013523,0.002678,0.000431,0.000823
126774000,0.0324,0.013523,0.002678,0.000431,0.000940
126775000,0.0324,0.013523,0.002678,0.000431,0.000823
126776000,0.0324,0.013523,0.002678,0.000431,0.000940
126777000,0.0324,0.013523,0.002678,0.000431,0.000823
126778000,0.0324,0.013523,0.002678,0.000431,0.000823
126779000,0.0324,0.013523,0.002678,0.000431,0.000940
126780000,0.0324,0.013523,0.002678,0.000431,0.000940
126781000,0.0324,0.013523,0.002678,0.000431,0.000823
126782000,0.0324,0.013523,0.002678,0.000431,0.000823
126783000,0.0324,0.013523,0.002678,0.000431,0.000940
126784000,0.0324,0.013523,0.002678,0.000431,0.000940
126785000,0.0324,0.013523,0.002678,0.000431,0.000705
126786000,0.0324,0.013523,0.002678,0.000431,0.000940
126787000,0.0324,0.013523,0.002678,0.000431,0.000940
126788000,0.0324,0.013523,0.002678,0.000431,0.000940
126789000,0.0324,0.013523,0.002678,0.000431,0.000823
126790000,0.0324,0.013523,0.002678,0.000431,0.000823
126791000,0.0324,0.013523,0.002678,0.000431,0.000940
126792000,0.0324,0.013523,0.002678,0.000431,0.000823
126793000,0.0324,0.013523,0.002678,0.000431,0.000940
126794000,0.0324,0.013523,0.002678,0.000431,0.000823
126795000,0.0324,0.013523,0.002678,0.000431,0.000940
126796000,0.0324,0.013523,0.002678,0.000431,0.000823
126797000,0.0324,0.013523,0.002678,0.000431,0.000823
126798000,0.0324,0.013523,0.002678,0.000431,0.000940
126799000,0.0324,0.013523,0.002678,0.000431,0.000940
126800000,0.0324,0.013523,0.002678,0.000431,0.000705
126801000,0.0324,0.013523,0.002678,0.000431,0.000940
126802000,0.0324,0.013523,0.002678,0.000431,0.000940
126803000,0.0324,0.013523,0.002678,0.000431,0.000940
126804000,0.0324,0.013523,0.002678,0.000431,0.000705
126805000,0.0324,0.013523,0.002678,0.000431,0.000940
126806000,0.0324,0.013523,0.002678,0.000431,0.000940
126807000,0.0324,0.013523,0.002678,0.000431,0.000823
126808000,0.0324,0.013523,0.002678,0.000431,0.000823
126809000,0.0324,0.013523,0.002678,0.000431,0.000940
126810000,0.0324,0.013523,0.002678,0.000431,0.000940
126811000,0.0324,0.013523,0.002678,0.000431,0.000823
126812000,0.0324,0.013523,0.002678,0.000431,0.000823
126813000,0.0324,0.013523,0.002678,0.000431,0.000940
126814000,0.0324,0.013523,0.002678,0.000431,0.000823
126815000,0.0324,0.013523,0.002678,0.000431,0.000940
126816000,0.0324,0.013523,0.002678,0.000431,0.000823
126817000,0.0324,0.013523,0.002678,0.000431,0.000940
126818000,0.0324,0.013523,0.002678,0.000431,0.000823
126819000,0.0324,0.013523,0.002678,0.000431,0.000823
126820000,0.0324,0.013523,0.002678,0.000431,0.000940
126821000,0.0324,0.013523,0.002678,0.000431,0.000940
126822000,0.0324,0.013523,0.002678,0.000431,0.000940
126823000,0.0324,0.013523,0.002678,0.000431,0.000705
126824000,0.0324,0.013523,0.002678,0.000431,0.000940
126825000,0.0324,0.013523,0.002678,0.000431,0.000940
126826000,0.0324,0.013523,0.002678,0.000431,0.000823
126827000,0.0324,0.013523,0.002678,0.000431,0.000823
126828000,0.0324,0.013523,0.002678,0.000431,0.000940
126829000,0.0324,0.013523,0.002678,0.000431,0.000940
126830000,0.0324,0.013523,0.002678,0.000431,0.000823
126831000,0.0324,0.013523,0.002678,0.000431,0.000823
126832000,0.0324,0.013523,0.002678,0.000431,0.000940
126833000,0.0324,0.013523,0.002678,0.000431,0.000823
126834000,0.0324,0.013523,0.002678,0.000431,0.000940
126835000,0.0324,0.013523,0.002678,0.000431,0.000823
126836000,0.0324,0.013523,0.002678,0.000431,0.000940
126837000,0.0324,0.013523,0.002678,0.000431,0.000823
126838000,0.0324,0.013523,0.002678,0.000431,0.000823
126839000,0.0324,0.013523,0.002678,0.000431,0.000940
126840000,0.0324,0.013523,0.002678,0.000431,0.000940
126841000,0.0324,0.013523,0.002678,0.000431,0.000823
126842000,0.0324,0.013523,0.002678,0.000431,0.000823
126843000,0.0324,0.013523,0.002678,0.000431,0.000940
126844000,0.0324,0.013523,0.002678,0.000431,0.000940
126845000,0.0324,0.013523,0.002678,0.000431,0.000705
126846000,0.0324,0.013523,0.002678,0.000431,0.000940
126847000,0.0324,0.013523,0.002678,0.000431,0.000940
126848000,0.0324,0.013523,0.002678,0.000431,0.000823
126849000,0.0324,0.013523,0.002678,0.000431,0.000940
126850000,0.0324,0.013523,0.002678,0.000431,0.000823
126851000,0.0324,0.013523,0.002678,0.000431,0.000940
126852000,0.0324,0.013523,0.002678,0.000431,0.000823
126853000,0.0324,0.013523,0.002678,0.000431,0.000823
126854000,0.0324,0.013523,0.002678,0.000431,0.000940
126855000,0.0324,0.013523,0.002678,0.000431,0.000940
126856000,0.0324,0.013523,0.002678,0.000431,0.000823
126857000,0.0324,0.013523,0.002678,0.000431,0.000823
126858000,0.0324,0.013523,0.002678,0.000431,0.000940
126859000,0.0324,0.013523,0.002678,0.000431,0.000940
126860000,0.0324,0.013523,0.002678,0.000431,0.000705
126861000,0.0324,0.013523,0.002678,0.000431,0.000940
126862000,0.0324,0.013523,0.002678,0.000431,0.000940
126863000,0.0324,0.013523,0.002678,0.000431,0.000940
126864000,0.0324,0.013523,0.002678,0.000431,0.000705
126865000,0.0324,0.013523,0.002678,0.000431,0.000940
126866000,0.0324,0.013523,0.002678,0.000431,0.000940
126867000,0.0324,0.013523,0.002678,0.000431,0.000823
126868000,0.0324,0.013523,0.002678,0.000431,0.000823
126869000,0.0324,0.013523,0.002678,0.000431,0.000940
126870000,0.0324,0.013523,0.002678,0.000431,0.000940
126871000,0.0324,0.013523,0.002678,0.000431,0.000823
126872000,0.0324,0.013523,0.002678,0.000431,0.000823
126873000,0.0324,0.013523,0.002678,0.000431,0.000940
126874000,0.0324,0.013523,0.002678,0.000431,0.000823
126875000,0.0324,0.013523,0.002678,0.000431,0.000940
126876000,0.0324,0.013523,0.002678,0.000431,0.000823
126877000,0.0324,0.013523,0.002678,0.000431,0.000940
126878000,0.0324,0.013523,0.002678,0.000431,0.000823
126879000,0.0324,0.013523,0.002678,0.000431,0.000823
126880000,0.0324,0.013523,0.002678,0.000431,0.187222
126881000,0.0324,0.013523,0.002678,0.000431,0.525704
126882000,0.0324,0.013523,0.002678,0.000431,0.415932
126883000,0.0324,0.013523,0.002678,0.000431,0.132102
126884000,0.0324,0.013523,0.002678,0.000431,0.132102
126885000,0.0324,0.013523,0.002678,0.000431,0.554028
126886000,0.0324,0.013523,0.002678,0.000431,0.247279
126887000,0.0324,0.013523,0.002678,0.000431,0.229297
126888000,0.0324,0.013523,0.002678,0.000431,0.310745
126889000,0.0324,0.013523,0.002678,0.000431,0.138918
126890000,0.0324,0.013523,0.002678,0.000431,0.139741
126891000,0.0324,0.013523,0.002678,0.000431,0.150906
126892000,0.0324,0.013523,0.002678,0.000431,0.196390
126893000,0.0324,0.013523,0.002678,0.000431,0.383377
126894000,0.0324,0.013523,0.002678,0.000431,0.010342
126895000,0.0324,0.013523,0.002678,0.000431,0.005524
126896000,0.0324,0.013523,0.002678,0.000431,0.005759
126897000,0.0324,0.013523,0.002678,0.000431,0.005524
126898000,0.0324,0.013523,0.002678,0.000431,0.006111
126899000,0.0324,0.013523,0.002678,0.000431,0.004349
126900000,0.0324,0.013523,0.002678,0.000431,0.004113
126901000,0.0324,0.013523,0.002678,0.000431,0.004113
126902000,0.0324,0.013523,0.002678,0.000431,0.004466
126903000,0.0324,0.013523,0.002678,0.000431,0.003996
126904000,0.0324,0.013523,0.002678,0.000431,0.004466
126905000,0.0324,0.013523,0.002678,0.000431,0.003643
126906000,0.0324,0.013523,0.002678,0.000431,0.004701
126907000,0.0324,0.013523,0.002678,0.000431,0.003996
126908000,0.0324,0.013523,0.002678,0.000431,0.001645
126909000,0.0324,0.013523,0.002678,0.000431,0.001645
126910000,0.0324,0.013523,0.002678,0.000431,0.001763
126911000,0.0324,0.013523,0.002678,0.000431,0.001528
126912000,0.0324,0.013523,0.002678,0.000431,0.001880
126913000,0.0324,0.013523,0.002678,0.000431,0.001528
126914000,0.0324,0.013523,0.002678,0.000431,0.001763
126915000,0.0324,0.013523,0.002678,0.000431,0.001645
126916000,0.0324,0.013523,0.002678,0.000431,0.001645
126917000,0.0324,0.013523,0.002678,0.000431,0.001763
126918000,0.0324,0.013523,0.002678,0.000431,0.001528
126919000,0.0324,0.013523,0.002678,0.000431,0.001880
126920000,0.0324,0.013523,0.002678,0.000431,0.001528
126921000,0.0324,0.013523,0.002678,0.000431,0.001763
126922000,0.0324,0.013523,0.002678,0.000431,0.001645
126923000,0.0324,0.013523,0.002678,0.000431,0.001645
126924000,0.0324,0.013523,0.002678,0.000431,0.001645
126925000,0.0324,0.013523,0.002678,0.000431,0.001645
126926000,0.0324,0.013523,0.002678,0.000431,0.001763
126927000,0.0324,0.013523,0.002678,0.000431,0.001528
126928000,0.0324,0.013523,0.002678,0.000431,0.001763
126929000,0.0324,0.013523,0.002678,0.000431,0.001528
126930000,0.0324,0.013523,0.002678,0.000431,0.001880
126931000,0.0324,0.013523,0.002678,0.000431,0.001645
126932000,0.0324,0.013523,0.002678,0.000431,0.001645
126933000,0.0324,0.013523,0.002678,0.000431,0.001763
126934000,0.0324,0.013523,0.002678,0.000431,0.001528
126935000,0.0324,0.013523,0.002678,0.000431,0.001763
126936000,0.0324,0.013523,0.002678,0.000431,0.003056
126937000,0.0324,0.013523,0.002678,0.000431,0.000823
126938000,0.0324,0.013523,0.002678,0.000431,0.000823
126939000,0.0324,0.013523,0.002678,0.000431,0.000823
126940000,0.0324,0.013523,0.002678,0.000431,0.000940
126941000,0.0324,0.013523,0.002678,0.000431,0.000823
126942000,0.0324,0.013523,0.002678,0.000431,0.000823
126943000,0.0324,0.013523,0.002678,0.000431,0.000823
126944000,0.0324,0.013523,0.002678,0.000431,0.000705
126945000,0.0324,0.013523,0.002678,0.000431,0.000940
126946000,0.0324,0.013523,0.002678,0.000431,0.000940
126947000,0.0324,0.013523,0.002678,0.000431,0.000705
126948000,0.0324,0.013523,0.002678,0.000431,0.000940
126949000,0.0324,0.013523,0.002678,0.000431,0.000705
126950000,0.0324,0.013523,0.002678,0.000431,0.000940
126951000,0.0324,0.013523,0.002678,0.000431,0.000823
126952000,0.0324,0.013523,0.002678,0.000431,0.000823
126953000,0.0324,0.013523,0.002678,0.000431,0.000940
126954000,0.0324,0.013523,0.002678,0.000431,0.000705
126955000,0.0324,0.013523,0.002678,0.000431,0.000940
126956000,0.0324,0.013523,0.002678,0.000431,0.000823
126957000,0.0324,0.013523,0.002678,0.000431,0.000823
126958000,0.0324,0.013523,0.002678,0.000431,0.000823
126959000,0.0324,0.013523,0.002678,0.000431,0.001645
126960000,0.0324,0.013523,0.002678,0.000431,0.318031
126961000,0.0324,0.013523,0.002678,0.000431,0.675787
126962000,0.0324,0.013523,0.002678,0.000431,0.138448
126963000,0.0324,0.013523,0.002678,0.000431,0.134452
126964000,0.0324,0.013523,0.002678,0.000431,0.130574
126965000,0.0324,0.013523,0.002678,0.000431,0.595985
126966000,0.0324,0.013523,0.002678,0.000431,0.218955
126967000,0.0324,0.013523,0.002678,0.000431,0.291470
126968000,0.0324,0.013523,0.002678,0.000431,0.235644
126969000,0.0324,0.013523,0.002678,0.000431,0.135628
126970000,0.0324,0.013523,0.002678,0.000431,0.143972
126971000,0.0324,0.013523,0.002678,0.000431,0.128693
126972000,0.0324,0.013523,0.002678,0.000431,0.277719
126973000,0.0324,0.013523,0.002678,0.000431,0.308747
126974000,0.0324,0.013523,0.002678,0.000431,0.032673
126975000,0.0324,0.013523,0.002678,0.000431,0.027737
126976000,0.0324,0.013523,0.002678,0.000431,0.027031
126977000,0.0324,0.013523,0.002678,0.000431,0.019510
126978000,0.0324,0.013523,0.002678,0.000431,0.014691
126979000,0.0324,0.013523,0.002678,0.000431,0.014338
126980000,0.0324,0.013523,0.002678,0.000431,0.007052
126981000,0.0324,0.013523,0.002678,0.000431,0.007757
126982000,0.0324,0.013523,0.002678,0.000431,0.007522
126983000,0.0324,0.013523,0.002678,0.000431,0.007287
126984000,0.0324,0.013523,0.002678,0.000431,0.008932
126985000,0.0324,0.013523,0.002678,0.000431,0.006464
126986000,0.0324,0.013523,0.002678,0.000431,0.006111
126987000,0.0324,0.013523,0.002678,0.000431,0.008462
126988000,0.0324,0.013523,0.002678,0.000431,0.004701
126989000,0.0324,0.013523,0.002678,0.000431,0.005289
126990000,0.0324,0.013523,0.002678,0.000431,0.006699
126991000,0.0324,0.013523,0.002678,0.000431,0.005641
126992000,0.0324,0.013523,0.002678,0.000431,0.001763
126993000,0.0324,0.013523,0.002678,0.000431,0.001763
126994000,0.0324,0.013523,0.002678,0.000431,0.003173
126995000,0.0324,0.013523,0.002678,0.000431,0.013868
126996000,0.0324,0.013523,0.002678,0.000431,0.444727
126997000,0.0324,0.013523,0.002678,0.000431,0.598218
126998000,0.0324,0.013523,0.002678,0.000431,0.133042
126999000,0.0324,0.013523,0.002678,0.000431,0.132572
