Cycle,Area(mm^2),PeakDynamic(W),SubthresholdLeakage(W),GateLeakage(W),RunTimeDynamic(W)
112000000,0.0324,0.013523,0.002678,0.000431,0.001763
112001000,0.0324,0.013523,0.002678,0.000431,0.001763
112002000,0.0324,0.013523,0.002678,0.000431,0.001528
112003000,0.0324,0.013523,0.002678,0.000431,0.001763
112004000,0.0324,0.013523,0.002678,0.000431,0.001528
112005000,0.0324,0.013523,0.002678,0.000431,0.001763
112006000,0.0324,0.013523,0.002678,0.000431,0.001763
112007000,0.0324,0.013523,0.002678,0.000431,0.001528
112008000,0.0324,0.013523,0.002678,0.000431,0.001880
112009000,0.0324,0.013523,0.002678,0.000431,0.001410
112010000,0.0324,0.013523,0.002678,0.000431,0.001880
112011000,0.0324,0.013523,0.002678,0.000431,0.001645
112012000,0.0324,0.013523,0.002678,0.000431,0.001645
112013000,0.0324,0.013523,0.002678,0.000431,0.001763
112014000,0.0324,0.013523,0.002678,0.000431,0.001528
112015000,0.0324,0.013523,0.002678,0.000431,0.001763
112016000,0.0324,0.013523,0.002678,0.000431,0.001645
112017000,0.0324,0.013523,0.002678,0.000431,0.001763
112018000,0.0324,0.013523,0.002678,0.000431,0.001528
112019000,0.0324,0.013523,0.002678,0.000431,0.001528
112020000,0.0324,0.013523,0.002678,0.000431,0.004113
112021000,0.0324,0.013523,0.002678,0.000431,0.000705
112022000,0.0324,0.013523,0.002678,0.000431,0.000940
112023000,0.0324,0.013523,0.002678,0.000431,0.000823
112024000,0.0324,0.013523,0.002678,0.000431,0.000823
112025000,0.0324,0.013523,0.002678,0.000431,0.000823
112026000,0.0324,0.013523,0.002678,0.000431,0.000823
112027000,0.0324,0.013523,0.002678,0.000431,0.000823
112028000,0.0324,0.013523,0.002678,0.000431,0.000823
112029000,0.0324,0.013523,0.002678,0.000431,0.000823
112030000,0.0324,0.013523,0.002678,0.000431,0.000823
112031000,0.0324,0.013523,0.002678,0.000431,0.000940
112032000,0.0324,0.013523,0.002678,0.000431,0.000823
112033000,0.0324,0.013523,0.002678,0.000431,0.000823
112034000,0.0324,0.013523,0.002678,0.000431,0.000705
112035000,0.0324,0.013523,0.002678,0.000431,0.000940
112036000,0.0324,0.013523,0.002678,0.000431,0.000940
112037000,0.0324,0.013523,0.002678,0.000431,0.000705
112038000,0.0324,0.013523,0.002678,0.000431,0.000940
112039000,0.0324,0.013523,0.002678,0.000431,0.000705
112040000,0.0324,0.013523,0.002678,0.000431,0.000940
112041000,0.0324,0.013523,0.002678,0.000431,0.000823
112042000,0.0324,0.013523,0.002678,0.000431,0.000823
112043000,0.0324,0.013523,0.002678,0.000431,0.000940
112044000,0.0324,0.013523,0.002678,0.000431,0.000705
112045000,0.0324,0.013523,0.002678,0.000431,0.000940
112046000,0.0324,0.013523,0.002678,0.000431,0.000823
112047000,0.0324,0.013523,0.002678,0.000431,0.000823
112048000,0.0324,0.013523,0.002678,0.000431,0.000823
112049000,0.0324,0.013523,0.002678,0.000431,0.000823
112050000,0.0324,0.013523,0.002678,0.000431,0.000823
112051000,0.0324,0.013523,0.002678,0.000431,0.000823
112052000,0.0324,0.013523,0.002678,0.000431,0.000940
112053000,0.0324,0.013523,0.002678,0.000431,0.000705
112054000,0.0324,0.013523,0.002678,0.000431,0.000940
112055000,0.0324,0.013523,0.002678,0.000431,0.000823
112056000,0.0324,0.013523,0.002678,0.000431,0.000823
112057000,0.0324,0.013523,0.002678,0.000431,0.000705
112058000,0.0324,0.013523,0.002678,0.000431,0.000940
112059000,0.0324,0.013523,0.002678,0.000431,0.000940
112060000,0.0324,0.013523,0.002678,0.000431,0.000705
112061000,0.0324,0.013523,0.002678,0.000431,0.000940
112062000,0.0324,0.013523,0.002678,0.000431,0.000705
112063000,0.0324,0.013523,0.002678,0.000431,0.000940
112064000,0.0324,0.013523,0.002678,0.000431,0.000823
112065000,0.0324,0.013523,0.002678,0.000431,0.000823
112066000,0.0324,0.013523,0.002678,0.000431,0.000940
112067000,0.0324,0.013523,0.002678,0.000431,0.000705
112068000,0.0324,0.013523,0.002678,0.000431,0.000940
112069000,0.0324,0.013523,0.002678,0.000431,0.000823
112070000,0.0324,0.013523,0.002678,0.000431,0.000823
112071000,0.0324,0.013523,0.002678,0.000431,0.000823
112072000,0.0324,0.013523,0.002678,0.000431,0.000823
112073000,0.0324,0.013523,0.002678,0.000431,0.000823
112074000,0.0324,0.013523,0.002678,0.000431,0.000823
112075000,0.0324,0.013523,0.002678,0.000431,0.000940
112076000,0.0324,0.013523,0.002678,0.000431,0.000823
112077000,0.0324,0.013523,0.002678,0.000431,0.000705
112078000,0.0324,0.013523,0.002678,0.000431,0.000940
112079000,0.0324,0.013523,0.002678,0.000431,0.000823
112080000,0.0324,0.013523,0.002678,0.000431,0.000823
112081000,0.0324,0.013523,0.002678,0.000431,0.000823
112082000,0.0324,0.013523,0.002678,0.000431,0.000705
112083000,0.0324,0.013523,0.002678,0.000431,0.000940
112084000,0.0324,0.013523,0.002678,0.000431,0.000940
112085000,0.0324,0.013523,0.002678,0.000431,0.000705
112086000,0.0324,0.013523,0.002678,0.000431,0.000940
112087000,0.0324,0.013523,0.002678,0.000431,0.000705
112088000,0.0324,0.013523,0.002678,0.000431,0.000940
112089000,0.0324,0.013523,0.002678,0.000431,0.000823
112090000,0.0324,0.013523,0.002678,0.000431,0.000823
112091000,0.0324,0.013523,0.002678,0.000431,0.000705
112092000,0.0324,0.013523,0.002678,0.000431,0.000940
112093000,0.0324,0.013523,0.002678,0.000431,0.000940
112094000,0.0324,0.013523,0.002678,0.000431,0.000705
112095000,0.0324,0.013523,0.002678,0.000431,0.000940
112096000,0.0324,0.013523,0.002678,0.000431,0.000705
112097000,0.0324,0.013523,0.002678,0.000431,0.000940
112098000,0.0324,0.013523,0.002678,0.000431,0.000823
112099000,0.0324,0.013523,0.002678,0.000431,0.000823
112100000,0.0324,0.013523,0.002678,0.000431,0.000823
112101000,0.0324,0.013523,0.002678,0.000431,0.000823
112102000,0.0324,0.013523,0.002678,0.000431,0.000940
112103000,0.0324,0.013523,0.002678,0.000431,0.000705
112104000,0.0324,0.013523,0.002678,0.000431,0.000940
112105000,0.0324,0.013523,0.002678,0.000431,0.000823
112106000,0.0324,0.013523,0.002678,0.000431,0.014809
112107000,0.0324,0.013523,0.002678,0.000431,0.539337
112108000,0.0324,0.013523,0.002678,0.000431,0.597043
112109000,0.0324,0.013523,0.002678,0.000431,0.134335
112110000,0.0324,0.013523,0.002678,0.000431,0.131161
112111000,0.0324,0.013523,0.002678,0.000431,0.501728
112112000,0.0324,0.013523,0.002678,0.000431,0.394542
112113000,0.0324,0.013523,0.002678,0.000431,0.243636
112114000,0.0324,0.013523,0.002678,0.000431,0.268317
112115000,0.0324,0.013523,0.002678,0.000431,0.138331
112116000,0.0324,0.013523,0.002678,0.000431,0.156665
112117000,0.0324,0.013523,0.002678,0.000431,0.102014
112118000,0.0324,0.013523,0.002678,0.000431,0.380321
112119000,0.0324,0.013523,0.002678,0.000431,0.168888
112120000,0.0324,0.013523,0.002678,0.000431,0.011283
112121000,0.0324,0.013523,0.002678,0.000431,0.009520
112122000,0.0324,0.013523,0.002678,0.000431,0.010225
112123000,0.0324,0.013523,0.002678,0.000431,0.010460
112124000,0.0324,0.013523,0.002678,0.000431,0.009872
112125000,0.0324,0.013523,0.002678,0.000431,0.007052
112126000,0.0324,0.013523,0.002678,0.000431,0.008227
112127000,0.0324,0.013523,0.002678,0.000431,0.006582
112128000,0.0324,0.013523,0.002678,0.000431,0.006347
112129000,0.0324,0.013523,0.002678,0.000431,0.004466
112130000,0.0324,0.013523,0.002678,0.000431,0.004936
112131000,0.0324,0.013523,0.002678,0.000431,0.004701
112132000,0.0324,0.013523,0.002678,0.000431,0.004231
112133000,0.0324,0.013523,0.002678,0.000431,0.004701
112134000,0.0324,0.013523,0.002678,0.000431,0.004819
112135000,0.0324,0.013523,0.002678,0.000431,0.004701
112136000,0.0324,0.013523,0.002678,0.000431,0.004701
112137000,0.0324,0.013523,0.002678,0.000431,0.004466
112138000,0.0324,0.013523,0.002678,0.000431,0.004701
112139000,0.0324,0.013523,0.002678,0.000431,0.005054
112140000,0.0324,0.013523,0.002678,0.000431,0.004466
112141000,0.0324,0.013523,0.002678,0.000431,0.004584
112142000,0.0324,0.013523,0.002678,0.000431,0.004819
112143000,0.0324,0.013523,0.002678,0.000431,0.004701
112144000,0.0324,0.013523,0.002678,0.000431,0.004936
112145000,0.0324,0.013523,0.002678,0.000431,0.004466
112146000,0.0324,0.013523,0.002678,0.000431,0.004701
112147000,0.0324,0.013523,0.002678,0.000431,0.004701
112148000,0.0324,0.013523,0.002678,0.000431,0.004819
112149000,0.0324,0.013523,0.002678,0.000431,0.004466
112150000,0.0324,0.013523,0.002678,0.000431,0.004701
112151000,0.0324,0.013523,0.002678,0.000431,0.005994
112152000,0.0324,0.013523,0.002678,0.000431,0.002703
112153000,0.0324,0.013523,0.002678,0.000431,0.003408
112154000,0.0324,0.013523,0.002678,0.000431,0.003291
112155000,0.0324,0.013523,0.002678,0.000431,0.003173
112156000,0.0324,0.013523,0.002678,0.000431,0.003056
112157000,0.0324,0.013523,0.002678,0.000431,0.003173
112158000,0.0324,0.013523,0.002678,0.000431,0.003408
112159000,0.0324,0.013523,0.002678,0.000431,0.003056
112160000,0.0324,0.013523,0.002678,0.000431,0.003056
112161000,0.0324,0.013523,0.002678,0.000431,0.003408
112162000,0.0324,0.013523,0.002678,0.000431,0.003056
112163000,0.0324,0.013523,0.002678,0.000431,0.003056
112164000,0.0324,0.013523,0.002678,0.000431,0.003526
112165000,0.0324,0.013523,0.002678,0.000431,0.003056
112166000,0.0324,0.013523,0.002678,0.000431,0.003291
112167000,0.0324,0.013523,0.002678,0.000431,0.003291
112168000,0.0324,0.013523,0.002678,0.000431,0.003056
112169000,0.0324,0.013523,0.002678,0.000431,0.003291
112170000,0.0324,0.013523,0.002678,0.000431,0.003056
112171000,0.0324,0.013523,0.002678,0.000431,0.003291
112172000,0.0324,0.013523,0.002678,0.000431,0.003173
112173000,0.0324,0.013523,0.002678,0.000431,0.003291
112174000,0.0324,0.013523,0.002678,0.000431,0.003056
112175000,0.0324,0.013523,0.002678,0.000431,0.003173
112176000,0.0324,0.013523,0.002678,0.000431,0.003056
112177000,0.0324,0.013523,0.002678,0.000431,0.003056
112178000,0.0324,0.013523,0.002678,0.000431,0.002703
112179000,0.0324,0.013523,0.002678,0.000431,0.002468
112180000,0.0324,0.013523,0.002678,0.000431,0.002586
112181000,0.0324,0.013523,0.002678,0.000431,0.002468
112182000,0.0324,0.013523,0.002678,0.000431,0.002586
112183000,0.0324,0.013523,0.002678,0.000431,0.002586
112184000,0.0324,0.013523,0.002678,0.000431,0.002586
112185000,0.0324,0.013523,0.002678,0.000431,0.002351
112186000,0.0324,0.013523,0.002678,0.000431,0.002586
112187000,0.0324,0.013523,0.002678,0.000431,0.002703
112188000,0.0324,0.013523,0.002678,0.000431,0.002468
112189000,0.0324,0.013523,0.002678,0.000431,0.002586
112190000,0.0324,0.013523,0.002678,0.000431,0.002351
112191000,0.0324,0.013523,0.002678,0.000431,0.002703
112192000,0.0324,0.013523,0.002678,0.000431,0.002703
112193000,0.0324,0.013523,0.002678,0.000431,0.002351
112194000,0.0324,0.013523,0.002678,0.000431,0.002703
112195000,0.0324,0.013523,0.002678,0.000431,0.002468
112196000,0.0324,0.013523,0.002678,0.000431,0.002586
112197000,0.0324,0.013523,0.002678,0.000431,0.002468
112198000,0.0324,0.013523,0.002678,0.000431,0.002703
112199000,0.0324,0.013523,0.002678,0.000431,0.002586
112200000,0.0324,0.013523,0.002678,0.000431,0.002468
112201000,0.0324,0.013523,0.002678,0.000431,0.002351
112202000,0.0324,0.013523,0.002678,0.000431,0.002703
112203000,0.0324,0.013523,0.002678,0.000431,0.002703
112204000,0.0324,0.013523,0.002678,0.000431,0.002233
112205000,0.0324,0.013523,0.002678,0.000431,0.002821
112206000,0.0324,0.013523,0.002678,0.000431,0.002468
112207000,0.0324,0.013523,0.002678,0.000431,0.002586
112208000,0.0324,0.013523,0.002678,0.000431,0.002351
112209000,0.0324,0.013523,0.002678,0.000431,0.002703
112210000,0.0324,0.013523,0.002678,0.000431,0.002821
112211000,0.0324,0.013523,0.002678,0.000431,0.002116
112212000,0.0324,0.013523,0.002678,0.000431,0.002821
112213000,0.0324,0.013523,0.002678,0.000431,0.002351
112214000,0.0324,0.013523,0.002678,0.000431,0.002821
112215000,0.0324,0.013523,0.002678,0.000431,0.002468
112216000,0.0324,0.013523,0.002678,0.000431,0.002468
112217000,0.0324,0.013523,0.002678,0.000431,0.002586
112218000,0.0324,0.013523,0.002678,0.000431,0.002468
112219000,0.0324,0.013523,0.002678,0.000431,0.002821
112220000,0.0324,0.013523,0.002678,0.000431,0.002233
112221000,0.0324,0.013523,0.002678,0.000431,0.002821
112222000,0.0324,0.013523,0.002678,0.000431,0.002351
112223000,0.0324,0.013523,0.002678,0.000431,0.002586
112224000,0.0324,0.013523,0.002678,0.000431,0.002468
112225000,0.0324,0.013523,0.002678,0.000431,0.002703
112226000,0.0324,0.013523,0.002678,0.000431,0.002586
112227000,0.0324,0.013523,0.002678,0.000431,0.002351
112228000,0.0324,0.013523,0.002678,0.000431,0.002703
112229000,0.0324,0.013523,0.002678,0.000431,0.002468
112230000,0.0324,0.013523,0.002678,0.000431,0.002586
112231000,0.0324,0.013523,0.002678,0.000431,0.002586
112232000,0.0324,0.013523,0.002678,0.000431,0.002586
112233000,0.0324,0.013523,0.002678,0.000431,0.002468
112234000,0.0324,0.013523,0.002678,0.000431,0.002468
112235000,0.0324,0.013523,0.002678,0.000431,0.002821
112236000,0.0324,0.013523,0.002678,0.000431,0.002351
112237000,0.0324,0.013523,0.002678,0.000431,0.002703
112238000,0.0324,0.013523,0.002678,0.000431,0.002351
112239000,0.0324,0.013523,0.002678,0.000431,0.002703
112240000,0.0324,0.013523,0.002678,0.000431,0.002468
112241000,0.0324,0.013523,0.002678,0.000431,0.002586
112242000,0.0324,0.013523,0.002678,0.000431,0.002468
112243000,0.0324,0.013523,0.002678,0.000431,0.002586
112244000,0.0324,0.013523,0.002678,0.000431,0.002468
112245000,0.0324,0.013523,0.002678,0.000431,0.002468
112246000,0.0324,0.013523,0.002678,0.000431,0.002821
112247000,0.0324,0.013523,0.002678,0.000431,0.002468
112248000,0.0324,0.013523,0.002678,0.000431,0.002586
112249000,0.0324,0.013523,0.002678,0.000431,0.002351
112250000,0.0324,0.013523,0.002678,0.000431,0.002703
112251000,0.0324,0.013523,0.002678,0.000431,0.002586
112252000,0.0324,0.013523,0.002678,0.000431,0.002351
112253000,0.0324,0.013523,0.002678,0.000431,0.002821
112254000,0.0324,0.013523,0.002678,0.000431,0.002351
112255000,0.0324,0.013523,0.002678,0.000431,0.002821
112256000,0.0324,0.013523,0.002678,0.000431,0.002233
112257000,0.0324,0.013523,0.002678,0.000431,0.002703
112258000,0.0324,0.013523,0.002678,0.000431,0.002703
112259000,0.0324,0.013523,0.002678,0.000431,0.002351
112260000,0.0324,0.013523,0.002678,0.000431,0.002586
112261000,0.0324,0.013523,0.002678,0.000431,0.002586
112262000,0.0324,0.013523,0.002678,0.000431,0.002703
112263000,0.0324,0.013523,0.002678,0.000431,0.002351
112264000,0.0324,0.013523,0.002678,0.000431,0.002586
112265000,0.0324,0.013523,0.002678,0.000431,0.002586
112266000,0.0324,0.013523,0.002678,0.000431,0.002468
112267000,0.0324,0.013523,0.002678,0.000431,0.002703
112268000,0.0324,0.013523,0.002678,0.000431,0.002351
112269000,0.0324,0.013523,0.002678,0.000431,0.002821
112270000,0.0324,0.013523,0.002678,0.000431,0.002351
112271000,0.0324,0.013523,0.002678,0.000431,0.002468
112272000,0.0324,0.013523,0.002678,0.000431,0.002468
112273000,0.0324,0.013523,0.002678,0.000431,0.002821
112274000,0.0324,0.013523,0.002678,0.000431,0.002586
112275000,0.0324,0.013523,0.002678,0.000431,0.002351
112276000,0.0324,0.013523,0.002678,0.000431,0.004113
112277000,0.0324,0.013523,0.002678,0.000431,0.001528
112278000,0.0324,0.013523,0.002678,0.000431,0.001763
112279000,0.0324,0.013523,0.002678,0.000431,0.001528
112280000,0.0324,0.013523,0.002678,0.000431,0.001763
112281000,0.0324,0.013523,0.002678,0.000431,0.001880
112282000,0.0324,0.013523,0.002678,0.000431,0.001410
112283000,0.0324,0.013523,0.002678,0.000431,0.001880
112284000,0.0324,0.013523,0.002678,0.000431,0.001528
112285000,0.0324,0.013523,0.002678,0.000431,0.001763
112286000,0.0324,0.013523,0.002678,0.000431,0.001645
112287000,0.0324,0.013523,0.002678,0.000431,0.001645
112288000,0.0324,0.013523,0.002678,0.000431,0.001763
112289000,0.0324,0.013523,0.002678,0.000431,0.001528
112290000,0.0324,0.013523,0.002678,0.000431,0.001880
112291000,0.0324,0.013523,0.002678,0.000431,0.001528
112292000,0.0324,0.013523,0.002678,0.000431,0.001645
112293000,0.0324,0.013523,0.002678,0.000431,0.001763
112294000,0.0324,0.013523,0.002678,0.000431,0.001645
112295000,0.0324,0.013523,0.002678,0.000431,0.001645
112296000,0.0324,0.013523,0.002678,0.000431,0.001645
112297000,0.0324,0.013523,0.002678,0.000431,0.001645
112298000,0.0324,0.013523,0.002678,0.000431,0.001645
112299000,0.0324,0.013523,0.002678,0.000431,0.001763
112300000,0.0324,0.013523,0.002678,0.000431,0.001763
112301000,0.0324,0.013523,0.002678,0.000431,0.001645
112302000,0.0324,0.013523,0.002678,0.000431,0.001528
112303000,0.0324,0.013523,0.002678,0.000431,0.001763
112304000,0.0324,0.013523,0.002678,0.000431,0.001645
112305000,0.0324,0.013523,0.002678,0.000431,0.001645
112306000,0.0324,0.013523,0.002678,0.000431,0.001880
112307000,0.0324,0.013523,0.002678,0.000431,0.001410
112308000,0.0324,0.013523,0.002678,0.000431,0.001880
112309000,0.0324,0.013523,0.002678,0.000431,0.001528
112310000,0.0324,0.013523,0.002678,0.000431,0.001763
112311000,0.0324,0.013523,0.002678,0.000431,0.001763
112312000,0.0324,0.013523,0.002678,0.000431,0.001528
112313000,0.0324,0.013523,0.002678,0.000431,0.001880
112314000,0.0324,0.013523,0.002678,0.000431,0.001410
112315000,0.0324,0.013523,0.002678,0.000431,0.001880
112316000,0.0324,0.013523,0.002678,0.000431,0.001645
112317000,0.0324,0.013523,0.002678,0.000431,0.001645
112318000,0.0324,0.013523,0.002678,0.000431,0.001645
112319000,0.0324,0.013523,0.002678,0.000431,0.001645
112320000,0.0324,0.013523,0.002678,0.000431,0.003408
112321000,0.0324,0.013523,0.002678,0.000431,0.000705
112322000,0.0324,0.013523,0.002678,0.000431,0.000940
112323000,0.0324,0.013523,0.002678,0.000431,0.000705
112324000,0.0324,0.013523,0.002678,0.000431,0.000940
112325000,0.0324,0.013523,0.002678,0.000431,0.000705
112326000,0.0324,0.013523,0.002678,0.000431,0.000940
112327000,0.0324,0.013523,0.002678,0.000431,0.000940
112328000,0.0324,0.013523,0.002678,0.000431,0.000705
112329000,0.0324,0.013523,0.002678,0.000431,0.000940
112330000,0.0324,0.013523,0.002678,0.000431,0.000705
112331000,0.0324,0.013523,0.002678,0.000431,0.000940
112332000,0.0324,0.013523,0.002678,0.000431,0.000823
112333000,0.0324,0.013523,0.002678,0.000431,0.001763
112334000,0.0324,0.013523,0.002678,0.000431,0.309804
112335000,0.0324,0.013523,0.002678,0.000431,0.666737
112336000,0.0324,0.013523,0.002678,0.000431,0.147968
112337000,0.0324,0.013523,0.002678,0.000431,0.131632
112338000,0.0324,0.013523,0.002678,0.000431,0.132572
112339000,0.0324,0.013523,0.002678,0.000431,0.607386
112340000,0.0324,0.013523,0.002678,0.000431,0.223774
112341000,0.0324,0.013523,0.002678,0.000431,0.254566
112342000,0.0324,0.013523,0.002678,0.000431,0.314270
112343000,0.0324,0.013523,0.002678,0.000431,0.136568
112344000,0.0324,0.013523,0.002678,0.000431,0.146675
112345000,0.0324,0.013523,0.002678,0.000431,0.110124
112346000,0.0324,0.013523,0.002678,0.000431,0.398538
112347000,0.0324,0.013523,0.002678,0.000431,0.181581
112348000,0.0324,0.013523,0.002678,0.000431,0.036551
112349000,0.0324,0.013523,0.002678,0.000431,0.040312
112350000,0.0324,0.013523,0.002678,0.000431,0.033613
112351000,0.0324,0.013523,0.002678,0.000431,0.025974
112352000,0.0324,0.013523,0.002678,0.000431,0.021508
112353000,0.0324,0.013523,0.002678,0.000431,0.020920
112354000,0.0324,0.013523,0.002678,0.000431,0.017277
112355000,0.0324,0.013523,0.002678,0.000431,0.013868
112356000,0.0324,0.013523,0.002678,0.000431,0.015044
112357000,0.0324,0.013523,0.002678,0.000431,0.012458
112358000,0.0324,0.013523,0.002678,0.000431,0.015866
112359000,0.0324,0.013523,0.002678,0.000431,0.010930
112360000,0.0324,0.013523,0.002678,0.000431,0.011870
112361000,0.0324,0.013523,0.002678,0.000431,0.008815
112362000,0.0324,0.013523,0.002678,0.000431,0.007639
112363000,0.0324,0.013523,0.002678,0.000431,0.010578
112364000,0.0324,0.013523,0.002678,0.000431,0.008227
112365000,0.0324,0.013523,0.002678,0.000431,0.006934
112366000,0.0324,0.013523,0.002678,0.000431,0.006817
112367000,0.0324,0.013523,0.002678,0.000431,0.005994
112368000,0.0324,0.013523,0.002678,0.000431,0.008462
112369000,0.0324,0.013523,0.002678,0.000431,0.005641
112370000,0.0324,0.013523,0.002678,0.000431,0.005406
112371000,0.0324,0.013523,0.002678,0.000431,0.006934
112372000,0.0324,0.013523,0.002678,0.000431,0.004349
112373000,0.0324,0.013523,0.002678,0.000431,0.004349
112374000,0.0324,0.013523,0.002678,0.000431,0.004113
112375000,0.0324,0.013523,0.002678,0.000431,0.004231
112376000,0.0324,0.013523,0.002678,0.000431,0.003996
112377000,0.0324,0.013523,0.002678,0.000431,0.003996
112378000,0.0324,0.013523,0.002678,0.000431,0.004113
112379000,0.0324,0.013523,0.002678,0.000431,0.004231
112380000,0.0324,0.013523,0.002678,0.000431,0.004113
112381000,0.0324,0.013523,0.002678,0.000431,0.003761
112382000,0.0324,0.013523,0.002678,0.000431,0.004113
112383000,0.0324,0.013523,0.002678,0.000431,0.003878
112384000,0.0324,0.013523,0.002678,0.000431,0.004349
112385000,0.0324,0.013523,0.002678,0.000431,0.003643
112386000,0.0324,0.013523,0.002678,0.000431,0.004113
112387000,0.0324,0.013523,0.002678,0.000431,0.006111
112388000,0.0324,0.013523,0.002678,0.000431,0.005524
112389000,0.0324,0.013523,0.002678,0.000431,0.001645
112390000,0.0324,0.013523,0.002678,0.000431,0.001645
112391000,0.0324,0.013523,0.002678,0.000431,0.001410
112392000,0.0324,0.013523,0.002678,0.000431,0.001645
112393000,0.0324,0.013523,0.002678,0.000431,0.001645
112394000,0.0324,0.013523,0.002678,0.000431,0.010813
112395000,0.0324,0.013523,0.002678,0.000431,0.443199
112396000,0.0324,0.013523,0.002678,0.000431,0.616670
112397000,0.0324,0.013523,0.002678,0.000431,0.133982
112398000,0.0324,0.013523,0.002678,0.000431,0.131632
112399000,0.0324,0.013523,0.002678,0.000431,0.210963
112400000,0.0324,0.013523,0.002678,0.000431,0.604212
112401000,0.0324,0.013523,0.002678,0.000431,0.239522
112402000,0.0324,0.013523,0.002678,0.000431,0.316268
112403000,0.0324,0.013523,0.002678,0.000431,0.183814
112404000,0.0324,0.013523,0.002678,0.000431,0.135628
112405000,0.0324,0.013523,0.002678,0.000431,0.142444
112406000,0.0324,0.013523,0.002678,0.000431,0.219425
112407000,0.0324,0.013523,0.002678,0.000431,0.410526
112408000,0.0324,0.013523,0.002678,0.000431,0.109301
112409000,0.0324,0.013523,0.002678,0.000431,0.084855
112410000,0.0324,0.013523,0.002678,0.000431,0.084033
112411000,0.0324,0.013523,0.002678,0.000431,0.072397
112412000,0.0324,0.013523,0.002678,0.000431,0.063348
112413000,0.0324,0.013523,0.002678,0.000431,0.055356
112414000,0.0324,0.013523,0.002678,0.000431,0.048069
112415000,0.0324,0.013523,0.002678,0.000431,0.040312
112416000,0.0324,0.013523,0.002678,0.000431,0.039960
112417000,0.0324,0.013523,0.002678,0.000431,0.035258
112418000,0.0324,0.013523,0.002678,0.000431,0.033613
112419000,0.0324,0.013523,0.002678,0.000431,0.027854
112420000,0.0324,0.013523,0.002678,0.000431,0.023858
112421000,0.0324,0.013523,0.002678,0.000431,0.024093
112422000,0.0324,0.013523,0.002678,0.000431,0.016571
112423000,0.0324,0.013523,0.002678,0.000431,0.017277
112424000,0.0324,0.013523,0.002678,0.000431,0.019745
112425000,0.0324,0.013523,0.002678,0.000431,0.015984
112426000,0.0324,0.013523,0.002678,0.000431,0.015161
112427000,0.0324,0.013523,0.002678,0.000431,0.014691
112428000,0.0324,0.013523,0.002678,0.000431,0.010813
112429000,0.0324,0.013523,0.002678,0.000431,0.012340
112430000,0.0324,0.013523,0.002678,0.000431,0.012811
112431000,0.0324,0.013523,0.002678,0.000431,0.009755
112432000,0.0324,0.013523,0.002678,0.000431,0.009990
112433000,0.0324,0.013523,0.002678,0.000431,0.009872
112434000,0.0324,0.013523,0.002678,0.000431,0.009755
112435000,0.0324,0.013523,0.002678,0.000431,0.012223
112436000,0.0324,0.013523,0.002678,0.000431,0.010107
112437000,0.0324,0.013523,0.002678,0.000431,0.008227
112438000,0.0324,0.013523,0.002678,0.000431,0.008227
112439000,0.0324,0.013523,0.002678,0.000431,0.008697
112440000,0.0324,0.013523,0.002678,0.000431,0.007639
112441000,0.0324,0.013523,0.002678,0.000431,0.007052
112442000,0.0324,0.013523,0.002678,0.000431,0.008697
112443000,0.0324,0.013523,0.002678,0.000431,0.005406
112444000,0.0324,0.013523,0.002678,0.000431,0.005759
112445000,0.0324,0.013523,0.002678,0.000431,0.006699
112446000,0.0324,0.013523,0.002678,0.000431,0.004936
112447000,0.0324,0.013523,0.002678,0.000431,0.004936
112448000,0.0324,0.013523,0.002678,0.000431,0.004466
112449000,0.0324,0.013523,0.002678,0.000431,0.005054
112450000,0.0324,0.013523,0.002678,0.000431,0.004113
112451000,0.0324,0.013523,0.002678,0.000431,0.005054
112452000,0.0324,0.013523,0.002678,0.000431,0.005289
112453000,0.0324,0.013523,0.002678,0.000431,0.003878
112454000,0.0324,0.013523,0.002678,0.000431,0.004349
112455000,0.0324,0.013523,0.002678,0.000431,0.006582
112456000,0.0324,0.013523,0.002678,0.000431,0.002233
112457000,0.0324,0.013523,0.002678,0.000431,0.002468
112458000,0.0324,0.013523,0.002678,0.000431,0.002821
112459000,0.0324,0.013523,0.002678,0.000431,0.001880
112460000,0.0324,0.013523,0.002678,0.000431,0.002703
112461000,0.0324,0.013523,0.002678,0.000431,0.002233
112462000,0.0324,0.013523,0.002678,0.000431,0.002586
112463000,0.0324,0.013523,0.002678,0.000431,0.002468
112464000,0.0324,0.013523,0.002678,0.000431,0.002233
112465000,0.0324,0.013523,0.002678,0.000431,0.002703
112466000,0.0324,0.013523,0.002678,0.000431,0.002116
112467000,0.0324,0.013523,0.002678,0.000431,0.002703
112468000,0.0324,0.013523,0.002678,0.000431,0.002468
112469000,0.0324,0.013523,0.002678,0.000431,0.002233
112470000,0.0324,0.013523,0.002678,0.000431,0.002351
112471000,0.0324,0.013523,0.002678,0.000431,0.002468
112472000,0.0324,0.013523,0.002678,0.000431,0.002703
112473000,0.0324,0.013523,0.002678,0.000431,0.005406
112474000,0.0324,0.013523,0.002678,0.000431,0.000940
112475000,0.0324,0.013523,0.002678,0.000431,0.000705
112476000,0.0324,0.013523,0.002678,0.000431,0.000940
112477000,0.0324,0.013523,0.002678,0.000431,0.000823
112478000,0.0324,0.013523,0.002678,0.000431,0.000823
112479000,0.0324,0.013523,0.002678,0.000431,0.000940
112480000,0.0324,0.013523,0.002678,0.000431,0.000705
112481000,0.0324,0.013523,0.002678,0.000431,0.000940
112482000,0.0324,0.013523,0.002678,0.000431,0.000823
112483000,0.0324,0.013523,0.002678,0.000431,0.000823
112484000,0.0324,0.013523,0.002678,0.000431,0.000823
112485000,0.0324,0.013523,0.002678,0.000431,0.000823
112486000,0.0324,0.013523,0.002678,0.000431,0.000940
112487000,0.0324,0.013523,0.002678,0.000431,0.000705
112488000,0.0324,0.013523,0.002678,0.000431,0.000940
112489000,0.0324,0.013523,0.002678,0.000431,0.000823
112490000,0.0324,0.013523,0.002678,0.000431,0.000823
112491000,0.0324,0.013523,0.002678,0.000431,0.000823
112492000,0.0324,0.013523,0.002678,0.000431,0.000823
112493000,0.0324,0.013523,0.002678,0.000431,0.000823
112494000,0.0324,0.013523,0.002678,0.000431,0.000823
112495000,0.0324,0.013523,0.002678,0.000431,0.000940
112496000,0.0324,0.013523,0.002678,0.000431,0.000823
112497000,0.0324,0.013523,0.002678,0.000431,0.000823
112498000,0.0324,0.013523,0.002678,0.000431,0.000705
112499000,0.0324,0.013523,0.002678,0.000431,0.000940
112500000,0.0324,0.013523,0.002678,0.000431,0.000940
112501000,0.0324,0.013523,0.002678,0.000431,0.000705
112502000,0.0324,0.013523,0.002678,0.000431,0.000940
112503000,0.0324,0.013523,0.002678,0.000431,0.000705
112504000,0.0324,0.013523,0.002678,0.000431,0.000940
112505000,0.0324,0.013523,0.002678,0.000431,0.000823
112506000,0.0324,0.013523,0.002678,0.000431,0.000823
112507000,0.0324,0.013523,0.002678,0.000431,0.000940
112508000,0.0324,0.013523,0.002678,0.000431,0.000705
112509000,0.0324,0.013523,0.002678,0.000431,0.000940
112510000,0.0324,0.013523,0.002678,0.000431,0.000823
112511000,0.0324,0.013523,0.002678,0.000431,0.000823
112512000,0.0324,0.013523,0.002678,0.000431,0.000823
112513000,0.0324,0.013523,0.002678,0.000431,0.000823
112514000,0.0324,0.013523,0.002678,0.000431,0.000823
112515000,0.0324,0.013523,0.002678,0.000431,0.000823
112516000,0.0324,0.013523,0.002678,0.000431,0.000940
112517000,0.0324,0.013523,0.002678,0.000431,0.000705
112518000,0.0324,0.013523,0.002678,0.000431,0.000823
112519000,0.0324,0.013523,0.002678,0.000431,0.000940
112520000,0.0324,0.013523,0.002678,0.000431,0.000823
112521000,0.0324,0.013523,0.002678,0.000431,0.000823
112522000,0.0324,0.013523,0.002678,0.000431,0.000823
112523000,0.0324,0.013523,0.002678,0.000431,0.000823
112524000,0.0324,0.013523,0.002678,0.000431,0.000823
112525000,0.0324,0.013523,0.002678,0.000431,0.000940
112526000,0.0324,0.013523,0.002678,0.000431,0.000823
112527000,0.0324,0.013523,0.002678,0.000431,0.000823
112528000,0.0324,0.013523,0.002678,0.000431,0.000705
112529000,0.0324,0.013523,0.002678,0.000431,0.000940
112530000,0.0324,0.013523,0.002678,0.000431,0.000940
112531000,0.0324,0.013523,0.002678,0.000431,0.000705
112532000,0.0324,0.013523,0.002678,0.000431,0.000940
112533000,0.0324,0.013523,0.002678,0.000431,0.000705
112534000,0.0324,0.013523,0.002678,0.000431,0.000940
112535000,0.0324,0.013523,0.002678,0.000431,0.000940
112536000,0.0324,0.013523,0.002678,0.000431,0.000705
112537000,0.0324,0.013523,0.002678,0.000431,0.000940
112538000,0.0324,0.013523,0.002678,0.000431,0.000705
112539000,0.0324,0.013523,0.002678,0.000431,0.000940
112540000,0.0324,0.013523,0.002678,0.000431,0.000823
112541000,0.0324,0.013523,0.002678,0.000431,0.000823
112542000,0.0324,0.013523,0.002678,0.000431,0.000823
112543000,0.0324,0.013523,0.002678,0.000431,0.000823
112544000,0.0324,0.013523,0.002678,0.000431,0.000940
112545000,0.0324,0.013523,0.002678,0.000431,0.000705
112546000,0.0324,0.013523,0.002678,0.000431,0.000940
112547000,0.0324,0.013523,0.002678,0.000431,0.000823
112548000,0.0324,0.013523,0.002678,0.000431,0.000823
112549000,0.0324,0.013523,0.002678,0.000431,0.000823
112550000,0.0324,0.013523,0.002678,0.000431,0.000823
112551000,0.0324,0.013523,0.002678,0.000431,0.000940
112552000,0.0324,0.013523,0.002678,0.000431,0.000705
112553000,0.0324,0.013523,0.002678,0.000431,0.000940
112554000,0.0324,0.013523,0.002678,0.000431,0.000823
112555000,0.0324,0.013523,0.002678,0.000431,0.000823
112556000,0.0324,0.013523,0.002678,0.000431,0.000705
112557000,0.0324,0.013523,0.002678,0.000431,0.000940
112558000,0.0324,0.013523,0.002678,0.000431,0.000940
112559000,0.0324,0.013523,0.002678,0.000431,0.000705
112560000,0.0324,0.013523,0.002678,0.000431,0.000940
112561000,0.0324,0.013523,0.002678,0.000431,0.000823
112562000,0.0324,0.013523,0.002678,0.000431,0.000823
112563000,0.0324,0.013523,0.002678,0.000431,0.000823
112564000,0.0324,0.013523,0.002678,0.000431,0.000823
112565000,0.0324,0.013523,0.002678,0.000431,0.000940
112566000,0.0324,0.013523,0.002678,0.000431,0.000705
112567000,0.0324,0.013523,0.002678,0.000431,0.000940
112568000,0.0324,0.013523,0.002678,0.000431,0.000823
112569000,0.0324,0.013523,0.002678,0.000431,0.000823
112570000,0.0324,0.013523,0.002678,0.000431,0.000823
112571000,0.0324,0.013523,0.002678,0.000431,0.000823
112572000,0.0324,0.013523,0.002678,0.000431,0.000823
112573000,0.0324,0.013523,0.002678,0.000431,0.000823
112574000,0.0324,0.013523,0.002678,0.000431,0.000823
112575000,0.0324,0.013523,0.002678,0.000431,0.000823
112576000,0.0324,0.013523,0.002678,0.000431,0.000940
112577000,0.0324,0.013523,0.002678,0.000431,0.000823
112578000,0.0324,0.013523,0.002678,0.000431,0.000823
112579000,0.0324,0.013523,0.002678,0.000431,0.000705
112580000,0.0324,0.013523,0.002678,0.000431,0.000940
112581000,0.0324,0.013523,0.002678,0.000431,0.000940
112582000,0.0324,0.013523,0.002678,0.000431,0.000705
112583000,0.0324,0.013523,0.002678,0.000431,0.000940
112584000,0.0324,0.013523,0.002678,0.000431,0.000705
112585000,0.0324,0.013523,0.002678,0.000431,0.000940
112586000,0.0324,0.013523,0.002678,0.000431,0.000823
112587000,0.0324,0.013523,0.002678,0.000431,0.000823
112588000,0.0324,0.013523,0.002678,0.000431,0.000940
112589000,0.0324,0.013523,0.002678,0.000431,0.000705
112590000,0.0324,0.013523,0.002678,0.000431,0.000940
112591000,0.0324,0.013523,0.002678,0.000431,0.000823
112592000,0.0324,0.013523,0.002678,0.000431,0.000823
112593000,0.0324,0.013523,0.002678,0.000431,0.000823
112594000,0.0324,0.013523,0.002678,0.000431,0.000823
112595000,0.0324,0.013523,0.002678,0.000431,0.000940
112596000,0.0324,0.013523,0.002678,0.000431,0.000705
112597000,0.0324,0.013523,0.002678,0.000431,0.000940
112598000,0.0324,0.013523,0.002678,0.000431,0.000823
112599000,0.0324,0.013523,0.002678,0.000431,0.000823
112600000,0.0324,0.013523,0.002678,0.000431,0.000823
112601000,0.0324,0.013523,0.002678,0.000431,0.000823
112602000,0.0324,0.013523,0.002678,0.000431,0.000940
112603000,0.0324,0.013523,0.002678,0.000431,0.000705
112604000,0.0324,0.013523,0.002678,0.000431,0.000940
112605000,0.0324,0.013523,0.002678,0.000431,0.000823
112606000,0.0324,0.013523,0.002678,0.000431,0.000823
112607000,0.0324,0.013523,0.002678,0.000431,0.000705
112608000,0.0324,0.013523,0.002678,0.000431,0.000940
112609000,0.0324,0.013523,0.002678,0.000431,0.000940
112610000,0.0324,0.013523,0.002678,0.000431,0.000705
112611000,0.0324,0.013523,0.002678,0.000431,0.000940
112612000,0.0324,0.013523,0.002678,0.000431,0.000705
112613000,0.0324,0.013523,0.002678,0.000431,0.000940
112614000,0.0324,0.013523,0.002678,0.000431,0.000823
112615000,0.0324,0.013523,0.002678,0.000431,0.000823
112616000,0.0324,0.013523,0.002678,0.000431,0.000940
112617000,0.0324,0.013523,0.002678,0.000431,0.000705
112618000,0.0324,0.013523,0.002678,0.000431,0.000940
112619000,0.0324,0.013523,0.002678,0.000431,0.000823
112620000,0.0324,0.013523,0.002678,0.000431,0.000823
112621000,0.0324,0.013523,0.002678,0.000431,0.000823
112622000,0.0324,0.013523,0.002678,0.000431,0.000823
112623000,0.0324,0.013523,0.002678,0.000431,0.000940
112624000,0.0324,0.013523,0.002678,0.000431,0.000705
112625000,0.0324,0.013523,0.002678,0.000431,0.000940
112626000,0.0324,0.013523,0.002678,0.000431,0.000823
112627000,0.0324,0.013523,0.002678,0.000431,0.000823
112628000,0.0324,0.013523,0.002678,0.000431,0.000823
112629000,0.0324,0.013523,0.002678,0.000431,0.000823
112630000,0.0324,0.013523,0.002678,0.000431,0.000823
112631000,0.0324,0.013523,0.002678,0.000431,0.000823
112632000,0.0324,0.013523,0.002678,0.000431,0.000823
112633000,0.0324,0.013523,0.002678,0.000431,0.000940
112634000,0.0324,0.013523,0.002678,0.000431,0.000823
112635000,0.0324,0.013523,0.002678,0.000431,0.000823
112636000,0.0324,0.013523,0.002678,0.000431,0.000823
112637000,0.0324,0.013523,0.002678,0.000431,0.000705
112638000,0.0324,0.013523,0.002678,0.000431,0.000940
112639000,0.0324,0.013523,0.002678,0.000431,0.000940
112640000,0.0324,0.013523,0.002678,0.000431,0.166655
112641000,0.0324,0.013523,0.002678,0.000431,0.510307
112642000,0.0324,0.013523,0.002678,0.000431,0.531462
112643000,0.0324,0.013523,0.002678,0.000431,0.134452
112644000,0.0324,0.013523,0.002678,0.000431,0.132572
112645000,0.0324,0.013523,0.002678,0.000431,0.628776
112646000,0.0324,0.013523,0.002678,0.000431,0.245869
112647000,0.0324,0.013523,0.002678,0.000431,0.259267
112648000,0.0324,0.013523,0.002678,0.000431,0.285946
112649000,0.0324,0.013523,0.002678,0.000431,0.143267
112650000,0.0324,0.013523,0.002678,0.000431,0.158898
112651000,0.0324,0.013523,0.002678,0.000431,0.148908
112652000,0.0324,0.013523,0.002678,0.000431,0.430036
112653000,0.0324,0.013523,0.002678,0.000431,0.042193
112654000,0.0324,0.013523,0.002678,0.000431,0.026561
112655000,0.0324,0.013523,0.002678,0.000431,0.023506
112656000,0.0324,0.013523,0.002678,0.000431,0.018569
112657000,0.0324,0.013523,0.002678,0.000431,0.023388
112658000,0.0324,0.013523,0.002678,0.000431,0.013163
112659000,0.0324,0.013523,0.002678,0.000431,0.013163
112660000,0.0324,0.013523,0.002678,0.000431,0.015044
112661000,0.0324,0.013523,0.002678,0.000431,0.012340
112662000,0.0324,0.013523,0.002678,0.000431,0.012223
112663000,0.0324,0.013523,0.002678,0.000431,0.011518
112664000,0.0324,0.013523,0.002678,0.000431,0.011048
112665000,0.0324,0.013523,0.002678,0.000431,0.011048
112666000,0.0324,0.013523,0.002678,0.000431,0.011283
112667000,0.0324,0.013523,0.002678,0.000431,0.010813
112668000,0.0324,0.013523,0.002678,0.000431,0.010930
112669000,0.0324,0.013523,0.002678,0.000431,0.009402
112670000,0.0324,0.013523,0.002678,0.000431,0.009872
112671000,0.0324,0.013523,0.002678,0.000431,0.010930
112672000,0.0324,0.013523,0.002678,0.000431,0.008580
112673000,0.0324,0.013523,0.002678,0.000431,0.008932
112674000,0.0324,0.013523,0.002678,0.000431,0.009402
112675000,0.0324,0.013523,0.002678,0.000431,0.008462
112676000,0.0324,0.013523,0.002678,0.000431,0.008932
112677000,0.0324,0.013523,0.002678,0.000431,0.008345
112678000,0.0324,0.013523,0.002678,0.000431,0.009402
112679000,0.0324,0.013523,0.002678,0.000431,0.008697
112680000,0.0324,0.013523,0.002678,0.000431,0.008109
112681000,0.0324,0.013523,0.002678,0.000431,0.009167
112682000,0.0324,0.013523,0.002678,0.000431,0.007874
112683000,0.0324,0.013523,0.002678,0.000431,0.008697
112684000,0.0324,0.013523,0.002678,0.000431,0.008580
112685000,0.0324,0.013523,0.002678,0.000431,0.008109
112686000,0.0324,0.013523,0.002678,0.000431,0.009167
112687000,0.0324,0.013523,0.002678,0.000431,0.007874
112688000,0.0324,0.013523,0.002678,0.000431,0.008580
112689000,0.0324,0.013523,0.002678,0.000431,0.008580
112690000,0.0324,0.013523,0.002678,0.000431,0.009050
112691000,0.0324,0.013523,0.002678,0.000431,0.009285
112692000,0.0324,0.013523,0.002678,0.000431,0.006347
112693000,0.0324,0.013523,0.002678,0.000431,0.007052
112694000,0.0324,0.013523,0.002678,0.000431,0.006699
112695000,0.0324,0.013523,0.002678,0.000431,0.006347
112696000,0.0324,0.013523,0.002678,0.000431,0.007052
112697000,0.0324,0.013523,0.002678,0.000431,0.007639
112698000,0.0324,0.013523,0.002678,0.000431,0.005759
112699000,0.0324,0.013523,0.002678,0.000431,0.005054
112700000,0.0324,0.013523,0.002678,0.000431,0.005641
112701000,0.0324,0.013523,0.002678,0.000431,0.004466
112702000,0.0324,0.013523,0.002678,0.000431,0.003761
112703000,0.0324,0.013523,0.002678,0.000431,0.003408
112704000,0.0324,0.013523,0.002678,0.000431,0.003526
112705000,0.0324,0.013523,0.002678,0.000431,0.003408
112706000,0.0324,0.013523,0.002678,0.000431,0.003643
112707000,0.0324,0.013523,0.002678,0.000431,0.003526
112708000,0.0324,0.013523,0.002678,0.000431,0.003291
112709000,0.0324,0.013523,0.002678,0.000431,0.005289
112710000,0.0324,0.013523,0.002678,0.000431,0.004349
112711000,0.0324,0.013523,0.002678,0.000431,0.001763
112712000,0.0324,0.013523,0.002678,0.000431,0.001528
112713000,0.0324,0.013523,0.002678,0.000431,0.001880
112714000,0.0324,0.013523,0.002678,0.000431,0.001880
112715000,0.0324,0.013523,0.002678,0.000431,0.001528
112716000,0.0324,0.013523,0.002678,0.000431,0.001763
112717000,0.0324,0.013523,0.002678,0.000431,0.001880
112718000,0.0324,0.013523,0.002678,0.000431,0.001763
112719000,0.0324,0.013523,0.002678,0.000431,0.001645
112720000,0.0324,0.013523,0.002678,0.000431,0.001763
112721000,0.0324,0.013523,0.002678,0.000431,0.001880
112722000,0.0324,0.013523,0.002678,0.000431,0.001645
112723000,0.0324,0.013523,0.002678,0.000431,0.001645
112724000,0.0324,0.013523,0.002678,0.000431,0.001880
112725000,0.0324,0.013523,0.002678,0.000431,0.001880
112726000,0.0324,0.013523,0.002678,0.000431,0.001645
112727000,0.0324,0.013523,0.002678,0.000431,0.001645
112728000,0.0324,0.013523,0.002678,0.000431,0.003526
112729000,0.0324,0.013523,0.002678,0.000431,0.188515
112730000,0.0324,0.013523,0.002678,0.000431,0.459418
112731000,0.0324,0.013523,0.002678,0.000431,0.476107
112732000,0.0324,0.013523,0.002678,0.000431,0.132454
112733000,0.0324,0.013523,0.002678,0.000431,0.131161
112734000,0.0324,0.013523,0.002678,0.000431,0.579296
112735000,0.0324,0.013523,0.002678,0.000431,0.253743
112736000,0.0324,0.013523,0.002678,0.000431,0.254449
112737000,0.0324,0.013523,0.002678,0.000431,0.303693
112738000,0.0324,0.013523,0.002678,0.000431,0.137978
112739000,0.0324,0.013523,0.002678,0.000431,0.142092
112740000,0.0324,0.013523,0.002678,0.000431,0.116235
112741000,0.0324,0.013523,0.002678,0.000431,0.327316
112742000,0.0324,0.013523,0.002678,0.000431,0.272548
112743000,0.0324,0.013523,0.002678,0.000431,0.059704
112744000,0.0324,0.013523,0.002678,0.000431,0.048187
112745000,0.0324,0.013523,0.002678,0.000431,0.044426
112746000,0.0324,0.013523,0.002678,0.000431,0.045954
112747000,0.0324,0.013523,0.002678,0.000431,0.043720
112748000,0.0324,0.013523,0.002678,0.000431,0.035729
112749000,0.0324,0.013523,0.002678,0.000431,0.033966
112750000,0.0324,0.013523,0.002678,0.000431,0.031850
112751000,0.0324,0.013523,0.002678,0.000431,0.030440
112752000,0.0324,0.013523,0.002678,0.000431,0.023506
112753000,0.0324,0.013523,0.002678,0.000431,0.027737
112754000,0.0324,0.013523,0.002678,0.000431,0.022448
112755000,0.0324,0.013523,0.002678,0.000431,0.027384
112756000,0.0324,0.013523,0.002678,0.000431,0.019862
112757000,0.0324,0.013523,0.002678,0.000431,0.023506
112758000,0.0324,0.013523,0.002678,0.000431,0.019392
112759000,0.0324,0.013523,0.002678,0.000431,0.016101
112760000,0.0324,0.013523,0.002678,0.000431,0.015396
112761000,0.0324,0.013523,0.002678,0.000431,0.017277
112762000,0.0324,0.013523,0.002678,0.000431,0.016571
112763000,0.0324,0.013523,0.002678,0.000431,0.015749
112764000,0.0324,0.013523,0.002678,0.000431,0.014103
112765000,0.0324,0.013523,0.002678,0.000431,0.012811
112766000,0.0324,0.013523,0.002678,0.000431,0.013281
112767000,0.0324,0.013523,0.002678,0.000431,0.016924
112768000,0.0324,0.013523,0.002678,0.000431,0.012458
112769000,0.0324,0.013523,0.002678,0.000431,0.014926
112770000,0.0324,0.013523,0.002678,0.000431,0.012576
112771000,0.0324,0.013523,0.002678,0.000431,0.011048
112772000,0.0324,0.013523,0.002678,0.000431,0.012105
112773000,0.0324,0.013523,0.002678,0.000431,0.011518
112774000,0.0324,0.013523,0.002678,0.000431,0.009755
112775000,0.0324,0.013523,0.002678,0.000431,0.009050
112776000,0.0324,0.013523,0.002678,0.000431,0.009167
112777000,0.0324,0.013523,0.002678,0.000431,0.009637
112778000,0.0324,0.013523,0.002678,0.000431,0.010342
112779000,0.0324,0.013523,0.002678,0.000431,0.008580
112780000,0.0324,0.013523,0.002678,0.000431,0.011048
112781000,0.0324,0.013523,0.002678,0.000431,0.009637
112782000,0.0324,0.013523,0.002678,0.000431,0.008932
112783000,0.0324,0.013523,0.002678,0.000431,0.007992
112784000,0.0324,0.013523,0.002678,0.000431,0.008227
112785000,0.0324,0.013523,0.002678,0.000431,0.008227
112786000,0.0324,0.013523,0.002678,0.000431,0.007757
112787000,0.0324,0.013523,0.002678,0.000431,0.007757
112788000,0.0324,0.013523,0.002678,0.000431,0.008227
112789000,0.0324,0.013523,0.002678,0.000431,0.007874
112790000,0.0324,0.013523,0.002678,0.000431,0.007992
112791000,0.0324,0.013523,0.002678,0.000431,0.009755
112792000,0.0324,0.013523,0.002678,0.000431,0.007404
112793000,0.0324,0.013523,0.002678,0.000431,0.006817
112794000,0.0324,0.013523,0.002678,0.000431,0.007287
112795000,0.0324,0.013523,0.002678,0.000431,0.007052
112796000,0.0324,0.013523,0.002678,0.000431,0.007287
112797000,0.0324,0.013523,0.002678,0.000431,0.006699
112798000,0.0324,0.013523,0.002678,0.000431,0.007287
112799000,0.0324,0.013523,0.002678,0.000431,0.007169
112800000,0.0324,0.013523,0.002678,0.000431,0.007287
112801000,0.0324,0.013523,0.002678,0.000431,0.006699
112802000,0.0324,0.013523,0.002678,0.000431,0.007404
112803000,0.0324,0.013523,0.002678,0.000431,0.007287
112804000,0.0324,0.013523,0.002678,0.000431,0.005524
112805000,0.0324,0.013523,0.002678,0.000431,0.006229
112806000,0.0324,0.013523,0.002678,0.000431,0.005524
112807000,0.0324,0.013523,0.002678,0.000431,0.006111
112808000,0.0324,0.013523,0.002678,0.000431,0.005994
112809000,0.0324,0.013523,0.002678,0.000431,0.006111
112810000,0.0324,0.013523,0.002678,0.000431,0.005876
112811000,0.0324,0.013523,0.002678,0.000431,0.005759
112812000,0.0324,0.013523,0.002678,0.000431,0.005641
112813000,0.0324,0.013523,0.002678,0.000431,0.005406
112814000,0.0324,0.013523,0.002678,0.000431,0.005994
112815000,0.0324,0.013523,0.002678,0.000431,0.005759
112816000,0.0324,0.013523,0.002678,0.000431,0.005759
112817000,0.0324,0.013523,0.002678,0.000431,0.005876
112818000,0.0324,0.013523,0.002678,0.000431,0.005759
112819000,0.0324,0.013523,0.002678,0.000431,0.005876
112820000,0.0324,0.013523,0.002678,0.000431,0.005406
112821000,0.0324,0.013523,0.002678,0.000431,0.005289
112822000,0.0324,0.013523,0.002678,0.000431,0.005054
112823000,0.0324,0.013523,0.002678,0.000431,0.005054
112824000,0.0324,0.013523,0.002678,0.000431,0.007639
112825000,0.0324,0.013523,0.002678,0.000431,0.003878
112826000,0.0324,0.013523,0.002678,0.000431,0.004466
112827000,0.0324,0.013523,0.002678,0.000431,0.006582
112828000,0.0324,0.013523,0.002678,0.000431,0.003291
112829000,0.0324,0.013523,0.002678,0.000431,0.003526
112830000,0.0324,0.013523,0.002678,0.000431,0.003173
112831000,0.0324,0.013523,0.002678,0.000431,0.003643
112832000,0.0324,0.013523,0.002678,0.000431,0.003408
112833000,0.0324,0.013523,0.002678,0.000431,0.003291
112834000,0.0324,0.013523,0.002678,0.000431,0.003408
112835000,0.0324,0.013523,0.002678,0.000431,0.003173
112836000,0.0324,0.013523,0.002678,0.000431,0.003643
112837000,0.0324,0.013523,0.002678,0.000431,0.003408
112838000,0.0324,0.013523,0.002678,0.000431,0.003526
112839000,0.0324,0.013523,0.002678,0.000431,0.003173
112840000,0.0324,0.013523,0.002678,0.000431,0.003291
112841000,0.0324,0.013523,0.002678,0.000431,0.003643
112842000,0.0324,0.013523,0.002678,0.000431,0.003291
112843000,0.0324,0.013523,0.002678,0.000431,0.003526
112844000,0.0324,0.013523,0.002678,0.000431,0.003173
112845000,0.0324,0.013523,0.002678,0.000431,0.003408
112846000,0.0324,0.013523,0.002678,0.000431,0.005406
112847000,0.0324,0.013523,0.002678,0.000431,0.002586
112848000,0.0324,0.013523,0.002678,0.000431,0.004701
112849000,0.0324,0.013523,0.002678,0.000431,0.001763
112850000,0.0324,0.013523,0.002678,0.000431,0.001645
112851000,0.0324,0.013523,0.002678,0.000431,0.001645
112852000,0.0324,0.013523,0.002678,0.000431,0.001763
112853000,0.0324,0.013523,0.002678,0.000431,0.001763
112854000,0.0324,0.013523,0.002678,0.000431,0.001528
112855000,0.0324,0.013523,0.002678,0.000431,0.001880
112856000,0.0324,0.013523,0.002678,0.000431,0.001645
112857000,0.0324,0.013523,0.002678,0.000431,0.001880
112858000,0.0324,0.013523,0.002678,0.000431,0.001410
112859000,0.0324,0.013523,0.002678,0.000431,0.001880
112860000,0.0324,0.013523,0.002678,0.000431,0.001763
112861000,0.0324,0.013523,0.002678,0.000431,0.001645
112862000,0.0324,0.013523,0.002678,0.000431,0.001763
112863000,0.0324,0.013523,0.002678,0.000431,0.001645
112864000,0.0324,0.013523,0.002678,0.000431,0.001880
112865000,0.0324,0.013523,0.002678,0.000431,0.001645
112866000,0.0324,0.013523,0.002678,0.000431,0.001645
112867000,0.0324,0.013523,0.002678,0.000431,0.001763
112868000,0.0324,0.013523,0.002678,0.000431,0.001645
112869000,0.0324,0.013523,0.002678,0.000431,0.001645
112870000,0.0324,0.013523,0.002678,0.000431,0.001763
112871000,0.0324,0.013523,0.002678,0.000431,0.001880
112872000,0.0324,0.013523,0.002678,0.000431,0.001763
112873000,0.0324,0.013523,0.002678,0.000431,0.001528
112874000,0.0324,0.013523,0.002678,0.000431,0.001763
112875000,0.0324,0.013523,0.002678,0.000431,0.001763
112876000,0.0324,0.013523,0.002678,0.000431,0.001645
112877000,0.0324,0.013523,0.002678,0.000431,0.001645
112878000,0.0324,0.013523,0.002678,0.000431,0.004349
112879000,0.0324,0.013523,0.002678,0.000431,0.000940
112880000,0.0324,0.013523,0.002678,0.000431,0.000940
112881000,0.0324,0.013523,0.002678,0.000431,0.000823
112882000,0.0324,0.013523,0.002678,0.000431,0.000823
112883000,0.0324,0.013523,0.002678,0.000431,0.000705
112884000,0.0324,0.013523,0.002678,0.000431,0.000940
112885000,0.0324,0.013523,0.002678,0.000431,0.000940
112886000,0.0324,0.013523,0.002678,0.000431,0.000705
112887000,0.0324,0.013523,0.002678,0.000431,0.000940
112888000,0.0324,0.013523,0.002678,0.000431,0.000705
112889000,0.0324,0.013523,0.002678,0.000431,0.000940
112890000,0.0324,0.013523,0.002678,0.000431,0.000823
112891000,0.0324,0.013523,0.002678,0.000431,0.000823
112892000,0.0324,0.013523,0.002678,0.000431,0.000940
112893000,0.0324,0.013523,0.002678,0.000431,0.000705
112894000,0.0324,0.013523,0.002678,0.000431,0.000940
112895000,0.0324,0.013523,0.002678,0.000431,0.000823
112896000,0.0324,0.013523,0.002678,0.000431,0.000823
112897000,0.0324,0.013523,0.002678,0.000431,0.000823
112898000,0.0324,0.013523,0.002678,0.000431,0.000823
112899000,0.0324,0.013523,0.002678,0.000431,0.000823
112900000,0.0324,0.013523,0.002678,0.000431,0.000823
112901000,0.0324,0.013523,0.002678,0.000431,0.000823
112902000,0.0324,0.013523,0.002678,0.000431,0.000823
112903000,0.0324,0.013523,0.002678,0.000431,0.000940
112904000,0.0324,0.013523,0.002678,0.000431,0.000705
112905000,0.0324,0.013523,0.002678,0.000431,0.000940
112906000,0.0324,0.013523,0.002678,0.000431,0.000705
112907000,0.0324,0.013523,0.002678,0.000431,0.000940
112908000,0.0324,0.013523,0.002678,0.000431,0.000940
112909000,0.0324,0.013523,0.002678,0.000431,0.000705
112910000,0.0324,0.013523,0.002678,0.000431,0.000940
112911000,0.0324,0.013523,0.002678,0.000431,0.000705
112912000,0.0324,0.013523,0.002678,0.000431,0.000940
112913000,0.0324,0.013523,0.002678,0.000431,0.000823
112914000,0.0324,0.013523,0.002678,0.000431,0.000823
112915000,0.0324,0.013523,0.002678,0.000431,0.000823
112916000,0.0324,0.013523,0.002678,0.000431,0.000823
112917000,0.0324,0.013523,0.002678,0.000431,0.000940
112918000,0.0324,0.013523,0.002678,0.000431,0.000823
112919000,0.0324,0.013523,0.002678,0.000431,0.000823
112920000,0.0324,0.013523,0.002678,0.000431,0.000823
112921000,0.0324,0.013523,0.002678,0.000431,0.000823
112922000,0.0324,0.013523,0.002678,0.000431,0.000823
112923000,0.0324,0.013523,0.002678,0.000431,0.000823
112924000,0.0324,0.013523,0.002678,0.000431,0.000940
112925000,0.0324,0.013523,0.002678,0.000431,0.000705
112926000,0.0324,0.013523,0.002678,0.000431,0.000823
112927000,0.0324,0.013523,0.002678,0.000431,0.000940
112928000,0.0324,0.013523,0.002678,0.000431,0.000823
112929000,0.0324,0.013523,0.002678,0.000431,0.000823
112930000,0.0324,0.013523,0.002678,0.000431,0.000823
112931000,0.0324,0.013523,0.002678,0.000431,0.000705
112932000,0.0324,0.013523,0.002678,0.000431,0.000940
112933000,0.0324,0.013523,0.002678,0.000431,0.000940
112934000,0.0324,0.013523,0.002678,0.000431,0.000705
112935000,0.0324,0.013523,0.002678,0.000431,0.000940
112936000,0.0324,0.013523,0.002678,0.000431,0.000705
112937000,0.0324,0.013523,0.002678,0.000431,0.000940
112938000,0.0324,0.013523,0.002678,0.000431,0.000823
112939000,0.0324,0.013523,0.002678,0.000431,0.000823
112940000,0.0324,0.013523,0.002678,0.000431,0.000823
112941000,0.0324,0.013523,0.002678,0.000431,0.000823
112942000,0.0324,0.013523,0.002678,0.000431,0.000940
112943000,0.0324,0.013523,0.002678,0.000431,0.000705
112944000,0.0324,0.013523,0.002678,0.000431,0.000940
112945000,0.0324,0.013523,0.002678,0.000431,0.000823
112946000,0.0324,0.013523,0.002678,0.000431,0.000823
112947000,0.0324,0.013523,0.002678,0.000431,0.000823
112948000,0.0324,0.013523,0.002678,0.000431,0.000823
112949000,0.0324,0.013523,0.002678,0.000431,0.000823
112950000,0.0324,0.013523,0.002678,0.000431,0.000823
112951000,0.0324,0.013523,0.002678,0.000431,0.000940
112952000,0.0324,0.013523,0.002678,0.000431,0.000705
112953000,0.0324,0.013523,0.002678,0.000431,0.000940
112954000,0.0324,0.013523,0.002678,0.000431,0.000705
112955000,0.0324,0.013523,0.002678,0.000431,0.000940
112956000,0.0324,0.013523,0.002678,0.000431,0.000823
112957000,0.0324,0.013523,0.002678,0.000431,0.000823
112958000,0.0324,0.013523,0.002678,0.000431,0.000940
112959000,0.0324,0.013523,0.002678,0.000431,0.000705
112960000,0.0324,0.013523,0.002678,0.000431,0.000940
112961000,0.0324,0.013523,0.002678,0.000431,0.000823
112962000,0.0324,0.013523,0.002678,0.000431,0.000823
112963000,0.0324,0.013523,0.002678,0.000431,0.000823
112964000,0.0324,0.013523,0.002678,0.000431,0.000823
112965000,0.0324,0.013523,0.002678,0.000431,0.000823
112966000,0.0324,0.013523,0.002678,0.000431,0.000823
112967000,0.0324,0.013523,0.002678,0.000431,0.000940
112968000,0.0324,0.013523,0.002678,0.000431,0.000823
112969000,0.0324,0.013523,0.002678,0.000431,0.000705
112970000,0.0324,0.013523,0.002678,0.000431,0.000940
112971000,0.0324,0.013523,0.002678,0.000431,0.000823
112972000,0.0324,0.013523,0.002678,0.000431,0.000823
112973000,0.0324,0.013523,0.002678,0.000431,0.000823
112974000,0.0324,0.013523,0.002678,0.000431,0.000823
112975000,0.0324,0.013523,0.002678,0.000431,0.000823
112976000,0.0324,0.013523,0.002678,0.000431,0.000940
112977000,0.0324,0.013523,0.002678,0.000431,0.000823
112978000,0.0324,0.013523,0.002678,0.000431,0.000823
112979000,0.0324,0.013523,0.002678,0.000431,0.000705
112980000,0.0324,0.013523,0.002678,0.000431,0.000940
112981000,0.0324,0.013523,0.002678,0.000431,0.000940
112982000,0.0324,0.013523,0.002678,0.000431,0.000705
112983000,0.0324,0.013523,0.002678,0.000431,0.000940
112984000,0.0324,0.013523,0.002678,0.000431,0.000705
112985000,0.0324,0.013523,0.002678,0.000431,0.000940
112986000,0.0324,0.013523,0.002678,0.000431,0.000823
112987000,0.0324,0.013523,0.002678,0.000431,0.000823
112988000,0.0324,0.013523,0.002678,0.000431,0.000940
112989000,0.0324,0.013523,0.002678,0.000431,0.000705
112990000,0.0324,0.013523,0.002678,0.000431,0.000940
112991000,0.0324,0.013523,0.002678,0.000431,0.000823
112992000,0.0324,0.013523,0.002678,0.000431,0.000823
112993000,0.0324,0.013523,0.002678,0.000431,0.000823
112994000,0.0324,0.013523,0.002678,0.000431,0.000823
112995000,0.0324,0.013523,0.002678,0.000431,0.000823
112996000,0.0324,0.013523,0.002678,0.000431,0.000823
112997000,0.0324,0.013523,0.002678,0.000431,0.000940
112998000,0.0324,0.013523,0.002678,0.000431,0.000823
112999000,0.0324,0.013523,0.002678,0.000431,0.000823
