Cycle,Area(mm^2),PeakDynamic(W),SubthresholdLeakage(W),GateLeakage(W),RunTimeDynamic(W)
52000000,0.0324,0.013523,0.002678,0.000431,0.000823
52001000,0.0324,0.013523,0.002678,0.000431,0.000823
52002000,0.0324,0.013523,0.002678,0.000431,0.000823
52003000,0.0324,0.013523,0.002678,0.000431,0.000940
52004000,0.0324,0.013523,0.002678,0.000431,0.000705
52005000,0.0324,0.013523,0.002678,0.000431,0.000940
52006000,0.0324,0.013523,0.002678,0.000431,0.000705
52007000,0.0324,0.013523,0.002678,0.000431,0.000940
52008000,0.0324,0.013523,0.002678,0.000431,0.000940
52009000,0.0324,0.013523,0.002678,0.000431,0.000705
52010000,0.0324,0.013523,0.002678,0.000431,0.000940
52011000,0.0324,0.013523,0.002678,0.000431,0.141974
52012000,0.0324,0.013523,0.002678,0.000431,0.428625
52013000,0.0324,0.013523,0.002678,0.000431,0.539807
52014000,0.0324,0.013523,0.002678,0.000431,0.133982
52015000,0.0324,0.013523,0.002678,0.000431,0.131632
52016000,0.0324,0.013523,0.002678,0.000431,0.567191
52017000,0.0324,0.013523,0.002678,0.000431,0.234939
52018000,0.0324,0.013523,0.002678,0.000431,0.276309
52019000,0.0324,0.013523,0.002678,0.000431,0.282890
52020000,0.0324,0.013523,0.002678,0.000431,0.143737
52021000,0.0324,0.013523,0.002678,0.000431,0.136685
52022000,0.0324,0.013523,0.002678,0.000431,0.140799
52023000,0.0324,0.013523,0.002678,0.000431,0.244694
52024000,0.0324,0.013523,0.002678,0.000431,0.324613
52025000,0.0324,0.013523,0.002678,0.000431,0.011165
52026000,0.0324,0.013523,0.002678,0.000431,0.008932
52027000,0.0324,0.013523,0.002678,0.000431,0.007522
52028000,0.0324,0.013523,0.002678,0.000431,0.007757
52029000,0.0324,0.013523,0.002678,0.000431,0.006347
52030000,0.0324,0.013523,0.002678,0.000431,0.007169
52031000,0.0324,0.013523,0.002678,0.000431,0.007404
52032000,0.0324,0.013523,0.002678,0.000431,0.008932
52033000,0.0324,0.013523,0.002678,0.000431,0.005876
52034000,0.0324,0.013523,0.002678,0.000431,0.006347
52035000,0.0324,0.013523,0.002678,0.000431,0.006347
52036000,0.0324,0.013523,0.002678,0.000431,0.005406
52037000,0.0324,0.013523,0.002678,0.000431,0.006111
52038000,0.0324,0.013523,0.002678,0.000431,0.006464
52039000,0.0324,0.013523,0.002678,0.000431,0.006817
52040000,0.0324,0.013523,0.002678,0.000431,0.005994
52041000,0.0324,0.013523,0.002678,0.000431,0.004819
52042000,0.0324,0.013523,0.002678,0.000431,0.005524
52043000,0.0324,0.013523,0.002678,0.000431,0.005171
52044000,0.0324,0.013523,0.002678,0.000431,0.005171
52045000,0.0324,0.013523,0.002678,0.000431,0.005171
52046000,0.0324,0.013523,0.002678,0.000431,0.005054
52047000,0.0324,0.013523,0.002678,0.000431,0.005406
52048000,0.0324,0.013523,0.002678,0.000431,0.004936
52049000,0.0324,0.013523,0.002678,0.000431,0.005524
52050000,0.0324,0.013523,0.002678,0.000431,0.005054
52051000,0.0324,0.013523,0.002678,0.000431,0.005171
52052000,0.0324,0.013523,0.002678,0.000431,0.004819
52053000,0.0324,0.013523,0.002678,0.000431,0.006347
52054000,0.0324,0.013523,0.002678,0.000431,0.005641
52055000,0.0324,0.013523,0.002678,0.000431,0.004113
52056000,0.0324,0.013523,0.002678,0.000431,0.004349
52057000,0.0324,0.013523,0.002678,0.000431,0.004466
52058000,0.0324,0.013523,0.002678,0.000431,0.004466
52059000,0.0324,0.013523,0.002678,0.000431,0.004231
52060000,0.0324,0.013523,0.002678,0.000431,0.004936
52061000,0.0324,0.013523,0.002678,0.000431,0.004701
52062000,0.0324,0.013523,0.002678,0.000431,0.003408
52063000,0.0324,0.013523,0.002678,0.000431,0.003526
52064000,0.0324,0.013523,0.002678,0.000431,0.003408
52065000,0.0324,0.013523,0.002678,0.000431,0.004584
52066000,0.0324,0.013523,0.002678,0.000431,0.002468
52067000,0.0324,0.013523,0.002678,0.000431,0.002586
52068000,0.0324,0.013523,0.002678,0.000431,0.002703
52069000,0.0324,0.013523,0.002678,0.000431,0.002586
52070000,0.0324,0.013523,0.002678,0.000431,0.002586
52071000,0.0324,0.013523,0.002678,0.000431,0.002468
52072000,0.0324,0.013523,0.002678,0.000431,0.002703
52073000,0.0324,0.013523,0.002678,0.000431,0.002586
52074000,0.0324,0.013523,0.002678,0.000431,0.002586
52075000,0.0324,0.013523,0.002678,0.000431,0.002586
52076000,0.0324,0.013523,0.002678,0.000431,0.002703
52077000,0.0324,0.013523,0.002678,0.000431,0.002468
52078000,0.0324,0.013523,0.002678,0.000431,0.002586
52079000,0.0324,0.013523,0.002678,0.000431,0.002703
52080000,0.0324,0.013523,0.002678,0.000431,0.002586
52081000,0.0324,0.013523,0.002678,0.000431,0.002586
52082000,0.0324,0.013523,0.002678,0.000431,0.002468
52083000,0.0324,0.013523,0.002678,0.000431,0.002703
52084000,0.0324,0.013523,0.002678,0.000431,0.002586
52085000,0.0324,0.013523,0.002678,0.000431,0.003408
52086000,0.0324,0.013523,0.002678,0.000431,0.002938
52087000,0.0324,0.013523,0.002678,0.000431,0.000705
52088000,0.0324,0.013523,0.002678,0.000431,0.000940
52089000,0.0324,0.013523,0.002678,0.000431,0.000823
52090000,0.0324,0.013523,0.002678,0.000431,0.000823
52091000,0.0324,0.013523,0.002678,0.000431,0.000823
52092000,0.0324,0.013523,0.002678,0.000431,0.000823
52093000,0.0324,0.013523,0.002678,0.000431,0.000940
52094000,0.0324,0.013523,0.002678,0.000431,0.000705
52095000,0.0324,0.013523,0.002678,0.000431,0.000940
52096000,0.0324,0.013523,0.002678,0.000431,0.000705
52097000,0.0324,0.013523,0.002678,0.000431,0.000940
52098000,0.0324,0.013523,0.002678,0.000431,0.000940
52099000,0.0324,0.013523,0.002678,0.000431,0.000705
52100000,0.0324,0.013523,0.002678,0.000431,0.013516
52101000,0.0324,0.013523,0.002678,0.000431,0.409821
52102000,0.0324,0.013523,0.002678,0.000431,0.596456
52103000,0.0324,0.013523,0.002678,0.000431,0.133982
52104000,0.0324,0.013523,0.002678,0.000431,0.131632
52105000,0.0324,0.013523,0.002678,0.000431,0.136215
52106000,0.0324,0.013523,0.002678,0.000431,0.597396
52107000,0.0324,0.013523,0.002678,0.000431,0.244106
52108000,0.0324,0.013523,0.002678,0.000431,0.240815
52109000,0.0324,0.013523,0.002678,0.000431,0.260913
52110000,0.0324,0.013523,0.002678,0.000431,0.134922
52111000,0.0324,0.013523,0.002678,0.000431,0.142914
52112000,0.0324,0.013523,0.002678,0.000431,0.122464
52113000,0.0324,0.013523,0.002678,0.000431,0.318031
52114000,0.0324,0.013523,0.002678,0.000431,0.270667
52115000,0.0324,0.013523,0.002678,0.000431,0.031380
52116000,0.0324,0.013523,0.002678,0.000431,0.024093
52117000,0.0324,0.013523,0.002678,0.000431,0.022800
52118000,0.0324,0.013523,0.002678,0.000431,0.018687
52119000,0.0324,0.013523,0.002678,0.000431,0.014456
52120000,0.0324,0.013523,0.002678,0.000431,0.016336
52121000,0.0324,0.013523,0.002678,0.000431,0.013046
52122000,0.0324,0.013523,0.002678,0.000431,0.012105
52123000,0.0324,0.013523,0.002678,0.000431,0.012223
52124000,0.0324,0.013523,0.002678,0.000431,0.008815
52125000,0.0324,0.013523,0.002678,0.000431,0.008109
52126000,0.0324,0.013523,0.002678,0.000431,0.010107
52127000,0.0324,0.013523,0.002678,0.000431,0.008345
52128000,0.0324,0.013523,0.002678,0.000431,0.005876
52129000,0.0324,0.013523,0.002678,0.000431,0.007287
52130000,0.0324,0.013523,0.002678,0.000431,0.006229
52131000,0.0324,0.013523,0.002678,0.000431,0.006582
52132000,0.0324,0.013523,0.002678,0.000431,0.005994
52133000,0.0324,0.013523,0.002678,0.000431,0.006111
52134000,0.0324,0.013523,0.002678,0.000431,0.005406
52135000,0.0324,0.013523,0.002678,0.000431,0.006347
52136000,0.0324,0.013523,0.002678,0.000431,0.006934
52137000,0.0324,0.013523,0.002678,0.000431,0.004349
52138000,0.0324,0.013523,0.002678,0.000431,0.004584
52139000,0.0324,0.013523,0.002678,0.000431,0.004113
52140000,0.0324,0.013523,0.002678,0.000431,0.004231
52141000,0.0324,0.013523,0.002678,0.000431,0.004231
52142000,0.0324,0.013523,0.002678,0.000431,0.004113
52143000,0.0324,0.013523,0.002678,0.000431,0.004584
52144000,0.0324,0.013523,0.002678,0.000431,0.004231
52145000,0.0324,0.013523,0.002678,0.000431,0.005759
52146000,0.0324,0.013523,0.002678,0.000431,0.004936
52147000,0.0324,0.013523,0.002678,0.000431,0.002586
52148000,0.0324,0.013523,0.002678,0.000431,0.002821
52149000,0.0324,0.013523,0.002678,0.000431,0.002468
52150000,0.0324,0.013523,0.002678,0.000431,0.002586
52151000,0.0324,0.013523,0.002678,0.000431,0.002468
52152000,0.0324,0.013523,0.002678,0.000431,0.002468
52153000,0.0324,0.013523,0.002678,0.000431,0.002703
52154000,0.0324,0.013523,0.002678,0.000431,0.002468
52155000,0.0324,0.013523,0.002678,0.000431,0.002703
52156000,0.0324,0.013523,0.002678,0.000431,0.002351
52157000,0.0324,0.013523,0.002678,0.000431,0.002703
52158000,0.0324,0.013523,0.002678,0.000431,0.005289
52159000,0.0324,0.013523,0.002678,0.000431,0.001645
52160000,0.0324,0.013523,0.002678,0.000431,0.001763
52161000,0.0324,0.013523,0.002678,0.000431,0.001645
52162000,0.0324,0.013523,0.002678,0.000431,0.001645
52163000,0.0324,0.013523,0.002678,0.000431,0.001645
52164000,0.0324,0.013523,0.002678,0.000431,0.002938
52165000,0.0324,0.013523,0.002678,0.000431,0.000705
52166000,0.0324,0.013523,0.002678,0.000431,0.000940
52167000,0.0324,0.013523,0.002678,0.000431,0.000823
52168000,0.0324,0.013523,0.002678,0.000431,0.000823
52169000,0.0324,0.013523,0.002678,0.000431,0.000823
52170000,0.0324,0.013523,0.002678,0.000431,0.000823
52171000,0.0324,0.013523,0.002678,0.000431,0.000823
52172000,0.0324,0.013523,0.002678,0.000431,0.000940
52173000,0.0324,0.013523,0.002678,0.000431,0.000823
52174000,0.0324,0.013523,0.002678,0.000431,0.000823
52175000,0.0324,0.013523,0.002678,0.000431,0.000705
52176000,0.0324,0.013523,0.002678,0.000431,0.000940
52177000,0.0324,0.013523,0.002678,0.000431,0.000940
52178000,0.0324,0.013523,0.002678,0.000431,0.000705
52179000,0.0324,0.013523,0.002678,0.000431,0.000940
52180000,0.0324,0.013523,0.002678,0.000431,0.000705
52181000,0.0324,0.013523,0.002678,0.000431,0.000940
52182000,0.0324,0.013523,0.002678,0.000431,0.000823
52183000,0.0324,0.013523,0.002678,0.000431,0.000823
52184000,0.0324,0.013523,0.002678,0.000431,0.000823
52185000,0.0324,0.013523,0.002678,0.000431,0.000823
52186000,0.0324,0.013523,0.002678,0.000431,0.000940
52187000,0.0324,0.013523,0.002678,0.000431,0.000823
52188000,0.0324,0.013523,0.002678,0.000431,0.000823
52189000,0.0324,0.013523,0.002678,0.000431,0.000823
52190000,0.0324,0.013523,0.002678,0.000431,0.000823
52191000,0.0324,0.013523,0.002678,0.000431,0.000823
52192000,0.0324,0.013523,0.002678,0.000431,0.000823
52193000,0.0324,0.013523,0.002678,0.000431,0.000940
52194000,0.0324,0.013523,0.002678,0.000431,0.000705
52195000,0.0324,0.013523,0.002678,0.000431,0.000940
52196000,0.0324,0.013523,0.002678,0.000431,0.000705
52197000,0.0324,0.013523,0.002678,0.000431,0.000940
52198000,0.0324,0.013523,0.002678,0.000431,0.000705
52199000,0.0324,0.013523,0.002678,0.000431,0.000940
52200000,0.0324,0.013523,0.002678,0.000431,0.000940
52201000,0.0324,0.013523,0.002678,0.000431,0.000705
52202000,0.0324,0.013523,0.002678,0.000431,0.000940
52203000,0.0324,0.013523,0.002678,0.000431,0.000705
52204000,0.0324,0.013523,0.002678,0.000431,0.000940
52205000,0.0324,0.013523,0.002678,0.000431,0.000823
52206000,0.0324,0.013523,0.002678,0.000431,0.000823
52207000,0.0324,0.013523,0.002678,0.000431,0.000823
52208000,0.0324,0.013523,0.002678,0.000431,0.000823
52209000,0.0324,0.013523,0.002678,0.000431,0.000940
52210000,0.0324,0.013523,0.002678,0.000431,0.000705
52211000,0.0324,0.013523,0.002678,0.000431,0.000940
52212000,0.0324,0.013523,0.002678,0.000431,0.000823
52213000,0.0324,0.013523,0.002678,0.000431,0.000823
52214000,0.0324,0.013523,0.002678,0.000431,0.000823
52215000,0.0324,0.013523,0.002678,0.000431,0.000823
52216000,0.0324,0.013523,0.002678,0.000431,0.000823
52217000,0.0324,0.013523,0.002678,0.000431,0.000823
52218000,0.0324,0.013523,0.002678,0.000431,0.000823
52219000,0.0324,0.013523,0.002678,0.000431,0.000823
52220000,0.0324,0.013523,0.002678,0.000431,0.000940
52221000,0.0324,0.013523,0.002678,0.000431,0.000823
52222000,0.0324,0.013523,0.002678,0.000431,0.000823
52223000,0.0324,0.013523,0.002678,0.000431,0.000705
52224000,0.0324,0.013523,0.002678,0.000431,0.000940
52225000,0.0324,0.013523,0.002678,0.000431,0.000940
52226000,0.0324,0.013523,0.002678,0.000431,0.000705
52227000,0.0324,0.013523,0.002678,0.000431,0.000940
52228000,0.0324,0.013523,0.002678,0.000431,0.000705
52229000,0.0324,0.013523,0.002678,0.000431,0.000940
52230000,0.0324,0.013523,0.002678,0.000431,0.000823
52231000,0.0324,0.013523,0.002678,0.000431,0.000823
52232000,0.0324,0.013523,0.002678,0.000431,0.000940
52233000,0.0324,0.013523,0.002678,0.000431,0.000705
52234000,0.0324,0.013523,0.002678,0.000431,0.000940
52235000,0.0324,0.013523,0.002678,0.000431,0.000705
52236000,0.0324,0.013523,0.002678,0.000431,0.000940
52237000,0.0324,0.013523,0.002678,0.000431,0.000823
52238000,0.0324,0.013523,0.002678,0.000431,0.000823
52239000,0.0324,0.013523,0.002678,0.000431,0.000823
52240000,0.0324,0.013523,0.002678,0.000431,0.000823
52241000,0.0324,0.013523,0.002678,0.000431,0.000940
52242000,0.0324,0.013523,0.002678,0.000431,0.000705
52243000,0.0324,0.013523,0.002678,0.000431,0.000940
52244000,0.0324,0.013523,0.002678,0.000431,0.000705
52245000,0.0324,0.013523,0.002678,0.000431,0.000940
52246000,0.0324,0.013523,0.002678,0.000431,0.000705
52247000,0.0324,0.013523,0.002678,0.000431,0.000940
52248000,0.0324,0.013523,0.002678,0.000431,0.000940
52249000,0.0324,0.013523,0.002678,0.000431,0.000705
52250000,0.0324,0.013523,0.002678,0.000431,0.000940
52251000,0.0324,0.013523,0.002678,0.000431,0.000705
52252000,0.0324,0.013523,0.002678,0.000431,0.000940
52253000,0.0324,0.013523,0.002678,0.000431,0.000823
52254000,0.0324,0.013523,0.002678,0.000431,0.000823
52255000,0.0324,0.013523,0.002678,0.000431,0.000823
52256000,0.0324,0.013523,0.002678,0.000431,0.000823
52257000,0.0324,0.013523,0.002678,0.000431,0.000940
52258000,0.0324,0.013523,0.002678,0.000431,0.000705
52259000,0.0324,0.013523,0.002678,0.000431,0.000940
52260000,0.0324,0.013523,0.002678,0.000431,0.000823
52261000,0.0324,0.013523,0.002678,0.000431,0.000823
52262000,0.0324,0.013523,0.002678,0.000431,0.000823
52263000,0.0324,0.013523,0.002678,0.000431,0.000823
52264000,0.0324,0.013523,0.002678,0.000431,0.000823
52265000,0.0324,0.013523,0.002678,0.000431,0.000823
52266000,0.0324,0.013523,0.002678,0.000431,0.000823
52267000,0.0324,0.013523,0.002678,0.000431,0.000823
52268000,0.0324,0.013523,0.002678,0.000431,0.000940
52269000,0.0324,0.013523,0.002678,0.000431,0.000823
52270000,0.0324,0.013523,0.002678,0.000431,0.000823
52271000,0.0324,0.013523,0.002678,0.000431,0.000705
52272000,0.0324,0.013523,0.002678,0.000431,0.000940
52273000,0.0324,0.013523,0.002678,0.000431,0.000940
52274000,0.0324,0.013523,0.002678,0.000431,0.000705
52275000,0.0324,0.013523,0.002678,0.000431,0.000940
52276000,0.0324,0.013523,0.002678,0.000431,0.000705
52277000,0.0324,0.013523,0.002678,0.000431,0.000940
52278000,0.0324,0.013523,0.002678,0.000431,0.000823
52279000,0.0324,0.013523,0.002678,0.000431,0.000823
52280000,0.0324,0.013523,0.002678,0.000431,0.000940
52281000,0.0324,0.013523,0.002678,0.000431,0.000705
52282000,0.0324,0.013523,0.002678,0.000431,0.000940
52283000,0.0324,0.013523,0.002678,0.000431,0.000823
52284000,0.0324,0.013523,0.002678,0.000431,0.000823
52285000,0.0324,0.013523,0.002678,0.000431,0.000823
52286000,0.0324,0.013523,0.002678,0.000431,0.000823
52287000,0.0324,0.013523,0.002678,0.000431,0.000823
52288000,0.0324,0.013523,0.002678,0.000431,0.000823
52289000,0.0324,0.013523,0.002678,0.000431,0.000940
52290000,0.0324,0.013523,0.002678,0.000431,0.000705
52291000,0.0324,0.013523,0.002678,0.000431,0.000940
52292000,0.0324,0.013523,0.002678,0.000431,0.000823
52293000,0.0324,0.013523,0.002678,0.000431,0.000823
52294000,0.0324,0.013523,0.002678,0.000431,0.000705
52295000,0.0324,0.013523,0.002678,0.000431,0.000940
52296000,0.0324,0.013523,0.002678,0.000431,0.000940
52297000,0.0324,0.013523,0.002678,0.000431,0.000705
52298000,0.0324,0.013523,0.002678,0.000431,0.000940
52299000,0.0324,0.013523,0.002678,0.000431,0.000705
52300000,0.0324,0.013523,0.002678,0.000431,0.000940
52301000,0.0324,0.013523,0.002678,0.000431,0.000823
52302000,0.0324,0.013523,0.002678,0.000431,0.000823
52303000,0.0324,0.013523,0.002678,0.000431,0.000940
52304000,0.0324,0.013523,0.002678,0.000431,0.000705
52305000,0.0324,0.013523,0.002678,0.000431,0.000940
52306000,0.0324,0.013523,0.002678,0.000431,0.000823
52307000,0.0324,0.013523,0.002678,0.000431,0.000823
52308000,0.0324,0.013523,0.002678,0.000431,0.000823
52309000,0.0324,0.013523,0.002678,0.000431,0.000823
52310000,0.0324,0.013523,0.002678,0.000431,0.000823
52311000,0.0324,0.013523,0.002678,0.000431,0.000823
52312000,0.0324,0.013523,0.002678,0.000431,0.000940
52313000,0.0324,0.013523,0.002678,0.000431,0.000705
52314000,0.0324,0.013523,0.002678,0.000431,0.000823
52315000,0.0324,0.013523,0.002678,0.000431,0.000940
52316000,0.0324,0.013523,0.002678,0.000431,0.000823
52317000,0.0324,0.013523,0.002678,0.000431,0.000823
52318000,0.0324,0.013523,0.002678,0.000431,0.000823
52319000,0.0324,0.013523,0.002678,0.000431,0.000705
52320000,0.0324,0.013523,0.002678,0.000431,0.000940
52321000,0.0324,0.013523,0.002678,0.000431,0.000940
52322000,0.0324,0.013523,0.002678,0.000431,0.000705
52323000,0.0324,0.013523,0.002678,0.000431,0.000940
52324000,0.0324,0.013523,0.002678,0.000431,0.000705
52325000,0.0324,0.013523,0.002678,0.000431,0.000940
52326000,0.0324,0.013523,0.002678,0.000431,0.000823
52327000,0.0324,0.013523,0.002678,0.000431,0.000823
52328000,0.0324,0.013523,0.002678,0.000431,0.000940
52329000,0.0324,0.013523,0.002678,0.000431,0.000705
52330000,0.0324,0.013523,0.002678,0.000431,0.000940
52331000,0.0324,0.013523,0.002678,0.000431,0.000823
52332000,0.0324,0.013523,0.002678,0.000431,0.000823
52333000,0.0324,0.013523,0.002678,0.000431,0.000823
52334000,0.0324,0.013523,0.002678,0.000431,0.000823
52335000,0.0324,0.013523,0.002678,0.000431,0.000823
52336000,0.0324,0.013523,0.002678,0.000431,0.000823
52337000,0.0324,0.013523,0.002678,0.000431,0.000940
52338000,0.0324,0.013523,0.002678,0.000431,0.000705
52339000,0.0324,0.013523,0.002678,0.000431,0.000940
52340000,0.0324,0.013523,0.002678,0.000431,0.000823
52341000,0.0324,0.013523,0.002678,0.000431,0.000823
52342000,0.0324,0.013523,0.002678,0.000431,0.000705
52343000,0.0324,0.013523,0.002678,0.000431,0.000940
52344000,0.0324,0.013523,0.002678,0.000431,0.000940
52345000,0.0324,0.013523,0.002678,0.000431,0.000705
52346000,0.0324,0.013523,0.002678,0.000431,0.000940
52347000,0.0324,0.013523,0.002678,0.000431,0.000705
52348000,0.0324,0.013523,0.002678,0.000431,0.000940
52349000,0.0324,0.013523,0.002678,0.000431,0.000823
52350000,0.0324,0.013523,0.002678,0.000431,0.000823
52351000,0.0324,0.013523,0.002678,0.000431,0.000940
52352000,0.0324,0.013523,0.002678,0.000431,0.000705
52353000,0.0324,0.013523,0.002678,0.000431,0.000940
52354000,0.0324,0.013523,0.002678,0.000431,0.000823
52355000,0.0324,0.013523,0.002678,0.000431,0.000823
52356000,0.0324,0.013523,0.002678,0.000431,0.000823
52357000,0.0324,0.013523,0.002678,0.000431,0.000823
52358000,0.0324,0.013523,0.002678,0.000431,0.000823
52359000,0.0324,0.013523,0.002678,0.000431,0.000823
52360000,0.0324,0.013523,0.002678,0.000431,0.000940
52361000,0.0324,0.013523,0.002678,0.000431,0.000823
52362000,0.0324,0.013523,0.002678,0.000431,0.013516
52363000,0.0324,0.013523,0.002678,0.000431,0.459770
52364000,0.0324,0.013523,0.002678,0.000431,0.589169
52365000,0.0324,0.013523,0.002678,0.000431,0.133982
52366000,0.0324,0.013523,0.002678,0.000431,0.132572
52367000,0.0324,0.013523,0.002678,0.000431,0.310980
52368000,0.0324,0.013523,0.002678,0.000431,0.449898
52369000,0.0324,0.013523,0.002678,0.000431,0.236819
52370000,0.0324,0.013523,0.002678,0.000431,0.325671
52371000,0.0324,0.013523,0.002678,0.000431,0.192511
52372000,0.0324,0.013523,0.002678,0.000431,0.147733
52373000,0.0324,0.013523,0.002678,0.000431,0.148556
52374000,0.0324,0.013523,0.002678,0.000431,0.143267
52375000,0.0324,0.013523,0.002678,0.000431,0.451191
52376000,0.0324,0.013523,0.002678,0.000431,0.061115
52377000,0.0324,0.013523,0.002678,0.000431,0.051595
52378000,0.0324,0.013523,0.002678,0.000431,0.041017
52379000,0.0324,0.013523,0.002678,0.000431,0.034201
52380000,0.0324,0.013523,0.002678,0.000431,0.029029
52381000,0.0324,0.013523,0.002678,0.000431,0.024681
52382000,0.0324,0.013523,0.002678,0.000431,0.021038
52383000,0.0324,0.013523,0.002678,0.000431,0.019392
52384000,0.0324,0.013523,0.002678,0.000431,0.015866
52385000,0.0324,0.013523,0.002678,0.000431,0.016101
52386000,0.0324,0.013523,0.002678,0.000431,0.013046
52387000,0.0324,0.013523,0.002678,0.000431,0.010695
52388000,0.0324,0.013523,0.002678,0.000431,0.013516
52389000,0.0324,0.013523,0.002678,0.000431,0.007757
52390000,0.0324,0.013523,0.002678,0.000431,0.002586
52391000,0.0324,0.013523,0.002678,0.000431,0.004701
52392000,0.0324,0.013523,0.002678,0.000431,0.001880
52393000,0.0324,0.013523,0.002678,0.000431,0.001645
52394000,0.0324,0.013523,0.002678,0.000431,0.001763
52395000,0.0324,0.013523,0.002678,0.000431,0.001763
52396000,0.0324,0.013523,0.002678,0.000431,0.001880
52397000,0.0324,0.013523,0.002678,0.000431,0.001645
52398000,0.0324,0.013523,0.002678,0.000431,0.001763
52399000,0.0324,0.013523,0.002678,0.000431,0.001763
52400000,0.0324,0.013523,0.002678,0.000431,0.001763
52401000,0.0324,0.013523,0.002678,0.000431,0.001880
52402000,0.0324,0.013523,0.002678,0.000431,0.001645
52403000,0.0324,0.013523,0.002678,0.000431,0.001763
52404000,0.0324,0.013523,0.002678,0.000431,0.001763
52405000,0.0324,0.013523,0.002678,0.000431,0.001645
52406000,0.0324,0.013523,0.002678,0.000431,0.001880
52407000,0.0324,0.013523,0.002678,0.000431,0.001645
52408000,0.0324,0.013523,0.002678,0.000431,0.001880
52409000,0.0324,0.013523,0.002678,0.000431,0.001763
52410000,0.0324,0.013523,0.002678,0.000431,0.001645
52411000,0.0324,0.013523,0.002678,0.000431,0.004113
52412000,0.0324,0.013523,0.002678,0.000431,0.000705
52413000,0.0324,0.013523,0.002678,0.000431,0.000940
52414000,0.0324,0.013523,0.002678,0.000431,0.000940
52415000,0.0324,0.013523,0.002678,0.000431,0.000940
52416000,0.0324,0.013523,0.002678,0.000431,0.000705
52417000,0.0324,0.013523,0.002678,0.000431,0.000940
52418000,0.0324,0.013523,0.002678,0.000431,0.000940
52419000,0.0324,0.013523,0.002678,0.000431,0.000823
52420000,0.0324,0.013523,0.002678,0.000431,0.000823
52421000,0.0324,0.013523,0.002678,0.000431,0.000940
52422000,0.0324,0.013523,0.002678,0.000431,0.000940
52423000,0.0324,0.013523,0.002678,0.000431,0.000823
52424000,0.0324,0.013523,0.002678,0.000431,0.000823
52425000,0.0324,0.013523,0.002678,0.000431,0.000940
52426000,0.0324,0.013523,0.002678,0.000431,0.000823
52427000,0.0324,0.013523,0.002678,0.000431,0.000940
52428000,0.0324,0.013523,0.002678,0.000431,0.000823
52429000,0.0324,0.013523,0.002678,0.000431,0.000940
52430000,0.0324,0.013523,0.002678,0.000431,0.000823
52431000,0.0324,0.013523,0.002678,0.000431,0.000823
52432000,0.0324,0.013523,0.002678,0.000431,0.000940
52433000,0.0324,0.013523,0.002678,0.000431,0.000940
52434000,0.0324,0.013523,0.002678,0.000431,0.000823
52435000,0.0324,0.013523,0.002678,0.000431,0.000823
52436000,0.0324,0.013523,0.002678,0.000431,0.000940
52437000,0.0324,0.013523,0.002678,0.000431,0.000940
52438000,0.0324,0.013523,0.002678,0.000431,0.000823
52439000,0.0324,0.013523,0.002678,0.000431,0.000823
52440000,0.0324,0.013523,0.002678,0.000431,0.000940
52441000,0.0324,0.013523,0.002678,0.000431,0.000823
52442000,0.0324,0.013523,0.002678,0.000431,0.000940
52443000,0.0324,0.013523,0.002678,0.000431,0.000823
52444000,0.0324,0.013523,0.002678,0.000431,0.000940
52445000,0.0324,0.013523,0.002678,0.000431,0.000823
52446000,0.0324,0.013523,0.002678,0.000431,0.000823
52447000,0.0324,0.013523,0.002678,0.000431,0.000940
52448000,0.0324,0.013523,0.002678,0.000431,0.000940
52449000,0.0324,0.013523,0.002678,0.000431,0.000823
52450000,0.0324,0.013523,0.002678,0.000431,0.000823
52451000,0.0324,0.013523,0.002678,0.000431,0.000940
52452000,0.0324,0.013523,0.002678,0.000431,0.000940
52453000,0.0324,0.013523,0.002678,0.000431,0.000705
52454000,0.0324,0.013523,0.002678,0.000431,0.000940
52455000,0.0324,0.013523,0.002678,0.000431,0.000940
52456000,0.0324,0.013523,0.002678,0.000431,0.000940
52457000,0.0324,0.013523,0.002678,0.000431,0.000705
52458000,0.0324,0.013523,0.002678,0.000431,0.000940
52459000,0.0324,0.013523,0.002678,0.000431,0.000940
52460000,0.0324,0.013523,0.002678,0.000431,0.000823
52461000,0.0324,0.013523,0.002678,0.000431,0.000940
52462000,0.0324,0.013523,0.002678,0.000431,0.000823
52463000,0.0324,0.013523,0.002678,0.000431,0.000940
52464000,0.0324,0.013523,0.002678,0.000431,0.000823
52465000,0.0324,0.013523,0.002678,0.000431,0.000823
52466000,0.0324,0.013523,0.002678,0.000431,0.000940
52467000,0.0324,0.013523,0.002678,0.000431,0.000823
52468000,0.0324,0.013523,0.002678,0.000431,0.000940
52469000,0.0324,0.013523,0.002678,0.000431,0.000823
52470000,0.0324,0.013523,0.002678,0.000431,0.000940
52471000,0.0324,0.013523,0.002678,0.000431,0.000940
52472000,0.0324,0.013523,0.002678,0.000431,0.000705
52473000,0.0324,0.013523,0.002678,0.000431,0.000940
52474000,0.0324,0.013523,0.002678,0.000431,0.000940
52475000,0.0324,0.013523,0.002678,0.000431,0.000940
52476000,0.0324,0.013523,0.002678,0.000431,0.000705
52477000,0.0324,0.013523,0.002678,0.000431,0.000940
52478000,0.0324,0.013523,0.002678,0.000431,0.000940
52479000,0.0324,0.013523,0.002678,0.000431,0.000823
52480000,0.0324,0.013523,0.002678,0.000431,0.000823
52481000,0.0324,0.013523,0.002678,0.000431,0.000940
52482000,0.0324,0.013523,0.002678,0.000431,0.000823
52483000,0.0324,0.013523,0.002678,0.000431,0.000940
52484000,0.0324,0.013523,0.002678,0.000431,0.000823
52485000,0.0324,0.013523,0.002678,0.000431,0.198858
52486000,0.0324,0.013523,0.002678,0.000431,0.479633
52487000,0.0324,0.013523,0.002678,0.000431,0.483276
52488000,0.0324,0.013523,0.002678,0.000431,0.133042
52489000,0.0324,0.013523,0.002678,0.000431,0.133512
52490000,0.0324,0.013523,0.002678,0.000431,0.586818
52491000,0.0324,0.013523,0.002678,0.000431,0.259502
52492000,0.0324,0.013523,0.002678,0.000431,0.254331
52493000,0.0324,0.013523,0.002678,0.000431,0.292998
52494000,0.0324,0.013523,0.002678,0.000431,0.144912
52495000,0.0324,0.013523,0.002678,0.000431,0.174177
52496000,0.0324,0.013523,0.002678,0.000431,0.097078
52497000,0.0324,0.013523,0.002678,0.000431,0.489035
52498000,0.0324,0.013523,0.002678,0.000431,0.070282
52499000,0.0324,0.013523,0.002678,0.000431,0.041017
52500000,0.0324,0.013523,0.002678,0.000431,0.032203
52501000,0.0324,0.013523,0.002678,0.000431,0.029029
52502000,0.0324,0.013523,0.002678,0.000431,0.025504
52503000,0.0324,0.013523,0.002678,0.000431,0.012576
52504000,0.0324,0.013523,0.002678,0.000431,0.013046
52505000,0.0324,0.013523,0.002678,0.000431,0.012105
52506000,0.0324,0.013523,0.002678,0.000431,0.007522
52507000,0.0324,0.013523,0.002678,0.000431,0.013163
52508000,0.0324,0.013523,0.002678,0.000431,0.004701
52509000,0.0324,0.013523,0.002678,0.000431,0.004466
52510000,0.0324,0.013523,0.002678,0.000431,0.004819
52511000,0.0324,0.013523,0.002678,0.000431,0.005289
52512000,0.0324,0.013523,0.002678,0.000431,0.005994
52513000,0.0324,0.013523,0.002678,0.000431,0.006934
52514000,0.0324,0.013523,0.002678,0.000431,0.002703
52515000,0.0324,0.013523,0.002678,0.000431,0.001528
52516000,0.0324,0.013523,0.002678,0.000431,0.001645
52517000,0.0324,0.013523,0.002678,0.000431,0.001293
52518000,0.0324,0.013523,0.002678,0.000431,0.001763
52519000,0.0324,0.013523,0.002678,0.000431,0.001293
52520000,0.0324,0.013523,0.002678,0.000431,0.000705
52521000,0.0324,0.013523,0.002678,0.000431,0.000940
52522000,0.0324,0.013523,0.002678,0.000431,0.000705
52523000,0.0324,0.013523,0.002678,0.000431,0.000940
52524000,0.0324,0.013523,0.002678,0.000431,0.000823
52525000,0.0324,0.013523,0.002678,0.000431,0.000823
52526000,0.0324,0.013523,0.002678,0.000431,0.000940
52527000,0.0324,0.013523,0.002678,0.000431,0.000705
52528000,0.0324,0.013523,0.002678,0.000431,0.000940
52529000,0.0324,0.013523,0.002678,0.000431,0.000823
52530000,0.0324,0.013523,0.002678,0.000431,0.000823
52531000,0.0324,0.013523,0.002678,0.000431,0.000823
52532000,0.0324,0.013523,0.002678,0.000431,0.000823
52533000,0.0324,0.013523,0.002678,0.000431,0.000823
52534000,0.0324,0.013523,0.002678,0.000431,0.000823
52535000,0.0324,0.013523,0.002678,0.000431,0.000940
52536000,0.0324,0.013523,0.002678,0.000431,0.000705
52537000,0.0324,0.013523,0.002678,0.000431,0.000823
52538000,0.0324,0.013523,0.002678,0.000431,0.000940
52539000,0.0324,0.013523,0.002678,0.000431,0.000823
52540000,0.0324,0.013523,0.002678,0.000431,0.000823
52541000,0.0324,0.013523,0.002678,0.000431,0.000823
52542000,0.0324,0.013523,0.002678,0.000431,0.000940
52543000,0.0324,0.013523,0.002678,0.000431,0.000940
52544000,0.0324,0.013523,0.002678,0.000431,0.000705
52545000,0.0324,0.013523,0.002678,0.000431,0.000705
52546000,0.0324,0.013523,0.002678,0.000431,0.000940
52547000,0.0324,0.013523,0.002678,0.000431,0.000823
52548000,0.0324,0.013523,0.002678,0.000431,0.000823
52549000,0.0324,0.013523,0.002678,0.000431,0.000940
52550000,0.0324,0.013523,0.002678,0.000431,0.000705
52551000,0.0324,0.013523,0.002678,0.000431,0.000940
52552000,0.0324,0.013523,0.002678,0.000431,0.000823
52553000,0.0324,0.013523,0.002678,0.000431,0.000823
52554000,0.0324,0.013523,0.002678,0.000431,0.000823
52555000,0.0324,0.013523,0.002678,0.000431,0.000823
52556000,0.0324,0.013523,0.002678,0.000431,0.000823
52557000,0.0324,0.013523,0.002678,0.000431,0.000823
52558000,0.0324,0.013523,0.002678,0.000431,0.202031
52559000,0.0324,0.013523,0.002678,0.000431,0.528524
52560000,0.0324,0.013523,0.002678,0.000431,0.439320
52561000,0.0324,0.013523,0.002678,0.000431,0.132572
52562000,0.0324,0.013523,0.002678,0.000431,0.132572
52563000,0.0324,0.013523,0.002678,0.000431,0.581059
52564000,0.0324,0.013523,0.002678,0.000431,0.238817
52565000,0.0324,0.013523,0.002678,0.000431,0.285593
52566000,0.0324,0.013523,0.002678,0.000431,0.291235
52567000,0.0324,0.013523,0.002678,0.000431,0.148673
52568000,0.0324,0.013523,0.002678,0.000431,0.158193
52569000,0.0324,0.013523,0.002678,0.000431,0.137861
52570000,0.0324,0.013523,0.002678,0.000431,0.456832
52571000,0.0324,0.013523,0.002678,0.000431,0.105188
52572000,0.0324,0.013523,0.002678,0.000431,0.078861
52573000,0.0324,0.013523,0.002678,0.000431,0.062055
52574000,0.0324,0.013523,0.002678,0.000431,0.065111
52575000,0.0324,0.013523,0.002678,0.000431,0.053945
52576000,0.0324,0.013523,0.002678,0.000431,0.036316
52577000,0.0324,0.013523,0.002678,0.000431,0.028089
52578000,0.0324,0.013523,0.002678,0.000431,0.025034
52579000,0.0324,0.013523,0.002678,0.000431,0.022565
52580000,0.0324,0.013523,0.002678,0.000431,0.015279
52581000,0.0324,0.013523,0.002678,0.000431,0.015514
52582000,0.0324,0.013523,0.002678,0.000431,0.014809
52583000,0.0324,0.013523,0.002678,0.000431,0.008932
52584000,0.0324,0.013523,0.002678,0.000431,0.007874
52585000,0.0324,0.013523,0.002678,0.000431,0.006934
52586000,0.0324,0.013523,0.002678,0.000431,0.009990
52587000,0.0324,0.013523,0.002678,0.000431,0.006464
52588000,0.0324,0.013523,0.002678,0.000431,0.006699
52589000,0.0324,0.013523,0.002678,0.000431,0.006347
52590000,0.0324,0.013523,0.002678,0.000431,0.006699
52591000,0.0324,0.013523,0.002678,0.000431,0.007639
52592000,0.0324,0.013523,0.002678,0.000431,0.006582
52593000,0.0324,0.013523,0.002678,0.000431,0.004113
52594000,0.0324,0.013523,0.002678,0.000431,0.004349
52595000,0.0324,0.013523,0.002678,0.000431,0.006817
52596000,0.0324,0.013523,0.002678,0.000431,0.003761
52597000,0.0324,0.013523,0.002678,0.000431,0.002468
52598000,0.0324,0.013523,0.002678,0.000431,0.002586
52599000,0.0324,0.013523,0.002678,0.000431,0.002351
52600000,0.0324,0.013523,0.002678,0.000431,0.002703
52601000,0.0324,0.013523,0.002678,0.000431,0.002233
52602000,0.0324,0.013523,0.002678,0.000431,0.002586
52603000,0.0324,0.013523,0.002678,0.000431,0.002703
52604000,0.0324,0.013523,0.002678,0.000431,0.004349
52605000,0.0324,0.013523,0.002678,0.000431,0.001763
52606000,0.0324,0.013523,0.002678,0.000431,0.001645
52607000,0.0324,0.013523,0.002678,0.000431,0.001763
52608000,0.0324,0.013523,0.002678,0.000431,0.001645
52609000,0.0324,0.013523,0.002678,0.000431,0.001645
52610000,0.0324,0.013523,0.002678,0.000431,0.001880
52611000,0.0324,0.013523,0.002678,0.000431,0.002468
52612000,0.0324,0.013523,0.002678,0.000431,0.001880
52613000,0.0324,0.013523,0.002678,0.000431,0.000705
52614000,0.0324,0.013523,0.002678,0.000431,0.000940
52615000,0.0324,0.013523,0.002678,0.000431,0.000940
52616000,0.0324,0.013523,0.002678,0.000431,0.000705
52617000,0.0324,0.013523,0.002678,0.000431,0.000940
52618000,0.0324,0.013523,0.002678,0.000431,0.000705
52619000,0.0324,0.013523,0.002678,0.000431,0.000940
52620000,0.0324,0.013523,0.002678,0.000431,0.000823
52621000,0.0324,0.013523,0.002678,0.000431,0.000823
52622000,0.0324,0.013523,0.002678,0.000431,0.000940
52623000,0.0324,0.013523,0.002678,0.000431,0.000705
52624000,0.0324,0.013523,0.002678,0.000431,0.000940
52625000,0.0324,0.013523,0.002678,0.000431,0.000823
52626000,0.0324,0.013523,0.002678,0.000431,0.000823
52627000,0.0324,0.013523,0.002678,0.000431,0.000823
52628000,0.0324,0.013523,0.002678,0.000431,0.000823
52629000,0.0324,0.013523,0.002678,0.000431,0.000823
52630000,0.0324,0.013523,0.002678,0.000431,0.000823
52631000,0.0324,0.013523,0.002678,0.000431,0.000940
52632000,0.0324,0.013523,0.002678,0.000431,0.000705
52633000,0.0324,0.013523,0.002678,0.000431,0.000940
52634000,0.0324,0.013523,0.002678,0.000431,0.000823
52635000,0.0324,0.013523,0.002678,0.000431,0.000823
52636000,0.0324,0.013523,0.002678,0.000431,0.000705
52637000,0.0324,0.013523,0.002678,0.000431,0.000940
52638000,0.0324,0.013523,0.002678,0.000431,0.000940
52639000,0.0324,0.013523,0.002678,0.000431,0.000705
52640000,0.0324,0.013523,0.002678,0.000431,0.000940
52641000,0.0324,0.013523,0.002678,0.000431,0.000705
52642000,0.0324,0.013523,0.002678,0.000431,0.000940
52643000,0.0324,0.013523,0.002678,0.000431,0.000823
52644000,0.0324,0.013523,0.002678,0.000431,0.000823
52645000,0.0324,0.013523,0.002678,0.000431,0.000940
52646000,0.0324,0.013523,0.002678,0.000431,0.000705
52647000,0.0324,0.013523,0.002678,0.000431,0.000940
52648000,0.0324,0.013523,0.002678,0.000431,0.000823
52649000,0.0324,0.013523,0.002678,0.000431,0.000823
52650000,0.0324,0.013523,0.002678,0.000431,0.000823
52651000,0.0324,0.013523,0.002678,0.000431,0.000823
52652000,0.0324,0.013523,0.002678,0.000431,0.001998
52653000,0.0324,0.013523,0.002678,0.000431,0.398891
52654000,0.0324,0.013523,0.002678,0.000431,0.681076
52655000,0.0324,0.013523,0.002678,0.000431,0.179701
52656000,0.0324,0.013523,0.002678,0.000431,0.132807
52657000,0.0324,0.013523,0.002678,0.000431,0.179701
52658000,0.0324,0.013523,0.002678,0.000431,0.560022
52659000,0.0324,0.013523,0.002678,0.000431,0.238582
52660000,0.0324,0.013523,0.002678,0.000431,0.306396
52661000,0.0324,0.013523,0.002678,0.000431,0.215664
52662000,0.0324,0.013523,0.002678,0.000431,0.145265
52663000,0.0324,0.013523,0.002678,0.000431,0.152669
52664000,0.0324,0.013523,0.002678,0.000431,0.221071
52665000,0.0324,0.013523,0.002678,0.000431,0.368568
52666000,0.0324,0.013523,0.002678,0.000431,0.033378
52667000,0.0324,0.013523,0.002678,0.000431,0.026561
52668000,0.0324,0.013523,0.002678,0.000431,0.017159
52669000,0.0324,0.013523,0.002678,0.000431,0.015749
52670000,0.0324,0.013523,0.002678,0.000431,0.013516
52671000,0.0324,0.013523,0.002678,0.000431,0.013751
52672000,0.0324,0.013523,0.002678,0.000431,0.017277
52673000,0.0324,0.013523,0.002678,0.000431,0.009872
52674000,0.0324,0.013523,0.002678,0.000431,0.009990
52675000,0.0324,0.013523,0.002678,0.000431,0.011400
52676000,0.0324,0.013523,0.002678,0.000431,0.006464
52677000,0.0324,0.013523,0.002678,0.000431,0.007874
52678000,0.0324,0.013523,0.002678,0.000431,0.007287
52679000,0.0324,0.013523,0.002678,0.000431,0.009990
52680000,0.0324,0.013523,0.002678,0.000431,0.005641
52681000,0.0324,0.013523,0.002678,0.000431,0.005641
52682000,0.0324,0.013523,0.002678,0.000431,0.005524
52683000,0.0324,0.013523,0.002678,0.000431,0.009167
52684000,0.0324,0.013523,0.002678,0.000431,0.003996
52685000,0.0324,0.013523,0.002678,0.000431,0.003878
52686000,0.0324,0.013523,0.002678,0.000431,0.004113
52687000,0.0324,0.013523,0.002678,0.000431,0.003878
52688000,0.0324,0.013523,0.002678,0.000431,0.004466
52689000,0.0324,0.013523,0.002678,0.000431,0.003643
52690000,0.0324,0.013523,0.002678,0.000431,0.004231
52691000,0.0324,0.013523,0.002678,0.000431,0.003643
52692000,0.0324,0.013523,0.002678,0.000431,0.004113
52693000,0.0324,0.013523,0.002678,0.000431,0.004349
52694000,0.0324,0.013523,0.002678,0.000431,0.004466
52695000,0.0324,0.013523,0.002678,0.000431,0.002468
52696000,0.0324,0.013523,0.002678,0.000431,0.001763
52697000,0.0324,0.013523,0.002678,0.000431,0.001763
52698000,0.0324,0.013523,0.002678,0.000431,0.003996
52699000,0.0324,0.013523,0.002678,0.000431,0.011400
52700000,0.0324,0.013523,0.002678,0.000431,0.435207
52701000,0.0324,0.013523,0.002678,0.000431,0.610676
52702000,0.0324,0.013523,0.002678,0.000431,0.132572
52703000,0.0324,0.013523,0.002678,0.000431,0.133512
52704000,0.0324,0.013523,0.002678,0.000431,0.248925
52705000,0.0324,0.013523,0.002678,0.000431,0.540395
52706000,0.0324,0.013523,0.002678,0.000431,0.279012
52707000,0.0324,0.013523,0.002678,0.000431,0.304633
52708000,0.0324,0.013523,0.002678,0.000431,0.182756
52709000,0.0324,0.013523,0.002678,0.000431,0.136920
52710000,0.0324,0.013523,0.002678,0.000431,0.132924
52711000,0.0324,0.013523,0.002678,0.000431,0.260678
52712000,0.0324,0.013523,0.002678,0.000431,0.365513
52713000,0.0324,0.013523,0.002678,0.000431,0.084503
52714000,0.0324,0.013523,0.002678,0.000431,0.072750
52715000,0.0324,0.013523,0.002678,0.000431,0.062525
52716000,0.0324,0.013523,0.002678,0.000431,0.045131
52717000,0.0324,0.013523,0.002678,0.000431,0.039489
52718000,0.0324,0.013523,0.002678,0.000431,0.033613
52719000,0.0324,0.013523,0.002678,0.000431,0.031262
52720000,0.0324,0.013523,0.002678,0.000431,0.024093
52721000,0.0324,0.013523,0.002678,0.000431,0.024328
52722000,0.0324,0.013523,0.002678,0.000431,0.016454
52723000,0.0324,0.013523,0.002678,0.000431,0.013163
52724000,0.0324,0.013523,0.002678,0.000431,0.012458
52725000,0.0324,0.013523,0.002678,0.000431,0.011635
52726000,0.0324,0.013523,0.002678,0.000431,0.009402
52727000,0.0324,0.013523,0.002678,0.000431,0.007874
52728000,0.0324,0.013523,0.002678,0.000431,0.007404
52729000,0.0324,0.013523,0.002678,0.000431,0.007522
52730000,0.0324,0.013523,0.002678,0.000431,0.007287
52731000,0.0324,0.013523,0.002678,0.000431,0.007757
52732000,0.0324,0.013523,0.002678,0.000431,0.007287
52733000,0.0324,0.013523,0.002678,0.000431,0.007052
52734000,0.0324,0.013523,0.002678,0.000431,0.009520
52735000,0.0324,0.013523,0.002678,0.000431,0.008815
52736000,0.0324,0.013523,0.002678,0.000431,0.005289
52737000,0.0324,0.013523,0.002678,0.000431,0.005054
52738000,0.0324,0.013523,0.002678,0.000431,0.005289
52739000,0.0324,0.013523,0.002678,0.000431,0.004231
52740000,0.0324,0.013523,0.002678,0.000431,0.003996
52741000,0.0324,0.013523,0.002678,0.000431,0.004231
52742000,0.0324,0.013523,0.002678,0.000431,0.004349
52743000,0.0324,0.013523,0.002678,0.000431,0.003996
52744000,0.0324,0.013523,0.002678,0.000431,0.004349
52745000,0.0324,0.013523,0.002678,0.000431,0.003996
52746000,0.0324,0.013523,0.002678,0.000431,0.004466
52747000,0.0324,0.013523,0.002678,0.000431,0.004231
52748000,0.0324,0.013523,0.002678,0.000431,0.005406
52749000,0.0324,0.013523,0.002678,0.000431,0.003526
52750000,0.0324,0.013523,0.002678,0.000431,0.003173
52751000,0.0324,0.013523,0.002678,0.000431,0.003643
52752000,0.0324,0.013523,0.002678,0.000431,0.003291
52753000,0.0324,0.013523,0.002678,0.000431,0.003291
52754000,0.0324,0.013523,0.002678,0.000431,0.003408
52755000,0.0324,0.013523,0.002678,0.000431,0.003408
52756000,0.0324,0.013523,0.002678,0.000431,0.003291
52757000,0.0324,0.013523,0.002678,0.000431,0.003291
52758000,0.0324,0.013523,0.002678,0.000431,0.003526
52759000,0.0324,0.013523,0.002678,0.000431,0.003643
52760000,0.0324,0.013523,0.002678,0.000431,0.002938
52761000,0.0324,0.013523,0.002678,0.000431,0.003408
52762000,0.0324,0.013523,0.002678,0.000431,0.003526
52763000,0.0324,0.013523,0.002678,0.000431,0.003291
52764000,0.0324,0.013523,0.002678,0.000431,0.003291
52765000,0.0324,0.013523,0.002678,0.000431,0.003408
52766000,0.0324,0.013523,0.002678,0.000431,0.003526
52767000,0.0324,0.013523,0.002678,0.000431,0.003408
52768000,0.0324,0.013523,0.002678,0.000431,0.002938
52769000,0.0324,0.013523,0.002678,0.000431,0.003761
52770000,0.0324,0.013523,0.002678,0.000431,0.003526
52771000,0.0324,0.013523,0.002678,0.000431,0.003173
52772000,0.0324,0.013523,0.002678,0.000431,0.003173
52773000,0.0324,0.013523,0.002678,0.000431,0.003526
52774000,0.0324,0.013523,0.002678,0.000431,0.003526
52775000,0.0324,0.013523,0.002678,0.000431,0.002938
52776000,0.0324,0.013523,0.002678,0.000431,0.003643
52777000,0.0324,0.013523,0.002678,0.000431,0.003408
52778000,0.0324,0.013523,0.002678,0.000431,0.005171
52779000,0.0324,0.013523,0.002678,0.000431,0.002233
52780000,0.0324,0.013523,0.002678,0.000431,0.003526
52781000,0.0324,0.013523,0.002678,0.000431,0.002821
52782000,0.0324,0.013523,0.002678,0.000431,0.001645
52783000,0.0324,0.013523,0.002678,0.000431,0.001645
52784000,0.0324,0.013523,0.002678,0.000431,0.001645
52785000,0.0324,0.013523,0.002678,0.000431,0.001645
52786000,0.0324,0.013523,0.002678,0.000431,0.001645
52787000,0.0324,0.013523,0.002678,0.000431,0.001645
52788000,0.0324,0.013523,0.002678,0.000431,0.001645
52789000,0.0324,0.013523,0.002678,0.000431,0.001645
52790000,0.0324,0.013523,0.002678,0.000431,0.014338
52791000,0.0324,0.013523,0.002678,0.000431,0.552970
52792000,0.0324,0.013523,0.002678,0.000431,0.584703
52793000,0.0324,0.013523,0.002678,0.000431,0.137861
52794000,0.0324,0.013523,0.002678,0.000431,0.133042
52795000,0.0324,0.013523,0.002678,0.000431,0.467880
52796000,0.0324,0.013523,0.002678,0.000431,0.311920
52797000,0.0324,0.013523,0.002678,0.000431,0.271843
52798000,0.0324,0.013523,0.002678,0.000431,0.316268
52799000,0.0324,0.013523,0.002678,0.000431,0.136920
52800000,0.0324,0.013523,0.002678,0.000431,0.146440
52801000,0.0324,0.013523,0.002678,0.000431,0.126343
52802000,0.0324,0.013523,0.002678,0.000431,0.314858
52803000,0.0324,0.013523,0.002678,0.000431,0.265731
52804000,0.0324,0.013523,0.002678,0.000431,0.035729
52805000,0.0324,0.013523,0.002678,0.000431,0.024211
52806000,0.0324,0.013523,0.002678,0.000431,0.025621
52807000,0.0324,0.013523,0.002678,0.000431,0.013046
52808000,0.0324,0.013523,0.002678,0.000431,0.012340
52809000,0.0324,0.013523,0.002678,0.000431,0.011870
52810000,0.0324,0.013523,0.002678,0.000431,0.006699
52811000,0.0324,0.013523,0.002678,0.000431,0.008227
52812000,0.0324,0.013523,0.002678,0.000431,0.007522
52813000,0.0324,0.013523,0.002678,0.000431,0.007052
52814000,0.0324,0.013523,0.002678,0.000431,0.005641
52815000,0.0324,0.013523,0.002678,0.000431,0.002233
52816000,0.0324,0.013523,0.002678,0.000431,0.002821
52817000,0.0324,0.013523,0.002678,0.000431,0.004231
52818000,0.0324,0.013523,0.002678,0.000431,0.001528
52819000,0.0324,0.013523,0.002678,0.000431,0.001763
52820000,0.0324,0.013523,0.002678,0.000431,0.001528
52821000,0.0324,0.013523,0.002678,0.000431,0.001763
52822000,0.0324,0.013523,0.002678,0.000431,0.001645
52823000,0.0324,0.013523,0.002678,0.000431,0.001645
52824000,0.0324,0.013523,0.002678,0.000431,0.001645
52825000,0.0324,0.013523,0.002678,0.000431,0.001763
52826000,0.0324,0.013523,0.002678,0.000431,0.001763
52827000,0.0324,0.013523,0.002678,0.000431,0.001528
52828000,0.0324,0.013523,0.002678,0.000431,0.001645
52829000,0.0324,0.013523,0.002678,0.000431,0.001763
52830000,0.0324,0.013523,0.002678,0.000431,0.001763
52831000,0.0324,0.013523,0.002678,0.000431,0.001528
52832000,0.0324,0.013523,0.002678,0.000431,0.001763
52833000,0.0324,0.013523,0.002678,0.000431,0.001528
52834000,0.0324,0.013523,0.002678,0.000431,0.001763
52835000,0.0324,0.013523,0.002678,0.000431,0.001763
52836000,0.0324,0.013523,0.002678,0.000431,0.003291
52837000,0.0324,0.013523,0.002678,0.000431,0.000940
52838000,0.0324,0.013523,0.002678,0.000431,0.000705
52839000,0.0324,0.013523,0.002678,0.000431,0.000940
52840000,0.0324,0.013523,0.002678,0.000431,0.000823
52841000,0.0324,0.013523,0.002678,0.000431,0.000823
52842000,0.0324,0.013523,0.002678,0.000431,0.006934
52843000,0.0324,0.013523,0.002678,0.000431,0.418753
52844000,0.0324,0.013523,0.002678,0.000431,0.621254
52845000,0.0324,0.013523,0.002678,0.000431,0.132102
52846000,0.0324,0.013523,0.002678,0.000431,0.133512
52847000,0.0324,0.013523,0.002678,0.000431,0.211433
52848000,0.0324,0.013523,0.002678,0.000431,0.615613
52849000,0.0324,0.013523,0.002678,0.000431,0.243401
52850000,0.0324,0.013523,0.002678,0.000431,0.278894
52851000,0.0324,0.013523,0.002678,0.000431,0.186165
52852000,0.0324,0.013523,0.002678,0.000431,0.137390
52853000,0.0324,0.013523,0.002678,0.000431,0.171004
52854000,0.0324,0.013523,0.002678,0.000431,0.097901
52855000,0.0324,0.013523,0.002678,0.000431,0.475872
52856000,0.0324,0.013523,0.002678,0.000431,0.070399
52857000,0.0324,0.013523,0.002678,0.000431,0.039254
52858000,0.0324,0.013523,0.002678,0.000431,0.034318
52859000,0.0324,0.013523,0.002678,0.000431,0.027854
52860000,0.0324,0.013523,0.002678,0.000431,0.020450
52861000,0.0324,0.013523,0.002678,0.000431,0.018687
52862000,0.0324,0.013523,0.002678,0.000431,0.021390
52863000,0.0324,0.013523,0.002678,0.000431,0.020215
52864000,0.0324,0.013523,0.002678,0.000431,0.014573
52865000,0.0324,0.013523,0.002678,0.000431,0.015749
52866000,0.0324,0.013523,0.002678,0.000431,0.017159
52867000,0.0324,0.013523,0.002678,0.000431,0.010225
52868000,0.0324,0.013523,0.002678,0.000431,0.015161
52869000,0.0324,0.013523,0.002678,0.000431,0.006464
52870000,0.0324,0.013523,0.002678,0.000431,0.006699
52871000,0.0324,0.013523,0.002678,0.000431,0.009167
52872000,0.0324,0.013523,0.002678,0.000431,0.008815
52873000,0.0324,0.013523,0.002678,0.000431,0.003173
52874000,0.0324,0.013523,0.002678,0.000431,0.003526
52875000,0.0324,0.013523,0.002678,0.000431,0.003291
52876000,0.0324,0.013523,0.002678,0.000431,0.003173
52877000,0.0324,0.013523,0.002678,0.000431,0.003526
52878000,0.0324,0.013523,0.002678,0.000431,0.003291
52879000,0.0324,0.013523,0.002678,0.000431,0.003526
52880000,0.0324,0.013523,0.002678,0.000431,0.002821
52881000,0.0324,0.013523,0.002678,0.000431,0.003526
52882000,0.0324,0.013523,0.002678,0.000431,0.004231
52883000,0.0324,0.013523,0.002678,0.000431,0.004584
52884000,0.0324,0.013523,0.002678,0.000431,0.000823
52885000,0.0324,0.013523,0.002678,0.000431,0.000823
52886000,0.0324,0.013523,0.002678,0.000431,0.000940
52887000,0.0324,0.013523,0.002678,0.000431,0.000705
52888000,0.0324,0.013523,0.002678,0.000431,0.000940
52889000,0.0324,0.013523,0.002678,0.000431,0.000823
52890000,0.0324,0.013523,0.002678,0.000431,0.000823
52891000,0.0324,0.013523,0.002678,0.000431,0.000823
52892000,0.0324,0.013523,0.002678,0.000431,0.000823
52893000,0.0324,0.013523,0.002678,0.000431,0.000823
52894000,0.0324,0.013523,0.002678,0.000431,0.000823
52895000,0.0324,0.013523,0.002678,0.000431,0.000823
52896000,0.0324,0.013523,0.002678,0.000431,0.000940
52897000,0.0324,0.013523,0.002678,0.000431,0.000823
52898000,0.0324,0.013523,0.002678,0.000431,0.000823
52899000,0.0324,0.013523,0.002678,0.000431,0.000823
52900000,0.0324,0.013523,0.002678,0.000431,0.000705
52901000,0.0324,0.013523,0.002678,0.000431,0.000940
52902000,0.0324,0.013523,0.002678,0.000431,0.000940
52903000,0.0324,0.013523,0.002678,0.000431,0.000705
52904000,0.0324,0.013523,0.002678,0.000431,0.000940
52905000,0.0324,0.013523,0.002678,0.000431,0.000705
52906000,0.0324,0.013523,0.002678,0.000431,0.000940
52907000,0.0324,0.013523,0.002678,0.000431,0.000823
52908000,0.0324,0.013523,0.002678,0.000431,0.000823
52909000,0.0324,0.013523,0.002678,0.000431,0.000940
52910000,0.0324,0.013523,0.002678,0.000431,0.000705
52911000,0.0324,0.013523,0.002678,0.000431,0.000940
52912000,0.0324,0.013523,0.002678,0.000431,0.000823
52913000,0.0324,0.013523,0.002678,0.000431,0.000823
52914000,0.0324,0.013523,0.002678,0.000431,0.001410
52915000,0.0324,0.013523,0.002678,0.000431,0.254449
52916000,0.0324,0.013523,0.002678,0.000431,0.611617
52917000,0.0324,0.013523,0.002678,0.000431,0.308629
52918000,0.0324,0.013523,0.002678,0.000431,0.131161
52919000,0.0324,0.013523,0.002678,0.000431,0.134687
52920000,0.0324,0.013523,0.002678,0.000431,0.587641
52921000,0.0324,0.013523,0.002678,0.000431,0.220600
52922000,0.0324,0.013523,0.002678,0.000431,0.267964
52923000,0.0324,0.013523,0.002678,0.000431,0.292175
52924000,0.0324,0.013523,0.002678,0.000431,0.136450
52925000,0.0324,0.013523,0.002678,0.000431,0.151024
52926000,0.0324,0.013523,0.002678,0.000431,0.107186
52927000,0.0324,0.013523,0.002678,0.000431,0.408175
52928000,0.0324,0.013523,0.002678,0.000431,0.143619
52929000,0.0324,0.013523,0.002678,0.000431,0.015866
52930000,0.0324,0.013523,0.002678,0.000431,0.016689
52931000,0.0324,0.013523,0.002678,0.000431,0.015161
52932000,0.0324,0.013523,0.002678,0.000431,0.010578
52933000,0.0324,0.013523,0.002678,0.000431,0.006817
52934000,0.0324,0.013523,0.002678,0.000431,0.008109
52935000,0.0324,0.013523,0.002678,0.000431,0.004231
52936000,0.0324,0.013523,0.002678,0.000431,0.004349
52937000,0.0324,0.013523,0.002678,0.000431,0.004349
52938000,0.0324,0.013523,0.002678,0.000431,0.004349
52939000,0.0324,0.013523,0.002678,0.000431,0.004349
52940000,0.0324,0.013523,0.002678,0.000431,0.003996
52941000,0.0324,0.013523,0.002678,0.000431,0.004701
52942000,0.0324,0.013523,0.002678,0.000431,0.004231
52943000,0.0324,0.013523,0.002678,0.000431,0.006111
52944000,0.0324,0.013523,0.002678,0.000431,0.004936
52945000,0.0324,0.013523,0.002678,0.000431,0.002586
52946000,0.0324,0.013523,0.002678,0.000431,0.002468
52947000,0.0324,0.013523,0.002678,0.000431,0.002468
52948000,0.0324,0.013523,0.002678,0.000431,0.002586
52949000,0.0324,0.013523,0.002678,0.000431,0.002586
52950000,0.0324,0.013523,0.002678,0.000431,0.002703
52951000,0.0324,0.013523,0.002678,0.000431,0.002233
52952000,0.0324,0.013523,0.002678,0.000431,0.002821
52953000,0.0324,0.013523,0.002678,0.000431,0.002233
52954000,0.0324,0.013523,0.002678,0.000431,0.002821
52955000,0.0324,0.013523,0.002678,0.000431,0.003761
52956000,0.0324,0.013523,0.002678,0.000431,0.000823
52957000,0.0324,0.013523,0.002678,0.000431,0.000940
52958000,0.0324,0.013523,0.002678,0.000431,0.000705
52959000,0.0324,0.013523,0.002678,0.000431,0.000940
52960000,0.0324,0.013523,0.002678,0.000431,0.000823
52961000,0.0324,0.013523,0.002678,0.000431,0.000823
52962000,0.0324,0.013523,0.002678,0.000431,0.000823
52963000,0.0324,0.013523,0.002678,0.000431,0.000823
52964000,0.0324,0.013523,0.002678,0.000431,0.000823
52965000,0.0324,0.013523,0.002678,0.000431,0.000823
52966000,0.0324,0.013523,0.002678,0.000431,0.000940
52967000,0.0324,0.013523,0.002678,0.000431,0.000705
52968000,0.0324,0.013523,0.002678,0.000431,0.000823
52969000,0.0324,0.013523,0.002678,0.000431,0.000940
52970000,0.0324,0.013523,0.002678,0.000431,0.000823
52971000,0.0324,0.013523,0.002678,0.000431,0.000823
52972000,0.0324,0.013523,0.002678,0.000431,0.000823
52973000,0.0324,0.013523,0.002678,0.000431,0.000705
52974000,0.0324,0.013523,0.002678,0.000431,0.000940
52975000,0.0324,0.013523,0.002678,0.000431,0.000940
52976000,0.0324,0.013523,0.002678,0.000431,0.000705
52977000,0.0324,0.013523,0.002678,0.000431,0.000940
52978000,0.0324,0.013523,0.002678,0.000431,0.000705
52979000,0.0324,0.013523,0.002678,0.000431,0.000940
52980000,0.0324,0.013523,0.002678,0.000431,0.000940
52981000,0.0324,0.013523,0.002678,0.000431,0.000823
52982000,0.0324,0.013523,0.002678,0.000431,0.000823
52983000,0.0324,0.013523,0.002678,0.000431,0.000940
52984000,0.0324,0.013523,0.002678,0.000431,0.000940
52985000,0.0324,0.013523,0.002678,0.000431,0.000705
52986000,0.0324,0.013523,0.002678,0.000431,0.000940
52987000,0.0324,0.013523,0.002678,0.000431,0.000940
52988000,0.0324,0.013523,0.002678,0.000431,0.000940
52989000,0.0324,0.013523,0.002678,0.000431,0.000823
52990000,0.0324,0.013523,0.002678,0.000431,0.000823
52991000,0.0324,0.013523,0.002678,0.000431,0.000823
52992000,0.0324,0.013523,0.002678,0.000431,0.000823
52993000,0.0324,0.013523,0.002678,0.000431,0.000705
52994000,0.0324,0.013523,0.002678,0.000431,0.000940
52995000,0.0324,0.013523,0.002678,0.000431,0.000940
52996000,0.0324,0.013523,0.002678,0.000431,0.000705
52997000,0.0324,0.013523,0.002678,0.000431,0.000940
52998000,0.0324,0.013523,0.002678,0.000431,0.000705
52999000,0.0324,0.013523,0.002678,0.000431,0.000940
