Cycle,Area(mm^2),PeakDynamic(W),SubthresholdLeakage(W),GateLeakage(W),RunTimeDynamic(W)
123000000,0.0324,0.013523,0.002678,0.000431,0.000705
123001000,0.0324,0.013523,0.002678,0.000431,0.000940
123002000,0.0324,0.013523,0.002678,0.000431,0.000823
123003000,0.0324,0.013523,0.002678,0.000431,0.000823
123004000,0.0324,0.013523,0.002678,0.000431,0.000823
123005000,0.0324,0.013523,0.002678,0.000431,0.000823
123006000,0.0324,0.013523,0.002678,0.000431,0.000823
123007000,0.0324,0.013523,0.002678,0.000431,0.000823
123008000,0.0324,0.013523,0.002678,0.000431,0.000940
123009000,0.0324,0.013523,0.002678,0.000431,0.000705
123010000,0.0324,0.013523,0.002678,0.000431,0.000823
123011000,0.0324,0.013523,0.002678,0.000431,0.000940
123012000,0.0324,0.013523,0.002678,0.000431,0.000823
123013000,0.0324,0.013523,0.002678,0.000431,0.000823
123014000,0.0324,0.013523,0.002678,0.000431,0.000823
123015000,0.0324,0.013523,0.002678,0.000431,0.000823
123016000,0.0324,0.013523,0.002678,0.000431,0.001763
123017000,0.0324,0.013523,0.002678,0.000431,0.304633
123018000,0.0324,0.013523,0.002678,0.000431,0.617493
123019000,0.0324,0.013523,0.002678,0.000431,0.212961
123020000,0.0324,0.013523,0.002678,0.000431,0.130691
123021000,0.0324,0.013523,0.002678,0.000431,0.134452
123022000,0.0324,0.013523,0.002678,0.000431,0.577416
123023000,0.0324,0.013523,0.002678,0.000431,0.230003
123024000,0.0324,0.013523,0.002678,0.000431,0.224596
123025000,0.0324,0.013523,0.002678,0.000431,0.302047
123026000,0.0324,0.013523,0.002678,0.000431,0.138801
123027000,0.0324,0.013523,0.002678,0.000431,0.140446
123028000,0.0324,0.013523,0.002678,0.000431,0.144442
123029000,0.0324,0.013523,0.002678,0.000431,0.232823
123030000,0.0324,0.013523,0.002678,0.000431,0.383377
123031000,0.0324,0.013523,0.002678,0.000431,0.092495
123032000,0.0324,0.013523,0.002678,0.000431,0.092612
123033000,0.0324,0.013523,0.002678,0.000431,0.072397
123034000,0.0324,0.013523,0.002678,0.000431,0.063818
123035000,0.0324,0.013523,0.002678,0.000431,0.053710
123036000,0.0324,0.013523,0.002678,0.000431,0.047481
123037000,0.0324,0.013523,0.002678,0.000431,0.041487
123038000,0.0324,0.013523,0.002678,0.000431,0.032555
123039000,0.0324,0.013523,0.002678,0.000431,0.027737
123040000,0.0324,0.013523,0.002678,0.000431,0.030087
123041000,0.0324,0.013523,0.002678,0.000431,0.027267
123042000,0.0324,0.013523,0.002678,0.000431,0.025856
123043000,0.0324,0.013523,0.002678,0.000431,0.030322
123044000,0.0324,0.013523,0.002678,0.000431,0.014338
123045000,0.0324,0.013523,0.002678,0.000431,0.015279
123046000,0.0324,0.013523,0.002678,0.000431,0.014456
123047000,0.0324,0.013523,0.002678,0.000431,0.014221
123048000,0.0324,0.013523,0.002678,0.000431,0.015631
123049000,0.0324,0.013523,0.002678,0.000431,0.014338
123050000,0.0324,0.013523,0.002678,0.000431,0.015044
123051000,0.0324,0.013523,0.002678,0.000431,0.014809
123052000,0.0324,0.013523,0.002678,0.000431,0.013046
123053000,0.0324,0.013523,0.002678,0.000431,0.016219
123054000,0.0324,0.013523,0.002678,0.000431,0.012458
123055000,0.0324,0.013523,0.002678,0.000431,0.013751
123056000,0.0324,0.013523,0.002678,0.000431,0.012928
123057000,0.0324,0.013523,0.002678,0.000431,0.012693
123058000,0.0324,0.013523,0.002678,0.000431,0.012928
123059000,0.0324,0.013523,0.002678,0.000431,0.013281
123060000,0.0324,0.013523,0.002678,0.000431,0.012811
123061000,0.0324,0.013523,0.002678,0.000431,0.013516
123062000,0.0324,0.013523,0.002678,0.000431,0.014221
123063000,0.0324,0.013523,0.002678,0.000431,0.013163
123064000,0.0324,0.013523,0.002678,0.000431,0.012223
123065000,0.0324,0.013523,0.002678,0.000431,0.013046
123066000,0.0324,0.013523,0.002678,0.000431,0.011870
123067000,0.0324,0.013523,0.002678,0.000431,0.010107
123068000,0.0324,0.013523,0.002678,0.000431,0.009872
123069000,0.0324,0.013523,0.002678,0.000431,0.009402
123070000,0.0324,0.013523,0.002678,0.000431,0.009520
123071000,0.0324,0.013523,0.002678,0.000431,0.010578
123072000,0.0324,0.013523,0.002678,0.000431,0.009402
123073000,0.0324,0.013523,0.002678,0.000431,0.010342
123074000,0.0324,0.013523,0.002678,0.000431,0.008227
123075000,0.0324,0.013523,0.002678,0.000431,0.007992
123076000,0.0324,0.013523,0.002678,0.000431,0.006464
123077000,0.0324,0.013523,0.002678,0.000431,0.006582
123078000,0.0324,0.013523,0.002678,0.000431,0.006817
123079000,0.0324,0.013523,0.002678,0.000431,0.009520
123080000,0.0324,0.013523,0.002678,0.000431,0.003996
123081000,0.0324,0.013523,0.002678,0.000431,0.003996
123082000,0.0324,0.013523,0.002678,0.000431,0.005994
123083000,0.0324,0.013523,0.002678,0.000431,0.003526
123084000,0.0324,0.013523,0.002678,0.000431,0.003173
123085000,0.0324,0.013523,0.002678,0.000431,0.003173
123086000,0.0324,0.013523,0.002678,0.000431,0.003526
123087000,0.0324,0.013523,0.002678,0.000431,0.003056
123088000,0.0324,0.013523,0.002678,0.000431,0.003526
123089000,0.0324,0.013523,0.002678,0.000431,0.003526
123090000,0.0324,0.013523,0.002678,0.000431,0.003056
123091000,0.0324,0.013523,0.002678,0.000431,0.003643
123092000,0.0324,0.013523,0.002678,0.000431,0.002938
123093000,0.0324,0.013523,0.002678,0.000431,0.003526
123094000,0.0324,0.013523,0.002678,0.000431,0.003526
123095000,0.0324,0.013523,0.002678,0.000431,0.003173
123096000,0.0324,0.013523,0.002678,0.000431,0.003173
123097000,0.0324,0.013523,0.002678,0.000431,0.003408
123098000,0.0324,0.013523,0.002678,0.000431,0.003643
123099000,0.0324,0.013523,0.002678,0.000431,0.002938
123100000,0.0324,0.013523,0.002678,0.000431,0.003408
123101000,0.0324,0.013523,0.002678,0.000431,0.003526
123102000,0.0324,0.013523,0.002678,0.000431,0.003173
123103000,0.0324,0.013523,0.002678,0.000431,0.003291
123104000,0.0324,0.013523,0.002678,0.000431,0.003408
123105000,0.0324,0.013523,0.002678,0.000431,0.003291
123106000,0.0324,0.013523,0.002678,0.000431,0.003291
123107000,0.0324,0.013523,0.002678,0.000431,0.003056
123108000,0.0324,0.013523,0.002678,0.000431,0.003526
123109000,0.0324,0.013523,0.002678,0.000431,0.003761
123110000,0.0324,0.013523,0.002678,0.000431,0.002821
123111000,0.0324,0.013523,0.002678,0.000431,0.003526
123112000,0.0324,0.013523,0.002678,0.000431,0.003291
123113000,0.0324,0.013523,0.002678,0.000431,0.003408
123114000,0.0324,0.013523,0.002678,0.000431,0.003291
123115000,0.0324,0.013523,0.002678,0.000431,0.003173
123116000,0.0324,0.013523,0.002678,0.000431,0.003761
123117000,0.0324,0.013523,0.002678,0.000431,0.003173
123118000,0.0324,0.013523,0.002678,0.000431,0.003291
123119000,0.0324,0.013523,0.002678,0.000431,0.003173
123120000,0.0324,0.013523,0.002678,0.000431,0.003526
123121000,0.0324,0.013523,0.002678,0.000431,0.003291
123122000,0.0324,0.013523,0.002678,0.000431,0.003408
123123000,0.0324,0.013523,0.002678,0.000431,0.003173
123124000,0.0324,0.013523,0.002678,0.000431,0.003526
123125000,0.0324,0.013523,0.002678,0.000431,0.003056
123126000,0.0324,0.013523,0.002678,0.000431,0.003291
123127000,0.0324,0.013523,0.002678,0.000431,0.003761
123128000,0.0324,0.013523,0.002678,0.000431,0.003056
123129000,0.0324,0.013523,0.002678,0.000431,0.003526
123130000,0.0324,0.013523,0.002678,0.000431,0.002938
123131000,0.0324,0.013523,0.002678,0.000431,0.003643
123132000,0.0324,0.013523,0.002678,0.000431,0.003408
123133000,0.0324,0.013523,0.002678,0.000431,0.003056
123134000,0.0324,0.013523,0.002678,0.000431,0.003643
123135000,0.0324,0.013523,0.002678,0.000431,0.003173
123136000,0.0324,0.013523,0.002678,0.000431,0.003526
123137000,0.0324,0.013523,0.002678,0.000431,0.003173
123138000,0.0324,0.013523,0.002678,0.000431,0.003291
123139000,0.0324,0.013523,0.002678,0.000431,0.003526
123140000,0.0324,0.013523,0.002678,0.000431,0.003173
123141000,0.0324,0.013523,0.002678,0.000431,0.003173
123142000,0.0324,0.013523,0.002678,0.000431,0.003526
123143000,0.0324,0.013523,0.002678,0.000431,0.003291
123144000,0.0324,0.013523,0.002678,0.000431,0.003173
123145000,0.0324,0.013523,0.002678,0.000431,0.003408
123146000,0.0324,0.013523,0.002678,0.000431,0.003291
123147000,0.0324,0.013523,0.002678,0.000431,0.003526
123148000,0.0324,0.013523,0.002678,0.000431,0.002938
123149000,0.0324,0.013523,0.002678,0.000431,0.003643
123150000,0.0324,0.013523,0.002678,0.000431,0.003291
123151000,0.0324,0.013523,0.002678,0.000431,0.003408
123152000,0.0324,0.013523,0.002678,0.000431,0.003173
123153000,0.0324,0.013523,0.002678,0.000431,0.003291
123154000,0.0324,0.013523,0.002678,0.000431,0.003761
123155000,0.0324,0.013523,0.002678,0.000431,0.003056
123156000,0.0324,0.013523,0.002678,0.000431,0.003291
123157000,0.0324,0.013523,0.002678,0.000431,0.003526
123158000,0.0324,0.013523,0.002678,0.000431,0.003291
123159000,0.0324,0.013523,0.002678,0.000431,0.003173
123160000,0.0324,0.013523,0.002678,0.000431,0.003408
123161000,0.0324,0.013523,0.002678,0.000431,0.003291
123162000,0.0324,0.013523,0.002678,0.000431,0.003408
123163000,0.0324,0.013523,0.002678,0.000431,0.003291
123164000,0.0324,0.013523,0.002678,0.000431,0.003173
123165000,0.0324,0.013523,0.002678,0.000431,0.003761
123166000,0.0324,0.013523,0.002678,0.000431,0.002821
123167000,0.0324,0.013523,0.002678,0.000431,0.003526
123168000,0.0324,0.013523,0.002678,0.000431,0.004936
123169000,0.0324,0.013523,0.002678,0.000431,0.002703
123170000,0.0324,0.013523,0.002678,0.000431,0.002468
123171000,0.0324,0.013523,0.002678,0.000431,0.002233
123172000,0.0324,0.013523,0.002678,0.000431,0.002821
123173000,0.0324,0.013523,0.002678,0.000431,0.002233
123174000,0.0324,0.013523,0.002678,0.000431,0.002586
123175000,0.0324,0.013523,0.002678,0.000431,0.002468
123176000,0.0324,0.013523,0.002678,0.000431,0.002351
123177000,0.0324,0.013523,0.002678,0.000431,0.002586
123178000,0.0324,0.013523,0.002678,0.000431,0.002351
123179000,0.0324,0.013523,0.002678,0.000431,0.002351
123180000,0.0324,0.013523,0.002678,0.000431,0.002586
123181000,0.0324,0.013523,0.002678,0.000431,0.002233
123182000,0.0324,0.013523,0.002678,0.000431,0.002586
123183000,0.0324,0.013523,0.002678,0.000431,0.002468
123184000,0.0324,0.013523,0.002678,0.000431,0.002351
123185000,0.0324,0.013523,0.002678,0.000431,0.002703
123186000,0.0324,0.013523,0.002678,0.000431,0.002233
123187000,0.0324,0.013523,0.002678,0.000431,0.002586
123188000,0.0324,0.013523,0.002678,0.000431,0.002351
123189000,0.0324,0.013523,0.002678,0.000431,0.002351
123190000,0.0324,0.013523,0.002678,0.000431,0.002821
123191000,0.0324,0.013523,0.002678,0.000431,0.002116
123192000,0.0324,0.013523,0.002678,0.000431,0.002821
123193000,0.0324,0.013523,0.002678,0.000431,0.002116
123194000,0.0324,0.013523,0.002678,0.000431,0.002586
123195000,0.0324,0.013523,0.002678,0.000431,0.002586
123196000,0.0324,0.013523,0.002678,0.000431,0.002233
123197000,0.0324,0.013523,0.002678,0.000431,0.002468
123198000,0.0324,0.013523,0.002678,0.000431,0.002586
123199000,0.0324,0.013523,0.002678,0.000431,0.002351
123200000,0.0324,0.013523,0.002678,0.000431,0.002468
123201000,0.0324,0.013523,0.002678,0.000431,0.002468
123202000,0.0324,0.013523,0.002678,0.000431,0.002351
123203000,0.0324,0.013523,0.002678,0.000431,0.002703
123204000,0.0324,0.013523,0.002678,0.000431,0.002351
123205000,0.0324,0.013523,0.002678,0.000431,0.002468
123206000,0.0324,0.013523,0.002678,0.000431,0.002233
123207000,0.0324,0.013523,0.002678,0.000431,0.002586
123208000,0.0324,0.013523,0.002678,0.000431,0.002703
123209000,0.0324,0.013523,0.002678,0.000431,0.002116
123210000,0.0324,0.013523,0.002678,0.000431,0.002821
123211000,0.0324,0.013523,0.002678,0.000431,0.002233
123212000,0.0324,0.013523,0.002678,0.000431,0.002468
123213000,0.0324,0.013523,0.002678,0.000431,0.002586
123214000,0.0324,0.013523,0.002678,0.000431,0.002351
123215000,0.0324,0.013523,0.002678,0.000431,0.002468
123216000,0.0324,0.013523,0.002678,0.000431,0.002351
123217000,0.0324,0.013523,0.002678,0.000431,0.002468
123218000,0.0324,0.013523,0.002678,0.000431,0.002586
123219000,0.0324,0.013523,0.002678,0.000431,0.002233
123220000,0.0324,0.013523,0.002678,0.000431,0.002468
123221000,0.0324,0.013523,0.002678,0.000431,0.002586
123222000,0.0324,0.013523,0.002678,0.000431,0.001998
123223000,0.0324,0.013523,0.002678,0.000431,0.002821
123224000,0.0324,0.013523,0.002678,0.000431,0.002233
123225000,0.0324,0.013523,0.002678,0.000431,0.002586
123226000,0.0324,0.013523,0.002678,0.000431,0.002468
123227000,0.0324,0.013523,0.002678,0.000431,0.002233
123228000,0.0324,0.013523,0.002678,0.000431,0.002116
123229000,0.0324,0.013523,0.002678,0.000431,0.002586
123230000,0.0324,0.013523,0.002678,0.000431,0.003643
123231000,0.0324,0.013523,0.002678,0.000431,0.000823
123232000,0.0324,0.013523,0.002678,0.000431,0.000940
123233000,0.0324,0.013523,0.002678,0.000431,0.000940
123234000,0.0324,0.013523,0.002678,0.000431,0.000823
123235000,0.0324,0.013523,0.002678,0.000431,0.000823
123236000,0.0324,0.013523,0.002678,0.000431,0.000940
123237000,0.0324,0.013523,0.002678,0.000431,0.000823
123238000,0.0324,0.013523,0.002678,0.000431,0.000940
123239000,0.0324,0.013523,0.002678,0.000431,0.000823
123240000,0.0324,0.013523,0.002678,0.000431,0.000940
123241000,0.0324,0.013523,0.002678,0.000431,0.000823
123242000,0.0324,0.013523,0.002678,0.000431,0.000823
123243000,0.0324,0.013523,0.002678,0.000431,0.000940
123244000,0.0324,0.013523,0.002678,0.000431,0.000940
123245000,0.0324,0.013523,0.002678,0.000431,0.000823
123246000,0.0324,0.013523,0.002678,0.000431,0.000823
123247000,0.0324,0.013523,0.002678,0.000431,0.000940
123248000,0.0324,0.013523,0.002678,0.000431,0.000940
123249000,0.0324,0.013523,0.002678,0.000431,0.000705
123250000,0.0324,0.013523,0.002678,0.000431,0.000940
123251000,0.0324,0.013523,0.002678,0.000431,0.000940
123252000,0.0324,0.013523,0.002678,0.000431,0.000940
123253000,0.0324,0.013523,0.002678,0.000431,0.000705
123254000,0.0324,0.013523,0.002678,0.000431,0.000940
123255000,0.0324,0.013523,0.002678,0.000431,0.000940
123256000,0.0324,0.013523,0.002678,0.000431,0.000823
123257000,0.0324,0.013523,0.002678,0.000431,0.000823
123258000,0.0324,0.013523,0.002678,0.000431,0.000940
123259000,0.0324,0.013523,0.002678,0.000431,0.000940
123260000,0.0324,0.013523,0.002678,0.000431,0.000823
123261000,0.0324,0.013523,0.002678,0.000431,0.000823
123262000,0.0324,0.013523,0.002678,0.000431,0.000940
123263000,0.0324,0.013523,0.002678,0.000431,0.000823
123264000,0.0324,0.013523,0.002678,0.000431,0.000940
123265000,0.0324,0.013523,0.002678,0.000431,0.000823
123266000,0.0324,0.013523,0.002678,0.000431,0.000940
123267000,0.0324,0.013523,0.002678,0.000431,0.000823
123268000,0.0324,0.013523,0.002678,0.000431,0.000823
123269000,0.0324,0.013523,0.002678,0.000431,0.000940
123270000,0.0324,0.013523,0.002678,0.000431,0.000940
123271000,0.0324,0.013523,0.002678,0.000431,0.000940
123272000,0.0324,0.013523,0.002678,0.000431,0.000705
123273000,0.0324,0.013523,0.002678,0.000431,0.000940
123274000,0.0324,0.013523,0.002678,0.000431,0.000940
123275000,0.0324,0.013523,0.002678,0.000431,0.000823
123276000,0.0324,0.013523,0.002678,0.000431,0.000823
123277000,0.0324,0.013523,0.002678,0.000431,0.000940
123278000,0.0324,0.013523,0.002678,0.000431,0.000823
123279000,0.0324,0.013523,0.002678,0.000431,0.000940
123280000,0.0324,0.013523,0.002678,0.000431,0.000823
123281000,0.0324,0.013523,0.002678,0.000431,0.000940
123282000,0.0324,0.013523,0.002678,0.000431,0.000823
123283000,0.0324,0.013523,0.002678,0.000431,0.000823
123284000,0.0324,0.013523,0.002678,0.000431,0.000940
123285000,0.0324,0.013523,0.002678,0.000431,0.000940
123286000,0.0324,0.013523,0.002678,0.000431,0.000823
123287000,0.0324,0.013523,0.002678,0.000431,0.000823
123288000,0.0324,0.013523,0.002678,0.000431,0.000940
123289000,0.0324,0.013523,0.002678,0.000431,0.000940
123290000,0.0324,0.013523,0.002678,0.000431,0.000705
123291000,0.0324,0.013523,0.002678,0.000431,0.000940
123292000,0.0324,0.013523,0.002678,0.000431,0.000940
123293000,0.0324,0.013523,0.002678,0.000431,0.000940
123294000,0.0324,0.013523,0.002678,0.000431,0.000823
123295000,0.0324,0.013523,0.002678,0.000431,0.000823
123296000,0.0324,0.013523,0.002678,0.000431,0.000940
123297000,0.0324,0.013523,0.002678,0.000431,0.000823
123298000,0.0324,0.013523,0.002678,0.000431,0.000940
123299000,0.0324,0.013523,0.002678,0.000431,0.000823
123300000,0.0324,0.013523,0.002678,0.000431,0.000940
123301000,0.0324,0.013523,0.002678,0.000431,0.000823
123302000,0.0324,0.013523,0.002678,0.000431,0.000823
123303000,0.0324,0.013523,0.002678,0.000431,0.000940
123304000,0.0324,0.013523,0.002678,0.000431,0.000940
123305000,0.0324,0.013523,0.002678,0.000431,0.000823
123306000,0.0324,0.013523,0.002678,0.000431,0.000823
123307000,0.0324,0.013523,0.002678,0.000431,0.000940
123308000,0.0324,0.013523,0.002678,0.000431,0.000940
123309000,0.0324,0.013523,0.002678,0.000431,0.000705
123310000,0.0324,0.013523,0.002678,0.000431,0.000940
123311000,0.0324,0.013523,0.002678,0.000431,0.000940
123312000,0.0324,0.013523,0.002678,0.000431,0.000940
123313000,0.0324,0.013523,0.002678,0.000431,0.000705
123314000,0.0324,0.013523,0.002678,0.000431,0.000940
123315000,0.0324,0.013523,0.002678,0.000431,0.000940
123316000,0.0324,0.013523,0.002678,0.000431,0.002586
123317000,0.0324,0.013523,0.002678,0.000431,0.439085
123318000,0.0324,0.013523,0.002678,0.000431,0.682134
123319000,0.0324,0.013523,0.002678,0.000431,0.138801
123320000,0.0324,0.013523,0.002678,0.000431,0.133042
123321000,0.0324,0.013523,0.002678,0.000431,0.294643
123322000,0.0324,0.013523,0.002678,0.000431,0.529112
123323000,0.0324,0.013523,0.002678,0.000431,0.264086
123324000,0.0324,0.013523,0.002678,0.000431,0.295113
123325000,0.0324,0.013523,0.002678,0.000431,0.139623
123326000,0.0324,0.013523,0.002678,0.000431,0.156548
123327000,0.0324,0.013523,0.002678,0.000431,0.112474
123328000,0.0324,0.013523,0.002678,0.000431,0.326258
123329000,0.0324,0.013523,0.002678,0.000431,0.304516
123330000,0.0324,0.013523,0.002678,0.000431,0.099664
123331000,0.0324,0.013523,0.002678,0.000431,0.084150
123332000,0.0324,0.013523,0.002678,0.000431,0.077686
123333000,0.0324,0.013523,0.002678,0.000431,0.066991
123334000,0.0324,0.013523,0.002678,0.000431,0.052418
123335000,0.0324,0.013523,0.002678,0.000431,0.048774
123336000,0.0324,0.013523,0.002678,0.000431,0.032320
123337000,0.0324,0.013523,0.002678,0.000431,0.029382
123338000,0.0324,0.013523,0.002678,0.000431,0.029147
123339000,0.0324,0.013523,0.002678,0.000431,0.022213
123340000,0.0324,0.013523,0.002678,0.000431,0.017982
123341000,0.0324,0.013523,0.002678,0.000431,0.015161
123342000,0.0324,0.013523,0.002678,0.000431,0.017159
123343000,0.0324,0.013523,0.002678,0.000431,0.014573
123344000,0.0324,0.013523,0.002678,0.000431,0.012693
123345000,0.0324,0.013523,0.002678,0.000431,0.015396
123346000,0.0324,0.013523,0.002678,0.000431,0.013046
123347000,0.0324,0.013523,0.002678,0.000431,0.013398
123348000,0.0324,0.013523,0.002678,0.000431,0.009402
123349000,0.0324,0.013523,0.002678,0.000431,0.009755
123350000,0.0324,0.013523,0.002678,0.000431,0.009990
123351000,0.0324,0.013523,0.002678,0.000431,0.008932
123352000,0.0324,0.013523,0.002678,0.000431,0.009990
123353000,0.0324,0.013523,0.002678,0.000431,0.009520
123354000,0.0324,0.013523,0.002678,0.000431,0.010225
123355000,0.0324,0.013523,0.002678,0.000431,0.009520
123356000,0.0324,0.013523,0.002678,0.000431,0.007874
123357000,0.0324,0.013523,0.002678,0.000431,0.008462
123358000,0.0324,0.013523,0.002678,0.000431,0.007757
123359000,0.0324,0.013523,0.002678,0.000431,0.008227
123360000,0.0324,0.013523,0.002678,0.000431,0.008109
123361000,0.0324,0.013523,0.002678,0.000431,0.007757
123362000,0.0324,0.013523,0.002678,0.000431,0.008815
123363000,0.0324,0.013523,0.002678,0.000431,0.008697
123364000,0.0324,0.013523,0.002678,0.000431,0.007404
123365000,0.0324,0.013523,0.002678,0.000431,0.007639
123366000,0.0324,0.013523,0.002678,0.000431,0.007522
123367000,0.0324,0.013523,0.002678,0.000431,0.006582
123368000,0.0324,0.013523,0.002678,0.000431,0.006934
123369000,0.0324,0.013523,0.002678,0.000431,0.008580
123370000,0.0324,0.013523,0.002678,0.000431,0.005876
123371000,0.0324,0.013523,0.002678,0.000431,0.005759
123372000,0.0324,0.013523,0.002678,0.000431,0.005994
123373000,0.0324,0.013523,0.002678,0.000431,0.005641
123374000,0.0324,0.013523,0.002678,0.000431,0.005876
123375000,0.0324,0.013523,0.002678,0.000431,0.005876
123376000,0.0324,0.013523,0.002678,0.000431,0.005524
123377000,0.0324,0.013523,0.002678,0.000431,0.006111
123378000,0.0324,0.013523,0.002678,0.000431,0.006934
123379000,0.0324,0.013523,0.002678,0.000431,0.004936
123380000,0.0324,0.013523,0.002678,0.000431,0.005289
123381000,0.0324,0.013523,0.002678,0.000431,0.004819
123382000,0.0324,0.013523,0.002678,0.000431,0.005171
123383000,0.0324,0.013523,0.002678,0.000431,0.005641
123384000,0.0324,0.013523,0.002678,0.000431,0.005406
123385000,0.0324,0.013523,0.002678,0.000431,0.003996
123386000,0.0324,0.013523,0.002678,0.000431,0.005406
123387000,0.0324,0.013523,0.002678,0.000431,0.005054
123388000,0.0324,0.013523,0.002678,0.000431,0.002351
123389000,0.0324,0.013523,0.002678,0.000431,0.002586
123390000,0.0324,0.013523,0.002678,0.000431,0.002351
123391000,0.0324,0.013523,0.002678,0.000431,0.002586
123392000,0.0324,0.013523,0.002678,0.000431,0.002468
123393000,0.0324,0.013523,0.002678,0.000431,0.002468
123394000,0.0324,0.013523,0.002678,0.000431,0.002351
123395000,0.0324,0.013523,0.002678,0.000431,0.002468
123396000,0.0324,0.013523,0.002678,0.000431,0.004701
123397000,0.0324,0.013523,0.002678,0.000431,0.001645
123398000,0.0324,0.013523,0.002678,0.000431,0.073573
123399000,0.0324,0.013523,0.002678,0.000431,0.523823
123400000,0.0324,0.013523,0.002678,0.000431,0.593282
123401000,0.0324,0.013523,0.002678,0.000431,0.132572
123402000,0.0324,0.013523,0.002678,0.000431,0.133512
123403000,0.0324,0.013523,0.002678,0.000431,0.529229
123404000,0.0324,0.013523,0.002678,0.000431,0.236937
123405000,0.0324,0.013523,0.002678,0.000431,0.232236
123406000,0.0324,0.013523,0.002678,0.000431,0.310745
123407000,0.0324,0.013523,0.002678,0.000431,0.138566
123408000,0.0324,0.013523,0.002678,0.000431,0.140564
123409000,0.0324,0.013523,0.002678,0.000431,0.165127
123410000,0.0324,0.013523,0.002678,0.000431,0.172884
123411000,0.0324,0.013523,0.002678,0.000431,0.470583
123412000,0.0324,0.013523,0.002678,0.000431,0.145617
123413000,0.0324,0.013523,0.002678,0.000431,0.119291
123414000,0.0324,0.013523,0.002678,0.000431,0.102720
123415000,0.0324,0.013523,0.002678,0.000431,0.081917
123416000,0.0324,0.013523,0.002678,0.000431,0.062055
123417000,0.0324,0.013523,0.002678,0.000431,0.068049
123418000,0.0324,0.013523,0.002678,0.000431,0.043250
123419000,0.0324,0.013523,0.002678,0.000431,0.040077
123420000,0.0324,0.013523,0.002678,0.000431,0.029382
123421000,0.0324,0.013523,0.002678,0.000431,0.020685
123422000,0.0324,0.013523,0.002678,0.000431,0.025739
123423000,0.0324,0.013523,0.002678,0.000431,0.017512
123424000,0.0324,0.013523,0.002678,0.000431,0.015749
123425000,0.0324,0.013523,0.002678,0.000431,0.014221
123426000,0.0324,0.013523,0.002678,0.000431,0.007522
123427000,0.0324,0.013523,0.002678,0.000431,0.005759
123428000,0.0324,0.013523,0.002678,0.000431,0.006347
123429000,0.0324,0.013523,0.002678,0.000431,0.010695
123430000,0.0324,0.013523,0.002678,0.000431,0.007052
123431000,0.0324,0.013523,0.002678,0.000431,0.003996
123432000,0.0324,0.013523,0.002678,0.000431,0.002938
123433000,0.0324,0.013523,0.002678,0.000431,0.002586
123434000,0.0324,0.013523,0.002678,0.000431,0.002586
123435000,0.0324,0.013523,0.002678,0.000431,0.002821
123436000,0.0324,0.013523,0.002678,0.000431,0.003761
123437000,0.0324,0.013523,0.002678,0.000431,0.002821
123438000,0.0324,0.013523,0.002678,0.000431,0.001175
123439000,0.0324,0.013523,0.002678,0.000431,0.000823
123440000,0.0324,0.013523,0.002678,0.000431,0.001410
123441000,0.0324,0.013523,0.002678,0.000431,0.000823
123442000,0.0324,0.013523,0.002678,0.000431,0.001058
123443000,0.0324,0.013523,0.002678,0.000431,0.001175
123444000,0.0324,0.013523,0.002678,0.000431,0.001058
123445000,0.0324,0.013523,0.002678,0.000431,0.001175
123446000,0.0324,0.013523,0.002678,0.000431,0.000823
123447000,0.0324,0.013523,0.002678,0.000431,0.001293
123448000,0.0324,0.013523,0.002678,0.000431,0.001058
123449000,0.0324,0.013523,0.002678,0.000431,0.000823
123450000,0.0324,0.013523,0.002678,0.000431,0.001293
123451000,0.0324,0.013523,0.002678,0.000431,0.000940
123452000,0.0324,0.013523,0.002678,0.000431,0.001410
123453000,0.0324,0.013523,0.002678,0.000431,0.000705
123454000,0.0324,0.013523,0.002678,0.000431,0.001175
123455000,0.0324,0.013523,0.002678,0.000431,0.001175
123456000,0.0324,0.013523,0.002678,0.000431,0.000823
123457000,0.0324,0.013523,0.002678,0.000431,0.001293
123458000,0.0324,0.013523,0.002678,0.000431,0.000940
123459000,0.0324,0.013523,0.002678,0.000431,0.001293
123460000,0.0324,0.013523,0.002678,0.000431,0.000940
123461000,0.0324,0.013523,0.002678,0.000431,0.000823
123462000,0.0324,0.013523,0.002678,0.000431,0.220013
123463000,0.0324,0.013523,0.002678,0.000431,0.592342
123464000,0.0324,0.013523,0.002678,0.000431,0.484921
123465000,0.0324,0.013523,0.002678,0.000431,0.133277
123466000,0.0324,0.013523,0.002678,0.000431,0.148791
123467000,0.0324,0.013523,0.002678,0.000431,0.635827
123468000,0.0324,0.013523,0.002678,0.000431,0.238935
123469000,0.0324,0.013523,0.002678,0.000431,0.328256
123470000,0.0324,0.013523,0.002678,0.000431,0.194862
123471000,0.0324,0.013523,0.002678,0.000431,0.145147
123472000,0.0324,0.013523,0.002678,0.000431,0.107068
123473000,0.0324,0.013523,0.002678,0.000431,0.411936
123474000,0.0324,0.013523,0.002678,0.000431,0.224009
123475000,0.0324,0.013523,0.002678,0.000431,0.086853
123476000,0.0324,0.013523,0.002678,0.000431,0.069107
123477000,0.0324,0.013523,0.002678,0.000431,0.064170
123478000,0.0324,0.013523,0.002678,0.000431,0.050537
123479000,0.0324,0.013523,0.002678,0.000431,0.044426
123480000,0.0324,0.013523,0.002678,0.000431,0.032320
123481000,0.0324,0.013523,0.002678,0.000431,0.028324
123482000,0.0324,0.013523,0.002678,0.000431,0.023388
123483000,0.0324,0.013523,0.002678,0.000431,0.020685
123484000,0.0324,0.013523,0.002678,0.000431,0.012811
123485000,0.0324,0.013523,0.002678,0.000431,0.010578
123486000,0.0324,0.013523,0.002678,0.000431,0.008697
123487000,0.0324,0.013523,0.002678,0.000431,0.006817
123488000,0.0324,0.013523,0.002678,0.000431,0.006582
123489000,0.0324,0.013523,0.002678,0.000431,0.006229
123490000,0.0324,0.013523,0.002678,0.000431,0.006582
123491000,0.0324,0.013523,0.002678,0.000431,0.006699
123492000,0.0324,0.013523,0.002678,0.000431,0.008815
123493000,0.0324,0.013523,0.002678,0.000431,0.007052
123494000,0.0324,0.013523,0.002678,0.000431,0.004231
123495000,0.0324,0.013523,0.002678,0.000431,0.003761
123496000,0.0324,0.013523,0.002678,0.000431,0.007052
123497000,0.0324,0.013523,0.002678,0.000431,0.003056
123498000,0.0324,0.013523,0.002678,0.000431,0.003291
123499000,0.0324,0.013523,0.002678,0.000431,0.003408
123500000,0.0324,0.013523,0.002678,0.000431,0.003056
123501000,0.0324,0.013523,0.002678,0.000431,0.003173
123502000,0.0324,0.013523,0.002678,0.000431,0.003291
123503000,0.0324,0.013523,0.002678,0.000431,0.003056
123504000,0.0324,0.013523,0.002678,0.000431,0.003526
123505000,0.0324,0.013523,0.002678,0.000431,0.003408
123506000,0.0324,0.013523,0.002678,0.000431,0.002938
123507000,0.0324,0.013523,0.002678,0.000431,0.004584
123508000,0.0324,0.013523,0.002678,0.000431,0.002351
123509000,0.0324,0.013523,0.002678,0.000431,0.002468
123510000,0.0324,0.013523,0.002678,0.000431,0.002468
123511000,0.0324,0.013523,0.002678,0.000431,0.002233
123512000,0.0324,0.013523,0.002678,0.000431,0.002586
123513000,0.0324,0.013523,0.002678,0.000431,0.002468
123514000,0.0324,0.013523,0.002678,0.000431,0.002116
123515000,0.0324,0.013523,0.002678,0.000431,0.002821
123516000,0.0324,0.013523,0.002678,0.000431,0.002233
123517000,0.0324,0.013523,0.002678,0.000431,0.002233
123518000,0.0324,0.013523,0.002678,0.000431,0.002821
123519000,0.0324,0.013523,0.002678,0.000431,0.004231
123520000,0.0324,0.013523,0.002678,0.000431,0.001528
123521000,0.0324,0.013523,0.002678,0.000431,0.001763
123522000,0.0324,0.013523,0.002678,0.000431,0.001175
123523000,0.0324,0.013523,0.002678,0.000431,0.001763
123524000,0.0324,0.013523,0.002678,0.000431,0.001645
123525000,0.0324,0.013523,0.002678,0.000431,0.001175
123526000,0.0324,0.013523,0.002678,0.000431,0.001880
123527000,0.0324,0.013523,0.002678,0.000431,0.001645
123528000,0.0324,0.013523,0.002678,0.000431,0.001175
123529000,0.0324,0.013523,0.002678,0.000431,0.001880
123530000,0.0324,0.013523,0.002678,0.000431,0.001293
123531000,0.0324,0.013523,0.002678,0.000431,0.001528
123532000,0.0324,0.013523,0.002678,0.000431,0.001763
123533000,0.0324,0.013523,0.002678,0.000431,0.001175
123534000,0.0324,0.013523,0.002678,0.000431,0.001763
123535000,0.0324,0.013523,0.002678,0.000431,0.001645
123536000,0.0324,0.013523,0.002678,0.000431,0.001410
123537000,0.0324,0.013523,0.002678,0.000431,0.001645
123538000,0.0324,0.013523,0.002678,0.000431,0.001645
123539000,0.0324,0.013523,0.002678,0.000431,0.001175
123540000,0.0324,0.013523,0.002678,0.000431,0.001880
123541000,0.0324,0.013523,0.002678,0.000431,0.001293
123542000,0.0324,0.013523,0.002678,0.000431,0.001528
123543000,0.0324,0.013523,0.002678,0.000431,0.001763
123544000,0.0324,0.013523,0.002678,0.000431,0.001175
123545000,0.0324,0.013523,0.002678,0.000431,0.001763
123546000,0.0324,0.013523,0.002678,0.000431,0.001645
123547000,0.0324,0.013523,0.002678,0.000431,0.001410
123548000,0.0324,0.013523,0.002678,0.000431,0.001645
123549000,0.0324,0.013523,0.002678,0.000431,0.001645
123550000,0.0324,0.013523,0.002678,0.000431,0.001410
123551000,0.0324,0.013523,0.002678,0.000431,0.001645
123552000,0.0324,0.013523,0.002678,0.000431,0.001410
123553000,0.0324,0.013523,0.002678,0.000431,0.001410
123554000,0.0324,0.013523,0.002678,0.000431,0.001763
123555000,0.0324,0.013523,0.002678,0.000431,0.001528
123556000,0.0324,0.013523,0.002678,0.000431,0.001410
123557000,0.0324,0.013523,0.002678,0.000431,0.001645
123558000,0.0324,0.013523,0.002678,0.000431,0.001410
123559000,0.0324,0.013523,0.002678,0.000431,0.001645
123560000,0.0324,0.013523,0.002678,0.000431,0.001645
123561000,0.0324,0.013523,0.002678,0.000431,0.001410
123562000,0.0324,0.013523,0.002678,0.000431,0.001410
123563000,0.0324,0.013523,0.002678,0.000431,0.001410
123564000,0.0324,0.013523,0.002678,0.000431,0.000940
123565000,0.0324,0.013523,0.002678,0.000431,0.000823
123566000,0.0324,0.013523,0.002678,0.000431,0.000940
123567000,0.0324,0.013523,0.002678,0.000431,0.000823
123568000,0.0324,0.013523,0.002678,0.000431,0.000940
123569000,0.0324,0.013523,0.002678,0.000431,0.000823
123570000,0.0324,0.013523,0.002678,0.000431,0.000940
123571000,0.0324,0.013523,0.002678,0.000431,0.000823
123572000,0.0324,0.013523,0.002678,0.000431,0.000823
123573000,0.0324,0.013523,0.002678,0.000431,0.000940
123574000,0.0324,0.013523,0.002678,0.000431,0.000940
123575000,0.0324,0.013523,0.002678,0.000431,0.000823
123576000,0.0324,0.013523,0.002678,0.000431,0.000823
123577000,0.0324,0.013523,0.002678,0.000431,0.000940
123578000,0.0324,0.013523,0.002678,0.000431,0.000940
123579000,0.0324,0.013523,0.002678,0.000431,0.000823
123580000,0.0324,0.013523,0.002678,0.000431,0.000823
123581000,0.0324,0.013523,0.002678,0.000431,0.000940
123582000,0.0324,0.013523,0.002678,0.000431,0.000823
123583000,0.0324,0.013523,0.002678,0.000431,0.000940
123584000,0.0324,0.013523,0.002678,0.000431,0.000823
123585000,0.0324,0.013523,0.002678,0.000431,0.000940
123586000,0.0324,0.013523,0.002678,0.000431,0.000823
123587000,0.0324,0.013523,0.002678,0.000431,0.000823
123588000,0.0324,0.013523,0.002678,0.000431,0.000940
123589000,0.0324,0.013523,0.002678,0.000431,0.000940
123590000,0.0324,0.013523,0.002678,0.000431,0.000823
123591000,0.0324,0.013523,0.002678,0.000431,0.000823
123592000,0.0324,0.013523,0.002678,0.000431,0.000940
123593000,0.0324,0.013523,0.002678,0.000431,0.000940
123594000,0.0324,0.013523,0.002678,0.000431,0.000705
123595000,0.0324,0.013523,0.002678,0.000431,0.000940
123596000,0.0324,0.013523,0.002678,0.000431,0.000940
123597000,0.0324,0.013523,0.002678,0.000431,0.000940
123598000,0.0324,0.013523,0.002678,0.000431,0.000705
123599000,0.0324,0.013523,0.002678,0.000431,0.000940
123600000,0.0324,0.013523,0.002678,0.000431,0.000940
123601000,0.0324,0.013523,0.002678,0.000431,0.000823
123602000,0.0324,0.013523,0.002678,0.000431,0.000823
123603000,0.0324,0.013523,0.002678,0.000431,0.000940
123604000,0.0324,0.013523,0.002678,0.000431,0.000940
123605000,0.0324,0.013523,0.002678,0.000431,0.000823
123606000,0.0324,0.013523,0.002678,0.000431,0.000823
123607000,0.0324,0.013523,0.002678,0.000431,0.000940
123608000,0.0324,0.013523,0.002678,0.000431,0.000823
123609000,0.0324,0.013523,0.002678,0.000431,0.000940
123610000,0.0324,0.013523,0.002678,0.000431,0.000823
123611000,0.0324,0.013523,0.002678,0.000431,0.000940
123612000,0.0324,0.013523,0.002678,0.000431,0.000823
123613000,0.0324,0.013523,0.002678,0.000431,0.000823
123614000,0.0324,0.013523,0.002678,0.000431,0.000940
123615000,0.0324,0.013523,0.002678,0.000431,0.000940
123616000,0.0324,0.013523,0.002678,0.000431,0.000940
123617000,0.0324,0.013523,0.002678,0.000431,0.000705
123618000,0.0324,0.013523,0.002678,0.000431,0.000940
123619000,0.0324,0.013523,0.002678,0.000431,0.000940
123620000,0.0324,0.013523,0.002678,0.000431,0.000823
123621000,0.0324,0.013523,0.002678,0.000431,0.000823
123622000,0.0324,0.013523,0.002678,0.000431,0.000940
123623000,0.0324,0.013523,0.002678,0.000431,0.000823
123624000,0.0324,0.013523,0.002678,0.000431,0.000940
123625000,0.0324,0.013523,0.002678,0.000431,0.000823
123626000,0.0324,0.013523,0.002678,0.000431,0.000940
123627000,0.0324,0.013523,0.002678,0.000431,0.000823
123628000,0.0324,0.013523,0.002678,0.000431,0.000823
123629000,0.0324,0.013523,0.002678,0.000431,0.000940
123630000,0.0324,0.013523,0.002678,0.000431,0.000940
123631000,0.0324,0.013523,0.002678,0.000431,0.000823
123632000,0.0324,0.013523,0.002678,0.000431,0.000823
123633000,0.0324,0.013523,0.002678,0.000431,0.000940
123634000,0.0324,0.013523,0.002678,0.000431,0.000940
123635000,0.0324,0.013523,0.002678,0.000431,0.000705
123636000,0.0324,0.013523,0.002678,0.000431,0.000940
123637000,0.0324,0.013523,0.002678,0.000431,0.000940
123638000,0.0324,0.013523,0.002678,0.000431,0.000940
123639000,0.0324,0.013523,0.002678,0.000431,0.000823
123640000,0.0324,0.013523,0.002678,0.000431,0.000823
123641000,0.0324,0.013523,0.002678,0.000431,0.000940
123642000,0.0324,0.013523,0.002678,0.000431,0.000940
123643000,0.0324,0.013523,0.002678,0.000431,0.000940
123644000,0.0324,0.013523,0.002678,0.000431,0.000823
123645000,0.0324,0.013523,0.002678,0.000431,0.000940
123646000,0.0324,0.013523,0.002678,0.000431,0.017629
123647000,0.0324,0.013523,0.002678,0.000431,0.543568
123648000,0.0324,0.013523,0.002678,0.000431,0.602802
123649000,0.0324,0.013523,0.002678,0.000431,0.132572
123650000,0.0324,0.013523,0.002678,0.000431,0.132572
123651000,0.0324,0.013523,0.002678,0.000431,0.496439
123652000,0.0324,0.013523,0.002678,0.000431,0.296759
123653000,0.0324,0.013523,0.002678,0.000431,0.293585
123654000,0.0324,0.013523,0.002678,0.000431,0.314388
123655000,0.0324,0.013523,0.002678,0.000431,0.144912
123656000,0.0324,0.013523,0.002678,0.000431,0.149261
123657000,0.0324,0.013523,0.002678,0.000431,0.105423
123658000,0.0324,0.013523,0.002678,0.000431,0.348706
123659000,0.0324,0.013523,0.002678,0.000431,0.343770
123660000,0.0324,0.013523,0.002678,0.000431,0.100252
123661000,0.0324,0.013523,0.002678,0.000431,0.088851
123662000,0.0324,0.013523,0.002678,0.000431,0.067461
123663000,0.0324,0.013523,0.002678,0.000431,0.059234
123664000,0.0324,0.013523,0.002678,0.000431,0.057589
123665000,0.0324,0.013523,0.002678,0.000431,0.033143
123666000,0.0324,0.013523,0.002678,0.000431,0.016807
123667000,0.0324,0.013523,0.002678,0.000431,0.014456
123668000,0.0324,0.013523,0.002678,0.000431,0.013398
123669000,0.0324,0.013523,0.002678,0.000431,0.009872
123670000,0.0324,0.013523,0.002678,0.000431,0.009285
123671000,0.0324,0.013523,0.002678,0.000431,0.009872
123672000,0.0324,0.013523,0.002678,0.000431,0.008109
123673000,0.0324,0.013523,0.002678,0.000431,0.012223
123674000,0.0324,0.013523,0.002678,0.000431,0.007287
123675000,0.0324,0.013523,0.002678,0.000431,0.003996
123676000,0.0324,0.013523,0.002678,0.000431,0.004231
123677000,0.0324,0.013523,0.002678,0.000431,0.003878
123678000,0.0324,0.013523,0.002678,0.000431,0.003761
123679000,0.0324,0.013523,0.002678,0.000431,0.003408
123680000,0.0324,0.013523,0.002678,0.000431,0.006817
123681000,0.0324,0.013523,0.002678,0.000431,0.002468
123682000,0.0324,0.013523,0.002678,0.000431,0.002703
123683000,0.0324,0.013523,0.002678,0.000431,0.002703
123684000,0.0324,0.013523,0.002678,0.000431,0.003056
123685000,0.0324,0.013523,0.002678,0.000431,0.002938
123686000,0.0324,0.013523,0.002678,0.000431,0.001763
123687000,0.0324,0.013523,0.002678,0.000431,0.001763
123688000,0.0324,0.013523,0.002678,0.000431,0.001528
123689000,0.0324,0.013523,0.002678,0.000431,0.001763
123690000,0.0324,0.013523,0.002678,0.000431,0.001880
123691000,0.0324,0.013523,0.002678,0.000431,0.001645
123692000,0.0324,0.013523,0.002678,0.000431,0.001645
123693000,0.0324,0.013523,0.002678,0.000431,0.001763
123694000,0.0324,0.013523,0.002678,0.000431,0.001645
123695000,0.0324,0.013523,0.002678,0.000431,0.004231
123696000,0.0324,0.013523,0.002678,0.000431,0.002586
123697000,0.0324,0.013523,0.002678,0.000431,0.440966
123698000,0.0324,0.013523,0.002678,0.000431,0.723151
123699000,0.0324,0.013523,0.002678,0.000431,0.153844
123700000,0.0324,0.013523,0.002678,0.000431,0.134452
123701000,0.0324,0.013523,0.002678,0.000431,0.281010
123702000,0.0324,0.013523,0.002678,0.000431,0.551442
123703000,0.0324,0.013523,0.002678,0.000431,0.271843
123704000,0.0324,0.013523,0.002678,0.000431,0.330137
123705000,0.0324,0.013523,0.002678,0.000431,0.150201
123706000,0.0324,0.013523,0.002678,0.000431,0.166067
123707000,0.0324,0.013523,0.002678,0.000431,0.092612
123708000,0.0324,0.013523,0.002678,0.000431,0.481866
123709000,0.0324,0.013523,0.002678,0.000431,0.128928
123710000,0.0324,0.013523,0.002678,0.000431,0.075218
123711000,0.0324,0.013523,0.002678,0.000431,0.069459
123712000,0.0324,0.013523,0.002678,0.000431,0.061820
123713000,0.0324,0.013523,0.002678,0.000431,0.052535
123714000,0.0324,0.013523,0.002678,0.000431,0.047716
123715000,0.0324,0.013523,0.002678,0.000431,0.037139
123716000,0.0324,0.013523,0.002678,0.000431,0.024681
123717000,0.0324,0.013523,0.002678,0.000431,0.019627
123718000,0.0324,0.013523,0.002678,0.000431,0.015279
123719000,0.0324,0.013523,0.002678,0.000431,0.015396
123720000,0.0324,0.013523,0.002678,0.000431,0.021743
123721000,0.0324,0.013523,0.002678,0.000431,0.019392
123722000,0.0324,0.013523,0.002678,0.000431,0.009872
123723000,0.0324,0.013523,0.002678,0.000431,0.011988
123724000,0.0324,0.013523,0.002678,0.000431,0.010813
123725000,0.0324,0.013523,0.002678,0.000431,0.010578
123726000,0.0324,0.013523,0.002678,0.000431,0.010225
123727000,0.0324,0.013523,0.002678,0.000431,0.003878
123728000,0.0324,0.013523,0.002678,0.000431,0.005759
123729000,0.0324,0.013523,0.002678,0.000431,0.002586
123730000,0.0324,0.013523,0.002678,0.000431,0.002586
123731000,0.0324,0.013523,0.002678,0.000431,0.002586
123732000,0.0324,0.013523,0.002678,0.000431,0.002586
123733000,0.0324,0.013523,0.002678,0.000431,0.002586
123734000,0.0324,0.013523,0.002678,0.000431,0.002586
123735000,0.0324,0.013523,0.002678,0.000431,0.002351
123736000,0.0324,0.013523,0.002678,0.000431,0.002821
123737000,0.0324,0.013523,0.002678,0.000431,0.002821
123738000,0.0324,0.013523,0.002678,0.000431,0.002351
123739000,0.0324,0.013523,0.002678,0.000431,0.002703
123740000,0.0324,0.013523,0.002678,0.000431,0.002468
123741000,0.0324,0.013523,0.002678,0.000431,0.002821
123742000,0.0324,0.013523,0.002678,0.000431,0.002351
123743000,0.0324,0.013523,0.002678,0.000431,0.002703
123744000,0.0324,0.013523,0.002678,0.000431,0.002703
123745000,0.0324,0.013523,0.002678,0.000431,0.004701
123746000,0.0324,0.013523,0.002678,0.000431,0.001880
123747000,0.0324,0.013523,0.002678,0.000431,0.001763
123748000,0.0324,0.013523,0.002678,0.000431,0.001645
123749000,0.0324,0.013523,0.002678,0.000431,0.001645
123750000,0.0324,0.013523,0.002678,0.000431,0.001763
123751000,0.0324,0.013523,0.002678,0.000431,0.001763
123752000,0.0324,0.013523,0.002678,0.000431,0.001528
123753000,0.0324,0.013523,0.002678,0.000431,0.001880
123754000,0.0324,0.013523,0.002678,0.000431,0.001645
123755000,0.0324,0.013523,0.002678,0.000431,0.001880
123756000,0.0324,0.013523,0.002678,0.000431,0.001528
123757000,0.0324,0.013523,0.002678,0.000431,0.001763
123758000,0.0324,0.013523,0.002678,0.000431,0.001645
123759000,0.0324,0.013523,0.002678,0.000431,0.001763
123760000,0.0324,0.013523,0.002678,0.000431,0.001763
123761000,0.0324,0.013523,0.002678,0.000431,0.001645
123762000,0.0324,0.013523,0.002678,0.000431,0.001880
123763000,0.0324,0.013523,0.002678,0.000431,0.001528
123764000,0.0324,0.013523,0.002678,0.000431,0.001763
123765000,0.0324,0.013523,0.002678,0.000431,0.001763
123766000,0.0324,0.013523,0.002678,0.000431,0.001645
123767000,0.0324,0.013523,0.002678,0.000431,0.001880
123768000,0.0324,0.013523,0.002678,0.000431,0.001528
123769000,0.0324,0.013523,0.002678,0.000431,0.001880
123770000,0.0324,0.013523,0.002678,0.000431,0.001645
123771000,0.0324,0.013523,0.002678,0.000431,0.001645
123772000,0.0324,0.013523,0.002678,0.000431,0.001763
123773000,0.0324,0.013523,0.002678,0.000431,0.001763
123774000,0.0324,0.013523,0.002678,0.000431,0.001763
123775000,0.0324,0.013523,0.002678,0.000431,0.001528
123776000,0.0324,0.013523,0.002678,0.000431,0.001880
123777000,0.0324,0.013523,0.002678,0.000431,0.001645
123778000,0.0324,0.013523,0.002678,0.000431,0.001880
123779000,0.0324,0.013523,0.002678,0.000431,0.001528
123780000,0.0324,0.013523,0.002678,0.000431,0.001763
123781000,0.0324,0.013523,0.002678,0.000431,0.001763
123782000,0.0324,0.013523,0.002678,0.000431,0.001645
123783000,0.0324,0.013523,0.002678,0.000431,0.001763
123784000,0.0324,0.013523,0.002678,0.000431,0.001880
123785000,0.0324,0.013523,0.002678,0.000431,0.001880
123786000,0.0324,0.013523,0.002678,0.000431,0.001645
123787000,0.0324,0.013523,0.002678,0.000431,0.001645
123788000,0.0324,0.013523,0.002678,0.000431,0.001880
123789000,0.0324,0.013523,0.002678,0.000431,0.001880
123790000,0.0324,0.013523,0.002678,0.000431,0.001763
123791000,0.0324,0.013523,0.002678,0.000431,0.001645
123792000,0.0324,0.013523,0.002678,0.000431,0.003173
123793000,0.0324,0.013523,0.002678,0.000431,0.001058
123794000,0.0324,0.013523,0.002678,0.000431,0.000823
123795000,0.0324,0.013523,0.002678,0.000431,0.019745
123796000,0.0324,0.013523,0.002678,0.000431,0.559552
123797000,0.0324,0.013523,0.002678,0.000431,0.595750
123798000,0.0324,0.013523,0.002678,0.000431,0.135628
123799000,0.0324,0.013523,0.002678,0.000431,0.141269
123800000,0.0324,0.013523,0.002678,0.000431,0.509367
123801000,0.0324,0.013523,0.002678,0.000431,0.322027
123802000,0.0324,0.013523,0.002678,0.000431,0.275486
123803000,0.0324,0.013523,0.002678,0.000431,0.277484
123804000,0.0324,0.013523,0.002678,0.000431,0.143267
123805000,0.0324,0.013523,0.002678,0.000431,0.143972
123806000,0.0324,0.013523,0.002678,0.000431,0.113415
123807000,0.0324,0.013523,0.002678,0.000431,0.390429
123808000,0.0324,0.013523,0.002678,0.000431,0.177468
123809000,0.0324,0.013523,0.002678,0.000431,0.024681
123810000,0.0324,0.013523,0.002678,0.000431,0.026091
123811000,0.0324,0.013523,0.002678,0.000431,0.020567
123812000,0.0324,0.013523,0.002678,0.000431,0.013633
123813000,0.0324,0.013523,0.002678,0.000431,0.012458
123814000,0.0324,0.013523,0.002678,0.000431,0.014338
123815000,0.0324,0.013523,0.002678,0.000431,0.011400
123816000,0.0324,0.013523,0.002678,0.000431,0.010813
123817000,0.0324,0.013523,0.002678,0.000431,0.007757
123818000,0.0324,0.013523,0.002678,0.000431,0.007639
123819000,0.0324,0.013523,0.002678,0.000431,0.009872
123820000,0.0324,0.013523,0.002678,0.000431,0.005876
123821000,0.0324,0.013523,0.002678,0.000431,0.005406
123822000,0.0324,0.013523,0.002678,0.000431,0.004349
123823000,0.0324,0.013523,0.002678,0.000431,0.005289
123824000,0.0324,0.013523,0.002678,0.000431,0.006934
123825000,0.0324,0.013523,0.002678,0.000431,0.005759
123826000,0.0324,0.013523,0.002678,0.000431,0.004936
123827000,0.0324,0.013523,0.002678,0.000431,0.002586
123828000,0.0324,0.013523,0.002678,0.000431,0.002586
123829000,0.0324,0.013523,0.002678,0.000431,0.002586
123830000,0.0324,0.013523,0.002678,0.000431,0.002351
123831000,0.0324,0.013523,0.002678,0.000431,0.003643
123832000,0.0324,0.013523,0.002678,0.000431,0.001763
123833000,0.0324,0.013523,0.002678,0.000431,0.001880
123834000,0.0324,0.013523,0.002678,0.000431,0.003526
123835000,0.0324,0.013523,0.002678,0.000431,0.000940
123836000,0.0324,0.013523,0.002678,0.000431,0.000940
123837000,0.0324,0.013523,0.002678,0.000431,0.000823
123838000,0.0324,0.013523,0.002678,0.000431,0.000823
123839000,0.0324,0.013523,0.002678,0.000431,0.000940
123840000,0.0324,0.013523,0.002678,0.000431,0.000940
123841000,0.0324,0.013523,0.002678,0.000431,0.000940
123842000,0.0324,0.013523,0.002678,0.000431,0.000940
123843000,0.0324,0.013523,0.002678,0.000431,0.186752
123844000,0.0324,0.013523,0.002678,0.000431,0.428273
123845000,0.0324,0.013523,0.002678,0.000431,0.503256
123846000,0.0324,0.013523,0.002678,0.000431,0.133512
123847000,0.0324,0.013523,0.002678,0.000431,0.130691
123848000,0.0324,0.013523,0.002678,0.000431,0.599746
123849000,0.0324,0.013523,0.002678,0.000431,0.287591
123850000,0.0324,0.013523,0.002678,0.000431,0.253861
123851000,0.0324,0.013523,0.002678,0.000431,0.265614
123852000,0.0324,0.013523,0.002678,0.000431,0.142797
123853000,0.0324,0.013523,0.002678,0.000431,0.136450
123854000,0.0324,0.013523,0.002678,0.000431,0.109419
123855000,0.0324,0.013523,0.002678,0.000431,0.383024
123856000,0.0324,0.013523,0.002678,0.000431,0.227652
123857000,0.0324,0.013523,0.002678,0.000431,0.055356
123858000,0.0324,0.013523,0.002678,0.000431,0.055238
123859000,0.0324,0.013523,0.002678,0.000431,0.046541
123860000,0.0324,0.013523,0.002678,0.000431,0.040547
123861000,0.0324,0.013523,0.002678,0.000431,0.032438
123862000,0.0324,0.013523,0.002678,0.000431,0.022683
123863000,0.0324,0.013523,0.002678,0.000431,0.022918
123864000,0.0324,0.013523,0.002678,0.000431,0.023741
123865000,0.0324,0.013523,0.002678,0.000431,0.019040
123866000,0.0324,0.013523,0.002678,0.000431,0.018569
123867000,0.0324,0.013523,0.002678,0.000431,0.015044
123868000,0.0324,0.013523,0.002678,0.000431,0.016689
123869000,0.0324,0.013523,0.002678,0.000431,0.016219
123870000,0.0324,0.013523,0.002678,0.000431,0.011753
123871000,0.0324,0.013523,0.002678,0.000431,0.009990
123872000,0.0324,0.013523,0.002678,0.000431,0.011988
123873000,0.0324,0.013523,0.002678,0.000431,0.012223
123874000,0.0324,0.013523,0.002678,0.000431,0.009990
123875000,0.0324,0.013523,0.002678,0.000431,0.009755
123876000,0.0324,0.013523,0.002678,0.000431,0.007757
123877000,0.0324,0.013523,0.002678,0.000431,0.007992
123878000,0.0324,0.013523,0.002678,0.000431,0.010695
123879000,0.0324,0.013523,0.002678,0.000431,0.006817
123880000,0.0324,0.013523,0.002678,0.000431,0.006699
123881000,0.0324,0.013523,0.002678,0.000431,0.006699
123882000,0.0324,0.013523,0.002678,0.000431,0.005641
123883000,0.0324,0.013523,0.002678,0.000431,0.006934
123884000,0.0324,0.013523,0.002678,0.000431,0.005289
123885000,0.0324,0.013523,0.002678,0.000431,0.006699
123886000,0.0324,0.013523,0.002678,0.000431,0.006464
123887000,0.0324,0.013523,0.002678,0.000431,0.005289
123888000,0.0324,0.013523,0.002678,0.000431,0.005054
123889000,0.0324,0.013523,0.002678,0.000431,0.006229
123890000,0.0324,0.013523,0.002678,0.000431,0.007522
123891000,0.0324,0.013523,0.002678,0.000431,0.003996
123892000,0.0324,0.013523,0.002678,0.000431,0.006229
123893000,0.0324,0.013523,0.002678,0.000431,0.004819
123894000,0.0324,0.013523,0.002678,0.000431,0.003643
123895000,0.0324,0.013523,0.002678,0.000431,0.005054
123896000,0.0324,0.013523,0.002678,0.000431,0.003996
123897000,0.0324,0.013523,0.002678,0.000431,0.004349
123898000,0.0324,0.013523,0.002678,0.000431,0.002116
123899000,0.0324,0.013523,0.002678,0.000431,0.001880
123900000,0.0324,0.013523,0.002678,0.000431,0.002116
123901000,0.0324,0.013523,0.002678,0.000431,0.001645
123902000,0.0324,0.013523,0.002678,0.000431,0.002468
123903000,0.0324,0.013523,0.002678,0.000431,0.001528
123904000,0.0324,0.013523,0.002678,0.000431,0.001880
123905000,0.0324,0.013523,0.002678,0.000431,0.001763
123906000,0.0324,0.013523,0.002678,0.000431,0.001175
123907000,0.0324,0.013523,0.002678,0.000431,0.001293
123908000,0.0324,0.013523,0.002678,0.000431,0.001293
123909000,0.0324,0.013523,0.002678,0.000431,0.001645
123910000,0.0324,0.013523,0.002678,0.000431,0.000823
123911000,0.0324,0.013523,0.002678,0.000431,0.000823
123912000,0.0324,0.013523,0.002678,0.000431,0.000823
123913000,0.0324,0.013523,0.002678,0.000431,0.000940
123914000,0.0324,0.013523,0.002678,0.000431,0.000705
123915000,0.0324,0.013523,0.002678,0.000431,0.000940
123916000,0.0324,0.013523,0.002678,0.000431,0.000705
123917000,0.0324,0.013523,0.002678,0.000431,0.000823
123918000,0.0324,0.013523,0.002678,0.000431,0.000940
123919000,0.0324,0.013523,0.002678,0.000431,0.000823
123920000,0.0324,0.013523,0.002678,0.000431,0.000823
123921000,0.0324,0.013523,0.002678,0.000431,0.000823
123922000,0.0324,0.013523,0.002678,0.000431,0.000823
123923000,0.0324,0.013523,0.002678,0.000431,0.000823
123924000,0.0324,0.013523,0.002678,0.000431,0.000940
123925000,0.0324,0.013523,0.002678,0.000431,0.000823
123926000,0.0324,0.013523,0.002678,0.000431,0.000823
123927000,0.0324,0.013523,0.002678,0.000431,0.000705
123928000,0.0324,0.013523,0.002678,0.000431,0.000940
123929000,0.0324,0.013523,0.002678,0.000431,0.000940
123930000,0.0324,0.013523,0.002678,0.000431,0.000705
123931000,0.0324,0.013523,0.002678,0.000431,0.000940
123932000,0.0324,0.013523,0.002678,0.000431,0.000705
123933000,0.0324,0.013523,0.002678,0.000431,0.000940
123934000,0.0324,0.013523,0.002678,0.000431,0.000823
123935000,0.0324,0.013523,0.002678,0.000431,0.000823
123936000,0.0324,0.013523,0.002678,0.000431,0.000823
123937000,0.0324,0.013523,0.002678,0.000431,0.000823
123938000,0.0324,0.013523,0.002678,0.000431,0.000940
123939000,0.0324,0.013523,0.002678,0.000431,0.125050
123940000,0.0324,0.013523,0.002678,0.000431,0.510190
123941000,0.0324,0.013523,0.002678,0.000431,0.530405
123942000,0.0324,0.013523,0.002678,0.000431,0.133512
123943000,0.0324,0.013523,0.002678,0.000431,0.132572
123944000,0.0324,0.013523,0.002678,0.000431,0.582352
123945000,0.0324,0.013523,0.002678,0.000431,0.293233
123946000,0.0324,0.013523,0.002678,0.000431,0.263263
123947000,0.0324,0.013523,0.002678,0.000431,0.259972
123948000,0.0324,0.013523,0.002678,0.000431,0.142679
123949000,0.0324,0.013523,0.002678,0.000431,0.169358
123950000,0.0324,0.013523,0.002678,0.000431,0.096373
123951000,0.0324,0.013523,0.002678,0.000431,0.455892
123952000,0.0324,0.013523,0.002678,0.000431,0.093200
123953000,0.0324,0.013523,0.002678,0.000431,0.031968
123954000,0.0324,0.013523,0.002678,0.000431,0.032438
123955000,0.0324,0.013523,0.002678,0.000431,0.030910
123956000,0.0324,0.013523,0.002678,0.000431,0.026444
123957000,0.0324,0.013523,0.002678,0.000431,0.020097
123958000,0.0324,0.013523,0.002678,0.000431,0.018805
123959000,0.0324,0.013523,0.002678,0.000431,0.016807
123960000,0.0324,0.013523,0.002678,0.000431,0.013633
123961000,0.0324,0.013523,0.002678,0.000431,0.012693
123962000,0.0324,0.013523,0.002678,0.000431,0.013398
123963000,0.0324,0.013523,0.002678,0.000431,0.013751
123964000,0.0324,0.013523,0.002678,0.000431,0.012928
123965000,0.0324,0.013523,0.002678,0.000431,0.012811
123966000,0.0324,0.013523,0.002678,0.000431,0.008932
123967000,0.0324,0.013523,0.002678,0.000431,0.012223
123968000,0.0324,0.013523,0.002678,0.000431,0.006699
123969000,0.0324,0.013523,0.002678,0.000431,0.006464
123970000,0.0324,0.013523,0.002678,0.000431,0.006699
123971000,0.0324,0.013523,0.002678,0.000431,0.006229
123972000,0.0324,0.013523,0.002678,0.000431,0.006817
123973000,0.0324,0.013523,0.002678,0.000431,0.006817
123974000,0.0324,0.013523,0.002678,0.000431,0.010578
123975000,0.0324,0.013523,0.002678,0.000431,0.005289
123976000,0.0324,0.013523,0.002678,0.000431,0.004584
123977000,0.0324,0.013523,0.002678,0.000431,0.005289
123978000,0.0324,0.013523,0.002678,0.000431,0.004819
123979000,0.0324,0.013523,0.002678,0.000431,0.005054
123980000,0.0324,0.013523,0.002678,0.000431,0.005054
123981000,0.0324,0.013523,0.002678,0.000431,0.004936
123982000,0.0324,0.013523,0.002678,0.000431,0.004584
123983000,0.0324,0.013523,0.002678,0.000431,0.005054
123984000,0.0324,0.013523,0.002678,0.000431,0.005171
123985000,0.0324,0.013523,0.002678,0.000431,0.004819
123986000,0.0324,0.013523,0.002678,0.000431,0.005289
123987000,0.0324,0.013523,0.002678,0.000431,0.004584
123988000,0.0324,0.013523,0.002678,0.000431,0.005054
123989000,0.0324,0.013523,0.002678,0.000431,0.005054
123990000,0.0324,0.013523,0.002678,0.000431,0.004819
123991000,0.0324,0.013523,0.002678,0.000431,0.006347
123992000,0.0324,0.013523,0.002678,0.000431,0.005171
123993000,0.0324,0.013523,0.002678,0.000431,0.004231
123994000,0.0324,0.013523,0.002678,0.000431,0.004231
123995000,0.0324,0.013523,0.002678,0.000431,0.003996
123996000,0.0324,0.013523,0.002678,0.000431,0.004113
123997000,0.0324,0.013523,0.002678,0.000431,0.004466
123998000,0.0324,0.013523,0.002678,0.000431,0.005054
123999000,0.0324,0.013523,0.002678,0.000431,0.003996
