Cycle,Area(mm^2),PeakDynamic(W),SubthresholdLeakage(W),GateLeakage(W),RunTimeDynamic(W)
66000000,0.0324,0.013523,0.002678,0.000431,0.000940
66001000,0.0324,0.013523,0.002678,0.000431,0.000823
66002000,0.0324,0.013523,0.002678,0.000431,0.000705
66003000,0.0324,0.013523,0.002678,0.000431,0.000940
66004000,0.0324,0.013523,0.002678,0.000431,0.000823
66005000,0.0324,0.013523,0.002678,0.000431,0.000823
66006000,0.0324,0.013523,0.002678,0.000431,0.000823
66007000,0.0324,0.013523,0.002678,0.000431,0.000823
66008000,0.0324,0.013523,0.002678,0.000431,0.000823
66009000,0.0324,0.013523,0.002678,0.000431,0.000940
66010000,0.0324,0.013523,0.002678,0.000431,0.000823
66011000,0.0324,0.013523,0.002678,0.000431,0.000823
66012000,0.0324,0.013523,0.002678,0.000431,0.000705
66013000,0.0324,0.013523,0.002678,0.000431,0.000940
66014000,0.0324,0.013523,0.002678,0.000431,0.000940
66015000,0.0324,0.013523,0.002678,0.000431,0.000705
66016000,0.0324,0.013523,0.002678,0.000431,0.000940
66017000,0.0324,0.013523,0.002678,0.000431,0.000705
66018000,0.0324,0.013523,0.002678,0.000431,0.000940
66019000,0.0324,0.013523,0.002678,0.000431,0.000823
66020000,0.0324,0.013523,0.002678,0.000431,0.000823
66021000,0.0324,0.013523,0.002678,0.000431,0.000940
66022000,0.0324,0.013523,0.002678,0.000431,0.000705
66023000,0.0324,0.013523,0.002678,0.000431,0.000940
66024000,0.0324,0.013523,0.002678,0.000431,0.000823
66025000,0.0324,0.013523,0.002678,0.000431,0.000823
66026000,0.0324,0.013523,0.002678,0.000431,0.000823
66027000,0.0324,0.013523,0.002678,0.000431,0.000823
66028000,0.0324,0.013523,0.002678,0.000431,0.000823
66029000,0.0324,0.013523,0.002678,0.000431,0.000823
66030000,0.0324,0.013523,0.002678,0.000431,0.000940
66031000,0.0324,0.013523,0.002678,0.000431,0.000705
66032000,0.0324,0.013523,0.002678,0.000431,0.000940
66033000,0.0324,0.013523,0.002678,0.000431,0.000823
66034000,0.0324,0.013523,0.002678,0.000431,0.000823
66035000,0.0324,0.013523,0.002678,0.000431,0.000705
66036000,0.0324,0.013523,0.002678,0.000431,0.000940
66037000,0.0324,0.013523,0.002678,0.000431,0.000940
66038000,0.0324,0.013523,0.002678,0.000431,0.000705
66039000,0.0324,0.013523,0.002678,0.000431,0.000940
66040000,0.0324,0.013523,0.002678,0.000431,0.000705
66041000,0.0324,0.013523,0.002678,0.000431,0.000940
66042000,0.0324,0.013523,0.002678,0.000431,0.000823
66043000,0.0324,0.013523,0.002678,0.000431,0.000823
66044000,0.0324,0.013523,0.002678,0.000431,0.000940
66045000,0.0324,0.013523,0.002678,0.000431,0.000705
66046000,0.0324,0.013523,0.002678,0.000431,0.000940
66047000,0.0324,0.013523,0.002678,0.000431,0.000823
66048000,0.0324,0.013523,0.002678,0.000431,0.000823
66049000,0.0324,0.013523,0.002678,0.000431,0.000823
66050000,0.0324,0.013523,0.002678,0.000431,0.000823
66051000,0.0324,0.013523,0.002678,0.000431,0.000823
66052000,0.0324,0.013523,0.002678,0.000431,0.000823
66053000,0.0324,0.013523,0.002678,0.000431,0.000940
66054000,0.0324,0.013523,0.002678,0.000431,0.000705
66055000,0.0324,0.013523,0.002678,0.000431,0.000823
66056000,0.0324,0.013523,0.002678,0.000431,0.000940
66057000,0.0324,0.013523,0.002678,0.000431,0.001528
66058000,0.0324,0.013523,0.002678,0.000431,0.315446
66059000,0.0324,0.013523,0.002678,0.000431,0.671203
66060000,0.0324,0.013523,0.002678,0.000431,0.142444
66061000,0.0324,0.013523,0.002678,0.000431,0.133042
66062000,0.0324,0.013523,0.002678,0.000431,0.132572
66063000,0.0324,0.013523,0.002678,0.000431,0.593400
66064000,0.0324,0.013523,0.002678,0.000431,0.217192
66065000,0.0324,0.013523,0.002678,0.000431,0.250218
66066000,0.0324,0.013523,0.002678,0.000431,0.281715
66067000,0.0324,0.013523,0.002678,0.000431,0.137390
66068000,0.0324,0.013523,0.002678,0.000431,0.149026
66069000,0.0324,0.013523,0.002678,0.000431,0.127871
66070000,0.0324,0.013523,0.002678,0.000431,0.255859
66071000,0.0324,0.013523,0.002678,0.000431,0.325553
66072000,0.0324,0.013523,0.002678,0.000431,0.022448
66073000,0.0324,0.013523,0.002678,0.000431,0.013281
66074000,0.0324,0.013523,0.002678,0.000431,0.016807
66075000,0.0324,0.013523,0.002678,0.000431,0.009637
66076000,0.0324,0.013523,0.002678,0.000431,0.009402
66077000,0.0324,0.013523,0.002678,0.000431,0.010107
66078000,0.0324,0.013523,0.002678,0.000431,0.006817
66079000,0.0324,0.013523,0.002678,0.000431,0.007052
66080000,0.0324,0.013523,0.002678,0.000431,0.009167
66081000,0.0324,0.013523,0.002678,0.000431,0.006347
66082000,0.0324,0.013523,0.002678,0.000431,0.005524
66083000,0.0324,0.013523,0.002678,0.000431,0.005876
66084000,0.0324,0.013523,0.002678,0.000431,0.006229
66085000,0.0324,0.013523,0.002678,0.000431,0.005759
66086000,0.0324,0.013523,0.002678,0.000431,0.005641
66087000,0.0324,0.013523,0.002678,0.000431,0.006229
66088000,0.0324,0.013523,0.002678,0.000431,0.007052
66089000,0.0324,0.013523,0.002678,0.000431,0.005054
66090000,0.0324,0.013523,0.002678,0.000431,0.004936
66091000,0.0324,0.013523,0.002678,0.000431,0.005171
66092000,0.0324,0.013523,0.002678,0.000431,0.006229
66093000,0.0324,0.013523,0.002678,0.000431,0.003878
66094000,0.0324,0.013523,0.002678,0.000431,0.004349
66095000,0.0324,0.013523,0.002678,0.000431,0.003996
66096000,0.0324,0.013523,0.002678,0.000431,0.004231
66097000,0.0324,0.013523,0.002678,0.000431,0.004466
66098000,0.0324,0.013523,0.002678,0.000431,0.005054
66099000,0.0324,0.013523,0.002678,0.000431,0.005406
66100000,0.0324,0.013523,0.002678,0.000431,0.002233
66101000,0.0324,0.013523,0.002678,0.000431,0.002468
66102000,0.0324,0.013523,0.002678,0.000431,0.002586
66103000,0.0324,0.013523,0.002678,0.000431,0.002233
66104000,0.0324,0.013523,0.002678,0.000431,0.002586
66105000,0.0324,0.013523,0.002678,0.000431,0.002468
66106000,0.0324,0.013523,0.002678,0.000431,0.002351
66107000,0.0324,0.013523,0.002678,0.000431,0.002468
66108000,0.0324,0.013523,0.002678,0.000431,0.002468
66109000,0.0324,0.013523,0.002678,0.000431,0.002351
66110000,0.0324,0.013523,0.002678,0.000431,0.003526
66111000,0.0324,0.013523,0.002678,0.000431,0.000823
66112000,0.0324,0.013523,0.002678,0.000431,0.000823
66113000,0.0324,0.013523,0.002678,0.000431,0.000940
66114000,0.0324,0.013523,0.002678,0.000431,0.000940
66115000,0.0324,0.013523,0.002678,0.000431,0.000705
66116000,0.0324,0.013523,0.002678,0.000431,0.000940
66117000,0.0324,0.013523,0.002678,0.000431,0.000940
66118000,0.0324,0.013523,0.002678,0.000431,0.000940
66119000,0.0324,0.013523,0.002678,0.000431,0.000705
66120000,0.0324,0.013523,0.002678,0.000431,0.000940
66121000,0.0324,0.013523,0.002678,0.000431,0.000940
66122000,0.0324,0.013523,0.002678,0.000431,0.000823
66123000,0.0324,0.013523,0.002678,0.000431,0.000940
66124000,0.0324,0.013523,0.002678,0.000431,0.000823
66125000,0.0324,0.013523,0.002678,0.000431,0.000940
66126000,0.0324,0.013523,0.002678,0.000431,0.000940
66127000,0.0324,0.013523,0.002678,0.000431,0.000823
66128000,0.0324,0.013523,0.002678,0.000431,0.000823
66129000,0.0324,0.013523,0.002678,0.000431,0.000940
66130000,0.0324,0.013523,0.002678,0.000431,0.000940
66131000,0.0324,0.013523,0.002678,0.000431,0.000823
66132000,0.0324,0.013523,0.002678,0.000431,0.000823
66133000,0.0324,0.013523,0.002678,0.000431,0.000940
66134000,0.0324,0.013523,0.002678,0.000431,0.000823
66135000,0.0324,0.013523,0.002678,0.000431,0.000940
66136000,0.0324,0.013523,0.002678,0.000431,0.000823
66137000,0.0324,0.013523,0.002678,0.000431,0.000940
66138000,0.0324,0.013523,0.002678,0.000431,0.000823
66139000,0.0324,0.013523,0.002678,0.000431,0.000823
66140000,0.0324,0.013523,0.002678,0.000431,0.000940
66141000,0.0324,0.013523,0.002678,0.000431,0.000940
66142000,0.0324,0.013523,0.002678,0.000431,0.000823
66143000,0.0324,0.013523,0.002678,0.000431,0.000823
66144000,0.0324,0.013523,0.002678,0.000431,0.000940
66145000,0.0324,0.013523,0.002678,0.000431,0.000940
66146000,0.0324,0.013523,0.002678,0.000431,0.000705
66147000,0.0324,0.013523,0.002678,0.000431,0.000940
66148000,0.0324,0.013523,0.002678,0.000431,0.000940
66149000,0.0324,0.013523,0.002678,0.000431,0.000940
66150000,0.0324,0.013523,0.002678,0.000431,0.000823
66151000,0.0324,0.013523,0.002678,0.000431,0.000823
66152000,0.0324,0.013523,0.002678,0.000431,0.000940
66153000,0.0324,0.013523,0.002678,0.000431,0.000823
66154000,0.0324,0.013523,0.002678,0.000431,0.000940
66155000,0.0324,0.013523,0.002678,0.000431,0.000823
66156000,0.0324,0.013523,0.002678,0.000431,0.000940
66157000,0.0324,0.013523,0.002678,0.000431,0.000823
66158000,0.0324,0.013523,0.002678,0.000431,0.000823
66159000,0.0324,0.013523,0.002678,0.000431,0.000940
66160000,0.0324,0.013523,0.002678,0.000431,0.000940
66161000,0.0324,0.013523,0.002678,0.000431,0.000705
66162000,0.0324,0.013523,0.002678,0.000431,0.000940
66163000,0.0324,0.013523,0.002678,0.000431,0.000940
66164000,0.0324,0.013523,0.002678,0.000431,0.000940
66165000,0.0324,0.013523,0.002678,0.000431,0.000705
66166000,0.0324,0.013523,0.002678,0.000431,0.000940
66167000,0.0324,0.013523,0.002678,0.000431,0.000940
66168000,0.0324,0.013523,0.002678,0.000431,0.000823
66169000,0.0324,0.013523,0.002678,0.000431,0.000823
66170000,0.0324,0.013523,0.002678,0.000431,0.000940
66171000,0.0324,0.013523,0.002678,0.000431,0.000940
66172000,0.0324,0.013523,0.002678,0.000431,0.000823
66173000,0.0324,0.013523,0.002678,0.000431,0.013868
66174000,0.0324,0.013523,0.002678,0.000431,0.449075
66175000,0.0324,0.013523,0.002678,0.000431,0.587288
66176000,0.0324,0.013523,0.002678,0.000431,0.134922
66177000,0.0324,0.013523,0.002678,0.000431,0.131161
66178000,0.0324,0.013523,0.002678,0.000431,0.366453
66179000,0.0324,0.013523,0.002678,0.000431,0.507017
66180000,0.0324,0.013523,0.002678,0.000431,0.261265
66181000,0.0324,0.013523,0.002678,0.000431,0.300872
66182000,0.0324,0.013523,0.002678,0.000431,0.143737
66183000,0.0324,0.013523,0.002678,0.000431,0.141034
66184000,0.0324,0.013523,0.002678,0.000431,0.115060
66185000,0.0324,0.013523,0.002678,0.000431,0.310745
66186000,0.0324,0.013523,0.002678,0.000431,0.284418
66187000,0.0324,0.013523,0.002678,0.000431,0.046894
66188000,0.0324,0.013523,0.002678,0.000431,0.045954
66189000,0.0324,0.013523,0.002678,0.000431,0.042545
66190000,0.0324,0.013523,0.002678,0.000431,0.036669
66191000,0.0324,0.013523,0.002678,0.000431,0.034083
66192000,0.0324,0.013523,0.002678,0.000431,0.023623
66193000,0.0324,0.013523,0.002678,0.000431,0.023153
66194000,0.0324,0.013523,0.002678,0.000431,0.020685
66195000,0.0324,0.013523,0.002678,0.000431,0.019980
66196000,0.0324,0.013523,0.002678,0.000431,0.016807
66197000,0.0324,0.013523,0.002678,0.000431,0.015866
66198000,0.0324,0.013523,0.002678,0.000431,0.016924
66199000,0.0324,0.013523,0.002678,0.000431,0.016571
66200000,0.0324,0.013523,0.002678,0.000431,0.010225
66201000,0.0324,0.013523,0.002678,0.000431,0.010930
66202000,0.0324,0.013523,0.002678,0.000431,0.009872
66203000,0.0324,0.013523,0.002678,0.000431,0.012340
66204000,0.0324,0.013523,0.002678,0.000431,0.009872
66205000,0.0324,0.013523,0.002678,0.000431,0.010460
66206000,0.0324,0.013523,0.002678,0.000431,0.009167
66207000,0.0324,0.013523,0.002678,0.000431,0.008462
66208000,0.0324,0.013523,0.002678,0.000431,0.007874
66209000,0.0324,0.013523,0.002678,0.000431,0.008462
66210000,0.0324,0.013523,0.002678,0.000431,0.008227
66211000,0.0324,0.013523,0.002678,0.000431,0.008227
66212000,0.0324,0.013523,0.002678,0.000431,0.008109
66213000,0.0324,0.013523,0.002678,0.000431,0.009402
66214000,0.0324,0.013523,0.002678,0.000431,0.008462
66215000,0.0324,0.013523,0.002678,0.000431,0.006582
66216000,0.0324,0.013523,0.002678,0.000431,0.006347
66217000,0.0324,0.013523,0.002678,0.000431,0.006582
66218000,0.0324,0.013523,0.002678,0.000431,0.005876
66219000,0.0324,0.013523,0.002678,0.000431,0.006934
66220000,0.0324,0.013523,0.002678,0.000431,0.005994
66221000,0.0324,0.013523,0.002678,0.000431,0.008697
66222000,0.0324,0.013523,0.002678,0.000431,0.004936
66223000,0.0324,0.013523,0.002678,0.000431,0.004701
66224000,0.0324,0.013523,0.002678,0.000431,0.005054
66225000,0.0324,0.013523,0.002678,0.000431,0.004701
66226000,0.0324,0.013523,0.002678,0.000431,0.005406
66227000,0.0324,0.013523,0.002678,0.000431,0.004701
66228000,0.0324,0.013523,0.002678,0.000431,0.004701
66229000,0.0324,0.013523,0.002678,0.000431,0.004936
66230000,0.0324,0.013523,0.002678,0.000431,0.005171
66231000,0.0324,0.013523,0.002678,0.000431,0.004584
66232000,0.0324,0.013523,0.002678,0.000431,0.004936
66233000,0.0324,0.013523,0.002678,0.000431,0.005054
66234000,0.0324,0.013523,0.002678,0.000431,0.004819
66235000,0.0324,0.013523,0.002678,0.000431,0.004466
66236000,0.0324,0.013523,0.002678,0.000431,0.005054
66237000,0.0324,0.013523,0.002678,0.000431,0.005759
66238000,0.0324,0.013523,0.002678,0.000431,0.003526
66239000,0.0324,0.013523,0.002678,0.000431,0.005054
66240000,0.0324,0.013523,0.002678,0.000431,0.003526
66241000,0.0324,0.013523,0.002678,0.000431,0.002116
66242000,0.0324,0.013523,0.002678,0.000431,0.002586
66243000,0.0324,0.013523,0.002678,0.000431,0.002233
66244000,0.0324,0.013523,0.002678,0.000431,0.002703
66245000,0.0324,0.013523,0.002678,0.000431,0.002351
66246000,0.0324,0.013523,0.002678,0.000431,0.003878
66247000,0.0324,0.013523,0.002678,0.000431,0.000823
66248000,0.0324,0.013523,0.002678,0.000431,0.000940
66249000,0.0324,0.013523,0.002678,0.000431,0.000823
66250000,0.0324,0.013523,0.002678,0.000431,0.000823
66251000,0.0324,0.013523,0.002678,0.000431,0.000823
66252000,0.0324,0.013523,0.002678,0.000431,0.000823
66253000,0.0324,0.013523,0.002678,0.000431,0.000823
66254000,0.0324,0.013523,0.002678,0.000431,0.000823
66255000,0.0324,0.013523,0.002678,0.000431,0.000940
66256000,0.0324,0.013523,0.002678,0.000431,0.000705
66257000,0.0324,0.013523,0.002678,0.000431,0.000823
66258000,0.0324,0.013523,0.002678,0.000431,0.000940
66259000,0.0324,0.013523,0.002678,0.000431,0.000823
66260000,0.0324,0.013523,0.002678,0.000431,0.000823
66261000,0.0324,0.013523,0.002678,0.000431,0.000823
66262000,0.0324,0.013523,0.002678,0.000431,0.000823
66263000,0.0324,0.013523,0.002678,0.000431,0.000823
66264000,0.0324,0.013523,0.002678,0.000431,0.000940
66265000,0.0324,0.013523,0.002678,0.000431,0.000705
66266000,0.0324,0.013523,0.002678,0.000431,0.000940
66267000,0.0324,0.013523,0.002678,0.000431,0.000705
66268000,0.0324,0.013523,0.002678,0.000431,0.000940
66269000,0.0324,0.013523,0.002678,0.000431,0.000940
66270000,0.0324,0.013523,0.002678,0.000431,0.000705
66271000,0.0324,0.013523,0.002678,0.000431,0.000940
66272000,0.0324,0.013523,0.002678,0.000431,0.000705
66273000,0.0324,0.013523,0.002678,0.000431,0.000940
66274000,0.0324,0.013523,0.002678,0.000431,0.000823
66275000,0.0324,0.013523,0.002678,0.000431,0.000823
66276000,0.0324,0.013523,0.002678,0.000431,0.000823
66277000,0.0324,0.013523,0.002678,0.000431,0.000823
66278000,0.0324,0.013523,0.002678,0.000431,0.000940
66279000,0.0324,0.013523,0.002678,0.000431,0.000705
66280000,0.0324,0.013523,0.002678,0.000431,0.000940
66281000,0.0324,0.013523,0.002678,0.000431,0.000823
66282000,0.0324,0.013523,0.002678,0.000431,0.000823
66283000,0.0324,0.013523,0.002678,0.000431,0.000823
66284000,0.0324,0.013523,0.002678,0.000431,0.000823
66285000,0.0324,0.013523,0.002678,0.000431,0.000823
66286000,0.0324,0.013523,0.002678,0.000431,0.000823
66287000,0.0324,0.013523,0.002678,0.000431,0.000940
66288000,0.0324,0.013523,0.002678,0.000431,0.000705
66289000,0.0324,0.013523,0.002678,0.000431,0.000940
66290000,0.0324,0.013523,0.002678,0.000431,0.000705
66291000,0.0324,0.013523,0.002678,0.000431,0.000940
66292000,0.0324,0.013523,0.002678,0.000431,0.000705
66293000,0.0324,0.013523,0.002678,0.000431,0.000940
66294000,0.0324,0.013523,0.002678,0.000431,0.000823
66295000,0.0324,0.013523,0.002678,0.000431,0.000823
66296000,0.0324,0.013523,0.002678,0.000431,0.000823
66297000,0.0324,0.013523,0.002678,0.000431,0.000823
66298000,0.0324,0.013523,0.002678,0.000431,0.000940
66299000,0.0324,0.013523,0.002678,0.000431,0.101662
66300000,0.0324,0.013523,0.002678,0.000431,0.491620
66301000,0.0324,0.013523,0.002678,0.000431,0.539807
66302000,0.0324,0.013523,0.002678,0.000431,0.133982
66303000,0.0324,0.013523,0.002678,0.000431,0.131161
66304000,0.0324,0.013523,0.002678,0.000431,0.607033
66305000,0.0324,0.013523,0.002678,0.000431,0.262440
66306000,0.0324,0.013523,0.002678,0.000431,0.229297
66307000,0.0324,0.013523,0.002678,0.000431,0.309569
66308000,0.0324,0.013523,0.002678,0.000431,0.141974
66309000,0.0324,0.013523,0.002678,0.000431,0.142679
66310000,0.0324,0.013523,0.002678,0.000431,0.112592
66311000,0.0324,0.013523,0.002678,0.000431,0.402299
66312000,0.0324,0.013523,0.002678,0.000431,0.190396
66313000,0.0324,0.013523,0.002678,0.000431,0.050890
66314000,0.0324,0.013523,0.002678,0.000431,0.043956
66315000,0.0324,0.013523,0.002678,0.000431,0.034318
66316000,0.0324,0.013523,0.002678,0.000431,0.032790
66317000,0.0324,0.013523,0.002678,0.000431,0.023153
66318000,0.0324,0.013523,0.002678,0.000431,0.023858
66319000,0.0324,0.013523,0.002678,0.000431,0.018805
66320000,0.0324,0.013523,0.002678,0.000431,0.021978
66321000,0.0324,0.013523,0.002678,0.000431,0.017864
66322000,0.0324,0.013523,0.002678,0.000431,0.016571
66323000,0.0324,0.013523,0.002678,0.000431,0.013751
66324000,0.0324,0.013523,0.002678,0.000431,0.013516
66325000,0.0324,0.013523,0.002678,0.000431,0.014691
66326000,0.0324,0.013523,0.002678,0.000431,0.012223
66327000,0.0324,0.013523,0.002678,0.000431,0.011870
66328000,0.0324,0.013523,0.002678,0.000431,0.008109
66329000,0.0324,0.013523,0.002678,0.000431,0.010342
66330000,0.0324,0.013523,0.002678,0.000431,0.006934
66331000,0.0324,0.013523,0.002678,0.000431,0.011283
66332000,0.0324,0.013523,0.002678,0.000431,0.005876
66333000,0.0324,0.013523,0.002678,0.000431,0.005524
66334000,0.0324,0.013523,0.002678,0.000431,0.005759
66335000,0.0324,0.013523,0.002678,0.000431,0.005641
66336000,0.0324,0.013523,0.002678,0.000431,0.005054
66337000,0.0324,0.013523,0.002678,0.000431,0.004936
66338000,0.0324,0.013523,0.002678,0.000431,0.005171
66339000,0.0324,0.013523,0.002678,0.000431,0.005406
66340000,0.0324,0.013523,0.002678,0.000431,0.004349
66341000,0.0324,0.013523,0.002678,0.000431,0.005524
66342000,0.0324,0.013523,0.002678,0.000431,0.004701
66343000,0.0324,0.013523,0.002678,0.000431,0.005171
66344000,0.0324,0.013523,0.002678,0.000431,0.004936
66345000,0.0324,0.013523,0.002678,0.000431,0.004936
66346000,0.0324,0.013523,0.002678,0.000431,0.005641
66347000,0.0324,0.013523,0.002678,0.000431,0.004584
66348000,0.0324,0.013523,0.002678,0.000431,0.005406
66349000,0.0324,0.013523,0.002678,0.000431,0.004584
66350000,0.0324,0.013523,0.002678,0.000431,0.005876
66351000,0.0324,0.013523,0.002678,0.000431,0.006934
66352000,0.0324,0.013523,0.002678,0.000431,0.002703
66353000,0.0324,0.013523,0.002678,0.000431,0.003291
66354000,0.0324,0.013523,0.002678,0.000431,0.001645
66355000,0.0324,0.013523,0.002678,0.000431,0.001763
66356000,0.0324,0.013523,0.002678,0.000431,0.001763
66357000,0.0324,0.013523,0.002678,0.000431,0.001645
66358000,0.0324,0.013523,0.002678,0.000431,0.001645
66359000,0.0324,0.013523,0.002678,0.000431,0.002938
66360000,0.0324,0.013523,0.002678,0.000431,0.002351
66361000,0.0324,0.013523,0.002678,0.000431,0.000823
66362000,0.0324,0.013523,0.002678,0.000431,0.000940
66363000,0.0324,0.013523,0.002678,0.000431,0.000705
66364000,0.0324,0.013523,0.002678,0.000431,0.000823
66365000,0.0324,0.013523,0.002678,0.000431,0.000940
66366000,0.0324,0.013523,0.002678,0.000431,0.000823
66367000,0.0324,0.013523,0.002678,0.000431,0.000823
66368000,0.0324,0.013523,0.002678,0.000431,0.000823
66369000,0.0324,0.013523,0.002678,0.000431,0.000823
66370000,0.0324,0.013523,0.002678,0.000431,0.000823
66371000,0.0324,0.013523,0.002678,0.000431,0.000940
66372000,0.0324,0.013523,0.002678,0.000431,0.000705
66373000,0.0324,0.013523,0.002678,0.000431,0.000940
66374000,0.0324,0.013523,0.002678,0.000431,0.000705
66375000,0.0324,0.013523,0.002678,0.000431,0.000940
66376000,0.0324,0.013523,0.002678,0.000431,0.000940
66377000,0.0324,0.013523,0.002678,0.000431,0.000705
66378000,0.0324,0.013523,0.002678,0.000431,0.000940
66379000,0.0324,0.013523,0.002678,0.000431,0.000705
66380000,0.0324,0.013523,0.002678,0.000431,0.000940
66381000,0.0324,0.013523,0.002678,0.000431,0.000823
66382000,0.0324,0.013523,0.002678,0.000431,0.000823
66383000,0.0324,0.013523,0.002678,0.000431,0.000823
66384000,0.0324,0.013523,0.002678,0.000431,0.000823
66385000,0.0324,0.013523,0.002678,0.000431,0.000940
66386000,0.0324,0.013523,0.002678,0.000431,0.000705
66387000,0.0324,0.013523,0.002678,0.000431,0.000940
66388000,0.0324,0.013523,0.002678,0.000431,0.000823
66389000,0.0324,0.013523,0.002678,0.000431,0.000823
66390000,0.0324,0.013523,0.002678,0.000431,0.000823
66391000,0.0324,0.013523,0.002678,0.000431,0.000823
66392000,0.0324,0.013523,0.002678,0.000431,0.000823
66393000,0.0324,0.013523,0.002678,0.000431,0.000823
66394000,0.0324,0.013523,0.002678,0.000431,0.000940
66395000,0.0324,0.013523,0.002678,0.000431,0.000705
66396000,0.0324,0.013523,0.002678,0.000431,0.000940
66397000,0.0324,0.013523,0.002678,0.000431,0.000705
66398000,0.0324,0.013523,0.002678,0.000431,0.000940
66399000,0.0324,0.013523,0.002678,0.000431,0.000940
66400000,0.0324,0.013523,0.002678,0.000431,0.000705
66401000,0.0324,0.013523,0.002678,0.000431,0.000940
66402000,0.0324,0.013523,0.002678,0.000431,0.000705
66403000,0.0324,0.013523,0.002678,0.000431,0.000940
66404000,0.0324,0.013523,0.002678,0.000431,0.000823
66405000,0.0324,0.013523,0.002678,0.000431,0.000823
66406000,0.0324,0.013523,0.002678,0.000431,0.000823
66407000,0.0324,0.013523,0.002678,0.000431,0.000823
66408000,0.0324,0.013523,0.002678,0.000431,0.000940
66409000,0.0324,0.013523,0.002678,0.000431,0.000705
66410000,0.0324,0.013523,0.002678,0.000431,0.000940
66411000,0.0324,0.013523,0.002678,0.000431,0.000823
66412000,0.0324,0.013523,0.002678,0.000431,0.000823
66413000,0.0324,0.013523,0.002678,0.000431,0.000823
66414000,0.0324,0.013523,0.002678,0.000431,0.000823
66415000,0.0324,0.013523,0.002678,0.000431,0.000823
66416000,0.0324,0.013523,0.002678,0.000431,0.000823
66417000,0.0324,0.013523,0.002678,0.000431,0.000823
66418000,0.0324,0.013523,0.002678,0.000431,0.000940
66419000,0.0324,0.013523,0.002678,0.000431,0.000823
66420000,0.0324,0.013523,0.002678,0.000431,0.000823
66421000,0.0324,0.013523,0.002678,0.000431,0.000823
66422000,0.0324,0.013523,0.002678,0.000431,0.000705
66423000,0.0324,0.013523,0.002678,0.000431,0.000940
66424000,0.0324,0.013523,0.002678,0.000431,0.000940
66425000,0.0324,0.013523,0.002678,0.000431,0.000705
66426000,0.0324,0.013523,0.002678,0.000431,0.000940
66427000,0.0324,0.013523,0.002678,0.000431,0.000705
66428000,0.0324,0.013523,0.002678,0.000431,0.000940
66429000,0.0324,0.013523,0.002678,0.000431,0.000940
66430000,0.0324,0.013523,0.002678,0.000431,0.000705
66431000,0.0324,0.013523,0.002678,0.000431,0.000940
66432000,0.0324,0.013523,0.002678,0.000431,0.000705
66433000,0.0324,0.013523,0.002678,0.000431,0.000940
66434000,0.0324,0.013523,0.002678,0.000431,0.000823
66435000,0.0324,0.013523,0.002678,0.000431,0.000823
66436000,0.0324,0.013523,0.002678,0.000431,0.000823
66437000,0.0324,0.013523,0.002678,0.000431,0.000823
66438000,0.0324,0.013523,0.002678,0.000431,0.000940
66439000,0.0324,0.013523,0.002678,0.000431,0.000705
66440000,0.0324,0.013523,0.002678,0.000431,0.000940
66441000,0.0324,0.013523,0.002678,0.000431,0.000823
66442000,0.0324,0.013523,0.002678,0.000431,0.000823
66443000,0.0324,0.013523,0.002678,0.000431,0.000823
66444000,0.0324,0.013523,0.002678,0.000431,0.000823
66445000,0.0324,0.013523,0.002678,0.000431,0.000705
66446000,0.0324,0.013523,0.002678,0.000431,0.000940
66447000,0.0324,0.013523,0.002678,0.000431,0.000940
66448000,0.0324,0.013523,0.002678,0.000431,0.000705
66449000,0.0324,0.013523,0.002678,0.000431,0.000940
66450000,0.0324,0.013523,0.002678,0.000431,0.000705
66451000,0.0324,0.013523,0.002678,0.000431,0.000940
66452000,0.0324,0.013523,0.002678,0.000431,0.000940
66453000,0.0324,0.013523,0.002678,0.000431,0.000705
66454000,0.0324,0.013523,0.002678,0.000431,0.000940
66455000,0.0324,0.013523,0.002678,0.000431,0.000705
66456000,0.0324,0.013523,0.002678,0.000431,0.000940
66457000,0.0324,0.013523,0.002678,0.000431,0.000823
66458000,0.0324,0.013523,0.002678,0.000431,0.000823
66459000,0.0324,0.013523,0.002678,0.000431,0.193569
66460000,0.0324,0.013523,0.002678,0.000431,0.445197
66461000,0.0324,0.013523,0.002678,0.000431,0.522178
66462000,0.0324,0.013523,0.002678,0.000431,0.134100
66463000,0.0324,0.013523,0.002678,0.000431,0.132102
66464000,0.0324,0.013523,0.002678,0.000431,0.591402
66465000,0.0324,0.013523,0.002678,0.000431,0.280775
66466000,0.0324,0.013523,0.002678,0.000431,0.220130
66467000,0.0324,0.013523,0.002678,0.000431,0.275956
66468000,0.0324,0.013523,0.002678,0.000431,0.145030
66469000,0.0324,0.013523,0.002678,0.000431,0.152434
66470000,0.0324,0.013523,0.002678,0.000431,0.104365
66471000,0.0324,0.013523,0.002678,0.000431,0.373034
66472000,0.0324,0.013523,0.002678,0.000431,0.241991
66473000,0.0324,0.013523,0.002678,0.000431,0.049244
66474000,0.0324,0.013523,0.002678,0.000431,0.048539
66475000,0.0324,0.013523,0.002678,0.000431,0.031733
66476000,0.0324,0.013523,0.002678,0.000431,0.025034
66477000,0.0324,0.013523,0.002678,0.000431,0.026091
66478000,0.0324,0.013523,0.002678,0.000431,0.019627
66479000,0.0324,0.013523,0.002678,0.000431,0.020685
66480000,0.0324,0.013523,0.002678,0.000431,0.018805
66481000,0.0324,0.013523,0.002678,0.000431,0.013986
66482000,0.0324,0.013523,0.002678,0.000431,0.012576
66483000,0.0324,0.013523,0.002678,0.000431,0.010225
66484000,0.0324,0.013523,0.002678,0.000431,0.009872
66485000,0.0324,0.013523,0.002678,0.000431,0.009402
66486000,0.0324,0.013523,0.002678,0.000431,0.007992
66487000,0.0324,0.013523,0.002678,0.000431,0.007052
66488000,0.0324,0.013523,0.002678,0.000431,0.007874
66489000,0.0324,0.013523,0.002678,0.000431,0.006229
66490000,0.0324,0.013523,0.002678,0.000431,0.005876
66491000,0.0324,0.013523,0.002678,0.000431,0.005759
66492000,0.0324,0.013523,0.002678,0.000431,0.006111
66493000,0.0324,0.013523,0.002678,0.000431,0.006817
66494000,0.0324,0.013523,0.002678,0.000431,0.005171
66495000,0.0324,0.013523,0.002678,0.000431,0.007522
66496000,0.0324,0.013523,0.002678,0.000431,0.004466
66497000,0.0324,0.013523,0.002678,0.000431,0.005994
66498000,0.0324,0.013523,0.002678,0.000431,0.003056
66499000,0.0324,0.013523,0.002678,0.000431,0.004231
66500000,0.0324,0.013523,0.002678,0.000431,0.003643
66501000,0.0324,0.013523,0.002678,0.000431,0.003761
66502000,0.0324,0.013523,0.002678,0.000431,0.001645
66503000,0.0324,0.013523,0.002678,0.000431,0.001645
66504000,0.0324,0.013523,0.002678,0.000431,0.001645
66505000,0.0324,0.013523,0.002678,0.000431,0.001645
66506000,0.0324,0.013523,0.002678,0.000431,0.001763
66507000,0.0324,0.013523,0.002678,0.000431,0.001763
66508000,0.0324,0.013523,0.002678,0.000431,0.001410
66509000,0.0324,0.013523,0.002678,0.000431,0.001880
66510000,0.0324,0.013523,0.002678,0.000431,0.001645
66511000,0.0324,0.013523,0.002678,0.000431,0.001645
66512000,0.0324,0.013523,0.002678,0.000431,0.001763
66513000,0.0324,0.013523,0.002678,0.000431,0.001528
66514000,0.0324,0.013523,0.002678,0.000431,0.001880
66515000,0.0324,0.013523,0.002678,0.000431,0.001528
66516000,0.0324,0.013523,0.002678,0.000431,0.001763
66517000,0.0324,0.013523,0.002678,0.000431,0.001763
66518000,0.0324,0.013523,0.002678,0.000431,0.001528
66519000,0.0324,0.013523,0.002678,0.000431,0.001763
66520000,0.0324,0.013523,0.002678,0.000431,0.001645
66521000,0.0324,0.013523,0.002678,0.000431,0.001645
66522000,0.0324,0.013523,0.002678,0.000431,0.001645
66523000,0.0324,0.013523,0.002678,0.000431,0.001763
66524000,0.0324,0.013523,0.002678,0.000431,0.001528
66525000,0.0324,0.013523,0.002678,0.000431,0.001645
66526000,0.0324,0.013523,0.002678,0.000431,0.001880
66527000,0.0324,0.013523,0.002678,0.000431,0.001645
66528000,0.0324,0.013523,0.002678,0.000431,0.001645
66529000,0.0324,0.013523,0.002678,0.000431,0.001645
66530000,0.0324,0.013523,0.002678,0.000431,0.001528
66531000,0.0324,0.013523,0.002678,0.000431,0.001763
66532000,0.0324,0.013523,0.002678,0.000431,0.001763
66533000,0.0324,0.013523,0.002678,0.000431,0.001645
66534000,0.0324,0.013523,0.002678,0.000431,0.001645
66535000,0.0324,0.013523,0.002678,0.000431,0.001645
66536000,0.0324,0.013523,0.002678,0.000431,0.001645
66537000,0.0324,0.013523,0.002678,0.000431,0.001763
66538000,0.0324,0.013523,0.002678,0.000431,0.001645
66539000,0.0324,0.013523,0.002678,0.000431,0.001645
66540000,0.0324,0.013523,0.002678,0.000431,0.001763
66541000,0.0324,0.013523,0.002678,0.000431,0.001645
66542000,0.0324,0.013523,0.002678,0.000431,0.001645
66543000,0.0324,0.013523,0.002678,0.000431,0.001763
66544000,0.0324,0.013523,0.002678,0.000431,0.001528
66545000,0.0324,0.013523,0.002678,0.000431,0.003291
66546000,0.0324,0.013523,0.002678,0.000431,0.000940
66547000,0.0324,0.013523,0.002678,0.000431,0.000823
66548000,0.0324,0.013523,0.002678,0.000431,0.000823
66549000,0.0324,0.013523,0.002678,0.000431,0.000823
66550000,0.0324,0.013523,0.002678,0.000431,0.000823
66551000,0.0324,0.013523,0.002678,0.000431,0.000823
66552000,0.0324,0.013523,0.002678,0.000431,0.000940
66553000,0.0324,0.013523,0.002678,0.000431,0.000823
66554000,0.0324,0.013523,0.002678,0.000431,0.000823
66555000,0.0324,0.013523,0.002678,0.000431,0.000705
66556000,0.0324,0.013523,0.002678,0.000431,0.000940
66557000,0.0324,0.013523,0.002678,0.000431,0.000940
66558000,0.0324,0.013523,0.002678,0.000431,0.000705
66559000,0.0324,0.013523,0.002678,0.000431,0.000940
66560000,0.0324,0.013523,0.002678,0.000431,0.000705
66561000,0.0324,0.013523,0.002678,0.000431,0.000705
66562000,0.0324,0.013523,0.002678,0.000431,0.000940
66563000,0.0324,0.013523,0.002678,0.000431,0.000940
66564000,0.0324,0.013523,0.002678,0.000431,0.000705
66565000,0.0324,0.013523,0.002678,0.000431,0.000940
66566000,0.0324,0.013523,0.002678,0.000431,0.000705
66567000,0.0324,0.013523,0.002678,0.000431,0.000940
66568000,0.0324,0.013523,0.002678,0.000431,0.000823
66569000,0.0324,0.013523,0.002678,0.000431,0.000823
66570000,0.0324,0.013523,0.002678,0.000431,0.000940
66571000,0.0324,0.013523,0.002678,0.000431,0.000705
66572000,0.0324,0.013523,0.002678,0.000431,0.000940
66573000,0.0324,0.013523,0.002678,0.000431,0.000705
66574000,0.0324,0.013523,0.002678,0.000431,0.000940
66575000,0.0324,0.013523,0.002678,0.000431,0.000823
66576000,0.0324,0.013523,0.002678,0.000431,0.000823
66577000,0.0324,0.013523,0.002678,0.000431,0.000823
66578000,0.0324,0.013523,0.002678,0.000431,0.000823
66579000,0.0324,0.013523,0.002678,0.000431,0.000940
66580000,0.0324,0.013523,0.002678,0.000431,0.000705
66581000,0.0324,0.013523,0.002678,0.000431,0.000823
66582000,0.0324,0.013523,0.002678,0.000431,0.000823
66583000,0.0324,0.013523,0.002678,0.000431,0.000940
66584000,0.0324,0.013523,0.002678,0.000431,0.000823
66585000,0.0324,0.013523,0.002678,0.000431,0.000823
66586000,0.0324,0.013523,0.002678,0.000431,0.000705
66587000,0.0324,0.013523,0.002678,0.000431,0.000940
66588000,0.0324,0.013523,0.002678,0.000431,0.000940
66589000,0.0324,0.013523,0.002678,0.000431,0.000705
66590000,0.0324,0.013523,0.002678,0.000431,0.000940
66591000,0.0324,0.013523,0.002678,0.000431,0.000705
66592000,0.0324,0.013523,0.002678,0.000431,0.000940
66593000,0.0324,0.013523,0.002678,0.000431,0.000823
66594000,0.0324,0.013523,0.002678,0.000431,0.000823
66595000,0.0324,0.013523,0.002678,0.000431,0.000940
66596000,0.0324,0.013523,0.002678,0.000431,0.000705
66597000,0.0324,0.013523,0.002678,0.000431,0.000940
66598000,0.0324,0.013523,0.002678,0.000431,0.000823
66599000,0.0324,0.013523,0.002678,0.000431,0.000823
66600000,0.0324,0.013523,0.002678,0.000431,0.000823
66601000,0.0324,0.013523,0.002678,0.000431,0.000823
66602000,0.0324,0.013523,0.002678,0.000431,0.000823
66603000,0.0324,0.013523,0.002678,0.000431,0.000823
66604000,0.0324,0.013523,0.002678,0.000431,0.000940
66605000,0.0324,0.013523,0.002678,0.000431,0.000823
66606000,0.0324,0.013523,0.002678,0.000431,0.000823
66607000,0.0324,0.013523,0.002678,0.000431,0.000823
66608000,0.0324,0.013523,0.002678,0.000431,0.000823
66609000,0.0324,0.013523,0.002678,0.000431,0.000823
66610000,0.0324,0.013523,0.002678,0.000431,0.000823
66611000,0.0324,0.013523,0.002678,0.000431,0.000940
66612000,0.0324,0.013523,0.002678,0.000431,0.000705
66613000,0.0324,0.013523,0.002678,0.000431,0.000940
66614000,0.0324,0.013523,0.002678,0.000431,0.000705
66615000,0.0324,0.013523,0.002678,0.000431,0.000940
66616000,0.0324,0.013523,0.002678,0.000431,0.000823
66617000,0.0324,0.013523,0.002678,0.000431,0.000823
66618000,0.0324,0.013523,0.002678,0.000431,0.000940
66619000,0.0324,0.013523,0.002678,0.000431,0.000705
66620000,0.0324,0.013523,0.002678,0.000431,0.000940
66621000,0.0324,0.013523,0.002678,0.000431,0.000823
66622000,0.0324,0.013523,0.002678,0.000431,0.000823
66623000,0.0324,0.013523,0.002678,0.000431,0.000823
66624000,0.0324,0.013523,0.002678,0.000431,0.000823
66625000,0.0324,0.013523,0.002678,0.000431,0.000940
66626000,0.0324,0.013523,0.002678,0.000431,0.000705
66627000,0.0324,0.013523,0.002678,0.000431,0.000940
66628000,0.0324,0.013523,0.002678,0.000431,0.000823
66629000,0.0324,0.013523,0.002678,0.000431,0.000823
66630000,0.0324,0.013523,0.002678,0.000431,0.000823
66631000,0.0324,0.013523,0.002678,0.000431,0.000823
66632000,0.0324,0.013523,0.002678,0.000431,0.000823
66633000,0.0324,0.013523,0.002678,0.000431,0.000823
66634000,0.0324,0.013523,0.002678,0.000431,0.000823
66635000,0.0324,0.013523,0.002678,0.000431,0.000823
66636000,0.0324,0.013523,0.002678,0.000431,0.000940
66637000,0.0324,0.013523,0.002678,0.000431,0.000823
66638000,0.0324,0.013523,0.002678,0.000431,0.000823
66639000,0.0324,0.013523,0.002678,0.000431,0.000705
66640000,0.0324,0.013523,0.002678,0.000431,0.000940
66641000,0.0324,0.013523,0.002678,0.000431,0.000940
66642000,0.0324,0.013523,0.002678,0.000431,0.000705
66643000,0.0324,0.013523,0.002678,0.000431,0.000940
66644000,0.0324,0.013523,0.002678,0.000431,0.000705
66645000,0.0324,0.013523,0.002678,0.000431,0.000940
66646000,0.0324,0.013523,0.002678,0.000431,0.000823
66647000,0.0324,0.013523,0.002678,0.000431,0.000823
66648000,0.0324,0.013523,0.002678,0.000431,0.000940
66649000,0.0324,0.013523,0.002678,0.000431,0.000705
66650000,0.0324,0.013523,0.002678,0.000431,0.000940
66651000,0.0324,0.013523,0.002678,0.000431,0.000705
66652000,0.0324,0.013523,0.002678,0.000431,0.000940
66653000,0.0324,0.013523,0.002678,0.000431,0.000823
66654000,0.0324,0.013523,0.002678,0.000431,0.000823
66655000,0.0324,0.013523,0.002678,0.000431,0.197682
66656000,0.0324,0.013523,0.002678,0.000431,0.464589
66657000,0.0324,0.013523,0.002678,0.000431,0.512540
66658000,0.0324,0.013523,0.002678,0.000431,0.134922
66659000,0.0324,0.013523,0.002678,0.000431,0.133512
66660000,0.0324,0.013523,0.002678,0.000431,0.630774
66661000,0.0324,0.013523,0.002678,0.000431,0.242931
66662000,0.0324,0.013523,0.002678,0.000431,0.281833
66663000,0.0324,0.013523,0.002678,0.000431,0.262440
66664000,0.0324,0.013523,0.002678,0.000431,0.145382
66665000,0.0324,0.013523,0.002678,0.000431,0.141621
66666000,0.0324,0.013523,0.002678,0.000431,0.222951
66667000,0.0324,0.013523,0.002678,0.000431,0.357991
66668000,0.0324,0.013523,0.002678,0.000431,0.003643
66669000,0.0324,0.013523,0.002678,0.000431,0.001880
66670000,0.0324,0.013523,0.002678,0.000431,0.001763
66671000,0.0324,0.013523,0.002678,0.000431,0.001763
66672000,0.0324,0.013523,0.002678,0.000431,0.001645
66673000,0.0324,0.013523,0.002678,0.000431,0.001880
66674000,0.0324,0.013523,0.002678,0.000431,0.001763
66675000,0.0324,0.013523,0.002678,0.000431,0.001645
66676000,0.0324,0.013523,0.002678,0.000431,0.001763
66677000,0.0324,0.013523,0.002678,0.000431,0.001763
66678000,0.0324,0.013523,0.002678,0.000431,0.001880
66679000,0.0324,0.013523,0.002678,0.000431,0.001645
66680000,0.0324,0.013523,0.002678,0.000431,0.001763
66681000,0.0324,0.013523,0.002678,0.000431,0.001763
66682000,0.0324,0.013523,0.002678,0.000431,0.001645
66683000,0.0324,0.013523,0.002678,0.000431,0.001880
66684000,0.0324,0.013523,0.002678,0.000431,0.001763
66685000,0.0324,0.013523,0.002678,0.000431,0.001763
66686000,0.0324,0.013523,0.002678,0.000431,0.001645
66687000,0.0324,0.013523,0.002678,0.000431,0.002821
66688000,0.0324,0.013523,0.002678,0.000431,0.001880
66689000,0.0324,0.013523,0.002678,0.000431,0.000823
66690000,0.0324,0.013523,0.002678,0.000431,0.000823
66691000,0.0324,0.013523,0.002678,0.000431,0.000940
66692000,0.0324,0.013523,0.002678,0.000431,0.000940
66693000,0.0324,0.013523,0.002678,0.000431,0.000823
66694000,0.0324,0.013523,0.002678,0.000431,0.000823
66695000,0.0324,0.013523,0.002678,0.000431,0.000940
66696000,0.0324,0.013523,0.002678,0.000431,0.000823
66697000,0.0324,0.013523,0.002678,0.000431,0.000940
66698000,0.0324,0.013523,0.002678,0.000431,0.000823
66699000,0.0324,0.013523,0.002678,0.000431,0.000940
66700000,0.0324,0.013523,0.002678,0.000431,0.000823
66701000,0.0324,0.013523,0.002678,0.000431,0.000823
66702000,0.0324,0.013523,0.002678,0.000431,0.000940
66703000,0.0324,0.013523,0.002678,0.000431,0.000940
66704000,0.0324,0.013523,0.002678,0.000431,0.100839
66705000,0.0324,0.013523,0.002678,0.000431,0.433444
66706000,0.0324,0.013523,0.002678,0.000431,0.539572
66707000,0.0324,0.013523,0.002678,0.000431,0.134452
66708000,0.0324,0.013523,0.002678,0.000431,0.131161
66709000,0.0324,0.013523,0.002678,0.000431,0.566368
66710000,0.0324,0.013523,0.002678,0.000431,0.218837
66711000,0.0324,0.013523,0.002678,0.000431,0.286299
66712000,0.0324,0.013523,0.002678,0.000431,0.264556
66713000,0.0324,0.013523,0.002678,0.000431,0.154902
66714000,0.0324,0.013523,0.002678,0.000431,0.146675
66715000,0.0324,0.013523,0.002678,0.000431,0.160543
66716000,0.0324,0.013523,0.002678,0.000431,0.120819
66717000,0.0324,0.013523,0.002678,0.000431,0.457302
66718000,0.0324,0.013523,0.002678,0.000431,0.030792
66719000,0.0324,0.013523,0.002678,0.000431,0.016689
66720000,0.0324,0.013523,0.002678,0.000431,0.017394
66721000,0.0324,0.013523,0.002678,0.000431,0.014338
66722000,0.0324,0.013523,0.002678,0.000431,0.009755
66723000,0.0324,0.013523,0.002678,0.000431,0.012458
66724000,0.0324,0.013523,0.002678,0.000431,0.009167
66725000,0.0324,0.013523,0.002678,0.000431,0.009637
66726000,0.0324,0.013523,0.002678,0.000431,0.008462
66727000,0.0324,0.013523,0.002678,0.000431,0.009990
66728000,0.0324,0.013523,0.002678,0.000431,0.009402
66729000,0.0324,0.013523,0.002678,0.000431,0.010107
66730000,0.0324,0.013523,0.002678,0.000431,0.007639
66731000,0.0324,0.013523,0.002678,0.000431,0.010460
66732000,0.0324,0.013523,0.002678,0.000431,0.007404
66733000,0.0324,0.013523,0.002678,0.000431,0.010107
66734000,0.0324,0.013523,0.002678,0.000431,0.008227
66735000,0.0324,0.013523,0.002678,0.000431,0.005759
66736000,0.0324,0.013523,0.002678,0.000431,0.005876
66737000,0.0324,0.013523,0.002678,0.000431,0.005289
66738000,0.0324,0.013523,0.002678,0.000431,0.005994
66739000,0.0324,0.013523,0.002678,0.000431,0.006699
66740000,0.0324,0.013523,0.002678,0.000431,0.006229
66741000,0.0324,0.013523,0.002678,0.000431,0.004584
66742000,0.0324,0.013523,0.002678,0.000431,0.004701
66743000,0.0324,0.013523,0.002678,0.000431,0.005289
66744000,0.0324,0.013523,0.002678,0.000431,0.004584
66745000,0.0324,0.013523,0.002678,0.000431,0.004584
66746000,0.0324,0.013523,0.002678,0.000431,0.005171
66747000,0.0324,0.013523,0.002678,0.000431,0.004701
66748000,0.0324,0.013523,0.002678,0.000431,0.005054
66749000,0.0324,0.013523,0.002678,0.000431,0.004819
66750000,0.0324,0.013523,0.002678,0.000431,0.004936
66751000,0.0324,0.013523,0.002678,0.000431,0.008580
66752000,0.0324,0.013523,0.002678,0.000431,0.002703
66753000,0.0324,0.013523,0.002678,0.000431,0.002351
66754000,0.0324,0.013523,0.002678,0.000431,0.002821
66755000,0.0324,0.013523,0.002678,0.000431,0.002351
66756000,0.0324,0.013523,0.002678,0.000431,0.002703
66757000,0.0324,0.013523,0.002678,0.000431,0.004113
66758000,0.0324,0.013523,0.002678,0.000431,0.001763
66759000,0.0324,0.013523,0.002678,0.000431,0.001763
66760000,0.0324,0.013523,0.002678,0.000431,0.001528
66761000,0.0324,0.013523,0.002678,0.000431,0.001880
66762000,0.0324,0.013523,0.002678,0.000431,0.001763
66763000,0.0324,0.013523,0.002678,0.000431,0.001645
66764000,0.0324,0.013523,0.002678,0.000431,0.001645
66765000,0.0324,0.013523,0.002678,0.000431,0.001763
66766000,0.0324,0.013523,0.002678,0.000431,0.001763
66767000,0.0324,0.013523,0.002678,0.000431,0.001645
66768000,0.0324,0.013523,0.002678,0.000431,0.002116
66769000,0.0324,0.013523,0.002678,0.000431,0.002351
66770000,0.0324,0.013523,0.002678,0.000431,0.000823
66771000,0.0324,0.013523,0.002678,0.000431,0.000940
66772000,0.0324,0.013523,0.002678,0.000431,0.000823
66773000,0.0324,0.013523,0.002678,0.000431,0.000940
66774000,0.0324,0.013523,0.002678,0.000431,0.000823
66775000,0.0324,0.013523,0.002678,0.000431,0.000823
66776000,0.0324,0.013523,0.002678,0.000431,0.000940
66777000,0.0324,0.013523,0.002678,0.000431,0.000940
66778000,0.0324,0.013523,0.002678,0.000431,0.000705
66779000,0.0324,0.013523,0.002678,0.000431,0.000940
66780000,0.0324,0.013523,0.002678,0.000431,0.000940
66781000,0.0324,0.013523,0.002678,0.000431,0.000940
66782000,0.0324,0.013523,0.002678,0.000431,0.000705
66783000,0.0324,0.013523,0.002678,0.000431,0.000940
66784000,0.0324,0.013523,0.002678,0.000431,0.000940
66785000,0.0324,0.013523,0.002678,0.000431,0.000823
66786000,0.0324,0.013523,0.002678,0.000431,0.000823
66787000,0.0324,0.013523,0.002678,0.000431,0.000940
66788000,0.0324,0.013523,0.002678,0.000431,0.000940
66789000,0.0324,0.013523,0.002678,0.000431,0.000823
66790000,0.0324,0.013523,0.002678,0.000431,0.000823
66791000,0.0324,0.013523,0.002678,0.000431,0.000940
66792000,0.0324,0.013523,0.002678,0.000431,0.000823
66793000,0.0324,0.013523,0.002678,0.000431,0.000940
66794000,0.0324,0.013523,0.002678,0.000431,0.000823
66795000,0.0324,0.013523,0.002678,0.000431,0.011870
66796000,0.0324,0.013523,0.002678,0.000431,0.426157
66797000,0.0324,0.013523,0.002678,0.000431,0.605740
66798000,0.0324,0.013523,0.002678,0.000431,0.133982
66799000,0.0324,0.013523,0.002678,0.000431,0.131161
66800000,0.0324,0.013523,0.002678,0.000431,0.198623
66801000,0.0324,0.013523,0.002678,0.000431,0.622194
66802000,0.0324,0.013523,0.002678,0.000431,0.239287
66803000,0.0324,0.013523,0.002678,0.000431,0.308511
66804000,0.0324,0.013523,0.002678,0.000431,0.193569
66805000,0.0324,0.013523,0.002678,0.000431,0.135745
66806000,0.0324,0.013523,0.002678,0.000431,0.147968
66807000,0.0324,0.013523,0.002678,0.000431,0.176410
66808000,0.0324,0.013523,0.002678,0.000431,0.401006
66809000,0.0324,0.013523,0.002678,0.000431,0.011283
66810000,0.0324,0.013523,0.002678,0.000431,0.009050
66811000,0.0324,0.013523,0.002678,0.000431,0.007992
66812000,0.0324,0.013523,0.002678,0.000431,0.004113
66813000,0.0324,0.013523,0.002678,0.000431,0.003643
66814000,0.0324,0.013523,0.002678,0.000431,0.003526
66815000,0.0324,0.013523,0.002678,0.000431,0.005641
66816000,0.0324,0.013523,0.002678,0.000431,0.002938
66817000,0.0324,0.013523,0.002678,0.000431,0.001645
66818000,0.0324,0.013523,0.002678,0.000431,0.001880
66819000,0.0324,0.013523,0.002678,0.000431,0.001645
66820000,0.0324,0.013523,0.002678,0.000431,0.001763
66821000,0.0324,0.013523,0.002678,0.000431,0.001763
66822000,0.0324,0.013523,0.002678,0.000431,0.001763
66823000,0.0324,0.013523,0.002678,0.000431,0.001880
66824000,0.0324,0.013523,0.002678,0.000431,0.001645
66825000,0.0324,0.013523,0.002678,0.000431,0.001763
66826000,0.0324,0.013523,0.002678,0.000431,0.001763
66827000,0.0324,0.013523,0.002678,0.000431,0.001763
66828000,0.0324,0.013523,0.002678,0.000431,0.001763
66829000,0.0324,0.013523,0.002678,0.000431,0.001645
66830000,0.0324,0.013523,0.002678,0.000431,0.001763
66831000,0.0324,0.013523,0.002678,0.000431,0.001880
66832000,0.0324,0.013523,0.002678,0.000431,0.001763
66833000,0.0324,0.013523,0.002678,0.000431,0.001763
66834000,0.0324,0.013523,0.002678,0.000431,0.001645
66835000,0.0324,0.013523,0.002678,0.000431,0.001763
66836000,0.0324,0.013523,0.002678,0.000431,0.001763
66837000,0.0324,0.013523,0.002678,0.000431,0.003291
66838000,0.0324,0.013523,0.002678,0.000431,0.000940
66839000,0.0324,0.013523,0.002678,0.000431,0.000940
66840000,0.0324,0.013523,0.002678,0.000431,0.000823
66841000,0.0324,0.013523,0.002678,0.000431,0.001880
66842000,0.0324,0.013523,0.002678,0.000431,0.311685
66843000,0.0324,0.013523,0.002678,0.000431,0.674494
66844000,0.0324,0.013523,0.002678,0.000431,0.140446
66845000,0.0324,0.013523,0.002678,0.000431,0.134217
66846000,0.0324,0.013523,0.002678,0.000431,0.131397
66847000,0.0324,0.013523,0.002678,0.000431,0.582235
66848000,0.0324,0.013523,0.002678,0.000431,0.214136
66849000,0.0324,0.013523,0.002678,0.000431,0.260090
66850000,0.0324,0.013523,0.002678,0.000431,0.264556
66851000,0.0324,0.013523,0.002678,0.000431,0.139623
66852000,0.0324,0.013523,0.002678,0.000431,0.133512
66853000,0.0324,0.013523,0.002678,0.000431,0.162894
66854000,0.0324,0.013523,0.002678,0.000431,0.148438
66855000,0.0324,0.013523,0.002678,0.000431,0.423924
66856000,0.0324,0.013523,0.002678,0.000431,0.003526
66857000,0.0324,0.013523,0.002678,0.000431,0.002586
66858000,0.0324,0.013523,0.002678,0.000431,0.002821
66859000,0.0324,0.013523,0.002678,0.000431,0.002468
66860000,0.0324,0.013523,0.002678,0.000431,0.002703
66861000,0.0324,0.013523,0.002678,0.000431,0.002586
66862000,0.0324,0.013523,0.002678,0.000431,0.002703
66863000,0.0324,0.013523,0.002678,0.000431,0.002703
66864000,0.0324,0.013523,0.002678,0.000431,0.002468
66865000,0.0324,0.013523,0.002678,0.000431,0.002703
66866000,0.0324,0.013523,0.002678,0.000431,0.002703
66867000,0.0324,0.013523,0.002678,0.000431,0.002703
66868000,0.0324,0.013523,0.002678,0.000431,0.002468
66869000,0.0324,0.013523,0.002678,0.000431,0.002703
66870000,0.0324,0.013523,0.002678,0.000431,0.002586
66871000,0.0324,0.013523,0.002678,0.000431,0.002703
66872000,0.0324,0.013523,0.002678,0.000431,0.002586
66873000,0.0324,0.013523,0.002678,0.000431,0.002703
66874000,0.0324,0.013523,0.002678,0.000431,0.002586
66875000,0.0324,0.013523,0.002678,0.000431,0.002586
66876000,0.0324,0.013523,0.002678,0.000431,0.002586
66877000,0.0324,0.013523,0.002678,0.000431,0.002821
66878000,0.0324,0.013523,0.002678,0.000431,0.002468
66879000,0.0324,0.013523,0.002678,0.000431,0.002703
66880000,0.0324,0.013523,0.002678,0.000431,0.002586
66881000,0.0324,0.013523,0.002678,0.000431,0.002703
66882000,0.0324,0.013523,0.002678,0.000431,0.002468
66883000,0.0324,0.013523,0.002678,0.000431,0.002703
66884000,0.0324,0.013523,0.002678,0.000431,0.002703
66885000,0.0324,0.013523,0.002678,0.000431,0.002586
66886000,0.0324,0.013523,0.002678,0.000431,0.002586
66887000,0.0324,0.013523,0.002678,0.000431,0.002703
66888000,0.0324,0.013523,0.002678,0.000431,0.002586
66889000,0.0324,0.013523,0.002678,0.000431,0.002703
66890000,0.0324,0.013523,0.002678,0.000431,0.002586
66891000,0.0324,0.013523,0.002678,0.000431,0.002703
66892000,0.0324,0.013523,0.002678,0.000431,0.002586
66893000,0.0324,0.013523,0.002678,0.000431,0.002586
66894000,0.0324,0.013523,0.002678,0.000431,0.002703
66895000,0.0324,0.013523,0.002678,0.000431,0.002586
66896000,0.0324,0.013523,0.002678,0.000431,0.002821
66897000,0.0324,0.013523,0.002678,0.000431,0.002351
66898000,0.0324,0.013523,0.002678,0.000431,0.002703
66899000,0.0324,0.013523,0.002678,0.000431,0.002703
66900000,0.0324,0.013523,0.002678,0.000431,0.004231
66901000,0.0324,0.013523,0.002678,0.000431,0.001763
66902000,0.0324,0.013523,0.002678,0.000431,0.001763
66903000,0.0324,0.013523,0.002678,0.000431,0.001645
66904000,0.0324,0.013523,0.002678,0.000431,0.001880
66905000,0.0324,0.013523,0.002678,0.000431,0.001645
66906000,0.0324,0.013523,0.002678,0.000431,0.001880
66907000,0.0324,0.013523,0.002678,0.000431,0.001645
66908000,0.0324,0.013523,0.002678,0.000431,0.001880
66909000,0.0324,0.013523,0.002678,0.000431,0.001645
66910000,0.0324,0.013523,0.002678,0.000431,0.001763
66911000,0.0324,0.013523,0.002678,0.000431,0.001763
66912000,0.0324,0.013523,0.002678,0.000431,0.001763
66913000,0.0324,0.013523,0.002678,0.000431,0.001880
66914000,0.0324,0.013523,0.002678,0.000431,0.001645
66915000,0.0324,0.013523,0.002678,0.000431,0.001763
66916000,0.0324,0.013523,0.002678,0.000431,0.001763
66917000,0.0324,0.013523,0.002678,0.000431,0.001763
66918000,0.0324,0.013523,0.002678,0.000431,0.001763
66919000,0.0324,0.013523,0.002678,0.000431,0.001763
66920000,0.0324,0.013523,0.002678,0.000431,0.001763
66921000,0.0324,0.013523,0.002678,0.000431,0.001763
66922000,0.0324,0.013523,0.002678,0.000431,0.001645
66923000,0.0324,0.013523,0.002678,0.000431,0.001880
66924000,0.0324,0.013523,0.002678,0.000431,0.001763
66925000,0.0324,0.013523,0.002678,0.000431,0.001645
66926000,0.0324,0.013523,0.002678,0.000431,0.001763
66927000,0.0324,0.013523,0.002678,0.000431,0.001880
66928000,0.0324,0.013523,0.002678,0.000431,0.001763
66929000,0.0324,0.013523,0.002678,0.000431,0.001645
66930000,0.0324,0.013523,0.002678,0.000431,0.001763
66931000,0.0324,0.013523,0.002678,0.000431,0.001880
66932000,0.0324,0.013523,0.002678,0.000431,0.001645
66933000,0.0324,0.013523,0.002678,0.000431,0.001763
66934000,0.0324,0.013523,0.002678,0.000431,0.001763
66935000,0.0324,0.013523,0.002678,0.000431,0.001880
66936000,0.0324,0.013523,0.002678,0.000431,0.001528
66937000,0.0324,0.013523,0.002678,0.000431,0.001880
66938000,0.0324,0.013523,0.002678,0.000431,0.001763
66939000,0.0324,0.013523,0.002678,0.000431,0.001763
66940000,0.0324,0.013523,0.002678,0.000431,0.001763
66941000,0.0324,0.013523,0.002678,0.000431,0.001645
66942000,0.0324,0.013523,0.002678,0.000431,0.002938
66943000,0.0324,0.013523,0.002678,0.000431,0.000823
66944000,0.0324,0.013523,0.002678,0.000431,0.000823
66945000,0.0324,0.013523,0.002678,0.000431,0.000940
66946000,0.0324,0.013523,0.002678,0.000431,0.000940
66947000,0.0324,0.013523,0.002678,0.000431,0.000705
66948000,0.0324,0.013523,0.002678,0.000431,0.000940
66949000,0.0324,0.013523,0.002678,0.000431,0.000940
66950000,0.0324,0.013523,0.002678,0.000431,0.000940
66951000,0.0324,0.013523,0.002678,0.000431,0.000705
66952000,0.0324,0.013523,0.002678,0.000431,0.000940
66953000,0.0324,0.013523,0.002678,0.000431,0.000940
66954000,0.0324,0.013523,0.002678,0.000431,0.000823
66955000,0.0324,0.013523,0.002678,0.000431,0.000823
66956000,0.0324,0.013523,0.002678,0.000431,0.000940
66957000,0.0324,0.013523,0.002678,0.000431,0.000940
66958000,0.0324,0.013523,0.002678,0.000431,0.000823
66959000,0.0324,0.013523,0.002678,0.000431,0.000823
66960000,0.0324,0.013523,0.002678,0.000431,0.000940
66961000,0.0324,0.013523,0.002678,0.000431,0.000823
66962000,0.0324,0.013523,0.002678,0.000431,0.000940
66963000,0.0324,0.013523,0.002678,0.000431,0.000823
66964000,0.0324,0.013523,0.002678,0.000431,0.000940
66965000,0.0324,0.013523,0.002678,0.000431,0.000823
66966000,0.0324,0.013523,0.002678,0.000431,0.000823
66967000,0.0324,0.013523,0.002678,0.000431,0.000940
66968000,0.0324,0.013523,0.002678,0.000431,0.000940
66969000,0.0324,0.013523,0.002678,0.000431,0.000823
66970000,0.0324,0.013523,0.002678,0.000431,0.000823
66971000,0.0324,0.013523,0.002678,0.000431,0.000940
66972000,0.0324,0.013523,0.002678,0.000431,0.000940
66973000,0.0324,0.013523,0.002678,0.000431,0.000823
66974000,0.0324,0.013523,0.002678,0.000431,0.000823
66975000,0.0324,0.013523,0.002678,0.000431,0.070869
66976000,0.0324,0.013523,0.002678,0.000431,0.395952
66977000,0.0324,0.013523,0.002678,0.000431,0.583292
66978000,0.0324,0.013523,0.002678,0.000431,0.131632
66979000,0.0324,0.013523,0.002678,0.000431,0.133982
66980000,0.0324,0.013523,0.002678,0.000431,0.493618
66981000,0.0324,0.013523,0.002678,0.000431,0.278542
66982000,0.0324,0.013523,0.002678,0.000431,0.223068
66983000,0.0324,0.013523,0.002678,0.000431,0.308159
66984000,0.0324,0.013523,0.002678,0.000431,0.202501
66985000,0.0324,0.013523,0.002678,0.000431,0.134570
66986000,0.0324,0.013523,0.002678,0.000431,0.180406
66987000,0.0324,0.013523,0.002678,0.000431,0.083092
66988000,0.0324,0.013523,0.002678,0.000431,0.459770
66989000,0.0324,0.013523,0.002678,0.000431,0.058882
66990000,0.0324,0.013523,0.002678,0.000431,0.017042
66991000,0.0324,0.013523,0.002678,0.000431,0.015984
66992000,0.0324,0.013523,0.002678,0.000431,0.013516
66993000,0.0324,0.013523,0.002678,0.000431,0.011518
66994000,0.0324,0.013523,0.002678,0.000431,0.012458
66995000,0.0324,0.013523,0.002678,0.000431,0.010460
66996000,0.0324,0.013523,0.002678,0.000431,0.012458
66997000,0.0324,0.013523,0.002678,0.000431,0.013163
66998000,0.0324,0.013523,0.002678,0.000431,0.005524
66999000,0.0324,0.013523,0.002678,0.000431,0.006111
