Cycle,Area(mm^2),PeakDynamic(W),SubthresholdLeakage(W),GateLeakage(W),RunTimeDynamic(W)
1000,0.0324,0.013523,0.002678,0.000431,0.072045
2000,0.0324,0.013523,0.002678,0.000431,0.000000
3000,0.0324,0.013523,0.002678,0.000431,0.000000
4000,0.0324,0.013523,0.002678,0.000431,0.000000
5000,0.0324,0.013523,0.002678,0.000431,0.000000
6000,0.0324,0.013523,0.002678,0.000431,0.152552
7000,0.0324,0.013523,0.002678,0.000431,0.469408
8000,0.0324,0.013523,0.002678,0.000431,0.220130
9000,0.0324,0.013523,0.002678,0.000431,0.630774
10000,0.0324,0.013523,0.002678,0.000431,0.263733
11000,0.0324,0.013523,0.002678,0.000431,0.134452
12000,0.0324,0.013523,0.002678,0.000431,0.131161
13000,0.0324,0.013523,0.002678,0.000431,0.518299
14000,0.0324,0.013523,0.002678,0.000431,0.243048
15000,0.0324,0.013523,0.002678,0.000431,0.339656
16000,0.0324,0.013523,0.002678,0.000431,0.263263
17000,0.0324,0.013523,0.002678,0.000431,0.220483
18000,0.0324,0.013523,0.002678,0.000431,0.145852
19000,0.0324,0.013523,0.002678,0.000431,0.241638
20000,0.0324,0.013523,0.002678,0.000431,0.363867
21000,0.0324,0.013523,0.002678,0.000431,0.002233
22000,0.0324,0.013523,0.002678,0.000431,0.003291
23000,0.0324,0.013523,0.002678,0.000431,0.000823
24000,0.0324,0.013523,0.002678,0.000431,0.000940
25000,0.0324,0.013523,0.002678,0.000431,0.000940
26000,0.0324,0.013523,0.002678,0.000431,0.000705
27000,0.0324,0.013523,0.002678,0.000431,0.194039
28000,0.0324,0.013523,0.002678,0.000431,0.577298
29000,0.0324,0.013523,0.002678,0.000431,0.364102
30000,0.0324,0.013523,0.002678,0.000431,0.130221
31000,0.0324,0.013523,0.002678,0.000431,0.134452
32000,0.0324,0.013523,0.002678,0.000431,0.615025
33000,0.0324,0.013523,0.002678,0.000431,0.251628
34000,0.0324,0.013523,0.002678,0.000431,0.287356
35000,0.0324,0.013523,0.002678,0.000431,0.257974
36000,0.0324,0.013523,0.002678,0.000431,0.139859
37000,0.0324,0.013523,0.002678,0.000431,0.159721
38000,0.0324,0.013523,0.002678,0.000431,0.171356
39000,0.0324,0.013523,0.002678,0.000431,0.430036
40000,0.0324,0.013523,0.002678,0.000431,0.008580
41000,0.0324,0.013523,0.002678,0.000431,0.071105
42000,0.0324,0.013523,0.002678,0.000431,0.433797
43000,0.0324,0.013523,0.002678,0.000431,0.579414
44000,0.0324,0.013523,0.002678,0.000431,0.132102
45000,0.0324,0.013523,0.002678,0.000431,0.133982
46000,0.0324,0.013523,0.002678,0.000431,0.540512
47000,0.0324,0.013523,0.002678,0.000431,0.232588
48000,0.0324,0.013523,0.002678,0.000431,0.244929
49000,0.0324,0.013523,0.002678,0.000431,0.325200
50000,0.0324,0.013523,0.002678,0.000431,0.143619
51000,0.0324,0.013523,0.002678,0.000431,0.139153
52000,0.0324,0.013523,0.002678,0.000431,0.151259
53000,0.0324,0.013523,0.002678,0.000431,0.235997
54000,0.0324,0.013523,0.002678,0.000431,0.357756
55000,0.0324,0.013523,0.002678,0.000431,0.009637
56000,0.0324,0.013523,0.002678,0.000431,0.012576
57000,0.0324,0.013523,0.002678,0.000431,0.011518
58000,0.0324,0.013523,0.002678,0.000431,0.005759
59000,0.0324,0.013523,0.002678,0.000431,0.006111
60000,0.0324,0.013523,0.002678,0.000431,0.007522
61000,0.0324,0.013523,0.002678,0.000431,0.005171
62000,0.0324,0.013523,0.002678,0.000431,0.005054
63000,0.0324,0.013523,0.002678,0.000431,0.005994
64000,0.0324,0.013523,0.002678,0.000431,0.005171
65000,0.0324,0.013523,0.002678,0.000431,0.005289
66000,0.0324,0.013523,0.002678,0.000431,0.003408
67000,0.0324,0.013523,0.002678,0.000431,0.003643
68000,0.0324,0.013523,0.002678,0.000431,0.003173
69000,0.0324,0.013523,0.002678,0.000431,0.003408
70000,0.0324,0.013523,0.002678,0.000431,0.003526
71000,0.0324,0.013523,0.002678,0.000431,0.003526
72000,0.0324,0.013523,0.002678,0.000431,0.003173
73000,0.0324,0.013523,0.002678,0.000431,0.004936
74000,0.0324,0.013523,0.002678,0.000431,0.002351
75000,0.0324,0.013523,0.002678,0.000431,0.002703
76000,0.0324,0.013523,0.002678,0.000431,0.002938
77000,0.0324,0.013523,0.002678,0.000431,0.000940
78000,0.0324,0.013523,0.002678,0.000431,0.000823
79000,0.0324,0.013523,0.002678,0.000431,0.000823
80000,0.0324,0.013523,0.002678,0.000431,0.000940
81000,0.0324,0.013523,0.002678,0.000431,0.071105
82000,0.0324,0.013523,0.002678,0.000431,0.424512
83000,0.0324,0.013523,0.002678,0.000431,0.593047
84000,0.0324,0.013523,0.002678,0.000431,0.131632
85000,0.0324,0.013523,0.002678,0.000431,0.133982
86000,0.0324,0.013523,0.002678,0.000431,0.541805
87000,0.0324,0.013523,0.002678,0.000431,0.228240
88000,0.0324,0.013523,0.002678,0.000431,0.241403
89000,0.0324,0.013523,0.002678,0.000431,0.330137
90000,0.0324,0.013523,0.002678,0.000431,0.147615
91000,0.0324,0.013523,0.002678,0.000431,0.137861
92000,0.0324,0.013523,0.002678,0.000431,0.149848
93000,0.0324,0.013523,0.002678,0.000431,0.235291
94000,0.0324,0.013523,0.002678,0.000431,0.347648
95000,0.0324,0.013523,0.002678,0.000431,0.007287
96000,0.0324,0.013523,0.002678,0.000431,0.005289
97000,0.0324,0.013523,0.002678,0.000431,0.003526
98000,0.0324,0.013523,0.002678,0.000431,0.002821
99000,0.0324,0.013523,0.002678,0.000431,0.000823
100000,0.0324,0.013523,0.002678,0.000431,0.000940
101000,0.0324,0.013523,0.002678,0.000431,0.000940
102000,0.0324,0.013523,0.002678,0.000431,0.029970
103000,0.0324,0.013523,0.002678,0.000431,0.427920
104000,0.0324,0.013523,0.002678,0.000431,0.603507
105000,0.0324,0.013523,0.002678,0.000431,0.130691
106000,0.0324,0.013523,0.002678,0.000431,0.133512
107000,0.0324,0.013523,0.002678,0.000431,0.490093
108000,0.0324,0.013523,0.002678,0.000431,0.314153
109000,0.0324,0.013523,0.002678,0.000431,0.262793
110000,0.0324,0.013523,0.002678,0.000431,0.258915
111000,0.0324,0.013523,0.002678,0.000431,0.171591
112000,0.0324,0.013523,0.002678,0.000431,0.145030
113000,0.0324,0.013523,0.002678,0.000431,0.168653
114000,0.0324,0.013523,0.002678,0.000431,0.135628
115000,0.0324,0.013523,0.002678,0.000431,0.459065
116000,0.0324,0.013523,0.002678,0.000431,0.010578
117000,0.0324,0.013523,0.002678,0.000431,0.004701
118000,0.0324,0.013523,0.002678,0.000431,0.005406
119000,0.0324,0.013523,0.002678,0.000431,0.006582
120000,0.0324,0.013523,0.002678,0.000431,0.002351
121000,0.0324,0.013523,0.002678,0.000431,0.004349
122000,0.0324,0.013523,0.002678,0.000431,0.002821
123000,0.0324,0.013523,0.002678,0.000431,0.001998
124000,0.0324,0.013523,0.002678,0.000431,0.000940
125000,0.0324,0.013523,0.002678,0.000431,0.000940
126000,0.0324,0.013523,0.002678,0.000431,0.000940
127000,0.0324,0.013523,0.002678,0.000431,0.000705
128000,0.0324,0.013523,0.002678,0.000431,0.000940
129000,0.0324,0.013523,0.002678,0.000431,0.000940
130000,0.0324,0.013523,0.002678,0.000431,0.000823
131000,0.0324,0.013523,0.002678,0.000431,0.000823
132000,0.0324,0.013523,0.002678,0.000431,0.000940
133000,0.0324,0.013523,0.002678,0.000431,0.000940
134000,0.0324,0.013523,0.002678,0.000431,0.000823
135000,0.0324,0.013523,0.002678,0.000431,0.000823
136000,0.0324,0.013523,0.002678,0.000431,0.000940
137000,0.0324,0.013523,0.002678,0.000431,0.000823
138000,0.0324,0.013523,0.002678,0.000431,0.000940
139000,0.0324,0.013523,0.002678,0.000431,0.000823
140000,0.0324,0.013523,0.002678,0.000431,0.000940
141000,0.0324,0.013523,0.002678,0.000431,0.000823
142000,0.0324,0.013523,0.002678,0.000431,0.000823
143000,0.0324,0.013523,0.002678,0.000431,0.000940
144000,0.0324,0.013523,0.002678,0.000431,0.000940
145000,0.0324,0.013523,0.002678,0.000431,0.000940
146000,0.0324,0.013523,0.002678,0.000431,0.000705
147000,0.0324,0.013523,0.002678,0.000431,0.000940
148000,0.0324,0.013523,0.002678,0.000431,0.000940
149000,0.0324,0.013523,0.002678,0.000431,0.002586
150000,0.0324,0.013523,0.002678,0.000431,0.367041
151000,0.0324,0.013523,0.002678,0.000431,0.662624
152000,0.0324,0.013523,0.002678,0.000431,0.131044
153000,0.0324,0.013523,0.002678,0.000431,0.134217
154000,0.0324,0.013523,0.002678,0.000431,0.143384
155000,0.0324,0.013523,0.002678,0.000431,0.605035
156000,0.0324,0.013523,0.002678,0.000431,0.279129
157000,0.0324,0.013523,0.002678,0.000431,0.226124
158000,0.0324,0.013523,0.002678,0.000431,0.252568
159000,0.0324,0.013523,0.002678,0.000431,0.137390
160000,0.0324,0.013523,0.002678,0.000431,0.169476
161000,0.0324,0.013523,0.002678,0.000431,0.106833
162000,0.0324,0.013523,0.002678,0.000431,0.460123
163000,0.0324,0.013523,0.002678,0.000431,0.063113
164000,0.0324,0.013523,0.002678,0.000431,0.010460
165000,0.0324,0.013523,0.002678,0.000431,0.007992
166000,0.0324,0.013523,0.002678,0.000431,0.007522
167000,0.0324,0.013523,0.002678,0.000431,0.007874
168000,0.0324,0.013523,0.002678,0.000431,0.007757
169000,0.0324,0.013523,0.002678,0.000431,0.005524
170000,0.0324,0.013523,0.002678,0.000431,0.005406
171000,0.0324,0.013523,0.002678,0.000431,0.004819
172000,0.0324,0.013523,0.002678,0.000431,0.005406
173000,0.0324,0.013523,0.002678,0.000431,0.006464
174000,0.0324,0.013523,0.002678,0.000431,0.004349
175000,0.0324,0.013523,0.002678,0.000431,0.004349
176000,0.0324,0.013523,0.002678,0.000431,0.004466
177000,0.0324,0.013523,0.002678,0.000431,0.005406
178000,0.0324,0.013523,0.002678,0.000431,0.004819
179000,0.0324,0.013523,0.002678,0.000431,0.003878
180000,0.0324,0.013523,0.002678,0.000431,0.003761
181000,0.0324,0.013523,0.002678,0.000431,0.001058
182000,0.0324,0.013523,0.002678,0.000431,0.000823
183000,0.0324,0.013523,0.002678,0.000431,0.000823
184000,0.0324,0.013523,0.002678,0.000431,0.000940
185000,0.0324,0.013523,0.002678,0.000431,0.000823
186000,0.0324,0.013523,0.002678,0.000431,0.000940
187000,0.0324,0.013523,0.002678,0.000431,0.000823
188000,0.0324,0.013523,0.002678,0.000431,0.050537
189000,0.0324,0.013523,0.002678,0.000431,0.423101
190000,0.0324,0.013523,0.002678,0.000431,0.601039
191000,0.0324,0.013523,0.002678,0.000431,0.131161
192000,0.0324,0.013523,0.002678,0.000431,0.134922
193000,0.0324,0.013523,0.002678,0.000431,0.535576
194000,0.0324,0.013523,0.002678,0.000431,0.260090
195000,0.0324,0.013523,0.002678,0.000431,0.285241
196000,0.0324,0.013523,0.002678,0.000431,0.327669
197000,0.0324,0.013523,0.002678,0.000431,0.137743
198000,0.0324,0.013523,0.002678,0.000431,0.141504
199000,0.0324,0.013523,0.002678,0.000431,0.116588
200000,0.0324,0.013523,0.002678,0.000431,0.337071
201000,0.0324,0.013523,0.002678,0.000431,0.258209
202000,0.0324,0.013523,0.002678,0.000431,0.015866
203000,0.0324,0.013523,0.002678,0.000431,0.008580
204000,0.0324,0.013523,0.002678,0.000431,0.007169
205000,0.0324,0.013523,0.002678,0.000431,0.005171
206000,0.0324,0.013523,0.002678,0.000431,0.006347
207000,0.0324,0.013523,0.002678,0.000431,0.005289
208000,0.0324,0.013523,0.002678,0.000431,0.001645
209000,0.0324,0.013523,0.002678,0.000431,0.003643
210000,0.0324,0.013523,0.002678,0.000431,0.001058
211000,0.0324,0.013523,0.002678,0.000431,0.000823
212000,0.0324,0.013523,0.002678,0.000431,0.000823
213000,0.0324,0.013523,0.002678,0.000431,0.000940
214000,0.0324,0.013523,0.002678,0.000431,0.000823
215000,0.0324,0.013523,0.002678,0.000431,0.000940
216000,0.0324,0.013523,0.002678,0.000431,0.000823
217000,0.0324,0.013523,0.002678,0.000431,0.000940
218000,0.0324,0.013523,0.002678,0.000431,0.000823
219000,0.0324,0.013523,0.002678,0.000431,0.000823
220000,0.0324,0.013523,0.002678,0.000431,0.000940
221000,0.0324,0.013523,0.002678,0.000431,0.000940
222000,0.0324,0.013523,0.002678,0.000431,0.000823
223000,0.0324,0.013523,0.002678,0.000431,0.000823
224000,0.0324,0.013523,0.002678,0.000431,0.000940
225000,0.0324,0.013523,0.002678,0.000431,0.000940
226000,0.0324,0.013523,0.002678,0.000431,0.000823
227000,0.0324,0.013523,0.002678,0.000431,0.000823
228000,0.0324,0.013523,0.002678,0.000431,0.000940
229000,0.0324,0.013523,0.002678,0.000431,0.000940
230000,0.0324,0.013523,0.002678,0.000431,0.000940
231000,0.0324,0.013523,0.002678,0.000431,0.013986
232000,0.0324,0.013523,0.002678,0.000431,0.471641
233000,0.0324,0.013523,0.002678,0.000431,0.593517
234000,0.0324,0.013523,0.002678,0.000431,0.133512
235000,0.0324,0.013523,0.002678,0.000431,0.132102
236000,0.0324,0.013523,0.002678,0.000431,0.472111
237000,0.0324,0.013523,0.002678,0.000431,0.317796
238000,0.0324,0.013523,0.002678,0.000431,0.263381
239000,0.0324,0.013523,0.002678,0.000431,0.336836
240000,0.0324,0.013523,0.002678,0.000431,0.156665
241000,0.0324,0.013523,0.002678,0.000431,0.148438
242000,0.0324,0.013523,0.002678,0.000431,0.109889
243000,0.0324,0.013523,0.002678,0.000431,0.328491
244000,0.0324,0.013523,0.002678,0.000431,0.257739
245000,0.0324,0.013523,0.002678,0.000431,0.025621
246000,0.0324,0.013523,0.002678,0.000431,0.020920
247000,0.0324,0.013523,0.002678,0.000431,0.021273
248000,0.0324,0.013523,0.002678,0.000431,0.019862
249000,0.0324,0.013523,0.002678,0.000431,0.018922
250000,0.0324,0.013523,0.002678,0.000431,0.019510
251000,0.0324,0.013523,0.002678,0.000431,0.013986
252000,0.0324,0.013523,0.002678,0.000431,0.017394
253000,0.0324,0.013523,0.002678,0.000431,0.013281
254000,0.0324,0.013523,0.002678,0.000431,0.007169
255000,0.0324,0.013523,0.002678,0.000431,0.006229
256000,0.0324,0.013523,0.002678,0.000431,0.005641
257000,0.0324,0.013523,0.002678,0.000431,0.005406
258000,0.0324,0.013523,0.002678,0.000431,0.005406
259000,0.0324,0.013523,0.002678,0.000431,0.004819
260000,0.0324,0.013523,0.002678,0.000431,0.000823
261000,0.0324,0.013523,0.002678,0.000431,0.013633
262000,0.0324,0.013523,0.002678,0.000431,0.465999
263000,0.0324,0.013523,0.002678,0.000431,0.588934
264000,0.0324,0.013523,0.002678,0.000431,0.134452
265000,0.0324,0.013523,0.002678,0.000431,0.131632
266000,0.0324,0.013523,0.002678,0.000431,0.312507
267000,0.0324,0.013523,0.002678,0.000431,0.505959
268000,0.0324,0.013523,0.002678,0.000431,0.225537
269000,0.0324,0.013523,0.002678,0.000431,0.277484
270000,0.0324,0.013523,0.002678,0.000431,0.185930
271000,0.0324,0.013523,0.002678,0.000431,0.142327
272000,0.0324,0.013523,0.002678,0.000431,0.152669
273000,0.0324,0.013523,0.002678,0.000431,0.183344
274000,0.0324,0.013523,0.002678,0.000431,0.398891
275000,0.0324,0.013523,0.002678,0.000431,0.013868
276000,0.0324,0.013523,0.002678,0.000431,0.012458
277000,0.0324,0.013523,0.002678,0.000431,0.011048
278000,0.0324,0.013523,0.002678,0.000431,0.009402
279000,0.0324,0.013523,0.002678,0.000431,0.011048
280000,0.0324,0.013523,0.002678,0.000431,0.007874
281000,0.0324,0.013523,0.002678,0.000431,0.007992
282000,0.0324,0.013523,0.002678,0.000431,0.008932
283000,0.0324,0.013523,0.002678,0.000431,0.008580
284000,0.0324,0.013523,0.002678,0.000431,0.007052
285000,0.0324,0.013523,0.002678,0.000431,0.006464
286000,0.0324,0.013523,0.002678,0.000431,0.004466
287000,0.0324,0.013523,0.002678,0.000431,0.004466
288000,0.0324,0.013523,0.002678,0.000431,0.005641
289000,0.0324,0.013523,0.002678,0.000431,0.004701
290000,0.0324,0.013523,0.002678,0.000431,0.003408
291000,0.0324,0.013523,0.002678,0.000431,0.004701
292000,0.0324,0.013523,0.002678,0.000431,0.002586
293000,0.0324,0.013523,0.002678,0.000431,0.002586
294000,0.0324,0.013523,0.002678,0.000431,0.002586
295000,0.0324,0.013523,0.002678,0.000431,0.002703
296000,0.0324,0.013523,0.002678,0.000431,0.002586
297000,0.0324,0.013523,0.002678,0.000431,0.002468
298000,0.0324,0.013523,0.002678,0.000431,0.002821
299000,0.0324,0.013523,0.002678,0.000431,0.002703
300000,0.0324,0.013523,0.002678,0.000431,0.002586
301000,0.0324,0.013523,0.002678,0.000431,0.002468
302000,0.0324,0.013523,0.002678,0.000431,0.002821
303000,0.0324,0.013523,0.002678,0.000431,0.002703
304000,0.0324,0.013523,0.002678,0.000431,0.002351
305000,0.0324,0.013523,0.002678,0.000431,0.004231
306000,0.0324,0.013523,0.002678,0.000431,0.001880
307000,0.0324,0.013523,0.002678,0.000431,0.001645
308000,0.0324,0.013523,0.002678,0.000431,0.001763
309000,0.0324,0.013523,0.002678,0.000431,0.001763
310000,0.0324,0.013523,0.002678,0.000431,0.001880
311000,0.0324,0.013523,0.002678,0.000431,0.001528
312000,0.0324,0.013523,0.002678,0.000431,0.001880
313000,0.0324,0.013523,0.002678,0.000431,0.001763
314000,0.0324,0.013523,0.002678,0.000431,0.001763
315000,0.0324,0.013523,0.002678,0.000431,0.003173
316000,0.0324,0.013523,0.002678,0.000431,0.000823
317000,0.0324,0.013523,0.002678,0.000431,0.000940
318000,0.0324,0.013523,0.002678,0.000431,0.000940
319000,0.0324,0.013523,0.002678,0.000431,0.000823
320000,0.0324,0.013523,0.002678,0.000431,0.000823
321000,0.0324,0.013523,0.002678,0.000431,0.000940
322000,0.0324,0.013523,0.002678,0.000431,0.000940
323000,0.0324,0.013523,0.002678,0.000431,0.000705
324000,0.0324,0.013523,0.002678,0.000431,0.000940
325000,0.0324,0.013523,0.002678,0.000431,0.000940
326000,0.0324,0.013523,0.002678,0.000431,0.000940
327000,0.0324,0.013523,0.002678,0.000431,0.000823
328000,0.0324,0.013523,0.002678,0.000431,0.000823
329000,0.0324,0.013523,0.002678,0.000431,0.000940
330000,0.0324,0.013523,0.002678,0.000431,0.000823
331000,0.0324,0.013523,0.002678,0.000431,0.000940
332000,0.0324,0.013523,0.002678,0.000431,0.000823
333000,0.0324,0.013523,0.002678,0.000431,0.000940
334000,0.0324,0.013523,0.002678,0.000431,0.000823
335000,0.0324,0.013523,0.002678,0.000431,0.000823
336000,0.0324,0.013523,0.002678,0.000431,0.000940
337000,0.0324,0.013523,0.002678,0.000431,0.000940
338000,0.0324,0.013523,0.002678,0.000431,0.000705
339000,0.0324,0.013523,0.002678,0.000431,0.000940
340000,0.0324,0.013523,0.002678,0.000431,0.000940
341000,0.0324,0.013523,0.002678,0.000431,0.000940
342000,0.0324,0.013523,0.002678,0.000431,0.112239
343000,0.0324,0.013523,0.002678,0.000431,0.445667
344000,0.0324,0.013523,0.002678,0.000431,0.536046
345000,0.0324,0.013523,0.002678,0.000431,0.134805
346000,0.0324,0.013523,0.002678,0.000431,0.130809
347000,0.0324,0.013523,0.002678,0.000431,0.569424
348000,0.0324,0.013523,0.002678,0.000431,0.224479
349000,0.0324,0.013523,0.002678,0.000431,0.286299
350000,0.0324,0.013523,0.002678,0.000431,0.310392
351000,0.0324,0.013523,0.002678,0.000431,0.138566
352000,0.0324,0.013523,0.002678,0.000431,0.141974
353000,0.0324,0.013523,0.002678,0.000431,0.120819
354000,0.0324,0.013523,0.002678,0.000431,0.297581
355000,0.0324,0.013523,0.002678,0.000431,0.313683
356000,0.0324,0.013523,0.002678,0.000431,0.020332
357000,0.0324,0.013523,0.002678,0.000431,0.015279
358000,0.0324,0.013523,0.002678,0.000431,0.010342
359000,0.0324,0.013523,0.002678,0.000431,0.007169
360000,0.0324,0.013523,0.002678,0.000431,0.004819
361000,0.0324,0.013523,0.002678,0.000431,0.004466
362000,0.0324,0.013523,0.002678,0.000431,0.004231
363000,0.0324,0.013523,0.002678,0.000431,0.004349
364000,0.0324,0.013523,0.002678,0.000431,0.003996
365000,0.0324,0.013523,0.002678,0.000431,0.004466
366000,0.0324,0.013523,0.002678,0.000431,0.004113
367000,0.0324,0.013523,0.002678,0.000431,0.006582
368000,0.0324,0.013523,0.002678,0.000431,0.003291
369000,0.0324,0.013523,0.002678,0.000431,0.003291
370000,0.0324,0.013523,0.002678,0.000431,0.003291
371000,0.0324,0.013523,0.002678,0.000431,0.003291
372000,0.0324,0.013523,0.002678,0.000431,0.003761
373000,0.0324,0.013523,0.002678,0.000431,0.003291
374000,0.0324,0.013523,0.002678,0.000431,0.002821
375000,0.0324,0.013523,0.002678,0.000431,0.002703
376000,0.0324,0.013523,0.002678,0.000431,0.002703
377000,0.0324,0.013523,0.002678,0.000431,0.002703
378000,0.0324,0.013523,0.002678,0.000431,0.002586
379000,0.0324,0.013523,0.002678,0.000431,0.002586
380000,0.0324,0.013523,0.002678,0.000431,0.002703
381000,0.0324,0.013523,0.002678,0.000431,0.002586
382000,0.0324,0.013523,0.002678,0.000431,0.002468
383000,0.0324,0.013523,0.002678,0.000431,0.002821
384000,0.0324,0.013523,0.002678,0.000431,0.002586
385000,0.0324,0.013523,0.002678,0.000431,0.004701
386000,0.0324,0.013523,0.002678,0.000431,0.001880
387000,0.0324,0.013523,0.002678,0.000431,0.001763
388000,0.0324,0.013523,0.002678,0.000431,0.001880
389000,0.0324,0.013523,0.002678,0.000431,0.002821
390000,0.0324,0.013523,0.002678,0.000431,0.000823
391000,0.0324,0.013523,0.002678,0.000431,0.000940
392000,0.0324,0.013523,0.002678,0.000431,0.000940
393000,0.0324,0.013523,0.002678,0.000431,0.000823
394000,0.0324,0.013523,0.002678,0.000431,0.000823
395000,0.0324,0.013523,0.002678,0.000431,0.000940
396000,0.0324,0.013523,0.002678,0.000431,0.000940
397000,0.0324,0.013523,0.002678,0.000431,0.000705
398000,0.0324,0.013523,0.002678,0.000431,0.000940
399000,0.0324,0.013523,0.002678,0.000431,0.000940
400000,0.0324,0.013523,0.002678,0.000431,0.000940
401000,0.0324,0.013523,0.002678,0.000431,0.000705
402000,0.0324,0.013523,0.002678,0.000431,0.000940
403000,0.0324,0.013523,0.002678,0.000431,0.000940
404000,0.0324,0.013523,0.002678,0.000431,0.000823
405000,0.0324,0.013523,0.002678,0.000431,0.000823
406000,0.0324,0.013523,0.002678,0.000431,0.000940
407000,0.0324,0.013523,0.002678,0.000431,0.000940
408000,0.0324,0.013523,0.002678,0.000431,0.000823
409000,0.0324,0.013523,0.002678,0.000431,0.000823
410000,0.0324,0.013523,0.002678,0.000431,0.000940
411000,0.0324,0.013523,0.002678,0.000431,0.000823
412000,0.0324,0.013523,0.002678,0.000431,0.000940
413000,0.0324,0.013523,0.002678,0.000431,0.000823
414000,0.0324,0.013523,0.002678,0.000431,0.000940
415000,0.0324,0.013523,0.002678,0.000431,0.000823
416000,0.0324,0.013523,0.002678,0.000431,0.000940
417000,0.0324,0.013523,0.002678,0.000431,0.014103
418000,0.0324,0.013523,0.002678,0.000431,0.494441
419000,0.0324,0.013523,0.002678,0.000431,0.582117
420000,0.0324,0.013523,0.002678,0.000431,0.133277
421000,0.0324,0.013523,0.002678,0.000431,0.133159
422000,0.0324,0.013523,0.002678,0.000431,0.559317
423000,0.0324,0.013523,0.002678,0.000431,0.285946
424000,0.0324,0.013523,0.002678,0.000431,0.287004
425000,0.0324,0.013523,0.002678,0.000431,0.299932
426000,0.0324,0.013523,0.002678,0.000431,0.141504
427000,0.0324,0.013523,0.002678,0.000431,0.158310
428000,0.0324,0.013523,0.002678,0.000431,0.103660
429000,0.0324,0.013523,0.002678,0.000431,0.481513
430000,0.0324,0.013523,0.002678,0.000431,0.067696
431000,0.0324,0.013523,0.002678,0.000431,0.012458
432000,0.0324,0.013523,0.002678,0.000431,0.011635
433000,0.0324,0.013523,0.002678,0.000431,0.003761
434000,0.0324,0.013523,0.002678,0.000431,0.002468
435000,0.0324,0.013523,0.002678,0.000431,0.001645
436000,0.0324,0.013523,0.002678,0.000431,0.000940
437000,0.0324,0.013523,0.002678,0.000431,0.000940
438000,0.0324,0.013523,0.002678,0.000431,0.000940
439000,0.0324,0.013523,0.002678,0.000431,0.017982
440000,0.0324,0.013523,0.002678,0.000431,0.478575
441000,0.0324,0.013523,0.002678,0.000431,0.595398
442000,0.0324,0.013523,0.002678,0.000431,0.131984
443000,0.0324,0.013523,0.002678,0.000431,0.133042
444000,0.0324,0.013523,0.002678,0.000431,0.436735
445000,0.0324,0.013523,0.002678,0.000431,0.326023
446000,0.0324,0.013523,0.002678,0.000431,0.232001
447000,0.0324,0.013523,0.002678,0.000431,0.322497
448000,0.0324,0.013523,0.002678,0.000431,0.186517
449000,0.0324,0.013523,0.002678,0.000431,0.145147
450000,0.0324,0.013523,0.002678,0.000431,0.144677
451000,0.0324,0.013523,0.002678,0.000431,0.227770
452000,0.0324,0.013523,0.002678,0.000431,0.359989
453000,0.0324,0.013523,0.002678,0.000431,0.019275
454000,0.0324,0.013523,0.002678,0.000431,0.016219
455000,0.0324,0.013523,0.002678,0.000431,0.014691
456000,0.0324,0.013523,0.002678,0.000431,0.010695
457000,0.0324,0.013523,0.002678,0.000431,0.009872
458000,0.0324,0.013523,0.002678,0.000431,0.008345
459000,0.0324,0.013523,0.002678,0.000431,0.003761
460000,0.0324,0.013523,0.002678,0.000431,0.003643
461000,0.0324,0.013523,0.002678,0.000431,0.003761
462000,0.0324,0.013523,0.002678,0.000431,0.004231
463000,0.0324,0.013523,0.002678,0.000431,0.003526
464000,0.0324,0.013523,0.002678,0.000431,0.004819
465000,0.0324,0.013523,0.002678,0.000431,0.421691
466000,0.0324,0.013523,0.002678,0.000431,0.625955
467000,0.0324,0.013523,0.002678,0.000431,0.133042
468000,0.0324,0.013523,0.002678,0.000431,0.132572
469000,0.0324,0.013523,0.002678,0.000431,0.149261
470000,0.0324,0.013523,0.002678,0.000431,0.572597
471000,0.0324,0.013523,0.002678,0.000431,0.243518
472000,0.0324,0.013523,0.002678,0.000431,0.226007
473000,0.0324,0.013523,0.002678,0.000431,0.246692
474000,0.0324,0.013523,0.002678,0.000431,0.142914
475000,0.0324,0.013523,0.002678,0.000431,0.149026
476000,0.0324,0.013523,0.002678,0.000431,0.118703
477000,0.0324,0.013523,0.002678,0.000431,0.334720
478000,0.0324,0.013523,0.002678,0.000431,0.247514
479000,0.0324,0.013523,0.002678,0.000431,0.015161
480000,0.0324,0.013523,0.002678,0.000431,0.012458
481000,0.0324,0.013523,0.002678,0.000431,0.012811
482000,0.0324,0.013523,0.002678,0.000431,0.009755
483000,0.0324,0.013523,0.002678,0.000431,0.010225
484000,0.0324,0.013523,0.002678,0.000431,0.011753
485000,0.0324,0.013523,0.002678,0.000431,0.005171
486000,0.0324,0.013523,0.002678,0.000431,0.006111
487000,0.0324,0.013523,0.002678,0.000431,0.009050
488000,0.0324,0.013523,0.002678,0.000431,0.003173
489000,0.0324,0.013523,0.002678,0.000431,0.003408
490000,0.0324,0.013523,0.002678,0.000431,0.004349
491000,0.0324,0.013523,0.002678,0.000431,0.002703
492000,0.0324,0.013523,0.002678,0.000431,0.001880
493000,0.0324,0.013523,0.002678,0.000431,0.001645
494000,0.0324,0.013523,0.002678,0.000431,0.001763
495000,0.0324,0.013523,0.002678,0.000431,0.002821
496000,0.0324,0.013523,0.002678,0.000431,0.002116
497000,0.0324,0.013523,0.002678,0.000431,0.080742
498000,0.0324,0.013523,0.002678,0.000431,0.477987
499000,0.0324,0.013523,0.002678,0.000431,0.537339
500000,0.0324,0.013523,0.002678,0.000431,0.133277
501000,0.0324,0.013523,0.002678,0.000431,0.131867
502000,0.0324,0.013523,0.002678,0.000431,0.581765
503000,0.0324,0.013523,0.002678,0.000431,0.257739
504000,0.0324,0.013523,0.002678,0.000431,0.240933
505000,0.0324,0.013523,0.002678,0.000431,0.277367
506000,0.0324,0.013523,0.002678,0.000431,0.139623
507000,0.0324,0.013523,0.002678,0.000431,0.146323
508000,0.0324,0.013523,0.002678,0.000431,0.139271
509000,0.0324,0.013523,0.002678,0.000431,0.232823
510000,0.0324,0.013523,0.002678,0.000431,0.348941
511000,0.0324,0.013523,0.002678,0.000431,0.025269
512000,0.0324,0.013523,0.002678,0.000431,0.017982
513000,0.0324,0.013523,0.002678,0.000431,0.017982
514000,0.0324,0.013523,0.002678,0.000431,0.015866
515000,0.0324,0.013523,0.002678,0.000431,0.011518
516000,0.0324,0.013523,0.002678,0.000431,0.011048
517000,0.0324,0.013523,0.002678,0.000431,0.012105
518000,0.0324,0.013523,0.002678,0.000431,0.008697
519000,0.0324,0.013523,0.002678,0.000431,0.008109
520000,0.0324,0.013523,0.002678,0.000431,0.008462
521000,0.0324,0.013523,0.002678,0.000431,0.007639
522000,0.0324,0.013523,0.002678,0.000431,0.008462
523000,0.0324,0.013523,0.002678,0.000431,0.009990
524000,0.0324,0.013523,0.002678,0.000431,0.009050
525000,0.0324,0.013523,0.002678,0.000431,0.006582
526000,0.0324,0.013523,0.002678,0.000431,0.006229
527000,0.0324,0.013523,0.002678,0.000431,0.006347
528000,0.0324,0.013523,0.002678,0.000431,0.006699
529000,0.0324,0.013523,0.002678,0.000431,0.007639
530000,0.0324,0.013523,0.002678,0.000431,0.008227
531000,0.0324,0.013523,0.002678,0.000431,0.003526
532000,0.0324,0.013523,0.002678,0.000431,0.005171
533000,0.0324,0.013523,0.002678,0.000431,0.003643
534000,0.0324,0.013523,0.002678,0.000431,0.001880
535000,0.0324,0.013523,0.002678,0.000431,0.001528
536000,0.0324,0.013523,0.002678,0.000431,0.001763
537000,0.0324,0.013523,0.002678,0.000431,0.001880
538000,0.0324,0.013523,0.002678,0.000431,0.001880
539000,0.0324,0.013523,0.002678,0.000431,0.001528
540000,0.0324,0.013523,0.002678,0.000431,0.001763
541000,0.0324,0.013523,0.002678,0.000431,0.001880
542000,0.0324,0.013523,0.002678,0.000431,0.001763
543000,0.0324,0.013523,0.002678,0.000431,0.001645
544000,0.0324,0.013523,0.002678,0.000431,0.001763
545000,0.0324,0.013523,0.002678,0.000431,0.001880
546000,0.0324,0.013523,0.002678,0.000431,0.001645
547000,0.0324,0.013523,0.002678,0.000431,0.001763
548000,0.0324,0.013523,0.002678,0.000431,0.001763
549000,0.0324,0.013523,0.002678,0.000431,0.001763
550000,0.0324,0.013523,0.002678,0.000431,0.001763
551000,0.0324,0.013523,0.002678,0.000431,0.001645
552000,0.0324,0.013523,0.002678,0.000431,0.001880
553000,0.0324,0.013523,0.002678,0.000431,0.003056
554000,0.0324,0.013523,0.002678,0.000431,0.000823
555000,0.0324,0.013523,0.002678,0.000431,0.000940
556000,0.0324,0.013523,0.002678,0.000431,0.000940
557000,0.0324,0.013523,0.002678,0.000431,0.000940
558000,0.0324,0.013523,0.002678,0.000431,0.000705
559000,0.0324,0.013523,0.002678,0.000431,0.000940
560000,0.0324,0.013523,0.002678,0.000431,0.000940
561000,0.0324,0.013523,0.002678,0.000431,0.000940
562000,0.0324,0.013523,0.002678,0.000431,0.000705
563000,0.0324,0.013523,0.002678,0.000431,0.000940
564000,0.0324,0.013523,0.002678,0.000431,0.000940
565000,0.0324,0.013523,0.002678,0.000431,0.027854
566000,0.0324,0.013523,0.002678,0.000431,0.451896
567000,0.0324,0.013523,0.002678,0.000431,0.598454
568000,0.0324,0.013523,0.002678,0.000431,0.130926
569000,0.0324,0.013523,0.002678,0.000431,0.132572
570000,0.0324,0.013523,0.002678,0.000431,0.464354
571000,0.0324,0.013523,0.002678,0.000431,0.304986
572000,0.0324,0.013523,0.002678,0.000431,0.227770
573000,0.0324,0.013523,0.002678,0.000431,0.306043
574000,0.0324,0.013523,0.002678,0.000431,0.183814
575000,0.0324,0.013523,0.002678,0.000431,0.141739
576000,0.0324,0.013523,0.002678,0.000431,0.169946
577000,0.0324,0.013523,0.002678,0.000431,0.135510
578000,0.0324,0.013523,0.002678,0.000431,0.447430
579000,0.0324,0.013523,0.002678,0.000431,0.025504
580000,0.0324,0.013523,0.002678,0.000431,0.012576
581000,0.0324,0.013523,0.002678,0.000431,0.006699
582000,0.0324,0.013523,0.002678,0.000431,0.007522
583000,0.0324,0.013523,0.002678,0.000431,0.009520
584000,0.0324,0.013523,0.002678,0.000431,0.004584
585000,0.0324,0.013523,0.002678,0.000431,0.004584
586000,0.0324,0.013523,0.002678,0.000431,0.003996
587000,0.0324,0.013523,0.002678,0.000431,0.004466
588000,0.0324,0.013523,0.002678,0.000431,0.004701
589000,0.0324,0.013523,0.002678,0.000431,0.006111
590000,0.0324,0.013523,0.002678,0.000431,0.003408
591000,0.0324,0.013523,0.002678,0.000431,0.005171
592000,0.0324,0.013523,0.002678,0.000431,0.003878
593000,0.0324,0.013523,0.002678,0.000431,0.001763
594000,0.0324,0.013523,0.002678,0.000431,0.001880
595000,0.0324,0.013523,0.002678,0.000431,0.001645
596000,0.0324,0.013523,0.002678,0.000431,0.001645
597000,0.0324,0.013523,0.002678,0.000431,0.001880
598000,0.0324,0.013523,0.002678,0.000431,0.001880
599000,0.0324,0.013523,0.002678,0.000431,0.001528
600000,0.0324,0.013523,0.002678,0.000431,0.001763
601000,0.0324,0.013523,0.002678,0.000431,0.001880
602000,0.0324,0.013523,0.002678,0.000431,0.001763
603000,0.0324,0.013523,0.002678,0.000431,0.001645
604000,0.0324,0.013523,0.002678,0.000431,0.001880
605000,0.0324,0.013523,0.002678,0.000431,0.001763
606000,0.0324,0.013523,0.002678,0.000431,0.001763
607000,0.0324,0.013523,0.002678,0.000431,0.001763
608000,0.0324,0.013523,0.002678,0.000431,0.001763
609000,0.0324,0.013523,0.002678,0.000431,0.001763
610000,0.0324,0.013523,0.002678,0.000431,0.001763
611000,0.0324,0.013523,0.002678,0.000431,0.001763
612000,0.0324,0.013523,0.002678,0.000431,0.001763
613000,0.0324,0.013523,0.002678,0.000431,0.001645
614000,0.0324,0.013523,0.002678,0.000431,0.001880
615000,0.0324,0.013523,0.002678,0.000431,0.001645
616000,0.0324,0.013523,0.002678,0.000431,0.002586
617000,0.0324,0.013523,0.002678,0.000431,0.000940
618000,0.0324,0.013523,0.002678,0.000431,0.000823
619000,0.0324,0.013523,0.002678,0.000431,0.000940
620000,0.0324,0.013523,0.002678,0.000431,0.000823
621000,0.0324,0.013523,0.002678,0.000431,0.000940
622000,0.0324,0.013523,0.002678,0.000431,0.000823
623000,0.0324,0.013523,0.002678,0.000431,0.000823
624000,0.0324,0.013523,0.002678,0.000431,0.000940
625000,0.0324,0.013523,0.002678,0.000431,0.000940
626000,0.0324,0.013523,0.002678,0.000431,0.000823
627000,0.0324,0.013523,0.002678,0.000431,0.000823
628000,0.0324,0.013523,0.002678,0.000431,0.000940
629000,0.0324,0.013523,0.002678,0.000431,0.000940
630000,0.0324,0.013523,0.002678,0.000431,0.000705
631000,0.0324,0.013523,0.002678,0.000431,0.000940
632000,0.0324,0.013523,0.002678,0.000431,0.000940
633000,0.0324,0.013523,0.002678,0.000431,0.000940
634000,0.0324,0.013523,0.002678,0.000431,0.000705
635000,0.0324,0.013523,0.002678,0.000431,0.000940
636000,0.0324,0.013523,0.002678,0.000431,0.000940
637000,0.0324,0.013523,0.002678,0.000431,0.000823
638000,0.0324,0.013523,0.002678,0.000431,0.000940
639000,0.0324,0.013523,0.002678,0.000431,0.000823
640000,0.0324,0.013523,0.002678,0.000431,0.000940
641000,0.0324,0.013523,0.002678,0.000431,0.000823
642000,0.0324,0.013523,0.002678,0.000431,0.000823
643000,0.0324,0.013523,0.002678,0.000431,0.000940
644000,0.0324,0.013523,0.002678,0.000431,0.000823
645000,0.0324,0.013523,0.002678,0.000431,0.000823
646000,0.0324,0.013523,0.002678,0.000431,0.000940
647000,0.0324,0.013523,0.002678,0.000431,0.000940
648000,0.0324,0.013523,0.002678,0.000431,0.000940
649000,0.0324,0.013523,0.002678,0.000431,0.000705
650000,0.0324,0.013523,0.002678,0.000431,0.000940
651000,0.0324,0.013523,0.002678,0.000431,0.000940
652000,0.0324,0.013523,0.002678,0.000431,0.000823
653000,0.0324,0.013523,0.002678,0.000431,0.000823
654000,0.0324,0.013523,0.002678,0.000431,0.000940
655000,0.0324,0.013523,0.002678,0.000431,0.000940
656000,0.0324,0.013523,0.002678,0.000431,0.000823
657000,0.0324,0.013523,0.002678,0.000431,0.000823
658000,0.0324,0.013523,0.002678,0.000431,0.000940
659000,0.0324,0.013523,0.002678,0.000431,0.000823
660000,0.0324,0.013523,0.002678,0.000431,0.000940
661000,0.0324,0.013523,0.002678,0.000431,0.000823
662000,0.0324,0.013523,0.002678,0.000431,0.000940
663000,0.0324,0.013523,0.002678,0.000431,0.000823
664000,0.0324,0.013523,0.002678,0.000431,0.000823
665000,0.0324,0.013523,0.002678,0.000431,0.000940
666000,0.0324,0.013523,0.002678,0.000431,0.000940
667000,0.0324,0.013523,0.002678,0.000431,0.000823
668000,0.0324,0.013523,0.002678,0.000431,0.000823
669000,0.0324,0.013523,0.002678,0.000431,0.000940
670000,0.0324,0.013523,0.002678,0.000431,0.000940
671000,0.0324,0.013523,0.002678,0.000431,0.000823
672000,0.0324,0.013523,0.002678,0.000431,0.000823
673000,0.0324,0.013523,0.002678,0.000431,0.000940
674000,0.0324,0.013523,0.002678,0.000431,0.000940
675000,0.0324,0.013523,0.002678,0.000431,0.000823
676000,0.0324,0.013523,0.002678,0.000431,0.000823
677000,0.0324,0.013523,0.002678,0.000431,0.000940
678000,0.0324,0.013523,0.002678,0.000431,0.000823
679000,0.0324,0.013523,0.002678,0.000431,0.000940
680000,0.0324,0.013523,0.002678,0.000431,0.000823
681000,0.0324,0.013523,0.002678,0.000431,0.000940
682000,0.0324,0.013523,0.002678,0.000431,0.000823
683000,0.0324,0.013523,0.002678,0.000431,0.000823
684000,0.0324,0.013523,0.002678,0.000431,0.000940
685000,0.0324,0.013523,0.002678,0.000431,0.000940
686000,0.0324,0.013523,0.002678,0.000431,0.000705
687000,0.0324,0.013523,0.002678,0.000431,0.000940
688000,0.0324,0.013523,0.002678,0.000431,0.000940
689000,0.0324,0.013523,0.002678,0.000431,0.000940
690000,0.0324,0.013523,0.002678,0.000431,0.000705
691000,0.0324,0.013523,0.002678,0.000431,0.000940
692000,0.0324,0.013523,0.002678,0.000431,0.000940
693000,0.0324,0.013523,0.002678,0.000431,0.000823
694000,0.0324,0.013523,0.002678,0.000431,0.000823
695000,0.0324,0.013523,0.002678,0.000431,0.000940
696000,0.0324,0.013523,0.002678,0.000431,0.000940
697000,0.0324,0.013523,0.002678,0.000431,0.000823
698000,0.0324,0.013523,0.002678,0.000431,0.000823
699000,0.0324,0.013523,0.002678,0.000431,0.000940
700000,0.0324,0.013523,0.002678,0.000431,0.000823
701000,0.0324,0.013523,0.002678,0.000431,0.000940
702000,0.0324,0.013523,0.002678,0.000431,0.000823
703000,0.0324,0.013523,0.002678,0.000431,0.000940
704000,0.0324,0.013523,0.002678,0.000431,0.000823
705000,0.0324,0.013523,0.002678,0.000431,0.000823
706000,0.0324,0.013523,0.002678,0.000431,0.000940
707000,0.0324,0.013523,0.002678,0.000431,0.000940
708000,0.0324,0.013523,0.002678,0.000431,0.000940
709000,0.0324,0.013523,0.002678,0.000431,0.000705
710000,0.0324,0.013523,0.002678,0.000431,0.000940
711000,0.0324,0.013523,0.002678,0.000431,0.000940
712000,0.0324,0.013523,0.002678,0.000431,0.000823
713000,0.0324,0.013523,0.002678,0.000431,0.000823
714000,0.0324,0.013523,0.002678,0.000431,0.000940
715000,0.0324,0.013523,0.002678,0.000431,0.000940
716000,0.0324,0.013523,0.002678,0.000431,0.000823
717000,0.0324,0.013523,0.002678,0.000431,0.000823
718000,0.0324,0.013523,0.002678,0.000431,0.000940
719000,0.0324,0.013523,0.002678,0.000431,0.000823
720000,0.0324,0.013523,0.002678,0.000431,0.000940
721000,0.0324,0.013523,0.002678,0.000431,0.000823
722000,0.0324,0.013523,0.002678,0.000431,0.000940
723000,0.0324,0.013523,0.002678,0.000431,0.000823
724000,0.0324,0.013523,0.002678,0.000431,0.000823
725000,0.0324,0.013523,0.002678,0.000431,0.000940
726000,0.0324,0.013523,0.002678,0.000431,0.000940
727000,0.0324,0.013523,0.002678,0.000431,0.000823
728000,0.0324,0.013523,0.002678,0.000431,0.000823
729000,0.0324,0.013523,0.002678,0.000431,0.000940
730000,0.0324,0.013523,0.002678,0.000431,0.000940
731000,0.0324,0.013523,0.002678,0.000431,0.000823
732000,0.0324,0.013523,0.002678,0.000431,0.000823
733000,0.0324,0.013523,0.002678,0.000431,0.000940
734000,0.0324,0.013523,0.002678,0.000431,0.000823
735000,0.0324,0.013523,0.002678,0.000431,0.000940
736000,0.0324,0.013523,0.002678,0.000431,0.000823
737000,0.0324,0.013523,0.002678,0.000431,0.000940
738000,0.0324,0.013523,0.002678,0.000431,0.000823
739000,0.0324,0.013523,0.002678,0.000431,0.000823
740000,0.0324,0.013523,0.002678,0.000431,0.000940
741000,0.0324,0.013523,0.002678,0.000431,0.000940
742000,0.0324,0.013523,0.002678,0.000431,0.000823
743000,0.0324,0.013523,0.002678,0.000431,0.001645
744000,0.0324,0.013523,0.002678,0.000431,0.331900
745000,0.0324,0.013523,0.002678,0.000431,0.679195
746000,0.0324,0.013523,0.002678,0.000431,0.139976
747000,0.0324,0.013523,0.002678,0.000431,0.133512
748000,0.0324,0.013523,0.002678,0.000431,0.137626
749000,0.0324,0.013523,0.002678,0.000431,0.606916
750000,0.0324,0.013523,0.002678,0.000431,0.238465
751000,0.0324,0.013523,0.002678,0.000431,0.302400
752000,0.0324,0.013523,0.002678,0.000431,0.255506
753000,0.0324,0.013523,0.002678,0.000431,0.137155
754000,0.0324,0.013523,0.002678,0.000431,0.173707
755000,0.0324,0.013523,0.002678,0.000431,0.098371
756000,0.0324,0.013523,0.002678,0.000431,0.464941
757000,0.0324,0.013523,0.002678,0.000431,0.061585
758000,0.0324,0.013523,0.002678,0.000431,0.021273
759000,0.0324,0.013523,0.002678,0.000431,0.019157
760000,0.0324,0.013523,0.002678,0.000431,0.019157
761000,0.0324,0.013523,0.002678,0.000431,0.014809
762000,0.0324,0.013523,0.002678,0.000431,0.010342
763000,0.0324,0.013523,0.002678,0.000431,0.011165
764000,0.0324,0.013523,0.002678,0.000431,0.012223
765000,0.0324,0.013523,0.002678,0.000431,0.008697
766000,0.0324,0.013523,0.002678,0.000431,0.010342
767000,0.0324,0.013523,0.002678,0.000431,0.011635
768000,0.0324,0.013523,0.002678,0.000431,0.008109
769000,0.0324,0.013523,0.002678,0.000431,0.005406
770000,0.0324,0.013523,0.002678,0.000431,0.005171
771000,0.0324,0.013523,0.002678,0.000431,0.005524
772000,0.0324,0.013523,0.002678,0.000431,0.004936
773000,0.0324,0.013523,0.002678,0.000431,0.005406
774000,0.0324,0.013523,0.002678,0.000431,0.006347
775000,0.0324,0.013523,0.002678,0.000431,0.004113
776000,0.0324,0.013523,0.002678,0.000431,0.004466
777000,0.0324,0.013523,0.002678,0.000431,0.005641
778000,0.0324,0.013523,0.002678,0.000431,0.003761
779000,0.0324,0.013523,0.002678,0.000431,0.004113
780000,0.0324,0.013523,0.002678,0.000431,0.003526
781000,0.0324,0.013523,0.002678,0.000431,0.002703
782000,0.0324,0.013523,0.002678,0.000431,0.002703
783000,0.0324,0.013523,0.002678,0.000431,0.002703
784000,0.0324,0.013523,0.002678,0.000431,0.003996
785000,0.0324,0.013523,0.002678,0.000431,0.001763
786000,0.0324,0.013523,0.002678,0.000431,0.001763
787000,0.0324,0.013523,0.002678,0.000431,0.001645
788000,0.0324,0.013523,0.002678,0.000431,0.001880
789000,0.0324,0.013523,0.002678,0.000431,0.001645
790000,0.0324,0.013523,0.002678,0.000431,0.003526
791000,0.0324,0.013523,0.002678,0.000431,0.000823
792000,0.0324,0.013523,0.002678,0.000431,0.000823
793000,0.0324,0.013523,0.002678,0.000431,0.000940
794000,0.0324,0.013523,0.002678,0.000431,0.000940
795000,0.0324,0.013523,0.002678,0.000431,0.000823
796000,0.0324,0.013523,0.002678,0.000431,0.000823
797000,0.0324,0.013523,0.002678,0.000431,0.000940
798000,0.0324,0.013523,0.002678,0.000431,0.000940
799000,0.0324,0.013523,0.002678,0.000431,0.000705
800000,0.0324,0.013523,0.002678,0.000431,0.000940
801000,0.0324,0.013523,0.002678,0.000431,0.000940
802000,0.0324,0.013523,0.002678,0.000431,0.000940
803000,0.0324,0.013523,0.002678,0.000431,0.000705
804000,0.0324,0.013523,0.002678,0.000431,0.000940
805000,0.0324,0.013523,0.002678,0.000431,0.000940
806000,0.0324,0.013523,0.002678,0.000431,0.000940
807000,0.0324,0.013523,0.002678,0.000431,0.220835
808000,0.0324,0.013523,0.002678,0.000431,0.632772
809000,0.0324,0.013523,0.002678,0.000431,0.307336
810000,0.0324,0.013523,0.002678,0.000431,0.132102
811000,0.0324,0.013523,0.002678,0.000431,0.162306
812000,0.0324,0.013523,0.002678,0.000431,0.661684
813000,0.0324,0.013523,0.002678,0.000431,0.217780
814000,0.0324,0.013523,0.002678,0.000431,0.286299
815000,0.0324,0.013523,0.002678,0.000431,0.238112
816000,0.0324,0.013523,0.002678,0.000431,0.151259
817000,0.0324,0.013523,0.002678,0.000431,0.141504
818000,0.0324,0.013523,0.002678,0.000431,0.214019
819000,0.0324,0.013523,0.002678,0.000431,0.357403
820000,0.0324,0.013523,0.002678,0.000431,0.007874
821000,0.0324,0.013523,0.002678,0.000431,0.004466
822000,0.0324,0.013523,0.002678,0.000431,0.004466
823000,0.0324,0.013523,0.002678,0.000431,0.004231
824000,0.0324,0.013523,0.002678,0.000431,0.004349
825000,0.0324,0.013523,0.002678,0.000431,0.005171
826000,0.0324,0.013523,0.002678,0.000431,0.004701
827000,0.0324,0.013523,0.002678,0.000431,0.003291
828000,0.0324,0.013523,0.002678,0.000431,0.005054
829000,0.0324,0.013523,0.002678,0.000431,0.002821
830000,0.0324,0.013523,0.002678,0.000431,0.002586
831000,0.0324,0.013523,0.002678,0.000431,0.002703
832000,0.0324,0.013523,0.002678,0.000431,0.002586
833000,0.0324,0.013523,0.002678,0.000431,0.002703
834000,0.0324,0.013523,0.002678,0.000431,0.002703
835000,0.0324,0.013523,0.002678,0.000431,0.002351
836000,0.0324,0.013523,0.002678,0.000431,0.003526
837000,0.0324,0.013523,0.002678,0.000431,0.003056
838000,0.0324,0.013523,0.002678,0.000431,0.001880
839000,0.0324,0.013523,0.002678,0.000431,0.001528
840000,0.0324,0.013523,0.002678,0.000431,0.001763
841000,0.0324,0.013523,0.002678,0.000431,0.001880
842000,0.0324,0.013523,0.002678,0.000431,0.001763
843000,0.0324,0.013523,0.002678,0.000431,0.001528
844000,0.0324,0.013523,0.002678,0.000431,0.001880
845000,0.0324,0.013523,0.002678,0.000431,0.001763
846000,0.0324,0.013523,0.002678,0.000431,0.001880
847000,0.0324,0.013523,0.002678,0.000431,0.001645
848000,0.0324,0.013523,0.002678,0.000431,0.001763
849000,0.0324,0.013523,0.002678,0.000431,0.001763
850000,0.0324,0.013523,0.002678,0.000431,0.001645
851000,0.0324,0.013523,0.002678,0.000431,0.001763
852000,0.0324,0.013523,0.002678,0.000431,0.001880
853000,0.0324,0.013523,0.002678,0.000431,0.001645
854000,0.0324,0.013523,0.002678,0.000431,0.001645
855000,0.0324,0.013523,0.002678,0.000431,0.001763
856000,0.0324,0.013523,0.002678,0.000431,0.002468
857000,0.0324,0.013523,0.002678,0.000431,0.000823
858000,0.0324,0.013523,0.002678,0.000431,0.000940
859000,0.0324,0.013523,0.002678,0.000431,0.000940
860000,0.0324,0.013523,0.002678,0.000431,0.000705
861000,0.0324,0.013523,0.002678,0.000431,0.000940
862000,0.0324,0.013523,0.002678,0.000431,0.000940
863000,0.0324,0.013523,0.002678,0.000431,0.000940
864000,0.0324,0.013523,0.002678,0.000431,0.000705
865000,0.0324,0.013523,0.002678,0.000431,0.000940
866000,0.0324,0.013523,0.002678,0.000431,0.000940
867000,0.0324,0.013523,0.002678,0.000431,0.000823
868000,0.0324,0.013523,0.002678,0.000431,0.000823
869000,0.0324,0.013523,0.002678,0.000431,0.000940
870000,0.0324,0.013523,0.002678,0.000431,0.000940
871000,0.0324,0.013523,0.002678,0.000431,0.000823
872000,0.0324,0.013523,0.002678,0.000431,0.000823
873000,0.0324,0.013523,0.002678,0.000431,0.000940
874000,0.0324,0.013523,0.002678,0.000431,0.000823
875000,0.0324,0.013523,0.002678,0.000431,0.000940
876000,0.0324,0.013523,0.002678,0.000431,0.000823
877000,0.0324,0.013523,0.002678,0.000431,0.000940
878000,0.0324,0.013523,0.002678,0.000431,0.000823
879000,0.0324,0.013523,0.002678,0.000431,0.000823
880000,0.0324,0.013523,0.002678,0.000431,0.013516
881000,0.0324,0.013523,0.002678,0.000431,0.419458
882000,0.0324,0.013523,0.002678,0.000431,0.593752
883000,0.0324,0.013523,0.002678,0.000431,0.133512
884000,0.0324,0.013523,0.002678,0.000431,0.131161
885000,0.0324,0.013523,0.002678,0.000431,0.217310
886000,0.0324,0.013523,0.002678,0.000431,0.530640
887000,0.0324,0.013523,0.002678,0.000431,0.238230
888000,0.0324,0.013523,0.002678,0.000431,0.256329
889000,0.0324,0.013523,0.002678,0.000431,0.259385
890000,0.0324,0.013523,0.002678,0.000431,0.136685
891000,0.0324,0.013523,0.002678,0.000431,0.146558
892000,0.0324,0.013523,0.002678,0.000431,0.103072
893000,0.0324,0.013523,0.002678,0.000431,0.417343
894000,0.0324,0.013523,0.002678,0.000431,0.130926
895000,0.0324,0.013523,0.002678,0.000431,0.009755
896000,0.0324,0.013523,0.002678,0.000431,0.009872
897000,0.0324,0.013523,0.002678,0.000431,0.008462
898000,0.0324,0.013523,0.002678,0.000431,0.006229
899000,0.0324,0.013523,0.002678,0.000431,0.005406
900000,0.0324,0.013523,0.002678,0.000431,0.004936
901000,0.0324,0.013523,0.002678,0.000431,0.006817
902000,0.0324,0.013523,0.002678,0.000431,0.004819
903000,0.0324,0.013523,0.002678,0.000431,0.004349
904000,0.0324,0.013523,0.002678,0.000431,0.005524
905000,0.0324,0.013523,0.002678,0.000431,0.004584
906000,0.0324,0.013523,0.002678,0.000431,0.002703
907000,0.0324,0.013523,0.002678,0.000431,0.002703
908000,0.0324,0.013523,0.002678,0.000431,0.002586
909000,0.0324,0.013523,0.002678,0.000431,0.002586
910000,0.0324,0.013523,0.002678,0.000431,0.002703
911000,0.0324,0.013523,0.002678,0.000431,0.002586
912000,0.0324,0.013523,0.002678,0.000431,0.002586
913000,0.0324,0.013523,0.002678,0.000431,0.002586
914000,0.0324,0.013523,0.002678,0.000431,0.002821
915000,0.0324,0.013523,0.002678,0.000431,0.002468
916000,0.0324,0.013523,0.002678,0.000431,0.002468
917000,0.0324,0.013523,0.002678,0.000431,0.002821
918000,0.0324,0.013523,0.002678,0.000431,0.002821
919000,0.0324,0.013523,0.002678,0.000431,0.002351
920000,0.0324,0.013523,0.002678,0.000431,0.002586
921000,0.0324,0.013523,0.002678,0.000431,0.002821
922000,0.0324,0.013523,0.002678,0.000431,0.002703
923000,0.0324,0.013523,0.002678,0.000431,0.002351
924000,0.0324,0.013523,0.002678,0.000431,0.002703
925000,0.0324,0.013523,0.002678,0.000431,0.002821
926000,0.0324,0.013523,0.002678,0.000431,0.002586
927000,0.0324,0.013523,0.002678,0.000431,0.002468
928000,0.0324,0.013523,0.002678,0.000431,0.002703
929000,0.0324,0.013523,0.002678,0.000431,0.002703
930000,0.0324,0.013523,0.002678,0.000431,0.002703
931000,0.0324,0.013523,0.002678,0.000431,0.002586
932000,0.0324,0.013523,0.002678,0.000431,0.003291
933000,0.0324,0.013523,0.002678,0.000431,0.002821
934000,0.0324,0.013523,0.002678,0.000431,0.001763
935000,0.0324,0.013523,0.002678,0.000431,0.001763
936000,0.0324,0.013523,0.002678,0.000431,0.001763
937000,0.0324,0.013523,0.002678,0.000431,0.001880
938000,0.0324,0.013523,0.002678,0.000431,0.001763
939000,0.0324,0.013523,0.002678,0.000431,0.001763
940000,0.0324,0.013523,0.002678,0.000431,0.001645
941000,0.0324,0.013523,0.002678,0.000431,0.001880
942000,0.0324,0.013523,0.002678,0.000431,0.001645
943000,0.0324,0.013523,0.002678,0.000431,0.001763
944000,0.0324,0.013523,0.002678,0.000431,0.001763
945000,0.0324,0.013523,0.002678,0.000431,0.001880
946000,0.0324,0.013523,0.002678,0.000431,0.001645
947000,0.0324,0.013523,0.002678,0.000431,0.001645
948000,0.0324,0.013523,0.002678,0.000431,0.001880
949000,0.0324,0.013523,0.002678,0.000431,0.001880
950000,0.0324,0.013523,0.002678,0.000431,0.001528
951000,0.0324,0.013523,0.002678,0.000431,0.003056
952000,0.0324,0.013523,0.002678,0.000431,0.000940
953000,0.0324,0.013523,0.002678,0.000431,0.000940
954000,0.0324,0.013523,0.002678,0.000431,0.000705
955000,0.0324,0.013523,0.002678,0.000431,0.000940
956000,0.0324,0.013523,0.002678,0.000431,0.000940
957000,0.0324,0.013523,0.002678,0.000431,0.000940
958000,0.0324,0.013523,0.002678,0.000431,0.000705
959000,0.0324,0.013523,0.002678,0.000431,0.000940
960000,0.0324,0.013523,0.002678,0.000431,0.000940
961000,0.0324,0.013523,0.002678,0.000431,0.000823
962000,0.0324,0.013523,0.002678,0.000431,0.000940
963000,0.0324,0.013523,0.002678,0.000431,0.000823
964000,0.0324,0.013523,0.002678,0.000431,0.000940
965000,0.0324,0.013523,0.002678,0.000431,0.000823
966000,0.0324,0.013523,0.002678,0.000431,0.000823
967000,0.0324,0.013523,0.002678,0.000431,0.000940
968000,0.0324,0.013523,0.002678,0.000431,0.000823
969000,0.0324,0.013523,0.002678,0.000431,0.000823
970000,0.0324,0.013523,0.002678,0.000431,0.000940
971000,0.0324,0.013523,0.002678,0.000431,0.000940
972000,0.0324,0.013523,0.002678,0.000431,0.000940
973000,0.0324,0.013523,0.002678,0.000431,0.000705
974000,0.0324,0.013523,0.002678,0.000431,0.000940
975000,0.0324,0.013523,0.002678,0.000431,0.000940
976000,0.0324,0.013523,0.002678,0.000431,0.000823
977000,0.0324,0.013523,0.002678,0.000431,0.000823
978000,0.0324,0.013523,0.002678,0.000431,0.000940
979000,0.0324,0.013523,0.002678,0.000431,0.000940
980000,0.0324,0.013523,0.002678,0.000431,0.000823
981000,0.0324,0.013523,0.002678,0.000431,0.000823
982000,0.0324,0.013523,0.002678,0.000431,0.000940
983000,0.0324,0.013523,0.002678,0.000431,0.000823
984000,0.0324,0.013523,0.002678,0.000431,0.000940
985000,0.0324,0.013523,0.002678,0.000431,0.000823
986000,0.0324,0.013523,0.002678,0.000431,0.000940
987000,0.0324,0.013523,0.002678,0.000431,0.000940
988000,0.0324,0.013523,0.002678,0.000431,0.000823
989000,0.0324,0.013523,0.002678,0.000431,0.000940
990000,0.0324,0.013523,0.002678,0.000431,0.000823
991000,0.0324,0.013523,0.002678,0.000431,0.000940
992000,0.0324,0.013523,0.002678,0.000431,0.000823
993000,0.0324,0.013523,0.002678,0.000431,0.000823
994000,0.0324,0.013523,0.002678,0.000431,0.000940
995000,0.0324,0.013523,0.002678,0.000431,0.000823
996000,0.0324,0.013523,0.002678,0.000431,0.000940
997000,0.0324,0.013523,0.002678,0.000431,0.000823
998000,0.0324,0.013523,0.002678,0.000431,0.000940
999000,0.0324,0.013523,0.002678,0.000431,0.000940
