Cycle,Area(mm^2),PeakDynamic(W),SubthresholdLeakage(W),GateLeakage(W),RunTimeDynamic(W)
15000000,0.0324,0.013523,0.002678,0.000431,0.002938
15001000,0.0324,0.013523,0.002678,0.000431,0.003526
15002000,0.0324,0.013523,0.002678,0.000431,0.003408
15003000,0.0324,0.013523,0.002678,0.000431,0.003056
15004000,0.0324,0.013523,0.002678,0.000431,0.003526
15005000,0.0324,0.013523,0.002678,0.000431,0.003056
15006000,0.0324,0.013523,0.002678,0.000431,0.002703
15007000,0.0324,0.013523,0.002678,0.000431,0.002351
15008000,0.0324,0.013523,0.002678,0.000431,0.002703
15009000,0.0324,0.013523,0.002678,0.000431,0.002821
15010000,0.0324,0.013523,0.002678,0.000431,0.002821
15011000,0.0324,0.013523,0.002678,0.000431,0.002233
15012000,0.0324,0.013523,0.002678,0.000431,0.004466
15013000,0.0324,0.013523,0.002678,0.000431,0.001880
15014000,0.0324,0.013523,0.002678,0.000431,0.001763
15015000,0.0324,0.013523,0.002678,0.000431,0.001645
15016000,0.0324,0.013523,0.002678,0.000431,0.001880
15017000,0.0324,0.013523,0.002678,0.000431,0.001645
15018000,0.0324,0.013523,0.002678,0.000431,0.001880
15019000,0.0324,0.013523,0.002678,0.000431,0.001645
15020000,0.0324,0.013523,0.002678,0.000431,0.001763
15021000,0.0324,0.013523,0.002678,0.000431,0.001763
15022000,0.0324,0.013523,0.002678,0.000431,0.001763
15023000,0.0324,0.013523,0.002678,0.000431,0.001763
15024000,0.0324,0.013523,0.002678,0.000431,0.001763
15025000,0.0324,0.013523,0.002678,0.000431,0.001763
15026000,0.0324,0.013523,0.002678,0.000431,0.001763
15027000,0.0324,0.013523,0.002678,0.000431,0.001645
15028000,0.0324,0.013523,0.002678,0.000431,0.001880
15029000,0.0324,0.013523,0.002678,0.000431,0.001763
15030000,0.0324,0.013523,0.002678,0.000431,0.001763
15031000,0.0324,0.013523,0.002678,0.000431,0.001763
15032000,0.0324,0.013523,0.002678,0.000431,0.001763
15033000,0.0324,0.013523,0.002678,0.000431,0.001763
15034000,0.0324,0.013523,0.002678,0.000431,0.001645
15035000,0.0324,0.013523,0.002678,0.000431,0.001880
15036000,0.0324,0.013523,0.002678,0.000431,0.001645
15037000,0.0324,0.013523,0.002678,0.000431,0.001880
15038000,0.0324,0.013523,0.002678,0.000431,0.001645
15039000,0.0324,0.013523,0.002678,0.000431,0.001763
15040000,0.0324,0.013523,0.002678,0.000431,0.001763
15041000,0.0324,0.013523,0.002678,0.000431,0.001763
15042000,0.0324,0.013523,0.002678,0.000431,0.001645
15043000,0.0324,0.013523,0.002678,0.000431,0.001880
15044000,0.0324,0.013523,0.002678,0.000431,0.001763
15045000,0.0324,0.013523,0.002678,0.000431,0.001763
15046000,0.0324,0.013523,0.002678,0.000431,0.001645
15047000,0.0324,0.013523,0.002678,0.000431,0.001880
15048000,0.0324,0.013523,0.002678,0.000431,0.001645
15049000,0.0324,0.013523,0.002678,0.000431,0.001763
15050000,0.0324,0.013523,0.002678,0.000431,0.001763
15051000,0.0324,0.013523,0.002678,0.000431,0.001880
15052000,0.0324,0.013523,0.002678,0.000431,0.001645
15053000,0.0324,0.013523,0.002678,0.000431,0.001763
15054000,0.0324,0.013523,0.002678,0.000431,0.001763
15055000,0.0324,0.013523,0.002678,0.000431,0.001763
15056000,0.0324,0.013523,0.002678,0.000431,0.001763
15057000,0.0324,0.013523,0.002678,0.000431,0.001763
15058000,0.0324,0.013523,0.002678,0.000431,0.001763
15059000,0.0324,0.013523,0.002678,0.000431,0.001763
15060000,0.0324,0.013523,0.002678,0.000431,0.001645
15061000,0.0324,0.013523,0.002678,0.000431,0.001763
15062000,0.0324,0.013523,0.002678,0.000431,0.001880
15063000,0.0324,0.013523,0.002678,0.000431,0.001645
15064000,0.0324,0.013523,0.002678,0.000431,0.001880
15065000,0.0324,0.013523,0.002678,0.000431,0.001645
15066000,0.0324,0.013523,0.002678,0.000431,0.001880
15067000,0.0324,0.013523,0.002678,0.000431,0.001645
15068000,0.0324,0.013523,0.002678,0.000431,0.001763
15069000,0.0324,0.013523,0.002678,0.000431,0.001763
15070000,0.0324,0.013523,0.002678,0.000431,0.001763
15071000,0.0324,0.013523,0.002678,0.000431,0.001763
15072000,0.0324,0.013523,0.002678,0.000431,0.001763
15073000,0.0324,0.013523,0.002678,0.000431,0.001763
15074000,0.0324,0.013523,0.002678,0.000431,0.001763
15075000,0.0324,0.013523,0.002678,0.000431,0.001645
15076000,0.0324,0.013523,0.002678,0.000431,0.001880
15077000,0.0324,0.013523,0.002678,0.000431,0.001645
15078000,0.0324,0.013523,0.002678,0.000431,0.001880
15079000,0.0324,0.013523,0.002678,0.000431,0.001645
15080000,0.0324,0.013523,0.002678,0.000431,0.001763
15081000,0.0324,0.013523,0.002678,0.000431,0.003408
15082000,0.0324,0.013523,0.002678,0.000431,0.000940
15083000,0.0324,0.013523,0.002678,0.000431,0.000823
15084000,0.0324,0.013523,0.002678,0.000431,0.000823
15085000,0.0324,0.013523,0.002678,0.000431,0.000940
15086000,0.0324,0.013523,0.002678,0.000431,0.000940
15087000,0.0324,0.013523,0.002678,0.000431,0.000705
15088000,0.0324,0.013523,0.002678,0.000431,0.000940
15089000,0.0324,0.013523,0.002678,0.000431,0.000940
15090000,0.0324,0.013523,0.002678,0.000431,0.000823
15091000,0.0324,0.013523,0.002678,0.000431,0.000940
15092000,0.0324,0.013523,0.002678,0.000431,0.000823
15093000,0.0324,0.013523,0.002678,0.000431,0.000940
15094000,0.0324,0.013523,0.002678,0.000431,0.000823
15095000,0.0324,0.013523,0.002678,0.000431,0.000823
15096000,0.0324,0.013523,0.002678,0.000431,0.000940
15097000,0.0324,0.013523,0.002678,0.000431,0.000940
15098000,0.0324,0.013523,0.002678,0.000431,0.000823
15099000,0.0324,0.013523,0.002678,0.000431,0.000823
15100000,0.0324,0.013523,0.002678,0.000431,0.000940
15101000,0.0324,0.013523,0.002678,0.000431,0.000940
15102000,0.0324,0.013523,0.002678,0.000431,0.000705
15103000,0.0324,0.013523,0.002678,0.000431,0.000940
15104000,0.0324,0.013523,0.002678,0.000431,0.000940
15105000,0.0324,0.013523,0.002678,0.000431,0.000940
15106000,0.0324,0.013523,0.002678,0.000431,0.000705
15107000,0.0324,0.013523,0.002678,0.000431,0.000940
15108000,0.0324,0.013523,0.002678,0.000431,0.000940
15109000,0.0324,0.013523,0.002678,0.000431,0.000823
15110000,0.0324,0.013523,0.002678,0.000431,0.000823
15111000,0.0324,0.013523,0.002678,0.000431,0.000940
15112000,0.0324,0.013523,0.002678,0.000431,0.000940
15113000,0.0324,0.013523,0.002678,0.000431,0.000823
15114000,0.0324,0.013523,0.002678,0.000431,0.000823
15115000,0.0324,0.013523,0.002678,0.000431,0.000940
15116000,0.0324,0.013523,0.002678,0.000431,0.000823
15117000,0.0324,0.013523,0.002678,0.000431,0.000940
15118000,0.0324,0.013523,0.002678,0.000431,0.000823
15119000,0.0324,0.013523,0.002678,0.000431,0.000940
15120000,0.0324,0.013523,0.002678,0.000431,0.000823
15121000,0.0324,0.013523,0.002678,0.000431,0.000823
15122000,0.0324,0.013523,0.002678,0.000431,0.000940
15123000,0.0324,0.013523,0.002678,0.000431,0.000940
15124000,0.0324,0.013523,0.002678,0.000431,0.000940
15125000,0.0324,0.013523,0.002678,0.000431,0.000705
15126000,0.0324,0.013523,0.002678,0.000431,0.000940
15127000,0.0324,0.013523,0.002678,0.000431,0.000940
15128000,0.0324,0.013523,0.002678,0.000431,0.000823
15129000,0.0324,0.013523,0.002678,0.000431,0.000823
15130000,0.0324,0.013523,0.002678,0.000431,0.000940
15131000,0.0324,0.013523,0.002678,0.000431,0.000823
15132000,0.0324,0.013523,0.002678,0.000431,0.000940
15133000,0.0324,0.013523,0.002678,0.000431,0.000823
15134000,0.0324,0.013523,0.002678,0.000431,0.000940
15135000,0.0324,0.013523,0.002678,0.000431,0.000823
15136000,0.0324,0.013523,0.002678,0.000431,0.000823
15137000,0.0324,0.013523,0.002678,0.000431,0.000940
15138000,0.0324,0.013523,0.002678,0.000431,0.000940
15139000,0.0324,0.013523,0.002678,0.000431,0.000823
15140000,0.0324,0.013523,0.002678,0.000431,0.000823
15141000,0.0324,0.013523,0.002678,0.000431,0.000940
15142000,0.0324,0.013523,0.002678,0.000431,0.000940
15143000,0.0324,0.013523,0.002678,0.000431,0.000705
15144000,0.0324,0.013523,0.002678,0.000431,0.000940
15145000,0.0324,0.013523,0.002678,0.000431,0.000940
15146000,0.0324,0.013523,0.002678,0.000431,0.000940
15147000,0.0324,0.013523,0.002678,0.000431,0.000823
15148000,0.0324,0.013523,0.002678,0.000431,0.000823
15149000,0.0324,0.013523,0.002678,0.000431,0.000940
15150000,0.0324,0.013523,0.002678,0.000431,0.000823
15151000,0.0324,0.013523,0.002678,0.000431,0.000940
15152000,0.0324,0.013523,0.002678,0.000431,0.000823
15153000,0.0324,0.013523,0.002678,0.000431,0.000940
15154000,0.0324,0.013523,0.002678,0.000431,0.000823
15155000,0.0324,0.013523,0.002678,0.000431,0.000823
15156000,0.0324,0.013523,0.002678,0.000431,0.000940
15157000,0.0324,0.013523,0.002678,0.000431,0.000940
15158000,0.0324,0.013523,0.002678,0.000431,0.000823
15159000,0.0324,0.013523,0.002678,0.000431,0.000823
15160000,0.0324,0.013523,0.002678,0.000431,0.000940
15161000,0.0324,0.013523,0.002678,0.000431,0.000940
15162000,0.0324,0.013523,0.002678,0.000431,0.000705
15163000,0.0324,0.013523,0.002678,0.000431,0.000940
15164000,0.0324,0.013523,0.002678,0.000431,0.000940
15165000,0.0324,0.013523,0.002678,0.000431,0.000940
15166000,0.0324,0.013523,0.002678,0.000431,0.000705
15167000,0.0324,0.013523,0.002678,0.000431,0.000940
15168000,0.0324,0.013523,0.002678,0.000431,0.000940
15169000,0.0324,0.013523,0.002678,0.000431,0.000823
15170000,0.0324,0.013523,0.002678,0.000431,0.000823
15171000,0.0324,0.013523,0.002678,0.000431,0.000940
15172000,0.0324,0.013523,0.002678,0.000431,0.000823
15173000,0.0324,0.013523,0.002678,0.000431,0.000940
15174000,0.0324,0.013523,0.002678,0.000431,0.000823
15175000,0.0324,0.013523,0.002678,0.000431,0.000940
15176000,0.0324,0.013523,0.002678,0.000431,0.000823
15177000,0.0324,0.013523,0.002678,0.000431,0.000823
15178000,0.0324,0.013523,0.002678,0.000431,0.000940
15179000,0.0324,0.013523,0.002678,0.000431,0.000940
15180000,0.0324,0.013523,0.002678,0.000431,0.000823
15181000,0.0324,0.013523,0.002678,0.000431,0.000823
15182000,0.0324,0.013523,0.002678,0.000431,0.000940
15183000,0.0324,0.013523,0.002678,0.000431,0.000940
15184000,0.0324,0.013523,0.002678,0.000431,0.000823
15185000,0.0324,0.013523,0.002678,0.000431,0.000823
15186000,0.0324,0.013523,0.002678,0.000431,0.000940
15187000,0.0324,0.013523,0.002678,0.000431,0.000940
15188000,0.0324,0.013523,0.002678,0.000431,0.000823
15189000,0.0324,0.013523,0.002678,0.000431,0.000823
15190000,0.0324,0.013523,0.002678,0.000431,0.000940
15191000,0.0324,0.013523,0.002678,0.000431,0.000823
15192000,0.0324,0.013523,0.002678,0.000431,0.000940
15193000,0.0324,0.013523,0.002678,0.000431,0.000823
15194000,0.0324,0.013523,0.002678,0.000431,0.000940
15195000,0.0324,0.013523,0.002678,0.000431,0.000823
15196000,0.0324,0.013523,0.002678,0.000431,0.000823
15197000,0.0324,0.013523,0.002678,0.000431,0.000940
15198000,0.0324,0.013523,0.002678,0.000431,0.000940
15199000,0.0324,0.013523,0.002678,0.000431,0.000823
15200000,0.0324,0.013523,0.002678,0.000431,0.000823
15201000,0.0324,0.013523,0.002678,0.000431,0.000940
15202000,0.0324,0.013523,0.002678,0.000431,0.000940
15203000,0.0324,0.013523,0.002678,0.000431,0.000705
15204000,0.0324,0.013523,0.002678,0.000431,0.000940
15205000,0.0324,0.013523,0.002678,0.000431,0.000940
15206000,0.0324,0.013523,0.002678,0.000431,0.000940
15207000,0.0324,0.013523,0.002678,0.000431,0.000823
15208000,0.0324,0.013523,0.002678,0.000431,0.000823
15209000,0.0324,0.013523,0.002678,0.000431,0.000940
15210000,0.0324,0.013523,0.002678,0.000431,0.000823
15211000,0.0324,0.013523,0.002678,0.000431,0.000940
15212000,0.0324,0.013523,0.002678,0.000431,0.000823
15213000,0.0324,0.013523,0.002678,0.000431,0.000940
15214000,0.0324,0.013523,0.002678,0.000431,0.000823
15215000,0.0324,0.013523,0.002678,0.000431,0.000823
15216000,0.0324,0.013523,0.002678,0.000431,0.000940
15217000,0.0324,0.013523,0.002678,0.000431,0.000940
15218000,0.0324,0.013523,0.002678,0.000431,0.000705
15219000,0.0324,0.013523,0.002678,0.000431,0.000940
15220000,0.0324,0.013523,0.002678,0.000431,0.000940
15221000,0.0324,0.013523,0.002678,0.000431,0.000940
15222000,0.0324,0.013523,0.002678,0.000431,0.000705
15223000,0.0324,0.013523,0.002678,0.000431,0.000940
15224000,0.0324,0.013523,0.002678,0.000431,0.000940
15225000,0.0324,0.013523,0.002678,0.000431,0.000823
15226000,0.0324,0.013523,0.002678,0.000431,0.000823
15227000,0.0324,0.013523,0.002678,0.000431,0.000940
15228000,0.0324,0.013523,0.002678,0.000431,0.000940
15229000,0.0324,0.013523,0.002678,0.000431,0.000823
15230000,0.0324,0.013523,0.002678,0.000431,0.000823
15231000,0.0324,0.013523,0.002678,0.000431,0.000940
15232000,0.0324,0.013523,0.002678,0.000431,0.000823
15233000,0.0324,0.013523,0.002678,0.000431,0.000940
15234000,0.0324,0.013523,0.002678,0.000431,0.000823
15235000,0.0324,0.013523,0.002678,0.000431,0.000940
15236000,0.0324,0.013523,0.002678,0.000431,0.000823
15237000,0.0324,0.013523,0.002678,0.000431,0.000823
15238000,0.0324,0.013523,0.002678,0.000431,0.000940
15239000,0.0324,0.013523,0.002678,0.000431,0.000940
15240000,0.0324,0.013523,0.002678,0.000431,0.000823
15241000,0.0324,0.013523,0.002678,0.000431,0.000823
15242000,0.0324,0.013523,0.002678,0.000431,0.000940
15243000,0.0324,0.013523,0.002678,0.000431,0.000940
15244000,0.0324,0.013523,0.002678,0.000431,0.000823
15245000,0.0324,0.013523,0.002678,0.000431,0.000823
15246000,0.0324,0.013523,0.002678,0.000431,0.000940
15247000,0.0324,0.013523,0.002678,0.000431,0.000940
15248000,0.0324,0.013523,0.002678,0.000431,0.000823
15249000,0.0324,0.013523,0.002678,0.000431,0.000823
15250000,0.0324,0.013523,0.002678,0.000431,0.000940
15251000,0.0324,0.013523,0.002678,0.000431,0.000823
15252000,0.0324,0.013523,0.002678,0.000431,0.000940
15253000,0.0324,0.013523,0.002678,0.000431,0.000823
15254000,0.0324,0.013523,0.002678,0.000431,0.000940
15255000,0.0324,0.013523,0.002678,0.000431,0.000823
15256000,0.0324,0.013523,0.002678,0.000431,0.000823
15257000,0.0324,0.013523,0.002678,0.000431,0.000940
15258000,0.0324,0.013523,0.002678,0.000431,0.000940
15259000,0.0324,0.013523,0.002678,0.000431,0.000823
15260000,0.0324,0.013523,0.002678,0.000431,0.000823
15261000,0.0324,0.013523,0.002678,0.000431,0.000940
15262000,0.0324,0.013523,0.002678,0.000431,0.000940
15263000,0.0324,0.013523,0.002678,0.000431,0.000705
15264000,0.0324,0.013523,0.002678,0.000431,0.000940
15265000,0.0324,0.013523,0.002678,0.000431,0.000940
15266000,0.0324,0.013523,0.002678,0.000431,0.000823
15267000,0.0324,0.013523,0.002678,0.000431,0.000940
15268000,0.0324,0.013523,0.002678,0.000431,0.000823
15269000,0.0324,0.013523,0.002678,0.000431,0.000940
15270000,0.0324,0.013523,0.002678,0.000431,0.000823
15271000,0.0324,0.013523,0.002678,0.000431,0.000823
15272000,0.0324,0.013523,0.002678,0.000431,0.000940
15273000,0.0324,0.013523,0.002678,0.000431,0.000823
15274000,0.0324,0.013523,0.002678,0.000431,0.000940
15275000,0.0324,0.013523,0.002678,0.000431,0.000823
15276000,0.0324,0.013523,0.002678,0.000431,0.000940
15277000,0.0324,0.013523,0.002678,0.000431,0.000940
15278000,0.0324,0.013523,0.002678,0.000431,0.000705
15279000,0.0324,0.013523,0.002678,0.000431,0.000940
15280000,0.0324,0.013523,0.002678,0.000431,0.000940
15281000,0.0324,0.013523,0.002678,0.000431,0.000940
15282000,0.0324,0.013523,0.002678,0.000431,0.000705
15283000,0.0324,0.013523,0.002678,0.000431,0.000940
15284000,0.0324,0.013523,0.002678,0.000431,0.000940
15285000,0.0324,0.013523,0.002678,0.000431,0.023388
15286000,0.0324,0.013523,0.002678,0.000431,0.437205
15287000,0.0324,0.013523,0.002678,0.000431,0.605153
15288000,0.0324,0.013523,0.002678,0.000431,0.131161
15289000,0.0324,0.013523,0.002678,0.000431,0.132454
15290000,0.0324,0.013523,0.002678,0.000431,0.410879
15291000,0.0324,0.013523,0.002678,0.000431,0.401476
15292000,0.0324,0.013523,0.002678,0.000431,0.244929
15293000,0.0324,0.013523,0.002678,0.000431,0.278894
15294000,0.0324,0.013523,0.002678,0.000431,0.184754
15295000,0.0324,0.013523,0.002678,0.000431,0.137508
15296000,0.0324,0.013523,0.002678,0.000431,0.164069
15297000,0.0324,0.013523,0.002678,0.000431,0.126813
15298000,0.0324,0.013523,0.002678,0.000431,0.444962
15299000,0.0324,0.013523,0.002678,0.000431,0.037021
15300000,0.0324,0.013523,0.002678,0.000431,0.025739
15301000,0.0324,0.013523,0.002678,0.000431,0.022683
15302000,0.0324,0.013523,0.002678,0.000431,0.019392
15303000,0.0324,0.013523,0.002678,0.000431,0.018805
15304000,0.0324,0.013523,0.002678,0.000431,0.018922
15305000,0.0324,0.013523,0.002678,0.000431,0.012811
15306000,0.0324,0.013523,0.002678,0.000431,0.011165
15307000,0.0324,0.013523,0.002678,0.000431,0.008227
15308000,0.0324,0.013523,0.002678,0.000431,0.010813
15309000,0.0324,0.013523,0.002678,0.000431,0.009755
15310000,0.0324,0.013523,0.002678,0.000431,0.005524
15311000,0.0324,0.013523,0.002678,0.000431,0.005524
15312000,0.0324,0.013523,0.002678,0.000431,0.005289
15313000,0.0324,0.013523,0.002678,0.000431,0.005994
15314000,0.0324,0.013523,0.002678,0.000431,0.005876
15315000,0.0324,0.013523,0.002678,0.000431,0.005171
15316000,0.0324,0.013523,0.002678,0.000431,0.005876
15317000,0.0324,0.013523,0.002678,0.000431,0.005406
15318000,0.0324,0.013523,0.002678,0.000431,0.005759
15319000,0.0324,0.013523,0.002678,0.000431,0.005524
15320000,0.0324,0.013523,0.002678,0.000431,0.005406
15321000,0.0324,0.013523,0.002678,0.000431,0.006111
15322000,0.0324,0.013523,0.002678,0.000431,0.005171
15323000,0.0324,0.013523,0.002678,0.000431,0.006111
15324000,0.0324,0.013523,0.002678,0.000431,0.005289
15325000,0.0324,0.013523,0.002678,0.000431,0.005524
15326000,0.0324,0.013523,0.002678,0.000431,0.005641
15327000,0.0324,0.013523,0.002678,0.000431,0.005524
15328000,0.0324,0.013523,0.002678,0.000431,0.006464
15329000,0.0324,0.013523,0.002678,0.000431,0.005054
15330000,0.0324,0.013523,0.002678,0.000431,0.004113
15331000,0.0324,0.013523,0.002678,0.000431,0.003878
15332000,0.0324,0.013523,0.002678,0.000431,0.003761
15333000,0.0324,0.013523,0.002678,0.000431,0.004231
15334000,0.0324,0.013523,0.002678,0.000431,0.003526
15335000,0.0324,0.013523,0.002678,0.000431,0.004349
15336000,0.0324,0.013523,0.002678,0.000431,0.004584
15337000,0.0324,0.013523,0.002678,0.000431,0.004113
15338000,0.0324,0.013523,0.002678,0.000431,0.003408
15339000,0.0324,0.013523,0.002678,0.000431,0.002703
15340000,0.0324,0.013523,0.002678,0.000431,0.003291
15341000,0.0324,0.013523,0.002678,0.000431,0.002938
15342000,0.0324,0.013523,0.002678,0.000431,0.003291
15343000,0.0324,0.013523,0.002678,0.000431,0.003173
15344000,0.0324,0.013523,0.002678,0.000431,0.003056
15345000,0.0324,0.013523,0.002678,0.000431,0.003996
15346000,0.0324,0.013523,0.002678,0.000431,0.003056
15347000,0.0324,0.013523,0.002678,0.000431,0.002468
15348000,0.0324,0.013523,0.002678,0.000431,0.002468
15349000,0.0324,0.013523,0.002678,0.000431,0.001880
15350000,0.0324,0.013523,0.002678,0.000431,0.002468
15351000,0.0324,0.013523,0.002678,0.000431,0.003996
15352000,0.0324,0.013523,0.002678,0.000431,0.001763
15353000,0.0324,0.013523,0.002678,0.000431,0.001058
15354000,0.0324,0.013523,0.002678,0.000431,0.001293
15355000,0.0324,0.013523,0.002678,0.000431,0.001763
15356000,0.0324,0.013523,0.002678,0.000431,0.001058
15357000,0.0324,0.013523,0.002678,0.000431,0.001410
15358000,0.0324,0.013523,0.002678,0.000431,0.001293
15359000,0.0324,0.013523,0.002678,0.000431,0.001528
15360000,0.0324,0.013523,0.002678,0.000431,0.001410
15361000,0.0324,0.013523,0.002678,0.000431,0.000823
15362000,0.0324,0.013523,0.002678,0.000431,0.010342
15363000,0.0324,0.013523,0.002678,0.000431,0.429213
15364000,0.0324,0.013523,0.002678,0.000431,0.614790
15365000,0.0324,0.013523,0.002678,0.000431,0.133512
15366000,0.0324,0.013523,0.002678,0.000431,0.131161
15367000,0.0324,0.013523,0.002678,0.000431,0.157958
15368000,0.0324,0.013523,0.002678,0.000431,0.573655
15369000,0.0324,0.013523,0.002678,0.000431,0.249160
15370000,0.0324,0.013523,0.002678,0.000431,0.252098
15371000,0.0324,0.013523,0.002678,0.000431,0.248455
15372000,0.0324,0.013523,0.002678,0.000431,0.144677
15373000,0.0324,0.013523,0.002678,0.000431,0.148673
15374000,0.0324,0.013523,0.002678,0.000431,0.107303
15375000,0.0324,0.013523,0.002678,0.000431,0.425217
15376000,0.0324,0.013523,0.002678,0.000431,0.151259
15377000,0.0324,0.013523,0.002678,0.000431,0.028442
15378000,0.0324,0.013523,0.002678,0.000431,0.022213
15379000,0.0324,0.013523,0.002678,0.000431,0.020567
15380000,0.0324,0.013523,0.002678,0.000431,0.016807
15381000,0.0324,0.013523,0.002678,0.000431,0.016571
15382000,0.0324,0.013523,0.002678,0.000431,0.012105
15383000,0.0324,0.013523,0.002678,0.000431,0.013868
15384000,0.0324,0.013523,0.002678,0.000431,0.008345
15385000,0.0324,0.013523,0.002678,0.000431,0.009872
15386000,0.0324,0.013523,0.002678,0.000431,0.007874
15387000,0.0324,0.013523,0.002678,0.000431,0.010342
15388000,0.0324,0.013523,0.002678,0.000431,0.006464
15389000,0.0324,0.013523,0.002678,0.000431,0.006934
15390000,0.0324,0.013523,0.002678,0.000431,0.004113
15391000,0.0324,0.013523,0.002678,0.000431,0.003878
15392000,0.0324,0.013523,0.002678,0.000431,0.003996
15393000,0.0324,0.013523,0.002678,0.000431,0.004584
15394000,0.0324,0.013523,0.002678,0.000431,0.003878
15395000,0.0324,0.013523,0.002678,0.000431,0.003996
15396000,0.0324,0.013523,0.002678,0.000431,0.004349
15397000,0.0324,0.013523,0.002678,0.000431,0.004113
15398000,0.0324,0.013523,0.002678,0.000431,0.003996
15399000,0.0324,0.013523,0.002678,0.000431,0.004349
15400000,0.0324,0.013523,0.002678,0.000431,0.004349
15401000,0.0324,0.013523,0.002678,0.000431,0.004113
15402000,0.0324,0.013523,0.002678,0.000431,0.003643
15403000,0.0324,0.013523,0.002678,0.000431,0.004466
15404000,0.0324,0.013523,0.002678,0.000431,0.004231
15405000,0.0324,0.013523,0.002678,0.000431,0.003996
15406000,0.0324,0.013523,0.002678,0.000431,0.003996
15407000,0.0324,0.013523,0.002678,0.000431,0.004231
15408000,0.0324,0.013523,0.002678,0.000431,0.004113
15409000,0.0324,0.013523,0.002678,0.000431,0.003761
15410000,0.0324,0.013523,0.002678,0.000431,0.003291
15411000,0.0324,0.013523,0.002678,0.000431,0.003643
15412000,0.0324,0.013523,0.002678,0.000431,0.003173
15413000,0.0324,0.013523,0.002678,0.000431,0.003291
15414000,0.0324,0.013523,0.002678,0.000431,0.003526
15415000,0.0324,0.013523,0.002678,0.000431,0.003526
15416000,0.0324,0.013523,0.002678,0.000431,0.003173
15417000,0.0324,0.013523,0.002678,0.000431,0.003408
15418000,0.0324,0.013523,0.002678,0.000431,0.003761
15419000,0.0324,0.013523,0.002678,0.000431,0.003291
15420000,0.0324,0.013523,0.002678,0.000431,0.003056
15421000,0.0324,0.013523,0.002678,0.000431,0.003526
15422000,0.0324,0.013523,0.002678,0.000431,0.003643
15423000,0.0324,0.013523,0.002678,0.000431,0.003408
15424000,0.0324,0.013523,0.002678,0.000431,0.003056
15425000,0.0324,0.013523,0.002678,0.000431,0.003761
15426000,0.0324,0.013523,0.002678,0.000431,0.005171
15427000,0.0324,0.013523,0.002678,0.000431,0.001763
15428000,0.0324,0.013523,0.002678,0.000431,0.001763
15429000,0.0324,0.013523,0.002678,0.000431,0.001645
15430000,0.0324,0.013523,0.002678,0.000431,0.001880
15431000,0.0324,0.013523,0.002678,0.000431,0.001763
15432000,0.0324,0.013523,0.002678,0.000431,0.001528
15433000,0.0324,0.013523,0.002678,0.000431,0.001880
15434000,0.0324,0.013523,0.002678,0.000431,0.001763
15435000,0.0324,0.013523,0.002678,0.000431,0.001645
15436000,0.0324,0.013523,0.002678,0.000431,0.001880
15437000,0.0324,0.013523,0.002678,0.000431,0.001763
15438000,0.0324,0.013523,0.002678,0.000431,0.002703
15439000,0.0324,0.013523,0.002678,0.000431,0.001998
15440000,0.0324,0.013523,0.002678,0.000431,0.000823
15441000,0.0324,0.013523,0.002678,0.000431,0.000940
15442000,0.0324,0.013523,0.002678,0.000431,0.000940
15443000,0.0324,0.013523,0.002678,0.000431,0.000823
15444000,0.0324,0.013523,0.002678,0.000431,0.000823
15445000,0.0324,0.013523,0.002678,0.000431,0.000940
15446000,0.0324,0.013523,0.002678,0.000431,0.000940
15447000,0.0324,0.013523,0.002678,0.000431,0.000705
15448000,0.0324,0.013523,0.002678,0.000431,0.000940
15449000,0.0324,0.013523,0.002678,0.000431,0.000940
15450000,0.0324,0.013523,0.002678,0.000431,0.000940
15451000,0.0324,0.013523,0.002678,0.000431,0.000705
15452000,0.0324,0.013523,0.002678,0.000431,0.000940
15453000,0.0324,0.013523,0.002678,0.000431,0.000940
15454000,0.0324,0.013523,0.002678,0.000431,0.000823
15455000,0.0324,0.013523,0.002678,0.000431,0.000823
15456000,0.0324,0.013523,0.002678,0.000431,0.000940
15457000,0.0324,0.013523,0.002678,0.000431,0.003526
15458000,0.0324,0.013523,0.002678,0.000431,0.414639
15459000,0.0324,0.013523,0.002678,0.000431,0.638296
15460000,0.0324,0.013523,0.002678,0.000431,0.132337
15461000,0.0324,0.013523,0.002678,0.000431,0.133277
15462000,0.0324,0.013523,0.002678,0.000431,0.189103
15463000,0.0324,0.013523,0.002678,0.000431,0.627718
15464000,0.0324,0.013523,0.002678,0.000431,0.243166
15465000,0.0324,0.013523,0.002678,0.000431,0.308864
15466000,0.0324,0.013523,0.002678,0.000431,0.193451
15467000,0.0324,0.013523,0.002678,0.000431,0.136450
15468000,0.0324,0.013523,0.002678,0.000431,0.143619
15469000,0.0324,0.013523,0.002678,0.000431,0.215664
15470000,0.0324,0.013523,0.002678,0.000431,0.387490
15471000,0.0324,0.013523,0.002678,0.000431,0.072867
15472000,0.0324,0.013523,0.002678,0.000431,0.058882
15473000,0.0324,0.013523,0.002678,0.000431,0.049832
15474000,0.0324,0.013523,0.002678,0.000431,0.044308
15475000,0.0324,0.013523,0.002678,0.000431,0.041252
15476000,0.0324,0.013523,0.002678,0.000431,0.037021
15477000,0.0324,0.013523,0.002678,0.000431,0.030792
15478000,0.0324,0.013523,0.002678,0.000431,0.028677
15479000,0.0324,0.013523,0.002678,0.000431,0.025034
15480000,0.0324,0.013523,0.002678,0.000431,0.022683
15481000,0.0324,0.013523,0.002678,0.000431,0.020450
15482000,0.0324,0.013523,0.002678,0.000431,0.016924
15483000,0.0324,0.013523,0.002678,0.000431,0.018687
15484000,0.0324,0.013523,0.002678,0.000431,0.012105
15485000,0.0324,0.013523,0.002678,0.000431,0.011753
15486000,0.0324,0.013523,0.002678,0.000431,0.014691
15487000,0.0324,0.013523,0.002678,0.000431,0.012576
15488000,0.0324,0.013523,0.002678,0.000431,0.006699
15489000,0.0324,0.013523,0.002678,0.000431,0.007992
15490000,0.0324,0.013523,0.002678,0.000431,0.004701
15491000,0.0324,0.013523,0.002678,0.000431,0.004349
15492000,0.0324,0.013523,0.002678,0.000431,0.004936
15493000,0.0324,0.013523,0.002678,0.000431,0.004936
15494000,0.0324,0.013523,0.002678,0.000431,0.002586
15495000,0.0324,0.013523,0.002678,0.000431,0.002586
15496000,0.0324,0.013523,0.002678,0.000431,0.003526
15497000,0.0324,0.013523,0.002678,0.000431,0.002586
15498000,0.0324,0.013523,0.002678,0.000431,0.001763
15499000,0.0324,0.013523,0.002678,0.000431,0.001763
15500000,0.0324,0.013523,0.002678,0.000431,0.001645
15501000,0.0324,0.013523,0.002678,0.000431,0.001763
15502000,0.0324,0.013523,0.002678,0.000431,0.001763
15503000,0.0324,0.013523,0.002678,0.000431,0.001763
15504000,0.0324,0.013523,0.002678,0.000431,0.001763
15505000,0.0324,0.013523,0.002678,0.000431,0.001645
15506000,0.0324,0.013523,0.002678,0.000431,0.001880
15507000,0.0324,0.013523,0.002678,0.000431,0.001645
15508000,0.0324,0.013523,0.002678,0.000431,0.001880
15509000,0.0324,0.013523,0.002678,0.000431,0.003878
15510000,0.0324,0.013523,0.002678,0.000431,0.000940
15511000,0.0324,0.013523,0.002678,0.000431,0.000823
15512000,0.0324,0.013523,0.002678,0.000431,0.000823
15513000,0.0324,0.013523,0.002678,0.000431,0.000940
15514000,0.0324,0.013523,0.002678,0.000431,0.000823
15515000,0.0324,0.013523,0.002678,0.000431,0.000940
15516000,0.0324,0.013523,0.002678,0.000431,0.000823
15517000,0.0324,0.013523,0.002678,0.000431,0.000940
15518000,0.0324,0.013523,0.002678,0.000431,0.000823
15519000,0.0324,0.013523,0.002678,0.000431,0.000823
15520000,0.0324,0.013523,0.002678,0.000431,0.000940
15521000,0.0324,0.013523,0.002678,0.000431,0.000940
15522000,0.0324,0.013523,0.002678,0.000431,0.000705
15523000,0.0324,0.013523,0.002678,0.000431,0.000940
15524000,0.0324,0.013523,0.002678,0.000431,0.000940
15525000,0.0324,0.013523,0.002678,0.000431,0.000940
15526000,0.0324,0.013523,0.002678,0.000431,0.000705
15527000,0.0324,0.013523,0.002678,0.000431,0.000940
15528000,0.0324,0.013523,0.002678,0.000431,0.000940
15529000,0.0324,0.013523,0.002678,0.000431,0.000823
15530000,0.0324,0.013523,0.002678,0.000431,0.000823
15531000,0.0324,0.013523,0.002678,0.000431,0.000940
15532000,0.0324,0.013523,0.002678,0.000431,0.000940
15533000,0.0324,0.013523,0.002678,0.000431,0.000823
15534000,0.0324,0.013523,0.002678,0.000431,0.000823
15535000,0.0324,0.013523,0.002678,0.000431,0.000940
15536000,0.0324,0.013523,0.002678,0.000431,0.000823
15537000,0.0324,0.013523,0.002678,0.000431,0.000940
15538000,0.0324,0.013523,0.002678,0.000431,0.000823
15539000,0.0324,0.013523,0.002678,0.000431,0.000940
15540000,0.0324,0.013523,0.002678,0.000431,0.000823
15541000,0.0324,0.013523,0.002678,0.000431,0.000823
15542000,0.0324,0.013523,0.002678,0.000431,0.000940
15543000,0.0324,0.013523,0.002678,0.000431,0.013868
15544000,0.0324,0.013523,0.002678,0.000431,0.481513
15545000,0.0324,0.013523,0.002678,0.000431,0.600687
15546000,0.0324,0.013523,0.002678,0.000431,0.134452
15547000,0.0324,0.013523,0.002678,0.000431,0.132102
15548000,0.0324,0.013523,0.002678,0.000431,0.251628
15549000,0.0324,0.013523,0.002678,0.000431,0.500317
15550000,0.0324,0.013523,0.002678,0.000431,0.256329
15551000,0.0324,0.013523,0.002678,0.000431,0.324965
15552000,0.0324,0.013523,0.002678,0.000431,0.198505
15553000,0.0324,0.013523,0.002678,0.000431,0.138213
15554000,0.0324,0.013523,0.002678,0.000431,0.138448
15555000,0.0324,0.013523,0.002678,0.000431,0.241991
15556000,0.0324,0.013523,0.002678,0.000431,0.357991
15557000,0.0324,0.013523,0.002678,0.000431,0.035258
15558000,0.0324,0.013523,0.002678,0.000431,0.025151
15559000,0.0324,0.013523,0.002678,0.000431,0.028912
15560000,0.0324,0.013523,0.002678,0.000431,0.018217
15561000,0.0324,0.013523,0.002678,0.000431,0.017159
15562000,0.0324,0.013523,0.002678,0.000431,0.016336
15563000,0.0324,0.013523,0.002678,0.000431,0.011048
15564000,0.0324,0.013523,0.002678,0.000431,0.008462
15565000,0.0324,0.013523,0.002678,0.000431,0.011400
15566000,0.0324,0.013523,0.002678,0.000431,0.007169
15567000,0.0324,0.013523,0.002678,0.000431,0.006111
15568000,0.0324,0.013523,0.002678,0.000431,0.007404
15569000,0.0324,0.013523,0.002678,0.000431,0.004113
15570000,0.0324,0.013523,0.002678,0.000431,0.004584
15571000,0.0324,0.013523,0.002678,0.000431,0.004349
15572000,0.0324,0.013523,0.002678,0.000431,0.004113
15573000,0.0324,0.013523,0.002678,0.000431,0.005406
15574000,0.0324,0.013523,0.002678,0.000431,0.005876
15575000,0.0324,0.013523,0.002678,0.000431,0.003761
15576000,0.0324,0.013523,0.002678,0.000431,0.002586
15577000,0.0324,0.013523,0.002678,0.000431,0.003408
15578000,0.0324,0.013523,0.002678,0.000431,0.002938
15579000,0.0324,0.013523,0.002678,0.000431,0.001645
15580000,0.0324,0.013523,0.002678,0.000431,0.001645
15581000,0.0324,0.013523,0.002678,0.000431,0.003408
15582000,0.0324,0.013523,0.002678,0.000431,0.000940
15583000,0.0324,0.013523,0.002678,0.000431,0.000823
15584000,0.0324,0.013523,0.002678,0.000431,0.001763
15585000,0.0324,0.013523,0.002678,0.000431,0.358931
15586000,0.0324,0.013523,0.002678,0.000431,0.681899
15587000,0.0324,0.013523,0.002678,0.000431,0.137155
15588000,0.0324,0.013523,0.002678,0.000431,0.134452
15589000,0.0324,0.013523,0.002678,0.000431,0.137978
15590000,0.0324,0.013523,0.002678,0.000431,0.581294
15591000,0.0324,0.013523,0.002678,0.000431,0.246339
15592000,0.0324,0.013523,0.002678,0.000431,0.241638
15593000,0.0324,0.013523,0.002678,0.000431,0.250335
15594000,0.0324,0.013523,0.002678,0.000431,0.149378
15595000,0.0324,0.013523,0.002678,0.000431,0.157723
15596000,0.0324,0.013523,0.002678,0.000431,0.101662
15597000,0.0324,0.013523,0.002678,0.000431,0.446725
15598000,0.0324,0.013523,0.002678,0.000431,0.150671
15599000,0.0324,0.013523,0.002678,0.000431,0.046424
15600000,0.0324,0.013523,0.002678,0.000431,0.043720
15601000,0.0324,0.013523,0.002678,0.000431,0.033496
15602000,0.0324,0.013523,0.002678,0.000431,0.025151
15603000,0.0324,0.013523,0.002678,0.000431,0.024093
15604000,0.0324,0.013523,0.002678,0.000431,0.021625
15605000,0.0324,0.013523,0.002678,0.000431,0.019392
15606000,0.0324,0.013523,0.002678,0.000431,0.019980
15607000,0.0324,0.013523,0.002678,0.000431,0.016454
15608000,0.0324,0.013523,0.002678,0.000431,0.015631
15609000,0.0324,0.013523,0.002678,0.000431,0.012576
15610000,0.0324,0.013523,0.002678,0.000431,0.011283
15611000,0.0324,0.013523,0.002678,0.000431,0.007874
15612000,0.0324,0.013523,0.002678,0.000431,0.007522
15613000,0.0324,0.013523,0.002678,0.000431,0.009520
15614000,0.0324,0.013523,0.002678,0.000431,0.006229
15615000,0.0324,0.013523,0.002678,0.000431,0.005524
15616000,0.0324,0.013523,0.002678,0.000431,0.004819
15617000,0.0324,0.013523,0.002678,0.000431,0.004936
15618000,0.0324,0.013523,0.002678,0.000431,0.006582
15619000,0.0324,0.013523,0.002678,0.000431,0.001645
15620000,0.0324,0.013523,0.002678,0.000431,0.001645
15621000,0.0324,0.013523,0.002678,0.000431,0.001763
15622000,0.0324,0.013523,0.002678,0.000431,0.001763
15623000,0.0324,0.013523,0.002678,0.000431,0.001645
15624000,0.0324,0.013523,0.002678,0.000431,0.001880
15625000,0.0324,0.013523,0.002678,0.000431,0.001528
15626000,0.0324,0.013523,0.002678,0.000431,0.001763
15627000,0.0324,0.013523,0.002678,0.000431,0.001763
15628000,0.0324,0.013523,0.002678,0.000431,0.001763
15629000,0.0324,0.013523,0.002678,0.000431,0.001528
15630000,0.0324,0.013523,0.002678,0.000431,0.002703
15631000,0.0324,0.013523,0.002678,0.000431,0.001880
15632000,0.0324,0.013523,0.002678,0.000431,0.013868
15633000,0.0324,0.013523,0.002678,0.000431,0.526409
15634000,0.0324,0.013523,0.002678,0.000431,0.588111
15635000,0.0324,0.013523,0.002678,0.000431,0.131632
15636000,0.0324,0.013523,0.002678,0.000431,0.134452
15637000,0.0324,0.013523,0.002678,0.000431,0.489505
15638000,0.0324,0.013523,0.002678,0.000431,0.264791
15639000,0.0324,0.013523,0.002678,0.000431,0.242343
15640000,0.0324,0.013523,0.002678,0.000431,0.345650
15641000,0.0324,0.013523,0.002678,0.000431,0.158546
15642000,0.0324,0.013523,0.002678,0.000431,0.139741
15643000,0.0324,0.013523,0.002678,0.000431,0.129751
15644000,0.0324,0.013523,0.002678,0.000431,0.298757
15645000,0.0324,0.013523,0.002678,0.000431,0.304751
15646000,0.0324,0.013523,0.002678,0.000431,0.039372
15647000,0.0324,0.013523,0.002678,0.000431,0.035023
15648000,0.0324,0.013523,0.002678,0.000431,0.030792
15649000,0.0324,0.013523,0.002678,0.000431,0.029029
15650000,0.0324,0.013523,0.002678,0.000431,0.029852
15651000,0.0324,0.013523,0.002678,0.000431,0.021273
15652000,0.0324,0.013523,0.002678,0.000431,0.020685
15653000,0.0324,0.013523,0.002678,0.000431,0.016219
15654000,0.0324,0.013523,0.002678,0.000431,0.014456
15655000,0.0324,0.013523,0.002678,0.000431,0.019157
15656000,0.0324,0.013523,0.002678,0.000431,0.010225
15657000,0.0324,0.013523,0.002678,0.000431,0.010813
15658000,0.0324,0.013523,0.002678,0.000431,0.010578
15659000,0.0324,0.013523,0.002678,0.000431,0.009050
15660000,0.0324,0.013523,0.002678,0.000431,0.007404
15661000,0.0324,0.013523,0.002678,0.000431,0.007639
15662000,0.0324,0.013523,0.002678,0.000431,0.007522
15663000,0.0324,0.013523,0.002678,0.000431,0.007874
15664000,0.0324,0.013523,0.002678,0.000431,0.010578
15665000,0.0324,0.013523,0.002678,0.000431,0.006464
15666000,0.0324,0.013523,0.002678,0.000431,0.005994
15667000,0.0324,0.013523,0.002678,0.000431,0.006229
15668000,0.0324,0.013523,0.002678,0.000431,0.008697
15669000,0.0324,0.013523,0.002678,0.000431,0.005054
15670000,0.0324,0.013523,0.002678,0.000431,0.006229
15671000,0.0324,0.013523,0.002678,0.000431,0.005876
15672000,0.0324,0.013523,0.002678,0.000431,0.003408
15673000,0.0324,0.013523,0.002678,0.000431,0.003526
15674000,0.0324,0.013523,0.002678,0.000431,0.005171
15675000,0.0324,0.013523,0.002678,0.000431,0.002821
15676000,0.0324,0.013523,0.002678,0.000431,0.003996
15677000,0.0324,0.013523,0.002678,0.000431,0.001763
15678000,0.0324,0.013523,0.002678,0.000431,0.001880
15679000,0.0324,0.013523,0.002678,0.000431,0.001880
15680000,0.0324,0.013523,0.002678,0.000431,0.001645
15681000,0.0324,0.013523,0.002678,0.000431,0.001880
15682000,0.0324,0.013523,0.002678,0.000431,0.003408
15683000,0.0324,0.013523,0.002678,0.000431,0.000940
15684000,0.0324,0.013523,0.002678,0.000431,0.000823
15685000,0.0324,0.013523,0.002678,0.000431,0.000823
15686000,0.0324,0.013523,0.002678,0.000431,0.000940
15687000,0.0324,0.013523,0.002678,0.000431,0.000940
15688000,0.0324,0.013523,0.002678,0.000431,0.000823
15689000,0.0324,0.013523,0.002678,0.000431,0.000823
15690000,0.0324,0.013523,0.002678,0.000431,0.000940
15691000,0.0324,0.013523,0.002678,0.000431,0.000823
15692000,0.0324,0.013523,0.002678,0.000431,0.000940
15693000,0.0324,0.013523,0.002678,0.000431,0.000823
15694000,0.0324,0.013523,0.002678,0.000431,0.000940
15695000,0.0324,0.013523,0.002678,0.000431,0.000823
15696000,0.0324,0.013523,0.002678,0.000431,0.000823
15697000,0.0324,0.013523,0.002678,0.000431,0.000940
15698000,0.0324,0.013523,0.002678,0.000431,0.000940
15699000,0.0324,0.013523,0.002678,0.000431,0.000823
15700000,0.0324,0.013523,0.002678,0.000431,0.000823
15701000,0.0324,0.013523,0.002678,0.000431,0.000940
15702000,0.0324,0.013523,0.002678,0.000431,0.000940
15703000,0.0324,0.013523,0.002678,0.000431,0.000705
15704000,0.0324,0.013523,0.002678,0.000431,0.000940
15705000,0.0324,0.013523,0.002678,0.000431,0.000940
15706000,0.0324,0.013523,0.002678,0.000431,0.000823
15707000,0.0324,0.013523,0.002678,0.000431,0.000823
15708000,0.0324,0.013523,0.002678,0.000431,0.000940
15709000,0.0324,0.013523,0.002678,0.000431,0.000940
15710000,0.0324,0.013523,0.002678,0.000431,0.000823
15711000,0.0324,0.013523,0.002678,0.000431,0.000823
15712000,0.0324,0.013523,0.002678,0.000431,0.000940
15713000,0.0324,0.013523,0.002678,0.000431,0.000823
15714000,0.0324,0.013523,0.002678,0.000431,0.000940
15715000,0.0324,0.013523,0.002678,0.000431,0.000823
15716000,0.0324,0.013523,0.002678,0.000431,0.000940
15717000,0.0324,0.013523,0.002678,0.000431,0.000940
15718000,0.0324,0.013523,0.002678,0.000431,0.000705
15719000,0.0324,0.013523,0.002678,0.000431,0.000940
15720000,0.0324,0.013523,0.002678,0.000431,0.000940
15721000,0.0324,0.013523,0.002678,0.000431,0.000940
15722000,0.0324,0.013523,0.002678,0.000431,0.000705
15723000,0.0324,0.013523,0.002678,0.000431,0.000940
15724000,0.0324,0.013523,0.002678,0.000431,0.000940
15725000,0.0324,0.013523,0.002678,0.000431,0.000823
15726000,0.0324,0.013523,0.002678,0.000431,0.000823
15727000,0.0324,0.013523,0.002678,0.000431,0.000940
15728000,0.0324,0.013523,0.002678,0.000431,0.000940
15729000,0.0324,0.013523,0.002678,0.000431,0.000823
15730000,0.0324,0.013523,0.002678,0.000431,0.000823
15731000,0.0324,0.013523,0.002678,0.000431,0.000940
15732000,0.0324,0.013523,0.002678,0.000431,0.001763
15733000,0.0324,0.013523,0.002678,0.000431,0.260795
15734000,0.0324,0.013523,0.002678,0.000431,0.643114
15735000,0.0324,0.013523,0.002678,0.000431,0.273018
15736000,0.0324,0.013523,0.002678,0.000431,0.133042
15737000,0.0324,0.013523,0.002678,0.000431,0.133042
15738000,0.0324,0.013523,0.002678,0.000431,0.605035
15739000,0.0324,0.013523,0.002678,0.000431,0.260560
15740000,0.0324,0.013523,0.002678,0.000431,0.237407
15741000,0.0324,0.013523,0.002678,0.000431,0.258327
15742000,0.0324,0.013523,0.002678,0.000431,0.149261
15743000,0.0324,0.013523,0.002678,0.000431,0.175470
15744000,0.0324,0.013523,0.002678,0.000431,0.092730
15745000,0.0324,0.013523,0.002678,0.000431,0.459183
15746000,0.0324,0.013523,0.002678,0.000431,0.076276
15747000,0.0324,0.013523,0.002678,0.000431,0.029617
15748000,0.0324,0.013523,0.002678,0.000431,0.028442
15749000,0.0324,0.013523,0.002678,0.000431,0.026796
15750000,0.0324,0.013523,0.002678,0.000431,0.020332
15751000,0.0324,0.013523,0.002678,0.000431,0.018099
15752000,0.0324,0.013523,0.002678,0.000431,0.012223
15753000,0.0324,0.013523,0.002678,0.000431,0.010460
15754000,0.0324,0.013523,0.002678,0.000431,0.009872
15755000,0.0324,0.013523,0.002678,0.000431,0.011048
15756000,0.0324,0.013523,0.002678,0.000431,0.007992
15757000,0.0324,0.013523,0.002678,0.000431,0.003056
15758000,0.0324,0.013523,0.002678,0.000431,0.004466
15759000,0.0324,0.013523,0.002678,0.000431,0.003408
15760000,0.0324,0.013523,0.002678,0.000431,0.000940
15761000,0.0324,0.013523,0.002678,0.000431,0.000823
15762000,0.0324,0.013523,0.002678,0.000431,0.000940
15763000,0.0324,0.013523,0.002678,0.000431,0.000823
15764000,0.0324,0.013523,0.002678,0.000431,0.000823
15765000,0.0324,0.013523,0.002678,0.000431,0.000940
15766000,0.0324,0.013523,0.002678,0.000431,0.064758
15767000,0.0324,0.013523,0.002678,0.000431,0.414639
15768000,0.0324,0.013523,0.002678,0.000431,0.605858
15769000,0.0324,0.013523,0.002678,0.000431,0.130691
15770000,0.0324,0.013523,0.002678,0.000431,0.134922
15771000,0.0324,0.013523,0.002678,0.000431,0.506429
15772000,0.0324,0.013523,0.002678,0.000431,0.330019
15773000,0.0324,0.013523,0.002678,0.000431,0.235174
15774000,0.0324,0.013523,0.002678,0.000431,0.289119
15775000,0.0324,0.013523,0.002678,0.000431,0.139976
15776000,0.0324,0.013523,0.002678,0.000431,0.143149
15777000,0.0324,0.013523,0.002678,0.000431,0.157135
15778000,0.0324,0.013523,0.002678,0.000431,0.154902
15779000,0.0324,0.013523,0.002678,0.000431,0.438498
15780000,0.0324,0.013523,0.002678,0.000431,0.059587
15781000,0.0324,0.013523,0.002678,0.000431,0.049832
15782000,0.0324,0.013523,0.002678,0.000431,0.043485
15783000,0.0324,0.013523,0.002678,0.000431,0.043250
15784000,0.0324,0.013523,0.002678,0.000431,0.034553
15785000,0.0324,0.013523,0.002678,0.000431,0.037374
15786000,0.0324,0.013523,0.002678,0.000431,0.030792
15787000,0.0324,0.013523,0.002678,0.000431,0.032085
15788000,0.0324,0.013523,0.002678,0.000431,0.031380
15789000,0.0324,0.013523,0.002678,0.000431,0.024563
15790000,0.0324,0.013523,0.002678,0.000431,0.022800
15791000,0.0324,0.013523,0.002678,0.000431,0.019392
15792000,0.0324,0.013523,0.002678,0.000431,0.015514
15793000,0.0324,0.013523,0.002678,0.000431,0.015866
15794000,0.0324,0.013523,0.002678,0.000431,0.015514
15795000,0.0324,0.013523,0.002678,0.000431,0.010107
15796000,0.0324,0.013523,0.002678,0.000431,0.009167
15797000,0.0324,0.013523,0.002678,0.000431,0.007992
15798000,0.0324,0.013523,0.002678,0.000431,0.008227
15799000,0.0324,0.013523,0.002678,0.000431,0.008109
15800000,0.0324,0.013523,0.002678,0.000431,0.009050
15801000,0.0324,0.013523,0.002678,0.000431,0.008932
15802000,0.0324,0.013523,0.002678,0.000431,0.005641
15803000,0.0324,0.013523,0.002678,0.000431,0.005054
15804000,0.0324,0.013523,0.002678,0.000431,0.005876
15805000,0.0324,0.013523,0.002678,0.000431,0.005289
15806000,0.0324,0.013523,0.002678,0.000431,0.005641
15807000,0.0324,0.013523,0.002678,0.000431,0.005641
15808000,0.0324,0.013523,0.002678,0.000431,0.005524
15809000,0.0324,0.013523,0.002678,0.000431,0.005994
15810000,0.0324,0.013523,0.002678,0.000431,0.004936
15811000,0.0324,0.013523,0.002678,0.000431,0.004819
15812000,0.0324,0.013523,0.002678,0.000431,0.005054
15813000,0.0324,0.013523,0.002678,0.000431,0.004819
15814000,0.0324,0.013523,0.002678,0.000431,0.006229
15815000,0.0324,0.013523,0.002678,0.000431,0.003291
15816000,0.0324,0.013523,0.002678,0.000431,0.003761
15817000,0.0324,0.013523,0.002678,0.000431,0.003173
15818000,0.0324,0.013523,0.002678,0.000431,0.003291
15819000,0.0324,0.013523,0.002678,0.000431,0.004349
15820000,0.0324,0.013523,0.002678,0.000431,0.001880
15821000,0.0324,0.013523,0.002678,0.000431,0.001763
15822000,0.0324,0.013523,0.002678,0.000431,0.001645
15823000,0.0324,0.013523,0.002678,0.000431,0.002821
15824000,0.0324,0.013523,0.002678,0.000431,0.000940
15825000,0.0324,0.013523,0.002678,0.000431,0.000940
15826000,0.0324,0.013523,0.002678,0.000431,0.000823
15827000,0.0324,0.013523,0.002678,0.000431,0.000705
15828000,0.0324,0.013523,0.002678,0.000431,0.000940
15829000,0.0324,0.013523,0.002678,0.000431,0.000823
15830000,0.0324,0.013523,0.002678,0.000431,0.000823
15831000,0.0324,0.013523,0.002678,0.000431,0.000823
15832000,0.0324,0.013523,0.002678,0.000431,0.000823
15833000,0.0324,0.013523,0.002678,0.000431,0.000823
15834000,0.0324,0.013523,0.002678,0.000431,0.000940
15835000,0.0324,0.013523,0.002678,0.000431,0.000823
15836000,0.0324,0.013523,0.002678,0.000431,0.000823
15837000,0.0324,0.013523,0.002678,0.000431,0.000940
15838000,0.0324,0.013523,0.002678,0.000431,0.000823
15839000,0.0324,0.013523,0.002678,0.000431,0.000823
15840000,0.0324,0.013523,0.002678,0.000431,0.000940
15841000,0.0324,0.013523,0.002678,0.000431,0.000940
15842000,0.0324,0.013523,0.002678,0.000431,0.000823
15843000,0.0324,0.013523,0.002678,0.000431,0.000823
15844000,0.0324,0.013523,0.002678,0.000431,0.000940
15845000,0.0324,0.013523,0.002678,0.000431,0.000940
15846000,0.0324,0.013523,0.002678,0.000431,0.000705
15847000,0.0324,0.013523,0.002678,0.000431,0.000940
15848000,0.0324,0.013523,0.002678,0.000431,0.000940
15849000,0.0324,0.013523,0.002678,0.000431,0.000823
15850000,0.0324,0.013523,0.002678,0.000431,0.000940
15851000,0.0324,0.013523,0.002678,0.000431,0.000823
15852000,0.0324,0.013523,0.002678,0.000431,0.000940
15853000,0.0324,0.013523,0.002678,0.000431,0.000823
15854000,0.0324,0.013523,0.002678,0.000431,0.000823
15855000,0.0324,0.013523,0.002678,0.000431,0.000940
15856000,0.0324,0.013523,0.002678,0.000431,0.000823
15857000,0.0324,0.013523,0.002678,0.000431,0.000940
15858000,0.0324,0.013523,0.002678,0.000431,0.000823
15859000,0.0324,0.013523,0.002678,0.000431,0.000940
15860000,0.0324,0.013523,0.002678,0.000431,0.000940
15861000,0.0324,0.013523,0.002678,0.000431,0.000705
15862000,0.0324,0.013523,0.002678,0.000431,0.000940
15863000,0.0324,0.013523,0.002678,0.000431,0.000940
15864000,0.0324,0.013523,0.002678,0.000431,0.000940
15865000,0.0324,0.013523,0.002678,0.000431,0.000705
15866000,0.0324,0.013523,0.002678,0.000431,0.000940
15867000,0.0324,0.013523,0.002678,0.000431,0.000940
15868000,0.0324,0.013523,0.002678,0.000431,0.000823
15869000,0.0324,0.013523,0.002678,0.000431,0.000823
15870000,0.0324,0.013523,0.002678,0.000431,0.000940
15871000,0.0324,0.013523,0.002678,0.000431,0.000940
15872000,0.0324,0.013523,0.002678,0.000431,0.000823
15873000,0.0324,0.013523,0.002678,0.000431,0.000823
15874000,0.0324,0.013523,0.002678,0.000431,0.000940
15875000,0.0324,0.013523,0.002678,0.000431,0.000823
15876000,0.0324,0.013523,0.002678,0.000431,0.000940
15877000,0.0324,0.013523,0.002678,0.000431,0.000823
15878000,0.0324,0.013523,0.002678,0.000431,0.000940
15879000,0.0324,0.013523,0.002678,0.000431,0.000823
15880000,0.0324,0.013523,0.002678,0.000431,0.000823
15881000,0.0324,0.013523,0.002678,0.000431,0.000940
15882000,0.0324,0.013523,0.002678,0.000431,0.000940
15883000,0.0324,0.013523,0.002678,0.000431,0.000823
15884000,0.0324,0.013523,0.002678,0.000431,0.000823
15885000,0.0324,0.013523,0.002678,0.000431,0.000940
15886000,0.0324,0.013523,0.002678,0.000431,0.000940
15887000,0.0324,0.013523,0.002678,0.000431,0.000823
15888000,0.0324,0.013523,0.002678,0.000431,0.000823
15889000,0.0324,0.013523,0.002678,0.000431,0.000940
15890000,0.0324,0.013523,0.002678,0.000431,0.000823
15891000,0.0324,0.013523,0.002678,0.000431,0.000940
15892000,0.0324,0.013523,0.002678,0.000431,0.000823
15893000,0.0324,0.013523,0.002678,0.000431,0.000940
15894000,0.0324,0.013523,0.002678,0.000431,0.000823
15895000,0.0324,0.013523,0.002678,0.000431,0.000823
15896000,0.0324,0.013523,0.002678,0.000431,0.000940
15897000,0.0324,0.013523,0.002678,0.000431,0.000940
15898000,0.0324,0.013523,0.002678,0.000431,0.000823
15899000,0.0324,0.013523,0.002678,0.000431,0.000823
15900000,0.0324,0.013523,0.002678,0.000431,0.000940
15901000,0.0324,0.013523,0.002678,0.000431,0.000940
15902000,0.0324,0.013523,0.002678,0.000431,0.000705
15903000,0.0324,0.013523,0.002678,0.000431,0.000940
15904000,0.0324,0.013523,0.002678,0.000431,0.000940
15905000,0.0324,0.013523,0.002678,0.000431,0.000940
15906000,0.0324,0.013523,0.002678,0.000431,0.000705
15907000,0.0324,0.013523,0.002678,0.000431,0.000940
15908000,0.0324,0.013523,0.002678,0.000431,0.000940
15909000,0.0324,0.013523,0.002678,0.000431,0.000823
15910000,0.0324,0.013523,0.002678,0.000431,0.000940
15911000,0.0324,0.013523,0.002678,0.000431,0.000823
15912000,0.0324,0.013523,0.002678,0.000431,0.000940
15913000,0.0324,0.013523,0.002678,0.000431,0.000823
15914000,0.0324,0.013523,0.002678,0.000431,0.000823
15915000,0.0324,0.013523,0.002678,0.000431,0.000940
15916000,0.0324,0.013523,0.002678,0.000431,0.000940
15917000,0.0324,0.013523,0.002678,0.000431,0.000823
15918000,0.0324,0.013523,0.002678,0.000431,0.000823
15919000,0.0324,0.013523,0.002678,0.000431,0.000940
15920000,0.0324,0.013523,0.002678,0.000431,0.000940
15921000,0.0324,0.013523,0.002678,0.000431,0.000705
15922000,0.0324,0.013523,0.002678,0.000431,0.000940
15923000,0.0324,0.013523,0.002678,0.000431,0.000940
15924000,0.0324,0.013523,0.002678,0.000431,0.000940
15925000,0.0324,0.013523,0.002678,0.000431,0.000705
15926000,0.0324,0.013523,0.002678,0.000431,0.000940
15927000,0.0324,0.013523,0.002678,0.000431,0.000940
15928000,0.0324,0.013523,0.002678,0.000431,0.000823
15929000,0.0324,0.013523,0.002678,0.000431,0.000823
15930000,0.0324,0.013523,0.002678,0.000431,0.000940
15931000,0.0324,0.013523,0.002678,0.000431,0.000823
15932000,0.0324,0.013523,0.002678,0.000431,0.000940
15933000,0.0324,0.013523,0.002678,0.000431,0.000823
15934000,0.0324,0.013523,0.002678,0.000431,0.000940
15935000,0.0324,0.013523,0.002678,0.000431,0.000823
15936000,0.0324,0.013523,0.002678,0.000431,0.000823
15937000,0.0324,0.013523,0.002678,0.000431,0.000940
15938000,0.0324,0.013523,0.002678,0.000431,0.000940
15939000,0.0324,0.013523,0.002678,0.000431,0.000823
15940000,0.0324,0.013523,0.002678,0.000431,0.000823
15941000,0.0324,0.013523,0.002678,0.000431,0.000940
15942000,0.0324,0.013523,0.002678,0.000431,0.000940
15943000,0.0324,0.013523,0.002678,0.000431,0.000823
15944000,0.0324,0.013523,0.002678,0.000431,0.000823
15945000,0.0324,0.013523,0.002678,0.000431,0.000940
15946000,0.0324,0.013523,0.002678,0.000431,0.000940
15947000,0.0324,0.013523,0.002678,0.000431,0.000823
15948000,0.0324,0.013523,0.002678,0.000431,0.000823
15949000,0.0324,0.013523,0.002678,0.000431,0.000940
15950000,0.0324,0.013523,0.002678,0.000431,0.000823
15951000,0.0324,0.013523,0.002678,0.000431,0.000940
15952000,0.0324,0.013523,0.002678,0.000431,0.000823
15953000,0.0324,0.013523,0.002678,0.000431,0.000940
15954000,0.0324,0.013523,0.002678,0.000431,0.000823
15955000,0.0324,0.013523,0.002678,0.000431,0.000823
15956000,0.0324,0.013523,0.002678,0.000431,0.000940
15957000,0.0324,0.013523,0.002678,0.000431,0.000940
15958000,0.0324,0.013523,0.002678,0.000431,0.000823
15959000,0.0324,0.013523,0.002678,0.000431,0.000823
15960000,0.0324,0.013523,0.002678,0.000431,0.000940
15961000,0.0324,0.013523,0.002678,0.000431,0.000940
15962000,0.0324,0.013523,0.002678,0.000431,0.000705
15963000,0.0324,0.013523,0.002678,0.000431,0.000940
15964000,0.0324,0.013523,0.002678,0.000431,0.000940
15965000,0.0324,0.013523,0.002678,0.000431,0.000940
15966000,0.0324,0.013523,0.002678,0.000431,0.000705
15967000,0.0324,0.013523,0.002678,0.000431,0.000940
15968000,0.0324,0.013523,0.002678,0.000431,0.000940
15969000,0.0324,0.013523,0.002678,0.000431,0.000823
15970000,0.0324,0.013523,0.002678,0.000431,0.000940
15971000,0.0324,0.013523,0.002678,0.000431,0.000823
15972000,0.0324,0.013523,0.002678,0.000431,0.000940
15973000,0.0324,0.013523,0.002678,0.000431,0.000823
15974000,0.0324,0.013523,0.002678,0.000431,0.000823
15975000,0.0324,0.013523,0.002678,0.000431,0.000940
15976000,0.0324,0.013523,0.002678,0.000431,0.000940
15977000,0.0324,0.013523,0.002678,0.000431,0.000705
15978000,0.0324,0.013523,0.002678,0.000431,0.000940
15979000,0.0324,0.013523,0.002678,0.000431,0.000940
15980000,0.0324,0.013523,0.002678,0.000431,0.000940
15981000,0.0324,0.013523,0.002678,0.000431,0.000705
15982000,0.0324,0.013523,0.002678,0.000431,0.000940
15983000,0.0324,0.013523,0.002678,0.000431,0.000940
15984000,0.0324,0.013523,0.002678,0.000431,0.000823
15985000,0.0324,0.013523,0.002678,0.000431,0.000823
15986000,0.0324,0.013523,0.002678,0.000431,0.000940
15987000,0.0324,0.013523,0.002678,0.000431,0.000940
15988000,0.0324,0.013523,0.002678,0.000431,0.000823
15989000,0.0324,0.013523,0.002678,0.000431,0.000823
15990000,0.0324,0.013523,0.002678,0.000431,0.000940
15991000,0.0324,0.013523,0.002678,0.000431,0.000823
15992000,0.0324,0.013523,0.002678,0.000431,0.000940
15993000,0.0324,0.013523,0.002678,0.000431,0.000823
15994000,0.0324,0.013523,0.002678,0.000431,0.000940
15995000,0.0324,0.013523,0.002678,0.000431,0.000823
15996000,0.0324,0.013523,0.002678,0.000431,0.000823
15997000,0.0324,0.013523,0.002678,0.000431,0.000940
15998000,0.0324,0.013523,0.002678,0.000431,0.000940
15999000,0.0324,0.013523,0.002678,0.000431,0.000823
