Cycle,Area(mm^2),PeakDynamic(W),SubthresholdLeakage(W),GateLeakage(W),RunTimeDynamic(W)
83000000,0.0324,0.013523,0.002678,0.000431,0.278307
83001000,0.0324,0.013523,0.002678,0.000431,0.145030
83002000,0.0324,0.013523,0.002678,0.000431,0.137273
83003000,0.0324,0.013523,0.002678,0.000431,0.112122
83004000,0.0324,0.013523,0.002678,0.000431,0.348706
83005000,0.0324,0.013523,0.002678,0.000431,0.212373
83006000,0.0324,0.013523,0.002678,0.000431,0.003878
83007000,0.0324,0.013523,0.002678,0.000431,0.004936
83008000,0.0324,0.013523,0.002678,0.000431,0.002351
83009000,0.0324,0.013523,0.002678,0.000431,0.002468
83010000,0.0324,0.013523,0.002678,0.000431,0.002468
83011000,0.0324,0.013523,0.002678,0.000431,0.002938
83012000,0.0324,0.013523,0.002678,0.000431,0.002468
83013000,0.0324,0.013523,0.002678,0.000431,0.000823
83014000,0.0324,0.013523,0.002678,0.000431,0.001645
83015000,0.0324,0.013523,0.002678,0.000431,0.305926
83016000,0.0324,0.013523,0.002678,0.000431,0.669676
83017000,0.0324,0.013523,0.002678,0.000431,0.143149
83018000,0.0324,0.013523,0.002678,0.000431,0.133512
83019000,0.0324,0.013523,0.002678,0.000431,0.130691
83020000,0.0324,0.013523,0.002678,0.000431,0.616083
83021000,0.0324,0.013523,0.002678,0.000431,0.218955
83022000,0.0324,0.013523,0.002678,0.000431,0.292410
83023000,0.0324,0.013523,0.002678,0.000431,0.256917
83024000,0.0324,0.013523,0.002678,0.000431,0.134335
83025000,0.0324,0.013523,0.002678,0.000431,0.135275
83026000,0.0324,0.013523,0.002678,0.000431,0.119174
83027000,0.0324,0.013523,0.002678,0.000431,0.325083
83028000,0.0324,0.013523,0.002678,0.000431,0.251275
83029000,0.0324,0.013523,0.002678,0.000431,0.039842
83030000,0.0324,0.013523,0.002678,0.000431,0.030675
83031000,0.0324,0.013523,0.002678,0.000431,0.026444
83032000,0.0324,0.013523,0.002678,0.000431,0.022213
83033000,0.0324,0.013523,0.002678,0.000431,0.020097
83034000,0.0324,0.013523,0.002678,0.000431,0.019275
83035000,0.0324,0.013523,0.002678,0.000431,0.021038
83036000,0.0324,0.013523,0.002678,0.000431,0.018805
83037000,0.0324,0.013523,0.002678,0.000431,0.013751
83038000,0.0324,0.013523,0.002678,0.000431,0.009990
83039000,0.0324,0.013523,0.002678,0.000431,0.009872
83040000,0.0324,0.013523,0.002678,0.000431,0.009872
83041000,0.0324,0.013523,0.002678,0.000431,0.010225
83042000,0.0324,0.013523,0.002678,0.000431,0.012105
83043000,0.0324,0.013523,0.002678,0.000431,0.009285
83044000,0.0324,0.013523,0.002678,0.000431,0.007404
83045000,0.0324,0.013523,0.002678,0.000431,0.008462
83046000,0.0324,0.013523,0.002678,0.000431,0.005994
83047000,0.0324,0.013523,0.002678,0.000431,0.008227
83048000,0.0324,0.013523,0.002678,0.000431,0.004701
83049000,0.0324,0.013523,0.002678,0.000431,0.005406
83050000,0.0324,0.013523,0.002678,0.000431,0.004819
83051000,0.0324,0.013523,0.002678,0.000431,0.005171
83052000,0.0324,0.013523,0.002678,0.000431,0.005171
83053000,0.0324,0.013523,0.002678,0.000431,0.006229
83054000,0.0324,0.013523,0.002678,0.000431,0.005406
83055000,0.0324,0.013523,0.002678,0.000431,0.003996
83056000,0.0324,0.013523,0.002678,0.000431,0.004701
83057000,0.0324,0.013523,0.002678,0.000431,0.004231
83058000,0.0324,0.013523,0.002678,0.000431,0.004113
83059000,0.0324,0.013523,0.002678,0.000431,0.004231
83060000,0.0324,0.013523,0.002678,0.000431,0.004349
83061000,0.0324,0.013523,0.002678,0.000431,0.006347
83062000,0.0324,0.013523,0.002678,0.000431,0.003173
83063000,0.0324,0.013523,0.002678,0.000431,0.003526
83064000,0.0324,0.013523,0.002678,0.000431,0.003408
83065000,0.0324,0.013523,0.002678,0.000431,0.003408
83066000,0.0324,0.013523,0.002678,0.000431,0.003408
83067000,0.0324,0.013523,0.002678,0.000431,0.003408
83068000,0.0324,0.013523,0.002678,0.000431,0.003643
83069000,0.0324,0.013523,0.002678,0.000431,0.003408
83070000,0.0324,0.013523,0.002678,0.000431,0.003291
83071000,0.0324,0.013523,0.002678,0.000431,0.003408
83072000,0.0324,0.013523,0.002678,0.000431,0.003526
83073000,0.0324,0.013523,0.002678,0.000431,0.003291
83074000,0.0324,0.013523,0.002678,0.000431,0.005641
83075000,0.0324,0.013523,0.002678,0.000431,0.002821
83076000,0.0324,0.013523,0.002678,0.000431,0.002586
83077000,0.0324,0.013523,0.002678,0.000431,0.003761
83078000,0.0324,0.013523,0.002678,0.000431,0.001763
83079000,0.0324,0.013523,0.002678,0.000431,0.001880
83080000,0.0324,0.013523,0.002678,0.000431,0.001645
83081000,0.0324,0.013523,0.002678,0.000431,0.001763
83082000,0.0324,0.013523,0.002678,0.000431,0.001763
83083000,0.0324,0.013523,0.002678,0.000431,0.001880
83084000,0.0324,0.013523,0.002678,0.000431,0.001645
83085000,0.0324,0.013523,0.002678,0.000431,0.001645
83086000,0.0324,0.013523,0.002678,0.000431,0.001880
83087000,0.0324,0.013523,0.002678,0.000431,0.001763
83088000,0.0324,0.013523,0.002678,0.000431,0.001763
83089000,0.0324,0.013523,0.002678,0.000431,0.001645
83090000,0.0324,0.013523,0.002678,0.000431,0.001880
83091000,0.0324,0.013523,0.002678,0.000431,0.001763
83092000,0.0324,0.013523,0.002678,0.000431,0.001528
83093000,0.0324,0.013523,0.002678,0.000431,0.001880
83094000,0.0324,0.013523,0.002678,0.000431,0.001880
83095000,0.0324,0.013523,0.002678,0.000431,0.001763
83096000,0.0324,0.013523,0.002678,0.000431,0.001645
83097000,0.0324,0.013523,0.002678,0.000431,0.001763
83098000,0.0324,0.013523,0.002678,0.000431,0.001880
83099000,0.0324,0.013523,0.002678,0.000431,0.001645
83100000,0.0324,0.013523,0.002678,0.000431,0.001763
83101000,0.0324,0.013523,0.002678,0.000431,0.001763
83102000,0.0324,0.013523,0.002678,0.000431,0.001880
83103000,0.0324,0.013523,0.002678,0.000431,0.001645
83104000,0.0324,0.013523,0.002678,0.000431,0.001645
83105000,0.0324,0.013523,0.002678,0.000431,0.001880
83106000,0.0324,0.013523,0.002678,0.000431,0.001763
83107000,0.0324,0.013523,0.002678,0.000431,0.001645
83108000,0.0324,0.013523,0.002678,0.000431,0.001763
83109000,0.0324,0.013523,0.002678,0.000431,0.001880
83110000,0.0324,0.013523,0.002678,0.000431,0.001763
83111000,0.0324,0.013523,0.002678,0.000431,0.001528
83112000,0.0324,0.013523,0.002678,0.000431,0.001880
83113000,0.0324,0.013523,0.002678,0.000431,0.001880
83114000,0.0324,0.013523,0.002678,0.000431,0.001528
83115000,0.0324,0.013523,0.002678,0.000431,0.001763
83116000,0.0324,0.013523,0.002678,0.000431,0.001880
83117000,0.0324,0.013523,0.002678,0.000431,0.001880
83118000,0.0324,0.013523,0.002678,0.000431,0.001528
83119000,0.0324,0.013523,0.002678,0.000431,0.001763
83120000,0.0324,0.013523,0.002678,0.000431,0.001880
83121000,0.0324,0.013523,0.002678,0.000431,0.001645
83122000,0.0324,0.013523,0.002678,0.000431,0.001763
83123000,0.0324,0.013523,0.002678,0.000431,0.001763
83124000,0.0324,0.013523,0.002678,0.000431,0.001880
83125000,0.0324,0.013523,0.002678,0.000431,0.001645
83126000,0.0324,0.013523,0.002678,0.000431,0.001645
83127000,0.0324,0.013523,0.002678,0.000431,0.001880
83128000,0.0324,0.013523,0.002678,0.000431,0.001763
83129000,0.0324,0.013523,0.002678,0.000431,0.001880
83130000,0.0324,0.013523,0.002678,0.000431,0.001528
83131000,0.0324,0.013523,0.002678,0.000431,0.001880
83132000,0.0324,0.013523,0.002678,0.000431,0.001763
83133000,0.0324,0.013523,0.002678,0.000431,0.001645
83134000,0.0324,0.013523,0.002678,0.000431,0.001763
83135000,0.0324,0.013523,0.002678,0.000431,0.001880
83136000,0.0324,0.013523,0.002678,0.000431,0.001880
83137000,0.0324,0.013523,0.002678,0.000431,0.001528
83138000,0.0324,0.013523,0.002678,0.000431,0.003056
83139000,0.0324,0.013523,0.002678,0.000431,0.000940
83140000,0.0324,0.013523,0.002678,0.000431,0.000823
83141000,0.0324,0.013523,0.002678,0.000431,0.000823
83142000,0.0324,0.013523,0.002678,0.000431,0.000940
83143000,0.0324,0.013523,0.002678,0.000431,0.000940
83144000,0.0324,0.013523,0.002678,0.000431,0.000823
83145000,0.0324,0.013523,0.002678,0.000431,0.000823
83146000,0.0324,0.013523,0.002678,0.000431,0.000940
83147000,0.0324,0.013523,0.002678,0.000431,0.000823
83148000,0.0324,0.013523,0.002678,0.000431,0.000940
83149000,0.0324,0.013523,0.002678,0.000431,0.000823
83150000,0.0324,0.013523,0.002678,0.000431,0.000940
83151000,0.0324,0.013523,0.002678,0.000431,0.000823
83152000,0.0324,0.013523,0.002678,0.000431,0.000823
83153000,0.0324,0.013523,0.002678,0.000431,0.000940
83154000,0.0324,0.013523,0.002678,0.000431,0.000940
83155000,0.0324,0.013523,0.002678,0.000431,0.000823
83156000,0.0324,0.013523,0.002678,0.000431,0.000823
83157000,0.0324,0.013523,0.002678,0.000431,0.000940
83158000,0.0324,0.013523,0.002678,0.000431,0.000940
83159000,0.0324,0.013523,0.002678,0.000431,0.000823
83160000,0.0324,0.013523,0.002678,0.000431,0.000823
83161000,0.0324,0.013523,0.002678,0.000431,0.000940
83162000,0.0324,0.013523,0.002678,0.000431,0.000823
83163000,0.0324,0.013523,0.002678,0.000431,0.000940
83164000,0.0324,0.013523,0.002678,0.000431,0.000823
83165000,0.0324,0.013523,0.002678,0.000431,0.000940
83166000,0.0324,0.013523,0.002678,0.000431,0.000823
83167000,0.0324,0.013523,0.002678,0.000431,0.000823
83168000,0.0324,0.013523,0.002678,0.000431,0.000940
83169000,0.0324,0.013523,0.002678,0.000431,0.000940
83170000,0.0324,0.013523,0.002678,0.000431,0.000823
83171000,0.0324,0.013523,0.002678,0.000431,0.000823
83172000,0.0324,0.013523,0.002678,0.000431,0.000940
83173000,0.0324,0.013523,0.002678,0.000431,0.000940
83174000,0.0324,0.013523,0.002678,0.000431,0.000705
83175000,0.0324,0.013523,0.002678,0.000431,0.000940
83176000,0.0324,0.013523,0.002678,0.000431,0.000940
83177000,0.0324,0.013523,0.002678,0.000431,0.000940
83178000,0.0324,0.013523,0.002678,0.000431,0.000705
83179000,0.0324,0.013523,0.002678,0.000431,0.000940
83180000,0.0324,0.013523,0.002678,0.000431,0.000940
83181000,0.0324,0.013523,0.002678,0.000431,0.000823
83182000,0.0324,0.013523,0.002678,0.000431,0.000823
83183000,0.0324,0.013523,0.002678,0.000431,0.000940
83184000,0.0324,0.013523,0.002678,0.000431,0.000940
83185000,0.0324,0.013523,0.002678,0.000431,0.000823
83186000,0.0324,0.013523,0.002678,0.000431,0.000823
83187000,0.0324,0.013523,0.002678,0.000431,0.000940
83188000,0.0324,0.013523,0.002678,0.000431,0.000823
83189000,0.0324,0.013523,0.002678,0.000431,0.000940
83190000,0.0324,0.013523,0.002678,0.000431,0.000823
83191000,0.0324,0.013523,0.002678,0.000431,0.000940
83192000,0.0324,0.013523,0.002678,0.000431,0.000823
83193000,0.0324,0.013523,0.002678,0.000431,0.000823
83194000,0.0324,0.013523,0.002678,0.000431,0.000940
83195000,0.0324,0.013523,0.002678,0.000431,0.000940
83196000,0.0324,0.013523,0.002678,0.000431,0.000940
83197000,0.0324,0.013523,0.002678,0.000431,0.000705
83198000,0.0324,0.013523,0.002678,0.000431,0.000940
83199000,0.0324,0.013523,0.002678,0.000431,0.000940
83200000,0.0324,0.013523,0.002678,0.000431,0.000823
83201000,0.0324,0.013523,0.002678,0.000431,0.000823
83202000,0.0324,0.013523,0.002678,0.000431,0.000940
83203000,0.0324,0.013523,0.002678,0.000431,0.000823
83204000,0.0324,0.013523,0.002678,0.000431,0.000940
83205000,0.0324,0.013523,0.002678,0.000431,0.000823
83206000,0.0324,0.013523,0.002678,0.000431,0.000940
83207000,0.0324,0.013523,0.002678,0.000431,0.002233
83208000,0.0324,0.013523,0.002678,0.000431,0.247984
83209000,0.0324,0.013523,0.002678,0.000431,0.608208
83210000,0.0324,0.013523,0.002678,0.000431,0.289589
83211000,0.0324,0.013523,0.002678,0.000431,0.130926
83212000,0.0324,0.013523,0.002678,0.000431,0.134217
83213000,0.0324,0.013523,0.002678,0.000431,0.563313
83214000,0.0324,0.013523,0.002678,0.000431,0.245634
83215000,0.0324,0.013523,0.002678,0.000431,0.228710
83216000,0.0324,0.013523,0.002678,0.000431,0.310274
83217000,0.0324,0.013523,0.002678,0.000431,0.138801
83218000,0.0324,0.013523,0.002678,0.000431,0.145030
83219000,0.0324,0.013523,0.002678,0.000431,0.138566
83220000,0.0324,0.013523,0.002678,0.000431,0.234939
83221000,0.0324,0.013523,0.002678,0.000431,0.344828
83222000,0.0324,0.013523,0.002678,0.000431,0.020685
83223000,0.0324,0.013523,0.002678,0.000431,0.011635
83224000,0.0324,0.013523,0.002678,0.000431,0.014221
83225000,0.0324,0.013523,0.002678,0.000431,0.010813
83226000,0.0324,0.013523,0.002678,0.000431,0.004466
83227000,0.0324,0.013523,0.002678,0.000431,0.005054
83228000,0.0324,0.013523,0.002678,0.000431,0.005054
83229000,0.0324,0.013523,0.002678,0.000431,0.002468
83230000,0.0324,0.013523,0.002678,0.000431,0.002821
83231000,0.0324,0.013523,0.002678,0.000431,0.003996
83232000,0.0324,0.013523,0.002678,0.000431,0.001645
83233000,0.0324,0.013523,0.002678,0.000431,0.001880
83234000,0.0324,0.013523,0.002678,0.000431,0.001645
83235000,0.0324,0.013523,0.002678,0.000431,0.001645
83236000,0.0324,0.013523,0.002678,0.000431,0.001763
83237000,0.0324,0.013523,0.002678,0.000431,0.001763
83238000,0.0324,0.013523,0.002678,0.000431,0.001763
83239000,0.0324,0.013523,0.002678,0.000431,0.001528
83240000,0.0324,0.013523,0.002678,0.000431,0.001763
83241000,0.0324,0.013523,0.002678,0.000431,0.001763
83242000,0.0324,0.013523,0.002678,0.000431,0.001763
83243000,0.0324,0.013523,0.002678,0.000431,0.002821
83244000,0.0324,0.013523,0.002678,0.000431,0.000940
83245000,0.0324,0.013523,0.002678,0.000431,0.000940
83246000,0.0324,0.013523,0.002678,0.000431,0.000823
83247000,0.0324,0.013523,0.002678,0.000431,0.000823
83248000,0.0324,0.013523,0.002678,0.000431,0.000940
83249000,0.0324,0.013523,0.002678,0.000431,0.006111
83250000,0.0324,0.013523,0.002678,0.000431,0.411584
83251000,0.0324,0.013523,0.002678,0.000431,0.616200
83252000,0.0324,0.013523,0.002678,0.000431,0.132219
83253000,0.0324,0.013523,0.002678,0.000431,0.132924
83254000,0.0324,0.013523,0.002678,0.000431,0.134217
83255000,0.0324,0.013523,0.002678,0.000431,0.590344
83256000,0.0324,0.013523,0.002678,0.000431,0.255859
83257000,0.0324,0.013523,0.002678,0.000431,0.256682
83258000,0.0324,0.013523,0.002678,0.000431,0.263381
83259000,0.0324,0.013523,0.002678,0.000431,0.137508
83260000,0.0324,0.013523,0.002678,0.000431,0.147615
83261000,0.0324,0.013523,0.002678,0.000431,0.105658
83262000,0.0324,0.013523,0.002678,0.000431,0.401946
83263000,0.0324,0.013523,0.002678,0.000431,0.174882
83264000,0.0324,0.013523,0.002678,0.000431,0.044308
83265000,0.0324,0.013523,0.002678,0.000431,0.034788
83266000,0.0324,0.013523,0.002678,0.000431,0.027384
83267000,0.0324,0.013523,0.002678,0.000431,0.029265
83268000,0.0324,0.013523,0.002678,0.000431,0.026679
83269000,0.0324,0.013523,0.002678,0.000431,0.025504
83270000,0.0324,0.013523,0.002678,0.000431,0.019745
83271000,0.0324,0.013523,0.002678,0.000431,0.020685
83272000,0.0324,0.013523,0.002678,0.000431,0.020215
83273000,0.0324,0.013523,0.002678,0.000431,0.015514
83274000,0.0324,0.013523,0.002678,0.000431,0.016336
83275000,0.0324,0.013523,0.002678,0.000431,0.013398
83276000,0.0324,0.013523,0.002678,0.000431,0.015631
83277000,0.0324,0.013523,0.002678,0.000431,0.013751
83278000,0.0324,0.013523,0.002678,0.000431,0.012693
83279000,0.0324,0.013523,0.002678,0.000431,0.011753
83280000,0.0324,0.013523,0.002678,0.000431,0.013516
83281000,0.0324,0.013523,0.002678,0.000431,0.011753
83282000,0.0324,0.013523,0.002678,0.000431,0.009990
83283000,0.0324,0.013523,0.002678,0.000431,0.010342
83284000,0.0324,0.013523,0.002678,0.000431,0.010578
83285000,0.0324,0.013523,0.002678,0.000431,0.011400
83286000,0.0324,0.013523,0.002678,0.000431,0.010695
83287000,0.0324,0.013523,0.002678,0.000431,0.007639
83288000,0.0324,0.013523,0.002678,0.000431,0.007639
83289000,0.0324,0.013523,0.002678,0.000431,0.009167
83290000,0.0324,0.013523,0.002678,0.000431,0.007639
83291000,0.0324,0.013523,0.002678,0.000431,0.004584
83292000,0.0324,0.013523,0.002678,0.000431,0.006464
83293000,0.0324,0.013523,0.002678,0.000431,0.003996
83294000,0.0324,0.013523,0.002678,0.000431,0.004231
83295000,0.0324,0.013523,0.002678,0.000431,0.004466
83296000,0.0324,0.013523,0.002678,0.000431,0.004113
83297000,0.0324,0.013523,0.002678,0.000431,0.004231
83298000,0.0324,0.013523,0.002678,0.000431,0.003878
83299000,0.0324,0.013523,0.002678,0.000431,0.004701
83300000,0.0324,0.013523,0.002678,0.000431,0.004231
83301000,0.0324,0.013523,0.002678,0.000431,0.004936
83302000,0.0324,0.013523,0.002678,0.000431,0.003761
83303000,0.0324,0.013523,0.002678,0.000431,0.003173
83304000,0.0324,0.013523,0.002678,0.000431,0.003643
83305000,0.0324,0.013523,0.002678,0.000431,0.003291
83306000,0.0324,0.013523,0.002678,0.000431,0.003173
83307000,0.0324,0.013523,0.002678,0.000431,0.003643
83308000,0.0324,0.013523,0.002678,0.000431,0.003291
83309000,0.0324,0.013523,0.002678,0.000431,0.005876
83310000,0.0324,0.013523,0.002678,0.000431,0.002468
83311000,0.0324,0.013523,0.002678,0.000431,0.002703
83312000,0.0324,0.013523,0.002678,0.000431,0.002468
83313000,0.0324,0.013523,0.002678,0.000431,0.003996
83314000,0.0324,0.013523,0.002678,0.000431,0.001763
83315000,0.0324,0.013523,0.002678,0.000431,0.001645
83316000,0.0324,0.013523,0.002678,0.000431,0.001528
83317000,0.0324,0.013523,0.002678,0.000431,0.001763
83318000,0.0324,0.013523,0.002678,0.000431,0.001763
83319000,0.0324,0.013523,0.002678,0.000431,0.001528
83320000,0.0324,0.013523,0.002678,0.000431,0.001763
83321000,0.0324,0.013523,0.002678,0.000431,0.001645
83322000,0.0324,0.013523,0.002678,0.000431,0.001645
83323000,0.0324,0.013523,0.002678,0.000431,0.001763
83324000,0.0324,0.013523,0.002678,0.000431,0.001645
83325000,0.0324,0.013523,0.002678,0.000431,0.001763
83326000,0.0324,0.013523,0.002678,0.000431,0.001410
83327000,0.0324,0.013523,0.002678,0.000431,0.001880
83328000,0.0324,0.013523,0.002678,0.000431,0.001763
83329000,0.0324,0.013523,0.002678,0.000431,0.001528
83330000,0.0324,0.013523,0.002678,0.000431,0.001763
83331000,0.0324,0.013523,0.002678,0.000431,0.001528
83332000,0.0324,0.013523,0.002678,0.000431,0.001645
83333000,0.0324,0.013523,0.002678,0.000431,0.001763
83334000,0.0324,0.013523,0.002678,0.000431,0.001763
83335000,0.0324,0.013523,0.002678,0.000431,0.001528
83336000,0.0324,0.013523,0.002678,0.000431,0.001763
83337000,0.0324,0.013523,0.002678,0.000431,0.001645
83338000,0.0324,0.013523,0.002678,0.000431,0.001645
83339000,0.0324,0.013523,0.002678,0.000431,0.001645
83340000,0.0324,0.013523,0.002678,0.000431,0.001763
83341000,0.0324,0.013523,0.002678,0.000431,0.001763
83342000,0.0324,0.013523,0.002678,0.000431,0.001410
83343000,0.0324,0.013523,0.002678,0.000431,0.001880
83344000,0.0324,0.013523,0.002678,0.000431,0.001645
83345000,0.0324,0.013523,0.002678,0.000431,0.001645
83346000,0.0324,0.013523,0.002678,0.000431,0.002703
83347000,0.0324,0.013523,0.002678,0.000431,0.001880
83348000,0.0324,0.013523,0.002678,0.000431,0.000940
83349000,0.0324,0.013523,0.002678,0.000431,0.000823
83350000,0.0324,0.013523,0.002678,0.000431,0.000823
83351000,0.0324,0.013523,0.002678,0.000431,0.000940
83352000,0.0324,0.013523,0.002678,0.000431,0.090144
83353000,0.0324,0.013523,0.002678,0.000431,0.488565
83354000,0.0324,0.013523,0.002678,0.000431,0.547211
83355000,0.0324,0.013523,0.002678,0.000431,0.132572
83356000,0.0324,0.013523,0.002678,0.000431,0.132572
83357000,0.0324,0.013523,0.002678,0.000431,0.572832
83358000,0.0324,0.013523,0.002678,0.000431,0.220600
83359000,0.0324,0.013523,0.002678,0.000431,0.290295
83360000,0.0324,0.013523,0.002678,0.000431,0.275016
83361000,0.0324,0.013523,0.002678,0.000431,0.135980
83362000,0.0324,0.013523,0.002678,0.000431,0.142327
83363000,0.0324,0.013523,0.002678,0.000431,0.156783
83364000,0.0324,0.013523,0.002678,0.000431,0.177115
83365000,0.0324,0.013523,0.002678,0.000431,0.424629
83366000,0.0324,0.013523,0.002678,0.000431,0.083092
83367000,0.0324,0.013523,0.002678,0.000431,0.062525
83368000,0.0324,0.013523,0.002678,0.000431,0.058882
83369000,0.0324,0.013523,0.002678,0.000431,0.038549
83370000,0.0324,0.013523,0.002678,0.000431,0.028089
83371000,0.0324,0.013523,0.002678,0.000431,0.034436
83372000,0.0324,0.013523,0.002678,0.000431,0.027502
83373000,0.0324,0.013523,0.002678,0.000431,0.018099
83374000,0.0324,0.013523,0.002678,0.000431,0.021860
83375000,0.0324,0.013523,0.002678,0.000431,0.013163
83376000,0.0324,0.013523,0.002678,0.000431,0.013751
83377000,0.0324,0.013523,0.002678,0.000431,0.015984
83378000,0.0324,0.013523,0.002678,0.000431,0.014103
83379000,0.0324,0.013523,0.002678,0.000431,0.015749
83380000,0.0324,0.013523,0.002678,0.000431,0.010107
83381000,0.0324,0.013523,0.002678,0.000431,0.008580
83382000,0.0324,0.013523,0.002678,0.000431,0.008580
83383000,0.0324,0.013523,0.002678,0.000431,0.007522
83384000,0.0324,0.013523,0.002678,0.000431,0.007992
83385000,0.0324,0.013523,0.002678,0.000431,0.008462
83386000,0.0324,0.013523,0.002678,0.000431,0.005641
83387000,0.0324,0.013523,0.002678,0.000431,0.005641
83388000,0.0324,0.013523,0.002678,0.000431,0.005406
83389000,0.0324,0.013523,0.002678,0.000431,0.005994
83390000,0.0324,0.013523,0.002678,0.000431,0.005759
83391000,0.0324,0.013523,0.002678,0.000431,0.005289
83392000,0.0324,0.013523,0.002678,0.000431,0.005759
83393000,0.0324,0.013523,0.002678,0.000431,0.005406
83394000,0.0324,0.013523,0.002678,0.000431,0.005876
83395000,0.0324,0.013523,0.002678,0.000431,0.005406
83396000,0.0324,0.013523,0.002678,0.000431,0.005759
83397000,0.0324,0.013523,0.002678,0.000431,0.005994
83398000,0.0324,0.013523,0.002678,0.000431,0.005054
83399000,0.0324,0.013523,0.002678,0.000431,0.006229
83400000,0.0324,0.013523,0.002678,0.000431,0.004936
83401000,0.0324,0.013523,0.002678,0.000431,0.006817
83402000,0.0324,0.013523,0.002678,0.000431,0.006111
83403000,0.0324,0.013523,0.002678,0.000431,0.004113
83404000,0.0324,0.013523,0.002678,0.000431,0.005289
83405000,0.0324,0.013523,0.002678,0.000431,0.004819
83406000,0.0324,0.013523,0.002678,0.000431,0.004701
83407000,0.0324,0.013523,0.002678,0.000431,0.004231
83408000,0.0324,0.013523,0.002678,0.000431,0.004231
83409000,0.0324,0.013523,0.002678,0.000431,0.004231
83410000,0.0324,0.013523,0.002678,0.000431,0.004113
83411000,0.0324,0.013523,0.002678,0.000431,0.004113
83412000,0.0324,0.013523,0.002678,0.000431,0.004231
83413000,0.0324,0.013523,0.002678,0.000431,0.006229
83414000,0.0324,0.013523,0.002678,0.000431,0.003291
83415000,0.0324,0.013523,0.002678,0.000431,0.003643
83416000,0.0324,0.013523,0.002678,0.000431,0.002821
83417000,0.0324,0.013523,0.002678,0.000431,0.003526
83418000,0.0324,0.013523,0.002678,0.000431,0.002938
83419000,0.0324,0.013523,0.002678,0.000431,0.003408
83420000,0.0324,0.013523,0.002678,0.000431,0.005759
83421000,0.0324,0.013523,0.002678,0.000431,0.001645
83422000,0.0324,0.013523,0.002678,0.000431,0.001763
83423000,0.0324,0.013523,0.002678,0.000431,0.001763
83424000,0.0324,0.013523,0.002678,0.000431,0.001528
83425000,0.0324,0.013523,0.002678,0.000431,0.001763
83426000,0.0324,0.013523,0.002678,0.000431,0.001528
83427000,0.0324,0.013523,0.002678,0.000431,0.001880
83428000,0.0324,0.013523,0.002678,0.000431,0.001645
83429000,0.0324,0.013523,0.002678,0.000431,0.001645
83430000,0.0324,0.013523,0.002678,0.000431,0.001645
83431000,0.0324,0.013523,0.002678,0.000431,0.001645
83432000,0.0324,0.013523,0.002678,0.000431,0.001880
83433000,0.0324,0.013523,0.002678,0.000431,0.001528
83434000,0.0324,0.013523,0.002678,0.000431,0.001763
83435000,0.0324,0.013523,0.002678,0.000431,0.001528
83436000,0.0324,0.013523,0.002678,0.000431,0.002821
83437000,0.0324,0.013523,0.002678,0.000431,0.000940
83438000,0.0324,0.013523,0.002678,0.000431,0.000705
83439000,0.0324,0.013523,0.002678,0.000431,0.000940
83440000,0.0324,0.013523,0.002678,0.000431,0.000823
83441000,0.0324,0.013523,0.002678,0.000431,0.000823
83442000,0.0324,0.013523,0.002678,0.000431,0.000823
83443000,0.0324,0.013523,0.002678,0.000431,0.000823
83444000,0.0324,0.013523,0.002678,0.000431,0.000823
83445000,0.0324,0.013523,0.002678,0.000431,0.000823
83446000,0.0324,0.013523,0.002678,0.000431,0.000823
83447000,0.0324,0.013523,0.002678,0.000431,0.000940
83448000,0.0324,0.013523,0.002678,0.000431,0.000823
83449000,0.0324,0.013523,0.002678,0.000431,0.000823
83450000,0.0324,0.013523,0.002678,0.000431,0.000823
83451000,0.0324,0.013523,0.002678,0.000431,0.000705
83452000,0.0324,0.013523,0.002678,0.000431,0.000940
83453000,0.0324,0.013523,0.002678,0.000431,0.000940
83454000,0.0324,0.013523,0.002678,0.000431,0.000705
83455000,0.0324,0.013523,0.002678,0.000431,0.000940
83456000,0.0324,0.013523,0.002678,0.000431,0.000705
83457000,0.0324,0.013523,0.002678,0.000431,0.000940
83458000,0.0324,0.013523,0.002678,0.000431,0.000940
83459000,0.0324,0.013523,0.002678,0.000431,0.000705
83460000,0.0324,0.013523,0.002678,0.000431,0.000940
83461000,0.0324,0.013523,0.002678,0.000431,0.000705
83462000,0.0324,0.013523,0.002678,0.000431,0.000940
83463000,0.0324,0.013523,0.002678,0.000431,0.000823
83464000,0.0324,0.013523,0.002678,0.000431,0.000823
83465000,0.0324,0.013523,0.002678,0.000431,0.000940
83466000,0.0324,0.013523,0.002678,0.000431,0.000705
83467000,0.0324,0.013523,0.002678,0.000431,0.000940
83468000,0.0324,0.013523,0.002678,0.000431,0.000823
83469000,0.0324,0.013523,0.002678,0.000431,0.000823
83470000,0.0324,0.013523,0.002678,0.000431,0.000823
83471000,0.0324,0.013523,0.002678,0.000431,0.000823
83472000,0.0324,0.013523,0.002678,0.000431,0.000823
83473000,0.0324,0.013523,0.002678,0.000431,0.000823
83474000,0.0324,0.013523,0.002678,0.000431,0.000940
83475000,0.0324,0.013523,0.002678,0.000431,0.000705
83476000,0.0324,0.013523,0.002678,0.000431,0.000940
83477000,0.0324,0.013523,0.002678,0.000431,0.000823
83478000,0.0324,0.013523,0.002678,0.000431,0.000823
83479000,0.0324,0.013523,0.002678,0.000431,0.000705
83480000,0.0324,0.013523,0.002678,0.000431,0.000940
83481000,0.0324,0.013523,0.002678,0.000431,0.000940
83482000,0.0324,0.013523,0.002678,0.000431,0.000705
83483000,0.0324,0.013523,0.002678,0.000431,0.000940
83484000,0.0324,0.013523,0.002678,0.000431,0.000705
83485000,0.0324,0.013523,0.002678,0.000431,0.000940
83486000,0.0324,0.013523,0.002678,0.000431,0.000823
83487000,0.0324,0.013523,0.002678,0.000431,0.000823
83488000,0.0324,0.013523,0.002678,0.000431,0.000940
83489000,0.0324,0.013523,0.002678,0.000431,0.000705
83490000,0.0324,0.013523,0.002678,0.000431,0.000940
83491000,0.0324,0.013523,0.002678,0.000431,0.000823
83492000,0.0324,0.013523,0.002678,0.000431,0.000823
83493000,0.0324,0.013523,0.002678,0.000431,0.000823
83494000,0.0324,0.013523,0.002678,0.000431,0.000823
83495000,0.0324,0.013523,0.002678,0.000431,0.000823
83496000,0.0324,0.013523,0.002678,0.000431,0.000823
83497000,0.0324,0.013523,0.002678,0.000431,0.000940
83498000,0.0324,0.013523,0.002678,0.000431,0.000705
83499000,0.0324,0.013523,0.002678,0.000431,0.000823
83500000,0.0324,0.013523,0.002678,0.000431,0.000940
83501000,0.0324,0.013523,0.002678,0.000431,0.000823
83502000,0.0324,0.013523,0.002678,0.000431,0.000823
83503000,0.0324,0.013523,0.002678,0.000431,0.000823
83504000,0.0324,0.013523,0.002678,0.000431,0.000705
83505000,0.0324,0.013523,0.002678,0.000431,0.000940
83506000,0.0324,0.013523,0.002678,0.000431,0.000940
83507000,0.0324,0.013523,0.002678,0.000431,0.000823
83508000,0.0324,0.013523,0.002678,0.000431,0.000823
83509000,0.0324,0.013523,0.002678,0.000431,0.000705
83510000,0.0324,0.013523,0.002678,0.000431,0.000940
83511000,0.0324,0.013523,0.002678,0.000431,0.000940
83512000,0.0324,0.013523,0.002678,0.000431,0.000705
83513000,0.0324,0.013523,0.002678,0.000431,0.000940
83514000,0.0324,0.013523,0.002678,0.000431,0.000705
83515000,0.0324,0.013523,0.002678,0.000431,0.000940
83516000,0.0324,0.013523,0.002678,0.000431,0.000823
83517000,0.0324,0.013523,0.002678,0.000431,0.000823
83518000,0.0324,0.013523,0.002678,0.000431,0.000823
83519000,0.0324,0.013523,0.002678,0.000431,0.000823
83520000,0.0324,0.013523,0.002678,0.000431,0.000940
83521000,0.0324,0.013523,0.002678,0.000431,0.000823
83522000,0.0324,0.013523,0.002678,0.000431,0.000823
83523000,0.0324,0.013523,0.002678,0.000431,0.000823
83524000,0.0324,0.013523,0.002678,0.000431,0.000823
83525000,0.0324,0.013523,0.002678,0.000431,0.000823
83526000,0.0324,0.013523,0.002678,0.000431,0.000823
83527000,0.0324,0.013523,0.002678,0.000431,0.000940
83528000,0.0324,0.013523,0.002678,0.000431,0.000705
83529000,0.0324,0.013523,0.002678,0.000431,0.000940
83530000,0.0324,0.013523,0.002678,0.000431,0.000823
83531000,0.0324,0.013523,0.002678,0.000431,0.000823
83532000,0.0324,0.013523,0.002678,0.000431,0.000705
83533000,0.0324,0.013523,0.002678,0.000431,0.013986
83534000,0.0324,0.013523,0.002678,0.000431,0.526526
83535000,0.0324,0.013523,0.002678,0.000431,0.589051
83536000,0.0324,0.013523,0.002678,0.000431,0.133512
83537000,0.0324,0.013523,0.002678,0.000431,0.131632
83538000,0.0324,0.013523,0.002678,0.000431,0.448723
83539000,0.0324,0.013523,0.002678,0.000431,0.335543
83540000,0.0324,0.013523,0.002678,0.000431,0.263028
83541000,0.0324,0.013523,0.002678,0.000431,0.335896
83542000,0.0324,0.013523,0.002678,0.000431,0.155137
83543000,0.0324,0.013523,0.002678,0.000431,0.143149
83544000,0.0324,0.013523,0.002678,0.000431,0.111299
83545000,0.0324,0.013523,0.002678,0.000431,0.343535
83546000,0.0324,0.013523,0.002678,0.000431,0.261970
83547000,0.0324,0.013523,0.002678,0.000431,0.041370
83548000,0.0324,0.013523,0.002678,0.000431,0.037844
83549000,0.0324,0.013523,0.002678,0.000431,0.028207
83550000,0.0324,0.013523,0.002678,0.000431,0.027267
83551000,0.0324,0.013523,0.002678,0.000431,0.027384
83552000,0.0324,0.013523,0.002678,0.000431,0.015984
83553000,0.0324,0.013523,0.002678,0.000431,0.016689
83554000,0.0324,0.013523,0.002678,0.000431,0.020920
83555000,0.0324,0.013523,0.002678,0.000431,0.013046
83556000,0.0324,0.013523,0.002678,0.000431,0.013516
83557000,0.0324,0.013523,0.002678,0.000431,0.011048
83558000,0.0324,0.013523,0.002678,0.000431,0.007874
83559000,0.0324,0.013523,0.002678,0.000431,0.009990
83560000,0.0324,0.013523,0.002678,0.000431,0.009755
83561000,0.0324,0.013523,0.002678,0.000431,0.005524
83562000,0.0324,0.013523,0.002678,0.000431,0.004584
83563000,0.0324,0.013523,0.002678,0.000431,0.004113
83564000,0.0324,0.013523,0.002678,0.000431,0.006111
83565000,0.0324,0.013523,0.002678,0.000431,0.003408
83566000,0.0324,0.013523,0.002678,0.000431,0.003291
83567000,0.0324,0.013523,0.002678,0.000431,0.003408
83568000,0.0324,0.013523,0.002678,0.000431,0.003291
83569000,0.0324,0.013523,0.002678,0.000431,0.003291
83570000,0.0324,0.013523,0.002678,0.000431,0.003408
83571000,0.0324,0.013523,0.002678,0.000431,0.003526
83572000,0.0324,0.013523,0.002678,0.000431,0.004936
83573000,0.0324,0.013523,0.002678,0.000431,0.002703
83574000,0.0324,0.013523,0.002678,0.000431,0.002586
83575000,0.0324,0.013523,0.002678,0.000431,0.003761
83576000,0.0324,0.013523,0.002678,0.000431,0.003643
83577000,0.0324,0.013523,0.002678,0.000431,0.000823
83578000,0.0324,0.013523,0.002678,0.000431,0.000940
83579000,0.0324,0.013523,0.002678,0.000431,0.000705
83580000,0.0324,0.013523,0.002678,0.000431,0.000940
83581000,0.0324,0.013523,0.002678,0.000431,0.000940
83582000,0.0324,0.013523,0.002678,0.000431,0.000705
83583000,0.0324,0.013523,0.002678,0.000431,0.000940
83584000,0.0324,0.013523,0.002678,0.000431,0.000940
83585000,0.0324,0.013523,0.002678,0.000431,0.000705
83586000,0.0324,0.013523,0.002678,0.000431,0.000940
83587000,0.0324,0.013523,0.002678,0.000431,0.000705
83588000,0.0324,0.013523,0.002678,0.000431,0.000940
83589000,0.0324,0.013523,0.002678,0.000431,0.000823
83590000,0.0324,0.013523,0.002678,0.000431,0.000823
83591000,0.0324,0.013523,0.002678,0.000431,0.000823
83592000,0.0324,0.013523,0.002678,0.000431,0.000823
83593000,0.0324,0.013523,0.002678,0.000431,0.000940
83594000,0.0324,0.013523,0.002678,0.000431,0.000705
83595000,0.0324,0.013523,0.002678,0.000431,0.000940
83596000,0.0324,0.013523,0.002678,0.000431,0.000823
83597000,0.0324,0.013523,0.002678,0.000431,0.000823
83598000,0.0324,0.013523,0.002678,0.000431,0.000823
83599000,0.0324,0.013523,0.002678,0.000431,0.000823
83600000,0.0324,0.013523,0.002678,0.000431,0.000823
83601000,0.0324,0.013523,0.002678,0.000431,0.100369
83602000,0.0324,0.013523,0.002678,0.000431,0.513716
83603000,0.0324,0.013523,0.002678,0.000431,0.536634
83604000,0.0324,0.013523,0.002678,0.000431,0.133512
83605000,0.0324,0.013523,0.002678,0.000431,0.132102
83606000,0.0324,0.013523,0.002678,0.000431,0.547916
83607000,0.0324,0.013523,0.002678,0.000431,0.230708
83608000,0.0324,0.013523,0.002678,0.000431,0.251628
83609000,0.0324,0.013523,0.002678,0.000431,0.322380
83610000,0.0324,0.013523,0.002678,0.000431,0.146205
83611000,0.0324,0.013523,0.002678,0.000431,0.137978
83612000,0.0324,0.013523,0.002678,0.000431,0.132102
83613000,0.0324,0.013523,0.002678,0.000431,0.285593
83614000,0.0324,0.013523,0.002678,0.000431,0.336718
83615000,0.0324,0.013523,0.002678,0.000431,0.063113
83616000,0.0324,0.013523,0.002678,0.000431,0.050067
83617000,0.0324,0.013523,0.002678,0.000431,0.040900
83618000,0.0324,0.013523,0.002678,0.000431,0.032320
83619000,0.0324,0.013523,0.002678,0.000431,0.027972
83620000,0.0324,0.013523,0.002678,0.000431,0.017629
83621000,0.0324,0.013523,0.002678,0.000431,0.017042
83622000,0.0324,0.013523,0.002678,0.000431,0.015279
83623000,0.0324,0.013523,0.002678,0.000431,0.011753
83624000,0.0324,0.013523,0.002678,0.000431,0.011165
83625000,0.0324,0.013523,0.002678,0.000431,0.009637
83626000,0.0324,0.013523,0.002678,0.000431,0.009520
83627000,0.0324,0.013523,0.002678,0.000431,0.008815
83628000,0.0324,0.013523,0.002678,0.000431,0.007639
83629000,0.0324,0.013523,0.002678,0.000431,0.008227
83630000,0.0324,0.013523,0.002678,0.000431,0.010225
83631000,0.0324,0.013523,0.002678,0.000431,0.007169
83632000,0.0324,0.013523,0.002678,0.000431,0.008697
83633000,0.0324,0.013523,0.002678,0.000431,0.007052
83634000,0.0324,0.013523,0.002678,0.000431,0.007522
83635000,0.0324,0.013523,0.002678,0.000431,0.005876
83636000,0.0324,0.013523,0.002678,0.000431,0.005289
83637000,0.0324,0.013523,0.002678,0.000431,0.006817
83638000,0.0324,0.013523,0.002678,0.000431,0.004113
83639000,0.0324,0.013523,0.002678,0.000431,0.003996
83640000,0.0324,0.013523,0.002678,0.000431,0.004231
83641000,0.0324,0.013523,0.002678,0.000431,0.004349
83642000,0.0324,0.013523,0.002678,0.000431,0.003878
83643000,0.0324,0.013523,0.002678,0.000431,0.004231
83644000,0.0324,0.013523,0.002678,0.000431,0.004466
83645000,0.0324,0.013523,0.002678,0.000431,0.004701
83646000,0.0324,0.013523,0.002678,0.000431,0.003291
83647000,0.0324,0.013523,0.002678,0.000431,0.002351
83648000,0.0324,0.013523,0.002678,0.000431,0.002586
83649000,0.0324,0.013523,0.002678,0.000431,0.002586
83650000,0.0324,0.013523,0.002678,0.000431,0.002586
83651000,0.0324,0.013523,0.002678,0.000431,0.002233
83652000,0.0324,0.013523,0.002678,0.000431,0.002821
83653000,0.0324,0.013523,0.002678,0.000431,0.002586
83654000,0.0324,0.013523,0.002678,0.000431,0.002351
83655000,0.0324,0.013523,0.002678,0.000431,0.002468
83656000,0.0324,0.013523,0.002678,0.000431,0.004584
83657000,0.0324,0.013523,0.002678,0.000431,0.001998
83658000,0.0324,0.013523,0.002678,0.000431,0.001645
83659000,0.0324,0.013523,0.002678,0.000431,0.001645
83660000,0.0324,0.013523,0.002678,0.000431,0.003173
83661000,0.0324,0.013523,0.002678,0.000431,0.002351
83662000,0.0324,0.013523,0.002678,0.000431,0.000940
83663000,0.0324,0.013523,0.002678,0.000431,0.000823
83664000,0.0324,0.013523,0.002678,0.000431,0.000823
83665000,0.0324,0.013523,0.002678,0.000431,0.000823
83666000,0.0324,0.013523,0.002678,0.000431,0.000823
83667000,0.0324,0.013523,0.002678,0.000431,0.000940
83668000,0.0324,0.013523,0.002678,0.000431,0.000705
83669000,0.0324,0.013523,0.002678,0.000431,0.000940
83670000,0.0324,0.013523,0.002678,0.000431,0.000705
83671000,0.0324,0.013523,0.002678,0.000431,0.000823
83672000,0.0324,0.013523,0.002678,0.000431,0.000940
83673000,0.0324,0.013523,0.002678,0.000431,0.000823
83674000,0.0324,0.013523,0.002678,0.000431,0.000823
83675000,0.0324,0.013523,0.002678,0.000431,0.000823
83676000,0.0324,0.013523,0.002678,0.000431,0.000823
83677000,0.0324,0.013523,0.002678,0.000431,0.000823
83678000,0.0324,0.013523,0.002678,0.000431,0.000940
83679000,0.0324,0.013523,0.002678,0.000431,0.000705
83680000,0.0324,0.013523,0.002678,0.000431,0.000940
83681000,0.0324,0.013523,0.002678,0.000431,0.000705
83682000,0.0324,0.013523,0.002678,0.000431,0.000940
83683000,0.0324,0.013523,0.002678,0.000431,0.000940
83684000,0.0324,0.013523,0.002678,0.000431,0.000705
83685000,0.0324,0.013523,0.002678,0.000431,0.000940
83686000,0.0324,0.013523,0.002678,0.000431,0.000705
83687000,0.0324,0.013523,0.002678,0.000431,0.000940
83688000,0.0324,0.013523,0.002678,0.000431,0.000823
83689000,0.0324,0.013523,0.002678,0.000431,0.000823
83690000,0.0324,0.013523,0.002678,0.000431,0.000823
83691000,0.0324,0.013523,0.002678,0.000431,0.000823
83692000,0.0324,0.013523,0.002678,0.000431,0.000940
83693000,0.0324,0.013523,0.002678,0.000431,0.000705
83694000,0.0324,0.013523,0.002678,0.000431,0.000940
83695000,0.0324,0.013523,0.002678,0.000431,0.000823
83696000,0.0324,0.013523,0.002678,0.000431,0.000823
83697000,0.0324,0.013523,0.002678,0.000431,0.000823
83698000,0.0324,0.013523,0.002678,0.000431,0.000823
83699000,0.0324,0.013523,0.002678,0.000431,0.000823
83700000,0.0324,0.013523,0.002678,0.000431,0.000823
83701000,0.0324,0.013523,0.002678,0.000431,0.000940
83702000,0.0324,0.013523,0.002678,0.000431,0.000823
83703000,0.0324,0.013523,0.002678,0.000431,0.000823
83704000,0.0324,0.013523,0.002678,0.000431,0.000705
83705000,0.0324,0.013523,0.002678,0.000431,0.000940
83706000,0.0324,0.013523,0.002678,0.000431,0.000940
83707000,0.0324,0.013523,0.002678,0.000431,0.000705
83708000,0.0324,0.013523,0.002678,0.000431,0.000940
83709000,0.0324,0.013523,0.002678,0.000431,0.000705
83710000,0.0324,0.013523,0.002678,0.000431,0.000940
83711000,0.0324,0.013523,0.002678,0.000431,0.000823
83712000,0.0324,0.013523,0.002678,0.000431,0.065228
83713000,0.0324,0.013523,0.002678,0.000431,0.480103
83714000,0.0324,0.013523,0.002678,0.000431,0.600216
83715000,0.0324,0.013523,0.002678,0.000431,0.133042
83716000,0.0324,0.013523,0.002678,0.000431,0.134452
83717000,0.0324,0.013523,0.002678,0.000431,0.610206
83718000,0.0324,0.013523,0.002678,0.000431,0.237289
83719000,0.0324,0.013523,0.002678,0.000431,0.240463
83720000,0.0324,0.013523,0.002678,0.000431,0.323555
83721000,0.0324,0.013523,0.002678,0.000431,0.138918
83722000,0.0324,0.013523,0.002678,0.000431,0.157370
83723000,0.0324,0.013523,0.002678,0.000431,0.101192
83724000,0.0324,0.013523,0.002678,0.000431,0.472111
83725000,0.0324,0.013523,0.002678,0.000431,0.173472
83726000,0.0324,0.013523,0.002678,0.000431,0.081094
83727000,0.0324,0.013523,0.002678,0.000431,0.061350
83728000,0.0324,0.013523,0.002678,0.000431,0.057706
83729000,0.0324,0.013523,0.002678,0.000431,0.047481
83730000,0.0324,0.013523,0.002678,0.000431,0.045366
83731000,0.0324,0.013523,0.002678,0.000431,0.032085
83732000,0.0324,0.013523,0.002678,0.000431,0.026796
83733000,0.0324,0.013523,0.002678,0.000431,0.024211
83734000,0.0324,0.013523,0.002678,0.000431,0.028794
83735000,0.0324,0.013523,0.002678,0.000431,0.027267
83736000,0.0324,0.013523,0.002678,0.000431,0.018922
83737000,0.0324,0.013523,0.002678,0.000431,0.016807
83738000,0.0324,0.013523,0.002678,0.000431,0.012693
83739000,0.0324,0.013523,0.002678,0.000431,0.012458
83740000,0.0324,0.013523,0.002678,0.000431,0.015279
83741000,0.0324,0.013523,0.002678,0.000431,0.008697
83742000,0.0324,0.013523,0.002678,0.000431,0.008815
83743000,0.0324,0.013523,0.002678,0.000431,0.007639
83744000,0.0324,0.013523,0.002678,0.000431,0.007757
83745000,0.0324,0.013523,0.002678,0.000431,0.007639
83746000,0.0324,0.013523,0.002678,0.000431,0.007052
83747000,0.0324,0.013523,0.002678,0.000431,0.009990
83748000,0.0324,0.013523,0.002678,0.000431,0.008462
83749000,0.0324,0.013523,0.002678,0.000431,0.005759
83750000,0.0324,0.013523,0.002678,0.000431,0.005759
83751000,0.0324,0.013523,0.002678,0.000431,0.006111
83752000,0.0324,0.013523,0.002678,0.000431,0.005054
83753000,0.0324,0.013523,0.002678,0.000431,0.005994
83754000,0.0324,0.013523,0.002678,0.000431,0.005876
83755000,0.0324,0.013523,0.002678,0.000431,0.006934
83756000,0.0324,0.013523,0.002678,0.000431,0.004113
83757000,0.0324,0.013523,0.002678,0.000431,0.004113
83758000,0.0324,0.013523,0.002678,0.000431,0.003996
83759000,0.0324,0.013523,0.002678,0.000431,0.004349
83760000,0.0324,0.013523,0.002678,0.000431,0.004349
83761000,0.0324,0.013523,0.002678,0.000431,0.003643
83762000,0.0324,0.013523,0.002678,0.000431,0.004584
83763000,0.0324,0.013523,0.002678,0.000431,0.004113
83764000,0.0324,0.013523,0.002678,0.000431,0.004466
83765000,0.0324,0.013523,0.002678,0.000431,0.002468
83766000,0.0324,0.013523,0.002678,0.000431,0.002703
83767000,0.0324,0.013523,0.002678,0.000431,0.002703
83768000,0.0324,0.013523,0.002678,0.000431,0.002233
83769000,0.0324,0.013523,0.002678,0.000431,0.002821
83770000,0.0324,0.013523,0.002678,0.000431,0.002468
83771000,0.0324,0.013523,0.002678,0.000431,0.002586
83772000,0.0324,0.013523,0.002678,0.000431,0.002703
83773000,0.0324,0.013523,0.002678,0.000431,0.002468
83774000,0.0324,0.013523,0.002678,0.000431,0.002586
83775000,0.0324,0.013523,0.002678,0.000431,0.002586
83776000,0.0324,0.013523,0.002678,0.000431,0.002351
83777000,0.0324,0.013523,0.002678,0.000431,0.002703
83778000,0.0324,0.013523,0.002678,0.000431,0.002586
83779000,0.0324,0.013523,0.002678,0.000431,0.002351
83780000,0.0324,0.013523,0.002678,0.000431,0.002703
83781000,0.0324,0.013523,0.002678,0.000431,0.002703
83782000,0.0324,0.013523,0.002678,0.000431,0.002586
83783000,0.0324,0.013523,0.002678,0.000431,0.002468
83784000,0.0324,0.013523,0.002678,0.000431,0.002468
83785000,0.0324,0.013523,0.002678,0.000431,0.002703
83786000,0.0324,0.013523,0.002678,0.000431,0.002468
83787000,0.0324,0.013523,0.002678,0.000431,0.002586
83788000,0.0324,0.013523,0.002678,0.000431,0.002586
83789000,0.0324,0.013523,0.002678,0.000431,0.002703
83790000,0.0324,0.013523,0.002678,0.000431,0.002351
83791000,0.0324,0.013523,0.002678,0.000431,0.002586
83792000,0.0324,0.013523,0.002678,0.000431,0.002703
83793000,0.0324,0.013523,0.002678,0.000431,0.002468
83794000,0.0324,0.013523,0.002678,0.000431,0.002703
83795000,0.0324,0.013523,0.002678,0.000431,0.004701
83796000,0.0324,0.013523,0.002678,0.000431,0.015279
83797000,0.0324,0.013523,0.002678,0.000431,0.574125
83798000,0.0324,0.013523,0.002678,0.000431,0.591872
83799000,0.0324,0.013523,0.002678,0.000431,0.133982
83800000,0.0324,0.013523,0.002678,0.000431,0.133042
83801000,0.0324,0.013523,0.002678,0.000431,0.519592
83802000,0.0324,0.013523,0.002678,0.000431,0.261853
83803000,0.0324,0.013523,0.002678,0.000431,0.265261
83804000,0.0324,0.013523,0.002678,0.000431,0.319089
83805000,0.0324,0.013523,0.002678,0.000431,0.140211
83806000,0.0324,0.013523,0.002678,0.000431,0.165127
83807000,0.0324,0.013523,0.002678,0.000431,0.108479
83808000,0.0324,0.013523,0.002678,0.000431,0.424512
83809000,0.0324,0.013523,0.002678,0.000431,0.169476
83810000,0.0324,0.013523,0.002678,0.000431,0.058999
83811000,0.0324,0.013523,0.002678,0.000431,0.049244
83812000,0.0324,0.013523,0.002678,0.000431,0.042898
83813000,0.0324,0.013523,0.002678,0.000431,0.031733
83814000,0.0324,0.013523,0.002678,0.000431,0.027031
83815000,0.0324,0.013523,0.002678,0.000431,0.021273
83816000,0.0324,0.013523,0.002678,0.000431,0.020802
83817000,0.0324,0.013523,0.002678,0.000431,0.021625
83818000,0.0324,0.013523,0.002678,0.000431,0.016336
83819000,0.0324,0.013523,0.002678,0.000431,0.015749
83820000,0.0324,0.013523,0.002678,0.000431,0.015984
83821000,0.0324,0.013523,0.002678,0.000431,0.016101
83822000,0.0324,0.013523,0.002678,0.000431,0.019980
83823000,0.0324,0.013523,0.002678,0.000431,0.014456
83824000,0.0324,0.013523,0.002678,0.000431,0.018805
83825000,0.0324,0.013523,0.002678,0.000431,0.013516
83826000,0.0324,0.013523,0.002678,0.000431,0.012105
83827000,0.0324,0.013523,0.002678,0.000431,0.007522
83828000,0.0324,0.013523,0.002678,0.000431,0.010695
83829000,0.0324,0.013523,0.002678,0.000431,0.007992
83830000,0.0324,0.013523,0.002678,0.000431,0.005641
83831000,0.0324,0.013523,0.002678,0.000431,0.007522
83832000,0.0324,0.013523,0.002678,0.000431,0.004584
83833000,0.0324,0.013523,0.002678,0.000431,0.005289
83834000,0.0324,0.013523,0.002678,0.000431,0.005994
83835000,0.0324,0.013523,0.002678,0.000431,0.005171
83836000,0.0324,0.013523,0.002678,0.000431,0.004231
83837000,0.0324,0.013523,0.002678,0.000431,0.004113
83838000,0.0324,0.013523,0.002678,0.000431,0.004231
83839000,0.0324,0.013523,0.002678,0.000431,0.004466
83840000,0.0324,0.013523,0.002678,0.000431,0.004113
83841000,0.0324,0.013523,0.002678,0.000431,0.004231
83842000,0.0324,0.013523,0.002678,0.000431,0.004113
83843000,0.0324,0.013523,0.002678,0.000431,0.005759
83844000,0.0324,0.013523,0.002678,0.000431,0.004584
83845000,0.0324,0.013523,0.002678,0.000431,0.003996
83846000,0.0324,0.013523,0.002678,0.000431,0.002468
83847000,0.0324,0.013523,0.002678,0.000431,0.002468
83848000,0.0324,0.013523,0.002678,0.000431,0.002703
83849000,0.0324,0.013523,0.002678,0.000431,0.002586
83850000,0.0324,0.013523,0.002678,0.000431,0.002468
83851000,0.0324,0.013523,0.002678,0.000431,0.002468
83852000,0.0324,0.013523,0.002678,0.000431,0.002586
83853000,0.0324,0.013523,0.002678,0.000431,0.002703
83854000,0.0324,0.013523,0.002678,0.000431,0.002586
83855000,0.0324,0.013523,0.002678,0.000431,0.002233
83856000,0.0324,0.013523,0.002678,0.000431,0.002821
83857000,0.0324,0.013523,0.002678,0.000431,0.002468
83858000,0.0324,0.013523,0.002678,0.000431,0.002586
83859000,0.0324,0.013523,0.002678,0.000431,0.003878
83860000,0.0324,0.013523,0.002678,0.000431,0.001763
83861000,0.0324,0.013523,0.002678,0.000431,0.001645
83862000,0.0324,0.013523,0.002678,0.000431,0.001645
83863000,0.0324,0.013523,0.002678,0.000431,0.001880
83864000,0.0324,0.013523,0.002678,0.000431,0.001763
83865000,0.0324,0.013523,0.002678,0.000431,0.001645
83866000,0.0324,0.013523,0.002678,0.000431,0.001645
83867000,0.0324,0.013523,0.002678,0.000431,0.001763
83868000,0.0324,0.013523,0.002678,0.000431,0.001763
83869000,0.0324,0.013523,0.002678,0.000431,0.001645
83870000,0.0324,0.013523,0.002678,0.000431,0.001763
83871000,0.0324,0.013523,0.002678,0.000431,0.001645
83872000,0.0324,0.013523,0.002678,0.000431,0.001880
83873000,0.0324,0.013523,0.002678,0.000431,0.001645
83874000,0.0324,0.013523,0.002678,0.000431,0.001645
83875000,0.0324,0.013523,0.002678,0.000431,0.001645
83876000,0.0324,0.013523,0.002678,0.000431,0.001763
83877000,0.0324,0.013523,0.002678,0.000431,0.001880
83878000,0.0324,0.013523,0.002678,0.000431,0.001528
83879000,0.0324,0.013523,0.002678,0.000431,0.001880
83880000,0.0324,0.013523,0.002678,0.000431,0.001528
83881000,0.0324,0.013523,0.002678,0.000431,0.001763
83882000,0.0324,0.013523,0.002678,0.000431,0.001763
83883000,0.0324,0.013523,0.002678,0.000431,0.001763
83884000,0.0324,0.013523,0.002678,0.000431,0.001763
83885000,0.0324,0.013523,0.002678,0.000431,0.001528
83886000,0.0324,0.013523,0.002678,0.000431,0.001880
83887000,0.0324,0.013523,0.002678,0.000431,0.001763
83888000,0.0324,0.013523,0.002678,0.000431,0.001528
83889000,0.0324,0.013523,0.002678,0.000431,0.001763
83890000,0.0324,0.013523,0.002678,0.000431,0.001763
83891000,0.0324,0.013523,0.002678,0.000431,0.001763
83892000,0.0324,0.013523,0.002678,0.000431,0.001528
83893000,0.0324,0.013523,0.002678,0.000431,0.003643
83894000,0.0324,0.013523,0.002678,0.000431,0.000940
83895000,0.0324,0.013523,0.002678,0.000431,0.000940
83896000,0.0324,0.013523,0.002678,0.000431,0.000705
83897000,0.0324,0.013523,0.002678,0.000431,0.000940
83898000,0.0324,0.013523,0.002678,0.000431,0.000823
83899000,0.0324,0.013523,0.002678,0.000431,0.000823
83900000,0.0324,0.013523,0.002678,0.000431,0.000940
83901000,0.0324,0.013523,0.002678,0.000431,0.250570
83902000,0.0324,0.013523,0.002678,0.000431,0.630186
83903000,0.0324,0.013523,0.002678,0.000431,0.323320
83904000,0.0324,0.013523,0.002678,0.000431,0.132572
83905000,0.0324,0.013523,0.002678,0.000431,0.133042
83906000,0.0324,0.013523,0.002678,0.000431,0.641586
83907000,0.0324,0.013523,0.002678,0.000431,0.233646
83908000,0.0324,0.013523,0.002678,0.000431,0.252098
83909000,0.0324,0.013523,0.002678,0.000431,0.259385
83910000,0.0324,0.013523,0.002678,0.000431,0.144207
83911000,0.0324,0.013523,0.002678,0.000431,0.176057
83912000,0.0324,0.013523,0.002678,0.000431,0.090144
83913000,0.0324,0.013523,0.002678,0.000431,0.488330
83914000,0.0324,0.013523,0.002678,0.000431,0.113180
83915000,0.0324,0.013523,0.002678,0.000431,0.080977
83916000,0.0324,0.013523,0.002678,0.000431,0.064405
83917000,0.0324,0.013523,0.002678,0.000431,0.051242
83918000,0.0324,0.013523,0.002678,0.000431,0.049597
83919000,0.0324,0.013523,0.002678,0.000431,0.042193
83920000,0.0324,0.013523,0.002678,0.000431,0.031145
83921000,0.0324,0.013523,0.002678,0.000431,0.021508
83922000,0.0324,0.013523,0.002678,0.000431,0.019862
83923000,0.0324,0.013523,0.002678,0.000431,0.022448
83924000,0.0324,0.013523,0.002678,0.000431,0.012576
83925000,0.0324,0.013523,0.002678,0.000431,0.009872
83926000,0.0324,0.013523,0.002678,0.000431,0.009872
83927000,0.0324,0.013523,0.002678,0.000431,0.008815
83928000,0.0324,0.013523,0.002678,0.000431,0.008815
83929000,0.0324,0.013523,0.002678,0.000431,0.010813
83930000,0.0324,0.013523,0.002678,0.000431,0.009285
83931000,0.0324,0.013523,0.002678,0.000431,0.008815
83932000,0.0324,0.013523,0.002678,0.000431,0.005876
83933000,0.0324,0.013523,0.002678,0.000431,0.005171
83934000,0.0324,0.013523,0.002678,0.000431,0.005054
83935000,0.0324,0.013523,0.002678,0.000431,0.004819
83936000,0.0324,0.013523,0.002678,0.000431,0.006229
83937000,0.0324,0.013523,0.002678,0.000431,0.008227
83938000,0.0324,0.013523,0.002678,0.000431,0.003408
83939000,0.0324,0.013523,0.002678,0.000431,0.004584
83940000,0.0324,0.013523,0.002678,0.000431,0.002586
83941000,0.0324,0.013523,0.002678,0.000431,0.004584
83942000,0.0324,0.013523,0.002678,0.000431,0.001763
83943000,0.0324,0.013523,0.002678,0.000431,0.001645
83944000,0.0324,0.013523,0.002678,0.000431,0.001645
83945000,0.0324,0.013523,0.002678,0.000431,0.001645
83946000,0.0324,0.013523,0.002678,0.000431,0.001645
83947000,0.0324,0.013523,0.002678,0.000431,0.001763
83948000,0.0324,0.013523,0.002678,0.000431,0.001645
83949000,0.0324,0.013523,0.002678,0.000431,0.001645
83950000,0.0324,0.013523,0.002678,0.000431,0.001763
83951000,0.0324,0.013523,0.002678,0.000431,0.001645
83952000,0.0324,0.013523,0.002678,0.000431,0.001645
83953000,0.0324,0.013523,0.002678,0.000431,0.001528
83954000,0.0324,0.013523,0.002678,0.000431,0.001763
83955000,0.0324,0.013523,0.002678,0.000431,0.001763
83956000,0.0324,0.013523,0.002678,0.000431,0.001645
83957000,0.0324,0.013523,0.002678,0.000431,0.001645
83958000,0.0324,0.013523,0.002678,0.000431,0.001645
83959000,0.0324,0.013523,0.002678,0.000431,0.001645
83960000,0.0324,0.013523,0.002678,0.000431,0.001763
83961000,0.0324,0.013523,0.002678,0.000431,0.001763
83962000,0.0324,0.013523,0.002678,0.000431,0.001645
83963000,0.0324,0.013523,0.002678,0.000431,0.001645
83964000,0.0324,0.013523,0.002678,0.000431,0.001645
83965000,0.0324,0.013523,0.002678,0.000431,0.001763
83966000,0.0324,0.013523,0.002678,0.000431,0.001645
83967000,0.0324,0.013523,0.002678,0.000431,0.001645
83968000,0.0324,0.013523,0.002678,0.000431,0.001645
83969000,0.0324,0.013523,0.002678,0.000431,0.001645
83970000,0.0324,0.013523,0.002678,0.000431,0.001763
83971000,0.0324,0.013523,0.002678,0.000431,0.001645
83972000,0.0324,0.013523,0.002678,0.000431,0.001645
83973000,0.0324,0.013523,0.002678,0.000431,0.001645
83974000,0.0324,0.013523,0.002678,0.000431,0.001763
83975000,0.0324,0.013523,0.002678,0.000431,0.003408
83976000,0.0324,0.013523,0.002678,0.000431,0.000823
83977000,0.0324,0.013523,0.002678,0.000431,0.000823
83978000,0.0324,0.013523,0.002678,0.000431,0.000823
83979000,0.0324,0.013523,0.002678,0.000431,0.000940
83980000,0.0324,0.013523,0.002678,0.000431,0.000940
83981000,0.0324,0.013523,0.002678,0.000431,0.000705
83982000,0.0324,0.013523,0.002678,0.000431,0.000823
83983000,0.0324,0.013523,0.002678,0.000431,0.000823
83984000,0.0324,0.013523,0.002678,0.000431,0.000940
83985000,0.0324,0.013523,0.002678,0.000431,0.000823
83986000,0.0324,0.013523,0.002678,0.000431,0.000823
83987000,0.0324,0.013523,0.002678,0.000431,0.000705
83988000,0.0324,0.013523,0.002678,0.000431,0.000940
83989000,0.0324,0.013523,0.002678,0.000431,0.000940
83990000,0.0324,0.013523,0.002678,0.000431,0.000705
83991000,0.0324,0.013523,0.002678,0.000431,0.000940
83992000,0.0324,0.013523,0.002678,0.000431,0.000705
83993000,0.0324,0.013523,0.002678,0.000431,0.000940
83994000,0.0324,0.013523,0.002678,0.000431,0.000940
83995000,0.0324,0.013523,0.002678,0.000431,0.000705
83996000,0.0324,0.013523,0.002678,0.000431,0.000940
83997000,0.0324,0.013523,0.002678,0.000431,0.000705
83998000,0.0324,0.013523,0.002678,0.000431,0.014809
83999000,0.0324,0.013523,0.002678,0.000431,0.533578
