Cycle,Area(mm^2),PeakDynamic(W),SubthresholdLeakage(W),GateLeakage(W),RunTimeDynamic(W)
75000000,0.0324,0.013523,0.002678,0.000431,0.000823
75001000,0.0324,0.013523,0.002678,0.000431,0.000823
75002000,0.0324,0.013523,0.002678,0.000431,0.000823
75003000,0.0324,0.013523,0.002678,0.000431,0.000823
75004000,0.0324,0.013523,0.002678,0.000431,0.000823
75005000,0.0324,0.013523,0.002678,0.000431,0.000940
75006000,0.0324,0.013523,0.002678,0.000431,0.000823
75007000,0.0324,0.013523,0.002678,0.000431,0.000823
75008000,0.0324,0.013523,0.002678,0.000431,0.000705
75009000,0.0324,0.013523,0.002678,0.000431,0.000940
75010000,0.0324,0.013523,0.002678,0.000431,0.003878
75011000,0.0324,0.013523,0.002678,0.000431,0.396188
75012000,0.0324,0.013523,0.002678,0.000431,0.719860
75013000,0.0324,0.013523,0.002678,0.000431,0.137273
75014000,0.0324,0.013523,0.002678,0.000431,0.133512
75015000,0.0324,0.013523,0.002678,0.000431,0.166302
75016000,0.0324,0.013523,0.002678,0.000431,0.590462
75017000,0.0324,0.013523,0.002678,0.000431,0.285476
75018000,0.0324,0.013523,0.002678,0.000431,0.266201
75019000,0.0324,0.013523,0.002678,0.000431,0.228710
75020000,0.0324,0.013523,0.002678,0.000431,0.137508
75021000,0.0324,0.013523,0.002678,0.000431,0.156312
75022000,0.0324,0.013523,0.002678,0.000431,0.162306
75023000,0.0324,0.013523,0.002678,0.000431,0.419693
75024000,0.0324,0.013523,0.002678,0.000431,0.048422
75025000,0.0324,0.013523,0.002678,0.000431,0.039137
75026000,0.0324,0.013523,0.002678,0.000431,0.028442
75027000,0.0324,0.013523,0.002678,0.000431,0.024798
75028000,0.0324,0.013523,0.002678,0.000431,0.021273
75029000,0.0324,0.013523,0.002678,0.000431,0.018922
75030000,0.0324,0.013523,0.002678,0.000431,0.015044
75031000,0.0324,0.013523,0.002678,0.000431,0.012811
75032000,0.0324,0.013523,0.002678,0.000431,0.014573
75033000,0.0324,0.013523,0.002678,0.000431,0.013868
75034000,0.0324,0.013523,0.002678,0.000431,0.015279
75035000,0.0324,0.013523,0.002678,0.000431,0.012458
75036000,0.0324,0.013523,0.002678,0.000431,0.014338
75037000,0.0324,0.013523,0.002678,0.000431,0.013398
75038000,0.0324,0.013523,0.002678,0.000431,0.011753
75039000,0.0324,0.013523,0.002678,0.000431,0.011753
75040000,0.0324,0.013523,0.002678,0.000431,0.011165
75041000,0.0324,0.013523,0.002678,0.000431,0.013751
75042000,0.0324,0.013523,0.002678,0.000431,0.011988
75043000,0.0324,0.013523,0.002678,0.000431,0.005876
75044000,0.0324,0.013523,0.002678,0.000431,0.006111
75045000,0.0324,0.013523,0.002678,0.000431,0.005759
75046000,0.0324,0.013523,0.002678,0.000431,0.008109
75047000,0.0324,0.013523,0.002678,0.000431,0.005289
75048000,0.0324,0.013523,0.002678,0.000431,0.004819
75049000,0.0324,0.013523,0.002678,0.000431,0.005406
75050000,0.0324,0.013523,0.002678,0.000431,0.005171
75051000,0.0324,0.013523,0.002678,0.000431,0.005406
75052000,0.0324,0.013523,0.002678,0.000431,0.005876
75053000,0.0324,0.013523,0.002678,0.000431,0.006229
75054000,0.0324,0.013523,0.002678,0.000431,0.003526
75055000,0.0324,0.013523,0.002678,0.000431,0.003526
75056000,0.0324,0.013523,0.002678,0.000431,0.003408
75057000,0.0324,0.013523,0.002678,0.000431,0.003408
75058000,0.0324,0.013523,0.002678,0.000431,0.004466
75059000,0.0324,0.013523,0.002678,0.000431,0.003643
75060000,0.0324,0.013523,0.002678,0.000431,0.002586
75061000,0.0324,0.013523,0.002678,0.000431,0.002821
75062000,0.0324,0.013523,0.002678,0.000431,0.003526
75063000,0.0324,0.013523,0.002678,0.000431,0.001645
75064000,0.0324,0.013523,0.002678,0.000431,0.001645
75065000,0.0324,0.013523,0.002678,0.000431,0.001880
75066000,0.0324,0.013523,0.002678,0.000431,0.001528
75067000,0.0324,0.013523,0.002678,0.000431,0.001763
75068000,0.0324,0.013523,0.002678,0.000431,0.001763
75069000,0.0324,0.013523,0.002678,0.000431,0.001763
75070000,0.0324,0.013523,0.002678,0.000431,0.001763
75071000,0.0324,0.013523,0.002678,0.000431,0.001528
75072000,0.0324,0.013523,0.002678,0.000431,0.001880
75073000,0.0324,0.013523,0.002678,0.000431,0.001645
75074000,0.0324,0.013523,0.002678,0.000431,0.001763
75075000,0.0324,0.013523,0.002678,0.000431,0.001763
75076000,0.0324,0.013523,0.002678,0.000431,0.001763
75077000,0.0324,0.013523,0.002678,0.000431,0.001528
75078000,0.0324,0.013523,0.002678,0.000431,0.001880
75079000,0.0324,0.013523,0.002678,0.000431,0.002586
75080000,0.0324,0.013523,0.002678,0.000431,0.002233
75081000,0.0324,0.013523,0.002678,0.000431,0.000940
75082000,0.0324,0.013523,0.002678,0.000431,0.000705
75083000,0.0324,0.013523,0.002678,0.000431,0.000940
75084000,0.0324,0.013523,0.002678,0.000431,0.000705
75085000,0.0324,0.013523,0.002678,0.000431,0.000940
75086000,0.0324,0.013523,0.002678,0.000431,0.000823
75087000,0.0324,0.013523,0.002678,0.000431,0.000823
75088000,0.0324,0.013523,0.002678,0.000431,0.000940
75089000,0.0324,0.013523,0.002678,0.000431,0.000705
75090000,0.0324,0.013523,0.002678,0.000431,0.000940
75091000,0.0324,0.013523,0.002678,0.000431,0.000940
75092000,0.0324,0.013523,0.002678,0.000431,0.173707
75093000,0.0324,0.013523,0.002678,0.000431,0.428860
75094000,0.0324,0.013523,0.002678,0.000431,0.537221
75095000,0.0324,0.013523,0.002678,0.000431,0.134922
75096000,0.0324,0.013523,0.002678,0.000431,0.130691
75097000,0.0324,0.013523,0.002678,0.000431,0.563078
75098000,0.0324,0.013523,0.002678,0.000431,0.265496
75099000,0.0324,0.013523,0.002678,0.000431,0.245164
75100000,0.0324,0.013523,0.002678,0.000431,0.264909
75101000,0.0324,0.013523,0.002678,0.000431,0.137273
75102000,0.0324,0.013523,0.002678,0.000431,0.142327
75103000,0.0324,0.013523,0.002678,0.000431,0.158193
75104000,0.0324,0.013523,0.002678,0.000431,0.157253
75105000,0.0324,0.013523,0.002678,0.000431,0.431799
75106000,0.0324,0.013523,0.002678,0.000431,0.060880
75107000,0.0324,0.013523,0.002678,0.000431,0.043956
75108000,0.0324,0.013523,0.002678,0.000431,0.042545
75109000,0.0324,0.013523,0.002678,0.000431,0.029970
75110000,0.0324,0.013523,0.002678,0.000431,0.029735
75111000,0.0324,0.013523,0.002678,0.000431,0.025974
75112000,0.0324,0.013523,0.002678,0.000431,0.019392
75113000,0.0324,0.013523,0.002678,0.000431,0.019157
75114000,0.0324,0.013523,0.002678,0.000431,0.022213
75115000,0.0324,0.013523,0.002678,0.000431,0.020685
75116000,0.0324,0.013523,0.002678,0.000431,0.016454
75117000,0.0324,0.013523,0.002678,0.000431,0.016219
75118000,0.0324,0.013523,0.002678,0.000431,0.012340
75119000,0.0324,0.013523,0.002678,0.000431,0.014221
75120000,0.0324,0.013523,0.002678,0.000431,0.011048
75121000,0.0324,0.013523,0.002678,0.000431,0.010930
75122000,0.0324,0.013523,0.002678,0.000431,0.013633
75123000,0.0324,0.013523,0.002678,0.000431,0.009637
75124000,0.0324,0.013523,0.002678,0.000431,0.010460
75125000,0.0324,0.013523,0.002678,0.000431,0.009872
75126000,0.0324,0.013523,0.002678,0.000431,0.009285
75127000,0.0324,0.013523,0.002678,0.000431,0.009872
75128000,0.0324,0.013523,0.002678,0.000431,0.010460
75129000,0.0324,0.013523,0.002678,0.000431,0.009637
75130000,0.0324,0.013523,0.002678,0.000431,0.007404
75131000,0.0324,0.013523,0.002678,0.000431,0.007639
75132000,0.0324,0.013523,0.002678,0.000431,0.007639
75133000,0.0324,0.013523,0.002678,0.000431,0.007874
75134000,0.0324,0.013523,0.002678,0.000431,0.007639
75135000,0.0324,0.013523,0.002678,0.000431,0.007404
75136000,0.0324,0.013523,0.002678,0.000431,0.007757
75137000,0.0324,0.013523,0.002678,0.000431,0.007287
75138000,0.0324,0.013523,0.002678,0.000431,0.008109
75139000,0.0324,0.013523,0.002678,0.000431,0.007052
75140000,0.0324,0.013523,0.002678,0.000431,0.007992
75141000,0.0324,0.013523,0.002678,0.000431,0.007522
75142000,0.0324,0.013523,0.002678,0.000431,0.007639
75143000,0.0324,0.013523,0.002678,0.000431,0.009167
75144000,0.0324,0.013523,0.002678,0.000431,0.006699
75145000,0.0324,0.013523,0.002678,0.000431,0.007287
75146000,0.0324,0.013523,0.002678,0.000431,0.008227
75147000,0.0324,0.013523,0.002678,0.000431,0.006582
75148000,0.0324,0.013523,0.002678,0.000431,0.005759
75149000,0.0324,0.013523,0.002678,0.000431,0.006111
75150000,0.0324,0.013523,0.002678,0.000431,0.005641
75151000,0.0324,0.013523,0.002678,0.000431,0.005876
75152000,0.0324,0.013523,0.002678,0.000431,0.006347
75153000,0.0324,0.013523,0.002678,0.000431,0.005289
75154000,0.0324,0.013523,0.002678,0.000431,0.006111
75155000,0.0324,0.013523,0.002678,0.000431,0.005876
75156000,0.0324,0.013523,0.002678,0.000431,0.005876
75157000,0.0324,0.013523,0.002678,0.000431,0.006934
75158000,0.0324,0.013523,0.002678,0.000431,0.005054
75159000,0.0324,0.013523,0.002678,0.000431,0.004936
75160000,0.0324,0.013523,0.002678,0.000431,0.004819
75161000,0.0324,0.013523,0.002678,0.000431,0.005289
75162000,0.0324,0.013523,0.002678,0.000431,0.007522
75163000,0.0324,0.013523,0.002678,0.000431,0.004349
75164000,0.0324,0.013523,0.002678,0.000431,0.003878
75165000,0.0324,0.013523,0.002678,0.000431,0.004231
75166000,0.0324,0.013523,0.002678,0.000431,0.003996
75167000,0.0324,0.013523,0.002678,0.000431,0.004231
75168000,0.0324,0.013523,0.002678,0.000431,0.004701
75169000,0.0324,0.013523,0.002678,0.000431,0.003526
75170000,0.0324,0.013523,0.002678,0.000431,0.004701
75171000,0.0324,0.013523,0.002678,0.000431,0.005406
75172000,0.0324,0.013523,0.002678,0.000431,0.003643
75173000,0.0324,0.013523,0.002678,0.000431,0.003643
75174000,0.0324,0.013523,0.002678,0.000431,0.002938
75175000,0.0324,0.013523,0.002678,0.000431,0.003761
75176000,0.0324,0.013523,0.002678,0.000431,0.002938
75177000,0.0324,0.013523,0.002678,0.000431,0.003643
75178000,0.0324,0.013523,0.002678,0.000431,0.003291
75179000,0.0324,0.013523,0.002678,0.000431,0.003291
75180000,0.0324,0.013523,0.002678,0.000431,0.003291
75181000,0.0324,0.013523,0.002678,0.000431,0.003408
75182000,0.0324,0.013523,0.002678,0.000431,0.003643
75183000,0.0324,0.013523,0.002678,0.000431,0.002821
75184000,0.0324,0.013523,0.002678,0.000431,0.003761
75185000,0.0324,0.013523,0.002678,0.000431,0.003291
75186000,0.0324,0.013523,0.002678,0.000431,0.003408
75187000,0.0324,0.013523,0.002678,0.000431,0.003173
75188000,0.0324,0.013523,0.002678,0.000431,0.003291
75189000,0.0324,0.013523,0.002678,0.000431,0.003291
75190000,0.0324,0.013523,0.002678,0.000431,0.003291
75191000,0.0324,0.013523,0.002678,0.000431,0.003408
75192000,0.0324,0.013523,0.002678,0.000431,0.003173
75193000,0.0324,0.013523,0.002678,0.000431,0.003761
75194000,0.0324,0.013523,0.002678,0.000431,0.002938
75195000,0.0324,0.013523,0.002678,0.000431,0.003643
75196000,0.0324,0.013523,0.002678,0.000431,0.003291
75197000,0.0324,0.013523,0.002678,0.000431,0.003291
75198000,0.0324,0.013523,0.002678,0.000431,0.003761
75199000,0.0324,0.013523,0.002678,0.000431,0.002821
75200000,0.0324,0.013523,0.002678,0.000431,0.003761
75201000,0.0324,0.013523,0.002678,0.000431,0.003173
75202000,0.0324,0.013523,0.002678,0.000431,0.003408
75203000,0.0324,0.013523,0.002678,0.000431,0.003291
75204000,0.0324,0.013523,0.002678,0.000431,0.003291
75205000,0.0324,0.013523,0.002678,0.000431,0.003408
75206000,0.0324,0.013523,0.002678,0.000431,0.003291
75207000,0.0324,0.013523,0.002678,0.000431,0.003643
75208000,0.0324,0.013523,0.002678,0.000431,0.003056
75209000,0.0324,0.013523,0.002678,0.000431,0.003526
75210000,0.0324,0.013523,0.002678,0.000431,0.003291
75211000,0.0324,0.013523,0.002678,0.000431,0.003408
75212000,0.0324,0.013523,0.002678,0.000431,0.003173
75213000,0.0324,0.013523,0.002678,0.000431,0.003291
75214000,0.0324,0.013523,0.002678,0.000431,0.004701
75215000,0.0324,0.013523,0.002678,0.000431,0.002938
75216000,0.0324,0.013523,0.002678,0.000431,0.000940
75217000,0.0324,0.013523,0.002678,0.000431,0.000823
75218000,0.0324,0.013523,0.002678,0.000431,0.000823
75219000,0.0324,0.013523,0.002678,0.000431,0.000705
75220000,0.0324,0.013523,0.002678,0.000431,0.000940
75221000,0.0324,0.013523,0.002678,0.000431,0.000940
75222000,0.0324,0.013523,0.002678,0.000431,0.000705
75223000,0.0324,0.013523,0.002678,0.000431,0.000940
75224000,0.0324,0.013523,0.002678,0.000431,0.000705
75225000,0.0324,0.013523,0.002678,0.000431,0.000940
75226000,0.0324,0.013523,0.002678,0.000431,0.000823
75227000,0.0324,0.013523,0.002678,0.000431,0.000823
75228000,0.0324,0.013523,0.002678,0.000431,0.000823
75229000,0.0324,0.013523,0.002678,0.000431,0.000823
75230000,0.0324,0.013523,0.002678,0.000431,0.000940
75231000,0.0324,0.013523,0.002678,0.000431,0.000823
75232000,0.0324,0.013523,0.002678,0.000431,0.000823
75233000,0.0324,0.013523,0.002678,0.000431,0.000823
75234000,0.0324,0.013523,0.002678,0.000431,0.000823
75235000,0.0324,0.013523,0.002678,0.000431,0.000823
75236000,0.0324,0.013523,0.002678,0.000431,0.000823
75237000,0.0324,0.013523,0.002678,0.000431,0.000940
75238000,0.0324,0.013523,0.002678,0.000431,0.000705
75239000,0.0324,0.013523,0.002678,0.000431,0.000940
75240000,0.0324,0.013523,0.002678,0.000431,0.000823
75241000,0.0324,0.013523,0.002678,0.000431,0.000823
75242000,0.0324,0.013523,0.002678,0.000431,0.000705
75243000,0.0324,0.013523,0.002678,0.000431,0.000940
75244000,0.0324,0.013523,0.002678,0.000431,0.000940
75245000,0.0324,0.013523,0.002678,0.000431,0.000705
75246000,0.0324,0.013523,0.002678,0.000431,0.000940
75247000,0.0324,0.013523,0.002678,0.000431,0.000705
75248000,0.0324,0.013523,0.002678,0.000431,0.000940
75249000,0.0324,0.013523,0.002678,0.000431,0.000823
75250000,0.0324,0.013523,0.002678,0.000431,0.000823
75251000,0.0324,0.013523,0.002678,0.000431,0.000940
75252000,0.0324,0.013523,0.002678,0.000431,0.000705
75253000,0.0324,0.013523,0.002678,0.000431,0.000940
75254000,0.0324,0.013523,0.002678,0.000431,0.000823
75255000,0.0324,0.013523,0.002678,0.000431,0.000823
75256000,0.0324,0.013523,0.002678,0.000431,0.000823
75257000,0.0324,0.013523,0.002678,0.000431,0.000823
75258000,0.0324,0.013523,0.002678,0.000431,0.000823
75259000,0.0324,0.013523,0.002678,0.000431,0.000823
75260000,0.0324,0.013523,0.002678,0.000431,0.000940
75261000,0.0324,0.013523,0.002678,0.000431,0.000705
75262000,0.0324,0.013523,0.002678,0.000431,0.000823
75263000,0.0324,0.013523,0.002678,0.000431,0.000940
75264000,0.0324,0.013523,0.002678,0.000431,0.000823
75265000,0.0324,0.013523,0.002678,0.000431,0.000823
75266000,0.0324,0.013523,0.002678,0.000431,0.000823
75267000,0.0324,0.013523,0.002678,0.000431,0.000705
75268000,0.0324,0.013523,0.002678,0.000431,0.000940
75269000,0.0324,0.013523,0.002678,0.000431,0.000940
75270000,0.0324,0.013523,0.002678,0.000431,0.000705
75271000,0.0324,0.013523,0.002678,0.000431,0.000940
75272000,0.0324,0.013523,0.002678,0.000431,0.000705
75273000,0.0324,0.013523,0.002678,0.000431,0.000940
75274000,0.0324,0.013523,0.002678,0.000431,0.000940
75275000,0.0324,0.013523,0.002678,0.000431,0.000705
75276000,0.0324,0.013523,0.002678,0.000431,0.000940
75277000,0.0324,0.013523,0.002678,0.000431,0.000705
75278000,0.0324,0.013523,0.002678,0.000431,0.000940
75279000,0.0324,0.013523,0.002678,0.000431,0.000823
75280000,0.0324,0.013523,0.002678,0.000431,0.000823
75281000,0.0324,0.013523,0.002678,0.000431,0.000823
75282000,0.0324,0.013523,0.002678,0.000431,0.000823
75283000,0.0324,0.013523,0.002678,0.000431,0.000940
75284000,0.0324,0.013523,0.002678,0.000431,0.000705
75285000,0.0324,0.013523,0.002678,0.000431,0.000940
75286000,0.0324,0.013523,0.002678,0.000431,0.000823
75287000,0.0324,0.013523,0.002678,0.000431,0.000823
75288000,0.0324,0.013523,0.002678,0.000431,0.000823
75289000,0.0324,0.013523,0.002678,0.000431,0.000823
75290000,0.0324,0.013523,0.002678,0.000431,0.000823
75291000,0.0324,0.013523,0.002678,0.000431,0.000823
75292000,0.0324,0.013523,0.002678,0.000431,0.000940
75293000,0.0324,0.013523,0.002678,0.000431,0.000705
75294000,0.0324,0.013523,0.002678,0.000431,0.000940
75295000,0.0324,0.013523,0.002678,0.000431,0.000705
75296000,0.0324,0.013523,0.002678,0.000431,0.000940
75297000,0.0324,0.013523,0.002678,0.000431,0.000823
75298000,0.0324,0.013523,0.002678,0.000431,0.000823
75299000,0.0324,0.013523,0.002678,0.000431,0.000940
75300000,0.0324,0.013523,0.002678,0.000431,0.000705
75301000,0.0324,0.013523,0.002678,0.000431,0.000940
75302000,0.0324,0.013523,0.002678,0.000431,0.000823
75303000,0.0324,0.013523,0.002678,0.000431,0.000823
75304000,0.0324,0.013523,0.002678,0.000431,0.000823
75305000,0.0324,0.013523,0.002678,0.000431,0.000823
75306000,0.0324,0.013523,0.002678,0.000431,0.000940
75307000,0.0324,0.013523,0.002678,0.000431,0.000705
75308000,0.0324,0.013523,0.002678,0.000431,0.000940
75309000,0.0324,0.013523,0.002678,0.000431,0.000823
75310000,0.0324,0.013523,0.002678,0.000431,0.000823
75311000,0.0324,0.013523,0.002678,0.000431,0.000823
75312000,0.0324,0.013523,0.002678,0.000431,0.000823
75313000,0.0324,0.013523,0.002678,0.000431,0.000823
75314000,0.0324,0.013523,0.002678,0.000431,0.000823
75315000,0.0324,0.013523,0.002678,0.000431,0.000823
75316000,0.0324,0.013523,0.002678,0.000431,0.000823
75317000,0.0324,0.013523,0.002678,0.000431,0.000940
75318000,0.0324,0.013523,0.002678,0.000431,0.000823
75319000,0.0324,0.013523,0.002678,0.000431,0.000823
75320000,0.0324,0.013523,0.002678,0.000431,0.000705
75321000,0.0324,0.013523,0.002678,0.000431,0.000940
75322000,0.0324,0.013523,0.002678,0.000431,0.000940
75323000,0.0324,0.013523,0.002678,0.000431,0.000705
75324000,0.0324,0.013523,0.002678,0.000431,0.000940
75325000,0.0324,0.013523,0.002678,0.000431,0.000705
75326000,0.0324,0.013523,0.002678,0.000431,0.000940
75327000,0.0324,0.013523,0.002678,0.000431,0.000823
75328000,0.0324,0.013523,0.002678,0.000431,0.000823
75329000,0.0324,0.013523,0.002678,0.000431,0.000940
75330000,0.0324,0.013523,0.002678,0.000431,0.000705
75331000,0.0324,0.013523,0.002678,0.000431,0.000940
75332000,0.0324,0.013523,0.002678,0.000431,0.000823
75333000,0.0324,0.013523,0.002678,0.000431,0.000823
75334000,0.0324,0.013523,0.002678,0.000431,0.000823
75335000,0.0324,0.013523,0.002678,0.000431,0.000823
75336000,0.0324,0.013523,0.002678,0.000431,0.000823
75337000,0.0324,0.013523,0.002678,0.000431,0.000823
75338000,0.0324,0.013523,0.002678,0.000431,0.000940
75339000,0.0324,0.013523,0.002678,0.000431,0.000705
75340000,0.0324,0.013523,0.002678,0.000431,0.000940
75341000,0.0324,0.013523,0.002678,0.000431,0.000823
75342000,0.0324,0.013523,0.002678,0.000431,0.000823
75343000,0.0324,0.013523,0.002678,0.000431,0.000705
75344000,0.0324,0.013523,0.002678,0.000431,0.000940
75345000,0.0324,0.013523,0.002678,0.000431,0.000940
75346000,0.0324,0.013523,0.002678,0.000431,0.000705
75347000,0.0324,0.013523,0.002678,0.000431,0.000940
75348000,0.0324,0.013523,0.002678,0.000431,0.000705
75349000,0.0324,0.013523,0.002678,0.000431,0.000940
75350000,0.0324,0.013523,0.002678,0.000431,0.000823
75351000,0.0324,0.013523,0.002678,0.000431,0.000823
75352000,0.0324,0.013523,0.002678,0.000431,0.000940
75353000,0.0324,0.013523,0.002678,0.000431,0.000705
75354000,0.0324,0.013523,0.002678,0.000431,0.000940
75355000,0.0324,0.013523,0.002678,0.000431,0.000823
75356000,0.0324,0.013523,0.002678,0.000431,0.000823
75357000,0.0324,0.013523,0.002678,0.000431,0.000823
75358000,0.0324,0.013523,0.002678,0.000431,0.000823
75359000,0.0324,0.013523,0.002678,0.000431,0.000823
75360000,0.0324,0.013523,0.002678,0.000431,0.000823
75361000,0.0324,0.013523,0.002678,0.000431,0.000940
75362000,0.0324,0.013523,0.002678,0.000431,0.000705
75363000,0.0324,0.013523,0.002678,0.000431,0.000823
75364000,0.0324,0.013523,0.002678,0.000431,0.000940
75365000,0.0324,0.013523,0.002678,0.000431,0.000823
75366000,0.0324,0.013523,0.002678,0.000431,0.000823
75367000,0.0324,0.013523,0.002678,0.000431,0.000823
75368000,0.0324,0.013523,0.002678,0.000431,0.000823
75369000,0.0324,0.013523,0.002678,0.000431,0.000823
75370000,0.0324,0.013523,0.002678,0.000431,0.000940
75371000,0.0324,0.013523,0.002678,0.000431,0.000823
75372000,0.0324,0.013523,0.002678,0.000431,0.000823
75373000,0.0324,0.013523,0.002678,0.000431,0.000705
75374000,0.0324,0.013523,0.002678,0.000431,0.000940
75375000,0.0324,0.013523,0.002678,0.000431,0.000940
75376000,0.0324,0.013523,0.002678,0.000431,0.000705
75377000,0.0324,0.013523,0.002678,0.000431,0.000940
75378000,0.0324,0.013523,0.002678,0.000431,0.000705
75379000,0.0324,0.013523,0.002678,0.000431,0.000940
75380000,0.0324,0.013523,0.002678,0.000431,0.000823
75381000,0.0324,0.013523,0.002678,0.000431,0.000823
75382000,0.0324,0.013523,0.002678,0.000431,0.000940
75383000,0.0324,0.013523,0.002678,0.000431,0.000705
75384000,0.0324,0.013523,0.002678,0.000431,0.000940
75385000,0.0324,0.013523,0.002678,0.000431,0.000823
75386000,0.0324,0.013523,0.002678,0.000431,0.000823
75387000,0.0324,0.013523,0.002678,0.000431,0.000823
75388000,0.0324,0.013523,0.002678,0.000431,0.000823
75389000,0.0324,0.013523,0.002678,0.000431,0.000823
75390000,0.0324,0.013523,0.002678,0.000431,0.000823
75391000,0.0324,0.013523,0.002678,0.000431,0.000940
75392000,0.0324,0.013523,0.002678,0.000431,0.000705
75393000,0.0324,0.013523,0.002678,0.000431,0.000940
75394000,0.0324,0.013523,0.002678,0.000431,0.000823
75395000,0.0324,0.013523,0.002678,0.000431,0.000823
75396000,0.0324,0.013523,0.002678,0.000431,0.000705
75397000,0.0324,0.013523,0.002678,0.000431,0.000940
75398000,0.0324,0.013523,0.002678,0.000431,0.000940
75399000,0.0324,0.013523,0.002678,0.000431,0.000705
75400000,0.0324,0.013523,0.002678,0.000431,0.000940
75401000,0.0324,0.013523,0.002678,0.000431,0.000705
75402000,0.0324,0.013523,0.002678,0.000431,0.000940
75403000,0.0324,0.013523,0.002678,0.000431,0.000823
75404000,0.0324,0.013523,0.002678,0.000431,0.000823
75405000,0.0324,0.013523,0.002678,0.000431,0.000940
75406000,0.0324,0.013523,0.002678,0.000431,0.000705
75407000,0.0324,0.013523,0.002678,0.000431,0.000940
75408000,0.0324,0.013523,0.002678,0.000431,0.000823
75409000,0.0324,0.013523,0.002678,0.000431,0.000823
75410000,0.0324,0.013523,0.002678,0.000431,0.000823
75411000,0.0324,0.013523,0.002678,0.000431,0.000823
75412000,0.0324,0.013523,0.002678,0.000431,0.000940
75413000,0.0324,0.013523,0.002678,0.000431,0.000705
75414000,0.0324,0.013523,0.002678,0.000431,0.000940
75415000,0.0324,0.013523,0.002678,0.000431,0.000823
75416000,0.0324,0.013523,0.002678,0.000431,0.000823
75417000,0.0324,0.013523,0.002678,0.000431,0.000823
75418000,0.0324,0.013523,0.002678,0.000431,0.000823
75419000,0.0324,0.013523,0.002678,0.000431,0.000940
75420000,0.0324,0.013523,0.002678,0.000431,0.000705
75421000,0.0324,0.013523,0.002678,0.000431,0.000823
75422000,0.0324,0.013523,0.002678,0.000431,0.000940
75423000,0.0324,0.013523,0.002678,0.000431,0.000823
75424000,0.0324,0.013523,0.002678,0.000431,0.000823
75425000,0.0324,0.013523,0.002678,0.000431,0.000823
75426000,0.0324,0.013523,0.002678,0.000431,0.000823
75427000,0.0324,0.013523,0.002678,0.000431,0.000823
75428000,0.0324,0.013523,0.002678,0.000431,0.000940
75429000,0.0324,0.013523,0.002678,0.000431,0.000823
75430000,0.0324,0.013523,0.002678,0.000431,0.000823
75431000,0.0324,0.013523,0.002678,0.000431,0.000705
75432000,0.0324,0.013523,0.002678,0.000431,0.000940
75433000,0.0324,0.013523,0.002678,0.000431,0.000940
75434000,0.0324,0.013523,0.002678,0.000431,0.000705
75435000,0.0324,0.013523,0.002678,0.000431,0.000940
75436000,0.0324,0.013523,0.002678,0.000431,0.000705
75437000,0.0324,0.013523,0.002678,0.000431,0.000940
75438000,0.0324,0.013523,0.002678,0.000431,0.000823
75439000,0.0324,0.013523,0.002678,0.000431,0.000823
75440000,0.0324,0.013523,0.002678,0.000431,0.000940
75441000,0.0324,0.013523,0.002678,0.000431,0.000705
75442000,0.0324,0.013523,0.002678,0.000431,0.000940
75443000,0.0324,0.013523,0.002678,0.000431,0.000823
75444000,0.0324,0.013523,0.002678,0.000431,0.000823
75445000,0.0324,0.013523,0.002678,0.000431,0.000823
75446000,0.0324,0.013523,0.002678,0.000431,0.000823
75447000,0.0324,0.013523,0.002678,0.000431,0.000940
75448000,0.0324,0.013523,0.002678,0.000431,0.000705
75449000,0.0324,0.013523,0.002678,0.000431,0.000940
75450000,0.0324,0.013523,0.002678,0.000431,0.000823
75451000,0.0324,0.013523,0.002678,0.000431,0.000823
75452000,0.0324,0.013523,0.002678,0.000431,0.000823
75453000,0.0324,0.013523,0.002678,0.000431,0.000823
75454000,0.0324,0.013523,0.002678,0.000431,0.000940
75455000,0.0324,0.013523,0.002678,0.000431,0.000705
75456000,0.0324,0.013523,0.002678,0.000431,0.000940
75457000,0.0324,0.013523,0.002678,0.000431,0.000823
75458000,0.0324,0.013523,0.002678,0.000431,0.000823
75459000,0.0324,0.013523,0.002678,0.000431,0.000823
75460000,0.0324,0.013523,0.002678,0.000431,0.000823
75461000,0.0324,0.013523,0.002678,0.000431,0.000823
75462000,0.0324,0.013523,0.002678,0.000431,0.000823
75463000,0.0324,0.013523,0.002678,0.000431,0.000940
75464000,0.0324,0.013523,0.002678,0.000431,0.000823
75465000,0.0324,0.013523,0.002678,0.000431,0.000823
75466000,0.0324,0.013523,0.002678,0.000431,0.000823
75467000,0.0324,0.013523,0.002678,0.000431,0.000823
75468000,0.0324,0.013523,0.002678,0.000431,0.000823
75469000,0.0324,0.013523,0.002678,0.000431,0.000823
75470000,0.0324,0.013523,0.002678,0.000431,0.000940
75471000,0.0324,0.013523,0.002678,0.000431,0.000705
75472000,0.0324,0.013523,0.002678,0.000431,0.000940
75473000,0.0324,0.013523,0.002678,0.000431,0.000823
75474000,0.0324,0.013523,0.002678,0.000431,0.000823
75475000,0.0324,0.013523,0.002678,0.000431,0.000823
75476000,0.0324,0.013523,0.002678,0.000431,0.000823
75477000,0.0324,0.013523,0.002678,0.000431,0.000940
75478000,0.0324,0.013523,0.002678,0.000431,0.000705
75479000,0.0324,0.013523,0.002678,0.000431,0.000940
75480000,0.0324,0.013523,0.002678,0.000431,0.000705
75481000,0.0324,0.013523,0.002678,0.000431,0.000940
75482000,0.0324,0.013523,0.002678,0.000431,0.000940
75483000,0.0324,0.013523,0.002678,0.000431,0.000705
75484000,0.0324,0.013523,0.002678,0.000431,0.000940
75485000,0.0324,0.013523,0.002678,0.000431,0.000705
75486000,0.0324,0.013523,0.002678,0.000431,0.000940
75487000,0.0324,0.013523,0.002678,0.000431,0.000823
75488000,0.0324,0.013523,0.002678,0.000431,0.000823
75489000,0.0324,0.013523,0.002678,0.000431,0.000940
75490000,0.0324,0.013523,0.002678,0.000431,0.000705
75491000,0.0324,0.013523,0.002678,0.000431,0.000940
75492000,0.0324,0.013523,0.002678,0.000431,0.000823
75493000,0.0324,0.013523,0.002678,0.000431,0.000823
75494000,0.0324,0.013523,0.002678,0.000431,0.000823
75495000,0.0324,0.013523,0.002678,0.000431,0.000823
75496000,0.0324,0.013523,0.002678,0.000431,0.000823
75497000,0.0324,0.013523,0.002678,0.000431,0.000823
75498000,0.0324,0.013523,0.002678,0.000431,0.000940
75499000,0.0324,0.013523,0.002678,0.000431,0.000823
75500000,0.0324,0.013523,0.002678,0.000431,0.000823
75501000,0.0324,0.013523,0.002678,0.000431,0.000823
75502000,0.0324,0.013523,0.002678,0.000431,0.000823
75503000,0.0324,0.013523,0.002678,0.000431,0.000823
75504000,0.0324,0.013523,0.002678,0.000431,0.000823
75505000,0.0324,0.013523,0.002678,0.000431,0.000823
75506000,0.0324,0.013523,0.002678,0.000431,0.000823
75507000,0.0324,0.013523,0.002678,0.000431,0.000940
75508000,0.0324,0.013523,0.002678,0.000431,0.000823
75509000,0.0324,0.013523,0.002678,0.000431,0.000823
75510000,0.0324,0.013523,0.002678,0.000431,0.000705
75511000,0.0324,0.013523,0.002678,0.000431,0.000940
75512000,0.0324,0.013523,0.002678,0.000431,0.000940
75513000,0.0324,0.013523,0.002678,0.000431,0.000705
75514000,0.0324,0.013523,0.002678,0.000431,0.000940
75515000,0.0324,0.013523,0.002678,0.000431,0.000705
75516000,0.0324,0.013523,0.002678,0.000431,0.000940
75517000,0.0324,0.013523,0.002678,0.000431,0.000940
75518000,0.0324,0.013523,0.002678,0.000431,0.000705
75519000,0.0324,0.013523,0.002678,0.000431,0.000940
75520000,0.0324,0.013523,0.002678,0.000431,0.000705
75521000,0.0324,0.013523,0.002678,0.000431,0.000940
75522000,0.0324,0.013523,0.002678,0.000431,0.000823
75523000,0.0324,0.013523,0.002678,0.000431,0.000823
75524000,0.0324,0.013523,0.002678,0.000431,0.000823
75525000,0.0324,0.013523,0.002678,0.000431,0.000823
75526000,0.0324,0.013523,0.002678,0.000431,0.000940
75527000,0.0324,0.013523,0.002678,0.000431,0.000823
75528000,0.0324,0.013523,0.002678,0.000431,0.000823
75529000,0.0324,0.013523,0.002678,0.000431,0.000823
75530000,0.0324,0.013523,0.002678,0.000431,0.000823
75531000,0.0324,0.013523,0.002678,0.000431,0.000823
75532000,0.0324,0.013523,0.002678,0.000431,0.000823
75533000,0.0324,0.013523,0.002678,0.000431,0.000940
75534000,0.0324,0.013523,0.002678,0.000431,0.000705
75535000,0.0324,0.013523,0.002678,0.000431,0.000940
75536000,0.0324,0.013523,0.002678,0.000431,0.000823
75537000,0.0324,0.013523,0.002678,0.000431,0.000823
75538000,0.0324,0.013523,0.002678,0.000431,0.000823
75539000,0.0324,0.013523,0.002678,0.000431,0.000823
75540000,0.0324,0.013523,0.002678,0.000431,0.000940
75541000,0.0324,0.013523,0.002678,0.000431,0.000705
75542000,0.0324,0.013523,0.002678,0.000431,0.000940
75543000,0.0324,0.013523,0.002678,0.000431,0.000705
75544000,0.0324,0.013523,0.002678,0.000431,0.000940
75545000,0.0324,0.013523,0.002678,0.000431,0.000940
75546000,0.0324,0.013523,0.002678,0.000431,0.000705
75547000,0.0324,0.013523,0.002678,0.000431,0.000940
75548000,0.0324,0.013523,0.002678,0.000431,0.000705
75549000,0.0324,0.013523,0.002678,0.000431,0.000940
75550000,0.0324,0.013523,0.002678,0.000431,0.000823
75551000,0.0324,0.013523,0.002678,0.000431,0.000823
75552000,0.0324,0.013523,0.002678,0.000431,0.000940
75553000,0.0324,0.013523,0.002678,0.000431,0.000705
75554000,0.0324,0.013523,0.002678,0.000431,0.000940
75555000,0.0324,0.013523,0.002678,0.000431,0.000823
75556000,0.0324,0.013523,0.002678,0.000431,0.000823
75557000,0.0324,0.013523,0.002678,0.000431,0.000823
75558000,0.0324,0.013523,0.002678,0.000431,0.000823
75559000,0.0324,0.013523,0.002678,0.000431,0.000823
75560000,0.0324,0.013523,0.002678,0.000431,0.000823
75561000,0.0324,0.013523,0.002678,0.000431,0.000940
75562000,0.0324,0.013523,0.002678,0.000431,0.000823
75563000,0.0324,0.013523,0.002678,0.000431,0.000823
75564000,0.0324,0.013523,0.002678,0.000431,0.000823
75565000,0.0324,0.013523,0.002678,0.000431,0.000823
75566000,0.0324,0.013523,0.002678,0.000431,0.000823
75567000,0.0324,0.013523,0.002678,0.000431,0.000823
75568000,0.0324,0.013523,0.002678,0.000431,0.072045
75569000,0.0324,0.013523,0.002678,0.000431,0.460358
75570000,0.0324,0.013523,0.002678,0.000431,0.597631
75571000,0.0324,0.013523,0.002678,0.000431,0.131161
75572000,0.0324,0.013523,0.002678,0.000431,0.134452
75573000,0.0324,0.013523,0.002678,0.000431,0.540160
75574000,0.0324,0.013523,0.002678,0.000431,0.258209
75575000,0.0324,0.013523,0.002678,0.000431,0.270785
75576000,0.0324,0.013523,0.002678,0.000431,0.247279
75577000,0.0324,0.013523,0.002678,0.000431,0.161484
75578000,0.0324,0.013523,0.002678,0.000431,0.138096
75579000,0.0324,0.013523,0.002678,0.000431,0.176997
75580000,0.0324,0.013523,0.002678,0.000431,0.102602
75581000,0.0324,0.013523,0.002678,0.000431,0.491268
75582000,0.0324,0.013523,0.002678,0.000431,0.147498
75583000,0.0324,0.013523,0.002678,0.000431,0.111769
75584000,0.0324,0.013523,0.002678,0.000431,0.093317
75585000,0.0324,0.013523,0.002678,0.000431,0.072515
75586000,0.0324,0.013523,0.002678,0.000431,0.070164
75587000,0.0324,0.013523,0.002678,0.000431,0.057119
75588000,0.0324,0.013523,0.002678,0.000431,0.043720
75589000,0.0324,0.013523,0.002678,0.000431,0.043250
75590000,0.0324,0.013523,0.002678,0.000431,0.036551
75591000,0.0324,0.013523,0.002678,0.000431,0.031615
75592000,0.0324,0.013523,0.002678,0.000431,0.034553
75593000,0.0324,0.013523,0.002678,0.000431,0.027031
75594000,0.0324,0.013523,0.002678,0.000431,0.024328
75595000,0.0324,0.013523,0.002678,0.000431,0.024446
75596000,0.0324,0.013523,0.002678,0.000431,0.020450
75597000,0.0324,0.013523,0.002678,0.000431,0.024093
75598000,0.0324,0.013523,0.002678,0.000431,0.017982
75599000,0.0324,0.013523,0.002678,0.000431,0.020802
75600000,0.0324,0.013523,0.002678,0.000431,0.015279
75601000,0.0324,0.013523,0.002678,0.000431,0.017394
75602000,0.0324,0.013523,0.002678,0.000431,0.014691
75603000,0.0324,0.013523,0.002678,0.000431,0.012340
75604000,0.0324,0.013523,0.002678,0.000431,0.009755
75605000,0.0324,0.013523,0.002678,0.000431,0.011048
75606000,0.0324,0.013523,0.002678,0.000431,0.009990
75607000,0.0324,0.013523,0.002678,0.000431,0.008580
75608000,0.0324,0.013523,0.002678,0.000431,0.010107
75609000,0.0324,0.013523,0.002678,0.000431,0.006347
75610000,0.0324,0.013523,0.002678,0.000431,0.009167
75611000,0.0324,0.013523,0.002678,0.000431,0.007404
75612000,0.0324,0.013523,0.002678,0.000431,0.005171
75613000,0.0324,0.013523,0.002678,0.000431,0.006111
75614000,0.0324,0.013523,0.002678,0.000431,0.007404
75615000,0.0324,0.013523,0.002678,0.000431,0.002938
75616000,0.0324,0.013523,0.002678,0.000431,0.002586
75617000,0.0324,0.013523,0.002678,0.000431,0.002233
75618000,0.0324,0.013523,0.002678,0.000431,0.002821
75619000,0.0324,0.013523,0.002678,0.000431,0.002233
75620000,0.0324,0.013523,0.002678,0.000431,0.002703
75621000,0.0324,0.013523,0.002678,0.000431,0.002351
75622000,0.0324,0.013523,0.002678,0.000431,0.002586
75623000,0.0324,0.013523,0.002678,0.000431,0.002468
75624000,0.0324,0.013523,0.002678,0.000431,0.002586
75625000,0.0324,0.013523,0.002678,0.000431,0.002586
75626000,0.0324,0.013523,0.002678,0.000431,0.002351
75627000,0.0324,0.013523,0.002678,0.000431,0.002468
75628000,0.0324,0.013523,0.002678,0.000431,0.002586
75629000,0.0324,0.013523,0.002678,0.000431,0.002703
75630000,0.0324,0.013523,0.002678,0.000431,0.002233
75631000,0.0324,0.013523,0.002678,0.000431,0.002703
75632000,0.0324,0.013523,0.002678,0.000431,0.002233
75633000,0.0324,0.013523,0.002678,0.000431,0.002703
75634000,0.0324,0.013523,0.002678,0.000431,0.002703
75635000,0.0324,0.013523,0.002678,0.000431,0.002233
75636000,0.0324,0.013523,0.002678,0.000431,0.002821
75637000,0.0324,0.013523,0.002678,0.000431,0.002116
75638000,0.0324,0.013523,0.002678,0.000431,0.002821
75639000,0.0324,0.013523,0.002678,0.000431,0.002586
75640000,0.0324,0.013523,0.002678,0.000431,0.002351
75641000,0.0324,0.013523,0.002678,0.000431,0.002586
75642000,0.0324,0.013523,0.002678,0.000431,0.002351
75643000,0.0324,0.013523,0.002678,0.000431,0.002703
75644000,0.0324,0.013523,0.002678,0.000431,0.002351
75645000,0.0324,0.013523,0.002678,0.000431,0.003761
75646000,0.0324,0.013523,0.002678,0.000431,0.001645
75647000,0.0324,0.013523,0.002678,0.000431,0.001645
75648000,0.0324,0.013523,0.002678,0.000431,0.001763
75649000,0.0324,0.013523,0.002678,0.000431,0.001645
75650000,0.0324,0.013523,0.002678,0.000431,0.001528
75651000,0.0324,0.013523,0.002678,0.000431,0.001880
75652000,0.0324,0.013523,0.002678,0.000431,0.001645
75653000,0.0324,0.013523,0.002678,0.000431,0.001645
75654000,0.0324,0.013523,0.002678,0.000431,0.001763
75655000,0.0324,0.013523,0.002678,0.000431,0.001528
75656000,0.0324,0.013523,0.002678,0.000431,0.001763
75657000,0.0324,0.013523,0.002678,0.000431,0.002703
75658000,0.0324,0.013523,0.002678,0.000431,0.002116
75659000,0.0324,0.013523,0.002678,0.000431,0.000823
75660000,0.0324,0.013523,0.002678,0.000431,0.000940
75661000,0.0324,0.013523,0.002678,0.000431,0.000823
75662000,0.0324,0.013523,0.002678,0.000431,0.000823
75663000,0.0324,0.013523,0.002678,0.000431,0.000823
75664000,0.0324,0.013523,0.002678,0.000431,0.000823
75665000,0.0324,0.013523,0.002678,0.000431,0.000705
75666000,0.0324,0.013523,0.002678,0.000431,0.000940
75667000,0.0324,0.013523,0.002678,0.000431,0.000940
75668000,0.0324,0.013523,0.002678,0.000431,0.000705
75669000,0.0324,0.013523,0.002678,0.000431,0.000940
75670000,0.0324,0.013523,0.002678,0.000431,0.000705
75671000,0.0324,0.013523,0.002678,0.000431,0.000940
75672000,0.0324,0.013523,0.002678,0.000431,0.000823
75673000,0.0324,0.013523,0.002678,0.000431,0.000823
75674000,0.0324,0.013523,0.002678,0.000431,0.000940
75675000,0.0324,0.013523,0.002678,0.000431,0.000705
75676000,0.0324,0.013523,0.002678,0.000431,0.000940
75677000,0.0324,0.013523,0.002678,0.000431,0.000823
75678000,0.0324,0.013523,0.002678,0.000431,0.000823
75679000,0.0324,0.013523,0.002678,0.000431,0.000823
75680000,0.0324,0.013523,0.002678,0.000431,0.000823
75681000,0.0324,0.013523,0.002678,0.000431,0.000940
75682000,0.0324,0.013523,0.002678,0.000431,0.000705
75683000,0.0324,0.013523,0.002678,0.000431,0.000940
75684000,0.0324,0.013523,0.002678,0.000431,0.000823
75685000,0.0324,0.013523,0.002678,0.000431,0.000823
75686000,0.0324,0.013523,0.002678,0.000431,0.000823
75687000,0.0324,0.013523,0.002678,0.000431,0.000823
75688000,0.0324,0.013523,0.002678,0.000431,0.000823
75689000,0.0324,0.013523,0.002678,0.000431,0.000823
75690000,0.0324,0.013523,0.002678,0.000431,0.000823
75691000,0.0324,0.013523,0.002678,0.000431,0.000940
75692000,0.0324,0.013523,0.002678,0.000431,0.000823
75693000,0.0324,0.013523,0.002678,0.000431,0.000823
75694000,0.0324,0.013523,0.002678,0.000431,0.000823
75695000,0.0324,0.013523,0.002678,0.000431,0.000705
75696000,0.0324,0.013523,0.002678,0.000431,0.000940
75697000,0.0324,0.013523,0.002678,0.000431,0.000940
75698000,0.0324,0.013523,0.002678,0.000431,0.000705
75699000,0.0324,0.013523,0.002678,0.000431,0.000940
75700000,0.0324,0.013523,0.002678,0.000431,0.000705
75701000,0.0324,0.013523,0.002678,0.000431,0.000940
75702000,0.0324,0.013523,0.002678,0.000431,0.000823
75703000,0.0324,0.013523,0.002678,0.000431,0.000823
75704000,0.0324,0.013523,0.002678,0.000431,0.000940
75705000,0.0324,0.013523,0.002678,0.000431,0.000705
75706000,0.0324,0.013523,0.002678,0.000431,0.000940
75707000,0.0324,0.013523,0.002678,0.000431,0.000823
75708000,0.0324,0.013523,0.002678,0.000431,0.000823
75709000,0.0324,0.013523,0.002678,0.000431,0.000823
75710000,0.0324,0.013523,0.002678,0.000431,0.000823
75711000,0.0324,0.013523,0.002678,0.000431,0.000940
75712000,0.0324,0.013523,0.002678,0.000431,0.000705
75713000,0.0324,0.013523,0.002678,0.000431,0.000940
75714000,0.0324,0.013523,0.002678,0.000431,0.000705
75715000,0.0324,0.013523,0.002678,0.000431,0.000940
75716000,0.0324,0.013523,0.002678,0.000431,0.000823
75717000,0.0324,0.013523,0.002678,0.000431,0.000823
75718000,0.0324,0.013523,0.002678,0.000431,0.000705
75719000,0.0324,0.013523,0.002678,0.000431,0.000940
75720000,0.0324,0.013523,0.002678,0.000431,0.000940
75721000,0.0324,0.013523,0.002678,0.000431,0.000705
75722000,0.0324,0.013523,0.002678,0.000431,0.000940
75723000,0.0324,0.013523,0.002678,0.000431,0.000705
75724000,0.0324,0.013523,0.002678,0.000431,0.000940
75725000,0.0324,0.013523,0.002678,0.000431,0.000823
75726000,0.0324,0.013523,0.002678,0.000431,0.000823
75727000,0.0324,0.013523,0.002678,0.000431,0.000940
75728000,0.0324,0.013523,0.002678,0.000431,0.000705
75729000,0.0324,0.013523,0.002678,0.000431,0.000940
75730000,0.0324,0.013523,0.002678,0.000431,0.000823
75731000,0.0324,0.013523,0.002678,0.000431,0.071927
75732000,0.0324,0.013523,0.002678,0.000431,0.620666
75733000,0.0324,0.013523,0.002678,0.000431,0.559199
75734000,0.0324,0.013523,0.002678,0.000431,0.134452
75735000,0.0324,0.013523,0.002678,0.000431,0.133042
75736000,0.0324,0.013523,0.002678,0.000431,0.551677
75737000,0.0324,0.013523,0.002678,0.000431,0.240345
75738000,0.0324,0.013523,0.002678,0.000431,0.258680
75739000,0.0324,0.013523,0.002678,0.000431,0.273606
75740000,0.0324,0.013523,0.002678,0.000431,0.145735
75741000,0.0324,0.013523,0.002678,0.000431,0.165010
75742000,0.0324,0.013523,0.002678,0.000431,0.107773
75743000,0.0324,0.013523,0.002678,0.000431,0.447195
75744000,0.0324,0.013523,0.002678,0.000431,0.211081
75745000,0.0324,0.013523,0.002678,0.000431,0.121642
75746000,0.0324,0.013523,0.002678,0.000431,0.086618
75747000,0.0324,0.013523,0.002678,0.000431,0.076746
75748000,0.0324,0.013523,0.002678,0.000431,0.062995
75749000,0.0324,0.013523,0.002678,0.000431,0.045131
75750000,0.0324,0.013523,0.002678,0.000431,0.040077
75751000,0.0324,0.013523,0.002678,0.000431,0.031968
75752000,0.0324,0.013523,0.002678,0.000431,0.026914
75753000,0.0324,0.013523,0.002678,0.000431,0.024681
75754000,0.0324,0.013523,0.002678,0.000431,0.022095
75755000,0.0324,0.013523,0.002678,0.000431,0.021038
75756000,0.0324,0.013523,0.002678,0.000431,0.022095
75757000,0.0324,0.013523,0.002678,0.000431,0.014456
75758000,0.0324,0.013523,0.002678,0.000431,0.009755
75759000,0.0324,0.013523,0.002678,0.000431,0.008580
75760000,0.0324,0.013523,0.002678,0.000431,0.007287
75761000,0.0324,0.013523,0.002678,0.000431,0.010107
75762000,0.0324,0.013523,0.002678,0.000431,0.007169
75763000,0.0324,0.013523,0.002678,0.000431,0.007287
75764000,0.0324,0.013523,0.002678,0.000431,0.011283
75765000,0.0324,0.013523,0.002678,0.000431,0.006582
75766000,0.0324,0.013523,0.002678,0.000431,0.004584
75767000,0.0324,0.013523,0.002678,0.000431,0.003878
75768000,0.0324,0.013523,0.002678,0.000431,0.004231
75769000,0.0324,0.013523,0.002678,0.000431,0.003878
75770000,0.0324,0.013523,0.002678,0.000431,0.003996
75771000,0.0324,0.013523,0.002678,0.000431,0.005641
75772000,0.0324,0.013523,0.002678,0.000431,0.003291
75773000,0.0324,0.013523,0.002678,0.000431,0.003056
75774000,0.0324,0.013523,0.002678,0.000431,0.003408
75775000,0.0324,0.013523,0.002678,0.000431,0.003056
75776000,0.0324,0.013523,0.002678,0.000431,0.003291
75777000,0.0324,0.013523,0.002678,0.000431,0.003408
75778000,0.0324,0.013523,0.002678,0.000431,0.003056
75779000,0.0324,0.013523,0.002678,0.000431,0.003526
75780000,0.0324,0.013523,0.002678,0.000431,0.002938
75781000,0.0324,0.013523,0.002678,0.000431,0.003408
75782000,0.0324,0.013523,0.002678,0.000431,0.003291
75783000,0.0324,0.013523,0.002678,0.000431,0.003056
75784000,0.0324,0.013523,0.002678,0.000431,0.003643
75785000,0.0324,0.013523,0.002678,0.000431,0.002938
75786000,0.0324,0.013523,0.002678,0.000431,0.003526
75787000,0.0324,0.013523,0.002678,0.000431,0.003056
75788000,0.0324,0.013523,0.002678,0.000431,0.003291
75789000,0.0324,0.013523,0.002678,0.000431,0.003408
75790000,0.0324,0.013523,0.002678,0.000431,0.003173
75791000,0.0324,0.013523,0.002678,0.000431,0.003173
75792000,0.0324,0.013523,0.002678,0.000431,0.003291
75793000,0.0324,0.013523,0.002678,0.000431,0.003056
75794000,0.0324,0.013523,0.002678,0.000431,0.003291
75795000,0.0324,0.013523,0.002678,0.000431,0.003408
75796000,0.0324,0.013523,0.002678,0.000431,0.003056
75797000,0.0324,0.013523,0.002678,0.000431,0.003526
75798000,0.0324,0.013523,0.002678,0.000431,0.003056
75799000,0.0324,0.013523,0.002678,0.000431,0.003291
75800000,0.0324,0.013523,0.002678,0.000431,0.003173
75801000,0.0324,0.013523,0.002678,0.000431,0.003291
75802000,0.0324,0.013523,0.002678,0.000431,0.003526
75803000,0.0324,0.013523,0.002678,0.000431,0.002821
75804000,0.0324,0.013523,0.002678,0.000431,0.003408
75805000,0.0324,0.013523,0.002678,0.000431,0.003408
75806000,0.0324,0.013523,0.002678,0.000431,0.003291
75807000,0.0324,0.013523,0.002678,0.000431,0.003173
75808000,0.0324,0.013523,0.002678,0.000431,0.003056
75809000,0.0324,0.013523,0.002678,0.000431,0.003291
75810000,0.0324,0.013523,0.002678,0.000431,0.003526
75811000,0.0324,0.013523,0.002678,0.000431,0.002938
75812000,0.0324,0.013523,0.002678,0.000431,0.003408
75813000,0.0324,0.013523,0.002678,0.000431,0.003173
75814000,0.0324,0.013523,0.002678,0.000431,0.003173
75815000,0.0324,0.013523,0.002678,0.000431,0.003643
75816000,0.0324,0.013523,0.002678,0.000431,0.003056
75817000,0.0324,0.013523,0.002678,0.000431,0.003408
75818000,0.0324,0.013523,0.002678,0.000431,0.002821
75819000,0.0324,0.013523,0.002678,0.000431,0.003526
75820000,0.0324,0.013523,0.002678,0.000431,0.003526
75821000,0.0324,0.013523,0.002678,0.000431,0.002821
75822000,0.0324,0.013523,0.002678,0.000431,0.003643
75823000,0.0324,0.013523,0.002678,0.000431,0.002821
75824000,0.0324,0.013523,0.002678,0.000431,0.003408
75825000,0.0324,0.013523,0.002678,0.000431,0.002703
75826000,0.0324,0.013523,0.002678,0.000431,0.002586
75827000,0.0324,0.013523,0.002678,0.000431,0.002233
75828000,0.0324,0.013523,0.002678,0.000431,0.002703
75829000,0.0324,0.013523,0.002678,0.000431,0.002116
75830000,0.0324,0.013523,0.002678,0.000431,0.002586
75831000,0.0324,0.013523,0.002678,0.000431,0.002233
75832000,0.0324,0.013523,0.002678,0.000431,0.002468
75833000,0.0324,0.013523,0.002678,0.000431,0.002821
75834000,0.0324,0.013523,0.002678,0.000431,0.001880
75835000,0.0324,0.013523,0.002678,0.000431,0.002821
75836000,0.0324,0.013523,0.002678,0.000431,0.002233
75837000,0.0324,0.013523,0.002678,0.000431,0.002468
75838000,0.0324,0.013523,0.002678,0.000431,0.002586
75839000,0.0324,0.013523,0.002678,0.000431,0.002116
75840000,0.0324,0.013523,0.002678,0.000431,0.004231
75841000,0.0324,0.013523,0.002678,0.000431,0.003056
75842000,0.0324,0.013523,0.002678,0.000431,0.001763
75843000,0.0324,0.013523,0.002678,0.000431,0.001410
75844000,0.0324,0.013523,0.002678,0.000431,0.001645
75845000,0.0324,0.013523,0.002678,0.000431,0.001645
75846000,0.0324,0.013523,0.002678,0.000431,0.001528
75847000,0.0324,0.013523,0.002678,0.000431,0.001528
75848000,0.0324,0.013523,0.002678,0.000431,0.001645
75849000,0.0324,0.013523,0.002678,0.000431,0.001645
75850000,0.0324,0.013523,0.002678,0.000431,0.001410
75851000,0.0324,0.013523,0.002678,0.000431,0.001645
75852000,0.0324,0.013523,0.002678,0.000431,0.001645
75853000,0.0324,0.013523,0.002678,0.000431,0.001645
75854000,0.0324,0.013523,0.002678,0.000431,0.001410
75855000,0.0324,0.013523,0.002678,0.000431,0.001645
75856000,0.0324,0.013523,0.002678,0.000431,0.001410
75857000,0.0324,0.013523,0.002678,0.000431,0.001645
75858000,0.0324,0.013523,0.002678,0.000431,0.001880
75859000,0.0324,0.013523,0.002678,0.000431,0.001175
75860000,0.0324,0.013523,0.002678,0.000431,0.001880
75861000,0.0324,0.013523,0.002678,0.000431,0.001410
75862000,0.0324,0.013523,0.002678,0.000431,0.001645
75863000,0.0324,0.013523,0.002678,0.000431,0.001645
75864000,0.0324,0.013523,0.002678,0.000431,0.001410
75865000,0.0324,0.013523,0.002678,0.000431,0.001880
75866000,0.0324,0.013523,0.002678,0.000431,0.001410
75867000,0.0324,0.013523,0.002678,0.000431,0.001645
75868000,0.0324,0.013523,0.002678,0.000431,0.001645
75869000,0.0324,0.013523,0.002678,0.000431,0.001410
75870000,0.0324,0.013523,0.002678,0.000431,0.001645
75871000,0.0324,0.013523,0.002678,0.000431,0.001645
75872000,0.0324,0.013523,0.002678,0.000431,0.001645
75873000,0.0324,0.013523,0.002678,0.000431,0.001410
75874000,0.0324,0.013523,0.002678,0.000431,0.001645
75875000,0.0324,0.013523,0.002678,0.000431,0.001645
75876000,0.0324,0.013523,0.002678,0.000431,0.001645
75877000,0.0324,0.013523,0.002678,0.000431,0.001410
75878000,0.0324,0.013523,0.002678,0.000431,0.001645
75879000,0.0324,0.013523,0.002678,0.000431,0.001410
75880000,0.0324,0.013523,0.002678,0.000431,0.001645
75881000,0.0324,0.013523,0.002678,0.000431,0.001880
75882000,0.0324,0.013523,0.002678,0.000431,0.001175
75883000,0.0324,0.013523,0.002678,0.000431,0.001880
75884000,0.0324,0.013523,0.002678,0.000431,0.001293
75885000,0.0324,0.013523,0.002678,0.000431,0.001763
75886000,0.0324,0.013523,0.002678,0.000431,0.001880
75887000,0.0324,0.013523,0.002678,0.000431,0.001175
75888000,0.0324,0.013523,0.002678,0.000431,0.001880
75889000,0.0324,0.013523,0.002678,0.000431,0.001293
75890000,0.0324,0.013523,0.002678,0.000431,0.001763
75891000,0.0324,0.013523,0.002678,0.000431,0.001645
75892000,0.0324,0.013523,0.002678,0.000431,0.001410
75893000,0.0324,0.013523,0.002678,0.000431,0.001645
75894000,0.0324,0.013523,0.002678,0.000431,0.001528
75895000,0.0324,0.013523,0.002678,0.000431,0.001763
75896000,0.0324,0.013523,0.002678,0.000431,0.001410
75897000,0.0324,0.013523,0.002678,0.000431,0.001645
75898000,0.0324,0.013523,0.002678,0.000431,0.001645
75899000,0.0324,0.013523,0.002678,0.000431,0.001528
75900000,0.0324,0.013523,0.002678,0.000431,0.001528
75901000,0.0324,0.013523,0.002678,0.000431,0.001645
75902000,0.0324,0.013523,0.002678,0.000431,0.001410
75903000,0.0324,0.013523,0.002678,0.000431,0.001645
75904000,0.0324,0.013523,0.002678,0.000431,0.001645
75905000,0.0324,0.013523,0.002678,0.000431,0.001410
75906000,0.0324,0.013523,0.002678,0.000431,0.001880
75907000,0.0324,0.013523,0.002678,0.000431,0.001410
75908000,0.0324,0.013523,0.002678,0.000431,0.001645
75909000,0.0324,0.013523,0.002678,0.000431,0.001410
75910000,0.0324,0.013523,0.002678,0.000431,0.001645
75911000,0.0324,0.013523,0.002678,0.000431,0.001880
75912000,0.0324,0.013523,0.002678,0.000431,0.001175
75913000,0.0324,0.013523,0.002678,0.000431,0.001880
75914000,0.0324,0.013523,0.002678,0.000431,0.001410
75915000,0.0324,0.013523,0.002678,0.000431,0.001645
75916000,0.0324,0.013523,0.002678,0.000431,0.001645
75917000,0.0324,0.013523,0.002678,0.000431,0.001410
75918000,0.0324,0.013523,0.002678,0.000431,0.001880
75919000,0.0324,0.013523,0.002678,0.000431,0.001410
75920000,0.0324,0.013523,0.002678,0.000431,0.001645
75921000,0.0324,0.013523,0.002678,0.000431,0.001645
75922000,0.0324,0.013523,0.002678,0.000431,0.001410
75923000,0.0324,0.013523,0.002678,0.000431,0.001645
75924000,0.0324,0.013523,0.002678,0.000431,0.001645
75925000,0.0324,0.013523,0.002678,0.000431,0.001410
75926000,0.0324,0.013523,0.002678,0.000431,0.001645
75927000,0.0324,0.013523,0.002678,0.000431,0.001645
75928000,0.0324,0.013523,0.002678,0.000431,0.001528
75929000,0.0324,0.013523,0.002678,0.000431,0.001763
75930000,0.0324,0.013523,0.002678,0.000431,0.001410
75931000,0.0324,0.013523,0.002678,0.000431,0.001645
75932000,0.0324,0.013523,0.002678,0.000431,0.001293
75933000,0.0324,0.013523,0.002678,0.000431,0.001763
75934000,0.0324,0.013523,0.002678,0.000431,0.001880
75935000,0.0324,0.013523,0.002678,0.000431,0.001175
75936000,0.0324,0.013523,0.002678,0.000431,0.001880
75937000,0.0324,0.013523,0.002678,0.000431,0.001293
75938000,0.0324,0.013523,0.002678,0.000431,0.001763
75939000,0.0324,0.013523,0.002678,0.000431,0.001645
75940000,0.0324,0.013523,0.002678,0.000431,0.001410
75941000,0.0324,0.013523,0.002678,0.000431,0.001880
75942000,0.0324,0.013523,0.002678,0.000431,0.001293
75943000,0.0324,0.013523,0.002678,0.000431,0.001763
75944000,0.0324,0.013523,0.002678,0.000431,0.001645
75945000,0.0324,0.013523,0.002678,0.000431,0.001410
75946000,0.0324,0.013523,0.002678,0.000431,0.001645
75947000,0.0324,0.013523,0.002678,0.000431,0.001528
75948000,0.0324,0.013523,0.002678,0.000431,0.001763
75949000,0.0324,0.013523,0.002678,0.000431,0.001410
75950000,0.0324,0.013523,0.002678,0.000431,0.001645
75951000,0.0324,0.013523,0.002678,0.000431,0.001645
75952000,0.0324,0.013523,0.002678,0.000431,0.001410
75953000,0.0324,0.013523,0.002678,0.000431,0.001645
75954000,0.0324,0.013523,0.002678,0.000431,0.001645
75955000,0.0324,0.013523,0.002678,0.000431,0.001410
75956000,0.0324,0.013523,0.002678,0.000431,0.001645
75957000,0.0324,0.013523,0.002678,0.000431,0.001645
75958000,0.0324,0.013523,0.002678,0.000431,0.001410
75959000,0.0324,0.013523,0.002678,0.000431,0.001880
75960000,0.0324,0.013523,0.002678,0.000431,0.001410
75961000,0.0324,0.013523,0.002678,0.000431,0.001645
75962000,0.0324,0.013523,0.002678,0.000431,0.001410
75963000,0.0324,0.013523,0.002678,0.000431,0.223656
75964000,0.0324,0.013523,0.002678,0.000431,0.609971
75965000,0.0324,0.013523,0.002678,0.000431,0.447312
75966000,0.0324,0.013523,0.002678,0.000431,0.132807
75967000,0.0324,0.013523,0.002678,0.000431,0.132807
75968000,0.0324,0.013523,0.002678,0.000431,0.602567
75969000,0.0324,0.013523,0.002678,0.000431,0.259502
75970000,0.0324,0.013523,0.002678,0.000431,0.295348
75971000,0.0324,0.013523,0.002678,0.000431,0.242931
75972000,0.0324,0.013523,0.002678,0.000431,0.145030
75973000,0.0324,0.013523,0.002678,0.000431,0.131161
75974000,0.0324,0.013523,0.002678,0.000431,0.252098
75975000,0.0324,0.013523,0.002678,0.000431,0.365748
75976000,0.0324,0.013523,0.002678,0.000431,0.094610
75977000,0.0324,0.013523,0.002678,0.000431,0.080977
75978000,0.0324,0.013523,0.002678,0.000431,0.069224
75979000,0.0324,0.013523,0.002678,0.000431,0.063348
75980000,0.0324,0.013523,0.002678,0.000431,0.051712
75981000,0.0324,0.013523,0.002678,0.000431,0.043250
75982000,0.0324,0.013523,0.002678,0.000431,0.040312
75983000,0.0324,0.013523,0.002678,0.000431,0.037962
75984000,0.0324,0.013523,0.002678,0.000431,0.033496
75985000,0.0324,0.013523,0.002678,0.000431,0.024093
75986000,0.0324,0.013523,0.002678,0.000431,0.022565
75987000,0.0324,0.013523,0.002678,0.000431,0.017159
75988000,0.0324,0.013523,0.002678,0.000431,0.015749
75989000,0.0324,0.013523,0.002678,0.000431,0.017629
75990000,0.0324,0.013523,0.002678,0.000431,0.010695
75991000,0.0324,0.013523,0.002678,0.000431,0.015866
75992000,0.0324,0.013523,0.002678,0.000431,0.009167
75993000,0.0324,0.013523,0.002678,0.000431,0.009872
75994000,0.0324,0.013523,0.002678,0.000431,0.009755
75995000,0.0324,0.013523,0.002678,0.000431,0.009285
75996000,0.0324,0.013523,0.002678,0.000431,0.010460
75997000,0.0324,0.013523,0.002678,0.000431,0.008462
75998000,0.0324,0.013523,0.002678,0.000431,0.012576
75999000,0.0324,0.013523,0.002678,0.000431,0.008345
