Cycle,Area(mm^2),PeakDynamic(W),SubthresholdLeakage(W),GateLeakage(W),RunTimeDynamic(W)
38000000,0.0324,0.013523,0.002678,0.000431,0.001175
38001000,0.0324,0.013523,0.002678,0.000431,0.001880
38002000,0.0324,0.013523,0.002678,0.000431,0.001293
38003000,0.0324,0.013523,0.002678,0.000431,0.001763
38004000,0.0324,0.013523,0.002678,0.000431,0.001645
38005000,0.0324,0.013523,0.002678,0.000431,0.001410
38006000,0.0324,0.013523,0.002678,0.000431,0.001645
38007000,0.0324,0.013523,0.002678,0.000431,0.001528
38008000,0.0324,0.013523,0.002678,0.000431,0.001528
38009000,0.0324,0.013523,0.002678,0.000431,0.001645
38010000,0.0324,0.013523,0.002678,0.000431,0.001645
38011000,0.0324,0.013523,0.002678,0.000431,0.001410
38012000,0.0324,0.013523,0.002678,0.000431,0.001645
38013000,0.0324,0.013523,0.002678,0.000431,0.001645
38014000,0.0324,0.013523,0.002678,0.000431,0.001645
38015000,0.0324,0.013523,0.002678,0.000431,0.001410
38016000,0.0324,0.013523,0.002678,0.000431,0.001645
38017000,0.0324,0.013523,0.002678,0.000431,0.001410
38018000,0.0324,0.013523,0.002678,0.000431,0.002586
38019000,0.0324,0.013523,0.002678,0.000431,0.579767
38020000,0.0324,0.013523,0.002678,0.000431,0.791435
38021000,0.0324,0.013523,0.002678,0.000431,0.176645
38022000,0.0324,0.013523,0.002678,0.000431,0.143384
38023000,0.0324,0.013523,0.002678,0.000431,0.516301
38024000,0.0324,0.013523,0.002678,0.000431,0.305221
38025000,0.0324,0.013523,0.002678,0.000431,0.283360
38026000,0.0324,0.013523,0.002678,0.000431,0.262088
38027000,0.0324,0.013523,0.002678,0.000431,0.149496
38028000,0.0324,0.013523,0.002678,0.000431,0.110476
38029000,0.0324,0.013523,0.002678,0.000431,0.453306
38030000,0.0324,0.013523,0.002678,0.000431,0.377383
38031000,0.0324,0.013523,0.002678,0.000431,0.264086
38032000,0.0324,0.013523,0.002678,0.000431,0.232588
38033000,0.0324,0.013523,0.002678,0.000431,0.195332
38034000,0.0324,0.013523,0.002678,0.000431,0.169123
38035000,0.0324,0.013523,0.002678,0.000431,0.139153
38036000,0.0324,0.013523,0.002678,0.000431,0.127283
38037000,0.0324,0.013523,0.002678,0.000431,0.108008
38038000,0.0324,0.013523,0.002678,0.000431,0.104718
38039000,0.0324,0.013523,0.002678,0.000431,0.088851
38040000,0.0324,0.013523,0.002678,0.000431,0.071927
38041000,0.0324,0.013523,0.002678,0.000431,0.060880
38042000,0.0324,0.013523,0.002678,0.000431,0.060645
38043000,0.0324,0.013523,0.002678,0.000431,0.048539
38044000,0.0324,0.013523,0.002678,0.000431,0.039019
38045000,0.0324,0.013523,0.002678,0.000431,0.034083
38046000,0.0324,0.013523,0.002678,0.000431,0.037374
38047000,0.0324,0.013523,0.002678,0.000431,0.033378
38048000,0.0324,0.013523,0.002678,0.000431,0.029735
38049000,0.0324,0.013523,0.002678,0.000431,0.021273
38050000,0.0324,0.013523,0.002678,0.000431,0.023036
38051000,0.0324,0.013523,0.002678,0.000431,0.018805
38052000,0.0324,0.013523,0.002678,0.000431,0.022565
38053000,0.0324,0.013523,0.002678,0.000431,0.026561
38054000,0.0324,0.013523,0.002678,0.000431,0.019392
38055000,0.0324,0.013523,0.002678,0.000431,0.016219
38056000,0.0324,0.013523,0.002678,0.000431,0.011635
38057000,0.0324,0.013523,0.002678,0.000431,0.011165
38058000,0.0324,0.013523,0.002678,0.000431,0.012928
38059000,0.0324,0.013523,0.002678,0.000431,0.014691
38060000,0.0324,0.013523,0.002678,0.000431,0.008109
38061000,0.0324,0.013523,0.002678,0.000431,0.007639
38062000,0.0324,0.013523,0.002678,0.000431,0.006582
38063000,0.0324,0.013523,0.002678,0.000431,0.003526
38064000,0.0324,0.013523,0.002678,0.000431,0.003291
38065000,0.0324,0.013523,0.002678,0.000431,0.003408
38066000,0.0324,0.013523,0.002678,0.000431,0.003526
38067000,0.0324,0.013523,0.002678,0.000431,0.003173
38068000,0.0324,0.013523,0.002678,0.000431,0.003526
38069000,0.0324,0.013523,0.002678,0.000431,0.003408
38070000,0.0324,0.013523,0.002678,0.000431,0.003291
38071000,0.0324,0.013523,0.002678,0.000431,0.003408
38072000,0.0324,0.013523,0.002678,0.000431,0.003408
38073000,0.0324,0.013523,0.002678,0.000431,0.004701
38074000,0.0324,0.013523,0.002678,0.000431,0.005759
38075000,0.0324,0.013523,0.002678,0.000431,0.000940
38076000,0.0324,0.013523,0.002678,0.000431,0.000823
38077000,0.0324,0.013523,0.002678,0.000431,0.000823
38078000,0.0324,0.013523,0.002678,0.000431,0.000823
38079000,0.0324,0.013523,0.002678,0.000431,0.000705
38080000,0.0324,0.013523,0.002678,0.000431,0.000940
38081000,0.0324,0.013523,0.002678,0.000431,0.014573
38082000,0.0324,0.013523,0.002678,0.000431,0.721035
38083000,0.0324,0.013523,0.002678,0.000431,0.649578
38084000,0.0324,0.013523,0.002678,0.000431,0.137390
38085000,0.0324,0.013523,0.002678,0.000431,0.134922
38086000,0.0324,0.013523,0.002678,0.000431,0.535693
38087000,0.0324,0.013523,0.002678,0.000431,0.239522
38088000,0.0324,0.013523,0.002678,0.000431,0.305808
38089000,0.0324,0.013523,0.002678,0.000431,0.262205
38090000,0.0324,0.013523,0.002678,0.000431,0.151024
38091000,0.0324,0.013523,0.002678,0.000431,0.138213
38092000,0.0324,0.013523,0.002678,0.000431,0.243166
38093000,0.0324,0.013523,0.002678,0.000431,0.566956
38094000,0.0324,0.013523,0.002678,0.000431,0.291352
38095000,0.0324,0.013523,0.002678,0.000431,0.251510
38096000,0.0324,0.013523,0.002678,0.000431,0.228005
38097000,0.0324,0.013523,0.002678,0.000431,0.198153
38098000,0.0324,0.013523,0.002678,0.000431,0.182051
38099000,0.0324,0.013523,0.002678,0.000431,0.156077
38100000,0.0324,0.013523,0.002678,0.000431,0.135980
38101000,0.0324,0.013523,0.002678,0.000431,0.117998
38102000,0.0324,0.013523,0.002678,0.000431,0.109771
38103000,0.0324,0.013523,0.002678,0.000431,0.096021
38104000,0.0324,0.013523,0.002678,0.000431,0.078626
38105000,0.0324,0.013523,0.002678,0.000431,0.074278
38106000,0.0324,0.013523,0.002678,0.000431,0.063230
38107000,0.0324,0.013523,0.002678,0.000431,0.057824
38108000,0.0324,0.013523,0.002678,0.000431,0.054533
38109000,0.0324,0.013523,0.002678,0.000431,0.041723
38110000,0.0324,0.013523,0.002678,0.000431,0.043485
38111000,0.0324,0.013523,0.002678,0.000431,0.046306
38112000,0.0324,0.013523,0.002678,0.000431,0.033966
38113000,0.0324,0.013523,0.002678,0.000431,0.035023
38114000,0.0324,0.013523,0.002678,0.000431,0.031380
38115000,0.0324,0.013523,0.002678,0.000431,0.024093
38116000,0.0324,0.013523,0.002678,0.000431,0.020920
38117000,0.0324,0.013523,0.002678,0.000431,0.018334
38118000,0.0324,0.013523,0.002678,0.000431,0.017394
38119000,0.0324,0.013523,0.002678,0.000431,0.014221
38120000,0.0324,0.013523,0.002678,0.000431,0.015044
38121000,0.0324,0.013523,0.002678,0.000431,0.012693
38122000,0.0324,0.013523,0.002678,0.000431,0.013633
38123000,0.0324,0.013523,0.002678,0.000431,0.019980
38124000,0.0324,0.013523,0.002678,0.000431,0.012105
38125000,0.0324,0.013523,0.002678,0.000431,0.007639
38126000,0.0324,0.013523,0.002678,0.000431,0.007404
38127000,0.0324,0.013523,0.002678,0.000431,0.006817
38128000,0.0324,0.013523,0.002678,0.000431,0.007522
38129000,0.0324,0.013523,0.002678,0.000431,0.012458
38130000,0.0324,0.013523,0.002678,0.000431,0.007874
38131000,0.0324,0.013523,0.002678,0.000431,0.007169
38132000,0.0324,0.013523,0.002678,0.000431,0.003878
38133000,0.0324,0.013523,0.002678,0.000431,0.003526
38134000,0.0324,0.013523,0.002678,0.000431,0.002938
38135000,0.0324,0.013523,0.002678,0.000431,0.001528
38136000,0.0324,0.013523,0.002678,0.000431,0.001880
38137000,0.0324,0.013523,0.002678,0.000431,0.001528
38138000,0.0324,0.013523,0.002678,0.000431,0.001880
38139000,0.0324,0.013523,0.002678,0.000431,0.001645
38140000,0.0324,0.013523,0.002678,0.000431,0.001645
38141000,0.0324,0.013523,0.002678,0.000431,0.001880
38142000,0.0324,0.013523,0.002678,0.000431,0.001645
38143000,0.0324,0.013523,0.002678,0.000431,0.001763
38144000,0.0324,0.013523,0.002678,0.000431,0.003056
38145000,0.0324,0.013523,0.002678,0.000431,0.002351
38146000,0.0324,0.013523,0.002678,0.000431,0.000823
38147000,0.0324,0.013523,0.002678,0.000431,0.000823
38148000,0.0324,0.013523,0.002678,0.000431,0.000940
38149000,0.0324,0.013523,0.002678,0.000431,0.000705
38150000,0.0324,0.013523,0.002678,0.000431,0.000940
38151000,0.0324,0.013523,0.002678,0.000431,0.000823
38152000,0.0324,0.013523,0.002678,0.000431,0.000823
38153000,0.0324,0.013523,0.002678,0.000431,0.000823
38154000,0.0324,0.013523,0.002678,0.000431,0.000823
38155000,0.0324,0.013523,0.002678,0.000431,0.000823
38156000,0.0324,0.013523,0.002678,0.000431,0.000823
38157000,0.0324,0.013523,0.002678,0.000431,0.000940
38158000,0.0324,0.013523,0.002678,0.000431,0.000940
38159000,0.0324,0.013523,0.002678,0.000431,0.004231
38160000,0.0324,0.013523,0.002678,0.000431,0.590344
38161000,0.0324,0.013523,0.002678,0.000431,0.761348
38162000,0.0324,0.013523,0.002678,0.000431,0.158546
38163000,0.0324,0.013523,0.002678,0.000431,0.133982
38164000,0.0324,0.013523,0.002678,0.000431,0.510660
38165000,0.0324,0.013523,0.002678,0.000431,0.253038
38166000,0.0324,0.013523,0.002678,0.000431,0.253626
38167000,0.0324,0.013523,0.002678,0.000431,0.249512
38168000,0.0324,0.013523,0.002678,0.000431,0.149496
38169000,0.0324,0.013523,0.002678,0.000431,0.173942
38170000,0.0324,0.013523,0.002678,0.000431,0.155255
38171000,0.0324,0.013523,0.002678,0.000431,0.572127
38172000,0.0324,0.013523,0.002678,0.000431,0.303693
38173000,0.0324,0.013523,0.002678,0.000431,0.251628
38174000,0.0324,0.013523,0.002678,0.000431,0.229062
38175000,0.0324,0.013523,0.002678,0.000431,0.193804
38176000,0.0324,0.013523,0.002678,0.000431,0.188045
38177000,0.0324,0.013523,0.002678,0.000431,0.164422
38178000,0.0324,0.013523,0.002678,0.000431,0.123287
38179000,0.0324,0.013523,0.002678,0.000431,0.108008
38180000,0.0324,0.013523,0.002678,0.000431,0.097196
38181000,0.0324,0.013523,0.002678,0.000431,0.083680
38182000,0.0324,0.013523,0.002678,0.000431,0.078626
38183000,0.0324,0.013523,0.002678,0.000431,0.066638
38184000,0.0324,0.013523,0.002678,0.000431,0.049714
38185000,0.0324,0.013523,0.002678,0.000431,0.050655
38186000,0.0324,0.013523,0.002678,0.000431,0.048304
38187000,0.0324,0.013523,0.002678,0.000431,0.042545
38188000,0.0324,0.013523,0.002678,0.000431,0.039842
38189000,0.0324,0.013523,0.002678,0.000431,0.041252
38190000,0.0324,0.013523,0.002678,0.000431,0.032555
38191000,0.0324,0.013523,0.002678,0.000431,0.034553
38192000,0.0324,0.013523,0.002678,0.000431,0.028089
38193000,0.0324,0.013523,0.002678,0.000431,0.025151
38194000,0.0324,0.013523,0.002678,0.000431,0.022918
38195000,0.0324,0.013523,0.002678,0.000431,0.020802
38196000,0.0324,0.013523,0.002678,0.000431,0.018687
38197000,0.0324,0.013523,0.002678,0.000431,0.018452
38198000,0.0324,0.013523,0.002678,0.000431,0.019157
38199000,0.0324,0.013523,0.002678,0.000431,0.019745
38200000,0.0324,0.013523,0.002678,0.000431,0.019862
38201000,0.0324,0.013523,0.002678,0.000431,0.018334
38202000,0.0324,0.013523,0.002678,0.000431,0.016454
38203000,0.0324,0.013523,0.002678,0.000431,0.015396
38204000,0.0324,0.013523,0.002678,0.000431,0.015749
38205000,0.0324,0.013523,0.002678,0.000431,0.019745
38206000,0.0324,0.013523,0.002678,0.000431,0.013516
38207000,0.0324,0.013523,0.002678,0.000431,0.012576
38208000,0.0324,0.013523,0.002678,0.000431,0.012811
38209000,0.0324,0.013523,0.002678,0.000431,0.014338
38210000,0.0324,0.013523,0.002678,0.000431,0.012105
38211000,0.0324,0.013523,0.002678,0.000431,0.013633
38212000,0.0324,0.013523,0.002678,0.000431,0.013751
38213000,0.0324,0.013523,0.002678,0.000431,0.015161
38214000,0.0324,0.013523,0.002678,0.000431,0.012576
38215000,0.0324,0.013523,0.002678,0.000431,0.011635
38216000,0.0324,0.013523,0.002678,0.000431,0.012340
38217000,0.0324,0.013523,0.002678,0.000431,0.012340
38218000,0.0324,0.013523,0.002678,0.000431,0.012811
38219000,0.0324,0.013523,0.002678,0.000431,0.015984
38220000,0.0324,0.013523,0.002678,0.000431,0.009990
38221000,0.0324,0.013523,0.002678,0.000431,0.011165
38222000,0.0324,0.013523,0.002678,0.000431,0.010107
38223000,0.0324,0.013523,0.002678,0.000431,0.011283
38224000,0.0324,0.013523,0.002678,0.000431,0.010578
38225000,0.0324,0.013523,0.002678,0.000431,0.009990
38226000,0.0324,0.013523,0.002678,0.000431,0.012458
38227000,0.0324,0.013523,0.002678,0.000431,0.008227
38228000,0.0324,0.013523,0.002678,0.000431,0.008345
38229000,0.0324,0.013523,0.002678,0.000431,0.007992
38230000,0.0324,0.013523,0.002678,0.000431,0.007874
38231000,0.0324,0.013523,0.002678,0.000431,0.008109
38232000,0.0324,0.013523,0.002678,0.000431,0.007874
38233000,0.0324,0.013523,0.002678,0.000431,0.009872
38234000,0.0324,0.013523,0.002678,0.000431,0.007639
38235000,0.0324,0.013523,0.002678,0.000431,0.007522
38236000,0.0324,0.013523,0.002678,0.000431,0.006934
38237000,0.0324,0.013523,0.002678,0.000431,0.008345
38238000,0.0324,0.013523,0.002678,0.000431,0.006699
38239000,0.0324,0.013523,0.002678,0.000431,0.005994
38240000,0.0324,0.013523,0.002678,0.000431,0.006111
38241000,0.0324,0.013523,0.002678,0.000431,0.008815
38242000,0.0324,0.013523,0.002678,0.000431,0.004936
38243000,0.0324,0.013523,0.002678,0.000431,0.005876
38244000,0.0324,0.013523,0.002678,0.000431,0.005054
38245000,0.0324,0.013523,0.002678,0.000431,0.005289
38246000,0.0324,0.013523,0.002678,0.000431,0.005406
38247000,0.0324,0.013523,0.002678,0.000431,0.005171
38248000,0.0324,0.013523,0.002678,0.000431,0.005759
38249000,0.0324,0.013523,0.002678,0.000431,0.005289
38250000,0.0324,0.013523,0.002678,0.000431,0.005171
38251000,0.0324,0.013523,0.002678,0.000431,0.005524
38252000,0.0324,0.013523,0.002678,0.000431,0.005171
38253000,0.0324,0.013523,0.002678,0.000431,0.005641
38254000,0.0324,0.013523,0.002678,0.000431,0.004936
38255000,0.0324,0.013523,0.002678,0.000431,0.005759
38256000,0.0324,0.013523,0.002678,0.000431,0.005289
38257000,0.0324,0.013523,0.002678,0.000431,0.008345
38258000,0.0324,0.013523,0.002678,0.000431,0.004466
38259000,0.0324,0.013523,0.002678,0.000431,0.006934
38260000,0.0324,0.013523,0.002678,0.000431,0.003996
38261000,0.0324,0.013523,0.002678,0.000431,0.008815
38262000,0.0324,0.013523,0.002678,0.000431,0.003056
38263000,0.0324,0.013523,0.002678,0.000431,0.001880
38264000,0.0324,0.013523,0.002678,0.000431,0.001763
38265000,0.0324,0.013523,0.002678,0.000431,0.002116
38266000,0.0324,0.013523,0.002678,0.000431,0.001763
38267000,0.0324,0.013523,0.002678,0.000431,0.002116
38268000,0.0324,0.013523,0.002678,0.000431,0.001763
38269000,0.0324,0.013523,0.002678,0.000431,0.001880
38270000,0.0324,0.013523,0.002678,0.000431,0.001998
38271000,0.0324,0.013523,0.002678,0.000431,0.001880
38272000,0.0324,0.013523,0.002678,0.000431,0.002116
38273000,0.0324,0.013523,0.002678,0.000431,0.001645
38274000,0.0324,0.013523,0.002678,0.000431,0.001998
38275000,0.0324,0.013523,0.002678,0.000431,0.001998
38276000,0.0324,0.013523,0.002678,0.000431,0.001528
38277000,0.0324,0.013523,0.002678,0.000431,0.002233
38278000,0.0324,0.013523,0.002678,0.000431,0.001880
38279000,0.0324,0.013523,0.002678,0.000431,0.002116
38280000,0.0324,0.013523,0.002678,0.000431,0.001528
38281000,0.0324,0.013523,0.002678,0.000431,0.001998
38282000,0.0324,0.013523,0.002678,0.000431,0.002116
38283000,0.0324,0.013523,0.002678,0.000431,0.001528
38284000,0.0324,0.013523,0.002678,0.000431,0.004819
38285000,0.0324,0.013523,0.002678,0.000431,0.001058
38286000,0.0324,0.013523,0.002678,0.000431,0.001058
38287000,0.0324,0.013523,0.002678,0.000431,0.001175
38288000,0.0324,0.013523,0.002678,0.000431,0.000823
38289000,0.0324,0.013523,0.002678,0.000431,0.002351
38290000,0.0324,0.013523,0.002678,0.000431,0.381732
38291000,0.0324,0.013523,0.002678,0.000431,0.795548
38292000,0.0324,0.013523,0.002678,0.000431,0.306396
38293000,0.0324,0.013523,0.002678,0.000431,0.133982
38294000,0.0324,0.013523,0.002678,0.000431,0.279012
38295000,0.0324,0.013523,0.002678,0.000431,0.444609
38296000,0.0324,0.013523,0.002678,0.000431,0.238465
38297000,0.0324,0.013523,0.002678,0.000431,0.336131
38298000,0.0324,0.013523,0.002678,0.000431,0.154079
38299000,0.0324,0.013523,0.002678,0.000431,0.159603
38300000,0.0324,0.013523,0.002678,0.000431,0.106481
38301000,0.0324,0.013523,0.002678,0.000431,0.494324
38302000,0.0324,0.013523,0.002678,0.000431,0.363515
38303000,0.0324,0.013523,0.002678,0.000431,0.248690
38304000,0.0324,0.013523,0.002678,0.000431,0.213314
38305000,0.0324,0.013523,0.002678,0.000431,0.211551
38306000,0.0324,0.013523,0.002678,0.000431,0.167713
38307000,0.0324,0.013523,0.002678,0.000431,0.154550
38308000,0.0324,0.013523,0.002678,0.000431,0.131044
38309000,0.0324,0.013523,0.002678,0.000431,0.121172
38310000,0.0324,0.013523,0.002678,0.000431,0.096608
38311000,0.0324,0.013523,0.002678,0.000431,0.081800
38312000,0.0324,0.013523,0.002678,0.000431,0.075688
38313000,0.0324,0.013523,0.002678,0.000431,0.064170
38314000,0.0324,0.013523,0.002678,0.000431,0.062407
38315000,0.0324,0.013523,0.002678,0.000431,0.053710
38316000,0.0324,0.013523,0.002678,0.000431,0.044661
38317000,0.0324,0.013523,0.002678,0.000431,0.047481
38318000,0.0324,0.013523,0.002678,0.000431,0.032908
38319000,0.0324,0.013523,0.002678,0.000431,0.035494
38320000,0.0324,0.013523,0.002678,0.000431,0.030910
38321000,0.0324,0.013523,0.002678,0.000431,0.034436
38322000,0.0324,0.013523,0.002678,0.000431,0.032085
38323000,0.0324,0.013523,0.002678,0.000431,0.024916
38324000,0.0324,0.013523,0.002678,0.000431,0.031733
38325000,0.0324,0.013523,0.002678,0.000431,0.025151
38326000,0.0324,0.013523,0.002678,0.000431,0.023741
38327000,0.0324,0.013523,0.002678,0.000431,0.024328
38328000,0.0324,0.013523,0.002678,0.000431,0.020450
38329000,0.0324,0.013523,0.002678,0.000431,0.017982
38330000,0.0324,0.013523,0.002678,0.000431,0.018334
38331000,0.0324,0.013523,0.002678,0.000431,0.017982
38332000,0.0324,0.013523,0.002678,0.000431,0.019510
38333000,0.0324,0.013523,0.002678,0.000431,0.018922
38334000,0.0324,0.013523,0.002678,0.000431,0.019275
38335000,0.0324,0.013523,0.002678,0.000431,0.016924
38336000,0.0324,0.013523,0.002678,0.000431,0.018334
38337000,0.0324,0.013523,0.002678,0.000431,0.021860
38338000,0.0324,0.013523,0.002678,0.000431,0.014338
38339000,0.0324,0.013523,0.002678,0.000431,0.011870
38340000,0.0324,0.013523,0.002678,0.000431,0.011165
38341000,0.0324,0.013523,0.002678,0.000431,0.011753
38342000,0.0324,0.013523,0.002678,0.000431,0.010578
38343000,0.0324,0.013523,0.002678,0.000431,0.010930
38344000,0.0324,0.013523,0.002678,0.000431,0.009520
38345000,0.0324,0.013523,0.002678,0.000431,0.010225
38346000,0.0324,0.013523,0.002678,0.000431,0.011870
38347000,0.0324,0.013523,0.002678,0.000431,0.008462
38348000,0.0324,0.013523,0.002678,0.000431,0.008815
38349000,0.0324,0.013523,0.002678,0.000431,0.006111
38350000,0.0324,0.013523,0.002678,0.000431,0.007992
38351000,0.0324,0.013523,0.002678,0.000431,0.007052
38352000,0.0324,0.013523,0.002678,0.000431,0.006817
38353000,0.0324,0.013523,0.002678,0.000431,0.006934
38354000,0.0324,0.013523,0.002678,0.000431,0.006347
38355000,0.0324,0.013523,0.002678,0.000431,0.006582
38356000,0.0324,0.013523,0.002678,0.000431,0.005759
38357000,0.0324,0.013523,0.002678,0.000431,0.005994
38358000,0.0324,0.013523,0.002678,0.000431,0.005994
38359000,0.0324,0.013523,0.002678,0.000431,0.005641
38360000,0.0324,0.013523,0.002678,0.000431,0.005994
38361000,0.0324,0.013523,0.002678,0.000431,0.006229
38362000,0.0324,0.013523,0.002678,0.000431,0.005641
38363000,0.0324,0.013523,0.002678,0.000431,0.005876
38364000,0.0324,0.013523,0.002678,0.000431,0.005994
38365000,0.0324,0.013523,0.002678,0.000431,0.005876
38366000,0.0324,0.013523,0.002678,0.000431,0.005524
38367000,0.0324,0.013523,0.002678,0.000431,0.006229
38368000,0.0324,0.013523,0.002678,0.000431,0.006347
38369000,0.0324,0.013523,0.002678,0.000431,0.005876
38370000,0.0324,0.013523,0.002678,0.000431,0.006111
38371000,0.0324,0.013523,0.002678,0.000431,0.005994
38372000,0.0324,0.013523,0.002678,0.000431,0.005759
38373000,0.0324,0.013523,0.002678,0.000431,0.006111
38374000,0.0324,0.013523,0.002678,0.000431,0.006111
38375000,0.0324,0.013523,0.002678,0.000431,0.005994
38376000,0.0324,0.013523,0.002678,0.000431,0.008815
38377000,0.0324,0.013523,0.002678,0.000431,0.004466
38378000,0.0324,0.013523,0.002678,0.000431,0.005641
38379000,0.0324,0.013523,0.002678,0.000431,0.007522
38380000,0.0324,0.013523,0.002678,0.000431,0.004466
38381000,0.0324,0.013523,0.002678,0.000431,0.004349
38382000,0.0324,0.013523,0.002678,0.000431,0.003643
38383000,0.0324,0.013523,0.002678,0.000431,0.004466
38384000,0.0324,0.013523,0.002678,0.000431,0.004113
38385000,0.0324,0.013523,0.002678,0.000431,0.003643
38386000,0.0324,0.013523,0.002678,0.000431,0.004113
38387000,0.0324,0.013523,0.002678,0.000431,0.003878
38388000,0.0324,0.013523,0.002678,0.000431,0.003878
38389000,0.0324,0.013523,0.002678,0.000431,0.004113
38390000,0.0324,0.013523,0.002678,0.000431,0.004231
38391000,0.0324,0.013523,0.002678,0.000431,0.003526
38392000,0.0324,0.013523,0.002678,0.000431,0.004349
38393000,0.0324,0.013523,0.002678,0.000431,0.003408
38394000,0.0324,0.013523,0.002678,0.000431,0.004701
38395000,0.0324,0.013523,0.002678,0.000431,0.002938
38396000,0.0324,0.013523,0.002678,0.000431,0.004819
38397000,0.0324,0.013523,0.002678,0.000431,0.004113
38398000,0.0324,0.013523,0.002678,0.000431,0.003643
38399000,0.0324,0.013523,0.002678,0.000431,0.004349
38400000,0.0324,0.013523,0.002678,0.000431,0.003291
38401000,0.0324,0.013523,0.002678,0.000431,0.004819
38402000,0.0324,0.013523,0.002678,0.000431,0.003643
38403000,0.0324,0.013523,0.002678,0.000431,0.004113
38404000,0.0324,0.013523,0.002678,0.000431,0.003761
38405000,0.0324,0.013523,0.002678,0.000431,0.003878
38406000,0.0324,0.013523,0.002678,0.000431,0.004231
38407000,0.0324,0.013523,0.002678,0.000431,0.004231
38408000,0.0324,0.013523,0.002678,0.000431,0.003526
38409000,0.0324,0.013523,0.002678,0.000431,0.004113
38410000,0.0324,0.013523,0.002678,0.000431,0.003996
38411000,0.0324,0.013523,0.002678,0.000431,0.003761
38412000,0.0324,0.013523,0.002678,0.000431,0.004819
38413000,0.0324,0.013523,0.002678,0.000431,0.002938
38414000,0.0324,0.013523,0.002678,0.000431,0.004701
38415000,0.0324,0.013523,0.002678,0.000431,0.003291
38416000,0.0324,0.013523,0.002678,0.000431,0.004466
38417000,0.0324,0.013523,0.002678,0.000431,0.004113
38418000,0.0324,0.013523,0.002678,0.000431,0.003643
38419000,0.0324,0.013523,0.002678,0.000431,0.004701
38420000,0.0324,0.013523,0.002678,0.000431,0.003291
38421000,0.0324,0.013523,0.002678,0.000431,0.004466
38422000,0.0324,0.013523,0.002678,0.000431,0.003761
38423000,0.0324,0.013523,0.002678,0.000431,0.003996
38424000,0.0324,0.013523,0.002678,0.000431,0.004113
38425000,0.0324,0.013523,0.002678,0.000431,0.003878
38426000,0.0324,0.013523,0.002678,0.000431,0.003878
38427000,0.0324,0.013523,0.002678,0.000431,0.004113
38428000,0.0324,0.013523,0.002678,0.000431,0.003643
38429000,0.0324,0.013523,0.002678,0.000431,0.004113
38430000,0.0324,0.013523,0.002678,0.000431,0.004349
38431000,0.0324,0.013523,0.002678,0.000431,0.003408
38432000,0.0324,0.013523,0.002678,0.000431,0.004701
38433000,0.0324,0.013523,0.002678,0.000431,0.002938
38434000,0.0324,0.013523,0.002678,0.000431,0.004819
38435000,0.0324,0.013523,0.002678,0.000431,0.004113
38436000,0.0324,0.013523,0.002678,0.000431,0.003643
38437000,0.0324,0.013523,0.002678,0.000431,0.004113
38438000,0.0324,0.013523,0.002678,0.000431,0.003526
38439000,0.0324,0.013523,0.002678,0.000431,0.004819
38440000,0.0324,0.013523,0.002678,0.000431,0.003643
38441000,0.0324,0.013523,0.002678,0.000431,0.004113
38442000,0.0324,0.013523,0.002678,0.000431,0.004113
38443000,0.0324,0.013523,0.002678,0.000431,0.003526
38444000,0.0324,0.013523,0.002678,0.000431,0.004231
38445000,0.0324,0.013523,0.002678,0.000431,0.004231
38446000,0.0324,0.013523,0.002678,0.000431,0.003526
38447000,0.0324,0.013523,0.002678,0.000431,0.004113
38448000,0.0324,0.013523,0.002678,0.000431,0.003408
38449000,0.0324,0.013523,0.002678,0.000431,0.004349
38450000,0.0324,0.013523,0.002678,0.000431,0.004819
38451000,0.0324,0.013523,0.002678,0.000431,0.002938
38452000,0.0324,0.013523,0.002678,0.000431,0.003526
38453000,0.0324,0.013523,0.002678,0.000431,0.002468
38454000,0.0324,0.013523,0.002678,0.000431,0.002468
38455000,0.0324,0.013523,0.002678,0.000431,0.002468
38456000,0.0324,0.013523,0.002678,0.000431,0.001645
38457000,0.0324,0.013523,0.002678,0.000431,0.001645
38458000,0.0324,0.013523,0.002678,0.000431,0.001763
38459000,0.0324,0.013523,0.002678,0.000431,0.001528
38460000,0.0324,0.013523,0.002678,0.000431,0.001880
38461000,0.0324,0.013523,0.002678,0.000431,0.001645
38462000,0.0324,0.013523,0.002678,0.000431,0.001645
38463000,0.0324,0.013523,0.002678,0.000431,0.001880
38464000,0.0324,0.013523,0.002678,0.000431,0.001528
38465000,0.0324,0.013523,0.002678,0.000431,0.001763
38466000,0.0324,0.013523,0.002678,0.000431,0.001763
38467000,0.0324,0.013523,0.002678,0.000431,0.001528
38468000,0.0324,0.013523,0.002678,0.000431,0.001880
38469000,0.0324,0.013523,0.002678,0.000431,0.001645
38470000,0.0324,0.013523,0.002678,0.000431,0.001645
38471000,0.0324,0.013523,0.002678,0.000431,0.001880
38472000,0.0324,0.013523,0.002678,0.000431,0.001528
38473000,0.0324,0.013523,0.002678,0.000431,0.001763
38474000,0.0324,0.013523,0.002678,0.000431,0.001763
38475000,0.0324,0.013523,0.002678,0.000431,0.001528
38476000,0.0324,0.013523,0.002678,0.000431,0.003643
38477000,0.0324,0.013523,0.002678,0.000431,0.000940
38478000,0.0324,0.013523,0.002678,0.000431,0.000940
38479000,0.0324,0.013523,0.002678,0.000431,0.000705
38480000,0.0324,0.013523,0.002678,0.000431,0.002468
38481000,0.0324,0.013523,0.002678,0.000431,0.546506
38482000,0.0324,0.013523,0.002678,0.000431,0.782620
38483000,0.0324,0.013523,0.002678,0.000431,0.156665
38484000,0.0324,0.013523,0.002678,0.000431,0.138918
38485000,0.0324,0.013523,0.002678,0.000431,0.481630
38486000,0.0324,0.013523,0.002678,0.000431,0.294408
38487000,0.0324,0.013523,0.002678,0.000431,0.291470
38488000,0.0324,0.013523,0.002678,0.000431,0.278777
38489000,0.0324,0.013523,0.002678,0.000431,0.148673
38490000,0.0324,0.013523,0.002678,0.000431,0.146910
38491000,0.0324,0.013523,0.002678,0.000431,0.221423
38492000,0.0324,0.013523,0.002678,0.000431,0.505371
38493000,0.0324,0.013523,0.002678,0.000431,0.270315
38494000,0.0324,0.013523,0.002678,0.000431,0.226477
38495000,0.0324,0.013523,0.002678,0.000431,0.200738
38496000,0.0324,0.013523,0.002678,0.000431,0.186635
38497000,0.0324,0.013523,0.002678,0.000431,0.152081
38498000,0.0324,0.013523,0.002678,0.000431,0.135628
38499000,0.0324,0.013523,0.002678,0.000431,0.127871
38500000,0.0324,0.013523,0.002678,0.000431,0.094728
38501000,0.0324,0.013523,0.002678,0.000431,0.092495
38502000,0.0324,0.013523,0.002678,0.000431,0.080037
38503000,0.0324,0.013523,0.002678,0.000431,0.065933
38504000,0.0324,0.013523,0.002678,0.000431,0.061115
38505000,0.0324,0.013523,0.002678,0.000431,0.062407
38506000,0.0324,0.013523,0.002678,0.000431,0.057824
38507000,0.0324,0.013523,0.002678,0.000431,0.045954
38508000,0.0324,0.013523,0.002678,0.000431,0.045366
38509000,0.0324,0.013523,0.002678,0.000431,0.042193
38510000,0.0324,0.013523,0.002678,0.000431,0.047951
38511000,0.0324,0.013523,0.002678,0.000431,0.037962
38512000,0.0324,0.013523,0.002678,0.000431,0.037021
38513000,0.0324,0.013523,0.002678,0.000431,0.039842
38514000,0.0324,0.013523,0.002678,0.000431,0.037727
38515000,0.0324,0.013523,0.002678,0.000431,0.032320
38516000,0.0324,0.013523,0.002678,0.000431,0.025151
38517000,0.0324,0.013523,0.002678,0.000431,0.021508
38518000,0.0324,0.013523,0.002678,0.000431,0.020920
38519000,0.0324,0.013523,0.002678,0.000431,0.021273
38520000,0.0324,0.013523,0.002678,0.000431,0.019862
38521000,0.0324,0.013523,0.002678,0.000431,0.018217
38522000,0.0324,0.013523,0.002678,0.000431,0.018805
38523000,0.0324,0.013523,0.002678,0.000431,0.024798
38524000,0.0324,0.013523,0.002678,0.000431,0.015866
38525000,0.0324,0.013523,0.002678,0.000431,0.015984
38526000,0.0324,0.013523,0.002678,0.000431,0.015279
38527000,0.0324,0.013523,0.002678,0.000431,0.012928
38528000,0.0324,0.013523,0.002678,0.000431,0.011988
38529000,0.0324,0.013523,0.002678,0.000431,0.012811
38530000,0.0324,0.013523,0.002678,0.000431,0.012928
38531000,0.0324,0.013523,0.002678,0.000431,0.011870
38532000,0.0324,0.013523,0.002678,0.000431,0.013163
38533000,0.0324,0.013523,0.002678,0.000431,0.011635
38534000,0.0324,0.013523,0.002678,0.000431,0.012928
38535000,0.0324,0.013523,0.002678,0.000431,0.012693
38536000,0.0324,0.013523,0.002678,0.000431,0.012576
38537000,0.0324,0.013523,0.002678,0.000431,0.011753
38538000,0.0324,0.013523,0.002678,0.000431,0.012576
38539000,0.0324,0.013523,0.002678,0.000431,0.013163
38540000,0.0324,0.013523,0.002678,0.000431,0.012223
38541000,0.0324,0.013523,0.002678,0.000431,0.012105
38542000,0.0324,0.013523,0.002678,0.000431,0.016924
38543000,0.0324,0.013523,0.002678,0.000431,0.010460
38544000,0.0324,0.013523,0.002678,0.000431,0.011283
38545000,0.0324,0.013523,0.002678,0.000431,0.010342
38546000,0.0324,0.013523,0.002678,0.000431,0.012223
38547000,0.0324,0.013523,0.002678,0.000431,0.010460
38548000,0.0324,0.013523,0.002678,0.000431,0.012105
38549000,0.0324,0.013523,0.002678,0.000431,0.008227
38550000,0.0324,0.013523,0.002678,0.000431,0.005641
38551000,0.0324,0.013523,0.002678,0.000431,0.006817
38552000,0.0324,0.013523,0.002678,0.000431,0.005759
38553000,0.0324,0.013523,0.002678,0.000431,0.004466
38554000,0.0324,0.013523,0.002678,0.000431,0.002586
38555000,0.0324,0.013523,0.002678,0.000431,0.002468
38556000,0.0324,0.013523,0.002678,0.000431,0.002586
38557000,0.0324,0.013523,0.002678,0.000431,0.002468
38558000,0.0324,0.013523,0.002678,0.000431,0.002586
38559000,0.0324,0.013523,0.002678,0.000431,0.002351
38560000,0.0324,0.013523,0.002678,0.000431,0.002586
38561000,0.0324,0.013523,0.002678,0.000431,0.002468
38562000,0.0324,0.013523,0.002678,0.000431,0.004466
38563000,0.0324,0.013523,0.002678,0.000431,0.001293
38564000,0.0324,0.013523,0.002678,0.000431,0.001293
38565000,0.0324,0.013523,0.002678,0.000431,0.001058
38566000,0.0324,0.013523,0.002678,0.000431,0.001293
38567000,0.0324,0.013523,0.002678,0.000431,0.015044
38568000,0.0324,0.013523,0.002678,0.000431,0.714219
38569000,0.0324,0.013523,0.002678,0.000431,0.602685
38570000,0.0324,0.013523,0.002678,0.000431,0.143502
38571000,0.0324,0.013523,0.002678,0.000431,0.135863
38572000,0.0324,0.013523,0.002678,0.000431,0.540747
38573000,0.0324,0.013523,0.002678,0.000431,0.269257
38574000,0.0324,0.013523,0.002678,0.000431,0.237524
38575000,0.0324,0.013523,0.002678,0.000431,0.261148
38576000,0.0324,0.013523,0.002678,0.000431,0.150554
38577000,0.0324,0.013523,0.002678,0.000431,0.152552
38578000,0.0324,0.013523,0.002678,0.000431,0.216134
38579000,0.0324,0.013523,0.002678,0.000431,0.515949
38580000,0.0324,0.013523,0.002678,0.000431,0.264086
38581000,0.0324,0.013523,0.002678,0.000431,0.222011
38582000,0.0324,0.013523,0.002678,0.000431,0.204382
38583000,0.0324,0.013523,0.002678,0.000431,0.194509
38584000,0.0324,0.013523,0.002678,0.000431,0.164422
38585000,0.0324,0.013523,0.002678,0.000431,0.137743
38586000,0.0324,0.013523,0.002678,0.000431,0.130104
38587000,0.0324,0.013523,0.002678,0.000431,0.103660
38588000,0.0324,0.013523,0.002678,0.000431,0.094845
38589000,0.0324,0.013523,0.002678,0.000431,0.077686
38590000,0.0324,0.013523,0.002678,0.000431,0.065346
38591000,0.0324,0.013523,0.002678,0.000431,0.057119
38592000,0.0324,0.013523,0.002678,0.000431,0.054298
38593000,0.0324,0.013523,0.002678,0.000431,0.048422
38594000,0.0324,0.013523,0.002678,0.000431,0.045483
38595000,0.0324,0.013523,0.002678,0.000431,0.035494
38596000,0.0324,0.013523,0.002678,0.000431,0.037609
38597000,0.0324,0.013523,0.002678,0.000431,0.034788
38598000,0.0324,0.013523,0.002678,0.000431,0.043485
38599000,0.0324,0.013523,0.002678,0.000431,0.037609
38600000,0.0324,0.013523,0.002678,0.000431,0.028442
38601000,0.0324,0.013523,0.002678,0.000431,0.024681
38602000,0.0324,0.013523,0.002678,0.000431,0.021860
38603000,0.0324,0.013523,0.002678,0.000431,0.018217
38604000,0.0324,0.013523,0.002678,0.000431,0.020097
38605000,0.0324,0.013523,0.002678,0.000431,0.017042
38606000,0.0324,0.013523,0.002678,0.000431,0.019392
38607000,0.0324,0.013523,0.002678,0.000431,0.017512
38608000,0.0324,0.013523,0.002678,0.000431,0.015749
38609000,0.0324,0.013523,0.002678,0.000431,0.014691
38610000,0.0324,0.013523,0.002678,0.000431,0.015161
38611000,0.0324,0.013523,0.002678,0.000431,0.017512
38612000,0.0324,0.013523,0.002678,0.000431,0.012693
38613000,0.0324,0.013523,0.002678,0.000431,0.011048
38614000,0.0324,0.013523,0.002678,0.000431,0.009050
38615000,0.0324,0.013523,0.002678,0.000431,0.008815
38616000,0.0324,0.013523,0.002678,0.000431,0.006582
38617000,0.0324,0.013523,0.002678,0.000431,0.006582
38618000,0.0324,0.013523,0.002678,0.000431,0.009402
38619000,0.0324,0.013523,0.002678,0.000431,0.005406
38620000,0.0324,0.013523,0.002678,0.000431,0.005289
38621000,0.0324,0.013523,0.002678,0.000431,0.004819
38622000,0.0324,0.013523,0.002678,0.000431,0.005524
38623000,0.0324,0.013523,0.002678,0.000431,0.008345
38624000,0.0324,0.013523,0.002678,0.000431,0.004349
38625000,0.0324,0.013523,0.002678,0.000431,0.004349
38626000,0.0324,0.013523,0.002678,0.000431,0.004231
38627000,0.0324,0.013523,0.002678,0.000431,0.004231
38628000,0.0324,0.013523,0.002678,0.000431,0.004349
38629000,0.0324,0.013523,0.002678,0.000431,0.004584
38630000,0.0324,0.013523,0.002678,0.000431,0.006699
38631000,0.0324,0.013523,0.002678,0.000431,0.003643
38632000,0.0324,0.013523,0.002678,0.000431,0.004936
38633000,0.0324,0.013523,0.002678,0.000431,0.002468
38634000,0.0324,0.013523,0.002678,0.000431,0.002703
38635000,0.0324,0.013523,0.002678,0.000431,0.002351
38636000,0.0324,0.013523,0.002678,0.000431,0.002703
38637000,0.0324,0.013523,0.002678,0.000431,0.002468
38638000,0.0324,0.013523,0.002678,0.000431,0.005289
38639000,0.0324,0.013523,0.002678,0.000431,0.001763
38640000,0.0324,0.013523,0.002678,0.000431,0.001528
38641000,0.0324,0.013523,0.002678,0.000431,0.001880
38642000,0.0324,0.013523,0.002678,0.000431,0.001528
38643000,0.0324,0.013523,0.002678,0.000431,0.001763
38644000,0.0324,0.013523,0.002678,0.000431,0.001528
38645000,0.0324,0.013523,0.002678,0.000431,0.001763
38646000,0.0324,0.013523,0.002678,0.000431,0.001645
38647000,0.0324,0.013523,0.002678,0.000431,0.001645
38648000,0.0324,0.013523,0.002678,0.000431,0.001880
38649000,0.0324,0.013523,0.002678,0.000431,0.001410
38650000,0.0324,0.013523,0.002678,0.000431,0.001880
38651000,0.0324,0.013523,0.002678,0.000431,0.001528
38652000,0.0324,0.013523,0.002678,0.000431,0.001763
38653000,0.0324,0.013523,0.002678,0.000431,0.002821
38654000,0.0324,0.013523,0.002678,0.000431,0.001998
38655000,0.0324,0.013523,0.002678,0.000431,0.000940
38656000,0.0324,0.013523,0.002678,0.000431,0.000705
38657000,0.0324,0.013523,0.002678,0.000431,0.000940
38658000,0.0324,0.013523,0.002678,0.000431,0.000823
38659000,0.0324,0.013523,0.002678,0.000431,0.000823
38660000,0.0324,0.013523,0.002678,0.000431,0.000823
38661000,0.0324,0.013523,0.002678,0.000431,0.000823
38662000,0.0324,0.013523,0.002678,0.000431,0.000940
38663000,0.0324,0.013523,0.002678,0.000431,0.000705
38664000,0.0324,0.013523,0.002678,0.000431,0.000940
38665000,0.0324,0.013523,0.002678,0.000431,0.000823
38666000,0.0324,0.013523,0.002678,0.000431,0.000705
38667000,0.0324,0.013523,0.002678,0.000431,0.000940
38668000,0.0324,0.013523,0.002678,0.000431,0.000823
38669000,0.0324,0.013523,0.002678,0.000431,0.000823
38670000,0.0324,0.013523,0.002678,0.000431,0.000823
38671000,0.0324,0.013523,0.002678,0.000431,0.000823
38672000,0.0324,0.013523,0.002678,0.000431,0.000823
38673000,0.0324,0.013523,0.002678,0.000431,0.000940
38674000,0.0324,0.013523,0.002678,0.000431,0.000823
38675000,0.0324,0.013523,0.002678,0.000431,0.000823
38676000,0.0324,0.013523,0.002678,0.000431,0.000705
38677000,0.0324,0.013523,0.002678,0.000431,0.000940
38678000,0.0324,0.013523,0.002678,0.000431,0.000940
38679000,0.0324,0.013523,0.002678,0.000431,0.000705
38680000,0.0324,0.013523,0.002678,0.000431,0.000940
38681000,0.0324,0.013523,0.002678,0.000431,0.000705
38682000,0.0324,0.013523,0.002678,0.000431,0.000940
38683000,0.0324,0.013523,0.002678,0.000431,0.000940
38684000,0.0324,0.013523,0.002678,0.000431,0.000705
38685000,0.0324,0.013523,0.002678,0.000431,0.000940
38686000,0.0324,0.013523,0.002678,0.000431,0.000705
38687000,0.0324,0.013523,0.002678,0.000431,0.000940
38688000,0.0324,0.013523,0.002678,0.000431,0.000823
38689000,0.0324,0.013523,0.002678,0.000431,0.000823
38690000,0.0324,0.013523,0.002678,0.000431,0.000823
38691000,0.0324,0.013523,0.002678,0.000431,0.000823
38692000,0.0324,0.013523,0.002678,0.000431,0.000940
38693000,0.0324,0.013523,0.002678,0.000431,0.000705
38694000,0.0324,0.013523,0.002678,0.000431,0.071575
38695000,0.0324,0.013523,0.002678,0.000431,0.735961
38696000,0.0324,0.013523,0.002678,0.000431,0.577651
38697000,0.0324,0.013523,0.002678,0.000431,0.138683
38698000,0.0324,0.013523,0.002678,0.000431,0.138801
38699000,0.0324,0.013523,0.002678,0.000431,0.588934
38700000,0.0324,0.013523,0.002678,0.000431,0.268669
38701000,0.0324,0.013523,0.002678,0.000431,0.271373
38702000,0.0324,0.013523,0.002678,0.000431,0.204029
38703000,0.0324,0.013523,0.002678,0.000431,0.154315
38704000,0.0324,0.013523,0.002678,0.000431,0.120701
38705000,0.0324,0.013523,0.002678,0.000431,0.378323
38706000,0.0324,0.013523,0.002678,0.000431,0.454129
38707000,0.0324,0.013523,0.002678,0.000431,0.271373
38708000,0.0324,0.013523,0.002678,0.000431,0.240933
38709000,0.0324,0.013523,0.002678,0.000431,0.255036
38710000,0.0324,0.013523,0.002678,0.000431,0.207085
38711000,0.0324,0.013523,0.002678,0.000431,0.176880
38712000,0.0324,0.013523,0.002678,0.000431,0.171121
38713000,0.0324,0.013523,0.002678,0.000431,0.164775
38714000,0.0324,0.013523,0.002678,0.000431,0.152317
38715000,0.0324,0.013523,0.002678,0.000431,0.142327
38716000,0.0324,0.013523,0.002678,0.000431,0.122347
38717000,0.0324,0.013523,0.002678,0.000431,0.123992
38718000,0.0324,0.013523,0.002678,0.000431,0.109419
38719000,0.0324,0.013523,0.002678,0.000431,0.104718
38720000,0.0324,0.013523,0.002678,0.000431,0.113415
38721000,0.0324,0.013523,0.002678,0.000431,0.090379
38722000,0.0324,0.013523,0.002678,0.000431,0.077334
38723000,0.0324,0.013523,0.002678,0.000431,0.070517
38724000,0.0324,0.013523,0.002678,0.000431,0.067696
38725000,0.0324,0.013523,0.002678,0.000431,0.067461
38726000,0.0324,0.013523,0.002678,0.000431,0.057941
38727000,0.0324,0.013523,0.002678,0.000431,0.053475
38728000,0.0324,0.013523,0.002678,0.000431,0.052300
38729000,0.0324,0.013523,0.002678,0.000431,0.044661
38730000,0.0324,0.013523,0.002678,0.000431,0.045483
38731000,0.0324,0.013523,0.002678,0.000431,0.043720
38732000,0.0324,0.013523,0.002678,0.000431,0.035258
38733000,0.0324,0.013523,0.002678,0.000431,0.035494
38734000,0.0324,0.013523,0.002678,0.000431,0.033613
38735000,0.0324,0.013523,0.002678,0.000431,0.036669
38736000,0.0324,0.013523,0.002678,0.000431,0.033260
38737000,0.0324,0.013523,0.002678,0.000431,0.033731
38738000,0.0324,0.013523,0.002678,0.000431,0.025974
38739000,0.0324,0.013523,0.002678,0.000431,0.021860
38740000,0.0324,0.013523,0.002678,0.000431,0.022448
38741000,0.0324,0.013523,0.002678,0.000431,0.019627
38742000,0.0324,0.013523,0.002678,0.000431,0.016924
38743000,0.0324,0.013523,0.002678,0.000431,0.016219
38744000,0.0324,0.013523,0.002678,0.000431,0.015514
38745000,0.0324,0.013523,0.002678,0.000431,0.015514
38746000,0.0324,0.013523,0.002678,0.000431,0.016219
38747000,0.0324,0.013523,0.002678,0.000431,0.016454
38748000,0.0324,0.013523,0.002678,0.000431,0.014809
38749000,0.0324,0.013523,0.002678,0.000431,0.013633
38750000,0.0324,0.013523,0.002678,0.000431,0.013046
38751000,0.0324,0.013523,0.002678,0.000431,0.016807
38752000,0.0324,0.013523,0.002678,0.000431,0.013281
38753000,0.0324,0.013523,0.002678,0.000431,0.012811
38754000,0.0324,0.013523,0.002678,0.000431,0.011048
38755000,0.0324,0.013523,0.002678,0.000431,0.010695
38756000,0.0324,0.013523,0.002678,0.000431,0.012693
38757000,0.0324,0.013523,0.002678,0.000431,0.012693
38758000,0.0324,0.013523,0.002678,0.000431,0.007404
38759000,0.0324,0.013523,0.002678,0.000431,0.005759
38760000,0.0324,0.013523,0.002678,0.000431,0.005876
38761000,0.0324,0.013523,0.002678,0.000431,0.005876
38762000,0.0324,0.013523,0.002678,0.000431,0.005641
38763000,0.0324,0.013523,0.002678,0.000431,0.005759
38764000,0.0324,0.013523,0.002678,0.000431,0.006111
38765000,0.0324,0.013523,0.002678,0.000431,0.006229
38766000,0.0324,0.013523,0.002678,0.000431,0.005289
38767000,0.0324,0.013523,0.002678,0.000431,0.007874
38768000,0.0324,0.013523,0.002678,0.000431,0.008109
38769000,0.0324,0.013523,0.002678,0.000431,0.003291
38770000,0.0324,0.013523,0.002678,0.000431,0.005994
38771000,0.0324,0.013523,0.002678,0.000431,0.002468
38772000,0.0324,0.013523,0.002678,0.000431,0.002351
38773000,0.0324,0.013523,0.002678,0.000431,0.002351
38774000,0.0324,0.013523,0.002678,0.000431,0.002586
38775000,0.0324,0.013523,0.002678,0.000431,0.002351
38776000,0.0324,0.013523,0.002678,0.000431,0.002586
38777000,0.0324,0.013523,0.002678,0.000431,0.002116
38778000,0.0324,0.013523,0.002678,0.000431,0.002586
38779000,0.0324,0.013523,0.002678,0.000431,0.002233
38780000,0.0324,0.013523,0.002678,0.000431,0.002468
38781000,0.0324,0.013523,0.002678,0.000431,0.002821
38782000,0.0324,0.013523,0.002678,0.000431,0.001880
38783000,0.0324,0.013523,0.002678,0.000431,0.002821
38784000,0.0324,0.013523,0.002678,0.000431,0.002233
38785000,0.0324,0.013523,0.002678,0.000431,0.002468
38786000,0.0324,0.013523,0.002678,0.000431,0.002586
38787000,0.0324,0.013523,0.002678,0.000431,0.002116
38788000,0.0324,0.013523,0.002678,0.000431,0.002703
38789000,0.0324,0.013523,0.002678,0.000431,0.002233
38790000,0.0324,0.013523,0.002678,0.000431,0.002586
38791000,0.0324,0.013523,0.002678,0.000431,0.002351
38792000,0.0324,0.013523,0.002678,0.000431,0.002351
38793000,0.0324,0.013523,0.002678,0.000431,0.002468
38794000,0.0324,0.013523,0.002678,0.000431,0.002468
38795000,0.0324,0.013523,0.002678,0.000431,0.002468
38796000,0.0324,0.013523,0.002678,0.000431,0.002233
38797000,0.0324,0.013523,0.002678,0.000431,0.002468
38798000,0.0324,0.013523,0.002678,0.000431,0.002468
38799000,0.0324,0.013523,0.002678,0.000431,0.002468
38800000,0.0324,0.013523,0.002678,0.000431,0.002233
38801000,0.0324,0.013523,0.002678,0.000431,0.002586
38802000,0.0324,0.013523,0.002678,0.000431,0.002233
38803000,0.0324,0.013523,0.002678,0.000431,0.002468
38804000,0.0324,0.013523,0.002678,0.000431,0.002586
38805000,0.0324,0.013523,0.002678,0.000431,0.002116
38806000,0.0324,0.013523,0.002678,0.000431,0.002821
38807000,0.0324,0.013523,0.002678,0.000431,0.001998
38808000,0.0324,0.013523,0.002678,0.000431,0.002703
38809000,0.0324,0.013523,0.002678,0.000431,0.002586
38810000,0.0324,0.013523,0.002678,0.000431,0.002116
38811000,0.0324,0.013523,0.002678,0.000431,0.002821
38812000,0.0324,0.013523,0.002678,0.000431,0.001998
38813000,0.0324,0.013523,0.002678,0.000431,0.002703
38814000,0.0324,0.013523,0.002678,0.000431,0.002351
38815000,0.0324,0.013523,0.002678,0.000431,0.002351
38816000,0.0324,0.013523,0.002678,0.000431,0.002468
38817000,0.0324,0.013523,0.002678,0.000431,0.002351
38818000,0.0324,0.013523,0.002678,0.000431,0.002703
38819000,0.0324,0.013523,0.002678,0.000431,0.002116
38820000,0.0324,0.013523,0.002678,0.000431,0.002586
38821000,0.0324,0.013523,0.002678,0.000431,0.002468
38822000,0.0324,0.013523,0.002678,0.000431,0.002351
38823000,0.0324,0.013523,0.002678,0.000431,0.002468
38824000,0.0324,0.013523,0.002678,0.000431,0.005054
38825000,0.0324,0.013523,0.002678,0.000431,0.003996
38826000,0.0324,0.013523,0.002678,0.000431,0.000823
38827000,0.0324,0.013523,0.002678,0.000431,0.000940
38828000,0.0324,0.013523,0.002678,0.000431,0.000705
38829000,0.0324,0.013523,0.002678,0.000431,0.000940
38830000,0.0324,0.013523,0.002678,0.000431,0.000823
38831000,0.0324,0.013523,0.002678,0.000431,0.000823
38832000,0.0324,0.013523,0.002678,0.000431,0.000705
38833000,0.0324,0.013523,0.002678,0.000431,0.000940
38834000,0.0324,0.013523,0.002678,0.000431,0.000940
38835000,0.0324,0.013523,0.002678,0.000431,0.000705
38836000,0.0324,0.013523,0.002678,0.000431,0.000940
38837000,0.0324,0.013523,0.002678,0.000431,0.000705
38838000,0.0324,0.013523,0.002678,0.000431,0.000940
38839000,0.0324,0.013523,0.002678,0.000431,0.000823
38840000,0.0324,0.013523,0.002678,0.000431,0.000823
38841000,0.0324,0.013523,0.002678,0.000431,0.000823
38842000,0.0324,0.013523,0.002678,0.000431,0.000823
38843000,0.0324,0.013523,0.002678,0.000431,0.000940
38844000,0.0324,0.013523,0.002678,0.000431,0.000705
38845000,0.0324,0.013523,0.002678,0.000431,0.000940
38846000,0.0324,0.013523,0.002678,0.000431,0.000823
38847000,0.0324,0.013523,0.002678,0.000431,0.000823
38848000,0.0324,0.013523,0.002678,0.000431,0.000823
38849000,0.0324,0.013523,0.002678,0.000431,0.000823
38850000,0.0324,0.013523,0.002678,0.000431,0.000823
38851000,0.0324,0.013523,0.002678,0.000431,0.000823
38852000,0.0324,0.013523,0.002678,0.000431,0.000823
38853000,0.0324,0.013523,0.002678,0.000431,0.000940
38854000,0.0324,0.013523,0.002678,0.000431,0.000823
38855000,0.0324,0.013523,0.002678,0.000431,0.000823
38856000,0.0324,0.013523,0.002678,0.000431,0.000823
38857000,0.0324,0.013523,0.002678,0.000431,0.000705
38858000,0.0324,0.013523,0.002678,0.000431,0.000940
38859000,0.0324,0.013523,0.002678,0.000431,0.000940
38860000,0.0324,0.013523,0.002678,0.000431,0.000705
38861000,0.0324,0.013523,0.002678,0.000431,0.000940
38862000,0.0324,0.013523,0.002678,0.000431,0.000705
38863000,0.0324,0.013523,0.002678,0.000431,0.000940
38864000,0.0324,0.013523,0.002678,0.000431,0.000823
38865000,0.0324,0.013523,0.002678,0.000431,0.000823
38866000,0.0324,0.013523,0.002678,0.000431,0.000940
38867000,0.0324,0.013523,0.002678,0.000431,0.000705
38868000,0.0324,0.013523,0.002678,0.000431,0.000940
38869000,0.0324,0.013523,0.002678,0.000431,0.000823
38870000,0.0324,0.013523,0.002678,0.000431,0.000823
38871000,0.0324,0.013523,0.002678,0.000431,0.000823
38872000,0.0324,0.013523,0.002678,0.000431,0.000823
38873000,0.0324,0.013523,0.002678,0.000431,0.000940
38874000,0.0324,0.013523,0.002678,0.000431,0.000705
38875000,0.0324,0.013523,0.002678,0.000431,0.000940
38876000,0.0324,0.013523,0.002678,0.000431,0.000705
38877000,0.0324,0.013523,0.002678,0.000431,0.000940
38878000,0.0324,0.013523,0.002678,0.000431,0.000823
38879000,0.0324,0.013523,0.002678,0.000431,0.000823
38880000,0.0324,0.013523,0.002678,0.000431,0.000705
38881000,0.0324,0.013523,0.002678,0.000431,0.000940
38882000,0.0324,0.013523,0.002678,0.000431,0.000940
38883000,0.0324,0.013523,0.002678,0.000431,0.000705
38884000,0.0324,0.013523,0.002678,0.000431,0.000940
38885000,0.0324,0.013523,0.002678,0.000431,0.000705
38886000,0.0324,0.013523,0.002678,0.000431,0.000940
38887000,0.0324,0.013523,0.002678,0.000431,0.000823
38888000,0.0324,0.013523,0.002678,0.000431,0.000823
38889000,0.0324,0.013523,0.002678,0.000431,0.000940
38890000,0.0324,0.013523,0.002678,0.000431,0.000705
38891000,0.0324,0.013523,0.002678,0.000431,0.000940
38892000,0.0324,0.013523,0.002678,0.000431,0.000823
38893000,0.0324,0.013523,0.002678,0.000431,0.000823
38894000,0.0324,0.013523,0.002678,0.000431,0.000823
38895000,0.0324,0.013523,0.002678,0.000431,0.000823
38896000,0.0324,0.013523,0.002678,0.000431,0.000823
38897000,0.0324,0.013523,0.002678,0.000431,0.000823
38898000,0.0324,0.013523,0.002678,0.000431,0.000940
38899000,0.0324,0.013523,0.002678,0.000431,0.000705
38900000,0.0324,0.013523,0.002678,0.000431,0.000823
38901000,0.0324,0.013523,0.002678,0.000431,0.000940
38902000,0.0324,0.013523,0.002678,0.000431,0.000823
38903000,0.0324,0.013523,0.002678,0.000431,0.000823
38904000,0.0324,0.013523,0.002678,0.000431,0.000823
38905000,0.0324,0.013523,0.002678,0.000431,0.000705
38906000,0.0324,0.013523,0.002678,0.000431,0.000940
38907000,0.0324,0.013523,0.002678,0.000431,0.000940
38908000,0.0324,0.013523,0.002678,0.000431,0.000705
38909000,0.0324,0.013523,0.002678,0.000431,0.000940
38910000,0.0324,0.013523,0.002678,0.000431,0.000705
38911000,0.0324,0.013523,0.002678,0.000431,0.000940
38912000,0.0324,0.013523,0.002678,0.000431,0.000940
38913000,0.0324,0.013523,0.002678,0.000431,0.000705
38914000,0.0324,0.013523,0.002678,0.000431,0.000940
38915000,0.0324,0.013523,0.002678,0.000431,0.000705
38916000,0.0324,0.013523,0.002678,0.000431,0.000940
38917000,0.0324,0.013523,0.002678,0.000431,0.003526
38918000,0.0324,0.013523,0.002678,0.000431,0.596456
38919000,0.0324,0.013523,0.002678,0.000431,0.724209
38920000,0.0324,0.013523,0.002678,0.000431,0.153727
38921000,0.0324,0.013523,0.002678,0.000431,0.134335
38922000,0.0324,0.013523,0.002678,0.000431,0.568601
38923000,0.0324,0.013523,0.002678,0.000431,0.264086
38924000,0.0324,0.013523,0.002678,0.000431,0.301342
38925000,0.0324,0.013523,0.002678,0.000431,0.223891
38926000,0.0324,0.013523,0.002678,0.000431,0.165480
38927000,0.0324,0.013523,0.002678,0.000431,0.108008
38928000,0.0324,0.013523,0.002678,0.000431,0.570012
38929000,0.0324,0.013523,0.002678,0.000431,0.412524
38930000,0.0324,0.013523,0.002678,0.000431,0.335896
38931000,0.0324,0.013523,0.002678,0.000431,0.284301
38932000,0.0324,0.013523,0.002678,0.000431,0.262088
38933000,0.0324,0.013523,0.002678,0.000431,0.225419
38934000,0.0324,0.013523,0.002678,0.000431,0.207907
38935000,0.0324,0.013523,0.002678,0.000431,0.193804
38936000,0.0324,0.013523,0.002678,0.000431,0.174647
38937000,0.0324,0.013523,0.002678,0.000431,0.173237
38938000,0.0324,0.013523,0.002678,0.000431,0.141857
38939000,0.0324,0.013523,0.002678,0.000431,0.134335
38940000,0.0324,0.013523,0.002678,0.000431,0.112122
38941000,0.0324,0.013523,0.002678,0.000431,0.109301
38942000,0.0324,0.013523,0.002678,0.000431,0.106598
38943000,0.0324,0.013523,0.002678,0.000431,0.089439
38944000,0.0324,0.013523,0.002678,0.000431,0.085325
38945000,0.0324,0.013523,0.002678,0.000431,0.087676
38946000,0.0324,0.013523,0.002678,0.000431,0.082152
38947000,0.0324,0.013523,0.002678,0.000431,0.074865
38948000,0.0324,0.013523,0.002678,0.000431,0.067109
38949000,0.0324,0.013523,0.002678,0.000431,0.067931
38950000,0.0324,0.013523,0.002678,0.000431,0.052300
38951000,0.0324,0.013523,0.002678,0.000431,0.052065
38952000,0.0324,0.013523,0.002678,0.000431,0.051830
38953000,0.0324,0.013523,0.002678,0.000431,0.045483
38954000,0.0324,0.013523,0.002678,0.000431,0.048187
38955000,0.0324,0.013523,0.002678,0.000431,0.045483
38956000,0.0324,0.013523,0.002678,0.000431,0.039137
38957000,0.0324,0.013523,0.002678,0.000431,0.038549
38958000,0.0324,0.013523,0.002678,0.000431,0.041605
38959000,0.0324,0.013523,0.002678,0.000431,0.044073
38960000,0.0324,0.013523,0.002678,0.000431,0.031615
38961000,0.0324,0.013523,0.002678,0.000431,0.030557
38962000,0.0324,0.013523,0.002678,0.000431,0.026561
38963000,0.0324,0.013523,0.002678,0.000431,0.023858
38964000,0.0324,0.013523,0.002678,0.000431,0.022918
38965000,0.0324,0.013523,0.002678,0.000431,0.021508
38966000,0.0324,0.013523,0.002678,0.000431,0.022448
38967000,0.0324,0.013523,0.002678,0.000431,0.023976
38968000,0.0324,0.013523,0.002678,0.000431,0.021038
38969000,0.0324,0.013523,0.002678,0.000431,0.018687
38970000,0.0324,0.013523,0.002678,0.000431,0.014926
38971000,0.0324,0.013523,0.002678,0.000431,0.018217
38972000,0.0324,0.013523,0.002678,0.000431,0.019745
38973000,0.0324,0.013523,0.002678,0.000431,0.013868
38974000,0.0324,0.013523,0.002678,0.000431,0.010813
38975000,0.0324,0.013523,0.002678,0.000431,0.011518
38976000,0.0324,0.013523,0.002678,0.000431,0.010107
38977000,0.0324,0.013523,0.002678,0.000431,0.011635
38978000,0.0324,0.013523,0.002678,0.000431,0.009755
38979000,0.0324,0.013523,0.002678,0.000431,0.010342
38980000,0.0324,0.013523,0.002678,0.000431,0.007287
38981000,0.0324,0.013523,0.002678,0.000431,0.010107
38982000,0.0324,0.013523,0.002678,0.000431,0.006582
38983000,0.0324,0.013523,0.002678,0.000431,0.005524
38984000,0.0324,0.013523,0.002678,0.000431,0.007052
38985000,0.0324,0.013523,0.002678,0.000431,0.006229
38986000,0.0324,0.013523,0.002678,0.000431,0.007404
38987000,0.0324,0.013523,0.002678,0.000431,0.004231
38988000,0.0324,0.013523,0.002678,0.000431,0.004701
38989000,0.0324,0.013523,0.002678,0.000431,0.005054
38990000,0.0324,0.013523,0.002678,0.000431,0.004113
38991000,0.0324,0.013523,0.002678,0.000431,0.005641
38992000,0.0324,0.013523,0.002678,0.000431,0.004231
38993000,0.0324,0.013523,0.002678,0.000431,0.004584
38994000,0.0324,0.013523,0.002678,0.000431,0.006582
38995000,0.0324,0.013523,0.002678,0.000431,0.003526
38996000,0.0324,0.013523,0.002678,0.000431,0.003878
38997000,0.0324,0.013523,0.002678,0.000431,0.003291
38998000,0.0324,0.013523,0.002678,0.000431,0.003761
38999000,0.0324,0.013523,0.002678,0.000431,0.003173
