Cycle,Area(mm^2),PeakDynamic(W),SubthresholdLeakage(W),GateLeakage(W),RunTimeDynamic(W)
120000000,0.0324,0.013523,0.002678,0.000431,0.015514
120001000,0.0324,0.013523,0.002678,0.000431,0.013986
120002000,0.0324,0.013523,0.002678,0.000431,0.014103
120003000,0.0324,0.013523,0.002678,0.000431,0.010930
120004000,0.0324,0.013523,0.002678,0.000431,0.011518
120005000,0.0324,0.013523,0.002678,0.000431,0.012223
120006000,0.0324,0.013523,0.002678,0.000431,0.011753
120007000,0.0324,0.013523,0.002678,0.000431,0.010578
120008000,0.0324,0.013523,0.002678,0.000431,0.008932
120009000,0.0324,0.013523,0.002678,0.000431,0.007169
120010000,0.0324,0.013523,0.002678,0.000431,0.006582
120011000,0.0324,0.013523,0.002678,0.000431,0.007404
120012000,0.0324,0.013523,0.002678,0.000431,0.008815
120013000,0.0324,0.013523,0.002678,0.000431,0.003996
120014000,0.0324,0.013523,0.002678,0.000431,0.004584
120015000,0.0324,0.013523,0.002678,0.000431,0.002468
120016000,0.0324,0.013523,0.002678,0.000431,0.002468
120017000,0.0324,0.013523,0.002678,0.000431,0.002703
120018000,0.0324,0.013523,0.002678,0.000431,0.002233
120019000,0.0324,0.013523,0.002678,0.000431,0.002351
120020000,0.0324,0.013523,0.002678,0.000431,0.002468
120021000,0.0324,0.013523,0.002678,0.000431,0.002468
120022000,0.0324,0.013523,0.002678,0.000431,0.002703
120023000,0.0324,0.013523,0.002678,0.000431,0.001763
120024000,0.0324,0.013523,0.002678,0.000431,0.001645
120025000,0.0324,0.013523,0.002678,0.000431,0.001763
120026000,0.0324,0.013523,0.002678,0.000431,0.001763
120027000,0.0324,0.013523,0.002678,0.000431,0.001528
120028000,0.0324,0.013523,0.002678,0.000431,0.001763
120029000,0.0324,0.013523,0.002678,0.000431,0.001763
120030000,0.0324,0.013523,0.002678,0.000431,0.004231
120031000,0.0324,0.013523,0.002678,0.000431,0.000940
120032000,0.0324,0.013523,0.002678,0.000431,0.208965
120033000,0.0324,0.013523,0.002678,0.000431,0.593635
120034000,0.0324,0.013523,0.002678,0.000431,0.381496
120035000,0.0324,0.013523,0.002678,0.000431,0.133042
120036000,0.0324,0.013523,0.002678,0.000431,0.132102
120037000,0.0324,0.013523,0.002678,0.000431,0.607033
120038000,0.0324,0.013523,0.002678,0.000431,0.247514
120039000,0.0324,0.013523,0.002678,0.000431,0.305808
120040000,0.0324,0.013523,0.002678,0.000431,0.255859
120041000,0.0324,0.013523,0.002678,0.000431,0.151611
120042000,0.0324,0.013523,0.002678,0.000431,0.152787
120043000,0.0324,0.013523,0.002678,0.000431,0.128928
120044000,0.0324,0.013523,0.002678,0.000431,0.468232
120045000,0.0324,0.013523,0.002678,0.000431,0.053593
120046000,0.0324,0.013523,0.002678,0.000431,0.037021
120047000,0.0324,0.013523,0.002678,0.000431,0.035023
120048000,0.0324,0.013523,0.002678,0.000431,0.027149
120049000,0.0324,0.013523,0.002678,0.000431,0.024093
120050000,0.0324,0.013523,0.002678,0.000431,0.019040
120051000,0.0324,0.013523,0.002678,0.000431,0.016571
120052000,0.0324,0.013523,0.002678,0.000431,0.012105
120053000,0.0324,0.013523,0.002678,0.000431,0.011518
120054000,0.0324,0.013523,0.002678,0.000431,0.014573
120055000,0.0324,0.013523,0.002678,0.000431,0.015279
120056000,0.0324,0.013523,0.002678,0.000431,0.008580
120057000,0.0324,0.013523,0.002678,0.000431,0.009050
120058000,0.0324,0.013523,0.002678,0.000431,0.008580
120059000,0.0324,0.013523,0.002678,0.000431,0.008345
120060000,0.0324,0.013523,0.002678,0.000431,0.009167
120061000,0.0324,0.013523,0.002678,0.000431,0.008462
120062000,0.0324,0.013523,0.002678,0.000431,0.009167
120063000,0.0324,0.013523,0.002678,0.000431,0.010107
120064000,0.0324,0.013523,0.002678,0.000431,0.007169
120065000,0.0324,0.013523,0.002678,0.000431,0.007639
120066000,0.0324,0.013523,0.002678,0.000431,0.007757
120067000,0.0324,0.013523,0.002678,0.000431,0.007992
120068000,0.0324,0.013523,0.002678,0.000431,0.006817
120069000,0.0324,0.013523,0.002678,0.000431,0.008932
120070000,0.0324,0.013523,0.002678,0.000431,0.005759
120071000,0.0324,0.013523,0.002678,0.000431,0.005641
120072000,0.0324,0.013523,0.002678,0.000431,0.005641
120073000,0.0324,0.013523,0.002678,0.000431,0.005641
120074000,0.0324,0.013523,0.002678,0.000431,0.005641
120075000,0.0324,0.013523,0.002678,0.000431,0.005641
120076000,0.0324,0.013523,0.002678,0.000431,0.007169
120077000,0.0324,0.013523,0.002678,0.000431,0.005641
120078000,0.0324,0.013523,0.002678,0.000431,0.005994
120079000,0.0324,0.013523,0.002678,0.000431,0.003056
120080000,0.0324,0.013523,0.002678,0.000431,0.003526
120081000,0.0324,0.013523,0.002678,0.000431,0.003291
120082000,0.0324,0.013523,0.002678,0.000431,0.003291
120083000,0.0324,0.013523,0.002678,0.000431,0.003526
120084000,0.0324,0.013523,0.002678,0.000431,0.003056
120085000,0.0324,0.013523,0.002678,0.000431,0.003643
120086000,0.0324,0.013523,0.002678,0.000431,0.003291
120087000,0.0324,0.013523,0.002678,0.000431,0.003408
120088000,0.0324,0.013523,0.002678,0.000431,0.004936
120089000,0.0324,0.013523,0.002678,0.000431,0.002468
120090000,0.0324,0.013523,0.002678,0.000431,0.003526
120091000,0.0324,0.013523,0.002678,0.000431,0.003173
120092000,0.0324,0.013523,0.002678,0.000431,0.001880
120093000,0.0324,0.013523,0.002678,0.000431,0.001645
120094000,0.0324,0.013523,0.002678,0.000431,0.001763
120095000,0.0324,0.013523,0.002678,0.000431,0.001763
120096000,0.0324,0.013523,0.002678,0.000431,0.001645
120097000,0.0324,0.013523,0.002678,0.000431,0.001763
120098000,0.0324,0.013523,0.002678,0.000431,0.001645
120099000,0.0324,0.013523,0.002678,0.000431,0.001645
120100000,0.0324,0.013523,0.002678,0.000431,0.001763
120101000,0.0324,0.013523,0.002678,0.000431,0.001763
120102000,0.0324,0.013523,0.002678,0.000431,0.001763
120103000,0.0324,0.013523,0.002678,0.000431,0.001763
120104000,0.0324,0.013523,0.002678,0.000431,0.003056
120105000,0.0324,0.013523,0.002678,0.000431,0.000940
120106000,0.0324,0.013523,0.002678,0.000431,0.000823
120107000,0.0324,0.013523,0.002678,0.000431,0.000940
120108000,0.0324,0.013523,0.002678,0.000431,0.000823
120109000,0.0324,0.013523,0.002678,0.000431,0.000940
120110000,0.0324,0.013523,0.002678,0.000431,0.000940
120111000,0.0324,0.013523,0.002678,0.000431,0.000705
120112000,0.0324,0.013523,0.002678,0.000431,0.000940
120113000,0.0324,0.013523,0.002678,0.000431,0.000940
120114000,0.0324,0.013523,0.002678,0.000431,0.000940
120115000,0.0324,0.013523,0.002678,0.000431,0.000705
120116000,0.0324,0.013523,0.002678,0.000431,0.000940
120117000,0.0324,0.013523,0.002678,0.000431,0.000940
120118000,0.0324,0.013523,0.002678,0.000431,0.000823
120119000,0.0324,0.013523,0.002678,0.000431,0.000823
120120000,0.0324,0.013523,0.002678,0.000431,0.000940
120121000,0.0324,0.013523,0.002678,0.000431,0.000823
120122000,0.0324,0.013523,0.002678,0.000431,0.000940
120123000,0.0324,0.013523,0.002678,0.000431,0.000823
120124000,0.0324,0.013523,0.002678,0.000431,0.000940
120125000,0.0324,0.013523,0.002678,0.000431,0.000823
120126000,0.0324,0.013523,0.002678,0.000431,0.000823
120127000,0.0324,0.013523,0.002678,0.000431,0.000940
120128000,0.0324,0.013523,0.002678,0.000431,0.000940
120129000,0.0324,0.013523,0.002678,0.000431,0.000823
120130000,0.0324,0.013523,0.002678,0.000431,0.000823
120131000,0.0324,0.013523,0.002678,0.000431,0.000940
120132000,0.0324,0.013523,0.002678,0.000431,0.000940
120133000,0.0324,0.013523,0.002678,0.000431,0.000823
120134000,0.0324,0.013523,0.002678,0.000431,0.000823
120135000,0.0324,0.013523,0.002678,0.000431,0.000940
120136000,0.0324,0.013523,0.002678,0.000431,0.000940
120137000,0.0324,0.013523,0.002678,0.000431,0.000823
120138000,0.0324,0.013523,0.002678,0.000431,0.001763
120139000,0.0324,0.013523,0.002678,0.000431,0.362692
120140000,0.0324,0.013523,0.002678,0.000431,0.668618
120141000,0.0324,0.013523,0.002678,0.000431,0.164775
120142000,0.0324,0.013523,0.002678,0.000431,0.133159
120143000,0.0324,0.013523,0.002678,0.000431,0.162659
120144000,0.0324,0.013523,0.002678,0.000431,0.643232
120145000,0.0324,0.013523,0.002678,0.000431,0.244106
120146000,0.0324,0.013523,0.002678,0.000431,0.288179
120147000,0.0324,0.013523,0.002678,0.000431,0.207202
120148000,0.0324,0.013523,0.002678,0.000431,0.144677
120149000,0.0324,0.013523,0.002678,0.000431,0.137861
120150000,0.0324,0.013523,0.002678,0.000431,0.224361
120151000,0.0324,0.013523,0.002678,0.000431,0.400183
120152000,0.0324,0.013523,0.002678,0.000431,0.087794
120153000,0.0324,0.013523,0.002678,0.000431,0.070282
120154000,0.0324,0.013523,0.002678,0.000431,0.058412
120155000,0.0324,0.013523,0.002678,0.000431,0.048657
120156000,0.0324,0.013523,0.002678,0.000431,0.043956
120157000,0.0324,0.013523,0.002678,0.000431,0.039489
120158000,0.0324,0.013523,0.002678,0.000431,0.029500
120159000,0.0324,0.013523,0.002678,0.000431,0.023623
120160000,0.0324,0.013523,0.002678,0.000431,0.025621
120161000,0.0324,0.013523,0.002678,0.000431,0.022683
120162000,0.0324,0.013523,0.002678,0.000431,0.016219
120163000,0.0324,0.013523,0.002678,0.000431,0.013633
120164000,0.0324,0.013523,0.002678,0.000431,0.016336
120165000,0.0324,0.013523,0.002678,0.000431,0.012811
120166000,0.0324,0.013523,0.002678,0.000431,0.016101
120167000,0.0324,0.013523,0.002678,0.000431,0.013633
120168000,0.0324,0.013523,0.002678,0.000431,0.008462
120169000,0.0324,0.013523,0.002678,0.000431,0.009637
120170000,0.0324,0.013523,0.002678,0.000431,0.009990
120171000,0.0324,0.013523,0.002678,0.000431,0.009755
120172000,0.0324,0.013523,0.002678,0.000431,0.009050
120173000,0.0324,0.013523,0.002678,0.000431,0.006817
120174000,0.0324,0.013523,0.002678,0.000431,0.005054
120175000,0.0324,0.013523,0.002678,0.000431,0.004819
120176000,0.0324,0.013523,0.002678,0.000431,0.004113
120177000,0.0324,0.013523,0.002678,0.000431,0.004466
120178000,0.0324,0.013523,0.002678,0.000431,0.004113
120179000,0.0324,0.013523,0.002678,0.000431,0.004584
120180000,0.0324,0.013523,0.002678,0.000431,0.003878
120181000,0.0324,0.013523,0.002678,0.000431,0.006229
120182000,0.0324,0.013523,0.002678,0.000431,0.003643
120183000,0.0324,0.013523,0.002678,0.000431,0.003526
120184000,0.0324,0.013523,0.002678,0.000431,0.003173
120185000,0.0324,0.013523,0.002678,0.000431,0.003526
120186000,0.0324,0.013523,0.002678,0.000431,0.003526
120187000,0.0324,0.013523,0.002678,0.000431,0.003408
120188000,0.0324,0.013523,0.002678,0.000431,0.003408
120189000,0.0324,0.013523,0.002678,0.000431,0.004936
120190000,0.0324,0.013523,0.002678,0.000431,0.002586
120191000,0.0324,0.013523,0.002678,0.000431,0.002586
120192000,0.0324,0.013523,0.002678,0.000431,0.002586
120193000,0.0324,0.013523,0.002678,0.000431,0.003996
120194000,0.0324,0.013523,0.002678,0.000431,0.001880
120195000,0.0324,0.013523,0.002678,0.000431,0.003996
120196000,0.0324,0.013523,0.002678,0.000431,0.001058
120197000,0.0324,0.013523,0.002678,0.000431,0.000940
120198000,0.0324,0.013523,0.002678,0.000431,0.000940
120199000,0.0324,0.013523,0.002678,0.000431,0.000823
120200000,0.0324,0.013523,0.002678,0.000431,0.000940
120201000,0.0324,0.013523,0.002678,0.000431,0.000823
120202000,0.0324,0.013523,0.002678,0.000431,0.000940
120203000,0.0324,0.013523,0.002678,0.000431,0.000823
120204000,0.0324,0.013523,0.002678,0.000431,0.000823
120205000,0.0324,0.013523,0.002678,0.000431,0.000940
120206000,0.0324,0.013523,0.002678,0.000431,0.000940
120207000,0.0324,0.013523,0.002678,0.000431,0.000823
120208000,0.0324,0.013523,0.002678,0.000431,0.000823
120209000,0.0324,0.013523,0.002678,0.000431,0.000940
120210000,0.0324,0.013523,0.002678,0.000431,0.000940
120211000,0.0324,0.013523,0.002678,0.000431,0.000823
120212000,0.0324,0.013523,0.002678,0.000431,0.000823
120213000,0.0324,0.013523,0.002678,0.000431,0.000940
120214000,0.0324,0.013523,0.002678,0.000431,0.000940
120215000,0.0324,0.013523,0.002678,0.000431,0.000823
120216000,0.0324,0.013523,0.002678,0.000431,0.000823
120217000,0.0324,0.013523,0.002678,0.000431,0.000940
120218000,0.0324,0.013523,0.002678,0.000431,0.000823
120219000,0.0324,0.013523,0.002678,0.000431,0.000940
120220000,0.0324,0.013523,0.002678,0.000431,0.000823
120221000,0.0324,0.013523,0.002678,0.000431,0.000940
120222000,0.0324,0.013523,0.002678,0.000431,0.000823
120223000,0.0324,0.013523,0.002678,0.000431,0.000823
120224000,0.0324,0.013523,0.002678,0.000431,0.000940
120225000,0.0324,0.013523,0.002678,0.000431,0.000940
120226000,0.0324,0.013523,0.002678,0.000431,0.000823
120227000,0.0324,0.013523,0.002678,0.000431,0.000823
120228000,0.0324,0.013523,0.002678,0.000431,0.000940
120229000,0.0324,0.013523,0.002678,0.000431,0.000940
120230000,0.0324,0.013523,0.002678,0.000431,0.000705
120231000,0.0324,0.013523,0.002678,0.000431,0.000940
120232000,0.0324,0.013523,0.002678,0.000431,0.000940
120233000,0.0324,0.013523,0.002678,0.000431,0.000823
120234000,0.0324,0.013523,0.002678,0.000431,0.000823
120235000,0.0324,0.013523,0.002678,0.000431,0.000940
120236000,0.0324,0.013523,0.002678,0.000431,0.000940
120237000,0.0324,0.013523,0.002678,0.000431,0.000823
120238000,0.0324,0.013523,0.002678,0.000431,0.000823
120239000,0.0324,0.013523,0.002678,0.000431,0.000940
120240000,0.0324,0.013523,0.002678,0.000431,0.000823
120241000,0.0324,0.013523,0.002678,0.000431,0.000940
120242000,0.0324,0.013523,0.002678,0.000431,0.000823
120243000,0.0324,0.013523,0.002678,0.000431,0.000940
120244000,0.0324,0.013523,0.002678,0.000431,0.000940
120245000,0.0324,0.013523,0.002678,0.000431,0.000705
120246000,0.0324,0.013523,0.002678,0.000431,0.000940
120247000,0.0324,0.013523,0.002678,0.000431,0.000940
120248000,0.0324,0.013523,0.002678,0.000431,0.000940
120249000,0.0324,0.013523,0.002678,0.000431,0.000705
120250000,0.0324,0.013523,0.002678,0.000431,0.000940
120251000,0.0324,0.013523,0.002678,0.000431,0.000940
120252000,0.0324,0.013523,0.002678,0.000431,0.000823
120253000,0.0324,0.013523,0.002678,0.000431,0.000823
120254000,0.0324,0.013523,0.002678,0.000431,0.000940
120255000,0.0324,0.013523,0.002678,0.000431,0.000940
120256000,0.0324,0.013523,0.002678,0.000431,0.000823
120257000,0.0324,0.013523,0.002678,0.000431,0.000823
120258000,0.0324,0.013523,0.002678,0.000431,0.000940
120259000,0.0324,0.013523,0.002678,0.000431,0.000823
120260000,0.0324,0.013523,0.002678,0.000431,0.000940
120261000,0.0324,0.013523,0.002678,0.000431,0.000823
120262000,0.0324,0.013523,0.002678,0.000431,0.000940
120263000,0.0324,0.013523,0.002678,0.000431,0.000823
120264000,0.0324,0.013523,0.002678,0.000431,0.000823
120265000,0.0324,0.013523,0.002678,0.000431,0.000940
120266000,0.0324,0.013523,0.002678,0.000431,0.000940
120267000,0.0324,0.013523,0.002678,0.000431,0.000823
120268000,0.0324,0.013523,0.002678,0.000431,0.000823
120269000,0.0324,0.013523,0.002678,0.000431,0.000940
120270000,0.0324,0.013523,0.002678,0.000431,0.000940
120271000,0.0324,0.013523,0.002678,0.000431,0.000823
120272000,0.0324,0.013523,0.002678,0.000431,0.000823
120273000,0.0324,0.013523,0.002678,0.000431,0.000940
120274000,0.0324,0.013523,0.002678,0.000431,0.000823
120275000,0.0324,0.013523,0.002678,0.000431,0.000940
120276000,0.0324,0.013523,0.002678,0.000431,0.000823
120277000,0.0324,0.013523,0.002678,0.000431,0.000940
120278000,0.0324,0.013523,0.002678,0.000431,0.000823
120279000,0.0324,0.013523,0.002678,0.000431,0.000823
120280000,0.0324,0.013523,0.002678,0.000431,0.000940
120281000,0.0324,0.013523,0.002678,0.000431,0.000940
120282000,0.0324,0.013523,0.002678,0.000431,0.000823
120283000,0.0324,0.013523,0.002678,0.000431,0.000823
120284000,0.0324,0.013523,0.002678,0.000431,0.000940
120285000,0.0324,0.013523,0.002678,0.000431,0.000940
120286000,0.0324,0.013523,0.002678,0.000431,0.000705
120287000,0.0324,0.013523,0.002678,0.000431,0.000940
120288000,0.0324,0.013523,0.002678,0.000431,0.000940
120289000,0.0324,0.013523,0.002678,0.000431,0.000940
120290000,0.0324,0.013523,0.002678,0.000431,0.000705
120291000,0.0324,0.013523,0.002678,0.000431,0.000940
120292000,0.0324,0.013523,0.002678,0.000431,0.000940
120293000,0.0324,0.013523,0.002678,0.000431,0.000823
120294000,0.0324,0.013523,0.002678,0.000431,0.000823
120295000,0.0324,0.013523,0.002678,0.000431,0.000940
120296000,0.0324,0.013523,0.002678,0.000431,0.000940
120297000,0.0324,0.013523,0.002678,0.000431,0.000823
120298000,0.0324,0.013523,0.002678,0.000431,0.000823
120299000,0.0324,0.013523,0.002678,0.000431,0.000940
120300000,0.0324,0.013523,0.002678,0.000431,0.000823
120301000,0.0324,0.013523,0.002678,0.000431,0.000940
120302000,0.0324,0.013523,0.002678,0.000431,0.000823
120303000,0.0324,0.013523,0.002678,0.000431,0.000940
120304000,0.0324,0.013523,0.002678,0.000431,0.000940
120305000,0.0324,0.013523,0.002678,0.000431,0.000705
120306000,0.0324,0.013523,0.002678,0.000431,0.000940
120307000,0.0324,0.013523,0.002678,0.000431,0.000940
120308000,0.0324,0.013523,0.002678,0.000431,0.000940
120309000,0.0324,0.013523,0.002678,0.000431,0.000705
120310000,0.0324,0.013523,0.002678,0.000431,0.000940
120311000,0.0324,0.013523,0.002678,0.000431,0.000940
120312000,0.0324,0.013523,0.002678,0.000431,0.000823
120313000,0.0324,0.013523,0.002678,0.000431,0.000823
120314000,0.0324,0.013523,0.002678,0.000431,0.000940
120315000,0.0324,0.013523,0.002678,0.000431,0.000823
120316000,0.0324,0.013523,0.002678,0.000431,0.000940
120317000,0.0324,0.013523,0.002678,0.000431,0.000823
120318000,0.0324,0.013523,0.002678,0.000431,0.000940
120319000,0.0324,0.013523,0.002678,0.000431,0.000823
120320000,0.0324,0.013523,0.002678,0.000431,0.000823
120321000,0.0324,0.013523,0.002678,0.000431,0.000940
120322000,0.0324,0.013523,0.002678,0.000431,0.000940
120323000,0.0324,0.013523,0.002678,0.000431,0.000823
120324000,0.0324,0.013523,0.002678,0.000431,0.000823
120325000,0.0324,0.013523,0.002678,0.000431,0.000940
120326000,0.0324,0.013523,0.002678,0.000431,0.000940
120327000,0.0324,0.013523,0.002678,0.000431,0.000823
120328000,0.0324,0.013523,0.002678,0.000431,0.000823
120329000,0.0324,0.013523,0.002678,0.000431,0.000940
120330000,0.0324,0.013523,0.002678,0.000431,0.000940
120331000,0.0324,0.013523,0.002678,0.000431,0.000823
120332000,0.0324,0.013523,0.002678,0.000431,0.000823
120333000,0.0324,0.013523,0.002678,0.000431,0.000940
120334000,0.0324,0.013523,0.002678,0.000431,0.000823
120335000,0.0324,0.013523,0.002678,0.000431,0.000940
120336000,0.0324,0.013523,0.002678,0.000431,0.000823
120337000,0.0324,0.013523,0.002678,0.000431,0.000940
120338000,0.0324,0.013523,0.002678,0.000431,0.000823
120339000,0.0324,0.013523,0.002678,0.000431,0.000823
120340000,0.0324,0.013523,0.002678,0.000431,0.000940
120341000,0.0324,0.013523,0.002678,0.000431,0.000940
120342000,0.0324,0.013523,0.002678,0.000431,0.000823
120343000,0.0324,0.013523,0.002678,0.000431,0.000823
120344000,0.0324,0.013523,0.002678,0.000431,0.000940
120345000,0.0324,0.013523,0.002678,0.000431,0.000940
120346000,0.0324,0.013523,0.002678,0.000431,0.000705
120347000,0.0324,0.013523,0.002678,0.000431,0.000940
120348000,0.0324,0.013523,0.002678,0.000431,0.000940
120349000,0.0324,0.013523,0.002678,0.000431,0.000940
120350000,0.0324,0.013523,0.002678,0.000431,0.000705
120351000,0.0324,0.013523,0.002678,0.000431,0.000940
120352000,0.0324,0.013523,0.002678,0.000431,0.000940
120353000,0.0324,0.013523,0.002678,0.000431,0.000823
120354000,0.0324,0.013523,0.002678,0.000431,0.000940
120355000,0.0324,0.013523,0.002678,0.000431,0.000823
120356000,0.0324,0.013523,0.002678,0.000431,0.000940
120357000,0.0324,0.013523,0.002678,0.000431,0.000823
120358000,0.0324,0.013523,0.002678,0.000431,0.000823
120359000,0.0324,0.013523,0.002678,0.000431,0.000940
120360000,0.0324,0.013523,0.002678,0.000431,0.000823
120361000,0.0324,0.013523,0.002678,0.000431,0.000823
120362000,0.0324,0.013523,0.002678,0.000431,0.000940
120363000,0.0324,0.013523,0.002678,0.000431,0.000940
120364000,0.0324,0.013523,0.002678,0.000431,0.000940
120365000,0.0324,0.013523,0.002678,0.000431,0.000705
120366000,0.0324,0.013523,0.002678,0.000431,0.000940
120367000,0.0324,0.013523,0.002678,0.000431,0.000940
120368000,0.0324,0.013523,0.002678,0.000431,0.000823
120369000,0.0324,0.013523,0.002678,0.000431,0.015161
120370000,0.0324,0.013523,0.002678,0.000431,0.536164
120371000,0.0324,0.013523,0.002678,0.000431,0.599864
120372000,0.0324,0.013523,0.002678,0.000431,0.132572
120373000,0.0324,0.013523,0.002678,0.000431,0.133512
120374000,0.0324,0.013523,0.002678,0.000431,0.509720
120375000,0.0324,0.013523,0.002678,0.000431,0.336366
120376000,0.0324,0.013523,0.002678,0.000431,0.238817
120377000,0.0324,0.013523,0.002678,0.000431,0.342712
120378000,0.0324,0.013523,0.002678,0.000431,0.136685
120379000,0.0324,0.013523,0.002678,0.000431,0.154667
120380000,0.0324,0.013523,0.002678,0.000431,0.107773
120381000,0.0324,0.013523,0.002678,0.000431,0.400419
120382000,0.0324,0.013523,0.002678,0.000431,0.159251
120383000,0.0324,0.013523,0.002678,0.000431,0.025034
120384000,0.0324,0.013523,0.002678,0.000431,0.027619
120385000,0.0324,0.013523,0.002678,0.000431,0.024446
120386000,0.0324,0.013523,0.002678,0.000431,0.020097
120387000,0.0324,0.013523,0.002678,0.000431,0.019510
120388000,0.0324,0.013523,0.002678,0.000431,0.015631
120389000,0.0324,0.013523,0.002678,0.000431,0.015984
120390000,0.0324,0.013523,0.002678,0.000431,0.013751
120391000,0.0324,0.013523,0.002678,0.000431,0.013751
120392000,0.0324,0.013523,0.002678,0.000431,0.015161
120393000,0.0324,0.013523,0.002678,0.000431,0.009990
120394000,0.0324,0.013523,0.002678,0.000431,0.008815
120395000,0.0324,0.013523,0.002678,0.000431,0.009402
120396000,0.0324,0.013523,0.002678,0.000431,0.009637
120397000,0.0324,0.013523,0.002678,0.000431,0.006347
120398000,0.0324,0.013523,0.002678,0.000431,0.006934
120399000,0.0324,0.013523,0.002678,0.000431,0.006229
120400000,0.0324,0.013523,0.002678,0.000431,0.006347
120401000,0.0324,0.013523,0.002678,0.000431,0.005641
120402000,0.0324,0.013523,0.002678,0.000431,0.003173
120403000,0.0324,0.013523,0.002678,0.000431,0.005054
120404000,0.0324,0.013523,0.002678,0.000431,0.002351
120405000,0.0324,0.013523,0.002678,0.000431,0.002586
120406000,0.0324,0.013523,0.002678,0.000431,0.002586
120407000,0.0324,0.013523,0.002678,0.000431,0.002351
120408000,0.0324,0.013523,0.002678,0.000431,0.002703
120409000,0.0324,0.013523,0.002678,0.000431,0.002586
120410000,0.0324,0.013523,0.002678,0.000431,0.004113
120411000,0.0324,0.013523,0.002678,0.000431,0.001763
120412000,0.0324,0.013523,0.002678,0.000431,0.001645
120413000,0.0324,0.013523,0.002678,0.000431,0.001645
120414000,0.0324,0.013523,0.002678,0.000431,0.001763
120415000,0.0324,0.013523,0.002678,0.000431,0.001645
120416000,0.0324,0.013523,0.002678,0.000431,0.001645
120417000,0.0324,0.013523,0.002678,0.000431,0.001528
120418000,0.0324,0.013523,0.002678,0.000431,0.003643
120419000,0.0324,0.013523,0.002678,0.000431,0.000940
120420000,0.0324,0.013523,0.002678,0.000431,0.000705
120421000,0.0324,0.013523,0.002678,0.000431,0.000940
120422000,0.0324,0.013523,0.002678,0.000431,0.000705
120423000,0.0324,0.013523,0.002678,0.000431,0.000940
120424000,0.0324,0.013523,0.002678,0.000431,0.000823
120425000,0.0324,0.013523,0.002678,0.000431,0.000823
120426000,0.0324,0.013523,0.002678,0.000431,0.000940
120427000,0.0324,0.013523,0.002678,0.000431,0.000705
120428000,0.0324,0.013523,0.002678,0.000431,0.000940
120429000,0.0324,0.013523,0.002678,0.000431,0.000823
120430000,0.0324,0.013523,0.002678,0.000431,0.000823
120431000,0.0324,0.013523,0.002678,0.000431,0.000823
120432000,0.0324,0.013523,0.002678,0.000431,0.000823
120433000,0.0324,0.013523,0.002678,0.000431,0.000705
120434000,0.0324,0.013523,0.002678,0.000431,0.000940
120435000,0.0324,0.013523,0.002678,0.000431,0.000705
120436000,0.0324,0.013523,0.002678,0.000431,0.000940
120437000,0.0324,0.013523,0.002678,0.000431,0.000940
120438000,0.0324,0.013523,0.002678,0.000431,0.000705
120439000,0.0324,0.013523,0.002678,0.000431,0.000940
120440000,0.0324,0.013523,0.002678,0.000431,0.000705
120441000,0.0324,0.013523,0.002678,0.000431,0.000940
120442000,0.0324,0.013523,0.002678,0.000431,0.000823
120443000,0.0324,0.013523,0.002678,0.000431,0.000823
120444000,0.0324,0.013523,0.002678,0.000431,0.000823
120445000,0.0324,0.013523,0.002678,0.000431,0.000823
120446000,0.0324,0.013523,0.002678,0.000431,0.000940
120447000,0.0324,0.013523,0.002678,0.000431,0.000705
120448000,0.0324,0.013523,0.002678,0.000431,0.000940
120449000,0.0324,0.013523,0.002678,0.000431,0.000823
120450000,0.0324,0.013523,0.002678,0.000431,0.000823
120451000,0.0324,0.013523,0.002678,0.000431,0.000823
120452000,0.0324,0.013523,0.002678,0.000431,0.000823
120453000,0.0324,0.013523,0.002678,0.000431,0.000823
120454000,0.0324,0.013523,0.002678,0.000431,0.000823
120455000,0.0324,0.013523,0.002678,0.000431,0.184402
120456000,0.0324,0.013523,0.002678,0.000431,0.409233
120457000,0.0324,0.013523,0.002678,0.000431,0.517947
120458000,0.0324,0.013523,0.002678,0.000431,0.134335
120459000,0.0324,0.013523,0.002678,0.000431,0.130339
120460000,0.0324,0.013523,0.002678,0.000431,0.542980
120461000,0.0324,0.013523,0.002678,0.000431,0.231060
120462000,0.0324,0.013523,0.002678,0.000431,0.243283
120463000,0.0324,0.013523,0.002678,0.000431,0.285123
120464000,0.0324,0.013523,0.002678,0.000431,0.135392
120465000,0.0324,0.013523,0.002678,0.000431,0.136450
120466000,0.0324,0.013523,0.002678,0.000431,0.176057
120467000,0.0324,0.013523,0.002678,0.000431,0.108361
120468000,0.0324,0.013523,0.002678,0.000431,0.443434
120469000,0.0324,0.013523,0.002678,0.000431,0.075453
120470000,0.0324,0.013523,0.002678,0.000431,0.011753
120471000,0.0324,0.013523,0.002678,0.000431,0.011635
120472000,0.0324,0.013523,0.002678,0.000431,0.012340
120473000,0.0324,0.013523,0.002678,0.000431,0.009520
120474000,0.0324,0.013523,0.002678,0.000431,0.009755
120475000,0.0324,0.013523,0.002678,0.000431,0.008462
120476000,0.0324,0.013523,0.002678,0.000431,0.007874
120477000,0.0324,0.013523,0.002678,0.000431,0.008580
120478000,0.0324,0.013523,0.002678,0.000431,0.007287
120479000,0.0324,0.013523,0.002678,0.000431,0.009990
120480000,0.0324,0.013523,0.002678,0.000431,0.006582
120481000,0.0324,0.013523,0.002678,0.000431,0.005054
120482000,0.0324,0.013523,0.002678,0.000431,0.004819
120483000,0.0324,0.013523,0.002678,0.000431,0.004466
120484000,0.0324,0.013523,0.002678,0.000431,0.002468
120485000,0.0324,0.013523,0.002678,0.000431,0.002468
120486000,0.0324,0.013523,0.002678,0.000431,0.002468
120487000,0.0324,0.013523,0.002678,0.000431,0.002586
120488000,0.0324,0.013523,0.002678,0.000431,0.002351
120489000,0.0324,0.013523,0.002678,0.000431,0.002703
120490000,0.0324,0.013523,0.002678,0.000431,0.002468
120491000,0.0324,0.013523,0.002678,0.000431,0.002351
120492000,0.0324,0.013523,0.002678,0.000431,0.002586
120493000,0.0324,0.013523,0.002678,0.000431,0.002586
120494000,0.0324,0.013523,0.002678,0.000431,0.002586
120495000,0.0324,0.013523,0.002678,0.000431,0.002586
120496000,0.0324,0.013523,0.002678,0.000431,0.004113
120497000,0.0324,0.013523,0.002678,0.000431,0.001763
120498000,0.0324,0.013523,0.002678,0.000431,0.001763
120499000,0.0324,0.013523,0.002678,0.000431,0.001645
120500000,0.0324,0.013523,0.002678,0.000431,0.001645
120501000,0.0324,0.013523,0.002678,0.000431,0.001645
120502000,0.0324,0.013523,0.002678,0.000431,0.001763
120503000,0.0324,0.013523,0.002678,0.000431,0.001645
120504000,0.0324,0.013523,0.002678,0.000431,0.001645
120505000,0.0324,0.013523,0.002678,0.000431,0.001645
120506000,0.0324,0.013523,0.002678,0.000431,0.001645
120507000,0.0324,0.013523,0.002678,0.000431,0.001645
120508000,0.0324,0.013523,0.002678,0.000431,0.001645
120509000,0.0324,0.013523,0.002678,0.000431,0.003291
120510000,0.0324,0.013523,0.002678,0.000431,0.000940
120511000,0.0324,0.013523,0.002678,0.000431,0.000823
120512000,0.0324,0.013523,0.002678,0.000431,0.000823
120513000,0.0324,0.013523,0.002678,0.000431,0.000705
120514000,0.0324,0.013523,0.002678,0.000431,0.000940
120515000,0.0324,0.013523,0.002678,0.000431,0.000940
120516000,0.0324,0.013523,0.002678,0.000431,0.000705
120517000,0.0324,0.013523,0.002678,0.000431,0.000940
120518000,0.0324,0.013523,0.002678,0.000431,0.000705
120519000,0.0324,0.013523,0.002678,0.000431,0.000940
120520000,0.0324,0.013523,0.002678,0.000431,0.000823
120521000,0.0324,0.013523,0.002678,0.000431,0.000823
120522000,0.0324,0.013523,0.002678,0.000431,0.000940
120523000,0.0324,0.013523,0.002678,0.000431,0.000705
120524000,0.0324,0.013523,0.002678,0.000431,0.001645
120525000,0.0324,0.013523,0.002678,0.000431,0.317444
120526000,0.0324,0.013523,0.002678,0.000431,0.633947
120527000,0.0324,0.013523,0.002678,0.000431,0.180758
120528000,0.0324,0.013523,0.002678,0.000431,0.132102
120529000,0.0324,0.013523,0.002678,0.000431,0.133042
120530000,0.0324,0.013523,0.002678,0.000431,0.593517
120531000,0.0324,0.013523,0.002678,0.000431,0.223656
120532000,0.0324,0.013523,0.002678,0.000431,0.240110
120533000,0.0324,0.013523,0.002678,0.000431,0.301930
120534000,0.0324,0.013523,0.002678,0.000431,0.142444
120535000,0.0324,0.013523,0.002678,0.000431,0.143737
120536000,0.0324,0.013523,0.002678,0.000431,0.117646
120537000,0.0324,0.013523,0.002678,0.000431,0.304633
120538000,0.0324,0.013523,0.002678,0.000431,0.305926
120539000,0.0324,0.013523,0.002678,0.000431,0.042193
120540000,0.0324,0.013523,0.002678,0.000431,0.034906
120541000,0.0324,0.013523,0.002678,0.000431,0.027384
120542000,0.0324,0.013523,0.002678,0.000431,0.026796
120543000,0.0324,0.013523,0.002678,0.000431,0.016454
120544000,0.0324,0.013523,0.002678,0.000431,0.021273
120545000,0.0324,0.013523,0.002678,0.000431,0.008932
120546000,0.0324,0.013523,0.002678,0.000431,0.011753
120547000,0.0324,0.013523,0.002678,0.000431,0.007169
120548000,0.0324,0.013523,0.002678,0.000431,0.010813
120549000,0.0324,0.013523,0.002678,0.000431,0.002938
120550000,0.0324,0.013523,0.002678,0.000431,0.001528
120551000,0.0324,0.013523,0.002678,0.000431,0.001880
120552000,0.0324,0.013523,0.002678,0.000431,0.001763
120553000,0.0324,0.013523,0.002678,0.000431,0.001645
120554000,0.0324,0.013523,0.002678,0.000431,0.001763
120555000,0.0324,0.013523,0.002678,0.000431,0.001763
120556000,0.0324,0.013523,0.002678,0.000431,0.001528
120557000,0.0324,0.013523,0.002678,0.000431,0.001763
120558000,0.0324,0.013523,0.002678,0.000431,0.001645
120559000,0.0324,0.013523,0.002678,0.000431,0.001645
120560000,0.0324,0.013523,0.002678,0.000431,0.001880
120561000,0.0324,0.013523,0.002678,0.000431,0.001645
120562000,0.0324,0.013523,0.002678,0.000431,0.001763
120563000,0.0324,0.013523,0.002678,0.000431,0.016336
120564000,0.0324,0.013523,0.002678,0.000431,0.496674
120565000,0.0324,0.013523,0.002678,0.000431,0.588934
120566000,0.0324,0.013523,0.002678,0.000431,0.132572
120567000,0.0324,0.013523,0.002678,0.000431,0.132572
120568000,0.0324,0.013523,0.002678,0.000431,0.523235
120569000,0.0324,0.013523,0.002678,0.000431,0.370214
120570000,0.0324,0.013523,0.002678,0.000431,0.236702
120571000,0.0324,0.013523,0.002678,0.000431,0.290177
120572000,0.0324,0.013523,0.002678,0.000431,0.136920
120573000,0.0324,0.013523,0.002678,0.000431,0.154079
120574000,0.0324,0.013523,0.002678,0.000431,0.102955
120575000,0.0324,0.013523,0.002678,0.000431,0.418048
120576000,0.0324,0.013523,0.002678,0.000431,0.192511
120577000,0.0324,0.013523,0.002678,0.000431,0.071457
120578000,0.0324,0.013523,0.002678,0.000431,0.062407
120579000,0.0324,0.013523,0.002678,0.000431,0.046541
120580000,0.0324,0.013523,0.002678,0.000431,0.043015
120581000,0.0324,0.013523,0.002678,0.000431,0.040900
120582000,0.0324,0.013523,0.002678,0.000431,0.041723
120583000,0.0324,0.013523,0.002678,0.000431,0.031262
120584000,0.0324,0.013523,0.002678,0.000431,0.027502
120585000,0.0324,0.013523,0.002678,0.000431,0.021625
120586000,0.0324,0.013523,0.002678,0.000431,0.020567
120587000,0.0324,0.013523,0.002678,0.000431,0.021978
120588000,0.0324,0.013523,0.002678,0.000431,0.018334
120589000,0.0324,0.013523,0.002678,0.000431,0.018452
120590000,0.0324,0.013523,0.002678,0.000431,0.018334
120591000,0.0324,0.013523,0.002678,0.000431,0.016454
120592000,0.0324,0.013523,0.002678,0.000431,0.014926
120593000,0.0324,0.013523,0.002678,0.000431,0.015866
120594000,0.0324,0.013523,0.002678,0.000431,0.013751
120595000,0.0324,0.013523,0.002678,0.000431,0.016336
120596000,0.0324,0.013523,0.002678,0.000431,0.010460
120597000,0.0324,0.013523,0.002678,0.000431,0.013633
120598000,0.0324,0.013523,0.002678,0.000431,0.010460
120599000,0.0324,0.013523,0.002678,0.000431,0.009755
120600000,0.0324,0.013523,0.002678,0.000431,0.009990
120601000,0.0324,0.013523,0.002678,0.000431,0.010107
120602000,0.0324,0.013523,0.002678,0.000431,0.010225
120603000,0.0324,0.013523,0.002678,0.000431,0.010225
120604000,0.0324,0.013523,0.002678,0.000431,0.014103
120605000,0.0324,0.013523,0.002678,0.000431,0.009285
120606000,0.0324,0.013523,0.002678,0.000431,0.008345
120607000,0.0324,0.013523,0.002678,0.000431,0.006229
120608000,0.0324,0.013523,0.002678,0.000431,0.006582
120609000,0.0324,0.013523,0.002678,0.000431,0.007992
120610000,0.0324,0.013523,0.002678,0.000431,0.006229
120611000,0.0324,0.013523,0.002678,0.000431,0.007052
120612000,0.0324,0.013523,0.002678,0.000431,0.004819
120613000,0.0324,0.013523,0.002678,0.000431,0.004349
120614000,0.0324,0.013523,0.002678,0.000431,0.004113
120615000,0.0324,0.013523,0.002678,0.000431,0.003643
120616000,0.0324,0.013523,0.002678,0.000431,0.004349
120617000,0.0324,0.013523,0.002678,0.000431,0.004349
120618000,0.0324,0.013523,0.002678,0.000431,0.003996
120619000,0.0324,0.013523,0.002678,0.000431,0.003761
120620000,0.0324,0.013523,0.002678,0.000431,0.004349
120621000,0.0324,0.013523,0.002678,0.000431,0.004231
120622000,0.0324,0.013523,0.002678,0.000431,0.004113
120623000,0.0324,0.013523,0.002678,0.000431,0.004113
120624000,0.0324,0.013523,0.002678,0.000431,0.004113
120625000,0.0324,0.013523,0.002678,0.000431,0.005171
120626000,0.0324,0.013523,0.002678,0.000431,0.004701
120627000,0.0324,0.013523,0.002678,0.000431,0.003291
120628000,0.0324,0.013523,0.002678,0.000431,0.003408
120629000,0.0324,0.013523,0.002678,0.000431,0.003056
120630000,0.0324,0.013523,0.002678,0.000431,0.003291
120631000,0.0324,0.013523,0.002678,0.000431,0.003173
120632000,0.0324,0.013523,0.002678,0.000431,0.003408
120633000,0.0324,0.013523,0.002678,0.000431,0.004231
120634000,0.0324,0.013523,0.002678,0.000431,0.002586
120635000,0.0324,0.013523,0.002678,0.000431,0.002821
120636000,0.0324,0.013523,0.002678,0.000431,0.001998
120637000,0.0324,0.013523,0.002678,0.000431,0.002468
120638000,0.0324,0.013523,0.002678,0.000431,0.002351
120639000,0.0324,0.013523,0.002678,0.000431,0.002821
120640000,0.0324,0.013523,0.002678,0.000431,0.001998
120641000,0.0324,0.013523,0.002678,0.000431,0.002468
120642000,0.0324,0.013523,0.002678,0.000431,0.002351
120643000,0.0324,0.013523,0.002678,0.000431,0.002586
120644000,0.0324,0.013523,0.002678,0.000431,0.002116
120645000,0.0324,0.013523,0.002678,0.000431,0.002586
120646000,0.0324,0.013523,0.002678,0.000431,0.002821
120647000,0.0324,0.013523,0.002678,0.000431,0.001998
120648000,0.0324,0.013523,0.002678,0.000431,0.002468
120649000,0.0324,0.013523,0.002678,0.000431,0.002351
120650000,0.0324,0.013523,0.002678,0.000431,0.002821
120651000,0.0324,0.013523,0.002678,0.000431,0.002116
120652000,0.0324,0.013523,0.002678,0.000431,0.002351
120653000,0.0324,0.013523,0.002678,0.000431,0.002821
120654000,0.0324,0.013523,0.002678,0.000431,0.150083
120655000,0.0324,0.013523,0.002678,0.000431,0.497144
120656000,0.0324,0.013523,0.002678,0.000431,0.533108
120657000,0.0324,0.013523,0.002678,0.000431,0.134100
120658000,0.0324,0.013523,0.002678,0.000431,0.132454
120659000,0.0324,0.013523,0.002678,0.000431,0.581412
120660000,0.0324,0.013523,0.002678,0.000431,0.277249
120661000,0.0324,0.013523,0.002678,0.000431,0.232471
120662000,0.0324,0.013523,0.002678,0.000431,0.281362
120663000,0.0324,0.013523,0.002678,0.000431,0.139388
120664000,0.0324,0.013523,0.002678,0.000431,0.159721
120665000,0.0324,0.013523,0.002678,0.000431,0.100369
120666000,0.0324,0.013523,0.002678,0.000431,0.458477
120667000,0.0324,0.013523,0.002678,0.000431,0.181228
120668000,0.0324,0.013523,0.002678,0.000431,0.092730
120669000,0.0324,0.013523,0.002678,0.000431,0.085443
120670000,0.0324,0.013523,0.002678,0.000431,0.061937
120671000,0.0324,0.013523,0.002678,0.000431,0.060057
120672000,0.0324,0.013523,0.002678,0.000431,0.045601
120673000,0.0324,0.013523,0.002678,0.000431,0.044191
120674000,0.0324,0.013523,0.002678,0.000431,0.039725
120675000,0.0324,0.013523,0.002678,0.000431,0.036669
120676000,0.0324,0.013523,0.002678,0.000431,0.037609
120677000,0.0324,0.013523,0.002678,0.000431,0.033025
120678000,0.0324,0.013523,0.002678,0.000431,0.028794
120679000,0.0324,0.013523,0.002678,0.000431,0.028912
120680000,0.0324,0.013523,0.002678,0.000431,0.028207
120681000,0.0324,0.013523,0.002678,0.000431,0.026091
120682000,0.0324,0.013523,0.002678,0.000431,0.025151
120683000,0.0324,0.013523,0.002678,0.000431,0.020215
120684000,0.0324,0.013523,0.002678,0.000431,0.020920
120685000,0.0324,0.013523,0.002678,0.000431,0.019392
120686000,0.0324,0.013523,0.002678,0.000431,0.021155
120687000,0.0324,0.013523,0.002678,0.000431,0.018569
120688000,0.0324,0.013523,0.002678,0.000431,0.015514
120689000,0.0324,0.013523,0.002678,0.000431,0.012223
120690000,0.0324,0.013523,0.002678,0.000431,0.014691
120691000,0.0324,0.013523,0.002678,0.000431,0.011400
120692000,0.0324,0.013523,0.002678,0.000431,0.011753
120693000,0.0324,0.013523,0.002678,0.000431,0.013163
120694000,0.0324,0.013523,0.002678,0.000431,0.015044
120695000,0.0324,0.013523,0.002678,0.000431,0.010460
120696000,0.0324,0.013523,0.002678,0.000431,0.009050
120697000,0.0324,0.013523,0.002678,0.000431,0.005876
120698000,0.0324,0.013523,0.002678,0.000431,0.005289
120699000,0.0324,0.013523,0.002678,0.000431,0.005171
120700000,0.0324,0.013523,0.002678,0.000431,0.004701
120701000,0.0324,0.013523,0.002678,0.000431,0.005171
120702000,0.0324,0.013523,0.002678,0.000431,0.004819
120703000,0.0324,0.013523,0.002678,0.000431,0.005171
120704000,0.0324,0.013523,0.002678,0.000431,0.004819
120705000,0.0324,0.013523,0.002678,0.000431,0.005054
120706000,0.0324,0.013523,0.002678,0.000431,0.005406
120707000,0.0324,0.013523,0.002678,0.000431,0.004584
120708000,0.0324,0.013523,0.002678,0.000431,0.005171
120709000,0.0324,0.013523,0.002678,0.000431,0.005171
120710000,0.0324,0.013523,0.002678,0.000431,0.004701
120711000,0.0324,0.013523,0.002678,0.000431,0.005289
120712000,0.0324,0.013523,0.002678,0.000431,0.004701
120713000,0.0324,0.013523,0.002678,0.000431,0.007992
120714000,0.0324,0.013523,0.002678,0.000431,0.003173
120715000,0.0324,0.013523,0.002678,0.000431,0.003526
120716000,0.0324,0.013523,0.002678,0.000431,0.003526
120717000,0.0324,0.013523,0.002678,0.000431,0.003526
120718000,0.0324,0.013523,0.002678,0.000431,0.003408
120719000,0.0324,0.013523,0.002678,0.000431,0.003173
120720000,0.0324,0.013523,0.002678,0.000431,0.003643
120721000,0.0324,0.013523,0.002678,0.000431,0.003526
120722000,0.0324,0.013523,0.002678,0.000431,0.003291
120723000,0.0324,0.013523,0.002678,0.000431,0.003291
120724000,0.0324,0.013523,0.002678,0.000431,0.003291
120725000,0.0324,0.013523,0.002678,0.000431,0.003291
120726000,0.0324,0.013523,0.002678,0.000431,0.003643
120727000,0.0324,0.013523,0.002678,0.000431,0.008932
120728000,0.0324,0.013523,0.002678,0.000431,0.001880
120729000,0.0324,0.013523,0.002678,0.000431,0.003526
120730000,0.0324,0.013523,0.002678,0.000431,0.001058
120731000,0.0324,0.013523,0.002678,0.000431,0.000940
120732000,0.0324,0.013523,0.002678,0.000431,0.000705
120733000,0.0324,0.013523,0.002678,0.000431,0.000940
120734000,0.0324,0.013523,0.002678,0.000431,0.000705
120735000,0.0324,0.013523,0.002678,0.000431,0.000940
120736000,0.0324,0.013523,0.002678,0.000431,0.000940
120737000,0.0324,0.013523,0.002678,0.000431,0.000705
120738000,0.0324,0.013523,0.002678,0.000431,0.000940
120739000,0.0324,0.013523,0.002678,0.000431,0.000705
120740000,0.0324,0.013523,0.002678,0.000431,0.000940
120741000,0.0324,0.013523,0.002678,0.000431,0.000823
120742000,0.0324,0.013523,0.002678,0.000431,0.000823
120743000,0.0324,0.013523,0.002678,0.000431,0.000823
120744000,0.0324,0.013523,0.002678,0.000431,0.000823
120745000,0.0324,0.013523,0.002678,0.000431,0.000940
120746000,0.0324,0.013523,0.002678,0.000431,0.000705
120747000,0.0324,0.013523,0.002678,0.000431,0.000940
120748000,0.0324,0.013523,0.002678,0.000431,0.000823
120749000,0.0324,0.013523,0.002678,0.000431,0.000823
120750000,0.0324,0.013523,0.002678,0.000431,0.000823
120751000,0.0324,0.013523,0.002678,0.000431,0.000823
120752000,0.0324,0.013523,0.002678,0.000431,0.000823
120753000,0.0324,0.013523,0.002678,0.000431,0.000823
120754000,0.0324,0.013523,0.002678,0.000431,0.000940
120755000,0.0324,0.013523,0.002678,0.000431,0.000705
120756000,0.0324,0.013523,0.002678,0.000431,0.000940
120757000,0.0324,0.013523,0.002678,0.000431,0.000705
120758000,0.0324,0.013523,0.002678,0.000431,0.000940
120759000,0.0324,0.013523,0.002678,0.000431,0.000940
120760000,0.0324,0.013523,0.002678,0.000431,0.000705
120761000,0.0324,0.013523,0.002678,0.000431,0.000940
120762000,0.0324,0.013523,0.002678,0.000431,0.000705
120763000,0.0324,0.013523,0.002678,0.000431,0.000940
120764000,0.0324,0.013523,0.002678,0.000431,0.000823
120765000,0.0324,0.013523,0.002678,0.000431,0.000823
120766000,0.0324,0.013523,0.002678,0.000431,0.000823
120767000,0.0324,0.013523,0.002678,0.000431,0.000823
120768000,0.0324,0.013523,0.002678,0.000431,0.000823
120769000,0.0324,0.013523,0.002678,0.000431,0.000823
120770000,0.0324,0.013523,0.002678,0.000431,0.000940
120771000,0.0324,0.013523,0.002678,0.000431,0.000705
120772000,0.0324,0.013523,0.002678,0.000431,0.000705
120773000,0.0324,0.013523,0.002678,0.000431,0.000940
120774000,0.0324,0.013523,0.002678,0.000431,0.000823
120775000,0.0324,0.013523,0.002678,0.000431,0.000823
120776000,0.0324,0.013523,0.002678,0.000431,0.000823
120777000,0.0324,0.013523,0.002678,0.000431,0.000823
120778000,0.0324,0.013523,0.002678,0.000431,0.000940
120779000,0.0324,0.013523,0.002678,0.000431,0.000823
120780000,0.0324,0.013523,0.002678,0.000431,0.000823
120781000,0.0324,0.013523,0.002678,0.000431,0.000705
120782000,0.0324,0.013523,0.002678,0.000431,0.000940
120783000,0.0324,0.013523,0.002678,0.000431,0.000940
120784000,0.0324,0.013523,0.002678,0.000431,0.000705
120785000,0.0324,0.013523,0.002678,0.000431,0.000940
120786000,0.0324,0.013523,0.002678,0.000431,0.000705
120787000,0.0324,0.013523,0.002678,0.000431,0.000940
120788000,0.0324,0.013523,0.002678,0.000431,0.000823
120789000,0.0324,0.013523,0.002678,0.000431,0.000823
120790000,0.0324,0.013523,0.002678,0.000431,0.000940
120791000,0.0324,0.013523,0.002678,0.000431,0.000705
120792000,0.0324,0.013523,0.002678,0.000431,0.000940
120793000,0.0324,0.013523,0.002678,0.000431,0.000823
120794000,0.0324,0.013523,0.002678,0.000431,0.000823
120795000,0.0324,0.013523,0.002678,0.000431,0.000823
120796000,0.0324,0.013523,0.002678,0.000431,0.000823
120797000,0.0324,0.013523,0.002678,0.000431,0.000940
120798000,0.0324,0.013523,0.002678,0.000431,0.000705
120799000,0.0324,0.013523,0.002678,0.000431,0.000940
120800000,0.0324,0.013523,0.002678,0.000431,0.000823
120801000,0.0324,0.013523,0.002678,0.000431,0.000823
120802000,0.0324,0.013523,0.002678,0.000431,0.000823
120803000,0.0324,0.013523,0.002678,0.000431,0.000823
120804000,0.0324,0.013523,0.002678,0.000431,0.000705
120805000,0.0324,0.013523,0.002678,0.000431,0.000940
120806000,0.0324,0.013523,0.002678,0.000431,0.000940
120807000,0.0324,0.013523,0.002678,0.000431,0.000705
120808000,0.0324,0.013523,0.002678,0.000431,0.000940
120809000,0.0324,0.013523,0.002678,0.000431,0.000705
120810000,0.0324,0.013523,0.002678,0.000431,0.000940
120811000,0.0324,0.013523,0.002678,0.000431,0.000940
120812000,0.0324,0.013523,0.002678,0.000431,0.000705
120813000,0.0324,0.013523,0.002678,0.000431,0.000940
120814000,0.0324,0.013523,0.002678,0.000431,0.000705
120815000,0.0324,0.013523,0.002678,0.000431,0.000940
120816000,0.0324,0.013523,0.002678,0.000431,0.000823
120817000,0.0324,0.013523,0.002678,0.000431,0.000823
120818000,0.0324,0.013523,0.002678,0.000431,0.000823
120819000,0.0324,0.013523,0.002678,0.000431,0.000823
120820000,0.0324,0.013523,0.002678,0.000431,0.000940
120821000,0.0324,0.013523,0.002678,0.000431,0.000705
120822000,0.0324,0.013523,0.002678,0.000431,0.000940
120823000,0.0324,0.013523,0.002678,0.000431,0.000823
120824000,0.0324,0.013523,0.002678,0.000431,0.000705
120825000,0.0324,0.013523,0.002678,0.000431,0.000940
120826000,0.0324,0.013523,0.002678,0.000431,0.000823
120827000,0.0324,0.013523,0.002678,0.000431,0.000823
120828000,0.0324,0.013523,0.002678,0.000431,0.000823
120829000,0.0324,0.013523,0.002678,0.000431,0.000823
120830000,0.0324,0.013523,0.002678,0.000431,0.000823
120831000,0.0324,0.013523,0.002678,0.000431,0.000940
120832000,0.0324,0.013523,0.002678,0.000431,0.000823
120833000,0.0324,0.013523,0.002678,0.000431,0.000823
120834000,0.0324,0.013523,0.002678,0.000431,0.000705
120835000,0.0324,0.013523,0.002678,0.000431,0.000940
120836000,0.0324,0.013523,0.002678,0.000431,0.000940
120837000,0.0324,0.013523,0.002678,0.000431,0.000705
120838000,0.0324,0.013523,0.002678,0.000431,0.000940
120839000,0.0324,0.013523,0.002678,0.000431,0.000705
120840000,0.0324,0.013523,0.002678,0.000431,0.000940
120841000,0.0324,0.013523,0.002678,0.000431,0.000940
120842000,0.0324,0.013523,0.002678,0.000431,0.000705
120843000,0.0324,0.013523,0.002678,0.000431,0.000940
120844000,0.0324,0.013523,0.002678,0.000431,0.000705
120845000,0.0324,0.013523,0.002678,0.000431,0.000940
120846000,0.0324,0.013523,0.002678,0.000431,0.000823
120847000,0.0324,0.013523,0.002678,0.000431,0.000823
120848000,0.0324,0.013523,0.002678,0.000431,0.000823
120849000,0.0324,0.013523,0.002678,0.000431,0.000823
120850000,0.0324,0.013523,0.002678,0.000431,0.000940
120851000,0.0324,0.013523,0.002678,0.000431,0.000705
120852000,0.0324,0.013523,0.002678,0.000431,0.000940
120853000,0.0324,0.013523,0.002678,0.000431,0.000823
120854000,0.0324,0.013523,0.002678,0.000431,0.000823
120855000,0.0324,0.013523,0.002678,0.000431,0.000823
120856000,0.0324,0.013523,0.002678,0.000431,0.000823
120857000,0.0324,0.013523,0.002678,0.000431,0.000823
120858000,0.0324,0.013523,0.002678,0.000431,0.000823
120859000,0.0324,0.013523,0.002678,0.000431,0.000940
120860000,0.0324,0.013523,0.002678,0.000431,0.000823
120861000,0.0324,0.013523,0.002678,0.000431,0.000823
120862000,0.0324,0.013523,0.002678,0.000431,0.000705
120863000,0.0324,0.013523,0.002678,0.000431,0.000940
120864000,0.0324,0.013523,0.002678,0.000431,0.000940
120865000,0.0324,0.013523,0.002678,0.000431,0.000705
120866000,0.0324,0.013523,0.002678,0.000431,0.000940
120867000,0.0324,0.013523,0.002678,0.000431,0.000705
120868000,0.0324,0.013523,0.002678,0.000431,0.000940
120869000,0.0324,0.013523,0.002678,0.000431,0.000823
120870000,0.0324,0.013523,0.002678,0.000431,0.000823
120871000,0.0324,0.013523,0.002678,0.000431,0.000823
120872000,0.0324,0.013523,0.002678,0.000431,0.000823
120873000,0.0324,0.013523,0.002678,0.000431,0.000940
120874000,0.0324,0.013523,0.002678,0.000431,0.000823
120875000,0.0324,0.013523,0.002678,0.000431,0.000823
120876000,0.0324,0.013523,0.002678,0.000431,0.000823
120877000,0.0324,0.013523,0.002678,0.000431,0.000823
120878000,0.0324,0.013523,0.002678,0.000431,0.000823
120879000,0.0324,0.013523,0.002678,0.000431,0.000823
120880000,0.0324,0.013523,0.002678,0.000431,0.000940
120881000,0.0324,0.013523,0.002678,0.000431,0.000705
120882000,0.0324,0.013523,0.002678,0.000431,0.000823
120883000,0.0324,0.013523,0.002678,0.000431,0.000940
120884000,0.0324,0.013523,0.002678,0.000431,0.000823
120885000,0.0324,0.013523,0.002678,0.000431,0.000823
120886000,0.0324,0.013523,0.002678,0.000431,0.000823
120887000,0.0324,0.013523,0.002678,0.000431,0.000823
120888000,0.0324,0.013523,0.002678,0.000431,0.000823
120889000,0.0324,0.013523,0.002678,0.000431,0.000940
120890000,0.0324,0.013523,0.002678,0.000431,0.000823
120891000,0.0324,0.013523,0.002678,0.000431,0.000823
120892000,0.0324,0.013523,0.002678,0.000431,0.000705
120893000,0.0324,0.013523,0.002678,0.000431,0.000940
120894000,0.0324,0.013523,0.002678,0.000431,0.000940
120895000,0.0324,0.013523,0.002678,0.000431,0.000705
120896000,0.0324,0.013523,0.002678,0.000431,0.000940
120897000,0.0324,0.013523,0.002678,0.000431,0.000705
120898000,0.0324,0.013523,0.002678,0.000431,0.000940
120899000,0.0324,0.013523,0.002678,0.000431,0.000823
120900000,0.0324,0.013523,0.002678,0.000431,0.000823
120901000,0.0324,0.013523,0.002678,0.000431,0.000823
120902000,0.0324,0.013523,0.002678,0.000431,0.000823
120903000,0.0324,0.013523,0.002678,0.000431,0.000940
120904000,0.0324,0.013523,0.002678,0.000431,0.000823
120905000,0.0324,0.013523,0.002678,0.000431,0.000823
120906000,0.0324,0.013523,0.002678,0.000431,0.000823
120907000,0.0324,0.013523,0.002678,0.000431,0.000823
120908000,0.0324,0.013523,0.002678,0.000431,0.000823
120909000,0.0324,0.013523,0.002678,0.000431,0.000823
120910000,0.0324,0.013523,0.002678,0.000431,0.000823
120911000,0.0324,0.013523,0.002678,0.000431,0.000823
120912000,0.0324,0.013523,0.002678,0.000431,0.000705
120913000,0.0324,0.013523,0.002678,0.000431,0.000940
120914000,0.0324,0.013523,0.002678,0.000431,0.000823
120915000,0.0324,0.013523,0.002678,0.000431,0.000823
120916000,0.0324,0.013523,0.002678,0.000431,0.000823
120917000,0.0324,0.013523,0.002678,0.000431,0.000823
120918000,0.0324,0.013523,0.002678,0.000431,0.000940
120919000,0.0324,0.013523,0.002678,0.000431,0.000705
120920000,0.0324,0.013523,0.002678,0.000431,0.000940
120921000,0.0324,0.013523,0.002678,0.000431,0.000823
120922000,0.0324,0.013523,0.002678,0.000431,0.015749
120923000,0.0324,0.013523,0.002678,0.000431,0.546976
120924000,0.0324,0.013523,0.002678,0.000431,0.596103
120925000,0.0324,0.013523,0.002678,0.000431,0.137626
120926000,0.0324,0.013523,0.002678,0.000431,0.132102
120927000,0.0324,0.013523,0.002678,0.000431,0.402299
120928000,0.0324,0.013523,0.002678,0.000431,0.386785
120929000,0.0324,0.013523,0.002678,0.000431,0.255389
120930000,0.0324,0.013523,0.002678,0.000431,0.321675
120931000,0.0324,0.013523,0.002678,0.000431,0.167830
120932000,0.0324,0.013523,0.002678,0.000431,0.145265
120933000,0.0324,0.013523,0.002678,0.000431,0.116705
120934000,0.0324,0.013523,0.002678,0.000431,0.310627
120935000,0.0324,0.013523,0.002678,0.000431,0.330137
120936000,0.0324,0.013523,0.002678,0.000431,0.104718
120937000,0.0324,0.013523,0.002678,0.000431,0.088616
120938000,0.0324,0.013523,0.002678,0.000431,0.083327
120939000,0.0324,0.013523,0.002678,0.000431,0.074043
120940000,0.0324,0.013523,0.002678,0.000431,0.059234
120941000,0.0324,0.013523,0.002678,0.000431,0.050890
120942000,0.0324,0.013523,0.002678,0.000431,0.050537
120943000,0.0324,0.013523,0.002678,0.000431,0.043250
120944000,0.0324,0.013523,0.002678,0.000431,0.036551
120945000,0.0324,0.013523,0.002678,0.000431,0.029029
120946000,0.0324,0.013523,0.002678,0.000431,0.024328
120947000,0.0324,0.013523,0.002678,0.000431,0.024563
120948000,0.0324,0.013523,0.002678,0.000431,0.025621
120949000,0.0324,0.013523,0.002678,0.000431,0.016924
120950000,0.0324,0.013523,0.002678,0.000431,0.015044
120951000,0.0324,0.013523,0.002678,0.000431,0.015749
120952000,0.0324,0.013523,0.002678,0.000431,0.016689
120953000,0.0324,0.013523,0.002678,0.000431,0.015396
120954000,0.0324,0.013523,0.002678,0.000431,0.019040
120955000,0.0324,0.013523,0.002678,0.000431,0.016454
120956000,0.0324,0.013523,0.002678,0.000431,0.015044
120957000,0.0324,0.013523,0.002678,0.000431,0.011048
120958000,0.0324,0.013523,0.002678,0.000431,0.010225
120959000,0.0324,0.013523,0.002678,0.000431,0.011165
120960000,0.0324,0.013523,0.002678,0.000431,0.010460
120961000,0.0324,0.013523,0.002678,0.000431,0.013163
120962000,0.0324,0.013523,0.002678,0.000431,0.011048
120963000,0.0324,0.013523,0.002678,0.000431,0.009285
120964000,0.0324,0.013523,0.002678,0.000431,0.009402
120965000,0.0324,0.013523,0.002678,0.000431,0.008697
120966000,0.0324,0.013523,0.002678,0.000431,0.007874
120967000,0.0324,0.013523,0.002678,0.000431,0.006699
120968000,0.0324,0.013523,0.002678,0.000431,0.010460
120969000,0.0324,0.013523,0.002678,0.000431,0.003526
120970000,0.0324,0.013523,0.002678,0.000431,0.003408
120971000,0.0324,0.013523,0.002678,0.000431,0.003173
120972000,0.0324,0.013523,0.002678,0.000431,0.003643
120973000,0.0324,0.013523,0.002678,0.000431,0.003526
120974000,0.0324,0.013523,0.002678,0.000431,0.002938
120975000,0.0324,0.013523,0.002678,0.000431,0.003878
120976000,0.0324,0.013523,0.002678,0.000431,0.003291
120977000,0.0324,0.013523,0.002678,0.000431,0.003173
120978000,0.0324,0.013523,0.002678,0.000431,0.003408
120979000,0.0324,0.013523,0.002678,0.000431,0.002586
120980000,0.0324,0.013523,0.002678,0.000431,0.002938
120981000,0.0324,0.013523,0.002678,0.000431,0.002468
120982000,0.0324,0.013523,0.002678,0.000431,0.002821
120983000,0.0324,0.013523,0.002678,0.000431,0.002586
120984000,0.0324,0.013523,0.002678,0.000431,0.002703
120985000,0.0324,0.013523,0.002678,0.000431,0.002938
120986000,0.0324,0.013523,0.002678,0.000431,0.002468
120987000,0.0324,0.013523,0.002678,0.000431,0.002821
120988000,0.0324,0.013523,0.002678,0.000431,0.002821
120989000,0.0324,0.013523,0.002678,0.000431,0.002586
120990000,0.0324,0.013523,0.002678,0.000431,0.002703
120991000,0.0324,0.013523,0.002678,0.000431,0.002703
120992000,0.0324,0.013523,0.002678,0.000431,0.002821
120993000,0.0324,0.013523,0.002678,0.000431,0.002703
120994000,0.0324,0.013523,0.002678,0.000431,0.002586
120995000,0.0324,0.013523,0.002678,0.000431,0.002821
120996000,0.0324,0.013523,0.002678,0.000431,0.002821
120997000,0.0324,0.013523,0.002678,0.000431,0.002468
120998000,0.0324,0.013523,0.002678,0.000431,0.003056
120999000,0.0324,0.013523,0.002678,0.000431,0.002351
