Cycle,Area(mm^2),PeakDynamic(W),SubthresholdLeakage(W),GateLeakage(W),RunTimeDynamic(W)
71000000,0.0324,0.013523,0.002678,0.000431,0.011988
71001000,0.0324,0.013523,0.002678,0.000431,0.009990
71002000,0.0324,0.013523,0.002678,0.000431,0.011048
71003000,0.0324,0.013523,0.002678,0.000431,0.010107
71004000,0.0324,0.013523,0.002678,0.000431,0.011635
71005000,0.0324,0.013523,0.002678,0.000431,0.010578
71006000,0.0324,0.013523,0.002678,0.000431,0.009872
71007000,0.0324,0.013523,0.002678,0.000431,0.008932
71008000,0.0324,0.013523,0.002678,0.000431,0.008345
71009000,0.0324,0.013523,0.002678,0.000431,0.008109
71010000,0.0324,0.013523,0.002678,0.000431,0.007169
71011000,0.0324,0.013523,0.002678,0.000431,0.007639
71012000,0.0324,0.013523,0.002678,0.000431,0.007757
71013000,0.0324,0.013523,0.002678,0.000431,0.007874
71014000,0.0324,0.013523,0.002678,0.000431,0.008109
71015000,0.0324,0.013523,0.002678,0.000431,0.007757
71016000,0.0324,0.013523,0.002678,0.000431,0.008580
71017000,0.0324,0.013523,0.002678,0.000431,0.007522
71018000,0.0324,0.013523,0.002678,0.000431,0.008580
71019000,0.0324,0.013523,0.002678,0.000431,0.007522
71020000,0.0324,0.013523,0.002678,0.000431,0.008462
71021000,0.0324,0.013523,0.002678,0.000431,0.007874
71022000,0.0324,0.013523,0.002678,0.000431,0.007522
71023000,0.0324,0.013523,0.002678,0.000431,0.009402
71024000,0.0324,0.013523,0.002678,0.000431,0.005289
71025000,0.0324,0.013523,0.002678,0.000431,0.006111
71026000,0.0324,0.013523,0.002678,0.000431,0.005406
71027000,0.0324,0.013523,0.002678,0.000431,0.007874
71028000,0.0324,0.013523,0.002678,0.000431,0.005289
71029000,0.0324,0.013523,0.002678,0.000431,0.004231
71030000,0.0324,0.013523,0.002678,0.000431,0.004466
71031000,0.0324,0.013523,0.002678,0.000431,0.004113
71032000,0.0324,0.013523,0.002678,0.000431,0.004349
71033000,0.0324,0.013523,0.002678,0.000431,0.003996
71034000,0.0324,0.013523,0.002678,0.000431,0.004349
71035000,0.0324,0.013523,0.002678,0.000431,0.004231
71036000,0.0324,0.013523,0.002678,0.000431,0.003996
71037000,0.0324,0.013523,0.002678,0.000431,0.004466
71038000,0.0324,0.013523,0.002678,0.000431,0.004231
71039000,0.0324,0.013523,0.002678,0.000431,0.004349
71040000,0.0324,0.013523,0.002678,0.000431,0.003996
71041000,0.0324,0.013523,0.002678,0.000431,0.004231
71042000,0.0324,0.013523,0.002678,0.000431,0.003996
71043000,0.0324,0.013523,0.002678,0.000431,0.004584
71044000,0.0324,0.013523,0.002678,0.000431,0.004349
71045000,0.0324,0.013523,0.002678,0.000431,0.003878
71046000,0.0324,0.013523,0.002678,0.000431,0.004466
71047000,0.0324,0.013523,0.002678,0.000431,0.004113
71048000,0.0324,0.013523,0.002678,0.000431,0.006347
71049000,0.0324,0.013523,0.002678,0.000431,0.003408
71050000,0.0324,0.013523,0.002678,0.000431,0.003408
71051000,0.0324,0.013523,0.002678,0.000431,0.003408
71052000,0.0324,0.013523,0.002678,0.000431,0.003173
71053000,0.0324,0.013523,0.002678,0.000431,0.003643
71054000,0.0324,0.013523,0.002678,0.000431,0.003526
71055000,0.0324,0.013523,0.002678,0.000431,0.004819
71056000,0.0324,0.013523,0.002678,0.000431,0.002586
71057000,0.0324,0.013523,0.002678,0.000431,0.004936
71058000,0.0324,0.013523,0.002678,0.000431,0.001880
71059000,0.0324,0.013523,0.002678,0.000431,0.001410
71060000,0.0324,0.013523,0.002678,0.000431,0.001880
71061000,0.0324,0.013523,0.002678,0.000431,0.001763
71062000,0.0324,0.013523,0.002678,0.000431,0.004466
71063000,0.0324,0.013523,0.002678,0.000431,0.000823
71064000,0.0324,0.013523,0.002678,0.000431,0.000823
71065000,0.0324,0.013523,0.002678,0.000431,0.000940
71066000,0.0324,0.013523,0.002678,0.000431,0.000705
71067000,0.0324,0.013523,0.002678,0.000431,0.000940
71068000,0.0324,0.013523,0.002678,0.000431,0.000823
71069000,0.0324,0.013523,0.002678,0.000431,0.000823
71070000,0.0324,0.013523,0.002678,0.000431,0.000705
71071000,0.0324,0.013523,0.002678,0.000431,0.000940
71072000,0.0324,0.013523,0.002678,0.000431,0.000940
71073000,0.0324,0.013523,0.002678,0.000431,0.000705
71074000,0.0324,0.013523,0.002678,0.000431,0.000940
71075000,0.0324,0.013523,0.002678,0.000431,0.000705
71076000,0.0324,0.013523,0.002678,0.000431,0.000940
71077000,0.0324,0.013523,0.002678,0.000431,0.000940
71078000,0.0324,0.013523,0.002678,0.000431,0.000705
71079000,0.0324,0.013523,0.002678,0.000431,0.000940
71080000,0.0324,0.013523,0.002678,0.000431,0.000705
71081000,0.0324,0.013523,0.002678,0.000431,0.000940
71082000,0.0324,0.013523,0.002678,0.000431,0.000823
71083000,0.0324,0.013523,0.002678,0.000431,0.000823
71084000,0.0324,0.013523,0.002678,0.000431,0.000823
71085000,0.0324,0.013523,0.002678,0.000431,0.000823
71086000,0.0324,0.013523,0.002678,0.000431,0.000940
71087000,0.0324,0.013523,0.002678,0.000431,0.000823
71088000,0.0324,0.013523,0.002678,0.000431,0.000823
71089000,0.0324,0.013523,0.002678,0.000431,0.000823
71090000,0.0324,0.013523,0.002678,0.000431,0.000823
71091000,0.0324,0.013523,0.002678,0.000431,0.000823
71092000,0.0324,0.013523,0.002678,0.000431,0.000823
71093000,0.0324,0.013523,0.002678,0.000431,0.000940
71094000,0.0324,0.013523,0.002678,0.000431,0.000705
71095000,0.0324,0.013523,0.002678,0.000431,0.000823
71096000,0.0324,0.013523,0.002678,0.000431,0.000940
71097000,0.0324,0.013523,0.002678,0.000431,0.000823
71098000,0.0324,0.013523,0.002678,0.000431,0.000823
71099000,0.0324,0.013523,0.002678,0.000431,0.000823
71100000,0.0324,0.013523,0.002678,0.000431,0.000823
71101000,0.0324,0.013523,0.002678,0.000431,0.000823
71102000,0.0324,0.013523,0.002678,0.000431,0.000940
71103000,0.0324,0.013523,0.002678,0.000431,0.000823
71104000,0.0324,0.013523,0.002678,0.000431,0.000823
71105000,0.0324,0.013523,0.002678,0.000431,0.000823
71106000,0.0324,0.013523,0.002678,0.000431,0.000823
71107000,0.0324,0.013523,0.002678,0.000431,0.000823
71108000,0.0324,0.013523,0.002678,0.000431,0.000823
71109000,0.0324,0.013523,0.002678,0.000431,0.000940
71110000,0.0324,0.013523,0.002678,0.000431,0.000705
71111000,0.0324,0.013523,0.002678,0.000431,0.000940
71112000,0.0324,0.013523,0.002678,0.000431,0.000823
71113000,0.0324,0.013523,0.002678,0.000431,0.000823
71114000,0.0324,0.013523,0.002678,0.000431,0.000705
71115000,0.0324,0.013523,0.002678,0.000431,0.013751
71116000,0.0324,0.013523,0.002678,0.000431,0.486332
71117000,0.0324,0.013523,0.002678,0.000431,0.588464
71118000,0.0324,0.013523,0.002678,0.000431,0.133982
71119000,0.0324,0.013523,0.002678,0.000431,0.132102
71120000,0.0324,0.013523,0.002678,0.000431,0.369509
71121000,0.0324,0.013523,0.002678,0.000431,0.425922
71122000,0.0324,0.013523,0.002678,0.000431,0.253508
71123000,0.0324,0.013523,0.002678,0.000431,0.303223
71124000,0.0324,0.013523,0.002678,0.000431,0.181464
71125000,0.0324,0.013523,0.002678,0.000431,0.143972
71126000,0.0324,0.013523,0.002678,0.000431,0.132572
71127000,0.0324,0.013523,0.002678,0.000431,0.235879
71128000,0.0324,0.013523,0.002678,0.000431,0.335778
71129000,0.0324,0.013523,0.002678,0.000431,0.019510
71130000,0.0324,0.013523,0.002678,0.000431,0.015396
71131000,0.0324,0.013523,0.002678,0.000431,0.011283
71132000,0.0324,0.013523,0.002678,0.000431,0.011048
71133000,0.0324,0.013523,0.002678,0.000431,0.010695
71134000,0.0324,0.013523,0.002678,0.000431,0.009520
71135000,0.0324,0.013523,0.002678,0.000431,0.010225
71136000,0.0324,0.013523,0.002678,0.000431,0.010225
71137000,0.0324,0.013523,0.002678,0.000431,0.009990
71138000,0.0324,0.013523,0.002678,0.000431,0.011400
71139000,0.0324,0.013523,0.002678,0.000431,0.012105
71140000,0.0324,0.013523,0.002678,0.000431,0.008345
71141000,0.0324,0.013523,0.002678,0.000431,0.007052
71142000,0.0324,0.013523,0.002678,0.000431,0.006582
71143000,0.0324,0.013523,0.002678,0.000431,0.007052
71144000,0.0324,0.013523,0.002678,0.000431,0.006582
71145000,0.0324,0.013523,0.002678,0.000431,0.007287
71146000,0.0324,0.013523,0.002678,0.000431,0.006582
71147000,0.0324,0.013523,0.002678,0.000431,0.006817
71148000,0.0324,0.013523,0.002678,0.000431,0.006934
71149000,0.0324,0.013523,0.002678,0.000431,0.006934
71150000,0.0324,0.013523,0.002678,0.000431,0.006934
71151000,0.0324,0.013523,0.002678,0.000431,0.006464
71152000,0.0324,0.013523,0.002678,0.000431,0.007874
71153000,0.0324,0.013523,0.002678,0.000431,0.006934
71154000,0.0324,0.013523,0.002678,0.000431,0.005994
71155000,0.0324,0.013523,0.002678,0.000431,0.006111
71156000,0.0324,0.013523,0.002678,0.000431,0.005876
71157000,0.0324,0.013523,0.002678,0.000431,0.007287
71158000,0.0324,0.013523,0.002678,0.000431,0.005289
71159000,0.0324,0.013523,0.002678,0.000431,0.005641
71160000,0.0324,0.013523,0.002678,0.000431,0.004466
71161000,0.0324,0.013523,0.002678,0.000431,0.004584
71162000,0.0324,0.013523,0.002678,0.000431,0.003878
71163000,0.0324,0.013523,0.002678,0.000431,0.004349
71164000,0.0324,0.013523,0.002678,0.000431,0.004349
71165000,0.0324,0.013523,0.002678,0.000431,0.004349
71166000,0.0324,0.013523,0.002678,0.000431,0.003996
71167000,0.0324,0.013523,0.002678,0.000431,0.004349
71168000,0.0324,0.013523,0.002678,0.000431,0.004466
71169000,0.0324,0.013523,0.002678,0.000431,0.003996
71170000,0.0324,0.013523,0.002678,0.000431,0.004466
71171000,0.0324,0.013523,0.002678,0.000431,0.004113
71172000,0.0324,0.013523,0.002678,0.000431,0.004466
71173000,0.0324,0.013523,0.002678,0.000431,0.004231
71174000,0.0324,0.013523,0.002678,0.000431,0.004113
71175000,0.0324,0.013523,0.002678,0.000431,0.005171
71176000,0.0324,0.013523,0.002678,0.000431,0.004584
71177000,0.0324,0.013523,0.002678,0.000431,0.003526
71178000,0.0324,0.013523,0.002678,0.000431,0.003291
71179000,0.0324,0.013523,0.002678,0.000431,0.003408
71180000,0.0324,0.013523,0.002678,0.000431,0.003408
71181000,0.0324,0.013523,0.002678,0.000431,0.003408
71182000,0.0324,0.013523,0.002678,0.000431,0.003291
71183000,0.0324,0.013523,0.002678,0.000431,0.003408
71184000,0.0324,0.013523,0.002678,0.000431,0.003526
71185000,0.0324,0.013523,0.002678,0.000431,0.003173
71186000,0.0324,0.013523,0.002678,0.000431,0.003526
71187000,0.0324,0.013523,0.002678,0.000431,0.003526
71188000,0.0324,0.013523,0.002678,0.000431,0.003291
71189000,0.0324,0.013523,0.002678,0.000431,0.003056
71190000,0.0324,0.013523,0.002678,0.000431,0.003643
71191000,0.0324,0.013523,0.002678,0.000431,0.003526
71192000,0.0324,0.013523,0.002678,0.000431,0.003173
71193000,0.0324,0.013523,0.002678,0.000431,0.003526
71194000,0.0324,0.013523,0.002678,0.000431,0.004819
71195000,0.0324,0.013523,0.002678,0.000431,0.002468
71196000,0.0324,0.013523,0.002678,0.000431,0.002821
71197000,0.0324,0.013523,0.002678,0.000431,0.002351
71198000,0.0324,0.013523,0.002678,0.000431,0.002586
71199000,0.0324,0.013523,0.002678,0.000431,0.002233
71200000,0.0324,0.013523,0.002678,0.000431,0.002703
71201000,0.0324,0.013523,0.002678,0.000431,0.002703
71202000,0.0324,0.013523,0.002678,0.000431,0.002468
71203000,0.0324,0.013523,0.002678,0.000431,0.003761
71204000,0.0324,0.013523,0.002678,0.000431,0.002116
71205000,0.0324,0.013523,0.002678,0.000431,0.001645
71206000,0.0324,0.013523,0.002678,0.000431,0.001763
71207000,0.0324,0.013523,0.002678,0.000431,0.001763
71208000,0.0324,0.013523,0.002678,0.000431,0.001528
71209000,0.0324,0.013523,0.002678,0.000431,0.001763
71210000,0.0324,0.013523,0.002678,0.000431,0.001645
71211000,0.0324,0.013523,0.002678,0.000431,0.001645
71212000,0.0324,0.013523,0.002678,0.000431,0.001763
71213000,0.0324,0.013523,0.002678,0.000431,0.001645
71214000,0.0324,0.013523,0.002678,0.000431,0.001763
71215000,0.0324,0.013523,0.002678,0.000431,0.001528
71216000,0.0324,0.013523,0.002678,0.000431,0.001763
71217000,0.0324,0.013523,0.002678,0.000431,0.001528
71218000,0.0324,0.013523,0.002678,0.000431,0.001763
71219000,0.0324,0.013523,0.002678,0.000431,0.001763
71220000,0.0324,0.013523,0.002678,0.000431,0.001528
71221000,0.0324,0.013523,0.002678,0.000431,0.001645
71222000,0.0324,0.013523,0.002678,0.000431,0.001645
71223000,0.0324,0.013523,0.002678,0.000431,0.001645
71224000,0.0324,0.013523,0.002678,0.000431,0.003408
71225000,0.0324,0.013523,0.002678,0.000431,0.000705
71226000,0.0324,0.013523,0.002678,0.000431,0.000940
71227000,0.0324,0.013523,0.002678,0.000431,0.000705
71228000,0.0324,0.013523,0.002678,0.000431,0.000940
71229000,0.0324,0.013523,0.002678,0.000431,0.000823
71230000,0.0324,0.013523,0.002678,0.000431,0.000823
71231000,0.0324,0.013523,0.002678,0.000431,0.000823
71232000,0.0324,0.013523,0.002678,0.000431,0.000823
71233000,0.0324,0.013523,0.002678,0.000431,0.000940
71234000,0.0324,0.013523,0.002678,0.000431,0.000823
71235000,0.0324,0.013523,0.002678,0.000431,0.000823
71236000,0.0324,0.013523,0.002678,0.000431,0.000823
71237000,0.0324,0.013523,0.002678,0.000431,0.000823
71238000,0.0324,0.013523,0.002678,0.000431,0.071340
71239000,0.0324,0.013523,0.002678,0.000431,0.426040
71240000,0.0324,0.013523,0.002678,0.000431,0.582470
71241000,0.0324,0.013523,0.002678,0.000431,0.132102
71242000,0.0324,0.013523,0.002678,0.000431,0.133042
71243000,0.0324,0.013523,0.002678,0.000431,0.523471
71244000,0.0324,0.013523,0.002678,0.000431,0.246339
71245000,0.0324,0.013523,0.002678,0.000431,0.234939
71246000,0.0324,0.013523,0.002678,0.000431,0.283713
71247000,0.0324,0.013523,0.002678,0.000431,0.192981
71248000,0.0324,0.013523,0.002678,0.000431,0.140211
71249000,0.0324,0.013523,0.002678,0.000431,0.174294
71250000,0.0324,0.013523,0.002678,0.000431,0.096843
71251000,0.0324,0.013523,0.002678,0.000431,0.450133
71252000,0.0324,0.013523,0.002678,0.000431,0.107421
71253000,0.0324,0.013523,0.002678,0.000431,0.049479
71254000,0.0324,0.013523,0.002678,0.000431,0.045366
71255000,0.0324,0.013523,0.002678,0.000431,0.039137
71256000,0.0324,0.013523,0.002678,0.000431,0.034318
71257000,0.0324,0.013523,0.002678,0.000431,0.028089
71258000,0.0324,0.013523,0.002678,0.000431,0.028089
71259000,0.0324,0.013523,0.002678,0.000431,0.023506
71260000,0.0324,0.013523,0.002678,0.000431,0.025034
71261000,0.0324,0.013523,0.002678,0.000431,0.017394
71262000,0.0324,0.013523,0.002678,0.000431,0.015749
71263000,0.0324,0.013523,0.002678,0.000431,0.014809
71264000,0.0324,0.013523,0.002678,0.000431,0.015279
71265000,0.0324,0.013523,0.002678,0.000431,0.015749
71266000,0.0324,0.013523,0.002678,0.000431,0.015044
71267000,0.0324,0.013523,0.002678,0.000431,0.015044
71268000,0.0324,0.013523,0.002678,0.000431,0.014338
71269000,0.0324,0.013523,0.002678,0.000431,0.015749
71270000,0.0324,0.013523,0.002678,0.000431,0.013398
71271000,0.0324,0.013523,0.002678,0.000431,0.013633
71272000,0.0324,0.013523,0.002678,0.000431,0.013516
71273000,0.0324,0.013523,0.002678,0.000431,0.013516
71274000,0.0324,0.013523,0.002678,0.000431,0.013516
71275000,0.0324,0.013523,0.002678,0.000431,0.014926
71276000,0.0324,0.013523,0.002678,0.000431,0.012576
71277000,0.0324,0.013523,0.002678,0.000431,0.012693
71278000,0.0324,0.013523,0.002678,0.000431,0.012928
71279000,0.0324,0.013523,0.002678,0.000431,0.012576
71280000,0.0324,0.013523,0.002678,0.000431,0.012576
71281000,0.0324,0.013523,0.002678,0.000431,0.014926
71282000,0.0324,0.013523,0.002678,0.000431,0.014926
71283000,0.0324,0.013523,0.002678,0.000431,0.009755
71284000,0.0324,0.013523,0.002678,0.000431,0.010225
71285000,0.0324,0.013523,0.002678,0.000431,0.010695
71286000,0.0324,0.013523,0.002678,0.000431,0.007404
71287000,0.0324,0.013523,0.002678,0.000431,0.007639
71288000,0.0324,0.013523,0.002678,0.000431,0.007287
71289000,0.0324,0.013523,0.002678,0.000431,0.006582
71290000,0.0324,0.013523,0.002678,0.000431,0.007522
71291000,0.0324,0.013523,0.002678,0.000431,0.006817
71292000,0.0324,0.013523,0.002678,0.000431,0.007874
71293000,0.0324,0.013523,0.002678,0.000431,0.005171
71294000,0.0324,0.013523,0.002678,0.000431,0.006111
71295000,0.0324,0.013523,0.002678,0.000431,0.004349
71296000,0.0324,0.013523,0.002678,0.000431,0.003996
71297000,0.0324,0.013523,0.002678,0.000431,0.005289
71298000,0.0324,0.013523,0.002678,0.000431,0.004584
71299000,0.0324,0.013523,0.002678,0.000431,0.001528
71300000,0.0324,0.013523,0.002678,0.000431,0.001880
71301000,0.0324,0.013523,0.002678,0.000431,0.001645
71302000,0.0324,0.013523,0.002678,0.000431,0.001763
71303000,0.0324,0.013523,0.002678,0.000431,0.001763
71304000,0.0324,0.013523,0.002678,0.000431,0.001645
71305000,0.0324,0.013523,0.002678,0.000431,0.001763
71306000,0.0324,0.013523,0.002678,0.000431,0.001528
71307000,0.0324,0.013523,0.002678,0.000431,0.001880
71308000,0.0324,0.013523,0.002678,0.000431,0.001763
71309000,0.0324,0.013523,0.002678,0.000431,0.001528
71310000,0.0324,0.013523,0.002678,0.000431,0.001763
71311000,0.0324,0.013523,0.002678,0.000431,0.001763
71312000,0.0324,0.013523,0.002678,0.000431,0.001880
71313000,0.0324,0.013523,0.002678,0.000431,0.001410
71314000,0.0324,0.013523,0.002678,0.000431,0.001880
71315000,0.0324,0.013523,0.002678,0.000431,0.001645
71316000,0.0324,0.013523,0.002678,0.000431,0.001763
71317000,0.0324,0.013523,0.002678,0.000431,0.001528
71318000,0.0324,0.013523,0.002678,0.000431,0.001880
71319000,0.0324,0.013523,0.002678,0.000431,0.001880
71320000,0.0324,0.013523,0.002678,0.000431,0.001528
71321000,0.0324,0.013523,0.002678,0.000431,0.001763
71322000,0.0324,0.013523,0.002678,0.000431,0.001645
71323000,0.0324,0.013523,0.002678,0.000431,0.001763
71324000,0.0324,0.013523,0.002678,0.000431,0.001763
71325000,0.0324,0.013523,0.002678,0.000431,0.001645
71326000,0.0324,0.013523,0.002678,0.000431,0.003291
71327000,0.0324,0.013523,0.002678,0.000431,0.000940
71328000,0.0324,0.013523,0.002678,0.000431,0.000823
71329000,0.0324,0.013523,0.002678,0.000431,0.000940
71330000,0.0324,0.013523,0.002678,0.000431,0.071340
71331000,0.0324,0.013523,0.002678,0.000431,0.458712
71332000,0.0324,0.013523,0.002678,0.000431,0.607386
71333000,0.0324,0.013523,0.002678,0.000431,0.132102
71334000,0.0324,0.013523,0.002678,0.000431,0.133512
71335000,0.0324,0.013523,0.002678,0.000431,0.579414
71336000,0.0324,0.013523,0.002678,0.000431,0.269492
71337000,0.0324,0.013523,0.002678,0.000431,0.257269
71338000,0.0324,0.013523,0.002678,0.000431,0.326963
71339000,0.0324,0.013523,0.002678,0.000431,0.137155
71340000,0.0324,0.013523,0.002678,0.000431,0.155137
71341000,0.0324,0.013523,0.002678,0.000431,0.100957
71342000,0.0324,0.013523,0.002678,0.000431,0.446725
71343000,0.0324,0.013523,0.002678,0.000431,0.168300
71344000,0.0324,0.013523,0.002678,0.000431,0.080624
71345000,0.0324,0.013523,0.002678,0.000431,0.065111
71346000,0.0324,0.013523,0.002678,0.000431,0.062643
71347000,0.0324,0.013523,0.002678,0.000431,0.058176
71348000,0.0324,0.013523,0.002678,0.000431,0.049244
71349000,0.0324,0.013523,0.002678,0.000431,0.052300
71350000,0.0324,0.013523,0.002678,0.000431,0.040665
71351000,0.0324,0.013523,0.002678,0.000431,0.029029
71352000,0.0324,0.013523,0.002678,0.000431,0.027972
71353000,0.0324,0.013523,0.002678,0.000431,0.024681
71354000,0.0324,0.013523,0.002678,0.000431,0.024681
71355000,0.0324,0.013523,0.002678,0.000431,0.022683
71356000,0.0324,0.013523,0.002678,0.000431,0.016219
71357000,0.0324,0.013523,0.002678,0.000431,0.018687
71358000,0.0324,0.013523,0.002678,0.000431,0.014573
71359000,0.0324,0.013523,0.002678,0.000431,0.012458
71360000,0.0324,0.013523,0.002678,0.000431,0.009050
71361000,0.0324,0.013523,0.002678,0.000431,0.009755
71362000,0.0324,0.013523,0.002678,0.000431,0.008815
71363000,0.0324,0.013523,0.002678,0.000431,0.010813
71364000,0.0324,0.013523,0.002678,0.000431,0.007992
71365000,0.0324,0.013523,0.002678,0.000431,0.009990
71366000,0.0324,0.013523,0.002678,0.000431,0.007639
71367000,0.0324,0.013523,0.002678,0.000431,0.008932
71368000,0.0324,0.013523,0.002678,0.000431,0.006699
71369000,0.0324,0.013523,0.002678,0.000431,0.006934
71370000,0.0324,0.013523,0.002678,0.000431,0.006934
71371000,0.0324,0.013523,0.002678,0.000431,0.006582
71372000,0.0324,0.013523,0.002678,0.000431,0.006582
71373000,0.0324,0.013523,0.002678,0.000431,0.007052
71374000,0.0324,0.013523,0.002678,0.000431,0.006817
71375000,0.0324,0.013523,0.002678,0.000431,0.008580
71376000,0.0324,0.013523,0.002678,0.000431,0.006111
71377000,0.0324,0.013523,0.002678,0.000431,0.005994
71378000,0.0324,0.013523,0.002678,0.000431,0.007757
71379000,0.0324,0.013523,0.002678,0.000431,0.005171
71380000,0.0324,0.013523,0.002678,0.000431,0.005054
71381000,0.0324,0.013523,0.002678,0.000431,0.005171
71382000,0.0324,0.013523,0.002678,0.000431,0.005171
71383000,0.0324,0.013523,0.002678,0.000431,0.004936
71384000,0.0324,0.013523,0.002678,0.000431,0.005289
71385000,0.0324,0.013523,0.002678,0.000431,0.005171
71386000,0.0324,0.013523,0.002678,0.000431,0.004936
71387000,0.0324,0.013523,0.002678,0.000431,0.004936
71388000,0.0324,0.013523,0.002678,0.000431,0.008462
71389000,0.0324,0.013523,0.002678,0.000431,0.004349
71390000,0.0324,0.013523,0.002678,0.000431,0.003996
71391000,0.0324,0.013523,0.002678,0.000431,0.004349
71392000,0.0324,0.013523,0.002678,0.000431,0.004113
71393000,0.0324,0.013523,0.002678,0.000431,0.006934
71394000,0.0324,0.013523,0.002678,0.000431,0.003643
71395000,0.0324,0.013523,0.002678,0.000431,0.003173
71396000,0.0324,0.013523,0.002678,0.000431,0.003643
71397000,0.0324,0.013523,0.002678,0.000431,0.003173
71398000,0.0324,0.013523,0.002678,0.000431,0.003408
71399000,0.0324,0.013523,0.002678,0.000431,0.003643
71400000,0.0324,0.013523,0.002678,0.000431,0.003173
71401000,0.0324,0.013523,0.002678,0.000431,0.003526
71402000,0.0324,0.013523,0.002678,0.000431,0.003173
71403000,0.0324,0.013523,0.002678,0.000431,0.003526
71404000,0.0324,0.013523,0.002678,0.000431,0.003526
71405000,0.0324,0.013523,0.002678,0.000431,0.003173
71406000,0.0324,0.013523,0.002678,0.000431,0.003408
71407000,0.0324,0.013523,0.002678,0.000431,0.003291
71408000,0.0324,0.013523,0.002678,0.000431,0.003643
71409000,0.0324,0.013523,0.002678,0.000431,0.003173
71410000,0.0324,0.013523,0.002678,0.000431,0.003408
71411000,0.0324,0.013523,0.002678,0.000431,0.003526
71412000,0.0324,0.013523,0.002678,0.000431,0.004466
71413000,0.0324,0.013523,0.002678,0.000431,0.002821
71414000,0.0324,0.013523,0.002678,0.000431,0.002468
71415000,0.0324,0.013523,0.002678,0.000431,0.002586
71416000,0.0324,0.013523,0.002678,0.000431,0.002703
71417000,0.0324,0.013523,0.002678,0.000431,0.003526
71418000,0.0324,0.013523,0.002678,0.000431,0.001645
71419000,0.0324,0.013523,0.002678,0.000431,0.001880
71420000,0.0324,0.013523,0.002678,0.000431,0.001645
71421000,0.0324,0.013523,0.002678,0.000431,0.001645
71422000,0.0324,0.013523,0.002678,0.000431,0.001645
71423000,0.0324,0.013523,0.002678,0.000431,0.001645
71424000,0.0324,0.013523,0.002678,0.000431,0.001763
71425000,0.0324,0.013523,0.002678,0.000431,0.001645
71426000,0.0324,0.013523,0.002678,0.000431,0.001645
71427000,0.0324,0.013523,0.002678,0.000431,0.001763
71428000,0.0324,0.013523,0.002678,0.000431,0.001645
71429000,0.0324,0.013523,0.002678,0.000431,0.001410
71430000,0.0324,0.013523,0.002678,0.000431,0.001880
71431000,0.0324,0.013523,0.002678,0.000431,0.001763
71432000,0.0324,0.013523,0.002678,0.000431,0.001528
71433000,0.0324,0.013523,0.002678,0.000431,0.001645
71434000,0.0324,0.013523,0.002678,0.000431,0.001645
71435000,0.0324,0.013523,0.002678,0.000431,0.001763
71436000,0.0324,0.013523,0.002678,0.000431,0.001528
71437000,0.0324,0.013523,0.002678,0.000431,0.002586
71438000,0.0324,0.013523,0.002678,0.000431,0.001763
71439000,0.0324,0.013523,0.002678,0.000431,0.000940
71440000,0.0324,0.013523,0.002678,0.000431,0.000705
71441000,0.0324,0.013523,0.002678,0.000431,0.000940
71442000,0.0324,0.013523,0.002678,0.000431,0.000940
71443000,0.0324,0.013523,0.002678,0.000431,0.000705
71444000,0.0324,0.013523,0.002678,0.000431,0.000940
71445000,0.0324,0.013523,0.002678,0.000431,0.000705
71446000,0.0324,0.013523,0.002678,0.000431,0.000940
71447000,0.0324,0.013523,0.002678,0.000431,0.000823
71448000,0.0324,0.013523,0.002678,0.000431,0.000823
71449000,0.0324,0.013523,0.002678,0.000431,0.000823
71450000,0.0324,0.013523,0.002678,0.000431,0.000823
71451000,0.0324,0.013523,0.002678,0.000431,0.000940
71452000,0.0324,0.013523,0.002678,0.000431,0.000705
71453000,0.0324,0.013523,0.002678,0.000431,0.000940
71454000,0.0324,0.013523,0.002678,0.000431,0.000823
71455000,0.0324,0.013523,0.002678,0.000431,0.000823
71456000,0.0324,0.013523,0.002678,0.000431,0.000823
71457000,0.0324,0.013523,0.002678,0.000431,0.000823
71458000,0.0324,0.013523,0.002678,0.000431,0.000823
71459000,0.0324,0.013523,0.002678,0.000431,0.000823
71460000,0.0324,0.013523,0.002678,0.000431,0.000823
71461000,0.0324,0.013523,0.002678,0.000431,0.000823
71462000,0.0324,0.013523,0.002678,0.000431,0.000940
71463000,0.0324,0.013523,0.002678,0.000431,0.000823
71464000,0.0324,0.013523,0.002678,0.000431,0.000823
71465000,0.0324,0.013523,0.002678,0.000431,0.000705
71466000,0.0324,0.013523,0.002678,0.000431,0.000940
71467000,0.0324,0.013523,0.002678,0.000431,0.000940
71468000,0.0324,0.013523,0.002678,0.000431,0.000705
71469000,0.0324,0.013523,0.002678,0.000431,0.000940
71470000,0.0324,0.013523,0.002678,0.000431,0.000705
71471000,0.0324,0.013523,0.002678,0.000431,0.000940
71472000,0.0324,0.013523,0.002678,0.000431,0.001763
71473000,0.0324,0.013523,0.002678,0.000431,0.282655
71474000,0.0324,0.013523,0.002678,0.000431,0.645935
71475000,0.0324,0.013523,0.002678,0.000431,0.298287
71476000,0.0324,0.013523,0.002678,0.000431,0.132572
71477000,0.0324,0.013523,0.002678,0.000431,0.133982
71478000,0.0324,0.013523,0.002678,0.000431,0.607738
71479000,0.0324,0.013523,0.002678,0.000431,0.220483
71480000,0.0324,0.013523,0.002678,0.000431,0.323438
71481000,0.0324,0.013523,0.002678,0.000431,0.266084
71482000,0.0324,0.013523,0.002678,0.000431,0.144912
71483000,0.0324,0.013523,0.002678,0.000431,0.147028
71484000,0.0324,0.013523,0.002678,0.000431,0.164775
71485000,0.0324,0.013523,0.002678,0.000431,0.406412
71486000,0.0324,0.013523,0.002678,0.000431,0.021625
71487000,0.0324,0.013523,0.002678,0.000431,0.013633
71488000,0.0324,0.013523,0.002678,0.000431,0.011988
71489000,0.0324,0.013523,0.002678,0.000431,0.010813
71490000,0.0324,0.013523,0.002678,0.000431,0.007522
71491000,0.0324,0.013523,0.002678,0.000431,0.008462
71492000,0.0324,0.013523,0.002678,0.000431,0.008462
71493000,0.0324,0.013523,0.002678,0.000431,0.009520
71494000,0.0324,0.013523,0.002678,0.000431,0.008462
71495000,0.0324,0.013523,0.002678,0.000431,0.007639
71496000,0.0324,0.013523,0.002678,0.000431,0.006934
71497000,0.0324,0.013523,0.002678,0.000431,0.005524
71498000,0.0324,0.013523,0.002678,0.000431,0.002351
71499000,0.0324,0.013523,0.002678,0.000431,0.002586
71500000,0.0324,0.013523,0.002678,0.000431,0.002468
71501000,0.0324,0.013523,0.002678,0.000431,0.002468
71502000,0.0324,0.013523,0.002678,0.000431,0.002703
71503000,0.0324,0.013523,0.002678,0.000431,0.002468
71504000,0.0324,0.013523,0.002678,0.000431,0.002586
71505000,0.0324,0.013523,0.002678,0.000431,0.002586
71506000,0.0324,0.013523,0.002678,0.000431,0.002468
71507000,0.0324,0.013523,0.002678,0.000431,0.002586
71508000,0.0324,0.013523,0.002678,0.000431,0.002586
71509000,0.0324,0.013523,0.002678,0.000431,0.002468
71510000,0.0324,0.013523,0.002678,0.000431,0.002703
71511000,0.0324,0.013523,0.002678,0.000431,0.002351
71512000,0.0324,0.013523,0.002678,0.000431,0.002821
71513000,0.0324,0.013523,0.002678,0.000431,0.002468
71514000,0.0324,0.013523,0.002678,0.000431,0.002468
71515000,0.0324,0.013523,0.002678,0.000431,0.002703
71516000,0.0324,0.013523,0.002678,0.000431,0.002468
71517000,0.0324,0.013523,0.002678,0.000431,0.002703
71518000,0.0324,0.013523,0.002678,0.000431,0.002351
71519000,0.0324,0.013523,0.002678,0.000431,0.002703
71520000,0.0324,0.013523,0.002678,0.000431,0.002468
71521000,0.0324,0.013523,0.002678,0.000431,0.002586
71522000,0.0324,0.013523,0.002678,0.000431,0.002586
71523000,0.0324,0.013523,0.002678,0.000431,0.002468
71524000,0.0324,0.013523,0.002678,0.000431,0.002586
71525000,0.0324,0.013523,0.002678,0.000431,0.002468
71526000,0.0324,0.013523,0.002678,0.000431,0.002703
71527000,0.0324,0.013523,0.002678,0.000431,0.002468
71528000,0.0324,0.013523,0.002678,0.000431,0.002586
71529000,0.0324,0.013523,0.002678,0.000431,0.002468
71530000,0.0324,0.013523,0.002678,0.000431,0.005054
71531000,0.0324,0.013523,0.002678,0.000431,0.001880
71532000,0.0324,0.013523,0.002678,0.000431,0.001528
71533000,0.0324,0.013523,0.002678,0.000431,0.001763
71534000,0.0324,0.013523,0.002678,0.000431,0.001763
71535000,0.0324,0.013523,0.002678,0.000431,0.001763
71536000,0.0324,0.013523,0.002678,0.000431,0.001645
71537000,0.0324,0.013523,0.002678,0.000431,0.001645
71538000,0.0324,0.013523,0.002678,0.000431,0.001763
71539000,0.0324,0.013523,0.002678,0.000431,0.001645
71540000,0.0324,0.013523,0.002678,0.000431,0.001880
71541000,0.0324,0.013523,0.002678,0.000431,0.001645
71542000,0.0324,0.013523,0.002678,0.000431,0.001763
71543000,0.0324,0.013523,0.002678,0.000431,0.002938
71544000,0.0324,0.013523,0.002678,0.000431,0.000823
71545000,0.0324,0.013523,0.002678,0.000431,0.000823
71546000,0.0324,0.013523,0.002678,0.000431,0.000705
71547000,0.0324,0.013523,0.002678,0.000431,0.000940
71548000,0.0324,0.013523,0.002678,0.000431,0.000940
71549000,0.0324,0.013523,0.002678,0.000431,0.000705
71550000,0.0324,0.013523,0.002678,0.000431,0.000940
71551000,0.0324,0.013523,0.002678,0.000431,0.000705
71552000,0.0324,0.013523,0.002678,0.000431,0.000940
71553000,0.0324,0.013523,0.002678,0.000431,0.000823
71554000,0.0324,0.013523,0.002678,0.000431,0.000823
71555000,0.0324,0.013523,0.002678,0.000431,0.000940
71556000,0.0324,0.013523,0.002678,0.000431,0.000705
71557000,0.0324,0.013523,0.002678,0.000431,0.000940
71558000,0.0324,0.013523,0.002678,0.000431,0.000705
71559000,0.0324,0.013523,0.002678,0.000431,0.000940
71560000,0.0324,0.013523,0.002678,0.000431,0.000823
71561000,0.0324,0.013523,0.002678,0.000431,0.000823
71562000,0.0324,0.013523,0.002678,0.000431,0.000823
71563000,0.0324,0.013523,0.002678,0.000431,0.000823
71564000,0.0324,0.013523,0.002678,0.000431,0.000940
71565000,0.0324,0.013523,0.002678,0.000431,0.108949
71566000,0.0324,0.013523,0.002678,0.000431,0.438850
71567000,0.0324,0.013523,0.002678,0.000431,0.538514
71568000,0.0324,0.013523,0.002678,0.000431,0.134922
71569000,0.0324,0.013523,0.002678,0.000431,0.130691
71570000,0.0324,0.013523,0.002678,0.000431,0.560844
71571000,0.0324,0.013523,0.002678,0.000431,0.227064
71572000,0.0324,0.013523,0.002678,0.000431,0.285358
71573000,0.0324,0.013523,0.002678,0.000431,0.260442
71574000,0.0324,0.013523,0.002678,0.000431,0.158310
71575000,0.0324,0.013523,0.002678,0.000431,0.142914
71576000,0.0324,0.013523,0.002678,0.000431,0.165127
71577000,0.0324,0.013523,0.002678,0.000431,0.114355
71578000,0.0324,0.013523,0.002678,0.000431,0.445549
71579000,0.0324,0.013523,0.002678,0.000431,0.033966
71580000,0.0324,0.013523,0.002678,0.000431,0.015749
71581000,0.0324,0.013523,0.002678,0.000431,0.018099
71582000,0.0324,0.013523,0.002678,0.000431,0.012576
71583000,0.0324,0.013523,0.002678,0.000431,0.013986
71584000,0.0324,0.013523,0.002678,0.000431,0.008815
71585000,0.0324,0.013523,0.002678,0.000431,0.009520
71586000,0.0324,0.013523,0.002678,0.000431,0.009285
71587000,0.0324,0.013523,0.002678,0.000431,0.008227
71588000,0.0324,0.013523,0.002678,0.000431,0.007874
71589000,0.0324,0.013523,0.002678,0.000431,0.007757
71590000,0.0324,0.013523,0.002678,0.000431,0.007992
71591000,0.0324,0.013523,0.002678,0.000431,0.007757
71592000,0.0324,0.013523,0.002678,0.000431,0.007639
71593000,0.0324,0.013523,0.002678,0.000431,0.009637
71594000,0.0324,0.013523,0.002678,0.000431,0.006817
71595000,0.0324,0.013523,0.002678,0.000431,0.006347
71596000,0.0324,0.013523,0.002678,0.000431,0.005289
71597000,0.0324,0.013523,0.002678,0.000431,0.005641
71598000,0.0324,0.013523,0.002678,0.000431,0.005876
71599000,0.0324,0.013523,0.002678,0.000431,0.005406
71600000,0.0324,0.013523,0.002678,0.000431,0.005876
71601000,0.0324,0.013523,0.002678,0.000431,0.005876
71602000,0.0324,0.013523,0.002678,0.000431,0.005406
71603000,0.0324,0.013523,0.002678,0.000431,0.005641
71604000,0.0324,0.013523,0.002678,0.000431,0.005994
71605000,0.0324,0.013523,0.002678,0.000431,0.005641
71606000,0.0324,0.013523,0.002678,0.000431,0.005876
71607000,0.0324,0.013523,0.002678,0.000431,0.005406
71608000,0.0324,0.013523,0.002678,0.000431,0.005994
71609000,0.0324,0.013523,0.002678,0.000431,0.005524
71610000,0.0324,0.013523,0.002678,0.000431,0.005876
71611000,0.0324,0.013523,0.002678,0.000431,0.005876
71612000,0.0324,0.013523,0.002678,0.000431,0.005524
71613000,0.0324,0.013523,0.002678,0.000431,0.005759
71614000,0.0324,0.013523,0.002678,0.000431,0.008109
71615000,0.0324,0.013523,0.002678,0.000431,0.005054
71616000,0.0324,0.013523,0.002678,0.000431,0.004584
71617000,0.0324,0.013523,0.002678,0.000431,0.005289
71618000,0.0324,0.013523,0.002678,0.000431,0.004349
71619000,0.0324,0.013523,0.002678,0.000431,0.005289
71620000,0.0324,0.013523,0.002678,0.000431,0.004936
71621000,0.0324,0.013523,0.002678,0.000431,0.004584
71622000,0.0324,0.013523,0.002678,0.000431,0.005406
71623000,0.0324,0.013523,0.002678,0.000431,0.004466
71624000,0.0324,0.013523,0.002678,0.000431,0.005289
71625000,0.0324,0.013523,0.002678,0.000431,0.004936
71626000,0.0324,0.013523,0.002678,0.000431,0.004819
71627000,0.0324,0.013523,0.002678,0.000431,0.005054
71628000,0.0324,0.013523,0.002678,0.000431,0.006582
71629000,0.0324,0.013523,0.002678,0.000431,0.003878
71630000,0.0324,0.013523,0.002678,0.000431,0.004231
71631000,0.0324,0.013523,0.002678,0.000431,0.004349
71632000,0.0324,0.013523,0.002678,0.000431,0.003643
71633000,0.0324,0.013523,0.002678,0.000431,0.004584
71634000,0.0324,0.013523,0.002678,0.000431,0.003996
71635000,0.0324,0.013523,0.002678,0.000431,0.004936
71636000,0.0324,0.013523,0.002678,0.000431,0.004701
71637000,0.0324,0.013523,0.002678,0.000431,0.003173
71638000,0.0324,0.013523,0.002678,0.000431,0.003408
71639000,0.0324,0.013523,0.002678,0.000431,0.003291
71640000,0.0324,0.013523,0.002678,0.000431,0.002938
71641000,0.0324,0.013523,0.002678,0.000431,0.003173
71642000,0.0324,0.013523,0.002678,0.000431,0.003643
71643000,0.0324,0.013523,0.002678,0.000431,0.002938
71644000,0.0324,0.013523,0.002678,0.000431,0.003291
71645000,0.0324,0.013523,0.002678,0.000431,0.003408
71646000,0.0324,0.013523,0.002678,0.000431,0.002938
71647000,0.0324,0.013523,0.002678,0.000431,0.003526
71648000,0.0324,0.013523,0.002678,0.000431,0.002938
71649000,0.0324,0.013523,0.002678,0.000431,0.003408
71650000,0.0324,0.013523,0.002678,0.000431,0.003291
71651000,0.0324,0.013523,0.002678,0.000431,0.003056
71652000,0.0324,0.013523,0.002678,0.000431,0.003056
71653000,0.0324,0.013523,0.002678,0.000431,0.003408
71654000,0.0324,0.013523,0.002678,0.000431,0.003291
71655000,0.0324,0.013523,0.002678,0.000431,0.002938
71656000,0.0324,0.013523,0.002678,0.000431,0.003408
71657000,0.0324,0.013523,0.002678,0.000431,0.003056
71658000,0.0324,0.013523,0.002678,0.000431,0.003408
71659000,0.0324,0.013523,0.002678,0.000431,0.003056
71660000,0.0324,0.013523,0.002678,0.000431,0.003291
71661000,0.0324,0.013523,0.002678,0.000431,0.003291
71662000,0.0324,0.013523,0.002678,0.000431,0.003056
71663000,0.0324,0.013523,0.002678,0.000431,0.003526
71664000,0.0324,0.013523,0.002678,0.000431,0.002938
71665000,0.0324,0.013523,0.002678,0.000431,0.003408
71666000,0.0324,0.013523,0.002678,0.000431,0.003173
71667000,0.0324,0.013523,0.002678,0.000431,0.003173
71668000,0.0324,0.013523,0.002678,0.000431,0.003408
71669000,0.0324,0.013523,0.002678,0.000431,0.003173
71670000,0.0324,0.013523,0.002678,0.000431,0.003173
71671000,0.0324,0.013523,0.002678,0.000431,0.003291
71672000,0.0324,0.013523,0.002678,0.000431,0.003408
71673000,0.0324,0.013523,0.002678,0.000431,0.002821
71674000,0.0324,0.013523,0.002678,0.000431,0.003526
71675000,0.0324,0.013523,0.002678,0.000431,0.003056
71676000,0.0324,0.013523,0.002678,0.000431,0.003056
71677000,0.0324,0.013523,0.002678,0.000431,0.003643
71678000,0.0324,0.013523,0.002678,0.000431,0.002938
71679000,0.0324,0.013523,0.002678,0.000431,0.003173
71680000,0.0324,0.013523,0.002678,0.000431,0.003643
71681000,0.0324,0.013523,0.002678,0.000431,0.002703
71682000,0.0324,0.013523,0.002678,0.000431,0.003408
71683000,0.0324,0.013523,0.002678,0.000431,0.003408
71684000,0.0324,0.013523,0.002678,0.000431,0.002468
71685000,0.0324,0.013523,0.002678,0.000431,0.003761
71686000,0.0324,0.013523,0.002678,0.000431,0.005524
71687000,0.0324,0.013523,0.002678,0.000431,0.001880
71688000,0.0324,0.013523,0.002678,0.000431,0.002821
71689000,0.0324,0.013523,0.002678,0.000431,0.002116
71690000,0.0324,0.013523,0.002678,0.000431,0.002351
71691000,0.0324,0.013523,0.002678,0.000431,0.002821
71692000,0.0324,0.013523,0.002678,0.000431,0.001880
71693000,0.0324,0.013523,0.002678,0.000431,0.002586
71694000,0.0324,0.013523,0.002678,0.000431,0.002468
71695000,0.0324,0.013523,0.002678,0.000431,0.002233
71696000,0.0324,0.013523,0.002678,0.000431,0.002468
71697000,0.0324,0.013523,0.002678,0.000431,0.002468
71698000,0.0324,0.013523,0.002678,0.000431,0.002233
71699000,0.0324,0.013523,0.002678,0.000431,0.002468
71700000,0.0324,0.013523,0.002678,0.000431,0.002351
71701000,0.0324,0.013523,0.002678,0.000431,0.002351
71702000,0.0324,0.013523,0.002678,0.000431,0.002586
71703000,0.0324,0.013523,0.002678,0.000431,0.002233
71704000,0.0324,0.013523,0.002678,0.000431,0.002351
71705000,0.0324,0.013523,0.002678,0.000431,0.002468
71706000,0.0324,0.013523,0.002678,0.000431,0.002351
71707000,0.0324,0.013523,0.002678,0.000431,0.002233
71708000,0.0324,0.013523,0.002678,0.000431,0.002468
71709000,0.0324,0.013523,0.002678,0.000431,0.002233
71710000,0.0324,0.013523,0.002678,0.000431,0.002468
71711000,0.0324,0.013523,0.002678,0.000431,0.002468
71712000,0.0324,0.013523,0.002678,0.000431,0.002351
71713000,0.0324,0.013523,0.002678,0.000431,0.002468
71714000,0.0324,0.013523,0.002678,0.000431,0.002116
71715000,0.0324,0.013523,0.002678,0.000431,0.002351
71716000,0.0324,0.013523,0.002678,0.000431,0.002233
71717000,0.0324,0.013523,0.002678,0.000431,0.001645
71718000,0.0324,0.013523,0.002678,0.000431,0.001763
71719000,0.0324,0.013523,0.002678,0.000431,0.001645
71720000,0.0324,0.013523,0.002678,0.000431,0.001763
71721000,0.0324,0.013523,0.002678,0.000431,0.001763
71722000,0.0324,0.013523,0.002678,0.000431,0.001645
71723000,0.0324,0.013523,0.002678,0.000431,0.001763
71724000,0.0324,0.013523,0.002678,0.000431,0.001645
71725000,0.0324,0.013523,0.002678,0.000431,0.001880
71726000,0.0324,0.013523,0.002678,0.000431,0.001528
71727000,0.0324,0.013523,0.002678,0.000431,0.001763
71728000,0.0324,0.013523,0.002678,0.000431,0.001763
71729000,0.0324,0.013523,0.002678,0.000431,0.001763
71730000,0.0324,0.013523,0.002678,0.000431,0.001528
71731000,0.0324,0.013523,0.002678,0.000431,0.001763
71732000,0.0324,0.013523,0.002678,0.000431,0.001880
71733000,0.0324,0.013523,0.002678,0.000431,0.001528
71734000,0.0324,0.013523,0.002678,0.000431,0.001763
71735000,0.0324,0.013523,0.002678,0.000431,0.001763
71736000,0.0324,0.013523,0.002678,0.000431,0.001763
71737000,0.0324,0.013523,0.002678,0.000431,0.001528
71738000,0.0324,0.013523,0.002678,0.000431,0.001763
71739000,0.0324,0.013523,0.002678,0.000431,0.001880
71740000,0.0324,0.013523,0.002678,0.000431,0.001528
71741000,0.0324,0.013523,0.002678,0.000431,0.001880
71742000,0.0324,0.013523,0.002678,0.000431,0.001528
71743000,0.0324,0.013523,0.002678,0.000431,0.001880
71744000,0.0324,0.013523,0.002678,0.000431,0.001645
71745000,0.0324,0.013523,0.002678,0.000431,0.001645
71746000,0.0324,0.013523,0.002678,0.000431,0.001880
71747000,0.0324,0.013523,0.002678,0.000431,0.001645
71748000,0.0324,0.013523,0.002678,0.000431,0.001763
71749000,0.0324,0.013523,0.002678,0.000431,0.001645
71750000,0.0324,0.013523,0.002678,0.000431,0.001763
71751000,0.0324,0.013523,0.002678,0.000431,0.001763
71752000,0.0324,0.013523,0.002678,0.000431,0.001645
71753000,0.0324,0.013523,0.002678,0.000431,0.001645
71754000,0.0324,0.013523,0.002678,0.000431,0.001763
71755000,0.0324,0.013523,0.002678,0.000431,0.001880
71756000,0.0324,0.013523,0.002678,0.000431,0.001528
71757000,0.0324,0.013523,0.002678,0.000431,0.001645
71758000,0.0324,0.013523,0.002678,0.000431,0.001880
71759000,0.0324,0.013523,0.002678,0.000431,0.001645
71760000,0.0324,0.013523,0.002678,0.000431,0.001763
71761000,0.0324,0.013523,0.002678,0.000431,0.001645
71762000,0.0324,0.013523,0.002678,0.000431,0.003408
71763000,0.0324,0.013523,0.002678,0.000431,0.000940
71764000,0.0324,0.013523,0.002678,0.000431,0.000940
71765000,0.0324,0.013523,0.002678,0.000431,0.000705
71766000,0.0324,0.013523,0.002678,0.000431,0.000940
71767000,0.0324,0.013523,0.002678,0.000431,0.000705
71768000,0.0324,0.013523,0.002678,0.000431,0.000940
71769000,0.0324,0.013523,0.002678,0.000431,0.000940
71770000,0.0324,0.013523,0.002678,0.000431,0.000705
71771000,0.0324,0.013523,0.002678,0.000431,0.000940
71772000,0.0324,0.013523,0.002678,0.000431,0.000705
71773000,0.0324,0.013523,0.002678,0.000431,0.000940
71774000,0.0324,0.013523,0.002678,0.000431,0.000823
71775000,0.0324,0.013523,0.002678,0.000431,0.000823
71776000,0.0324,0.013523,0.002678,0.000431,0.000823
71777000,0.0324,0.013523,0.002678,0.000431,0.000823
71778000,0.0324,0.013523,0.002678,0.000431,0.000940
71779000,0.0324,0.013523,0.002678,0.000431,0.000705
71780000,0.0324,0.013523,0.002678,0.000431,0.000940
71781000,0.0324,0.013523,0.002678,0.000431,0.000823
71782000,0.0324,0.013523,0.002678,0.000431,0.000823
71783000,0.0324,0.013523,0.002678,0.000431,0.000823
71784000,0.0324,0.013523,0.002678,0.000431,0.000823
71785000,0.0324,0.013523,0.002678,0.000431,0.000705
71786000,0.0324,0.013523,0.002678,0.000431,0.000940
71787000,0.0324,0.013523,0.002678,0.000431,0.000940
71788000,0.0324,0.013523,0.002678,0.000431,0.000705
71789000,0.0324,0.013523,0.002678,0.000431,0.000940
71790000,0.0324,0.013523,0.002678,0.000431,0.000705
71791000,0.0324,0.013523,0.002678,0.000431,0.000940
71792000,0.0324,0.013523,0.002678,0.000431,0.000940
71793000,0.0324,0.013523,0.002678,0.000431,0.000705
71794000,0.0324,0.013523,0.002678,0.000431,0.000940
71795000,0.0324,0.013523,0.002678,0.000431,0.000705
71796000,0.0324,0.013523,0.002678,0.000431,0.000940
71797000,0.0324,0.013523,0.002678,0.000431,0.000823
71798000,0.0324,0.013523,0.002678,0.000431,0.000823
71799000,0.0324,0.013523,0.002678,0.000431,0.000823
71800000,0.0324,0.013523,0.002678,0.000431,0.000823
71801000,0.0324,0.013523,0.002678,0.000431,0.000940
71802000,0.0324,0.013523,0.002678,0.000431,0.000940
71803000,0.0324,0.013523,0.002678,0.000431,0.000940
71804000,0.0324,0.013523,0.002678,0.000431,0.000823
71805000,0.0324,0.013523,0.002678,0.000431,0.000823
71806000,0.0324,0.013523,0.002678,0.000431,0.000940
71807000,0.0324,0.013523,0.002678,0.000431,0.000823
71808000,0.0324,0.013523,0.002678,0.000431,0.000940
71809000,0.0324,0.013523,0.002678,0.000431,0.000823
71810000,0.0324,0.013523,0.002678,0.000431,0.000940
71811000,0.0324,0.013523,0.002678,0.000431,0.000823
71812000,0.0324,0.013523,0.002678,0.000431,0.000823
71813000,0.0324,0.013523,0.002678,0.000431,0.000940
71814000,0.0324,0.013523,0.002678,0.000431,0.000940
71815000,0.0324,0.013523,0.002678,0.000431,0.000940
71816000,0.0324,0.013523,0.002678,0.000431,0.000705
71817000,0.0324,0.013523,0.002678,0.000431,0.000940
71818000,0.0324,0.013523,0.002678,0.000431,0.000940
71819000,0.0324,0.013523,0.002678,0.000431,0.002586
71820000,0.0324,0.013523,0.002678,0.000431,0.354935
71821000,0.0324,0.013523,0.002678,0.000431,0.661801
71822000,0.0324,0.013523,0.002678,0.000431,0.132572
71823000,0.0324,0.013523,0.002678,0.000431,0.133512
71824000,0.0324,0.013523,0.002678,0.000431,0.132572
71825000,0.0324,0.013523,0.002678,0.000431,0.613027
71826000,0.0324,0.013523,0.002678,0.000431,0.229533
71827000,0.0324,0.013523,0.002678,0.000431,0.280305
71828000,0.0324,0.013523,0.002678,0.000431,0.251158
71829000,0.0324,0.013523,0.002678,0.000431,0.142444
71830000,0.0324,0.013523,0.002678,0.000431,0.147263
71831000,0.0324,0.013523,0.002678,0.000431,0.107186
71832000,0.0324,0.013523,0.002678,0.000431,0.392074
71833000,0.0324,0.013523,0.002678,0.000431,0.170533
71834000,0.0324,0.013523,0.002678,0.000431,0.036786
71835000,0.0324,0.013523,0.002678,0.000431,0.028794
71836000,0.0324,0.013523,0.002678,0.000431,0.026444
71837000,0.0324,0.013523,0.002678,0.000431,0.027502
71838000,0.0324,0.013523,0.002678,0.000431,0.022565
71839000,0.0324,0.013523,0.002678,0.000431,0.021625
71840000,0.0324,0.013523,0.002678,0.000431,0.019275
71841000,0.0324,0.013523,0.002678,0.000431,0.021625
71842000,0.0324,0.013523,0.002678,0.000431,0.016689
71843000,0.0324,0.013523,0.002678,0.000431,0.016807
71844000,0.0324,0.013523,0.002678,0.000431,0.015984
71845000,0.0324,0.013523,0.002678,0.000431,0.011518
71846000,0.0324,0.013523,0.002678,0.000431,0.012105
71847000,0.0324,0.013523,0.002678,0.000431,0.012340
71848000,0.0324,0.013523,0.002678,0.000431,0.011753
71849000,0.0324,0.013523,0.002678,0.000431,0.012105
71850000,0.0324,0.013523,0.002678,0.000431,0.011518
71851000,0.0324,0.013523,0.002678,0.000431,0.012105
71852000,0.0324,0.013523,0.002678,0.000431,0.012105
71853000,0.0324,0.013523,0.002678,0.000431,0.013633
71854000,0.0324,0.013523,0.002678,0.000431,0.012576
71855000,0.0324,0.013523,0.002678,0.000431,0.010695
71856000,0.0324,0.013523,0.002678,0.000431,0.009755
71857000,0.0324,0.013523,0.002678,0.000431,0.010578
71858000,0.0324,0.013523,0.002678,0.000431,0.009990
71859000,0.0324,0.013523,0.002678,0.000431,0.010342
71860000,0.0324,0.013523,0.002678,0.000431,0.011988
71861000,0.0324,0.013523,0.002678,0.000431,0.009167
71862000,0.0324,0.013523,0.002678,0.000431,0.010695
71863000,0.0324,0.013523,0.002678,0.000431,0.008227
71864000,0.0324,0.013523,0.002678,0.000431,0.008697
71865000,0.0324,0.013523,0.002678,0.000431,0.008462
71866000,0.0324,0.013523,0.002678,0.000431,0.008580
71867000,0.0324,0.013523,0.002678,0.000431,0.008580
71868000,0.0324,0.013523,0.002678,0.000431,0.008345
71869000,0.0324,0.013523,0.002678,0.000431,0.008580
71870000,0.0324,0.013523,0.002678,0.000431,0.008462
71871000,0.0324,0.013523,0.002678,0.000431,0.008815
71872000,0.0324,0.013523,0.002678,0.000431,0.008227
71873000,0.0324,0.013523,0.002678,0.000431,0.008462
71874000,0.0324,0.013523,0.002678,0.000431,0.008580
71875000,0.0324,0.013523,0.002678,0.000431,0.008580
71876000,0.0324,0.013523,0.002678,0.000431,0.008580
71877000,0.0324,0.013523,0.002678,0.000431,0.009990
71878000,0.0324,0.013523,0.002678,0.000431,0.008697
71879000,0.0324,0.013523,0.002678,0.000431,0.006464
71880000,0.0324,0.013523,0.002678,0.000431,0.007169
71881000,0.0324,0.013523,0.002678,0.000431,0.006582
71882000,0.0324,0.013523,0.002678,0.000431,0.006934
71883000,0.0324,0.013523,0.002678,0.000431,0.006817
71884000,0.0324,0.013523,0.002678,0.000431,0.008462
71885000,0.0324,0.013523,0.002678,0.000431,0.006111
71886000,0.0324,0.013523,0.002678,0.000431,0.006817
71887000,0.0324,0.013523,0.002678,0.000431,0.005171
71888000,0.0324,0.013523,0.002678,0.000431,0.004819
71889000,0.0324,0.013523,0.002678,0.000431,0.004936
71890000,0.0324,0.013523,0.002678,0.000431,0.005406
71891000,0.0324,0.013523,0.002678,0.000431,0.005171
71892000,0.0324,0.013523,0.002678,0.000431,0.006817
71893000,0.0324,0.013523,0.002678,0.000431,0.006229
71894000,0.0324,0.013523,0.002678,0.000431,0.003291
71895000,0.0324,0.013523,0.002678,0.000431,0.003643
71896000,0.0324,0.013523,0.002678,0.000431,0.003526
71897000,0.0324,0.013523,0.002678,0.000431,0.003291
71898000,0.0324,0.013523,0.002678,0.000431,0.003291
71899000,0.0324,0.013523,0.002678,0.000431,0.003291
71900000,0.0324,0.013523,0.002678,0.000431,0.003643
71901000,0.0324,0.013523,0.002678,0.000431,0.003408
71902000,0.0324,0.013523,0.002678,0.000431,0.003173
71903000,0.0324,0.013523,0.002678,0.000431,0.003526
71904000,0.0324,0.013523,0.002678,0.000431,0.003291
71905000,0.0324,0.013523,0.002678,0.000431,0.004113
71906000,0.0324,0.013523,0.002678,0.000431,0.003173
71907000,0.0324,0.013523,0.002678,0.000431,0.004231
71908000,0.0324,0.013523,0.002678,0.000431,0.001645
71909000,0.0324,0.013523,0.002678,0.000431,0.001645
71910000,0.0324,0.013523,0.002678,0.000431,0.001763
71911000,0.0324,0.013523,0.002678,0.000431,0.001528
71912000,0.0324,0.013523,0.002678,0.000431,0.001763
71913000,0.0324,0.013523,0.002678,0.000431,0.001645
71914000,0.0324,0.013523,0.002678,0.000431,0.001645
71915000,0.0324,0.013523,0.002678,0.000431,0.001645
71916000,0.0324,0.013523,0.002678,0.000431,0.001763
71917000,0.0324,0.013523,0.002678,0.000431,0.001645
71918000,0.0324,0.013523,0.002678,0.000431,0.001763
71919000,0.0324,0.013523,0.002678,0.000431,0.001528
71920000,0.0324,0.013523,0.002678,0.000431,0.001763
71921000,0.0324,0.013523,0.002678,0.000431,0.001645
71922000,0.0324,0.013523,0.002678,0.000431,0.001645
71923000,0.0324,0.013523,0.002678,0.000431,0.001880
71924000,0.0324,0.013523,0.002678,0.000431,0.001410
71925000,0.0324,0.013523,0.002678,0.000431,0.001880
71926000,0.0324,0.013523,0.002678,0.000431,0.001528
71927000,0.0324,0.013523,0.002678,0.000431,0.002821
71928000,0.0324,0.013523,0.002678,0.000431,0.000823
71929000,0.0324,0.013523,0.002678,0.000431,0.000823
71930000,0.0324,0.013523,0.002678,0.000431,0.000940
71931000,0.0324,0.013523,0.002678,0.000431,0.000705
71932000,0.0324,0.013523,0.002678,0.000431,0.000940
71933000,0.0324,0.013523,0.002678,0.000431,0.000705
71934000,0.0324,0.013523,0.002678,0.000431,0.000940
71935000,0.0324,0.013523,0.002678,0.000431,0.000823
71936000,0.0324,0.013523,0.002678,0.000431,0.000823
71937000,0.0324,0.013523,0.002678,0.000431,0.000823
71938000,0.0324,0.013523,0.002678,0.000431,0.000823
71939000,0.0324,0.013523,0.002678,0.000431,0.000940
71940000,0.0324,0.013523,0.002678,0.000431,0.000705
71941000,0.0324,0.013523,0.002678,0.000431,0.001645
71942000,0.0324,0.013523,0.002678,0.000431,0.333663
71943000,0.0324,0.013523,0.002678,0.000431,0.654985
71944000,0.0324,0.013523,0.002678,0.000431,0.170181
71945000,0.0324,0.013523,0.002678,0.000431,0.131514
71946000,0.0324,0.013523,0.002678,0.000431,0.132689
71947000,0.0324,0.013523,0.002678,0.000431,0.594810
71948000,0.0324,0.013523,0.002678,0.000431,0.224949
71949000,0.0324,0.013523,0.002678,0.000431,0.246809
71950000,0.0324,0.013523,0.002678,0.000431,0.295701
71951000,0.0324,0.013523,0.002678,0.000431,0.142914
71952000,0.0324,0.013523,0.002678,0.000431,0.147145
71953000,0.0324,0.013523,0.002678,0.000431,0.110947
71954000,0.0324,0.013523,0.002678,0.000431,0.352232
71955000,0.0324,0.013523,0.002678,0.000431,0.253156
71956000,0.0324,0.013523,0.002678,0.000431,0.066168
71957000,0.0324,0.013523,0.002678,0.000431,0.053240
71958000,0.0324,0.013523,0.002678,0.000431,0.040900
71959000,0.0324,0.013523,0.002678,0.000431,0.034083
71960000,0.0324,0.013523,0.002678,0.000431,0.032320
71961000,0.0324,0.013523,0.002678,0.000431,0.023858
71962000,0.0324,0.013523,0.002678,0.000431,0.023976
71963000,0.0324,0.013523,0.002678,0.000431,0.022683
71964000,0.0324,0.013523,0.002678,0.000431,0.015984
71965000,0.0324,0.013523,0.002678,0.000431,0.018452
71966000,0.0324,0.013523,0.002678,0.000431,0.015514
71967000,0.0324,0.013523,0.002678,0.000431,0.018805
71968000,0.0324,0.013523,0.002678,0.000431,0.012223
71969000,0.0324,0.013523,0.002678,0.000431,0.010813
71970000,0.0324,0.013523,0.002678,0.000431,0.010460
71971000,0.0324,0.013523,0.002678,0.000431,0.009990
71972000,0.0324,0.013523,0.002678,0.000431,0.011635
71973000,0.0324,0.013523,0.002678,0.000431,0.012458
71974000,0.0324,0.013523,0.002678,0.000431,0.009050
71975000,0.0324,0.013523,0.002678,0.000431,0.008227
71976000,0.0324,0.013523,0.002678,0.000431,0.008815
71977000,0.0324,0.013523,0.002678,0.000431,0.010225
71978000,0.0324,0.013523,0.002678,0.000431,0.007992
71979000,0.0324,0.013523,0.002678,0.000431,0.007757
71980000,0.0324,0.013523,0.002678,0.000431,0.009167
71981000,0.0324,0.013523,0.002678,0.000431,0.007404
71982000,0.0324,0.013523,0.002678,0.000431,0.006347
71983000,0.0324,0.013523,0.002678,0.000431,0.007052
71984000,0.0324,0.013523,0.002678,0.000431,0.006817
71985000,0.0324,0.013523,0.002678,0.000431,0.006934
71986000,0.0324,0.013523,0.002678,0.000431,0.007287
71987000,0.0324,0.013523,0.002678,0.000431,0.005994
71988000,0.0324,0.013523,0.002678,0.000431,0.007404
71989000,0.0324,0.013523,0.002678,0.000431,0.008697
71990000,0.0324,0.013523,0.002678,0.000431,0.005994
71991000,0.0324,0.013523,0.002678,0.000431,0.005641
71992000,0.0324,0.013523,0.002678,0.000431,0.006817
71993000,0.0324,0.013523,0.002678,0.000431,0.005876
71994000,0.0324,0.013523,0.002678,0.000431,0.005171
71995000,0.0324,0.013523,0.002678,0.000431,0.005171
71996000,0.0324,0.013523,0.002678,0.000431,0.004936
71997000,0.0324,0.013523,0.002678,0.000431,0.005406
71998000,0.0324,0.013523,0.002678,0.000431,0.005054
71999000,0.0324,0.013523,0.002678,0.000431,0.005171
