Cycle,Area(mm^2),PeakDynamic(W),SubthresholdLeakage(W),GateLeakage(W),RunTimeDynamic(W)
127000000,0.0324,0.013523,0.002678,0.000431,0.224361
127001000,0.0324,0.013523,0.002678,0.000431,0.544861
127002000,0.0324,0.013523,0.002678,0.000431,0.260442
127003000,0.0324,0.013523,0.002678,0.000431,0.305338
127004000,0.0324,0.013523,0.002678,0.000431,0.225419
127005000,0.0324,0.013523,0.002678,0.000431,0.137508
127006000,0.0324,0.013523,0.002678,0.000431,0.145852
127007000,0.0324,0.013523,0.002678,0.000431,0.201796
127008000,0.0324,0.013523,0.002678,0.000431,0.392192
127009000,0.0324,0.013523,0.002678,0.000431,0.080859
127010000,0.0324,0.013523,0.002678,0.000431,0.062290
127011000,0.0324,0.013523,0.002678,0.000431,0.051947
127012000,0.0324,0.013523,0.002678,0.000431,0.045131
127013000,0.0324,0.013523,0.002678,0.000431,0.032085
127014000,0.0324,0.013523,0.002678,0.000431,0.029500
127015000,0.0324,0.013523,0.002678,0.000431,0.024093
127016000,0.0324,0.013523,0.002678,0.000431,0.026444
127017000,0.0324,0.013523,0.002678,0.000431,0.026326
127018000,0.0324,0.013523,0.002678,0.000431,0.023036
127019000,0.0324,0.013523,0.002678,0.000431,0.021860
127020000,0.0324,0.013523,0.002678,0.000431,0.016101
127021000,0.0324,0.013523,0.002678,0.000431,0.017159
127022000,0.0324,0.013523,0.002678,0.000431,0.016807
127023000,0.0324,0.013523,0.002678,0.000431,0.013163
127024000,0.0324,0.013523,0.002678,0.000431,0.015514
127025000,0.0324,0.013523,0.002678,0.000431,0.014573
127026000,0.0324,0.013523,0.002678,0.000431,0.014221
127027000,0.0324,0.013523,0.002678,0.000431,0.009990
127028000,0.0324,0.013523,0.002678,0.000431,0.009872
127029000,0.0324,0.013523,0.002678,0.000431,0.010107
127030000,0.0324,0.013523,0.002678,0.000431,0.011518
127031000,0.0324,0.013523,0.002678,0.000431,0.008815
127032000,0.0324,0.013523,0.002678,0.000431,0.007287
127033000,0.0324,0.013523,0.002678,0.000431,0.007639
127034000,0.0324,0.013523,0.002678,0.000431,0.007992
127035000,0.0324,0.013523,0.002678,0.000431,0.007522
127036000,0.0324,0.013523,0.002678,0.000431,0.007169
127037000,0.0324,0.013523,0.002678,0.000431,0.007874
127038000,0.0324,0.013523,0.002678,0.000431,0.007757
127039000,0.0324,0.013523,0.002678,0.000431,0.009050
127040000,0.0324,0.013523,0.002678,0.000431,0.006464
127041000,0.0324,0.013523,0.002678,0.000431,0.007052
127042000,0.0324,0.013523,0.002678,0.000431,0.006582
127043000,0.0324,0.013523,0.002678,0.000431,0.006817
127044000,0.0324,0.013523,0.002678,0.000431,0.006934
127045000,0.0324,0.013523,0.002678,0.000431,0.006229
127046000,0.0324,0.013523,0.002678,0.000431,0.006934
127047000,0.0324,0.013523,0.002678,0.000431,0.007992
127048000,0.0324,0.013523,0.002678,0.000431,0.005876
127049000,0.0324,0.013523,0.002678,0.000431,0.006464
127050000,0.0324,0.013523,0.002678,0.000431,0.005289
127051000,0.0324,0.013523,0.002678,0.000431,0.005994
127052000,0.0324,0.013523,0.002678,0.000431,0.005759
127053000,0.0324,0.013523,0.002678,0.000431,0.005994
127054000,0.0324,0.013523,0.002678,0.000431,0.005876
127055000,0.0324,0.013523,0.002678,0.000431,0.007404
127056000,0.0324,0.013523,0.002678,0.000431,0.005054
127057000,0.0324,0.013523,0.002678,0.000431,0.005289
127058000,0.0324,0.013523,0.002678,0.000431,0.004936
127059000,0.0324,0.013523,0.002678,0.000431,0.004936
127060000,0.0324,0.013523,0.002678,0.000431,0.006229
127061000,0.0324,0.013523,0.002678,0.000431,0.004349
127062000,0.0324,0.013523,0.002678,0.000431,0.003878
127063000,0.0324,0.013523,0.002678,0.000431,0.004584
127064000,0.0324,0.013523,0.002678,0.000431,0.004349
127065000,0.0324,0.013523,0.002678,0.000431,0.004113
127066000,0.0324,0.013523,0.002678,0.000431,0.004113
127067000,0.0324,0.013523,0.002678,0.000431,0.004231
127068000,0.0324,0.013523,0.002678,0.000431,0.004466
127069000,0.0324,0.013523,0.002678,0.000431,0.003878
127070000,0.0324,0.013523,0.002678,0.000431,0.004231
127071000,0.0324,0.013523,0.002678,0.000431,0.004701
127072000,0.0324,0.013523,0.002678,0.000431,0.004231
127073000,0.0324,0.013523,0.002678,0.000431,0.003996
127074000,0.0324,0.013523,0.002678,0.000431,0.004819
127075000,0.0324,0.013523,0.002678,0.000431,0.004584
127076000,0.0324,0.013523,0.002678,0.000431,0.003408
127077000,0.0324,0.013523,0.002678,0.000431,0.003056
127078000,0.0324,0.013523,0.002678,0.000431,0.003643
127079000,0.0324,0.013523,0.002678,0.000431,0.003526
127080000,0.0324,0.013523,0.002678,0.000431,0.003173
127081000,0.0324,0.013523,0.002678,0.000431,0.003526
127082000,0.0324,0.013523,0.002678,0.000431,0.003408
127083000,0.0324,0.013523,0.002678,0.000431,0.003408
127084000,0.0324,0.013523,0.002678,0.000431,0.003173
127085000,0.0324,0.013523,0.002678,0.000431,0.003643
127086000,0.0324,0.013523,0.002678,0.000431,0.003408
127087000,0.0324,0.013523,0.002678,0.000431,0.003408
127088000,0.0324,0.013523,0.002678,0.000431,0.003291
127089000,0.0324,0.013523,0.002678,0.000431,0.003408
127090000,0.0324,0.013523,0.002678,0.000431,0.003526
127091000,0.0324,0.013523,0.002678,0.000431,0.003291
127092000,0.0324,0.013523,0.002678,0.000431,0.003408
127093000,0.0324,0.013523,0.002678,0.000431,0.003408
127094000,0.0324,0.013523,0.002678,0.000431,0.003526
127095000,0.0324,0.013523,0.002678,0.000431,0.003291
127096000,0.0324,0.013523,0.002678,0.000431,0.003408
127097000,0.0324,0.013523,0.002678,0.000431,0.003408
127098000,0.0324,0.013523,0.002678,0.000431,0.003408
127099000,0.0324,0.013523,0.002678,0.000431,0.003526
127100000,0.0324,0.013523,0.002678,0.000431,0.003526
127101000,0.0324,0.013523,0.002678,0.000431,0.003173
127102000,0.0324,0.013523,0.002678,0.000431,0.003408
127103000,0.0324,0.013523,0.002678,0.000431,0.003408
127104000,0.0324,0.013523,0.002678,0.000431,0.003643
127105000,0.0324,0.013523,0.002678,0.000431,0.003173
127106000,0.0324,0.013523,0.002678,0.000431,0.003408
127107000,0.0324,0.013523,0.002678,0.000431,0.003526
127108000,0.0324,0.013523,0.002678,0.000431,0.004349
127109000,0.0324,0.013523,0.002678,0.000431,0.002468
127110000,0.0324,0.013523,0.002678,0.000431,0.002821
127111000,0.0324,0.013523,0.002678,0.000431,0.002468
127112000,0.0324,0.013523,0.002678,0.000431,0.002351
127113000,0.0324,0.013523,0.002678,0.000431,0.002468
127114000,0.0324,0.013523,0.002678,0.000431,0.002821
127115000,0.0324,0.013523,0.002678,0.000431,0.002468
127116000,0.0324,0.013523,0.002678,0.000431,0.002233
127117000,0.0324,0.013523,0.002678,0.000431,0.002821
127118000,0.0324,0.013523,0.002678,0.000431,0.002586
127119000,0.0324,0.013523,0.002678,0.000431,0.002468
127120000,0.0324,0.013523,0.002678,0.000431,0.002351
127121000,0.0324,0.013523,0.002678,0.000431,0.002703
127122000,0.0324,0.013523,0.002678,0.000431,0.002586
127123000,0.0324,0.013523,0.002678,0.000431,0.002468
127124000,0.0324,0.013523,0.002678,0.000431,0.002468
127125000,0.0324,0.013523,0.002678,0.000431,0.002586
127126000,0.0324,0.013523,0.002678,0.000431,0.002586
127127000,0.0324,0.013523,0.002678,0.000431,0.002468
127128000,0.0324,0.013523,0.002678,0.000431,0.002468
127129000,0.0324,0.013523,0.002678,0.000431,0.002586
127130000,0.0324,0.013523,0.002678,0.000431,0.002468
127131000,0.0324,0.013523,0.002678,0.000431,0.002586
127132000,0.0324,0.013523,0.002678,0.000431,0.002586
127133000,0.0324,0.013523,0.002678,0.000431,0.002468
127134000,0.0324,0.013523,0.002678,0.000431,0.002468
127135000,0.0324,0.013523,0.002678,0.000431,0.002468
127136000,0.0324,0.013523,0.002678,0.000431,0.002821
127137000,0.0324,0.013523,0.002678,0.000431,0.002233
127138000,0.0324,0.013523,0.002678,0.000431,0.002586
127139000,0.0324,0.013523,0.002678,0.000431,0.002703
127140000,0.0324,0.013523,0.002678,0.000431,0.002351
127141000,0.0324,0.013523,0.002678,0.000431,0.002586
127142000,0.0324,0.013523,0.002678,0.000431,0.002351
127143000,0.0324,0.013523,0.002678,0.000431,0.002821
127144000,0.0324,0.013523,0.002678,0.000431,0.002351
127145000,0.0324,0.013523,0.002678,0.000431,0.002586
127146000,0.0324,0.013523,0.002678,0.000431,0.002586
127147000,0.0324,0.013523,0.002678,0.000431,0.002586
127148000,0.0324,0.013523,0.002678,0.000431,0.002351
127149000,0.0324,0.013523,0.002678,0.000431,0.002586
127150000,0.0324,0.013523,0.002678,0.000431,0.002703
127151000,0.0324,0.013523,0.002678,0.000431,0.002468
127152000,0.0324,0.013523,0.002678,0.000431,0.002351
127153000,0.0324,0.013523,0.002678,0.000431,0.004349
127154000,0.0324,0.013523,0.002678,0.000431,0.001645
127155000,0.0324,0.013523,0.002678,0.000431,0.001645
127156000,0.0324,0.013523,0.002678,0.000431,0.001645
127157000,0.0324,0.013523,0.002678,0.000431,0.001645
127158000,0.0324,0.013523,0.002678,0.000431,0.001645
127159000,0.0324,0.013523,0.002678,0.000431,0.001410
127160000,0.0324,0.013523,0.002678,0.000431,0.001880
127161000,0.0324,0.013523,0.002678,0.000431,0.001645
127162000,0.0324,0.013523,0.002678,0.000431,0.001645
127163000,0.0324,0.013523,0.002678,0.000431,0.001645
127164000,0.0324,0.013523,0.002678,0.000431,0.001645
127165000,0.0324,0.013523,0.002678,0.000431,0.001645
127166000,0.0324,0.013523,0.002678,0.000431,0.001528
127167000,0.0324,0.013523,0.002678,0.000431,0.001763
127168000,0.0324,0.013523,0.002678,0.000431,0.001880
127169000,0.0324,0.013523,0.002678,0.000431,0.001410
127170000,0.0324,0.013523,0.002678,0.000431,0.001645
127171000,0.0324,0.013523,0.002678,0.000431,0.001645
127172000,0.0324,0.013523,0.002678,0.000431,0.001645
127173000,0.0324,0.013523,0.002678,0.000431,0.001645
127174000,0.0324,0.013523,0.002678,0.000431,0.001645
127175000,0.0324,0.013523,0.002678,0.000431,0.001880
127176000,0.0324,0.013523,0.002678,0.000431,0.001410
127177000,0.0324,0.013523,0.002678,0.000431,0.001645
127178000,0.0324,0.013523,0.002678,0.000431,0.001763
127179000,0.0324,0.013523,0.002678,0.000431,0.001763
127180000,0.0324,0.013523,0.002678,0.000431,0.001410
127181000,0.0324,0.013523,0.002678,0.000431,0.001645
127182000,0.0324,0.013523,0.002678,0.000431,0.001880
127183000,0.0324,0.013523,0.002678,0.000431,0.001645
127184000,0.0324,0.013523,0.002678,0.000431,0.001410
127185000,0.0324,0.013523,0.002678,0.000431,0.001880
127186000,0.0324,0.013523,0.002678,0.000431,0.001645
127187000,0.0324,0.013523,0.002678,0.000431,0.001645
127188000,0.0324,0.013523,0.002678,0.000431,0.001410
127189000,0.0324,0.013523,0.002678,0.000431,0.001880
127190000,0.0324,0.013523,0.002678,0.000431,0.001645
127191000,0.0324,0.013523,0.002678,0.000431,0.001410
127192000,0.0324,0.013523,0.002678,0.000431,0.001880
127193000,0.0324,0.013523,0.002678,0.000431,0.001645
127194000,0.0324,0.013523,0.002678,0.000431,0.001645
127195000,0.0324,0.013523,0.002678,0.000431,0.001528
127196000,0.0324,0.013523,0.002678,0.000431,0.001763
127197000,0.0324,0.013523,0.002678,0.000431,0.001645
127198000,0.0324,0.013523,0.002678,0.000431,0.001645
127199000,0.0324,0.013523,0.002678,0.000431,0.001645
127200000,0.0324,0.013523,0.002678,0.000431,0.001645
127201000,0.0324,0.013523,0.002678,0.000431,0.001645
127202000,0.0324,0.013523,0.002678,0.000431,0.001645
127203000,0.0324,0.013523,0.002678,0.000431,0.001645
127204000,0.0324,0.013523,0.002678,0.000431,0.001645
127205000,0.0324,0.013523,0.002678,0.000431,0.001645
127206000,0.0324,0.013523,0.002678,0.000431,0.001645
127207000,0.0324,0.013523,0.002678,0.000431,0.001763
127208000,0.0324,0.013523,0.002678,0.000431,0.001528
127209000,0.0324,0.013523,0.002678,0.000431,0.001645
127210000,0.0324,0.013523,0.002678,0.000431,0.001645
127211000,0.0324,0.013523,0.002678,0.000431,0.001880
127212000,0.0324,0.013523,0.002678,0.000431,0.001293
127213000,0.0324,0.013523,0.002678,0.000431,0.001763
127214000,0.0324,0.013523,0.002678,0.000431,0.001880
127215000,0.0324,0.013523,0.002678,0.000431,0.001645
127216000,0.0324,0.013523,0.002678,0.000431,0.001410
127217000,0.0324,0.013523,0.002678,0.000431,0.001645
127218000,0.0324,0.013523,0.002678,0.000431,0.001880
127219000,0.0324,0.013523,0.002678,0.000431,0.001645
127220000,0.0324,0.013523,0.002678,0.000431,0.001410
127221000,0.0324,0.013523,0.002678,0.000431,0.001880
127222000,0.0324,0.013523,0.002678,0.000431,0.001645
127223000,0.0324,0.013523,0.002678,0.000431,0.001410
127224000,0.0324,0.013523,0.002678,0.000431,0.001763
127225000,0.0324,0.013523,0.002678,0.000431,0.001763
127226000,0.0324,0.013523,0.002678,0.000431,0.001645
127227000,0.0324,0.013523,0.002678,0.000431,0.001410
127228000,0.0324,0.013523,0.002678,0.000431,0.001880
127229000,0.0324,0.013523,0.002678,0.000431,0.001645
127230000,0.0324,0.013523,0.002678,0.000431,0.001645
127231000,0.0324,0.013523,0.002678,0.000431,0.001645
127232000,0.0324,0.013523,0.002678,0.000431,0.001645
127233000,0.0324,0.013523,0.002678,0.000431,0.001763
127234000,0.0324,0.013523,0.002678,0.000431,0.245281
127235000,0.0324,0.013523,0.002678,0.000431,0.647698
127236000,0.0324,0.013523,0.002678,0.000431,0.294761
127237000,0.0324,0.013523,0.002678,0.000431,0.134100
127238000,0.0324,0.013523,0.002678,0.000431,0.152199
127239000,0.0324,0.013523,0.002678,0.000431,0.631361
127240000,0.0324,0.013523,0.002678,0.000431,0.266554
127241000,0.0324,0.013523,0.002678,0.000431,0.297816
127242000,0.0324,0.013523,0.002678,0.000431,0.224714
127243000,0.0324,0.013523,0.002678,0.000431,0.143267
127244000,0.0324,0.013523,0.002678,0.000431,0.137978
127245000,0.0324,0.013523,0.002678,0.000431,0.219778
127246000,0.0324,0.013523,0.002678,0.000431,0.388313
127247000,0.0324,0.013523,0.002678,0.000431,0.074160
127248000,0.0324,0.013523,0.002678,0.000431,0.064758
127249000,0.0324,0.013523,0.002678,0.000431,0.068166
127250000,0.0324,0.013523,0.002678,0.000431,0.050655
127251000,0.0324,0.013523,0.002678,0.000431,0.046306
127252000,0.0324,0.013523,0.002678,0.000431,0.033966
127253000,0.0324,0.013523,0.002678,0.000431,0.033731
127254000,0.0324,0.013523,0.002678,0.000431,0.021390
127255000,0.0324,0.013523,0.002678,0.000431,0.022095
127256000,0.0324,0.013523,0.002678,0.000431,0.017512
127257000,0.0324,0.013523,0.002678,0.000431,0.019275
127258000,0.0324,0.013523,0.002678,0.000431,0.017159
127259000,0.0324,0.013523,0.002678,0.000431,0.016689
127260000,0.0324,0.013523,0.002678,0.000431,0.007992
127261000,0.0324,0.013523,0.002678,0.000431,0.007404
127262000,0.0324,0.013523,0.002678,0.000431,0.006347
127263000,0.0324,0.013523,0.002678,0.000431,0.009402
127264000,0.0324,0.013523,0.002678,0.000431,0.005759
127265000,0.0324,0.013523,0.002678,0.000431,0.005641
127266000,0.0324,0.013523,0.002678,0.000431,0.006111
127267000,0.0324,0.013523,0.002678,0.000431,0.005876
127268000,0.0324,0.013523,0.002678,0.000431,0.005641
127269000,0.0324,0.013523,0.002678,0.000431,0.005994
127270000,0.0324,0.013523,0.002678,0.000431,0.005994
127271000,0.0324,0.013523,0.002678,0.000431,0.005759
127272000,0.0324,0.013523,0.002678,0.000431,0.005876
127273000,0.0324,0.013523,0.002678,0.000431,0.005759
127274000,0.0324,0.013523,0.002678,0.000431,0.005994
127275000,0.0324,0.013523,0.002678,0.000431,0.007169
127276000,0.0324,0.013523,0.002678,0.000431,0.005054
127277000,0.0324,0.013523,0.002678,0.000431,0.004819
127278000,0.0324,0.013523,0.002678,0.000431,0.005054
127279000,0.0324,0.013523,0.002678,0.000431,0.005289
127280000,0.0324,0.013523,0.002678,0.000431,0.004936
127281000,0.0324,0.013523,0.002678,0.000431,0.005054
127282000,0.0324,0.013523,0.002678,0.000431,0.005054
127283000,0.0324,0.013523,0.002678,0.000431,0.004819
127284000,0.0324,0.013523,0.002678,0.000431,0.005289
127285000,0.0324,0.013523,0.002678,0.000431,0.004819
127286000,0.0324,0.013523,0.002678,0.000431,0.005054
127287000,0.0324,0.013523,0.002678,0.000431,0.006699
127288000,0.0324,0.013523,0.002678,0.000431,0.006464
127289000,0.0324,0.013523,0.002678,0.000431,0.004231
127290000,0.0324,0.013523,0.002678,0.000431,0.004349
127291000,0.0324,0.013523,0.002678,0.000431,0.003996
127292000,0.0324,0.013523,0.002678,0.000431,0.004113
127293000,0.0324,0.013523,0.002678,0.000431,0.004231
127294000,0.0324,0.013523,0.002678,0.000431,0.004231
127295000,0.0324,0.013523,0.002678,0.000431,0.004113
127296000,0.0324,0.013523,0.002678,0.000431,0.004231
127297000,0.0324,0.013523,0.002678,0.000431,0.004231
127298000,0.0324,0.013523,0.002678,0.000431,0.004113
127299000,0.0324,0.013523,0.002678,0.000431,0.004349
127300000,0.0324,0.013523,0.002678,0.000431,0.004113
127301000,0.0324,0.013523,0.002678,0.000431,0.004113
127302000,0.0324,0.013523,0.002678,0.000431,0.005759
127303000,0.0324,0.013523,0.002678,0.000431,0.003291
127304000,0.0324,0.013523,0.002678,0.000431,0.003526
127305000,0.0324,0.013523,0.002678,0.000431,0.003173
127306000,0.0324,0.013523,0.002678,0.000431,0.003526
127307000,0.0324,0.013523,0.002678,0.000431,0.005406
127308000,0.0324,0.013523,0.002678,0.000431,0.002586
127309000,0.0324,0.013523,0.002678,0.000431,0.002586
127310000,0.0324,0.013523,0.002678,0.000431,0.002586
127311000,0.0324,0.013523,0.002678,0.000431,0.002586
127312000,0.0324,0.013523,0.002678,0.000431,0.002351
127313000,0.0324,0.013523,0.002678,0.000431,0.002586
127314000,0.0324,0.013523,0.002678,0.000431,0.002468
127315000,0.0324,0.013523,0.002678,0.000431,0.002586
127316000,0.0324,0.013523,0.002678,0.000431,0.002351
127317000,0.0324,0.013523,0.002678,0.000431,0.002703
127318000,0.0324,0.013523,0.002678,0.000431,0.003996
127319000,0.0324,0.013523,0.002678,0.000431,0.001763
127320000,0.0324,0.013523,0.002678,0.000431,0.001763
127321000,0.0324,0.013523,0.002678,0.000431,0.001645
127322000,0.0324,0.013523,0.002678,0.000431,0.001528
127323000,0.0324,0.013523,0.002678,0.000431,0.001763
127324000,0.0324,0.013523,0.002678,0.000431,0.001645
127325000,0.0324,0.013523,0.002678,0.000431,0.001645
127326000,0.0324,0.013523,0.002678,0.000431,0.001763
127327000,0.0324,0.013523,0.002678,0.000431,0.001528
127328000,0.0324,0.013523,0.002678,0.000431,0.003761
127329000,0.0324,0.013523,0.002678,0.000431,0.000940
127330000,0.0324,0.013523,0.002678,0.000431,0.000705
127331000,0.0324,0.013523,0.002678,0.000431,0.000940
127332000,0.0324,0.013523,0.002678,0.000431,0.000705
127333000,0.0324,0.013523,0.002678,0.000431,0.000940
127334000,0.0324,0.013523,0.002678,0.000431,0.000940
127335000,0.0324,0.013523,0.002678,0.000431,0.000705
127336000,0.0324,0.013523,0.002678,0.000431,0.000940
127337000,0.0324,0.013523,0.002678,0.000431,0.000705
127338000,0.0324,0.013523,0.002678,0.000431,0.000940
127339000,0.0324,0.013523,0.002678,0.000431,0.000823
127340000,0.0324,0.013523,0.002678,0.000431,0.000823
127341000,0.0324,0.013523,0.002678,0.000431,0.000823
127342000,0.0324,0.013523,0.002678,0.000431,0.001763
127343000,0.0324,0.013523,0.002678,0.000431,0.378558
127344000,0.0324,0.013523,0.002678,0.000431,0.703171
127345000,0.0324,0.013523,0.002678,0.000431,0.141739
127346000,0.0324,0.013523,0.002678,0.000431,0.134452
127347000,0.0324,0.013523,0.002678,0.000431,0.177820
127348000,0.0324,0.013523,0.002678,0.000431,0.569894
127349000,0.0324,0.013523,0.002678,0.000431,0.245516
127350000,0.0324,0.013523,0.002678,0.000431,0.342242
127351000,0.0324,0.013523,0.002678,0.000431,0.205909
127352000,0.0324,0.013523,0.002678,0.000431,0.137273
127353000,0.0324,0.013523,0.002678,0.000431,0.151024
127354000,0.0324,0.013523,0.002678,0.000431,0.185577
127355000,0.0324,0.013523,0.002678,0.000431,0.422044
127356000,0.0324,0.013523,0.002678,0.000431,0.081212
127357000,0.0324,0.013523,0.002678,0.000431,0.063935
127358000,0.0324,0.013523,0.002678,0.000431,0.056414
127359000,0.0324,0.013523,0.002678,0.000431,0.050890
127360000,0.0324,0.013523,0.002678,0.000431,0.043368
127361000,0.0324,0.013523,0.002678,0.000431,0.034553
127362000,0.0324,0.013523,0.002678,0.000431,0.033848
127363000,0.0324,0.013523,0.002678,0.000431,0.031027
127364000,0.0324,0.013523,0.002678,0.000431,0.028559
127365000,0.0324,0.013523,0.002678,0.000431,0.027619
127366000,0.0324,0.013523,0.002678,0.000431,0.024681
127367000,0.0324,0.013523,0.002678,0.000431,0.017159
127368000,0.0324,0.013523,0.002678,0.000431,0.016924
127369000,0.0324,0.013523,0.002678,0.000431,0.018334
127370000,0.0324,0.013523,0.002678,0.000431,0.014573
127371000,0.0324,0.013523,0.002678,0.000431,0.017277
127372000,0.0324,0.013523,0.002678,0.000431,0.013633
127373000,0.0324,0.013523,0.002678,0.000431,0.015749
127374000,0.0324,0.013523,0.002678,0.000431,0.016689
127375000,0.0324,0.013523,0.002678,0.000431,0.012105
127376000,0.0324,0.013523,0.002678,0.000431,0.014691
127377000,0.0324,0.013523,0.002678,0.000431,0.014926
127378000,0.0324,0.013523,0.002678,0.000431,0.008697
127379000,0.0324,0.013523,0.002678,0.000431,0.007757
127380000,0.0324,0.013523,0.002678,0.000431,0.006934
127381000,0.0324,0.013523,0.002678,0.000431,0.006582
127382000,0.0324,0.013523,0.002678,0.000431,0.006464
127383000,0.0324,0.013523,0.002678,0.000431,0.005171
127384000,0.0324,0.013523,0.002678,0.000431,0.005759
127385000,0.0324,0.013523,0.002678,0.000431,0.008580
127386000,0.0324,0.013523,0.002678,0.000431,0.004701
127387000,0.0324,0.013523,0.002678,0.000431,0.005054
127388000,0.0324,0.013523,0.002678,0.000431,0.004819
127389000,0.0324,0.013523,0.002678,0.000431,0.004466
127390000,0.0324,0.013523,0.002678,0.000431,0.005054
127391000,0.0324,0.013523,0.002678,0.000431,0.004936
127392000,0.0324,0.013523,0.002678,0.000431,0.004466
127393000,0.0324,0.013523,0.002678,0.000431,0.005171
127394000,0.0324,0.013523,0.002678,0.000431,0.006229
127395000,0.0324,0.013523,0.002678,0.000431,0.003408
127396000,0.0324,0.013523,0.002678,0.000431,0.004936
127397000,0.0324,0.013523,0.002678,0.000431,0.002351
127398000,0.0324,0.013523,0.002678,0.000431,0.002586
127399000,0.0324,0.013523,0.002678,0.000431,0.002586
127400000,0.0324,0.013523,0.002678,0.000431,0.002351
127401000,0.0324,0.013523,0.002678,0.000431,0.002703
127402000,0.0324,0.013523,0.002678,0.000431,0.002468
127403000,0.0324,0.013523,0.002678,0.000431,0.002468
127404000,0.0324,0.013523,0.002678,0.000431,0.002586
127405000,0.0324,0.013523,0.002678,0.000431,0.002351
127406000,0.0324,0.013523,0.002678,0.000431,0.002586
127407000,0.0324,0.013523,0.002678,0.000431,0.002703
127408000,0.0324,0.013523,0.002678,0.000431,0.003878
127409000,0.0324,0.013523,0.002678,0.000431,0.001645
127410000,0.0324,0.013523,0.002678,0.000431,0.001645
127411000,0.0324,0.013523,0.002678,0.000431,0.001645
127412000,0.0324,0.013523,0.002678,0.000431,0.001763
127413000,0.0324,0.013523,0.002678,0.000431,0.001645
127414000,0.0324,0.013523,0.002678,0.000431,0.001763
127415000,0.0324,0.013523,0.002678,0.000431,0.001645
127416000,0.0324,0.013523,0.002678,0.000431,0.001763
127417000,0.0324,0.013523,0.002678,0.000431,0.003526
127418000,0.0324,0.013523,0.002678,0.000431,0.000940
127419000,0.0324,0.013523,0.002678,0.000431,0.000823
127420000,0.0324,0.013523,0.002678,0.000431,0.000823
127421000,0.0324,0.013523,0.002678,0.000431,0.000705
127422000,0.0324,0.013523,0.002678,0.000431,0.000940
127423000,0.0324,0.013523,0.002678,0.000431,0.000940
127424000,0.0324,0.013523,0.002678,0.000431,0.000705
127425000,0.0324,0.013523,0.002678,0.000431,0.000940
127426000,0.0324,0.013523,0.002678,0.000431,0.000705
127427000,0.0324,0.013523,0.002678,0.000431,0.000940
127428000,0.0324,0.013523,0.002678,0.000431,0.000823
127429000,0.0324,0.013523,0.002678,0.000431,0.000823
127430000,0.0324,0.013523,0.002678,0.000431,0.000823
127431000,0.0324,0.013523,0.002678,0.000431,0.000823
127432000,0.0324,0.013523,0.002678,0.000431,0.000940
127433000,0.0324,0.013523,0.002678,0.000431,0.000705
127434000,0.0324,0.013523,0.002678,0.000431,0.000940
127435000,0.0324,0.013523,0.002678,0.000431,0.000823
127436000,0.0324,0.013523,0.002678,0.000431,0.000823
127437000,0.0324,0.013523,0.002678,0.000431,0.000823
127438000,0.0324,0.013523,0.002678,0.000431,0.000823
127439000,0.0324,0.013523,0.002678,0.000431,0.000940
127440000,0.0324,0.013523,0.002678,0.000431,0.013751
127441000,0.0324,0.013523,0.002678,0.000431,0.530992
127442000,0.0324,0.013523,0.002678,0.000431,0.596338
127443000,0.0324,0.013523,0.002678,0.000431,0.133982
127444000,0.0324,0.013523,0.002678,0.000431,0.132219
127445000,0.0324,0.013523,0.002678,0.000431,0.508544
127446000,0.0324,0.013523,0.002678,0.000431,0.284653
127447000,0.0324,0.013523,0.002678,0.000431,0.304280
127448000,0.0324,0.013523,0.002678,0.000431,0.314388
127449000,0.0324,0.013523,0.002678,0.000431,0.143502
127450000,0.0324,0.013523,0.002678,0.000431,0.153844
127451000,0.0324,0.013523,0.002678,0.000431,0.108831
127452000,0.0324,0.013523,0.002678,0.000431,0.414522
127453000,0.0324,0.013523,0.002678,0.000431,0.209200
127454000,0.0324,0.013523,0.002678,0.000431,0.067109
127455000,0.0324,0.013523,0.002678,0.000431,0.060292
127456000,0.0324,0.013523,0.002678,0.000431,0.050890
127457000,0.0324,0.013523,0.002678,0.000431,0.041723
127458000,0.0324,0.013523,0.002678,0.000431,0.043838
127459000,0.0324,0.013523,0.002678,0.000431,0.033966
127460000,0.0324,0.013523,0.002678,0.000431,0.031262
127461000,0.0324,0.013523,0.002678,0.000431,0.028207
127462000,0.0324,0.013523,0.002678,0.000431,0.026914
127463000,0.0324,0.013523,0.002678,0.000431,0.026914
127464000,0.0324,0.013523,0.002678,0.000431,0.024328
127465000,0.0324,0.013523,0.002678,0.000431,0.017747
127466000,0.0324,0.013523,0.002678,0.000431,0.016454
127467000,0.0324,0.013523,0.002678,0.000431,0.015866
127468000,0.0324,0.013523,0.002678,0.000431,0.015044
127469000,0.0324,0.013523,0.002678,0.000431,0.014691
127470000,0.0324,0.013523,0.002678,0.000431,0.014456
127471000,0.0324,0.013523,0.002678,0.000431,0.015161
127472000,0.0324,0.013523,0.002678,0.000431,0.014103
127473000,0.0324,0.013523,0.002678,0.000431,0.015279
127474000,0.0324,0.013523,0.002678,0.000431,0.018922
127475000,0.0324,0.013523,0.002678,0.000431,0.009990
127476000,0.0324,0.013523,0.002678,0.000431,0.010107
127477000,0.0324,0.013523,0.002678,0.000431,0.011048
127478000,0.0324,0.013523,0.002678,0.000431,0.009167
127479000,0.0324,0.013523,0.002678,0.000431,0.009167
127480000,0.0324,0.013523,0.002678,0.000431,0.009050
127481000,0.0324,0.013523,0.002678,0.000431,0.008815
127482000,0.0324,0.013523,0.002678,0.000431,0.010342
127483000,0.0324,0.013523,0.002678,0.000431,0.010813
127484000,0.0324,0.013523,0.002678,0.000431,0.006934
127485000,0.0324,0.013523,0.002678,0.000431,0.006464
127486000,0.0324,0.013523,0.002678,0.000431,0.006934
127487000,0.0324,0.013523,0.002678,0.000431,0.008109
127488000,0.0324,0.013523,0.002678,0.000431,0.007287
127489000,0.0324,0.013523,0.002678,0.000431,0.006934
127490000,0.0324,0.013523,0.002678,0.000431,0.003526
127491000,0.0324,0.013523,0.002678,0.000431,0.003526
127492000,0.0324,0.013523,0.002678,0.000431,0.003408
127493000,0.0324,0.013523,0.002678,0.000431,0.005289
127494000,0.0324,0.013523,0.002678,0.000431,0.002468
127495000,0.0324,0.013523,0.002678,0.000431,0.002703
127496000,0.0324,0.013523,0.002678,0.000431,0.002468
127497000,0.0324,0.013523,0.002678,0.000431,0.002468
127498000,0.0324,0.013523,0.002678,0.000431,0.002468
127499000,0.0324,0.013523,0.002678,0.000431,0.002586
127500000,0.0324,0.013523,0.002678,0.000431,0.002468
127501000,0.0324,0.013523,0.002678,0.000431,0.002586
127502000,0.0324,0.013523,0.002678,0.000431,0.002586
127503000,0.0324,0.013523,0.002678,0.000431,0.005876
127504000,0.0324,0.013523,0.002678,0.000431,0.001058
127505000,0.0324,0.013523,0.002678,0.000431,0.000705
127506000,0.0324,0.013523,0.002678,0.000431,0.000940
127507000,0.0324,0.013523,0.002678,0.000431,0.000823
127508000,0.0324,0.013523,0.002678,0.000431,0.000823
127509000,0.0324,0.013523,0.002678,0.000431,0.000823
127510000,0.0324,0.013523,0.002678,0.000431,0.000823
127511000,0.0324,0.013523,0.002678,0.000431,0.000823
127512000,0.0324,0.013523,0.002678,0.000431,0.000823
127513000,0.0324,0.013523,0.002678,0.000431,0.000823
127514000,0.0324,0.013523,0.002678,0.000431,0.000823
127515000,0.0324,0.013523,0.002678,0.000431,0.000940
127516000,0.0324,0.013523,0.002678,0.000431,0.000823
127517000,0.0324,0.013523,0.002678,0.000431,0.000823
127518000,0.0324,0.013523,0.002678,0.000431,0.000705
127519000,0.0324,0.013523,0.002678,0.000431,0.000940
127520000,0.0324,0.013523,0.002678,0.000431,0.000940
127521000,0.0324,0.013523,0.002678,0.000431,0.000705
127522000,0.0324,0.013523,0.002678,0.000431,0.000940
127523000,0.0324,0.013523,0.002678,0.000431,0.000705
127524000,0.0324,0.013523,0.002678,0.000431,0.000940
127525000,0.0324,0.013523,0.002678,0.000431,0.000823
127526000,0.0324,0.013523,0.002678,0.000431,0.000823
127527000,0.0324,0.013523,0.002678,0.000431,0.000940
127528000,0.0324,0.013523,0.002678,0.000431,0.000705
127529000,0.0324,0.013523,0.002678,0.000431,0.000940
127530000,0.0324,0.013523,0.002678,0.000431,0.000823
127531000,0.0324,0.013523,0.002678,0.000431,0.000823
127532000,0.0324,0.013523,0.002678,0.000431,0.000823
127533000,0.0324,0.013523,0.002678,0.000431,0.000823
127534000,0.0324,0.013523,0.002678,0.000431,0.000940
127535000,0.0324,0.013523,0.002678,0.000431,0.000705
127536000,0.0324,0.013523,0.002678,0.000431,0.000940
127537000,0.0324,0.013523,0.002678,0.000431,0.000823
127538000,0.0324,0.013523,0.002678,0.000431,0.000823
127539000,0.0324,0.013523,0.002678,0.000431,0.000823
127540000,0.0324,0.013523,0.002678,0.000431,0.000823
127541000,0.0324,0.013523,0.002678,0.000431,0.000705
127542000,0.0324,0.013523,0.002678,0.000431,0.000940
127543000,0.0324,0.013523,0.002678,0.000431,0.000940
127544000,0.0324,0.013523,0.002678,0.000431,0.000705
127545000,0.0324,0.013523,0.002678,0.000431,0.000940
127546000,0.0324,0.013523,0.002678,0.000431,0.000705
127547000,0.0324,0.013523,0.002678,0.000431,0.000940
127548000,0.0324,0.013523,0.002678,0.000431,0.000823
127549000,0.0324,0.013523,0.002678,0.000431,0.000823
127550000,0.0324,0.013523,0.002678,0.000431,0.000940
127551000,0.0324,0.013523,0.002678,0.000431,0.000705
127552000,0.0324,0.013523,0.002678,0.000431,0.000940
127553000,0.0324,0.013523,0.002678,0.000431,0.000823
127554000,0.0324,0.013523,0.002678,0.000431,0.000823
127555000,0.0324,0.013523,0.002678,0.000431,0.000823
127556000,0.0324,0.013523,0.002678,0.000431,0.000823
127557000,0.0324,0.013523,0.002678,0.000431,0.000823
127558000,0.0324,0.013523,0.002678,0.000431,0.000823
127559000,0.0324,0.013523,0.002678,0.000431,0.000940
127560000,0.0324,0.013523,0.002678,0.000431,0.000705
127561000,0.0324,0.013523,0.002678,0.000431,0.000823
127562000,0.0324,0.013523,0.002678,0.000431,0.000823
127563000,0.0324,0.013523,0.002678,0.000431,0.000940
127564000,0.0324,0.013523,0.002678,0.000431,0.000823
127565000,0.0324,0.013523,0.002678,0.000431,0.000823
127566000,0.0324,0.013523,0.002678,0.000431,0.000705
127567000,0.0324,0.013523,0.002678,0.000431,0.000940
127568000,0.0324,0.013523,0.002678,0.000431,0.000940
127569000,0.0324,0.013523,0.002678,0.000431,0.000705
127570000,0.0324,0.013523,0.002678,0.000431,0.000940
127571000,0.0324,0.013523,0.002678,0.000431,0.000705
127572000,0.0324,0.013523,0.002678,0.000431,0.000940
127573000,0.0324,0.013523,0.002678,0.000431,0.000823
127574000,0.0324,0.013523,0.002678,0.000431,0.000823
127575000,0.0324,0.013523,0.002678,0.000431,0.000940
127576000,0.0324,0.013523,0.002678,0.000431,0.000705
127577000,0.0324,0.013523,0.002678,0.000431,0.000940
127578000,0.0324,0.013523,0.002678,0.000431,0.000823
127579000,0.0324,0.013523,0.002678,0.000431,0.000823
127580000,0.0324,0.013523,0.002678,0.000431,0.000823
127581000,0.0324,0.013523,0.002678,0.000431,0.000823
127582000,0.0324,0.013523,0.002678,0.000431,0.000823
127583000,0.0324,0.013523,0.002678,0.000431,0.000823
127584000,0.0324,0.013523,0.002678,0.000431,0.000940
127585000,0.0324,0.013523,0.002678,0.000431,0.000705
127586000,0.0324,0.013523,0.002678,0.000431,0.000940
127587000,0.0324,0.013523,0.002678,0.000431,0.000823
127588000,0.0324,0.013523,0.002678,0.000431,0.000823
127589000,0.0324,0.013523,0.002678,0.000431,0.000823
127590000,0.0324,0.013523,0.002678,0.000431,0.000823
127591000,0.0324,0.013523,0.002678,0.000431,0.000940
127592000,0.0324,0.013523,0.002678,0.000431,0.000705
127593000,0.0324,0.013523,0.002678,0.000431,0.000940
127594000,0.0324,0.013523,0.002678,0.000431,0.000705
127595000,0.0324,0.013523,0.002678,0.000431,0.000940
127596000,0.0324,0.013523,0.002678,0.000431,0.000823
127597000,0.0324,0.013523,0.002678,0.000431,0.000823
127598000,0.0324,0.013523,0.002678,0.000431,0.000940
127599000,0.0324,0.013523,0.002678,0.000431,0.000705
127600000,0.0324,0.013523,0.002678,0.000431,0.000940
127601000,0.0324,0.013523,0.002678,0.000431,0.000823
127602000,0.0324,0.013523,0.002678,0.000431,0.000823
127603000,0.0324,0.013523,0.002678,0.000431,0.000823
127604000,0.0324,0.013523,0.002678,0.000431,0.000823
127605000,0.0324,0.013523,0.002678,0.000431,0.000823
127606000,0.0324,0.013523,0.002678,0.000431,0.000823
127607000,0.0324,0.013523,0.002678,0.000431,0.000940
127608000,0.0324,0.013523,0.002678,0.000431,0.000705
127609000,0.0324,0.013523,0.002678,0.000431,0.000940
127610000,0.0324,0.013523,0.002678,0.000431,0.071105
127611000,0.0324,0.013523,0.002678,0.000431,0.506311
127612000,0.0324,0.013523,0.002678,0.000431,0.593635
127613000,0.0324,0.013523,0.002678,0.000431,0.133159
127614000,0.0324,0.013523,0.002678,0.000431,0.131984
127615000,0.0324,0.013523,0.002678,0.000431,0.544978
127616000,0.0324,0.013523,0.002678,0.000431,0.225889
127617000,0.0324,0.013523,0.002678,0.000431,0.246574
127618000,0.0324,0.013523,0.002678,0.000431,0.316033
127619000,0.0324,0.013523,0.002678,0.000431,0.137273
127620000,0.0324,0.013523,0.002678,0.000431,0.149143
127621000,0.0324,0.013523,0.002678,0.000431,0.138213
127622000,0.0324,0.013523,0.002678,0.000431,0.243048
127623000,0.0324,0.013523,0.002678,0.000431,0.359401
127624000,0.0324,0.013523,0.002678,0.000431,0.052888
127625000,0.0324,0.013523,0.002678,0.000431,0.046894
127626000,0.0324,0.013523,0.002678,0.000431,0.043603
127627000,0.0324,0.013523,0.002678,0.000431,0.035729
127628000,0.0324,0.013523,0.002678,0.000431,0.034083
127629000,0.0324,0.013523,0.002678,0.000431,0.035611
127630000,0.0324,0.013523,0.002678,0.000431,0.026209
127631000,0.0324,0.013523,0.002678,0.000431,0.025151
127632000,0.0324,0.013523,0.002678,0.000431,0.024328
127633000,0.0324,0.013523,0.002678,0.000431,0.022918
127634000,0.0324,0.013523,0.002678,0.000431,0.022213
127635000,0.0324,0.013523,0.002678,0.000431,0.021978
127636000,0.0324,0.013523,0.002678,0.000431,0.023271
127637000,0.0324,0.013523,0.002678,0.000431,0.022095
127638000,0.0324,0.013523,0.002678,0.000431,0.021978
127639000,0.0324,0.013523,0.002678,0.000431,0.018099
127640000,0.0324,0.013523,0.002678,0.000431,0.019040
127641000,0.0324,0.013523,0.002678,0.000431,0.017747
127642000,0.0324,0.013523,0.002678,0.000431,0.018922
127643000,0.0324,0.013523,0.002678,0.000431,0.015984
127644000,0.0324,0.013523,0.002678,0.000431,0.017864
127645000,0.0324,0.013523,0.002678,0.000431,0.015631
127646000,0.0324,0.013523,0.002678,0.000431,0.016336
127647000,0.0324,0.013523,0.002678,0.000431,0.014809
127648000,0.0324,0.013523,0.002678,0.000431,0.013751
127649000,0.0324,0.013523,0.002678,0.000431,0.014338
127650000,0.0324,0.013523,0.002678,0.000431,0.013633
127651000,0.0324,0.013523,0.002678,0.000431,0.014456
127652000,0.0324,0.013523,0.002678,0.000431,0.014338
127653000,0.0324,0.013523,0.002678,0.000431,0.013633
127654000,0.0324,0.013523,0.002678,0.000431,0.016336
127655000,0.0324,0.013523,0.002678,0.000431,0.012458
127656000,0.0324,0.013523,0.002678,0.000431,0.015161
127657000,0.0324,0.013523,0.002678,0.000431,0.013751
127658000,0.0324,0.013523,0.002678,0.000431,0.008815
127659000,0.0324,0.013523,0.002678,0.000431,0.011635
127660000,0.0324,0.013523,0.002678,0.000431,0.007287
127661000,0.0324,0.013523,0.002678,0.000431,0.006229
127662000,0.0324,0.013523,0.002678,0.000431,0.008109
127663000,0.0324,0.013523,0.002678,0.000431,0.005524
127664000,0.0324,0.013523,0.002678,0.000431,0.005641
127665000,0.0324,0.013523,0.002678,0.000431,0.006464
127666000,0.0324,0.013523,0.002678,0.000431,0.005054
127667000,0.0324,0.013523,0.002678,0.000431,0.006111
127668000,0.0324,0.013523,0.002678,0.000431,0.005524
127669000,0.0324,0.013523,0.002678,0.000431,0.005994
127670000,0.0324,0.013523,0.002678,0.000431,0.005876
127671000,0.0324,0.013523,0.002678,0.000431,0.005524
127672000,0.0324,0.013523,0.002678,0.000431,0.006817
127673000,0.0324,0.013523,0.002678,0.000431,0.004819
127674000,0.0324,0.013523,0.002678,0.000431,0.005289
127675000,0.0324,0.013523,0.002678,0.000431,0.004701
127676000,0.0324,0.013523,0.002678,0.000431,0.007404
127677000,0.0324,0.013523,0.002678,0.000431,0.006817
127678000,0.0324,0.013523,0.002678,0.000431,0.003291
127679000,0.0324,0.013523,0.002678,0.000431,0.003291
127680000,0.0324,0.013523,0.002678,0.000431,0.003291
127681000,0.0324,0.013523,0.002678,0.000431,0.003056
127682000,0.0324,0.013523,0.002678,0.000431,0.003408
127683000,0.0324,0.013523,0.002678,0.000431,0.003056
127684000,0.0324,0.013523,0.002678,0.000431,0.003408
127685000,0.0324,0.013523,0.002678,0.000431,0.003408
127686000,0.0324,0.013523,0.002678,0.000431,0.002821
127687000,0.0324,0.013523,0.002678,0.000431,0.003526
127688000,0.0324,0.013523,0.002678,0.000431,0.003291
127689000,0.0324,0.013523,0.002678,0.000431,0.003291
127690000,0.0324,0.013523,0.002678,0.000431,0.003291
127691000,0.0324,0.013523,0.002678,0.000431,0.003056
127692000,0.0324,0.013523,0.002678,0.000431,0.003291
127693000,0.0324,0.013523,0.002678,0.000431,0.003408
127694000,0.0324,0.013523,0.002678,0.000431,0.003173
127695000,0.0324,0.013523,0.002678,0.000431,0.003291
127696000,0.0324,0.013523,0.002678,0.000431,0.003173
127697000,0.0324,0.013523,0.002678,0.000431,0.003173
127698000,0.0324,0.013523,0.002678,0.000431,0.003643
127699000,0.0324,0.013523,0.002678,0.000431,0.002938
127700000,0.0324,0.013523,0.002678,0.000431,0.003408
127701000,0.0324,0.013523,0.002678,0.000431,0.002938
127702000,0.0324,0.013523,0.002678,0.000431,0.003408
127703000,0.0324,0.013523,0.002678,0.000431,0.003526
127704000,0.0324,0.013523,0.002678,0.000431,0.002938
127705000,0.0324,0.013523,0.002678,0.000431,0.002938
127706000,0.0324,0.013523,0.002678,0.000431,0.003173
127707000,0.0324,0.013523,0.002678,0.000431,0.003526
127708000,0.0324,0.013523,0.002678,0.000431,0.003173
127709000,0.0324,0.013523,0.002678,0.000431,0.003173
127710000,0.0324,0.013523,0.002678,0.000431,0.003408
127711000,0.0324,0.013523,0.002678,0.000431,0.003173
127712000,0.0324,0.013523,0.002678,0.000431,0.003173
127713000,0.0324,0.013523,0.002678,0.000431,0.003408
127714000,0.0324,0.013523,0.002678,0.000431,0.004113
127715000,0.0324,0.013523,0.002678,0.000431,0.001763
127716000,0.0324,0.013523,0.002678,0.000431,0.001645
127717000,0.0324,0.013523,0.002678,0.000431,0.001763
127718000,0.0324,0.013523,0.002678,0.000431,0.001645
127719000,0.0324,0.013523,0.002678,0.000431,0.001528
127720000,0.0324,0.013523,0.002678,0.000431,0.001763
127721000,0.0324,0.013523,0.002678,0.000431,0.004584
127722000,0.0324,0.013523,0.002678,0.000431,0.001058
127723000,0.0324,0.013523,0.002678,0.000431,0.000705
127724000,0.0324,0.013523,0.002678,0.000431,0.000940
127725000,0.0324,0.013523,0.002678,0.000431,0.000823
127726000,0.0324,0.013523,0.002678,0.000431,0.000823
127727000,0.0324,0.013523,0.002678,0.000431,0.000823
127728000,0.0324,0.013523,0.002678,0.000431,0.000823
127729000,0.0324,0.013523,0.002678,0.000431,0.002351
127730000,0.0324,0.013523,0.002678,0.000431,0.390781
127731000,0.0324,0.013523,0.002678,0.000431,0.679548
127732000,0.0324,0.013523,0.002678,0.000431,0.141034
127733000,0.0324,0.013523,0.002678,0.000431,0.133982
127734000,0.0324,0.013523,0.002678,0.000431,0.204499
127735000,0.0324,0.013523,0.002678,0.000431,0.616670
127736000,0.0324,0.013523,0.002678,0.000431,0.239405
127737000,0.0324,0.013523,0.002678,0.000431,0.314505
127738000,0.0324,0.013523,0.002678,0.000431,0.191336
127739000,0.0324,0.013523,0.002678,0.000431,0.143267
127740000,0.0324,0.013523,0.002678,0.000431,0.125403
127741000,0.0324,0.013523,0.002678,0.000431,0.266671
127742000,0.0324,0.013523,0.002678,0.000431,0.380556
127743000,0.0324,0.013523,0.002678,0.000431,0.102250
127744000,0.0324,0.013523,0.002678,0.000431,0.084620
127745000,0.0324,0.013523,0.002678,0.000431,0.074748
127746000,0.0324,0.013523,0.002678,0.000431,0.067226
127747000,0.0324,0.013523,0.002678,0.000431,0.060057
127748000,0.0324,0.013523,0.002678,0.000431,0.053240
127749000,0.0324,0.013523,0.002678,0.000431,0.038079
127750000,0.0324,0.013523,0.002678,0.000431,0.029500
127751000,0.0324,0.013523,0.002678,0.000431,0.032908
127752000,0.0324,0.013523,0.002678,0.000431,0.033378
127753000,0.0324,0.013523,0.002678,0.000431,0.030087
127754000,0.0324,0.013523,0.002678,0.000431,0.024916
127755000,0.0324,0.013523,0.002678,0.000431,0.025151
127756000,0.0324,0.013523,0.002678,0.000431,0.020215
127757000,0.0324,0.013523,0.002678,0.000431,0.012576
127758000,0.0324,0.013523,0.002678,0.000431,0.014926
127759000,0.0324,0.013523,0.002678,0.000431,0.011518
127760000,0.0324,0.013523,0.002678,0.000431,0.016689
127761000,0.0324,0.013523,0.002678,0.000431,0.009402
127762000,0.0324,0.013523,0.002678,0.000431,0.008815
127763000,0.0324,0.013523,0.002678,0.000431,0.007639
127764000,0.0324,0.013523,0.002678,0.000431,0.009872
127765000,0.0324,0.013523,0.002678,0.000431,0.009050
127766000,0.0324,0.013523,0.002678,0.000431,0.006111
127767000,0.0324,0.013523,0.002678,0.000431,0.006817
127768000,0.0324,0.013523,0.002678,0.000431,0.005876
127769000,0.0324,0.013523,0.002678,0.000431,0.006699
127770000,0.0324,0.013523,0.002678,0.000431,0.006582
127771000,0.0324,0.013523,0.002678,0.000431,0.005759
127772000,0.0324,0.013523,0.002678,0.000431,0.006464
127773000,0.0324,0.013523,0.002678,0.000431,0.008697
127774000,0.0324,0.013523,0.002678,0.000431,0.005054
127775000,0.0324,0.013523,0.002678,0.000431,0.006464
127776000,0.0324,0.013523,0.002678,0.000431,0.004819
127777000,0.0324,0.013523,0.002678,0.000431,0.005994
127778000,0.0324,0.013523,0.002678,0.000431,0.005524
127779000,0.0324,0.013523,0.002678,0.000431,0.005641
127780000,0.0324,0.013523,0.002678,0.000431,0.005406
127781000,0.0324,0.013523,0.002678,0.000431,0.005289
127782000,0.0324,0.013523,0.002678,0.000431,0.004819
127783000,0.0324,0.013523,0.002678,0.000431,0.005054
127784000,0.0324,0.013523,0.002678,0.000431,0.004466
127785000,0.0324,0.013523,0.002678,0.000431,0.005171
127786000,0.0324,0.013523,0.002678,0.000431,0.004466
127787000,0.0324,0.013523,0.002678,0.000431,0.004936
127788000,0.0324,0.013523,0.002678,0.000431,0.005171
127789000,0.0324,0.013523,0.002678,0.000431,0.004231
127790000,0.0324,0.013523,0.002678,0.000431,0.004584
127791000,0.0324,0.013523,0.002678,0.000431,0.003996
127792000,0.0324,0.013523,0.002678,0.000431,0.004231
127793000,0.0324,0.013523,0.002678,0.000431,0.004113
127794000,0.0324,0.013523,0.002678,0.000431,0.003878
127795000,0.0324,0.013523,0.002678,0.000431,0.004231
127796000,0.0324,0.013523,0.002678,0.000431,0.004113
127797000,0.0324,0.013523,0.002678,0.000431,0.003878
127798000,0.0324,0.013523,0.002678,0.000431,0.004349
127799000,0.0324,0.013523,0.002678,0.000431,0.003761
127800000,0.0324,0.013523,0.002678,0.000431,0.004231
127801000,0.0324,0.013523,0.002678,0.000431,0.003878
127802000,0.0324,0.013523,0.002678,0.000431,0.004349
127803000,0.0324,0.013523,0.002678,0.000431,0.004231
127804000,0.0324,0.013523,0.002678,0.000431,0.003878
127805000,0.0324,0.013523,0.002678,0.000431,0.004349
127806000,0.0324,0.013523,0.002678,0.000431,0.003878
127807000,0.0324,0.013523,0.002678,0.000431,0.004231
127808000,0.0324,0.013523,0.002678,0.000431,0.003996
127809000,0.0324,0.013523,0.002678,0.000431,0.004231
127810000,0.0324,0.013523,0.002678,0.000431,0.004113
127811000,0.0324,0.013523,0.002678,0.000431,0.004113
127812000,0.0324,0.013523,0.002678,0.000431,0.003878
127813000,0.0324,0.013523,0.002678,0.000431,0.005054
127814000,0.0324,0.013523,0.002678,0.000431,0.002586
127815000,0.0324,0.013523,0.002678,0.000431,0.002351
127816000,0.0324,0.013523,0.002678,0.000431,0.002821
127817000,0.0324,0.013523,0.002678,0.000431,0.002116
127818000,0.0324,0.013523,0.002678,0.000431,0.002821
127819000,0.0324,0.013523,0.002678,0.000431,0.002351
127820000,0.0324,0.013523,0.002678,0.000431,0.002586
127821000,0.0324,0.013523,0.002678,0.000431,0.002351
127822000,0.0324,0.013523,0.002678,0.000431,0.002586
127823000,0.0324,0.013523,0.002678,0.000431,0.002703
127824000,0.0324,0.013523,0.002678,0.000431,0.002233
127825000,0.0324,0.013523,0.002678,0.000431,0.002821
127826000,0.0324,0.013523,0.002678,0.000431,0.002233
127827000,0.0324,0.013523,0.002678,0.000431,0.002703
127828000,0.0324,0.013523,0.002678,0.000431,0.002233
127829000,0.0324,0.013523,0.002678,0.000431,0.002703
127830000,0.0324,0.013523,0.002678,0.000431,0.002233
127831000,0.0324,0.013523,0.002678,0.000431,0.002703
127832000,0.0324,0.013523,0.002678,0.000431,0.002468
127833000,0.0324,0.013523,0.002678,0.000431,0.002586
127834000,0.0324,0.013523,0.002678,0.000431,0.004231
127835000,0.0324,0.013523,0.002678,0.000431,0.001528
127836000,0.0324,0.013523,0.002678,0.000431,0.001763
127837000,0.0324,0.013523,0.002678,0.000431,0.001528
127838000,0.0324,0.013523,0.002678,0.000431,0.001763
127839000,0.0324,0.013523,0.002678,0.000431,0.001763
127840000,0.0324,0.013523,0.002678,0.000431,0.001528
127841000,0.0324,0.013523,0.002678,0.000431,0.001880
127842000,0.0324,0.013523,0.002678,0.000431,0.001410
127843000,0.0324,0.013523,0.002678,0.000431,0.001880
127844000,0.0324,0.013523,0.002678,0.000431,0.001645
127845000,0.0324,0.013523,0.002678,0.000431,0.001645
127846000,0.0324,0.013523,0.002678,0.000431,0.001763
127847000,0.0324,0.013523,0.002678,0.000431,0.001528
127848000,0.0324,0.013523,0.002678,0.000431,0.001880
127849000,0.0324,0.013523,0.002678,0.000431,0.001528
127850000,0.0324,0.013523,0.002678,0.000431,0.001645
127851000,0.0324,0.013523,0.002678,0.000431,0.001763
127852000,0.0324,0.013523,0.002678,0.000431,0.001645
127853000,0.0324,0.013523,0.002678,0.000431,0.001763
127854000,0.0324,0.013523,0.002678,0.000431,0.001528
127855000,0.0324,0.013523,0.002678,0.000431,0.001763
127856000,0.0324,0.013523,0.002678,0.000431,0.001645
127857000,0.0324,0.013523,0.002678,0.000431,0.001763
127858000,0.0324,0.013523,0.002678,0.000431,0.001528
127859000,0.0324,0.013523,0.002678,0.000431,0.001763
127860000,0.0324,0.013523,0.002678,0.000431,0.001410
127861000,0.0324,0.013523,0.002678,0.000431,0.001880
127862000,0.0324,0.013523,0.002678,0.000431,0.001880
127863000,0.0324,0.013523,0.002678,0.000431,0.001410
127864000,0.0324,0.013523,0.002678,0.000431,0.001880
127865000,0.0324,0.013523,0.002678,0.000431,0.001410
127866000,0.0324,0.013523,0.002678,0.000431,0.001880
127867000,0.0324,0.013523,0.002678,0.000431,0.001763
127868000,0.0324,0.013523,0.002678,0.000431,0.001528
127869000,0.0324,0.013523,0.002678,0.000431,0.001763
127870000,0.0324,0.013523,0.002678,0.000431,0.001528
127871000,0.0324,0.013523,0.002678,0.000431,0.001880
127872000,0.0324,0.013523,0.002678,0.000431,0.001528
127873000,0.0324,0.013523,0.002678,0.000431,0.001763
127874000,0.0324,0.013523,0.002678,0.000431,0.001645
127875000,0.0324,0.013523,0.002678,0.000431,0.001645
127876000,0.0324,0.013523,0.002678,0.000431,0.001763
127877000,0.0324,0.013523,0.002678,0.000431,0.001528
127878000,0.0324,0.013523,0.002678,0.000431,0.001645
127879000,0.0324,0.013523,0.002678,0.000431,0.001763
127880000,0.0324,0.013523,0.002678,0.000431,0.001645
127881000,0.0324,0.013523,0.002678,0.000431,0.001645
127882000,0.0324,0.013523,0.002678,0.000431,0.001763
127883000,0.0324,0.013523,0.002678,0.000431,0.001528
127884000,0.0324,0.013523,0.002678,0.000431,0.001763
127885000,0.0324,0.013523,0.002678,0.000431,0.001763
127886000,0.0324,0.013523,0.002678,0.000431,0.001645
127887000,0.0324,0.013523,0.002678,0.000431,0.003761
127888000,0.0324,0.013523,0.002678,0.000431,0.000823
127889000,0.0324,0.013523,0.002678,0.000431,0.000823
127890000,0.0324,0.013523,0.002678,0.000431,0.000705
127891000,0.0324,0.013523,0.002678,0.000431,0.000940
127892000,0.0324,0.013523,0.002678,0.000431,0.000940
127893000,0.0324,0.013523,0.002678,0.000431,0.000705
127894000,0.0324,0.013523,0.002678,0.000431,0.000940
127895000,0.0324,0.013523,0.002678,0.000431,0.000705
127896000,0.0324,0.013523,0.002678,0.000431,0.000940
127897000,0.0324,0.013523,0.002678,0.000431,0.000823
127898000,0.0324,0.013523,0.002678,0.000431,0.000823
127899000,0.0324,0.013523,0.002678,0.000431,0.000940
127900000,0.0324,0.013523,0.002678,0.000431,0.000705
127901000,0.0324,0.013523,0.002678,0.000431,0.000940
127902000,0.0324,0.013523,0.002678,0.000431,0.000823
127903000,0.0324,0.013523,0.002678,0.000431,0.000823
127904000,0.0324,0.013523,0.002678,0.000431,0.000823
127905000,0.0324,0.013523,0.002678,0.000431,0.000823
127906000,0.0324,0.013523,0.002678,0.000431,0.000823
127907000,0.0324,0.013523,0.002678,0.000431,0.000823
127908000,0.0324,0.013523,0.002678,0.000431,0.000940
127909000,0.0324,0.013523,0.002678,0.000431,0.000705
127910000,0.0324,0.013523,0.002678,0.000431,0.000940
127911000,0.0324,0.013523,0.002678,0.000431,0.000823
127912000,0.0324,0.013523,0.002678,0.000431,0.000823
127913000,0.0324,0.013523,0.002678,0.000431,0.000705
127914000,0.0324,0.013523,0.002678,0.000431,0.000940
127915000,0.0324,0.013523,0.002678,0.000431,0.000940
127916000,0.0324,0.013523,0.002678,0.000431,0.000705
127917000,0.0324,0.013523,0.002678,0.000431,0.000940
127918000,0.0324,0.013523,0.002678,0.000431,0.000705
127919000,0.0324,0.013523,0.002678,0.000431,0.000940
127920000,0.0324,0.013523,0.002678,0.000431,0.000823
127921000,0.0324,0.013523,0.002678,0.000431,0.000823
127922000,0.0324,0.013523,0.002678,0.000431,0.000823
127923000,0.0324,0.013523,0.002678,0.000431,0.000823
127924000,0.0324,0.013523,0.002678,0.000431,0.000823
127925000,0.0324,0.013523,0.002678,0.000431,0.000823
127926000,0.0324,0.013523,0.002678,0.000431,0.000940
127927000,0.0324,0.013523,0.002678,0.000431,0.000705
127928000,0.0324,0.013523,0.002678,0.000431,0.000823
127929000,0.0324,0.013523,0.002678,0.000431,0.000940
127930000,0.0324,0.013523,0.002678,0.000431,0.071457
127931000,0.0324,0.013523,0.002678,0.000431,0.546859
127932000,0.0324,0.013523,0.002678,0.000431,0.586113
127933000,0.0324,0.013523,0.002678,0.000431,0.132572
127934000,0.0324,0.013523,0.002678,0.000431,0.133512
127935000,0.0324,0.013523,0.002678,0.000431,0.623487
127936000,0.0324,0.013523,0.002678,0.000431,0.233293
127937000,0.0324,0.013523,0.002678,0.000431,0.232471
127938000,0.0324,0.013523,0.002678,0.000431,0.268904
127939000,0.0324,0.013523,0.002678,0.000431,0.137861
127940000,0.0324,0.013523,0.002678,0.000431,0.153022
127941000,0.0324,0.013523,0.002678,0.000431,0.121407
127942000,0.0324,0.013523,0.002678,0.000431,0.319442
127943000,0.0324,0.013523,0.002678,0.000431,0.318971
127944000,0.0324,0.013523,0.002678,0.000431,0.081447
127945000,0.0324,0.013523,0.002678,0.000431,0.065228
127946000,0.0324,0.013523,0.002678,0.000431,0.060645
127947000,0.0324,0.013523,0.002678,0.000431,0.039019
127948000,0.0324,0.013523,0.002678,0.000431,0.040547
127949000,0.0324,0.013523,0.002678,0.000431,0.030792
127950000,0.0324,0.013523,0.002678,0.000431,0.021390
127951000,0.0324,0.013523,0.002678,0.000431,0.018334
127952000,0.0324,0.013523,0.002678,0.000431,0.011400
127953000,0.0324,0.013523,0.002678,0.000431,0.008815
127954000,0.0324,0.013523,0.002678,0.000431,0.009520
127955000,0.0324,0.013523,0.002678,0.000431,0.010460
127956000,0.0324,0.013523,0.002678,0.000431,0.007874
127957000,0.0324,0.013523,0.002678,0.000431,0.003996
127958000,0.0324,0.013523,0.002678,0.000431,0.004231
127959000,0.0324,0.013523,0.002678,0.000431,0.004113
127960000,0.0324,0.013523,0.002678,0.000431,0.005054
127961000,0.0324,0.013523,0.002678,0.000431,0.004701
127962000,0.0324,0.013523,0.002678,0.000431,0.005641
127963000,0.0324,0.013523,0.002678,0.000431,0.001528
127964000,0.0324,0.013523,0.002678,0.000431,0.001763
127965000,0.0324,0.013523,0.002678,0.000431,0.003408
127966000,0.0324,0.013523,0.002678,0.000431,0.000940
127967000,0.0324,0.013523,0.002678,0.000431,0.000823
127968000,0.0324,0.013523,0.002678,0.000431,0.000823
127969000,0.0324,0.013523,0.002678,0.000431,0.000823
127970000,0.0324,0.013523,0.002678,0.000431,0.000823
127971000,0.0324,0.013523,0.002678,0.000431,0.000940
127972000,0.0324,0.013523,0.002678,0.000431,0.000705
127973000,0.0324,0.013523,0.002678,0.000431,0.000940
127974000,0.0324,0.013523,0.002678,0.000431,0.000823
127975000,0.0324,0.013523,0.002678,0.000431,0.000823
127976000,0.0324,0.013523,0.002678,0.000431,0.000823
127977000,0.0324,0.013523,0.002678,0.000431,0.000823
127978000,0.0324,0.013523,0.002678,0.000431,0.000823
127979000,0.0324,0.013523,0.002678,0.000431,0.000823
127980000,0.0324,0.013523,0.002678,0.000431,0.000823
127981000,0.0324,0.013523,0.002678,0.000431,0.000823
127982000,0.0324,0.013523,0.002678,0.000431,0.000940
127983000,0.0324,0.013523,0.002678,0.000431,0.000823
127984000,0.0324,0.013523,0.002678,0.000431,0.000823
127985000,0.0324,0.013523,0.002678,0.000431,0.000705
127986000,0.0324,0.013523,0.002678,0.000431,0.000940
127987000,0.0324,0.013523,0.002678,0.000431,0.000940
127988000,0.0324,0.013523,0.002678,0.000431,0.000705
127989000,0.0324,0.013523,0.002678,0.000431,0.000940
127990000,0.0324,0.013523,0.002678,0.000431,0.000705
127991000,0.0324,0.013523,0.002678,0.000431,0.000940
127992000,0.0324,0.013523,0.002678,0.000431,0.000823
127993000,0.0324,0.013523,0.002678,0.000431,0.000823
127994000,0.0324,0.013523,0.002678,0.000431,0.000940
127995000,0.0324,0.013523,0.002678,0.000431,0.000705
127996000,0.0324,0.013523,0.002678,0.000431,0.000940
127997000,0.0324,0.013523,0.002678,0.000431,0.000823
127998000,0.0324,0.013523,0.002678,0.000431,0.000823
127999000,0.0324,0.013523,0.002678,0.000431,0.000823
