Cycle,Area(mm^2),PeakDynamic(W),SubthresholdLeakage(W),GateLeakage(W),RunTimeDynamic(W)
54000000,0.0324,0.013523,0.002678,0.000431,0.001058
54001000,0.0324,0.013523,0.002678,0.000431,0.000705
54002000,0.0324,0.013523,0.002678,0.000431,0.000940
54003000,0.0324,0.013523,0.002678,0.000431,0.000940
54004000,0.0324,0.013523,0.002678,0.000431,0.000823
54005000,0.0324,0.013523,0.002678,0.000431,0.000823
54006000,0.0324,0.013523,0.002678,0.000431,0.000940
54007000,0.0324,0.013523,0.002678,0.000431,0.000940
54008000,0.0324,0.013523,0.002678,0.000431,0.000823
54009000,0.0324,0.013523,0.002678,0.000431,0.000823
54010000,0.0324,0.013523,0.002678,0.000431,0.000940
54011000,0.0324,0.013523,0.002678,0.000431,0.000823
54012000,0.0324,0.013523,0.002678,0.000431,0.000940
54013000,0.0324,0.013523,0.002678,0.000431,0.000823
54014000,0.0324,0.013523,0.002678,0.000431,0.000940
54015000,0.0324,0.013523,0.002678,0.000431,0.000823
54016000,0.0324,0.013523,0.002678,0.000431,0.000823
54017000,0.0324,0.013523,0.002678,0.000431,0.000940
54018000,0.0324,0.013523,0.002678,0.000431,0.000940
54019000,0.0324,0.013523,0.002678,0.000431,0.000823
54020000,0.0324,0.013523,0.002678,0.000431,0.000823
54021000,0.0324,0.013523,0.002678,0.000431,0.000940
54022000,0.0324,0.013523,0.002678,0.000431,0.000940
54023000,0.0324,0.013523,0.002678,0.000431,0.000823
54024000,0.0324,0.013523,0.002678,0.000431,0.000823
54025000,0.0324,0.013523,0.002678,0.000431,0.000940
54026000,0.0324,0.013523,0.002678,0.000431,0.000940
54027000,0.0324,0.013523,0.002678,0.000431,0.000823
54028000,0.0324,0.013523,0.002678,0.000431,0.000823
54029000,0.0324,0.013523,0.002678,0.000431,0.000940
54030000,0.0324,0.013523,0.002678,0.000431,0.000823
54031000,0.0324,0.013523,0.002678,0.000431,0.000940
54032000,0.0324,0.013523,0.002678,0.000431,0.000823
54033000,0.0324,0.013523,0.002678,0.000431,0.000940
54034000,0.0324,0.013523,0.002678,0.000431,0.000823
54035000,0.0324,0.013523,0.002678,0.000431,0.000823
54036000,0.0324,0.013523,0.002678,0.000431,0.000940
54037000,0.0324,0.013523,0.002678,0.000431,0.000940
54038000,0.0324,0.013523,0.002678,0.000431,0.000705
54039000,0.0324,0.013523,0.002678,0.000431,0.000940
54040000,0.0324,0.013523,0.002678,0.000431,0.000940
54041000,0.0324,0.013523,0.002678,0.000431,0.000940
54042000,0.0324,0.013523,0.002678,0.000431,0.000705
54043000,0.0324,0.013523,0.002678,0.000431,0.000940
54044000,0.0324,0.013523,0.002678,0.000431,0.000940
54045000,0.0324,0.013523,0.002678,0.000431,0.000823
54046000,0.0324,0.013523,0.002678,0.000431,0.000823
54047000,0.0324,0.013523,0.002678,0.000431,0.000940
54048000,0.0324,0.013523,0.002678,0.000431,0.000940
54049000,0.0324,0.013523,0.002678,0.000431,0.000823
54050000,0.0324,0.013523,0.002678,0.000431,0.000823
54051000,0.0324,0.013523,0.002678,0.000431,0.000940
54052000,0.0324,0.013523,0.002678,0.000431,0.000823
54053000,0.0324,0.013523,0.002678,0.000431,0.000940
54054000,0.0324,0.013523,0.002678,0.000431,0.000823
54055000,0.0324,0.013523,0.002678,0.000431,0.000940
54056000,0.0324,0.013523,0.002678,0.000431,0.000940
54057000,0.0324,0.013523,0.002678,0.000431,0.000705
54058000,0.0324,0.013523,0.002678,0.000431,0.000940
54059000,0.0324,0.013523,0.002678,0.000431,0.000940
54060000,0.0324,0.013523,0.002678,0.000431,0.000940
54061000,0.0324,0.013523,0.002678,0.000431,0.000705
54062000,0.0324,0.013523,0.002678,0.000431,0.000940
54063000,0.0324,0.013523,0.002678,0.000431,0.000940
54064000,0.0324,0.013523,0.002678,0.000431,0.000823
54065000,0.0324,0.013523,0.002678,0.000431,0.000823
54066000,0.0324,0.013523,0.002678,0.000431,0.000940
54067000,0.0324,0.013523,0.002678,0.000431,0.000940
54068000,0.0324,0.013523,0.002678,0.000431,0.000823
54069000,0.0324,0.013523,0.002678,0.000431,0.000823
54070000,0.0324,0.013523,0.002678,0.000431,0.000940
54071000,0.0324,0.013523,0.002678,0.000431,0.000823
54072000,0.0324,0.013523,0.002678,0.000431,0.000940
54073000,0.0324,0.013523,0.002678,0.000431,0.000823
54074000,0.0324,0.013523,0.002678,0.000431,0.000940
54075000,0.0324,0.013523,0.002678,0.000431,0.000823
54076000,0.0324,0.013523,0.002678,0.000431,0.000823
54077000,0.0324,0.013523,0.002678,0.000431,0.000940
54078000,0.0324,0.013523,0.002678,0.000431,0.000940
54079000,0.0324,0.013523,0.002678,0.000431,0.000823
54080000,0.0324,0.013523,0.002678,0.000431,0.000823
54081000,0.0324,0.013523,0.002678,0.000431,0.000940
54082000,0.0324,0.013523,0.002678,0.000431,0.000940
54083000,0.0324,0.013523,0.002678,0.000431,0.000823
54084000,0.0324,0.013523,0.002678,0.000431,0.000823
54085000,0.0324,0.013523,0.002678,0.000431,0.000940
54086000,0.0324,0.013523,0.002678,0.000431,0.000823
54087000,0.0324,0.013523,0.002678,0.000431,0.000940
54088000,0.0324,0.013523,0.002678,0.000431,0.000823
54089000,0.0324,0.013523,0.002678,0.000431,0.000940
54090000,0.0324,0.013523,0.002678,0.000431,0.000823
54091000,0.0324,0.013523,0.002678,0.000431,0.000823
54092000,0.0324,0.013523,0.002678,0.000431,0.000940
54093000,0.0324,0.013523,0.002678,0.000431,0.000940
54094000,0.0324,0.013523,0.002678,0.000431,0.000823
54095000,0.0324,0.013523,0.002678,0.000431,0.000823
54096000,0.0324,0.013523,0.002678,0.000431,0.000940
54097000,0.0324,0.013523,0.002678,0.000431,0.000940
54098000,0.0324,0.013523,0.002678,0.000431,0.000705
54099000,0.0324,0.013523,0.002678,0.000431,0.000940
54100000,0.0324,0.013523,0.002678,0.000431,0.000940
54101000,0.0324,0.013523,0.002678,0.000431,0.000940
54102000,0.0324,0.013523,0.002678,0.000431,0.000705
54103000,0.0324,0.013523,0.002678,0.000431,0.000940
54104000,0.0324,0.013523,0.002678,0.000431,0.000940
54105000,0.0324,0.013523,0.002678,0.000431,0.000823
54106000,0.0324,0.013523,0.002678,0.000431,0.000823
54107000,0.0324,0.013523,0.002678,0.000431,0.000940
54108000,0.0324,0.013523,0.002678,0.000431,0.000940
54109000,0.0324,0.013523,0.002678,0.000431,0.000823
54110000,0.0324,0.013523,0.002678,0.000431,0.000823
54111000,0.0324,0.013523,0.002678,0.000431,0.000940
54112000,0.0324,0.013523,0.002678,0.000431,0.000823
54113000,0.0324,0.013523,0.002678,0.000431,0.000940
54114000,0.0324,0.013523,0.002678,0.000431,0.000823
54115000,0.0324,0.013523,0.002678,0.000431,0.000940
54116000,0.0324,0.013523,0.002678,0.000431,0.000940
54117000,0.0324,0.013523,0.002678,0.000431,0.000705
54118000,0.0324,0.013523,0.002678,0.000431,0.000940
54119000,0.0324,0.013523,0.002678,0.000431,0.000940
54120000,0.0324,0.013523,0.002678,0.000431,0.000940
54121000,0.0324,0.013523,0.002678,0.000431,0.000705
54122000,0.0324,0.013523,0.002678,0.000431,0.000940
54123000,0.0324,0.013523,0.002678,0.000431,0.000940
54124000,0.0324,0.013523,0.002678,0.000431,0.000823
54125000,0.0324,0.013523,0.002678,0.000431,0.000823
54126000,0.0324,0.013523,0.002678,0.000431,0.000940
54127000,0.0324,0.013523,0.002678,0.000431,0.000823
54128000,0.0324,0.013523,0.002678,0.000431,0.000940
54129000,0.0324,0.013523,0.002678,0.000431,0.000823
54130000,0.0324,0.013523,0.002678,0.000431,0.000940
54131000,0.0324,0.013523,0.002678,0.000431,0.000823
54132000,0.0324,0.013523,0.002678,0.000431,0.000823
54133000,0.0324,0.013523,0.002678,0.000431,0.000940
54134000,0.0324,0.013523,0.002678,0.000431,0.000940
54135000,0.0324,0.013523,0.002678,0.000431,0.000823
54136000,0.0324,0.013523,0.002678,0.000431,0.000823
54137000,0.0324,0.013523,0.002678,0.000431,0.000940
54138000,0.0324,0.013523,0.002678,0.000431,0.000940
54139000,0.0324,0.013523,0.002678,0.000431,0.000705
54140000,0.0324,0.013523,0.002678,0.000431,0.000940
54141000,0.0324,0.013523,0.002678,0.000431,0.000940
54142000,0.0324,0.013523,0.002678,0.000431,0.000940
54143000,0.0324,0.013523,0.002678,0.000431,0.000823
54144000,0.0324,0.013523,0.002678,0.000431,0.000823
54145000,0.0324,0.013523,0.002678,0.000431,0.000940
54146000,0.0324,0.013523,0.002678,0.000431,0.000823
54147000,0.0324,0.013523,0.002678,0.000431,0.000940
54148000,0.0324,0.013523,0.002678,0.000431,0.000823
54149000,0.0324,0.013523,0.002678,0.000431,0.000940
54150000,0.0324,0.013523,0.002678,0.000431,0.000823
54151000,0.0324,0.013523,0.002678,0.000431,0.000823
54152000,0.0324,0.013523,0.002678,0.000431,0.000940
54153000,0.0324,0.013523,0.002678,0.000431,0.000940
54154000,0.0324,0.013523,0.002678,0.000431,0.000823
54155000,0.0324,0.013523,0.002678,0.000431,0.000823
54156000,0.0324,0.013523,0.002678,0.000431,0.000940
54157000,0.0324,0.013523,0.002678,0.000431,0.000940
54158000,0.0324,0.013523,0.002678,0.000431,0.000705
54159000,0.0324,0.013523,0.002678,0.000431,0.000940
54160000,0.0324,0.013523,0.002678,0.000431,0.000940
54161000,0.0324,0.013523,0.002678,0.000431,0.000940
54162000,0.0324,0.013523,0.002678,0.000431,0.000705
54163000,0.0324,0.013523,0.002678,0.000431,0.000940
54164000,0.0324,0.013523,0.002678,0.000431,0.000940
54165000,0.0324,0.013523,0.002678,0.000431,0.000823
54166000,0.0324,0.013523,0.002678,0.000431,0.000823
54167000,0.0324,0.013523,0.002678,0.000431,0.000940
54168000,0.0324,0.013523,0.002678,0.000431,0.000940
54169000,0.0324,0.013523,0.002678,0.000431,0.000823
54170000,0.0324,0.013523,0.002678,0.000431,0.000823
54171000,0.0324,0.013523,0.002678,0.000431,0.000940
54172000,0.0324,0.013523,0.002678,0.000431,0.000823
54173000,0.0324,0.013523,0.002678,0.000431,0.000823
54174000,0.0324,0.013523,0.002678,0.000431,0.000940
54175000,0.0324,0.013523,0.002678,0.000431,0.000940
54176000,0.0324,0.013523,0.002678,0.000431,0.000940
54177000,0.0324,0.013523,0.002678,0.000431,0.000705
54178000,0.0324,0.013523,0.002678,0.000431,0.000940
54179000,0.0324,0.013523,0.002678,0.000431,0.000940
54180000,0.0324,0.013523,0.002678,0.000431,0.000823
54181000,0.0324,0.013523,0.002678,0.000431,0.000823
54182000,0.0324,0.013523,0.002678,0.000431,0.000940
54183000,0.0324,0.013523,0.002678,0.000431,0.000940
54184000,0.0324,0.013523,0.002678,0.000431,0.000823
54185000,0.0324,0.013523,0.002678,0.000431,0.000823
54186000,0.0324,0.013523,0.002678,0.000431,0.000940
54187000,0.0324,0.013523,0.002678,0.000431,0.000823
54188000,0.0324,0.013523,0.002678,0.000431,0.000940
54189000,0.0324,0.013523,0.002678,0.000431,0.000823
54190000,0.0324,0.013523,0.002678,0.000431,0.000940
54191000,0.0324,0.013523,0.002678,0.000431,0.000823
54192000,0.0324,0.013523,0.002678,0.000431,0.000823
54193000,0.0324,0.013523,0.002678,0.000431,0.000940
54194000,0.0324,0.013523,0.002678,0.000431,0.000940
54195000,0.0324,0.013523,0.002678,0.000431,0.000823
54196000,0.0324,0.013523,0.002678,0.000431,0.000823
54197000,0.0324,0.013523,0.002678,0.000431,0.000940
54198000,0.0324,0.013523,0.002678,0.000431,0.000940
54199000,0.0324,0.013523,0.002678,0.000431,0.000823
54200000,0.0324,0.013523,0.002678,0.000431,0.000823
54201000,0.0324,0.013523,0.002678,0.000431,0.000940
54202000,0.0324,0.013523,0.002678,0.000431,0.000940
54203000,0.0324,0.013523,0.002678,0.000431,0.000823
54204000,0.0324,0.013523,0.002678,0.000431,0.000823
54205000,0.0324,0.013523,0.002678,0.000431,0.000940
54206000,0.0324,0.013523,0.002678,0.000431,0.000823
54207000,0.0324,0.013523,0.002678,0.000431,0.000940
54208000,0.0324,0.013523,0.002678,0.000431,0.000823
54209000,0.0324,0.013523,0.002678,0.000431,0.000940
54210000,0.0324,0.013523,0.002678,0.000431,0.000823
54211000,0.0324,0.013523,0.002678,0.000431,0.000823
54212000,0.0324,0.013523,0.002678,0.000431,0.000940
54213000,0.0324,0.013523,0.002678,0.000431,0.000940
54214000,0.0324,0.013523,0.002678,0.000431,0.000705
54215000,0.0324,0.013523,0.002678,0.000431,0.000940
54216000,0.0324,0.013523,0.002678,0.000431,0.000940
54217000,0.0324,0.013523,0.002678,0.000431,0.000940
54218000,0.0324,0.013523,0.002678,0.000431,0.000705
54219000,0.0324,0.013523,0.002678,0.000431,0.000940
54220000,0.0324,0.013523,0.002678,0.000431,0.000940
54221000,0.0324,0.013523,0.002678,0.000431,0.000823
54222000,0.0324,0.013523,0.002678,0.000431,0.000823
54223000,0.0324,0.013523,0.002678,0.000431,0.000940
54224000,0.0324,0.013523,0.002678,0.000431,0.000940
54225000,0.0324,0.013523,0.002678,0.000431,0.000823
54226000,0.0324,0.013523,0.002678,0.000431,0.000823
54227000,0.0324,0.013523,0.002678,0.000431,0.000940
54228000,0.0324,0.013523,0.002678,0.000431,0.000823
54229000,0.0324,0.013523,0.002678,0.000431,0.000940
54230000,0.0324,0.013523,0.002678,0.000431,0.000823
54231000,0.0324,0.013523,0.002678,0.000431,0.000940
54232000,0.0324,0.013523,0.002678,0.000431,0.000823
54233000,0.0324,0.013523,0.002678,0.000431,0.000823
54234000,0.0324,0.013523,0.002678,0.000431,0.000940
54235000,0.0324,0.013523,0.002678,0.000431,0.000940
54236000,0.0324,0.013523,0.002678,0.000431,0.000940
54237000,0.0324,0.013523,0.002678,0.000431,0.000705
54238000,0.0324,0.013523,0.002678,0.000431,0.000940
54239000,0.0324,0.013523,0.002678,0.000431,0.000940
54240000,0.0324,0.013523,0.002678,0.000431,0.000823
54241000,0.0324,0.013523,0.002678,0.000431,0.000823
54242000,0.0324,0.013523,0.002678,0.000431,0.000940
54243000,0.0324,0.013523,0.002678,0.000431,0.000940
54244000,0.0324,0.013523,0.002678,0.000431,0.000823
54245000,0.0324,0.013523,0.002678,0.000431,0.000823
54246000,0.0324,0.013523,0.002678,0.000431,0.000940
54247000,0.0324,0.013523,0.002678,0.000431,0.000823
54248000,0.0324,0.013523,0.002678,0.000431,0.000940
54249000,0.0324,0.013523,0.002678,0.000431,0.000823
54250000,0.0324,0.013523,0.002678,0.000431,0.000940
54251000,0.0324,0.013523,0.002678,0.000431,0.000823
54252000,0.0324,0.013523,0.002678,0.000431,0.000823
54253000,0.0324,0.013523,0.002678,0.000431,0.000940
54254000,0.0324,0.013523,0.002678,0.000431,0.000940
54255000,0.0324,0.013523,0.002678,0.000431,0.000823
54256000,0.0324,0.013523,0.002678,0.000431,0.000823
54257000,0.0324,0.013523,0.002678,0.000431,0.000940
54258000,0.0324,0.013523,0.002678,0.000431,0.000940
54259000,0.0324,0.013523,0.002678,0.000431,0.000823
54260000,0.0324,0.013523,0.002678,0.000431,0.000823
54261000,0.0324,0.013523,0.002678,0.000431,0.000940
54262000,0.0324,0.013523,0.002678,0.000431,0.000823
54263000,0.0324,0.013523,0.002678,0.000431,0.000940
54264000,0.0324,0.013523,0.002678,0.000431,0.000823
54265000,0.0324,0.013523,0.002678,0.000431,0.000940
54266000,0.0324,0.013523,0.002678,0.000431,0.000823
54267000,0.0324,0.013523,0.002678,0.000431,0.071927
54268000,0.0324,0.013523,0.002678,0.000431,0.481278
54269000,0.0324,0.013523,0.002678,0.000431,0.554380
54270000,0.0324,0.013523,0.002678,0.000431,0.131632
54271000,0.0324,0.013523,0.002678,0.000431,0.133512
54272000,0.0324,0.013523,0.002678,0.000431,0.558259
54273000,0.0324,0.013523,0.002678,0.000431,0.234821
54274000,0.0324,0.013523,0.002678,0.000431,0.287239
54275000,0.0324,0.013523,0.002678,0.000431,0.297464
54276000,0.0324,0.013523,0.002678,0.000431,0.134570
54277000,0.0324,0.013523,0.002678,0.000431,0.136098
54278000,0.0324,0.013523,0.002678,0.000431,0.145617
54279000,0.0324,0.013523,0.002678,0.000431,0.227417
54280000,0.0324,0.013523,0.002678,0.000431,0.367393
54281000,0.0324,0.013523,0.002678,0.000431,0.058764
54282000,0.0324,0.013523,0.002678,0.000431,0.046189
54283000,0.0324,0.013523,0.002678,0.000431,0.039489
54284000,0.0324,0.013523,0.002678,0.000431,0.030087
54285000,0.0324,0.013523,0.002678,0.000431,0.027384
54286000,0.0324,0.013523,0.002678,0.000431,0.026561
54287000,0.0324,0.013523,0.002678,0.000431,0.026796
54288000,0.0324,0.013523,0.002678,0.000431,0.018452
54289000,0.0324,0.013523,0.002678,0.000431,0.017277
54290000,0.0324,0.013523,0.002678,0.000431,0.013751
54291000,0.0324,0.013523,0.002678,0.000431,0.011870
54292000,0.0324,0.013523,0.002678,0.000431,0.012223
54293000,0.0324,0.013523,0.002678,0.000431,0.013868
54294000,0.0324,0.013523,0.002678,0.000431,0.011870
54295000,0.0324,0.013523,0.002678,0.000431,0.008462
54296000,0.0324,0.013523,0.002678,0.000431,0.008580
54297000,0.0324,0.013523,0.002678,0.000431,0.008697
54298000,0.0324,0.013523,0.002678,0.000431,0.012105
54299000,0.0324,0.013523,0.002678,0.000431,0.007052
54300000,0.0324,0.013523,0.002678,0.000431,0.006464
54301000,0.0324,0.013523,0.002678,0.000431,0.007052
54302000,0.0324,0.013523,0.002678,0.000431,0.006582
54303000,0.0324,0.013523,0.002678,0.000431,0.006934
54304000,0.0324,0.013523,0.002678,0.000431,0.006817
54305000,0.0324,0.013523,0.002678,0.000431,0.007052
54306000,0.0324,0.013523,0.002678,0.000431,0.007992
54307000,0.0324,0.013523,0.002678,0.000431,0.008462
54308000,0.0324,0.013523,0.002678,0.000431,0.004584
54309000,0.0324,0.013523,0.002678,0.000431,0.004113
54310000,0.0324,0.013523,0.002678,0.000431,0.003996
54311000,0.0324,0.013523,0.002678,0.000431,0.004466
54312000,0.0324,0.013523,0.002678,0.000431,0.004231
54313000,0.0324,0.013523,0.002678,0.000431,0.004349
54314000,0.0324,0.013523,0.002678,0.000431,0.004113
54315000,0.0324,0.013523,0.002678,0.000431,0.003996
54316000,0.0324,0.013523,0.002678,0.000431,0.004349
54317000,0.0324,0.013523,0.002678,0.000431,0.004349
54318000,0.0324,0.013523,0.002678,0.000431,0.004231
54319000,0.0324,0.013523,0.002678,0.000431,0.004231
54320000,0.0324,0.013523,0.002678,0.000431,0.004113
54321000,0.0324,0.013523,0.002678,0.000431,0.004349
54322000,0.0324,0.013523,0.002678,0.000431,0.004113
54323000,0.0324,0.013523,0.002678,0.000431,0.004231
54324000,0.0324,0.013523,0.002678,0.000431,0.004466
54325000,0.0324,0.013523,0.002678,0.000431,0.004231
54326000,0.0324,0.013523,0.002678,0.000431,0.003996
54327000,0.0324,0.013523,0.002678,0.000431,0.004231
54328000,0.0324,0.013523,0.002678,0.000431,0.004466
54329000,0.0324,0.013523,0.002678,0.000431,0.004231
54330000,0.0324,0.013523,0.002678,0.000431,0.003996
54331000,0.0324,0.013523,0.002678,0.000431,0.004466
54332000,0.0324,0.013523,0.002678,0.000431,0.003996
54333000,0.0324,0.013523,0.002678,0.000431,0.004349
54334000,0.0324,0.013523,0.002678,0.000431,0.004231
54335000,0.0324,0.013523,0.002678,0.000431,0.004113
54336000,0.0324,0.013523,0.002678,0.000431,0.004113
54337000,0.0324,0.013523,0.002678,0.000431,0.004466
54338000,0.0324,0.013523,0.002678,0.000431,0.004349
54339000,0.0324,0.013523,0.002678,0.000431,0.003996
54340000,0.0324,0.013523,0.002678,0.000431,0.004231
54341000,0.0324,0.013523,0.002678,0.000431,0.004113
54342000,0.0324,0.013523,0.002678,0.000431,0.004466
54343000,0.0324,0.013523,0.002678,0.000431,0.005171
54344000,0.0324,0.013523,0.002678,0.000431,0.003526
54345000,0.0324,0.013523,0.002678,0.000431,0.003408
54346000,0.0324,0.013523,0.002678,0.000431,0.003056
54347000,0.0324,0.013523,0.002678,0.000431,0.003643
54348000,0.0324,0.013523,0.002678,0.000431,0.003173
54349000,0.0324,0.013523,0.002678,0.000431,0.003526
54350000,0.0324,0.013523,0.002678,0.000431,0.003173
54351000,0.0324,0.013523,0.002678,0.000431,0.003408
54352000,0.0324,0.013523,0.002678,0.000431,0.003408
54353000,0.0324,0.013523,0.002678,0.000431,0.003291
54354000,0.0324,0.013523,0.002678,0.000431,0.003526
54355000,0.0324,0.013523,0.002678,0.000431,0.003056
54356000,0.0324,0.013523,0.002678,0.000431,0.003526
54357000,0.0324,0.013523,0.002678,0.000431,0.003408
54358000,0.0324,0.013523,0.002678,0.000431,0.003408
54359000,0.0324,0.013523,0.002678,0.000431,0.003173
54360000,0.0324,0.013523,0.002678,0.000431,0.003408
54361000,0.0324,0.013523,0.002678,0.000431,0.003291
54362000,0.0324,0.013523,0.002678,0.000431,0.003291
54363000,0.0324,0.013523,0.002678,0.000431,0.003291
54364000,0.0324,0.013523,0.002678,0.000431,0.003408
54365000,0.0324,0.013523,0.002678,0.000431,0.003408
54366000,0.0324,0.013523,0.002678,0.000431,0.003408
54367000,0.0324,0.013523,0.002678,0.000431,0.003408
54368000,0.0324,0.013523,0.002678,0.000431,0.003056
54369000,0.0324,0.013523,0.002678,0.000431,0.003408
54370000,0.0324,0.013523,0.002678,0.000431,0.003526
54371000,0.0324,0.013523,0.002678,0.000431,0.003291
54372000,0.0324,0.013523,0.002678,0.000431,0.003526
54373000,0.0324,0.013523,0.002678,0.000431,0.003173
54374000,0.0324,0.013523,0.002678,0.000431,0.003408
54375000,0.0324,0.013523,0.002678,0.000431,0.005171
54376000,0.0324,0.013523,0.002678,0.000431,0.002821
54377000,0.0324,0.013523,0.002678,0.000431,0.002586
54378000,0.0324,0.013523,0.002678,0.000431,0.002468
54379000,0.0324,0.013523,0.002678,0.000431,0.002468
54380000,0.0324,0.013523,0.002678,0.000431,0.002468
54381000,0.0324,0.013523,0.002678,0.000431,0.002586
54382000,0.0324,0.013523,0.002678,0.000431,0.002468
54383000,0.0324,0.013523,0.002678,0.000431,0.004584
54384000,0.0324,0.013523,0.002678,0.000431,0.001880
54385000,0.0324,0.013523,0.002678,0.000431,0.001528
54386000,0.0324,0.013523,0.002678,0.000431,0.001763
54387000,0.0324,0.013523,0.002678,0.000431,0.001645
54388000,0.0324,0.013523,0.002678,0.000431,0.001528
54389000,0.0324,0.013523,0.002678,0.000431,0.001763
54390000,0.0324,0.013523,0.002678,0.000431,0.001763
54391000,0.0324,0.013523,0.002678,0.000431,0.001645
54392000,0.0324,0.013523,0.002678,0.000431,0.001645
54393000,0.0324,0.013523,0.002678,0.000431,0.001645
54394000,0.0324,0.013523,0.002678,0.000431,0.001763
54395000,0.0324,0.013523,0.002678,0.000431,0.001763
54396000,0.0324,0.013523,0.002678,0.000431,0.001528
54397000,0.0324,0.013523,0.002678,0.000431,0.001763
54398000,0.0324,0.013523,0.002678,0.000431,0.001645
54399000,0.0324,0.013523,0.002678,0.000431,0.001645
54400000,0.0324,0.013523,0.002678,0.000431,0.001763
54401000,0.0324,0.013523,0.002678,0.000431,0.001645
54402000,0.0324,0.013523,0.002678,0.000431,0.001645
54403000,0.0324,0.013523,0.002678,0.000431,0.001528
54404000,0.0324,0.013523,0.002678,0.000431,0.002821
54405000,0.0324,0.013523,0.002678,0.000431,0.001763
54406000,0.0324,0.013523,0.002678,0.000431,0.000940
54407000,0.0324,0.013523,0.002678,0.000431,0.000823
54408000,0.0324,0.013523,0.002678,0.000431,0.000823
54409000,0.0324,0.013523,0.002678,0.000431,0.000823
54410000,0.0324,0.013523,0.002678,0.000431,0.000823
54411000,0.0324,0.013523,0.002678,0.000431,0.000823
54412000,0.0324,0.013523,0.002678,0.000431,0.000823
54413000,0.0324,0.013523,0.002678,0.000431,0.000940
54414000,0.0324,0.013523,0.002678,0.000431,0.000705
54415000,0.0324,0.013523,0.002678,0.000431,0.000940
54416000,0.0324,0.013523,0.002678,0.000431,0.000705
54417000,0.0324,0.013523,0.002678,0.000431,0.000940
54418000,0.0324,0.013523,0.002678,0.000431,0.000823
54419000,0.0324,0.013523,0.002678,0.000431,0.000823
54420000,0.0324,0.013523,0.002678,0.000431,0.000940
54421000,0.0324,0.013523,0.002678,0.000431,0.000705
54422000,0.0324,0.013523,0.002678,0.000431,0.000940
54423000,0.0324,0.013523,0.002678,0.000431,0.000823
54424000,0.0324,0.013523,0.002678,0.000431,0.000823
54425000,0.0324,0.013523,0.002678,0.000431,0.000823
54426000,0.0324,0.013523,0.002678,0.000431,0.000823
54427000,0.0324,0.013523,0.002678,0.000431,0.000823
54428000,0.0324,0.013523,0.002678,0.000431,0.000823
54429000,0.0324,0.013523,0.002678,0.000431,0.000940
54430000,0.0324,0.013523,0.002678,0.000431,0.000705
54431000,0.0324,0.013523,0.002678,0.000431,0.000823
54432000,0.0324,0.013523,0.002678,0.000431,0.000940
54433000,0.0324,0.013523,0.002678,0.000431,0.000823
54434000,0.0324,0.013523,0.002678,0.000431,0.000823
54435000,0.0324,0.013523,0.002678,0.000431,0.000823
54436000,0.0324,0.013523,0.002678,0.000431,0.000705
54437000,0.0324,0.013523,0.002678,0.000431,0.000940
54438000,0.0324,0.013523,0.002678,0.000431,0.000940
54439000,0.0324,0.013523,0.002678,0.000431,0.000705
54440000,0.0324,0.013523,0.002678,0.000431,0.000940
54441000,0.0324,0.013523,0.002678,0.000431,0.000705
54442000,0.0324,0.013523,0.002678,0.000431,0.000940
54443000,0.0324,0.013523,0.002678,0.000431,0.000940
54444000,0.0324,0.013523,0.002678,0.000431,0.000705
54445000,0.0324,0.013523,0.002678,0.000431,0.000940
54446000,0.0324,0.013523,0.002678,0.000431,0.000705
54447000,0.0324,0.013523,0.002678,0.000431,0.000940
54448000,0.0324,0.013523,0.002678,0.000431,0.000823
54449000,0.0324,0.013523,0.002678,0.000431,0.000823
54450000,0.0324,0.013523,0.002678,0.000431,0.000823
54451000,0.0324,0.013523,0.002678,0.000431,0.000823
54452000,0.0324,0.013523,0.002678,0.000431,0.000940
54453000,0.0324,0.013523,0.002678,0.000431,0.000705
54454000,0.0324,0.013523,0.002678,0.000431,0.000940
54455000,0.0324,0.013523,0.002678,0.000431,0.000823
54456000,0.0324,0.013523,0.002678,0.000431,0.000823
54457000,0.0324,0.013523,0.002678,0.000431,0.000823
54458000,0.0324,0.013523,0.002678,0.000431,0.000823
54459000,0.0324,0.013523,0.002678,0.000431,0.000823
54460000,0.0324,0.013523,0.002678,0.000431,0.000823
54461000,0.0324,0.013523,0.002678,0.000431,0.000940
54462000,0.0324,0.013523,0.002678,0.000431,0.000705
54463000,0.0324,0.013523,0.002678,0.000431,0.000940
54464000,0.0324,0.013523,0.002678,0.000431,0.000705
54465000,0.0324,0.013523,0.002678,0.000431,0.000940
54466000,0.0324,0.013523,0.002678,0.000431,0.000940
54467000,0.0324,0.013523,0.002678,0.000431,0.000705
54468000,0.0324,0.013523,0.002678,0.000431,0.000940
54469000,0.0324,0.013523,0.002678,0.000431,0.000705
54470000,0.0324,0.013523,0.002678,0.000431,0.000940
54471000,0.0324,0.013523,0.002678,0.000431,0.000823
54472000,0.0324,0.013523,0.002678,0.000431,0.000823
54473000,0.0324,0.013523,0.002678,0.000431,0.000823
54474000,0.0324,0.013523,0.002678,0.000431,0.000823
54475000,0.0324,0.013523,0.002678,0.000431,0.000823
54476000,0.0324,0.013523,0.002678,0.000431,0.000823
54477000,0.0324,0.013523,0.002678,0.000431,0.000940
54478000,0.0324,0.013523,0.002678,0.000431,0.000705
54479000,0.0324,0.013523,0.002678,0.000431,0.000823
54480000,0.0324,0.013523,0.002678,0.000431,0.000940
54481000,0.0324,0.013523,0.002678,0.000431,0.000823
54482000,0.0324,0.013523,0.002678,0.000431,0.000823
54483000,0.0324,0.013523,0.002678,0.000431,0.000823
54484000,0.0324,0.013523,0.002678,0.000431,0.000705
54485000,0.0324,0.013523,0.002678,0.000431,0.000940
54486000,0.0324,0.013523,0.002678,0.000431,0.000940
54487000,0.0324,0.013523,0.002678,0.000431,0.000705
54488000,0.0324,0.013523,0.002678,0.000431,0.000940
54489000,0.0324,0.013523,0.002678,0.000431,0.000823
54490000,0.0324,0.013523,0.002678,0.000431,0.000823
54491000,0.0324,0.013523,0.002678,0.000431,0.000823
54492000,0.0324,0.013523,0.002678,0.000431,0.000823
54493000,0.0324,0.013523,0.002678,0.000431,0.000823
54494000,0.0324,0.013523,0.002678,0.000431,0.000823
54495000,0.0324,0.013523,0.002678,0.000431,0.000940
54496000,0.0324,0.013523,0.002678,0.000431,0.003526
54497000,0.0324,0.013523,0.002678,0.000431,0.370801
54498000,0.0324,0.013523,0.002678,0.000431,0.703054
54499000,0.0324,0.013523,0.002678,0.000431,0.137861
54500000,0.0324,0.013523,0.002678,0.000431,0.134922
54501000,0.0324,0.013523,0.002678,0.000431,0.145500
54502000,0.0324,0.013523,0.002678,0.000431,0.590227
54503000,0.0324,0.013523,0.002678,0.000431,0.268787
54504000,0.0324,0.013523,0.002678,0.000431,0.251980
54505000,0.0324,0.013523,0.002678,0.000431,0.237054
54506000,0.0324,0.013523,0.002678,0.000431,0.143854
54507000,0.0324,0.013523,0.002678,0.000431,0.181816
54508000,0.0324,0.013523,0.002678,0.000431,0.093670
54509000,0.0324,0.013523,0.002678,0.000431,0.470465
54510000,0.0324,0.013523,0.002678,0.000431,0.095433
54511000,0.0324,0.013523,0.002678,0.000431,0.053475
54512000,0.0324,0.013523,0.002678,0.000431,0.044308
54513000,0.0324,0.013523,0.002678,0.000431,0.033378
54514000,0.0324,0.013523,0.002678,0.000431,0.031027
54515000,0.0324,0.013523,0.002678,0.000431,0.016924
54516000,0.0324,0.013523,0.002678,0.000431,0.017394
54517000,0.0324,0.013523,0.002678,0.000431,0.018569
54518000,0.0324,0.013523,0.002678,0.000431,0.016336
54519000,0.0324,0.013523,0.002678,0.000431,0.015749
54520000,0.0324,0.013523,0.002678,0.000431,0.014456
54521000,0.0324,0.013523,0.002678,0.000431,0.014221
54522000,0.0324,0.013523,0.002678,0.000431,0.014456
54523000,0.0324,0.013523,0.002678,0.000431,0.015514
54524000,0.0324,0.013523,0.002678,0.000431,0.014573
54525000,0.0324,0.013523,0.002678,0.000431,0.012811
54526000,0.0324,0.013523,0.002678,0.000431,0.013281
54527000,0.0324,0.013523,0.002678,0.000431,0.012340
54528000,0.0324,0.013523,0.002678,0.000431,0.011635
54529000,0.0324,0.013523,0.002678,0.000431,0.011400
54530000,0.0324,0.013523,0.002678,0.000431,0.012458
54531000,0.0324,0.013523,0.002678,0.000431,0.011400
54532000,0.0324,0.013523,0.002678,0.000431,0.012340
54533000,0.0324,0.013523,0.002678,0.000431,0.009755
54534000,0.0324,0.013523,0.002678,0.000431,0.011753
54535000,0.0324,0.013523,0.002678,0.000431,0.011165
54536000,0.0324,0.013523,0.002678,0.000431,0.010930
54537000,0.0324,0.013523,0.002678,0.000431,0.009872
54538000,0.0324,0.013523,0.002678,0.000431,0.008580
54539000,0.0324,0.013523,0.002678,0.000431,0.009050
54540000,0.0324,0.013523,0.002678,0.000431,0.007639
54541000,0.0324,0.013523,0.002678,0.000431,0.008580
54542000,0.0324,0.013523,0.002678,0.000431,0.008109
54543000,0.0324,0.013523,0.002678,0.000431,0.008815
54544000,0.0324,0.013523,0.002678,0.000431,0.009167
54545000,0.0324,0.013523,0.002678,0.000431,0.009050
54546000,0.0324,0.013523,0.002678,0.000431,0.007287
54547000,0.0324,0.013523,0.002678,0.000431,0.007874
54548000,0.0324,0.013523,0.002678,0.000431,0.008227
54549000,0.0324,0.013523,0.002678,0.000431,0.006229
54550000,0.0324,0.013523,0.002678,0.000431,0.003643
54551000,0.0324,0.013523,0.002678,0.000431,0.004466
54552000,0.0324,0.013523,0.002678,0.000431,0.003526
54553000,0.0324,0.013523,0.002678,0.000431,0.002586
54554000,0.0324,0.013523,0.002678,0.000431,0.006582
54555000,0.0324,0.013523,0.002678,0.000431,0.001058
54556000,0.0324,0.013523,0.002678,0.000431,0.000823
54557000,0.0324,0.013523,0.002678,0.000431,0.000823
54558000,0.0324,0.013523,0.002678,0.000431,0.000705
54559000,0.0324,0.013523,0.002678,0.000431,0.000940
54560000,0.0324,0.013523,0.002678,0.000431,0.000940
54561000,0.0324,0.013523,0.002678,0.000431,0.000705
54562000,0.0324,0.013523,0.002678,0.000431,0.000940
54563000,0.0324,0.013523,0.002678,0.000431,0.000705
54564000,0.0324,0.013523,0.002678,0.000431,0.000940
54565000,0.0324,0.013523,0.002678,0.000431,0.000823
54566000,0.0324,0.013523,0.002678,0.000431,0.000823
54567000,0.0324,0.013523,0.002678,0.000431,0.000940
54568000,0.0324,0.013523,0.002678,0.000431,0.000705
54569000,0.0324,0.013523,0.002678,0.000431,0.000940
54570000,0.0324,0.013523,0.002678,0.000431,0.000705
54571000,0.0324,0.013523,0.002678,0.000431,0.000940
54572000,0.0324,0.013523,0.002678,0.000431,0.000823
54573000,0.0324,0.013523,0.002678,0.000431,0.000823
54574000,0.0324,0.013523,0.002678,0.000431,0.000823
54575000,0.0324,0.013523,0.002678,0.000431,0.000823
54576000,0.0324,0.013523,0.002678,0.000431,0.000940
54577000,0.0324,0.013523,0.002678,0.000431,0.000705
54578000,0.0324,0.013523,0.002678,0.000431,0.000940
54579000,0.0324,0.013523,0.002678,0.000431,0.000705
54580000,0.0324,0.013523,0.002678,0.000431,0.000940
54581000,0.0324,0.013523,0.002678,0.000431,0.000705
54582000,0.0324,0.013523,0.002678,0.000431,0.000940
54583000,0.0324,0.013523,0.002678,0.000431,0.000940
54584000,0.0324,0.013523,0.002678,0.000431,0.000823
54585000,0.0324,0.013523,0.002678,0.000431,0.001763
54586000,0.0324,0.013523,0.002678,0.000431,0.374445
54587000,0.0324,0.013523,0.002678,0.000431,0.693886
54588000,0.0324,0.013523,0.002678,0.000431,0.143972
54589000,0.0324,0.013523,0.002678,0.000431,0.134217
54590000,0.0324,0.013523,0.002678,0.000431,0.148438
54591000,0.0324,0.013523,0.002678,0.000431,0.585408
54592000,0.0324,0.013523,0.002678,0.000431,0.254919
54593000,0.0324,0.013523,0.002678,0.000431,0.280775
54594000,0.0324,0.013523,0.002678,0.000431,0.245869
54595000,0.0324,0.013523,0.002678,0.000431,0.143502
54596000,0.0324,0.013523,0.002678,0.000431,0.166890
54597000,0.0324,0.013523,0.002678,0.000431,0.124932
54598000,0.0324,0.013523,0.002678,0.000431,0.451426
54599000,0.0324,0.013523,0.002678,0.000431,0.045483
54600000,0.0324,0.013523,0.002678,0.000431,0.024798
54601000,0.0324,0.013523,0.002678,0.000431,0.016807
54602000,0.0324,0.013523,0.002678,0.000431,0.015044
54603000,0.0324,0.013523,0.002678,0.000431,0.014456
54604000,0.0324,0.013523,0.002678,0.000431,0.009990
54605000,0.0324,0.013523,0.002678,0.000431,0.010225
54606000,0.0324,0.013523,0.002678,0.000431,0.007287
54607000,0.0324,0.013523,0.002678,0.000431,0.005054
54608000,0.0324,0.013523,0.002678,0.000431,0.005289
54609000,0.0324,0.013523,0.002678,0.000431,0.004936
54610000,0.0324,0.013523,0.002678,0.000431,0.005289
54611000,0.0324,0.013523,0.002678,0.000431,0.005054
54612000,0.0324,0.013523,0.002678,0.000431,0.004936
54613000,0.0324,0.013523,0.002678,0.000431,0.005406
54614000,0.0324,0.013523,0.002678,0.000431,0.004819
54615000,0.0324,0.013523,0.002678,0.000431,0.005171
54616000,0.0324,0.013523,0.002678,0.000431,0.005289
54617000,0.0324,0.013523,0.002678,0.000431,0.005171
54618000,0.0324,0.013523,0.002678,0.000431,0.005054
54619000,0.0324,0.013523,0.002678,0.000431,0.004701
54620000,0.0324,0.013523,0.002678,0.000431,0.005524
54621000,0.0324,0.013523,0.002678,0.000431,0.005054
54622000,0.0324,0.013523,0.002678,0.000431,0.005054
54623000,0.0324,0.013523,0.002678,0.000431,0.005171
54624000,0.0324,0.013523,0.002678,0.000431,0.005054
54625000,0.0324,0.013523,0.002678,0.000431,0.005054
54626000,0.0324,0.013523,0.002678,0.000431,0.005054
54627000,0.0324,0.013523,0.002678,0.000431,0.005171
54628000,0.0324,0.013523,0.002678,0.000431,0.005289
54629000,0.0324,0.013523,0.002678,0.000431,0.004701
54630000,0.0324,0.013523,0.002678,0.000431,0.005289
54631000,0.0324,0.013523,0.002678,0.000431,0.006817
54632000,0.0324,0.013523,0.002678,0.000431,0.004466
54633000,0.0324,0.013523,0.002678,0.000431,0.004113
54634000,0.0324,0.013523,0.002678,0.000431,0.003996
54635000,0.0324,0.013523,0.002678,0.000431,0.004349
54636000,0.0324,0.013523,0.002678,0.000431,0.004231
54637000,0.0324,0.013523,0.002678,0.000431,0.005406
54638000,0.0324,0.013523,0.002678,0.000431,0.003173
54639000,0.0324,0.013523,0.002678,0.000431,0.003643
54640000,0.0324,0.013523,0.002678,0.000431,0.003173
54641000,0.0324,0.013523,0.002678,0.000431,0.003526
54642000,0.0324,0.013523,0.002678,0.000431,0.003291
54643000,0.0324,0.013523,0.002678,0.000431,0.003526
54644000,0.0324,0.013523,0.002678,0.000431,0.003408
54645000,0.0324,0.013523,0.002678,0.000431,0.003173
54646000,0.0324,0.013523,0.002678,0.000431,0.003526
54647000,0.0324,0.013523,0.002678,0.000431,0.003291
54648000,0.0324,0.013523,0.002678,0.000431,0.003526
54649000,0.0324,0.013523,0.002678,0.000431,0.003291
54650000,0.0324,0.013523,0.002678,0.000431,0.003408
54651000,0.0324,0.013523,0.002678,0.000431,0.006111
54652000,0.0324,0.013523,0.002678,0.000431,0.003761
54653000,0.0324,0.013523,0.002678,0.000431,0.002116
54654000,0.0324,0.013523,0.002678,0.000431,0.001528
54655000,0.0324,0.013523,0.002678,0.000431,0.001645
54656000,0.0324,0.013523,0.002678,0.000431,0.001880
54657000,0.0324,0.013523,0.002678,0.000431,0.001528
54658000,0.0324,0.013523,0.002678,0.000431,0.001763
54659000,0.0324,0.013523,0.002678,0.000431,0.001645
54660000,0.0324,0.013523,0.002678,0.000431,0.001645
54661000,0.0324,0.013523,0.002678,0.000431,0.001645
54662000,0.0324,0.013523,0.002678,0.000431,0.001763
54663000,0.0324,0.013523,0.002678,0.000431,0.001528
54664000,0.0324,0.013523,0.002678,0.000431,0.001763
54665000,0.0324,0.013523,0.002678,0.000431,0.001645
54666000,0.0324,0.013523,0.002678,0.000431,0.001645
54667000,0.0324,0.013523,0.002678,0.000431,0.001763
54668000,0.0324,0.013523,0.002678,0.000431,0.001645
54669000,0.0324,0.013523,0.002678,0.000431,0.001763
54670000,0.0324,0.013523,0.002678,0.000431,0.001528
54671000,0.0324,0.013523,0.002678,0.000431,0.001763
54672000,0.0324,0.013523,0.002678,0.000431,0.001528
54673000,0.0324,0.013523,0.002678,0.000431,0.001763
54674000,0.0324,0.013523,0.002678,0.000431,0.001763
54675000,0.0324,0.013523,0.002678,0.000431,0.001528
54676000,0.0324,0.013523,0.002678,0.000431,0.001880
54677000,0.0324,0.013523,0.002678,0.000431,0.001410
54678000,0.0324,0.013523,0.002678,0.000431,0.001880
54679000,0.0324,0.013523,0.002678,0.000431,0.001763
54680000,0.0324,0.013523,0.002678,0.000431,0.001528
54681000,0.0324,0.013523,0.002678,0.000431,0.001763
54682000,0.0324,0.013523,0.002678,0.000431,0.001528
54683000,0.0324,0.013523,0.002678,0.000431,0.001763
54684000,0.0324,0.013523,0.002678,0.000431,0.001645
54685000,0.0324,0.013523,0.002678,0.000431,0.001763
54686000,0.0324,0.013523,0.002678,0.000431,0.001645
54687000,0.0324,0.013523,0.002678,0.000431,0.001645
54688000,0.0324,0.013523,0.002678,0.000431,0.001645
54689000,0.0324,0.013523,0.002678,0.000431,0.001645
54690000,0.0324,0.013523,0.002678,0.000431,0.001880
54691000,0.0324,0.013523,0.002678,0.000431,0.001410
54692000,0.0324,0.013523,0.002678,0.000431,0.001880
54693000,0.0324,0.013523,0.002678,0.000431,0.001528
54694000,0.0324,0.013523,0.002678,0.000431,0.001763
54695000,0.0324,0.013523,0.002678,0.000431,0.001645
54696000,0.0324,0.013523,0.002678,0.000431,0.001645
54697000,0.0324,0.013523,0.002678,0.000431,0.001763
54698000,0.0324,0.013523,0.002678,0.000431,0.001528
54699000,0.0324,0.013523,0.002678,0.000431,0.001880
54700000,0.0324,0.013523,0.002678,0.000431,0.001528
54701000,0.0324,0.013523,0.002678,0.000431,0.001763
54702000,0.0324,0.013523,0.002678,0.000431,0.001645
54703000,0.0324,0.013523,0.002678,0.000431,0.001645
54704000,0.0324,0.013523,0.002678,0.000431,0.001763
54705000,0.0324,0.013523,0.002678,0.000431,0.001528
54706000,0.0324,0.013523,0.002678,0.000431,0.001880
54707000,0.0324,0.013523,0.002678,0.000431,0.001528
54708000,0.0324,0.013523,0.002678,0.000431,0.001645
54709000,0.0324,0.013523,0.002678,0.000431,0.001763
54710000,0.0324,0.013523,0.002678,0.000431,0.001645
54711000,0.0324,0.013523,0.002678,0.000431,0.001763
54712000,0.0324,0.013523,0.002678,0.000431,0.001528
54713000,0.0324,0.013523,0.002678,0.000431,0.001645
54714000,0.0324,0.013523,0.002678,0.000431,0.001763
54715000,0.0324,0.013523,0.002678,0.000431,0.001763
54716000,0.0324,0.013523,0.002678,0.000431,0.001528
54717000,0.0324,0.013523,0.002678,0.000431,0.001763
54718000,0.0324,0.013523,0.002678,0.000431,0.001528
54719000,0.0324,0.013523,0.002678,0.000431,0.001763
54720000,0.0324,0.013523,0.002678,0.000431,0.001763
54721000,0.0324,0.013523,0.002678,0.000431,0.001528
54722000,0.0324,0.013523,0.002678,0.000431,0.001880
54723000,0.0324,0.013523,0.002678,0.000431,0.001410
54724000,0.0324,0.013523,0.002678,0.000431,0.001880
54725000,0.0324,0.013523,0.002678,0.000431,0.001528
54726000,0.0324,0.013523,0.002678,0.000431,0.001763
54727000,0.0324,0.013523,0.002678,0.000431,0.001763
54728000,0.0324,0.013523,0.002678,0.000431,0.001528
54729000,0.0324,0.013523,0.002678,0.000431,0.001880
54730000,0.0324,0.013523,0.002678,0.000431,0.001410
54731000,0.0324,0.013523,0.002678,0.000431,0.001880
54732000,0.0324,0.013523,0.002678,0.000431,0.001645
54733000,0.0324,0.013523,0.002678,0.000431,0.001645
54734000,0.0324,0.013523,0.002678,0.000431,0.001645
54735000,0.0324,0.013523,0.002678,0.000431,0.001645
54736000,0.0324,0.013523,0.002678,0.000431,0.001763
54737000,0.0324,0.013523,0.002678,0.000431,0.001528
54738000,0.0324,0.013523,0.002678,0.000431,0.001880
54739000,0.0324,0.013523,0.002678,0.000431,0.001528
54740000,0.0324,0.013523,0.002678,0.000431,0.001763
54741000,0.0324,0.013523,0.002678,0.000431,0.001528
54742000,0.0324,0.013523,0.002678,0.000431,0.001763
54743000,0.0324,0.013523,0.002678,0.000431,0.001645
54744000,0.0324,0.013523,0.002678,0.000431,0.001645
54745000,0.0324,0.013523,0.002678,0.000431,0.001880
54746000,0.0324,0.013523,0.002678,0.000431,0.001410
54747000,0.0324,0.013523,0.002678,0.000431,0.001880
54748000,0.0324,0.013523,0.002678,0.000431,0.001528
54749000,0.0324,0.013523,0.002678,0.000431,0.001763
54750000,0.0324,0.013523,0.002678,0.000431,0.001763
54751000,0.0324,0.013523,0.002678,0.000431,0.001528
54752000,0.0324,0.013523,0.002678,0.000431,0.001880
54753000,0.0324,0.013523,0.002678,0.000431,0.001410
54754000,0.0324,0.013523,0.002678,0.000431,0.001880
54755000,0.0324,0.013523,0.002678,0.000431,0.001645
54756000,0.0324,0.013523,0.002678,0.000431,0.001645
54757000,0.0324,0.013523,0.002678,0.000431,0.001645
54758000,0.0324,0.013523,0.002678,0.000431,0.001645
54759000,0.0324,0.013523,0.002678,0.000431,0.001763
54760000,0.0324,0.013523,0.002678,0.000431,0.001528
54761000,0.0324,0.013523,0.002678,0.000431,0.001763
54762000,0.0324,0.013523,0.002678,0.000431,0.001528
54763000,0.0324,0.013523,0.002678,0.000431,0.001763
54764000,0.0324,0.013523,0.002678,0.000431,0.001763
54765000,0.0324,0.013523,0.002678,0.000431,0.001645
54766000,0.0324,0.013523,0.002678,0.000431,0.001528
54767000,0.0324,0.013523,0.002678,0.000431,0.001763
54768000,0.0324,0.013523,0.002678,0.000431,0.001763
54769000,0.0324,0.013523,0.002678,0.000431,0.001528
54770000,0.0324,0.013523,0.002678,0.000431,0.001880
54771000,0.0324,0.013523,0.002678,0.000431,0.001410
54772000,0.0324,0.013523,0.002678,0.000431,0.001880
54773000,0.0324,0.013523,0.002678,0.000431,0.001528
54774000,0.0324,0.013523,0.002678,0.000431,0.001763
54775000,0.0324,0.013523,0.002678,0.000431,0.001763
54776000,0.0324,0.013523,0.002678,0.000431,0.001528
54777000,0.0324,0.013523,0.002678,0.000431,0.001880
54778000,0.0324,0.013523,0.002678,0.000431,0.001528
54779000,0.0324,0.013523,0.002678,0.000431,0.001763
54780000,0.0324,0.013523,0.002678,0.000431,0.001645
54781000,0.0324,0.013523,0.002678,0.000431,0.001645
54782000,0.0324,0.013523,0.002678,0.000431,0.001763
54783000,0.0324,0.013523,0.002678,0.000431,0.001528
54784000,0.0324,0.013523,0.002678,0.000431,0.001763
54785000,0.0324,0.013523,0.002678,0.000431,0.001528
54786000,0.0324,0.013523,0.002678,0.000431,0.001880
54787000,0.0324,0.013523,0.002678,0.000431,0.001528
54788000,0.0324,0.013523,0.002678,0.000431,0.001763
54789000,0.0324,0.013523,0.002678,0.000431,0.001528
54790000,0.0324,0.013523,0.002678,0.000431,0.016336
54791000,0.0324,0.013523,0.002678,0.000431,0.461181
54792000,0.0324,0.013523,0.002678,0.000431,0.591637
54793000,0.0324,0.013523,0.002678,0.000431,0.133512
54794000,0.0324,0.013523,0.002678,0.000431,0.131632
54795000,0.0324,0.013523,0.002678,0.000431,0.346003
54796000,0.0324,0.013523,0.002678,0.000431,0.435559
54797000,0.0324,0.013523,0.002678,0.000431,0.228122
54798000,0.0324,0.013523,0.002678,0.000431,0.356110
54799000,0.0324,0.013523,0.002678,0.000431,0.195449
54800000,0.0324,0.013523,0.002678,0.000431,0.144207
54801000,0.0324,0.013523,0.002678,0.000431,0.121172
54802000,0.0324,0.013523,0.002678,0.000431,0.279952
54803000,0.0324,0.013523,0.002678,0.000431,0.328961
54804000,0.0324,0.013523,0.002678,0.000431,0.064288
54805000,0.0324,0.013523,0.002678,0.000431,0.046659
54806000,0.0324,0.013523,0.002678,0.000431,0.044191
54807000,0.0324,0.013523,0.002678,0.000431,0.037727
54808000,0.0324,0.013523,0.002678,0.000431,0.039607
54809000,0.0324,0.013523,0.002678,0.000431,0.029500
54810000,0.0324,0.013523,0.002678,0.000431,0.025151
54811000,0.0324,0.013523,0.002678,0.000431,0.020920
54812000,0.0324,0.013523,0.002678,0.000431,0.016219
54813000,0.0324,0.013523,0.002678,0.000431,0.015279
54814000,0.0324,0.013523,0.002678,0.000431,0.014103
54815000,0.0324,0.013523,0.002678,0.000431,0.011753
54816000,0.0324,0.013523,0.002678,0.000431,0.012576
54817000,0.0324,0.013523,0.002678,0.000431,0.010813
54818000,0.0324,0.013523,0.002678,0.000431,0.012223
54819000,0.0324,0.013523,0.002678,0.000431,0.009872
54820000,0.0324,0.013523,0.002678,0.000431,0.010695
54821000,0.0324,0.013523,0.002678,0.000431,0.010107
54822000,0.0324,0.013523,0.002678,0.000431,0.008109
54823000,0.0324,0.013523,0.002678,0.000431,0.003996
54824000,0.0324,0.013523,0.002678,0.000431,0.006934
54825000,0.0324,0.013523,0.002678,0.000431,0.003173
54826000,0.0324,0.013523,0.002678,0.000431,0.003173
54827000,0.0324,0.013523,0.002678,0.000431,0.003173
54828000,0.0324,0.013523,0.002678,0.000431,0.003173
54829000,0.0324,0.013523,0.002678,0.000431,0.003408
54830000,0.0324,0.013523,0.002678,0.000431,0.003173
54831000,0.0324,0.013523,0.002678,0.000431,0.002468
54832000,0.0324,0.013523,0.002678,0.000431,0.002586
54833000,0.0324,0.013523,0.002678,0.000431,0.002703
54834000,0.0324,0.013523,0.002678,0.000431,0.002703
54835000,0.0324,0.013523,0.002678,0.000431,0.002351
54836000,0.0324,0.013523,0.002678,0.000431,0.002703
54837000,0.0324,0.013523,0.002678,0.000431,0.002586
54838000,0.0324,0.013523,0.002678,0.000431,0.002586
54839000,0.0324,0.013523,0.002678,0.000431,0.005054
54840000,0.0324,0.013523,0.002678,0.000431,0.001645
54841000,0.0324,0.013523,0.002678,0.000431,0.001763
54842000,0.0324,0.013523,0.002678,0.000431,0.001645
54843000,0.0324,0.013523,0.002678,0.000431,0.001880
54844000,0.0324,0.013523,0.002678,0.000431,0.001528
54845000,0.0324,0.013523,0.002678,0.000431,0.001763
54846000,0.0324,0.013523,0.002678,0.000431,0.001763
54847000,0.0324,0.013523,0.002678,0.000431,0.001763
54848000,0.0324,0.013523,0.002678,0.000431,0.001528
54849000,0.0324,0.013523,0.002678,0.000431,0.004231
54850000,0.0324,0.013523,0.002678,0.000431,0.000940
54851000,0.0324,0.013523,0.002678,0.000431,0.000823
54852000,0.0324,0.013523,0.002678,0.000431,0.000823
54853000,0.0324,0.013523,0.002678,0.000431,0.000940
54854000,0.0324,0.013523,0.002678,0.000431,0.000940
54855000,0.0324,0.013523,0.002678,0.000431,0.000823
54856000,0.0324,0.013523,0.002678,0.000431,0.000823
54857000,0.0324,0.013523,0.002678,0.000431,0.000940
54858000,0.0324,0.013523,0.002678,0.000431,0.000823
54859000,0.0324,0.013523,0.002678,0.000431,0.000940
54860000,0.0324,0.013523,0.002678,0.000431,0.000823
54861000,0.0324,0.013523,0.002678,0.000431,0.000940
54862000,0.0324,0.013523,0.002678,0.000431,0.000823
54863000,0.0324,0.013523,0.002678,0.000431,0.000823
54864000,0.0324,0.013523,0.002678,0.000431,0.000940
54865000,0.0324,0.013523,0.002678,0.000431,0.000940
54866000,0.0324,0.013523,0.002678,0.000431,0.000940
54867000,0.0324,0.013523,0.002678,0.000431,0.000705
54868000,0.0324,0.013523,0.002678,0.000431,0.000940
54869000,0.0324,0.013523,0.002678,0.000431,0.000940
54870000,0.0324,0.013523,0.002678,0.000431,0.000823
54871000,0.0324,0.013523,0.002678,0.000431,0.000823
54872000,0.0324,0.013523,0.002678,0.000431,0.000940
54873000,0.0324,0.013523,0.002678,0.000431,0.185577
54874000,0.0324,0.013523,0.002678,0.000431,0.454834
54875000,0.0324,0.013523,0.002678,0.000431,0.521355
54876000,0.0324,0.013523,0.002678,0.000431,0.133042
54877000,0.0324,0.013523,0.002678,0.000431,0.132454
54878000,0.0324,0.013523,0.002678,0.000431,0.556731
54879000,0.0324,0.013523,0.002678,0.000431,0.248102
54880000,0.0324,0.013523,0.002678,0.000431,0.224714
54881000,0.0324,0.013523,0.002678,0.000431,0.315328
54882000,0.0324,0.013523,0.002678,0.000431,0.155137
54883000,0.0324,0.013523,0.002678,0.000431,0.141621
54884000,0.0324,0.013523,0.002678,0.000431,0.108361
54885000,0.0324,0.013523,0.002678,0.000431,0.371036
54886000,0.0324,0.013523,0.002678,0.000431,0.257269
54887000,0.0324,0.013523,0.002678,0.000431,0.076746
54888000,0.0324,0.013523,0.002678,0.000431,0.061702
54889000,0.0324,0.013523,0.002678,0.000431,0.058999
54890000,0.0324,0.013523,0.002678,0.000431,0.050067
54891000,0.0324,0.013523,0.002678,0.000431,0.044308
54892000,0.0324,0.013523,0.002678,0.000431,0.043485
54893000,0.0324,0.013523,0.002678,0.000431,0.024328
54894000,0.0324,0.013523,0.002678,0.000431,0.024211
54895000,0.0324,0.013523,0.002678,0.000431,0.022448
54896000,0.0324,0.013523,0.002678,0.000431,0.011400
54897000,0.0324,0.013523,0.002678,0.000431,0.013398
54898000,0.0324,0.013523,0.002678,0.000431,0.011988
54899000,0.0324,0.013523,0.002678,0.000431,0.008697
54900000,0.0324,0.013523,0.002678,0.000431,0.005994
54901000,0.0324,0.013523,0.002678,0.000431,0.009637
54902000,0.0324,0.013523,0.002678,0.000431,0.004231
54903000,0.0324,0.013523,0.002678,0.000431,0.002586
54904000,0.0324,0.013523,0.002678,0.000431,0.002703
54905000,0.0324,0.013523,0.002678,0.000431,0.003643
54906000,0.0324,0.013523,0.002678,0.000431,0.001528
54907000,0.0324,0.013523,0.002678,0.000431,0.001880
54908000,0.0324,0.013523,0.002678,0.000431,0.001410
54909000,0.0324,0.013523,0.002678,0.000431,0.002821
54910000,0.0324,0.013523,0.002678,0.000431,0.000823
54911000,0.0324,0.013523,0.002678,0.000431,0.000823
54912000,0.0324,0.013523,0.002678,0.000431,0.000940
54913000,0.0324,0.013523,0.002678,0.000431,0.000705
54914000,0.0324,0.013523,0.002678,0.000431,0.206144
54915000,0.0324,0.013523,0.002678,0.000431,0.590109
54916000,0.0324,0.013523,0.002678,0.000431,0.409703
54917000,0.0324,0.013523,0.002678,0.000431,0.132572
54918000,0.0324,0.013523,0.002678,0.000431,0.143737
54919000,0.0324,0.013523,0.002678,0.000431,0.648991
54920000,0.0324,0.013523,0.002678,0.000431,0.223068
54921000,0.0324,0.013523,0.002678,0.000431,0.295583
54922000,0.0324,0.013523,0.002678,0.000431,0.242343
54923000,0.0324,0.013523,0.002678,0.000431,0.144442
54924000,0.0324,0.013523,0.002678,0.000431,0.131984
54925000,0.0324,0.013523,0.002678,0.000431,0.249865
54926000,0.0324,0.013523,0.002678,0.000431,0.371389
54927000,0.0324,0.013523,0.002678,0.000431,0.071927
54928000,0.0324,0.013523,0.002678,0.000431,0.057941
54929000,0.0324,0.013523,0.002678,0.000431,0.049714
54930000,0.0324,0.013523,0.002678,0.000431,0.041840
54931000,0.0324,0.013523,0.002678,0.000431,0.032673
54932000,0.0324,0.013523,0.002678,0.000431,0.030087
54933000,0.0324,0.013523,0.002678,0.000431,0.024328
54934000,0.0324,0.013523,0.002678,0.000431,0.020450
54935000,0.0324,0.013523,0.002678,0.000431,0.017042
54936000,0.0324,0.013523,0.002678,0.000431,0.018569
54937000,0.0324,0.013523,0.002678,0.000431,0.017394
54938000,0.0324,0.013523,0.002678,0.000431,0.023036
54939000,0.0324,0.013523,0.002678,0.000431,0.011400
54940000,0.0324,0.013523,0.002678,0.000431,0.009990
54941000,0.0324,0.013523,0.002678,0.000431,0.012811
54942000,0.0324,0.013523,0.002678,0.000431,0.008580
54943000,0.0324,0.013523,0.002678,0.000431,0.009872
54944000,0.0324,0.013523,0.002678,0.000431,0.009872
54945000,0.0324,0.013523,0.002678,0.000431,0.008697
54946000,0.0324,0.013523,0.002678,0.000431,0.008580
54947000,0.0324,0.013523,0.002678,0.000431,0.008462
54948000,0.0324,0.013523,0.002678,0.000431,0.009402
54949000,0.0324,0.013523,0.002678,0.000431,0.008815
54950000,0.0324,0.013523,0.002678,0.000431,0.007169
54951000,0.0324,0.013523,0.002678,0.000431,0.009285
54952000,0.0324,0.013523,0.002678,0.000431,0.005406
54953000,0.0324,0.013523,0.002678,0.000431,0.006347
54954000,0.0324,0.013523,0.002678,0.000431,0.005876
54955000,0.0324,0.013523,0.002678,0.000431,0.006817
54956000,0.0324,0.013523,0.002678,0.000431,0.005524
54957000,0.0324,0.013523,0.002678,0.000431,0.006229
54958000,0.0324,0.013523,0.002678,0.000431,0.006699
54959000,0.0324,0.013523,0.002678,0.000431,0.005406
54960000,0.0324,0.013523,0.002678,0.000431,0.006229
54961000,0.0324,0.013523,0.002678,0.000431,0.006582
54962000,0.0324,0.013523,0.002678,0.000431,0.006111
54963000,0.0324,0.013523,0.002678,0.000431,0.005054
54964000,0.0324,0.013523,0.002678,0.000431,0.005524
54965000,0.0324,0.013523,0.002678,0.000431,0.004584
54966000,0.0324,0.013523,0.002678,0.000431,0.004466
54967000,0.0324,0.013523,0.002678,0.000431,0.004936
54968000,0.0324,0.013523,0.002678,0.000431,0.004584
54969000,0.0324,0.013523,0.002678,0.000431,0.006699
54970000,0.0324,0.013523,0.002678,0.000431,0.003408
54971000,0.0324,0.013523,0.002678,0.000431,0.004349
54972000,0.0324,0.013523,0.002678,0.000431,0.003408
54973000,0.0324,0.013523,0.002678,0.000431,0.003878
54974000,0.0324,0.013523,0.002678,0.000431,0.004113
54975000,0.0324,0.013523,0.002678,0.000431,0.003643
54976000,0.0324,0.013523,0.002678,0.000431,0.003878
54977000,0.0324,0.013523,0.002678,0.000431,0.003878
54978000,0.0324,0.013523,0.002678,0.000431,0.004819
54979000,0.0324,0.013523,0.002678,0.000431,0.004113
54980000,0.0324,0.013523,0.002678,0.000431,0.002703
54981000,0.0324,0.013523,0.002678,0.000431,0.003526
54982000,0.0324,0.013523,0.002678,0.000431,0.004701
54983000,0.0324,0.013523,0.002678,0.000431,0.001998
54984000,0.0324,0.013523,0.002678,0.000431,0.002351
54985000,0.0324,0.013523,0.002678,0.000431,0.002116
54986000,0.0324,0.013523,0.002678,0.000431,0.001998
54987000,0.0324,0.013523,0.002678,0.000431,0.002233
54988000,0.0324,0.013523,0.002678,0.000431,0.002233
54989000,0.0324,0.013523,0.002678,0.000431,0.001998
54990000,0.0324,0.013523,0.002678,0.000431,0.001880
54991000,0.0324,0.013523,0.002678,0.000431,0.002586
54992000,0.0324,0.013523,0.002678,0.000431,0.001998
54993000,0.0324,0.013523,0.002678,0.000431,0.001998
54994000,0.0324,0.013523,0.002678,0.000431,0.002233
54995000,0.0324,0.013523,0.002678,0.000431,0.002233
54996000,0.0324,0.013523,0.002678,0.000431,0.001998
54997000,0.0324,0.013523,0.002678,0.000431,0.002233
54998000,0.0324,0.013523,0.002678,0.000431,0.001763
54999000,0.0324,0.013523,0.002678,0.000431,0.001645
