Cycle,Area(mm^2),PeakDynamic(W),SubthresholdLeakage(W),GateLeakage(W),RunTimeDynamic(W)
76000000,0.0324,0.013523,0.002678,0.000431,0.011283
76001000,0.0324,0.013523,0.002678,0.000431,0.005054
76002000,0.0324,0.013523,0.002678,0.000431,0.004231
76003000,0.0324,0.013523,0.002678,0.000431,0.005054
76004000,0.0324,0.013523,0.002678,0.000431,0.003878
76005000,0.0324,0.013523,0.002678,0.000431,0.004584
76006000,0.0324,0.013523,0.002678,0.000431,0.003526
76007000,0.0324,0.013523,0.002678,0.000431,0.003291
76008000,0.0324,0.013523,0.002678,0.000431,0.003526
76009000,0.0324,0.013523,0.002678,0.000431,0.005524
76010000,0.0324,0.013523,0.002678,0.000431,0.002468
76011000,0.0324,0.013523,0.002678,0.000431,0.002703
76012000,0.0324,0.013523,0.002678,0.000431,0.002468
76013000,0.0324,0.013523,0.002678,0.000431,0.002703
76014000,0.0324,0.013523,0.002678,0.000431,0.002351
76015000,0.0324,0.013523,0.002678,0.000431,0.002468
76016000,0.0324,0.013523,0.002678,0.000431,0.002586
76017000,0.0324,0.013523,0.002678,0.000431,0.002703
76018000,0.0324,0.013523,0.002678,0.000431,0.002233
76019000,0.0324,0.013523,0.002678,0.000431,0.002586
76020000,0.0324,0.013523,0.002678,0.000431,0.003526
76021000,0.0324,0.013523,0.002678,0.000431,0.001645
76022000,0.0324,0.013523,0.002678,0.000431,0.001763
76023000,0.0324,0.013523,0.002678,0.000431,0.001645
76024000,0.0324,0.013523,0.002678,0.000431,0.001763
76025000,0.0324,0.013523,0.002678,0.000431,0.001763
76026000,0.0324,0.013523,0.002678,0.000431,0.001645
76027000,0.0324,0.013523,0.002678,0.000431,0.001645
76028000,0.0324,0.013523,0.002678,0.000431,0.001763
76029000,0.0324,0.013523,0.002678,0.000431,0.001645
76030000,0.0324,0.013523,0.002678,0.000431,0.001763
76031000,0.0324,0.013523,0.002678,0.000431,0.003173
76032000,0.0324,0.013523,0.002678,0.000431,0.001058
76033000,0.0324,0.013523,0.002678,0.000431,0.000823
76034000,0.0324,0.013523,0.002678,0.000431,0.000940
76035000,0.0324,0.013523,0.002678,0.000431,0.000823
76036000,0.0324,0.013523,0.002678,0.000431,0.000940
76037000,0.0324,0.013523,0.002678,0.000431,0.000823
76038000,0.0324,0.013523,0.002678,0.000431,0.000823
76039000,0.0324,0.013523,0.002678,0.000431,0.000940
76040000,0.0324,0.013523,0.002678,0.000431,0.000940
76041000,0.0324,0.013523,0.002678,0.000431,0.000940
76042000,0.0324,0.013523,0.002678,0.000431,0.000940
76043000,0.0324,0.013523,0.002678,0.000431,0.000823
76044000,0.0324,0.013523,0.002678,0.000431,0.014338
76045000,0.0324,0.013523,0.002678,0.000431,0.555086
76046000,0.0324,0.013523,0.002678,0.000431,0.596456
76047000,0.0324,0.013523,0.002678,0.000431,0.132807
76048000,0.0324,0.013523,0.002678,0.000431,0.132572
76049000,0.0324,0.013523,0.002678,0.000431,0.468467
76050000,0.0324,0.013523,0.002678,0.000431,0.288414
76051000,0.0324,0.013523,0.002678,0.000431,0.230825
76052000,0.0324,0.013523,0.002678,0.000431,0.288179
76053000,0.0324,0.013523,0.002678,0.000431,0.159368
76054000,0.0324,0.013523,0.002678,0.000431,0.144795
76055000,0.0324,0.013523,0.002678,0.000431,0.182286
76056000,0.0324,0.013523,0.002678,0.000431,0.109771
76057000,0.0324,0.013523,0.002678,0.000431,0.462238
76058000,0.0324,0.013523,0.002678,0.000431,0.078156
76059000,0.0324,0.013523,0.002678,0.000431,0.052888
76060000,0.0324,0.013523,0.002678,0.000431,0.048892
76061000,0.0324,0.013523,0.002678,0.000431,0.035846
76062000,0.0324,0.013523,0.002678,0.000431,0.038549
76063000,0.0324,0.013523,0.002678,0.000431,0.025621
76064000,0.0324,0.013523,0.002678,0.000431,0.029265
76065000,0.0324,0.013523,0.002678,0.000431,0.018805
76066000,0.0324,0.013523,0.002678,0.000431,0.021155
76067000,0.0324,0.013523,0.002678,0.000431,0.020567
76068000,0.0324,0.013523,0.002678,0.000431,0.016924
76069000,0.0324,0.013523,0.002678,0.000431,0.018805
76070000,0.0324,0.013523,0.002678,0.000431,0.013516
76071000,0.0324,0.013523,0.002678,0.000431,0.014338
76072000,0.0324,0.013523,0.002678,0.000431,0.011400
76073000,0.0324,0.013523,0.002678,0.000431,0.013868
76074000,0.0324,0.013523,0.002678,0.000431,0.011753
76075000,0.0324,0.013523,0.002678,0.000431,0.009520
76076000,0.0324,0.013523,0.002678,0.000431,0.008462
76077000,0.0324,0.013523,0.002678,0.000431,0.008109
76078000,0.0324,0.013523,0.002678,0.000431,0.008815
76079000,0.0324,0.013523,0.002678,0.000431,0.008345
76080000,0.0324,0.013523,0.002678,0.000431,0.008227
76081000,0.0324,0.013523,0.002678,0.000431,0.009167
76082000,0.0324,0.013523,0.002678,0.000431,0.007522
76083000,0.0324,0.013523,0.002678,0.000431,0.010107
76084000,0.0324,0.013523,0.002678,0.000431,0.006582
76085000,0.0324,0.013523,0.002678,0.000431,0.006817
76086000,0.0324,0.013523,0.002678,0.000431,0.008109
76087000,0.0324,0.013523,0.002678,0.000431,0.005406
76088000,0.0324,0.013523,0.002678,0.000431,0.006111
76089000,0.0324,0.013523,0.002678,0.000431,0.005759
76090000,0.0324,0.013523,0.002678,0.000431,0.006111
76091000,0.0324,0.013523,0.002678,0.000431,0.005641
76092000,0.0324,0.013523,0.002678,0.000431,0.005876
76093000,0.0324,0.013523,0.002678,0.000431,0.005994
76094000,0.0324,0.013523,0.002678,0.000431,0.006347
76095000,0.0324,0.013523,0.002678,0.000431,0.005876
76096000,0.0324,0.013523,0.002678,0.000431,0.004936
76097000,0.0324,0.013523,0.002678,0.000431,0.004936
76098000,0.0324,0.013523,0.002678,0.000431,0.005289
76099000,0.0324,0.013523,0.002678,0.000431,0.004819
76100000,0.0324,0.013523,0.002678,0.000431,0.004936
76101000,0.0324,0.013523,0.002678,0.000431,0.006934
76102000,0.0324,0.013523,0.002678,0.000431,0.004231
76103000,0.0324,0.013523,0.002678,0.000431,0.004231
76104000,0.0324,0.013523,0.002678,0.000431,0.004113
76105000,0.0324,0.013523,0.002678,0.000431,0.003996
76106000,0.0324,0.013523,0.002678,0.000431,0.004584
76107000,0.0324,0.013523,0.002678,0.000431,0.004113
76108000,0.0324,0.013523,0.002678,0.000431,0.004113
76109000,0.0324,0.013523,0.002678,0.000431,0.004231
76110000,0.0324,0.013523,0.002678,0.000431,0.005289
76111000,0.0324,0.013523,0.002678,0.000431,0.004701
76112000,0.0324,0.013523,0.002678,0.000431,0.003291
76113000,0.0324,0.013523,0.002678,0.000431,0.003526
76114000,0.0324,0.013523,0.002678,0.000431,0.003173
76115000,0.0324,0.013523,0.002678,0.000431,0.003526
76116000,0.0324,0.013523,0.002678,0.000431,0.003408
76117000,0.0324,0.013523,0.002678,0.000431,0.003291
76118000,0.0324,0.013523,0.002678,0.000431,0.003291
76119000,0.0324,0.013523,0.002678,0.000431,0.004701
76120000,0.0324,0.013523,0.002678,0.000431,0.002586
76121000,0.0324,0.013523,0.002678,0.000431,0.002468
76122000,0.0324,0.013523,0.002678,0.000431,0.002703
76123000,0.0324,0.013523,0.002678,0.000431,0.002233
76124000,0.0324,0.013523,0.002678,0.000431,0.002703
76125000,0.0324,0.013523,0.002678,0.000431,0.002351
76126000,0.0324,0.013523,0.002678,0.000431,0.002586
76127000,0.0324,0.013523,0.002678,0.000431,0.002703
76128000,0.0324,0.013523,0.002678,0.000431,0.002233
76129000,0.0324,0.013523,0.002678,0.000431,0.002821
76130000,0.0324,0.013523,0.002678,0.000431,0.002233
76131000,0.0324,0.013523,0.002678,0.000431,0.002703
76132000,0.0324,0.013523,0.002678,0.000431,0.002586
76133000,0.0324,0.013523,0.002678,0.000431,0.002351
76134000,0.0324,0.013523,0.002678,0.000431,0.002586
76135000,0.0324,0.013523,0.002678,0.000431,0.002468
76136000,0.0324,0.013523,0.002678,0.000431,0.002703
76137000,0.0324,0.013523,0.002678,0.000431,0.002233
76138000,0.0324,0.013523,0.002678,0.000431,0.004113
76139000,0.0324,0.013523,0.002678,0.000431,0.003408
76140000,0.0324,0.013523,0.002678,0.000431,0.001528
76141000,0.0324,0.013523,0.002678,0.000431,0.001880
76142000,0.0324,0.013523,0.002678,0.000431,0.001645
76143000,0.0324,0.013523,0.002678,0.000431,0.001645
76144000,0.0324,0.013523,0.002678,0.000431,0.001645
76145000,0.0324,0.013523,0.002678,0.000431,0.001645
76146000,0.0324,0.013523,0.002678,0.000431,0.001645
76147000,0.0324,0.013523,0.002678,0.000431,0.001763
76148000,0.0324,0.013523,0.002678,0.000431,0.001763
76149000,0.0324,0.013523,0.002678,0.000431,0.001645
76150000,0.0324,0.013523,0.002678,0.000431,0.001528
76151000,0.0324,0.013523,0.002678,0.000431,0.001645
76152000,0.0324,0.013523,0.002678,0.000431,0.001880
76153000,0.0324,0.013523,0.002678,0.000431,0.001645
76154000,0.0324,0.013523,0.002678,0.000431,0.001645
76155000,0.0324,0.013523,0.002678,0.000431,0.001645
76156000,0.0324,0.013523,0.002678,0.000431,0.001645
76157000,0.0324,0.013523,0.002678,0.000431,0.001763
76158000,0.0324,0.013523,0.002678,0.000431,0.001645
76159000,0.0324,0.013523,0.002678,0.000431,0.001763
76160000,0.0324,0.013523,0.002678,0.000431,0.001645
76161000,0.0324,0.013523,0.002678,0.000431,0.001645
76162000,0.0324,0.013523,0.002678,0.000431,0.001763
76163000,0.0324,0.013523,0.002678,0.000431,0.001645
76164000,0.0324,0.013523,0.002678,0.000431,0.003173
76165000,0.0324,0.013523,0.002678,0.000431,0.000823
76166000,0.0324,0.013523,0.002678,0.000431,0.000823
76167000,0.0324,0.013523,0.002678,0.000431,0.000823
76168000,0.0324,0.013523,0.002678,0.000431,0.000940
76169000,0.0324,0.013523,0.002678,0.000431,0.000705
76170000,0.0324,0.013523,0.002678,0.000431,0.000940
76171000,0.0324,0.013523,0.002678,0.000431,0.000823
76172000,0.0324,0.013523,0.002678,0.000431,0.000823
76173000,0.0324,0.013523,0.002678,0.000431,0.000705
76174000,0.0324,0.013523,0.002678,0.000431,0.000940
76175000,0.0324,0.013523,0.002678,0.000431,0.000940
76176000,0.0324,0.013523,0.002678,0.000431,0.000705
76177000,0.0324,0.013523,0.002678,0.000431,0.000940
76178000,0.0324,0.013523,0.002678,0.000431,0.000705
76179000,0.0324,0.013523,0.002678,0.000431,0.000940
76180000,0.0324,0.013523,0.002678,0.000431,0.000823
76181000,0.0324,0.013523,0.002678,0.000431,0.000823
76182000,0.0324,0.013523,0.002678,0.000431,0.000940
76183000,0.0324,0.013523,0.002678,0.000431,0.000705
76184000,0.0324,0.013523,0.002678,0.000431,0.000940
76185000,0.0324,0.013523,0.002678,0.000431,0.000823
76186000,0.0324,0.013523,0.002678,0.000431,0.000823
76187000,0.0324,0.013523,0.002678,0.000431,0.000823
76188000,0.0324,0.013523,0.002678,0.000431,0.000823
76189000,0.0324,0.013523,0.002678,0.000431,0.000823
76190000,0.0324,0.013523,0.002678,0.000431,0.000823
76191000,0.0324,0.013523,0.002678,0.000431,0.000940
76192000,0.0324,0.013523,0.002678,0.000431,0.000705
76193000,0.0324,0.013523,0.002678,0.000431,0.000823
76194000,0.0324,0.013523,0.002678,0.000431,0.000940
76195000,0.0324,0.013523,0.002678,0.000431,0.000823
76196000,0.0324,0.013523,0.002678,0.000431,0.000823
76197000,0.0324,0.013523,0.002678,0.000431,0.000823
76198000,0.0324,0.013523,0.002678,0.000431,0.000705
76199000,0.0324,0.013523,0.002678,0.000431,0.000940
76200000,0.0324,0.013523,0.002678,0.000431,0.000940
76201000,0.0324,0.013523,0.002678,0.000431,0.000705
76202000,0.0324,0.013523,0.002678,0.000431,0.000940
76203000,0.0324,0.013523,0.002678,0.000431,0.000705
76204000,0.0324,0.013523,0.002678,0.000431,0.000940
76205000,0.0324,0.013523,0.002678,0.000431,0.000940
76206000,0.0324,0.013523,0.002678,0.000431,0.000705
76207000,0.0324,0.013523,0.002678,0.000431,0.000940
76208000,0.0324,0.013523,0.002678,0.000431,0.000705
76209000,0.0324,0.013523,0.002678,0.000431,0.000940
76210000,0.0324,0.013523,0.002678,0.000431,0.000823
76211000,0.0324,0.013523,0.002678,0.000431,0.000823
76212000,0.0324,0.013523,0.002678,0.000431,0.000823
76213000,0.0324,0.013523,0.002678,0.000431,0.000823
76214000,0.0324,0.013523,0.002678,0.000431,0.000940
76215000,0.0324,0.013523,0.002678,0.000431,0.000705
76216000,0.0324,0.013523,0.002678,0.000431,0.000940
76217000,0.0324,0.013523,0.002678,0.000431,0.000823
76218000,0.0324,0.013523,0.002678,0.000431,0.000823
76219000,0.0324,0.013523,0.002678,0.000431,0.000823
76220000,0.0324,0.013523,0.002678,0.000431,0.000823
76221000,0.0324,0.013523,0.002678,0.000431,0.000940
76222000,0.0324,0.013523,0.002678,0.000431,0.000705
76223000,0.0324,0.013523,0.002678,0.000431,0.000940
76224000,0.0324,0.013523,0.002678,0.000431,0.000823
76225000,0.0324,0.013523,0.002678,0.000431,0.000823
76226000,0.0324,0.013523,0.002678,0.000431,0.000705
76227000,0.0324,0.013523,0.002678,0.000431,0.000940
76228000,0.0324,0.013523,0.002678,0.000431,0.000940
76229000,0.0324,0.013523,0.002678,0.000431,0.000705
76230000,0.0324,0.013523,0.002678,0.000431,0.000940
76231000,0.0324,0.013523,0.002678,0.000431,0.000705
76232000,0.0324,0.013523,0.002678,0.000431,0.000940
76233000,0.0324,0.013523,0.002678,0.000431,0.000823
76234000,0.0324,0.013523,0.002678,0.000431,0.000823
76235000,0.0324,0.013523,0.002678,0.000431,0.000823
76236000,0.0324,0.013523,0.002678,0.000431,0.000823
76237000,0.0324,0.013523,0.002678,0.000431,0.000940
76238000,0.0324,0.013523,0.002678,0.000431,0.000823
76239000,0.0324,0.013523,0.002678,0.000431,0.000823
76240000,0.0324,0.013523,0.002678,0.000431,0.000823
76241000,0.0324,0.013523,0.002678,0.000431,0.000823
76242000,0.0324,0.013523,0.002678,0.000431,0.000823
76243000,0.0324,0.013523,0.002678,0.000431,0.000823
76244000,0.0324,0.013523,0.002678,0.000431,0.000940
76245000,0.0324,0.013523,0.002678,0.000431,0.000705
76246000,0.0324,0.013523,0.002678,0.000431,0.000823
76247000,0.0324,0.013523,0.002678,0.000431,0.000940
76248000,0.0324,0.013523,0.002678,0.000431,0.000823
76249000,0.0324,0.013523,0.002678,0.000431,0.000823
76250000,0.0324,0.013523,0.002678,0.000431,0.000823
76251000,0.0324,0.013523,0.002678,0.000431,0.000705
76252000,0.0324,0.013523,0.002678,0.000431,0.000940
76253000,0.0324,0.013523,0.002678,0.000431,0.000940
76254000,0.0324,0.013523,0.002678,0.000431,0.000705
76255000,0.0324,0.013523,0.002678,0.000431,0.000940
76256000,0.0324,0.013523,0.002678,0.000431,0.000705
76257000,0.0324,0.013523,0.002678,0.000431,0.000940
76258000,0.0324,0.013523,0.002678,0.000431,0.000940
76259000,0.0324,0.013523,0.002678,0.000431,0.000705
76260000,0.0324,0.013523,0.002678,0.000431,0.000940
76261000,0.0324,0.013523,0.002678,0.000431,0.000705
76262000,0.0324,0.013523,0.002678,0.000431,0.000940
76263000,0.0324,0.013523,0.002678,0.000431,0.000823
76264000,0.0324,0.013523,0.002678,0.000431,0.000823
76265000,0.0324,0.013523,0.002678,0.000431,0.000823
76266000,0.0324,0.013523,0.002678,0.000431,0.000823
76267000,0.0324,0.013523,0.002678,0.000431,0.000940
76268000,0.0324,0.013523,0.002678,0.000431,0.000823
76269000,0.0324,0.013523,0.002678,0.000431,0.000823
76270000,0.0324,0.013523,0.002678,0.000431,0.000823
76271000,0.0324,0.013523,0.002678,0.000431,0.013868
76272000,0.0324,0.013523,0.002678,0.000431,0.503491
76273000,0.0324,0.013523,0.002678,0.000431,0.593517
76274000,0.0324,0.013523,0.002678,0.000431,0.133512
76275000,0.0324,0.013523,0.002678,0.000431,0.131632
76276000,0.0324,0.013523,0.002678,0.000431,0.355523
76277000,0.0324,0.013523,0.002678,0.000431,0.409116
76278000,0.0324,0.013523,0.002678,0.000431,0.236584
76279000,0.0324,0.013523,0.002678,0.000431,0.279952
76280000,0.0324,0.013523,0.002678,0.000431,0.194862
76281000,0.0324,0.013523,0.002678,0.000431,0.142679
76282000,0.0324,0.013523,0.002678,0.000431,0.179583
76283000,0.0324,0.013523,0.002678,0.000431,0.084268
76284000,0.0324,0.013523,0.002678,0.000431,0.484804
76285000,0.0324,0.013523,0.002678,0.000431,0.081917
76286000,0.0324,0.013523,0.002678,0.000431,0.049832
76287000,0.0324,0.013523,0.002678,0.000431,0.048187
76288000,0.0324,0.013523,0.002678,0.000431,0.041370
76289000,0.0324,0.013523,0.002678,0.000431,0.038079
76290000,0.0324,0.013523,0.002678,0.000431,0.029382
76291000,0.0324,0.013523,0.002678,0.000431,0.024798
76292000,0.0324,0.013523,0.002678,0.000431,0.021978
76293000,0.0324,0.013523,0.002678,0.000431,0.014456
76294000,0.0324,0.013523,0.002678,0.000431,0.016924
76295000,0.0324,0.013523,0.002678,0.000431,0.013163
76296000,0.0324,0.013523,0.002678,0.000431,0.013986
76297000,0.0324,0.013523,0.002678,0.000431,0.011988
76298000,0.0324,0.013523,0.002678,0.000431,0.010930
76299000,0.0324,0.013523,0.002678,0.000431,0.010342
76300000,0.0324,0.013523,0.002678,0.000431,0.011048
76301000,0.0324,0.013523,0.002678,0.000431,0.010695
76302000,0.0324,0.013523,0.002678,0.000431,0.013046
76303000,0.0324,0.013523,0.002678,0.000431,0.011518
76304000,0.0324,0.013523,0.002678,0.000431,0.009050
76305000,0.0324,0.013523,0.002678,0.000431,0.009050
76306000,0.0324,0.013523,0.002678,0.000431,0.009167
76307000,0.0324,0.013523,0.002678,0.000431,0.009050
76308000,0.0324,0.013523,0.002678,0.000431,0.008932
76309000,0.0324,0.013523,0.002678,0.000431,0.009520
76310000,0.0324,0.013523,0.002678,0.000431,0.008932
76311000,0.0324,0.013523,0.002678,0.000431,0.011048
76312000,0.0324,0.013523,0.002678,0.000431,0.008345
76313000,0.0324,0.013523,0.002678,0.000431,0.008227
76314000,0.0324,0.013523,0.002678,0.000431,0.008462
76315000,0.0324,0.013523,0.002678,0.000431,0.008227
76316000,0.0324,0.013523,0.002678,0.000431,0.008345
76317000,0.0324,0.013523,0.002678,0.000431,0.008227
76318000,0.0324,0.013523,0.002678,0.000431,0.008227
76319000,0.0324,0.013523,0.002678,0.000431,0.008227
76320000,0.0324,0.013523,0.002678,0.000431,0.008580
76321000,0.0324,0.013523,0.002678,0.000431,0.006934
76322000,0.0324,0.013523,0.002678,0.000431,0.006464
76323000,0.0324,0.013523,0.002678,0.000431,0.006817
76324000,0.0324,0.013523,0.002678,0.000431,0.006699
76325000,0.0324,0.013523,0.002678,0.000431,0.006934
76326000,0.0324,0.013523,0.002678,0.000431,0.006464
76327000,0.0324,0.013523,0.002678,0.000431,0.007404
76328000,0.0324,0.013523,0.002678,0.000431,0.008697
76329000,0.0324,0.013523,0.002678,0.000431,0.005054
76330000,0.0324,0.013523,0.002678,0.000431,0.005171
76331000,0.0324,0.013523,0.002678,0.000431,0.006464
76332000,0.0324,0.013523,0.002678,0.000431,0.004349
76333000,0.0324,0.013523,0.002678,0.000431,0.006111
76334000,0.0324,0.013523,0.002678,0.000431,0.003408
76335000,0.0324,0.013523,0.002678,0.000431,0.003056
76336000,0.0324,0.013523,0.002678,0.000431,0.003643
76337000,0.0324,0.013523,0.002678,0.000431,0.003173
76338000,0.0324,0.013523,0.002678,0.000431,0.003291
76339000,0.0324,0.013523,0.002678,0.000431,0.003408
76340000,0.0324,0.013523,0.002678,0.000431,0.003408
76341000,0.0324,0.013523,0.002678,0.000431,0.003173
76342000,0.0324,0.013523,0.002678,0.000431,0.005054
76343000,0.0324,0.013523,0.002678,0.000431,0.002703
76344000,0.0324,0.013523,0.002678,0.000431,0.002586
76345000,0.0324,0.013523,0.002678,0.000431,0.002116
76346000,0.0324,0.013523,0.002678,0.000431,0.002586
76347000,0.0324,0.013523,0.002678,0.000431,0.002703
76348000,0.0324,0.013523,0.002678,0.000431,0.002468
76349000,0.0324,0.013523,0.002678,0.000431,0.002233
76350000,0.0324,0.013523,0.002678,0.000431,0.002703
76351000,0.0324,0.013523,0.002678,0.000431,0.002468
76352000,0.0324,0.013523,0.002678,0.000431,0.002468
76353000,0.0324,0.013523,0.002678,0.000431,0.002468
76354000,0.0324,0.013523,0.002678,0.000431,0.002468
76355000,0.0324,0.013523,0.002678,0.000431,0.002586
76356000,0.0324,0.013523,0.002678,0.000431,0.002468
76357000,0.0324,0.013523,0.002678,0.000431,0.002468
76358000,0.0324,0.013523,0.002678,0.000431,0.002351
76359000,0.0324,0.013523,0.002678,0.000431,0.002586
76360000,0.0324,0.013523,0.002678,0.000431,0.003996
76361000,0.0324,0.013523,0.002678,0.000431,0.001763
76362000,0.0324,0.013523,0.002678,0.000431,0.001880
76363000,0.0324,0.013523,0.002678,0.000431,0.001645
76364000,0.0324,0.013523,0.002678,0.000431,0.001410
76365000,0.0324,0.013523,0.002678,0.000431,0.001763
76366000,0.0324,0.013523,0.002678,0.000431,0.001763
76367000,0.0324,0.013523,0.002678,0.000431,0.001645
76368000,0.0324,0.013523,0.002678,0.000431,0.001410
76369000,0.0324,0.013523,0.002678,0.000431,0.001880
76370000,0.0324,0.013523,0.002678,0.000431,0.001645
76371000,0.0324,0.013523,0.002678,0.000431,0.001645
76372000,0.0324,0.013523,0.002678,0.000431,0.001645
76373000,0.0324,0.013523,0.002678,0.000431,0.001645
76374000,0.0324,0.013523,0.002678,0.000431,0.001645
76375000,0.0324,0.013523,0.002678,0.000431,0.001645
76376000,0.0324,0.013523,0.002678,0.000431,0.001645
76377000,0.0324,0.013523,0.002678,0.000431,0.001763
76378000,0.0324,0.013523,0.002678,0.000431,0.001528
76379000,0.0324,0.013523,0.002678,0.000431,0.001645
76380000,0.0324,0.013523,0.002678,0.000431,0.001645
76381000,0.0324,0.013523,0.002678,0.000431,0.001880
76382000,0.0324,0.013523,0.002678,0.000431,0.001410
76383000,0.0324,0.013523,0.002678,0.000431,0.001645
76384000,0.0324,0.013523,0.002678,0.000431,0.001880
76385000,0.0324,0.013523,0.002678,0.000431,0.001645
76386000,0.0324,0.013523,0.002678,0.000431,0.001645
76387000,0.0324,0.013523,0.002678,0.000431,0.001410
76388000,0.0324,0.013523,0.002678,0.000431,0.001880
76389000,0.0324,0.013523,0.002678,0.000431,0.001645
76390000,0.0324,0.013523,0.002678,0.000431,0.001645
76391000,0.0324,0.013523,0.002678,0.000431,0.001645
76392000,0.0324,0.013523,0.002678,0.000431,0.196625
76393000,0.0324,0.013523,0.002678,0.000431,0.462356
76394000,0.0324,0.013523,0.002678,0.000431,0.521120
76395000,0.0324,0.013523,0.002678,0.000431,0.134687
76396000,0.0324,0.013523,0.002678,0.000431,0.131161
76397000,0.0324,0.013523,0.002678,0.000431,0.591284
76398000,0.0324,0.013523,0.002678,0.000431,0.277014
76399000,0.0324,0.013523,0.002678,0.000431,0.269610
76400000,0.0324,0.013523,0.002678,0.000431,0.275604
76401000,0.0324,0.013523,0.002678,0.000431,0.138096
76402000,0.0324,0.013523,0.002678,0.000431,0.178995
76403000,0.0324,0.013523,0.002678,0.000431,0.083327
76404000,0.0324,0.013523,0.002678,0.000431,0.497732
76405000,0.0324,0.013523,0.002678,0.000431,0.175705
76406000,0.0324,0.013523,0.002678,0.000431,0.113297
76407000,0.0324,0.013523,0.002678,0.000431,0.092730
76408000,0.0324,0.013523,0.002678,0.000431,0.079919
76409000,0.0324,0.013523,0.002678,0.000431,0.060409
76410000,0.0324,0.013523,0.002678,0.000431,0.047716
76411000,0.0324,0.013523,0.002678,0.000431,0.047364
76412000,0.0324,0.013523,0.002678,0.000431,0.057471
76413000,0.0324,0.013523,0.002678,0.000431,0.038902
76414000,0.0324,0.013523,0.002678,0.000431,0.030910
76415000,0.0324,0.013523,0.002678,0.000431,0.036199
76416000,0.0324,0.013523,0.002678,0.000431,0.030205
76417000,0.0324,0.013523,0.002678,0.000431,0.027619
76418000,0.0324,0.013523,0.002678,0.000431,0.024211
76419000,0.0324,0.013523,0.002678,0.000431,0.018217
76420000,0.0324,0.013523,0.002678,0.000431,0.015749
76421000,0.0324,0.013523,0.002678,0.000431,0.015866
76422000,0.0324,0.013523,0.002678,0.000431,0.016336
76423000,0.0324,0.013523,0.002678,0.000431,0.013986
76424000,0.0324,0.013523,0.002678,0.000431,0.016101
76425000,0.0324,0.013523,0.002678,0.000431,0.015396
76426000,0.0324,0.013523,0.002678,0.000431,0.012340
76427000,0.0324,0.013523,0.002678,0.000431,0.012340
76428000,0.0324,0.013523,0.002678,0.000431,0.012105
76429000,0.0324,0.013523,0.002678,0.000431,0.009167
76430000,0.0324,0.013523,0.002678,0.000431,0.007052
76431000,0.0324,0.013523,0.002678,0.000431,0.007052
76432000,0.0324,0.013523,0.002678,0.000431,0.006582
76433000,0.0324,0.013523,0.002678,0.000431,0.008697
76434000,0.0324,0.013523,0.002678,0.000431,0.006817
76435000,0.0324,0.013523,0.002678,0.000431,0.003761
76436000,0.0324,0.013523,0.002678,0.000431,0.004584
76437000,0.0324,0.013523,0.002678,0.000431,0.004113
76438000,0.0324,0.013523,0.002678,0.000431,0.004231
76439000,0.0324,0.013523,0.002678,0.000431,0.004349
76440000,0.0324,0.013523,0.002678,0.000431,0.004113
76441000,0.0324,0.013523,0.002678,0.000431,0.007052
76442000,0.0324,0.013523,0.002678,0.000431,0.003408
76443000,0.0324,0.013523,0.002678,0.000431,0.003291
76444000,0.0324,0.013523,0.002678,0.000431,0.005171
76445000,0.0324,0.013523,0.002678,0.000431,0.004113
76446000,0.0324,0.013523,0.002678,0.000431,0.002586
76447000,0.0324,0.013523,0.002678,0.000431,0.002468
76448000,0.0324,0.013523,0.002678,0.000431,0.002468
76449000,0.0324,0.013523,0.002678,0.000431,0.002586
76450000,0.0324,0.013523,0.002678,0.000431,0.003878
76451000,0.0324,0.013523,0.002678,0.000431,0.001763
76452000,0.0324,0.013523,0.002678,0.000431,0.001645
76453000,0.0324,0.013523,0.002678,0.000431,0.001763
76454000,0.0324,0.013523,0.002678,0.000431,0.001528
76455000,0.0324,0.013523,0.002678,0.000431,0.001763
76456000,0.0324,0.013523,0.002678,0.000431,0.001645
76457000,0.0324,0.013523,0.002678,0.000431,0.001645
76458000,0.0324,0.013523,0.002678,0.000431,0.001763
76459000,0.0324,0.013523,0.002678,0.000431,0.003526
76460000,0.0324,0.013523,0.002678,0.000431,0.000940
76461000,0.0324,0.013523,0.002678,0.000431,0.000705
76462000,0.0324,0.013523,0.002678,0.000431,0.000705
76463000,0.0324,0.013523,0.002678,0.000431,0.000940
76464000,0.0324,0.013523,0.002678,0.000431,0.000940
76465000,0.0324,0.013523,0.002678,0.000431,0.000705
76466000,0.0324,0.013523,0.002678,0.000431,0.000940
76467000,0.0324,0.013523,0.002678,0.000431,0.000823
76468000,0.0324,0.013523,0.002678,0.000431,0.000823
76469000,0.0324,0.013523,0.002678,0.000431,0.000823
76470000,0.0324,0.013523,0.002678,0.000431,0.000823
76471000,0.0324,0.013523,0.002678,0.000431,0.000823
76472000,0.0324,0.013523,0.002678,0.000431,0.000823
76473000,0.0324,0.013523,0.002678,0.000431,0.000940
76474000,0.0324,0.013523,0.002678,0.000431,0.000705
76475000,0.0324,0.013523,0.002678,0.000431,0.000940
76476000,0.0324,0.013523,0.002678,0.000431,0.000705
76477000,0.0324,0.013523,0.002678,0.000431,0.000940
76478000,0.0324,0.013523,0.002678,0.000431,0.000940
76479000,0.0324,0.013523,0.002678,0.000431,0.000705
76480000,0.0324,0.013523,0.002678,0.000431,0.000940
76481000,0.0324,0.013523,0.002678,0.000431,0.000705
76482000,0.0324,0.013523,0.002678,0.000431,0.000940
76483000,0.0324,0.013523,0.002678,0.000431,0.000823
76484000,0.0324,0.013523,0.002678,0.000431,0.000823
76485000,0.0324,0.013523,0.002678,0.000431,0.000823
76486000,0.0324,0.013523,0.002678,0.000431,0.000823
76487000,0.0324,0.013523,0.002678,0.000431,0.000940
76488000,0.0324,0.013523,0.002678,0.000431,0.000705
76489000,0.0324,0.013523,0.002678,0.000431,0.000940
76490000,0.0324,0.013523,0.002678,0.000431,0.000823
76491000,0.0324,0.013523,0.002678,0.000431,0.000823
76492000,0.0324,0.013523,0.002678,0.000431,0.000823
76493000,0.0324,0.013523,0.002678,0.000431,0.000823
76494000,0.0324,0.013523,0.002678,0.000431,0.000823
76495000,0.0324,0.013523,0.002678,0.000431,0.000823
76496000,0.0324,0.013523,0.002678,0.000431,0.000823
76497000,0.0324,0.013523,0.002678,0.000431,0.000823
76498000,0.0324,0.013523,0.002678,0.000431,0.000940
76499000,0.0324,0.013523,0.002678,0.000431,0.000823
76500000,0.0324,0.013523,0.002678,0.000431,0.000823
76501000,0.0324,0.013523,0.002678,0.000431,0.000705
76502000,0.0324,0.013523,0.002678,0.000431,0.000940
76503000,0.0324,0.013523,0.002678,0.000431,0.000940
76504000,0.0324,0.013523,0.002678,0.000431,0.000705
76505000,0.0324,0.013523,0.002678,0.000431,0.000940
76506000,0.0324,0.013523,0.002678,0.000431,0.000705
76507000,0.0324,0.013523,0.002678,0.000431,0.000940
76508000,0.0324,0.013523,0.002678,0.000431,0.000823
76509000,0.0324,0.013523,0.002678,0.000431,0.000823
76510000,0.0324,0.013523,0.002678,0.000431,0.000940
76511000,0.0324,0.013523,0.002678,0.000431,0.000705
76512000,0.0324,0.013523,0.002678,0.000431,0.000940
76513000,0.0324,0.013523,0.002678,0.000431,0.000823
76514000,0.0324,0.013523,0.002678,0.000431,0.000823
76515000,0.0324,0.013523,0.002678,0.000431,0.000823
76516000,0.0324,0.013523,0.002678,0.000431,0.000823
76517000,0.0324,0.013523,0.002678,0.000431,0.000823
76518000,0.0324,0.013523,0.002678,0.000431,0.000823
76519000,0.0324,0.013523,0.002678,0.000431,0.000940
76520000,0.0324,0.013523,0.002678,0.000431,0.000823
76521000,0.0324,0.013523,0.002678,0.000431,0.000823
76522000,0.0324,0.013523,0.002678,0.000431,0.000823
76523000,0.0324,0.013523,0.002678,0.000431,0.000823
76524000,0.0324,0.013523,0.002678,0.000431,0.000705
76525000,0.0324,0.013523,0.002678,0.000431,0.000940
76526000,0.0324,0.013523,0.002678,0.000431,0.000940
76527000,0.0324,0.013523,0.002678,0.000431,0.000705
76528000,0.0324,0.013523,0.002678,0.000431,0.000940
76529000,0.0324,0.013523,0.002678,0.000431,0.000705
76530000,0.0324,0.013523,0.002678,0.000431,0.000940
76531000,0.0324,0.013523,0.002678,0.000431,0.000823
76532000,0.0324,0.013523,0.002678,0.000431,0.000823
76533000,0.0324,0.013523,0.002678,0.000431,0.000940
76534000,0.0324,0.013523,0.002678,0.000431,0.000705
76535000,0.0324,0.013523,0.002678,0.000431,0.000940
76536000,0.0324,0.013523,0.002678,0.000431,0.000823
76537000,0.0324,0.013523,0.002678,0.000431,0.000823
76538000,0.0324,0.013523,0.002678,0.000431,0.000823
76539000,0.0324,0.013523,0.002678,0.000431,0.000823
76540000,0.0324,0.013523,0.002678,0.000431,0.000940
76541000,0.0324,0.013523,0.002678,0.000431,0.000705
76542000,0.0324,0.013523,0.002678,0.000431,0.000940
76543000,0.0324,0.013523,0.002678,0.000431,0.000823
76544000,0.0324,0.013523,0.002678,0.000431,0.000705
76545000,0.0324,0.013523,0.002678,0.000431,0.000940
76546000,0.0324,0.013523,0.002678,0.000431,0.000823
76547000,0.0324,0.013523,0.002678,0.000431,0.000823
76548000,0.0324,0.013523,0.002678,0.000431,0.000823
76549000,0.0324,0.013523,0.002678,0.000431,0.000823
76550000,0.0324,0.013523,0.002678,0.000431,0.000823
76551000,0.0324,0.013523,0.002678,0.000431,0.000940
76552000,0.0324,0.013523,0.002678,0.000431,0.000823
76553000,0.0324,0.013523,0.002678,0.000431,0.000823
76554000,0.0324,0.013523,0.002678,0.000431,0.000705
76555000,0.0324,0.013523,0.002678,0.000431,0.000940
76556000,0.0324,0.013523,0.002678,0.000431,0.000940
76557000,0.0324,0.013523,0.002678,0.000431,0.000705
76558000,0.0324,0.013523,0.002678,0.000431,0.000940
76559000,0.0324,0.013523,0.002678,0.000431,0.071575
76560000,0.0324,0.013523,0.002678,0.000431,0.617846
76561000,0.0324,0.013523,0.002678,0.000431,0.580942
76562000,0.0324,0.013523,0.002678,0.000431,0.136803
76563000,0.0324,0.013523,0.002678,0.000431,0.149496
76564000,0.0324,0.013523,0.002678,0.000431,0.593282
76565000,0.0324,0.013523,0.002678,0.000431,0.262205
76566000,0.0324,0.013523,0.002678,0.000431,0.265026
76567000,0.0324,0.013523,0.002678,0.000431,0.263968
76568000,0.0324,0.013523,0.002678,0.000431,0.138213
76569000,0.0324,0.013523,0.002678,0.000431,0.160661
76570000,0.0324,0.013523,0.002678,0.000431,0.165480
76571000,0.0324,0.013523,0.002678,0.000431,0.438380
76572000,0.0324,0.013523,0.002678,0.000431,0.100957
76573000,0.0324,0.013523,0.002678,0.000431,0.086736
76574000,0.0324,0.013523,0.002678,0.000431,0.067461
76575000,0.0324,0.013523,0.002678,0.000431,0.062055
76576000,0.0324,0.013523,0.002678,0.000431,0.053710
76577000,0.0324,0.013523,0.002678,0.000431,0.053475
76578000,0.0324,0.013523,0.002678,0.000431,0.051477
76579000,0.0324,0.013523,0.002678,0.000431,0.042193
76580000,0.0324,0.013523,0.002678,0.000431,0.038902
76581000,0.0324,0.013523,0.002678,0.000431,0.041723
76582000,0.0324,0.013523,0.002678,0.000431,0.035964
76583000,0.0324,0.013523,0.002678,0.000431,0.033966
76584000,0.0324,0.013523,0.002678,0.000431,0.032673
76585000,0.0324,0.013523,0.002678,0.000431,0.027267
76586000,0.0324,0.013523,0.002678,0.000431,0.027031
76587000,0.0324,0.013523,0.002678,0.000431,0.024681
76588000,0.0324,0.013523,0.002678,0.000431,0.027854
76589000,0.0324,0.013523,0.002678,0.000431,0.021743
76590000,0.0324,0.013523,0.002678,0.000431,0.019980
76591000,0.0324,0.013523,0.002678,0.000431,0.022918
76592000,0.0324,0.013523,0.002678,0.000431,0.020332
76593000,0.0324,0.013523,0.002678,0.000431,0.020332
76594000,0.0324,0.013523,0.002678,0.000431,0.020920
76595000,0.0324,0.013523,0.002678,0.000431,0.018922
76596000,0.0324,0.013523,0.002678,0.000431,0.019392
76597000,0.0324,0.013523,0.002678,0.000431,0.020802
76598000,0.0324,0.013523,0.002678,0.000431,0.020332
76599000,0.0324,0.013523,0.002678,0.000431,0.018334
76600000,0.0324,0.013523,0.002678,0.000431,0.017747
76601000,0.0324,0.013523,0.002678,0.000431,0.019392
76602000,0.0324,0.013523,0.002678,0.000431,0.017042
76603000,0.0324,0.013523,0.002678,0.000431,0.018099
76604000,0.0324,0.013523,0.002678,0.000431,0.013163
76605000,0.0324,0.013523,0.002678,0.000431,0.014338
76606000,0.0324,0.013523,0.002678,0.000431,0.013633
76607000,0.0324,0.013523,0.002678,0.000431,0.014103
76608000,0.0324,0.013523,0.002678,0.000431,0.013516
76609000,0.0324,0.013523,0.002678,0.000431,0.013163
76610000,0.0324,0.013523,0.002678,0.000431,0.015161
76611000,0.0324,0.013523,0.002678,0.000431,0.011870
76612000,0.0324,0.013523,0.002678,0.000431,0.010930
76613000,0.0324,0.013523,0.002678,0.000431,0.010695
76614000,0.0324,0.013523,0.002678,0.000431,0.013281
76615000,0.0324,0.013523,0.002678,0.000431,0.009872
76616000,0.0324,0.013523,0.002678,0.000431,0.009520
76617000,0.0324,0.013523,0.002678,0.000431,0.008697
76618000,0.0324,0.013523,0.002678,0.000431,0.011048
76619000,0.0324,0.013523,0.002678,0.000431,0.008227
76620000,0.0324,0.013523,0.002678,0.000431,0.008227
76621000,0.0324,0.013523,0.002678,0.000431,0.008462
76622000,0.0324,0.013523,0.002678,0.000431,0.010342
76623000,0.0324,0.013523,0.002678,0.000431,0.007169
76624000,0.0324,0.013523,0.002678,0.000431,0.007757
76625000,0.0324,0.013523,0.002678,0.000431,0.007404
76626000,0.0324,0.013523,0.002678,0.000431,0.008345
76627000,0.0324,0.013523,0.002678,0.000431,0.007874
76628000,0.0324,0.013523,0.002678,0.000431,0.005994
76629000,0.0324,0.013523,0.002678,0.000431,0.007287
76630000,0.0324,0.013523,0.002678,0.000431,0.006111
76631000,0.0324,0.013523,0.002678,0.000431,0.005759
76632000,0.0324,0.013523,0.002678,0.000431,0.005876
76633000,0.0324,0.013523,0.002678,0.000431,0.005641
76634000,0.0324,0.013523,0.002678,0.000431,0.006111
76635000,0.0324,0.013523,0.002678,0.000431,0.005876
76636000,0.0324,0.013523,0.002678,0.000431,0.006111
76637000,0.0324,0.013523,0.002678,0.000431,0.005524
76638000,0.0324,0.013523,0.002678,0.000431,0.005876
76639000,0.0324,0.013523,0.002678,0.000431,0.005876
76640000,0.0324,0.013523,0.002678,0.000431,0.005759
76641000,0.0324,0.013523,0.002678,0.000431,0.006111
76642000,0.0324,0.013523,0.002678,0.000431,0.005876
76643000,0.0324,0.013523,0.002678,0.000431,0.005406
76644000,0.0324,0.013523,0.002678,0.000431,0.006111
76645000,0.0324,0.013523,0.002678,0.000431,0.005994
76646000,0.0324,0.013523,0.002678,0.000431,0.005641
76647000,0.0324,0.013523,0.002678,0.000431,0.008109
76648000,0.0324,0.013523,0.002678,0.000431,0.004936
76649000,0.0324,0.013523,0.002678,0.000431,0.005054
76650000,0.0324,0.013523,0.002678,0.000431,0.005054
76651000,0.0324,0.013523,0.002678,0.000431,0.005054
76652000,0.0324,0.013523,0.002678,0.000431,0.004936
76653000,0.0324,0.013523,0.002678,0.000431,0.004819
76654000,0.0324,0.013523,0.002678,0.000431,0.005289
76655000,0.0324,0.013523,0.002678,0.000431,0.005054
76656000,0.0324,0.013523,0.002678,0.000431,0.005054
76657000,0.0324,0.013523,0.002678,0.000431,0.004819
76658000,0.0324,0.013523,0.002678,0.000431,0.005054
76659000,0.0324,0.013523,0.002678,0.000431,0.005171
76660000,0.0324,0.013523,0.002678,0.000431,0.006229
76661000,0.0324,0.013523,0.002678,0.000431,0.004349
76662000,0.0324,0.013523,0.002678,0.000431,0.004231
76663000,0.0324,0.013523,0.002678,0.000431,0.004113
76664000,0.0324,0.013523,0.002678,0.000431,0.004349
76665000,0.0324,0.013523,0.002678,0.000431,0.004113
76666000,0.0324,0.013523,0.002678,0.000431,0.003996
76667000,0.0324,0.013523,0.002678,0.000431,0.004231
76668000,0.0324,0.013523,0.002678,0.000431,0.004349
76669000,0.0324,0.013523,0.002678,0.000431,0.003996
76670000,0.0324,0.013523,0.002678,0.000431,0.004349
76671000,0.0324,0.013523,0.002678,0.000431,0.004231
76672000,0.0324,0.013523,0.002678,0.000431,0.003996
76673000,0.0324,0.013523,0.002678,0.000431,0.004113
76674000,0.0324,0.013523,0.002678,0.000431,0.004349
76675000,0.0324,0.013523,0.002678,0.000431,0.004349
76676000,0.0324,0.013523,0.002678,0.000431,0.003643
76677000,0.0324,0.013523,0.002678,0.000431,0.004701
76678000,0.0324,0.013523,0.002678,0.000431,0.003996
76679000,0.0324,0.013523,0.002678,0.000431,0.004231
76680000,0.0324,0.013523,0.002678,0.000431,0.004231
76681000,0.0324,0.013523,0.002678,0.000431,0.003996
76682000,0.0324,0.013523,0.002678,0.000431,0.004584
76683000,0.0324,0.013523,0.002678,0.000431,0.003878
76684000,0.0324,0.013523,0.002678,0.000431,0.004466
76685000,0.0324,0.013523,0.002678,0.000431,0.003878
76686000,0.0324,0.013523,0.002678,0.000431,0.004349
76687000,0.0324,0.013523,0.002678,0.000431,0.005289
76688000,0.0324,0.013523,0.002678,0.000431,0.003056
76689000,0.0324,0.013523,0.002678,0.000431,0.003526
76690000,0.0324,0.013523,0.002678,0.000431,0.003291
76691000,0.0324,0.013523,0.002678,0.000431,0.003291
76692000,0.0324,0.013523,0.002678,0.000431,0.005289
76693000,0.0324,0.013523,0.002678,0.000431,0.004113
76694000,0.0324,0.013523,0.002678,0.000431,0.001763
76695000,0.0324,0.013523,0.002678,0.000431,0.001763
76696000,0.0324,0.013523,0.002678,0.000431,0.001528
76697000,0.0324,0.013523,0.002678,0.000431,0.001763
76698000,0.0324,0.013523,0.002678,0.000431,0.001528
76699000,0.0324,0.013523,0.002678,0.000431,0.001763
76700000,0.0324,0.013523,0.002678,0.000431,0.001645
76701000,0.0324,0.013523,0.002678,0.000431,0.001645
76702000,0.0324,0.013523,0.002678,0.000431,0.001880
76703000,0.0324,0.013523,0.002678,0.000431,0.001528
76704000,0.0324,0.013523,0.002678,0.000431,0.001763
76705000,0.0324,0.013523,0.002678,0.000431,0.001528
76706000,0.0324,0.013523,0.002678,0.000431,0.001763
76707000,0.0324,0.013523,0.002678,0.000431,0.001763
76708000,0.0324,0.013523,0.002678,0.000431,0.001528
76709000,0.0324,0.013523,0.002678,0.000431,0.001763
76710000,0.0324,0.013523,0.002678,0.000431,0.001528
76711000,0.0324,0.013523,0.002678,0.000431,0.001880
76712000,0.0324,0.013523,0.002678,0.000431,0.001528
76713000,0.0324,0.013523,0.002678,0.000431,0.001645
76714000,0.0324,0.013523,0.002678,0.000431,0.001880
76715000,0.0324,0.013523,0.002678,0.000431,0.001528
76716000,0.0324,0.013523,0.002678,0.000431,0.001763
76717000,0.0324,0.013523,0.002678,0.000431,0.001645
76718000,0.0324,0.013523,0.002678,0.000431,0.001528
76719000,0.0324,0.013523,0.002678,0.000431,0.001763
76720000,0.0324,0.013523,0.002678,0.000431,0.001763
76721000,0.0324,0.013523,0.002678,0.000431,0.003291
76722000,0.0324,0.013523,0.002678,0.000431,0.000823
76723000,0.0324,0.013523,0.002678,0.000431,0.000940
76724000,0.0324,0.013523,0.002678,0.000431,0.000823
76725000,0.0324,0.013523,0.002678,0.000431,0.000823
76726000,0.0324,0.013523,0.002678,0.000431,0.000823
76727000,0.0324,0.013523,0.002678,0.000431,0.000823
76728000,0.0324,0.013523,0.002678,0.000431,0.000705
76729000,0.0324,0.013523,0.002678,0.000431,0.000940
76730000,0.0324,0.013523,0.002678,0.000431,0.000940
76731000,0.0324,0.013523,0.002678,0.000431,0.000705
76732000,0.0324,0.013523,0.002678,0.000431,0.001998
76733000,0.0324,0.013523,0.002678,0.000431,0.387020
76734000,0.0324,0.013523,0.002678,0.000431,0.641351
76735000,0.0324,0.013523,0.002678,0.000431,0.226594
76736000,0.0324,0.013523,0.002678,0.000431,0.132572
76737000,0.0324,0.013523,0.002678,0.000431,0.216722
76738000,0.0324,0.013523,0.002678,0.000431,0.623840
76739000,0.0324,0.013523,0.002678,0.000431,0.272783
76740000,0.0324,0.013523,0.002678,0.000431,0.290060
76741000,0.0324,0.013523,0.002678,0.000431,0.175470
76742000,0.0324,0.013523,0.002678,0.000431,0.151259
76743000,0.0324,0.013523,0.002678,0.000431,0.107068
76744000,0.0324,0.013523,0.002678,0.000431,0.340479
76745000,0.0324,0.013523,0.002678,0.000431,0.281010
76746000,0.0324,0.013523,0.002678,0.000431,0.086853
76747000,0.0324,0.013523,0.002678,0.000431,0.077334
76748000,0.0324,0.013523,0.002678,0.000431,0.056884
76749000,0.0324,0.013523,0.002678,0.000431,0.058647
76750000,0.0324,0.013523,0.002678,0.000431,0.050302
76751000,0.0324,0.013523,0.002678,0.000431,0.052183
76752000,0.0324,0.013523,0.002678,0.000431,0.047129
76753000,0.0324,0.013523,0.002678,0.000431,0.039725
76754000,0.0324,0.013523,0.002678,0.000431,0.045248
76755000,0.0324,0.013523,0.002678,0.000431,0.036316
76756000,0.0324,0.013523,0.002678,0.000431,0.034436
76757000,0.0324,0.013523,0.002678,0.000431,0.034906
76758000,0.0324,0.013523,0.002678,0.000431,0.033378
76759000,0.0324,0.013523,0.002678,0.000431,0.031615
76760000,0.0324,0.013523,0.002678,0.000431,0.035258
76761000,0.0324,0.013523,0.002678,0.000431,0.029735
76762000,0.0324,0.013523,0.002678,0.000431,0.030910
76763000,0.0324,0.013523,0.002678,0.000431,0.031733
76764000,0.0324,0.013523,0.002678,0.000431,0.030792
76765000,0.0324,0.013523,0.002678,0.000431,0.032790
76766000,0.0324,0.013523,0.002678,0.000431,0.030440
76767000,0.0324,0.013523,0.002678,0.000431,0.026326
76768000,0.0324,0.013523,0.002678,0.000431,0.025269
76769000,0.0324,0.013523,0.002678,0.000431,0.026444
76770000,0.0324,0.013523,0.002678,0.000431,0.025504
76771000,0.0324,0.013523,0.002678,0.000431,0.021390
76772000,0.0324,0.013523,0.002678,0.000431,0.019510
76773000,0.0324,0.013523,0.002678,0.000431,0.021390
76774000,0.0324,0.013523,0.002678,0.000431,0.017159
76775000,0.0324,0.013523,0.002678,0.000431,0.016101
76776000,0.0324,0.013523,0.002678,0.000431,0.015749
76777000,0.0324,0.013523,0.002678,0.000431,0.015396
76778000,0.0324,0.013523,0.002678,0.000431,0.015866
76779000,0.0324,0.013523,0.002678,0.000431,0.015631
76780000,0.0324,0.013523,0.002678,0.000431,0.015396
76781000,0.0324,0.013523,0.002678,0.000431,0.015631
76782000,0.0324,0.013523,0.002678,0.000431,0.015984
76783000,0.0324,0.013523,0.002678,0.000431,0.015514
76784000,0.0324,0.013523,0.002678,0.000431,0.018922
76785000,0.0324,0.013523,0.002678,0.000431,0.012928
76786000,0.0324,0.013523,0.002678,0.000431,0.014573
76787000,0.0324,0.013523,0.002678,0.000431,0.012928
76788000,0.0324,0.013523,0.002678,0.000431,0.011518
76789000,0.0324,0.013523,0.002678,0.000431,0.012105
76790000,0.0324,0.013523,0.002678,0.000431,0.009990
76791000,0.0324,0.013523,0.002678,0.000431,0.010225
76792000,0.0324,0.013523,0.002678,0.000431,0.009872
76793000,0.0324,0.013523,0.002678,0.000431,0.008580
76794000,0.0324,0.013523,0.002678,0.000431,0.007757
76795000,0.0324,0.013523,0.002678,0.000431,0.007992
76796000,0.0324,0.013523,0.002678,0.000431,0.008697
76797000,0.0324,0.013523,0.002678,0.000431,0.009755
76798000,0.0324,0.013523,0.002678,0.000431,0.007169
76799000,0.0324,0.013523,0.002678,0.000431,0.007404
76800000,0.0324,0.013523,0.002678,0.000431,0.007522
76801000,0.0324,0.013523,0.002678,0.000431,0.007169
76802000,0.0324,0.013523,0.002678,0.000431,0.007639
76803000,0.0324,0.013523,0.002678,0.000431,0.006464
76804000,0.0324,0.013523,0.002678,0.000431,0.006817
76805000,0.0324,0.013523,0.002678,0.000431,0.006347
76806000,0.0324,0.013523,0.002678,0.000431,0.007992
76807000,0.0324,0.013523,0.002678,0.000431,0.007639
76808000,0.0324,0.013523,0.002678,0.000431,0.006464
76809000,0.0324,0.013523,0.002678,0.000431,0.005524
76810000,0.0324,0.013523,0.002678,0.000431,0.004466
76811000,0.0324,0.013523,0.002678,0.000431,0.005289
76812000,0.0324,0.013523,0.002678,0.000431,0.004819
76813000,0.0324,0.013523,0.002678,0.000431,0.004819
76814000,0.0324,0.013523,0.002678,0.000431,0.005171
76815000,0.0324,0.013523,0.002678,0.000431,0.004819
76816000,0.0324,0.013523,0.002678,0.000431,0.005171
76817000,0.0324,0.013523,0.002678,0.000431,0.004701
76818000,0.0324,0.013523,0.002678,0.000431,0.005054
76819000,0.0324,0.013523,0.002678,0.000431,0.004936
76820000,0.0324,0.013523,0.002678,0.000431,0.004936
76821000,0.0324,0.013523,0.002678,0.000431,0.004819
76822000,0.0324,0.013523,0.002678,0.000431,0.008109
76823000,0.0324,0.013523,0.002678,0.000431,0.004349
76824000,0.0324,0.013523,0.002678,0.000431,0.003408
76825000,0.0324,0.013523,0.002678,0.000431,0.003291
76826000,0.0324,0.013523,0.002678,0.000431,0.003056
76827000,0.0324,0.013523,0.002678,0.000431,0.003643
76828000,0.0324,0.013523,0.002678,0.000431,0.002703
76829000,0.0324,0.013523,0.002678,0.000431,0.003643
76830000,0.0324,0.013523,0.002678,0.000431,0.003173
76831000,0.0324,0.013523,0.002678,0.000431,0.003291
76832000,0.0324,0.013523,0.002678,0.000431,0.003173
76833000,0.0324,0.013523,0.002678,0.000431,0.003173
76834000,0.0324,0.013523,0.002678,0.000431,0.003291
76835000,0.0324,0.013523,0.002678,0.000431,0.003291
76836000,0.0324,0.013523,0.002678,0.000431,0.003291
76837000,0.0324,0.013523,0.002678,0.000431,0.003056
76838000,0.0324,0.013523,0.002678,0.000431,0.003526
76839000,0.0324,0.013523,0.002678,0.000431,0.002938
76840000,0.0324,0.013523,0.002678,0.000431,0.003643
76841000,0.0324,0.013523,0.002678,0.000431,0.003056
76842000,0.0324,0.013523,0.002678,0.000431,0.003291
76843000,0.0324,0.013523,0.002678,0.000431,0.003056
76844000,0.0324,0.013523,0.002678,0.000431,0.003291
76845000,0.0324,0.013523,0.002678,0.000431,0.003526
76846000,0.0324,0.013523,0.002678,0.000431,0.002821
76847000,0.0324,0.013523,0.002678,0.000431,0.003761
76848000,0.0324,0.013523,0.002678,0.000431,0.002821
76849000,0.0324,0.013523,0.002678,0.000431,0.003526
76850000,0.0324,0.013523,0.002678,0.000431,0.003173
76851000,0.0324,0.013523,0.002678,0.000431,0.003173
76852000,0.0324,0.013523,0.002678,0.000431,0.003526
76853000,0.0324,0.013523,0.002678,0.000431,0.004466
76854000,0.0324,0.013523,0.002678,0.000431,0.003291
76855000,0.0324,0.013523,0.002678,0.000431,0.002821
76856000,0.0324,0.013523,0.002678,0.000431,0.001645
76857000,0.0324,0.013523,0.002678,0.000431,0.001410
76858000,0.0324,0.013523,0.002678,0.000431,0.001645
76859000,0.0324,0.013523,0.002678,0.000431,0.001410
76860000,0.0324,0.013523,0.002678,0.000431,0.001880
76861000,0.0324,0.013523,0.002678,0.000431,0.001410
76862000,0.0324,0.013523,0.002678,0.000431,0.001645
76863000,0.0324,0.013523,0.002678,0.000431,0.001410
76864000,0.0324,0.013523,0.002678,0.000431,0.001528
76865000,0.0324,0.013523,0.002678,0.000431,0.001528
76866000,0.0324,0.013523,0.002678,0.000431,0.001175
76867000,0.0324,0.013523,0.002678,0.000431,0.001880
76868000,0.0324,0.013523,0.002678,0.000431,0.001410
76869000,0.0324,0.013523,0.002678,0.000431,0.001645
76870000,0.0324,0.013523,0.002678,0.000431,0.001645
76871000,0.0324,0.013523,0.002678,0.000431,0.001410
76872000,0.0324,0.013523,0.002678,0.000431,0.001410
76873000,0.0324,0.013523,0.002678,0.000431,0.001645
76874000,0.0324,0.013523,0.002678,0.000431,0.001410
76875000,0.0324,0.013523,0.002678,0.000431,0.001645
76876000,0.0324,0.013523,0.002678,0.000431,0.001645
76877000,0.0324,0.013523,0.002678,0.000431,0.001410
76878000,0.0324,0.013523,0.002678,0.000431,0.001880
76879000,0.0324,0.013523,0.002678,0.000431,0.001410
76880000,0.0324,0.013523,0.002678,0.000431,0.001645
76881000,0.0324,0.013523,0.002678,0.000431,0.001410
76882000,0.0324,0.013523,0.002678,0.000431,0.001645
76883000,0.0324,0.013523,0.002678,0.000431,0.001880
76884000,0.0324,0.013523,0.002678,0.000431,0.001175
76885000,0.0324,0.013523,0.002678,0.000431,0.001880
76886000,0.0324,0.013523,0.002678,0.000431,0.001410
76887000,0.0324,0.013523,0.002678,0.000431,0.001645
76888000,0.0324,0.013523,0.002678,0.000431,0.001645
76889000,0.0324,0.013523,0.002678,0.000431,0.001410
76890000,0.0324,0.013523,0.002678,0.000431,0.001645
76891000,0.0324,0.013523,0.002678,0.000431,0.001645
76892000,0.0324,0.013523,0.002678,0.000431,0.138918
76893000,0.0324,0.013523,0.002678,0.000431,0.506899
76894000,0.0324,0.013523,0.002678,0.000431,0.540982
76895000,0.0324,0.013523,0.002678,0.000431,0.134922
76896000,0.0324,0.013523,0.002678,0.000431,0.131632
76897000,0.0324,0.013523,0.002678,0.000431,0.572127
76898000,0.0324,0.013523,0.002678,0.000431,0.252686
76899000,0.0324,0.013523,0.002678,0.000431,0.255976
76900000,0.0324,0.013523,0.002678,0.000431,0.304868
76901000,0.0324,0.013523,0.002678,0.000431,0.139036
76902000,0.0324,0.013523,0.002678,0.000431,0.152317
76903000,0.0324,0.013523,0.002678,0.000431,0.106716
76904000,0.0324,0.013523,0.002678,0.000431,0.411231
76905000,0.0324,0.013523,0.002678,0.000431,0.235644
76906000,0.0324,0.013523,0.002678,0.000431,0.096373
76907000,0.0324,0.013523,0.002678,0.000431,0.078744
76908000,0.0324,0.013523,0.002678,0.000431,0.068401
76909000,0.0324,0.013523,0.002678,0.000431,0.066874
76910000,0.0324,0.013523,0.002678,0.000431,0.046776
76911000,0.0324,0.013523,0.002678,0.000431,0.044073
76912000,0.0324,0.013523,0.002678,0.000431,0.039019
76913000,0.0324,0.013523,0.002678,0.000431,0.040430
76914000,0.0324,0.013523,0.002678,0.000431,0.032790
76915000,0.0324,0.013523,0.002678,0.000431,0.028794
76916000,0.0324,0.013523,0.002678,0.000431,0.026091
76917000,0.0324,0.013523,0.002678,0.000431,0.029500
76918000,0.0324,0.013523,0.002678,0.000431,0.021625
76919000,0.0324,0.013523,0.002678,0.000431,0.022095
76920000,0.0324,0.013523,0.002678,0.000431,0.023036
76921000,0.0324,0.013523,0.002678,0.000431,0.026679
76922000,0.0324,0.013523,0.002678,0.000431,0.020802
76923000,0.0324,0.013523,0.002678,0.000431,0.020097
76924000,0.0324,0.013523,0.002678,0.000431,0.018569
76925000,0.0324,0.013523,0.002678,0.000431,0.015396
76926000,0.0324,0.013523,0.002678,0.000431,0.016924
76927000,0.0324,0.013523,0.002678,0.000431,0.016689
76928000,0.0324,0.013523,0.002678,0.000431,0.011518
76929000,0.0324,0.013523,0.002678,0.000431,0.011635
76930000,0.0324,0.013523,0.002678,0.000431,0.015044
76931000,0.0324,0.013523,0.002678,0.000431,0.010107
76932000,0.0324,0.013523,0.002678,0.000431,0.008932
76933000,0.0324,0.013523,0.002678,0.000431,0.008462
76934000,0.0324,0.013523,0.002678,0.000431,0.008697
76935000,0.0324,0.013523,0.002678,0.000431,0.007992
76936000,0.0324,0.013523,0.002678,0.000431,0.008580
76937000,0.0324,0.013523,0.002678,0.000431,0.008815
76938000,0.0324,0.013523,0.002678,0.000431,0.008580
76939000,0.0324,0.013523,0.002678,0.000431,0.008462
76940000,0.0324,0.013523,0.002678,0.000431,0.010460
76941000,0.0324,0.013523,0.002678,0.000431,0.007992
76942000,0.0324,0.013523,0.002678,0.000431,0.007639
76943000,0.0324,0.013523,0.002678,0.000431,0.007639
76944000,0.0324,0.013523,0.002678,0.000431,0.007757
76945000,0.0324,0.013523,0.002678,0.000431,0.007169
76946000,0.0324,0.013523,0.002678,0.000431,0.007874
76947000,0.0324,0.013523,0.002678,0.000431,0.007874
76948000,0.0324,0.013523,0.002678,0.000431,0.008815
76949000,0.0324,0.013523,0.002678,0.000431,0.007757
76950000,0.0324,0.013523,0.002678,0.000431,0.006111
76951000,0.0324,0.013523,0.002678,0.000431,0.007052
76952000,0.0324,0.013523,0.002678,0.000431,0.006934
76953000,0.0324,0.013523,0.002678,0.000431,0.004466
76954000,0.0324,0.013523,0.002678,0.000431,0.004113
76955000,0.0324,0.013523,0.002678,0.000431,0.004231
76956000,0.0324,0.013523,0.002678,0.000431,0.004113
76957000,0.0324,0.013523,0.002678,0.000431,0.003996
76958000,0.0324,0.013523,0.002678,0.000431,0.003996
76959000,0.0324,0.013523,0.002678,0.000431,0.003878
76960000,0.0324,0.013523,0.002678,0.000431,0.003408
76961000,0.0324,0.013523,0.002678,0.000431,0.003291
76962000,0.0324,0.013523,0.002678,0.000431,0.003526
76963000,0.0324,0.013523,0.002678,0.000431,0.003291
76964000,0.0324,0.013523,0.002678,0.000431,0.003526
76965000,0.0324,0.013523,0.002678,0.000431,0.003408
76966000,0.0324,0.013523,0.002678,0.000431,0.003291
76967000,0.0324,0.013523,0.002678,0.000431,0.003291
76968000,0.0324,0.013523,0.002678,0.000431,0.003643
76969000,0.0324,0.013523,0.002678,0.000431,0.003408
76970000,0.0324,0.013523,0.002678,0.000431,0.003056
76971000,0.0324,0.013523,0.002678,0.000431,0.003761
76972000,0.0324,0.013523,0.002678,0.000431,0.003291
76973000,0.0324,0.013523,0.002678,0.000431,0.003408
76974000,0.0324,0.013523,0.002678,0.000431,0.003291
76975000,0.0324,0.013523,0.002678,0.000431,0.003408
76976000,0.0324,0.013523,0.002678,0.000431,0.003408
76977000,0.0324,0.013523,0.002678,0.000431,0.003408
76978000,0.0324,0.013523,0.002678,0.000431,0.003291
76979000,0.0324,0.013523,0.002678,0.000431,0.003643
76980000,0.0324,0.013523,0.002678,0.000431,0.003291
76981000,0.0324,0.013523,0.002678,0.000431,0.003526
76982000,0.0324,0.013523,0.002678,0.000431,0.003526
76983000,0.0324,0.013523,0.002678,0.000431,0.003291
76984000,0.0324,0.013523,0.002678,0.000431,0.003408
76985000,0.0324,0.013523,0.002678,0.000431,0.003408
76986000,0.0324,0.013523,0.002678,0.000431,0.003643
76987000,0.0324,0.013523,0.002678,0.000431,0.003408
76988000,0.0324,0.013523,0.002678,0.000431,0.005054
76989000,0.0324,0.013523,0.002678,0.000431,0.002586
76990000,0.0324,0.013523,0.002678,0.000431,0.002703
76991000,0.0324,0.013523,0.002678,0.000431,0.002586
76992000,0.0324,0.013523,0.002678,0.000431,0.002586
76993000,0.0324,0.013523,0.002678,0.000431,0.003408
76994000,0.0324,0.013523,0.002678,0.000431,0.002821
76995000,0.0324,0.013523,0.002678,0.000431,0.001645
76996000,0.0324,0.013523,0.002678,0.000431,0.001645
76997000,0.0324,0.013523,0.002678,0.000431,0.001763
76998000,0.0324,0.013523,0.002678,0.000431,0.001763
76999000,0.0324,0.013523,0.002678,0.000431,0.001645
