Cycle,Area(mm^2),PeakDynamic(W),SubthresholdLeakage(W),GateLeakage(W),RunTimeDynamic(W)
55000000,0.0324,0.013523,0.002678,0.000431,0.001645
55001000,0.0324,0.013523,0.002678,0.000431,0.001410
55002000,0.0324,0.013523,0.002678,0.000431,0.001645
55003000,0.0324,0.013523,0.002678,0.000431,0.001645
55004000,0.0324,0.013523,0.002678,0.000431,0.001645
55005000,0.0324,0.013523,0.002678,0.000431,0.001410
55006000,0.0324,0.013523,0.002678,0.000431,0.001645
55007000,0.0324,0.013523,0.002678,0.000431,0.001410
55008000,0.0324,0.013523,0.002678,0.000431,0.001645
55009000,0.0324,0.013523,0.002678,0.000431,0.001880
55010000,0.0324,0.013523,0.002678,0.000431,0.001175
55011000,0.0324,0.013523,0.002678,0.000431,0.001880
55012000,0.0324,0.013523,0.002678,0.000431,0.001410
55013000,0.0324,0.013523,0.002678,0.000431,0.001645
55014000,0.0324,0.013523,0.002678,0.000431,0.001645
55015000,0.0324,0.013523,0.002678,0.000431,0.001410
55016000,0.0324,0.013523,0.002678,0.000431,0.001645
55017000,0.0324,0.013523,0.002678,0.000431,0.001645
55018000,0.0324,0.013523,0.002678,0.000431,0.001410
55019000,0.0324,0.013523,0.002678,0.000431,0.001645
55020000,0.0324,0.013523,0.002678,0.000431,0.001645
55021000,0.0324,0.013523,0.002678,0.000431,0.001410
55022000,0.0324,0.013523,0.002678,0.000431,0.001880
55023000,0.0324,0.013523,0.002678,0.000431,0.001410
55024000,0.0324,0.013523,0.002678,0.000431,0.001645
55025000,0.0324,0.013523,0.002678,0.000431,0.001293
55026000,0.0324,0.013523,0.002678,0.000431,0.001763
55027000,0.0324,0.013523,0.002678,0.000431,0.001880
55028000,0.0324,0.013523,0.002678,0.000431,0.001175
55029000,0.0324,0.013523,0.002678,0.000431,0.001880
55030000,0.0324,0.013523,0.002678,0.000431,0.024211
55031000,0.0324,0.013523,0.002678,0.000431,0.530405
55032000,0.0324,0.013523,0.002678,0.000431,0.600334
55033000,0.0324,0.013523,0.002678,0.000431,0.132572
55034000,0.0324,0.013523,0.002678,0.000431,0.132572
55035000,0.0324,0.013523,0.002678,0.000431,0.510307
55036000,0.0324,0.013523,0.002678,0.000431,0.255859
55037000,0.0324,0.013523,0.002678,0.000431,0.233764
55038000,0.0324,0.013523,0.002678,0.000431,0.376090
55039000,0.0324,0.013523,0.002678,0.000431,0.146323
55040000,0.0324,0.013523,0.002678,0.000431,0.146440
55041000,0.0324,0.013523,0.002678,0.000431,0.109301
55042000,0.0324,0.013523,0.002678,0.000431,0.345650
55043000,0.0324,0.013523,0.002678,0.000431,0.301342
55044000,0.0324,0.013523,0.002678,0.000431,0.099781
55045000,0.0324,0.013523,0.002678,0.000431,0.083445
55046000,0.0324,0.013523,0.002678,0.000431,0.064758
55047000,0.0324,0.013523,0.002678,0.000431,0.060409
55048000,0.0324,0.013523,0.002678,0.000431,0.051242
55049000,0.0324,0.013523,0.002678,0.000431,0.036786
55050000,0.0324,0.013523,0.002678,0.000431,0.036081
55051000,0.0324,0.013523,0.002678,0.000431,0.036434
55052000,0.0324,0.013523,0.002678,0.000431,0.027149
55053000,0.0324,0.013523,0.002678,0.000431,0.026091
55054000,0.0324,0.013523,0.002678,0.000431,0.018805
55055000,0.0324,0.013523,0.002678,0.000431,0.017512
55056000,0.0324,0.013523,0.002678,0.000431,0.010578
55057000,0.0324,0.013523,0.002678,0.000431,0.011400
55058000,0.0324,0.013523,0.002678,0.000431,0.007757
55059000,0.0324,0.013523,0.002678,0.000431,0.005994
55060000,0.0324,0.013523,0.002678,0.000431,0.005994
55061000,0.0324,0.013523,0.002678,0.000431,0.006934
55062000,0.0324,0.013523,0.002678,0.000431,0.004936
55063000,0.0324,0.013523,0.002678,0.000431,0.005524
55064000,0.0324,0.013523,0.002678,0.000431,0.007757
55065000,0.0324,0.013523,0.002678,0.000431,0.003878
55066000,0.0324,0.013523,0.002678,0.000431,0.004584
55067000,0.0324,0.013523,0.002678,0.000431,0.003878
55068000,0.0324,0.013523,0.002678,0.000431,0.004466
55069000,0.0324,0.013523,0.002678,0.000431,0.004231
55070000,0.0324,0.013523,0.002678,0.000431,0.004231
55071000,0.0324,0.013523,0.002678,0.000431,0.004466
55072000,0.0324,0.013523,0.002678,0.000431,0.003761
55073000,0.0324,0.013523,0.002678,0.000431,0.006347
55074000,0.0324,0.013523,0.002678,0.000431,0.007169
55075000,0.0324,0.013523,0.002678,0.000431,0.001998
55076000,0.0324,0.013523,0.002678,0.000431,0.001528
55077000,0.0324,0.013523,0.002678,0.000431,0.001880
55078000,0.0324,0.013523,0.002678,0.000431,0.001763
55079000,0.0324,0.013523,0.002678,0.000431,0.001528
55080000,0.0324,0.013523,0.002678,0.000431,0.001880
55081000,0.0324,0.013523,0.002678,0.000431,0.001763
55082000,0.0324,0.013523,0.002678,0.000431,0.001763
55083000,0.0324,0.013523,0.002678,0.000431,0.001763
55084000,0.0324,0.013523,0.002678,0.000431,0.001763
55085000,0.0324,0.013523,0.002678,0.000431,0.001763
55086000,0.0324,0.013523,0.002678,0.000431,0.002586
55087000,0.0324,0.013523,0.002678,0.000431,0.000823
55088000,0.0324,0.013523,0.002678,0.000431,0.000940
55089000,0.0324,0.013523,0.002678,0.000431,0.000823
55090000,0.0324,0.013523,0.002678,0.000431,0.000940
55091000,0.0324,0.013523,0.002678,0.000431,0.000823
55092000,0.0324,0.013523,0.002678,0.000431,0.000823
55093000,0.0324,0.013523,0.002678,0.000431,0.000940
55094000,0.0324,0.013523,0.002678,0.000431,0.000940
55095000,0.0324,0.013523,0.002678,0.000431,0.000705
55096000,0.0324,0.013523,0.002678,0.000431,0.000940
55097000,0.0324,0.013523,0.002678,0.000431,0.000940
55098000,0.0324,0.013523,0.002678,0.000431,0.000940
55099000,0.0324,0.013523,0.002678,0.000431,0.000705
55100000,0.0324,0.013523,0.002678,0.000431,0.000940
55101000,0.0324,0.013523,0.002678,0.000431,0.000940
55102000,0.0324,0.013523,0.002678,0.000431,0.000823
55103000,0.0324,0.013523,0.002678,0.000431,0.000823
55104000,0.0324,0.013523,0.002678,0.000431,0.000940
55105000,0.0324,0.013523,0.002678,0.000431,0.000940
55106000,0.0324,0.013523,0.002678,0.000431,0.000823
55107000,0.0324,0.013523,0.002678,0.000431,0.000823
55108000,0.0324,0.013523,0.002678,0.000431,0.000940
55109000,0.0324,0.013523,0.002678,0.000431,0.000823
55110000,0.0324,0.013523,0.002678,0.000431,0.000940
55111000,0.0324,0.013523,0.002678,0.000431,0.000823
55112000,0.0324,0.013523,0.002678,0.000431,0.000940
55113000,0.0324,0.013523,0.002678,0.000431,0.000823
55114000,0.0324,0.013523,0.002678,0.000431,0.000823
55115000,0.0324,0.013523,0.002678,0.000431,0.014221
55116000,0.0324,0.013523,0.002678,0.000431,0.562960
55117000,0.0324,0.013523,0.002678,0.000431,0.588464
55118000,0.0324,0.013523,0.002678,0.000431,0.133512
55119000,0.0324,0.013523,0.002678,0.000431,0.133865
55120000,0.0324,0.013523,0.002678,0.000431,0.466704
55121000,0.0324,0.013523,0.002678,0.000431,0.284536
55122000,0.0324,0.013523,0.002678,0.000431,0.249042
55123000,0.0324,0.013523,0.002678,0.000431,0.339539
55124000,0.0324,0.013523,0.002678,0.000431,0.145147
55125000,0.0324,0.013523,0.002678,0.000431,0.144560
55126000,0.0324,0.013523,0.002678,0.000431,0.130926
55127000,0.0324,0.013523,0.002678,0.000431,0.289237
55128000,0.0324,0.013523,0.002678,0.000431,0.305456
55129000,0.0324,0.013523,0.002678,0.000431,0.036434
55130000,0.0324,0.013523,0.002678,0.000431,0.030675
55131000,0.0324,0.013523,0.002678,0.000431,0.027972
55132000,0.0324,0.013523,0.002678,0.000431,0.023506
55133000,0.0324,0.013523,0.002678,0.000431,0.016454
55134000,0.0324,0.013523,0.002678,0.000431,0.014338
55135000,0.0324,0.013523,0.002678,0.000431,0.012928
55136000,0.0324,0.013523,0.002678,0.000431,0.012105
55137000,0.0324,0.013523,0.002678,0.000431,0.009167
55138000,0.0324,0.013523,0.002678,0.000431,0.010460
55139000,0.0324,0.013523,0.002678,0.000431,0.008697
55140000,0.0324,0.013523,0.002678,0.000431,0.009285
55141000,0.0324,0.013523,0.002678,0.000431,0.007169
55142000,0.0324,0.013523,0.002678,0.000431,0.007639
55143000,0.0324,0.013523,0.002678,0.000431,0.003526
55144000,0.0324,0.013523,0.002678,0.000431,0.003408
55145000,0.0324,0.013523,0.002678,0.000431,0.003056
55146000,0.0324,0.013523,0.002678,0.000431,0.003526
55147000,0.0324,0.013523,0.002678,0.000431,0.002938
55148000,0.0324,0.013523,0.002678,0.000431,0.003408
55149000,0.0324,0.013523,0.002678,0.000431,0.003056
55150000,0.0324,0.013523,0.002678,0.000431,0.003526
55151000,0.0324,0.013523,0.002678,0.000431,0.004701
55152000,0.0324,0.013523,0.002678,0.000431,0.002468
55153000,0.0324,0.013523,0.002678,0.000431,0.002351
55154000,0.0324,0.013523,0.002678,0.000431,0.002586
55155000,0.0324,0.013523,0.002678,0.000431,0.002233
55156000,0.0324,0.013523,0.002678,0.000431,0.005994
55157000,0.0324,0.013523,0.002678,0.000431,0.001528
55158000,0.0324,0.013523,0.002678,0.000431,0.001645
55159000,0.0324,0.013523,0.002678,0.000431,0.071457
55160000,0.0324,0.013523,0.002678,0.000431,0.446607
55161000,0.0324,0.013523,0.002678,0.000431,0.590109
55162000,0.0324,0.013523,0.002678,0.000431,0.131161
55163000,0.0324,0.013523,0.002678,0.000431,0.134452
55164000,0.0324,0.013523,0.002678,0.000431,0.521002
55165000,0.0324,0.013523,0.002678,0.000431,0.250805
55166000,0.0324,0.013523,0.002678,0.000431,0.232353
55167000,0.0324,0.013523,0.002678,0.000431,0.320382
55168000,0.0324,0.013523,0.002678,0.000431,0.168653
55169000,0.0324,0.013523,0.002678,0.000431,0.138918
55170000,0.0324,0.013523,0.002678,0.000431,0.155842
55171000,0.0324,0.013523,0.002678,0.000431,0.179818
55172000,0.0324,0.013523,0.002678,0.000431,0.427332
55173000,0.0324,0.013523,0.002678,0.000431,0.087676
55174000,0.0324,0.013523,0.002678,0.000431,0.071927
55175000,0.0324,0.013523,0.002678,0.000431,0.054063
55176000,0.0324,0.013523,0.002678,0.000431,0.043015
55177000,0.0324,0.013523,0.002678,0.000431,0.035258
55178000,0.0324,0.013523,0.002678,0.000431,0.029265
55179000,0.0324,0.013523,0.002678,0.000431,0.026914
55180000,0.0324,0.013523,0.002678,0.000431,0.024563
55181000,0.0324,0.013523,0.002678,0.000431,0.020802
55182000,0.0324,0.013523,0.002678,0.000431,0.017512
55183000,0.0324,0.013523,0.002678,0.000431,0.017159
55184000,0.0324,0.013523,0.002678,0.000431,0.013868
55185000,0.0324,0.013523,0.002678,0.000431,0.010695
55186000,0.0324,0.013523,0.002678,0.000431,0.010695
55187000,0.0324,0.013523,0.002678,0.000431,0.010342
55188000,0.0324,0.013523,0.002678,0.000431,0.010578
55189000,0.0324,0.013523,0.002678,0.000431,0.012576
55190000,0.0324,0.013523,0.002678,0.000431,0.009167
55191000,0.0324,0.013523,0.002678,0.000431,0.008697
55192000,0.0324,0.013523,0.002678,0.000431,0.009285
55193000,0.0324,0.013523,0.002678,0.000431,0.008462
55194000,0.0324,0.013523,0.002678,0.000431,0.008815
55195000,0.0324,0.013523,0.002678,0.000431,0.008462
55196000,0.0324,0.013523,0.002678,0.000431,0.007052
55197000,0.0324,0.013523,0.002678,0.000431,0.008580
55198000,0.0324,0.013523,0.002678,0.000431,0.005171
55199000,0.0324,0.013523,0.002678,0.000431,0.004936
55200000,0.0324,0.013523,0.002678,0.000431,0.005054
55201000,0.0324,0.013523,0.002678,0.000431,0.005524
55202000,0.0324,0.013523,0.002678,0.000431,0.004466
55203000,0.0324,0.013523,0.002678,0.000431,0.005406
55204000,0.0324,0.013523,0.002678,0.000431,0.004819
55205000,0.0324,0.013523,0.002678,0.000431,0.005289
55206000,0.0324,0.013523,0.002678,0.000431,0.005171
55207000,0.0324,0.013523,0.002678,0.000431,0.004819
55208000,0.0324,0.013523,0.002678,0.000431,0.005171
55209000,0.0324,0.013523,0.002678,0.000431,0.005054
55210000,0.0324,0.013523,0.002678,0.000431,0.007052
55211000,0.0324,0.013523,0.002678,0.000431,0.003996
55212000,0.0324,0.013523,0.002678,0.000431,0.004466
55213000,0.0324,0.013523,0.002678,0.000431,0.004113
55214000,0.0324,0.013523,0.002678,0.000431,0.004231
55215000,0.0324,0.013523,0.002678,0.000431,0.004466
55216000,0.0324,0.013523,0.002678,0.000431,0.004231
55217000,0.0324,0.013523,0.002678,0.000431,0.005524
55218000,0.0324,0.013523,0.002678,0.000431,0.003291
55219000,0.0324,0.013523,0.002678,0.000431,0.005524
55220000,0.0324,0.013523,0.002678,0.000431,0.002586
55221000,0.0324,0.013523,0.002678,0.000431,0.002468
55222000,0.0324,0.013523,0.002678,0.000431,0.002586
55223000,0.0324,0.013523,0.002678,0.000431,0.002468
55224000,0.0324,0.013523,0.002678,0.000431,0.002586
55225000,0.0324,0.013523,0.002678,0.000431,0.002468
55226000,0.0324,0.013523,0.002678,0.000431,0.002468
55227000,0.0324,0.013523,0.002678,0.000431,0.002468
55228000,0.0324,0.013523,0.002678,0.000431,0.002468
55229000,0.0324,0.013523,0.002678,0.000431,0.002468
55230000,0.0324,0.013523,0.002678,0.000431,0.002703
55231000,0.0324,0.013523,0.002678,0.000431,0.002586
55232000,0.0324,0.013523,0.002678,0.000431,0.002351
55233000,0.0324,0.013523,0.002678,0.000431,0.002351
55234000,0.0324,0.013523,0.002678,0.000431,0.002586
55235000,0.0324,0.013523,0.002678,0.000431,0.002703
55236000,0.0324,0.013523,0.002678,0.000431,0.002468
55237000,0.0324,0.013523,0.002678,0.000431,0.002468
55238000,0.0324,0.013523,0.002678,0.000431,0.002351
55239000,0.0324,0.013523,0.002678,0.000431,0.002468
55240000,0.0324,0.013523,0.002678,0.000431,0.002821
55241000,0.0324,0.013523,0.002678,0.000431,0.002468
55242000,0.0324,0.013523,0.002678,0.000431,0.002468
55243000,0.0324,0.013523,0.002678,0.000431,0.002468
55244000,0.0324,0.013523,0.002678,0.000431,0.002351
55245000,0.0324,0.013523,0.002678,0.000431,0.002821
55246000,0.0324,0.013523,0.002678,0.000431,0.002468
55247000,0.0324,0.013523,0.002678,0.000431,0.002468
55248000,0.0324,0.013523,0.002678,0.000431,0.002586
55249000,0.0324,0.013523,0.002678,0.000431,0.002351
55250000,0.0324,0.013523,0.002678,0.000431,0.002703
55251000,0.0324,0.013523,0.002678,0.000431,0.002468
55252000,0.0324,0.013523,0.002678,0.000431,0.002468
55253000,0.0324,0.013523,0.002678,0.000431,0.002586
55254000,0.0324,0.013523,0.002678,0.000431,0.002468
55255000,0.0324,0.013523,0.002678,0.000431,0.004584
55256000,0.0324,0.013523,0.002678,0.000431,0.001645
55257000,0.0324,0.013523,0.002678,0.000431,0.001763
55258000,0.0324,0.013523,0.002678,0.000431,0.001528
55259000,0.0324,0.013523,0.002678,0.000431,0.001880
55260000,0.0324,0.013523,0.002678,0.000431,0.001528
55261000,0.0324,0.013523,0.002678,0.000431,0.001645
55262000,0.0324,0.013523,0.002678,0.000431,0.001645
55263000,0.0324,0.013523,0.002678,0.000431,0.001763
55264000,0.0324,0.013523,0.002678,0.000431,0.001763
55265000,0.0324,0.013523,0.002678,0.000431,0.001528
55266000,0.0324,0.013523,0.002678,0.000431,0.001763
55267000,0.0324,0.013523,0.002678,0.000431,0.001528
55268000,0.0324,0.013523,0.002678,0.000431,0.001880
55269000,0.0324,0.013523,0.002678,0.000431,0.001645
55270000,0.0324,0.013523,0.002678,0.000431,0.001645
55271000,0.0324,0.013523,0.002678,0.000431,0.001645
55272000,0.0324,0.013523,0.002678,0.000431,0.001645
55273000,0.0324,0.013523,0.002678,0.000431,0.001763
55274000,0.0324,0.013523,0.002678,0.000431,0.001645
55275000,0.0324,0.013523,0.002678,0.000431,0.003643
55276000,0.0324,0.013523,0.002678,0.000431,0.000823
55277000,0.0324,0.013523,0.002678,0.000431,0.000940
55278000,0.0324,0.013523,0.002678,0.000431,0.000705
55279000,0.0324,0.013523,0.002678,0.000431,0.000940
55280000,0.0324,0.013523,0.002678,0.000431,0.000823
55281000,0.0324,0.013523,0.002678,0.000431,0.000823
55282000,0.0324,0.013523,0.002678,0.000431,0.000823
55283000,0.0324,0.013523,0.002678,0.000431,0.000823
55284000,0.0324,0.013523,0.002678,0.000431,0.000823
55285000,0.0324,0.013523,0.002678,0.000431,0.000823
55286000,0.0324,0.013523,0.002678,0.000431,0.000940
55287000,0.0324,0.013523,0.002678,0.000431,0.000705
55288000,0.0324,0.013523,0.002678,0.000431,0.000940
55289000,0.0324,0.013523,0.002678,0.000431,0.000705
55290000,0.0324,0.013523,0.002678,0.000431,0.000940
55291000,0.0324,0.013523,0.002678,0.000431,0.000940
55292000,0.0324,0.013523,0.002678,0.000431,0.000705
55293000,0.0324,0.013523,0.002678,0.000431,0.000940
55294000,0.0324,0.013523,0.002678,0.000431,0.000705
55295000,0.0324,0.013523,0.002678,0.000431,0.000940
55296000,0.0324,0.013523,0.002678,0.000431,0.000823
55297000,0.0324,0.013523,0.002678,0.000431,0.000823
55298000,0.0324,0.013523,0.002678,0.000431,0.000823
55299000,0.0324,0.013523,0.002678,0.000431,0.000823
55300000,0.0324,0.013523,0.002678,0.000431,0.000940
55301000,0.0324,0.013523,0.002678,0.000431,0.000705
55302000,0.0324,0.013523,0.002678,0.000431,0.000940
55303000,0.0324,0.013523,0.002678,0.000431,0.000823
55304000,0.0324,0.013523,0.002678,0.000431,0.000823
55305000,0.0324,0.013523,0.002678,0.000431,0.000823
55306000,0.0324,0.013523,0.002678,0.000431,0.000823
55307000,0.0324,0.013523,0.002678,0.000431,0.000823
55308000,0.0324,0.013523,0.002678,0.000431,0.000823
55309000,0.0324,0.013523,0.002678,0.000431,0.000823
55310000,0.0324,0.013523,0.002678,0.000431,0.000940
55311000,0.0324,0.013523,0.002678,0.000431,0.000823
55312000,0.0324,0.013523,0.002678,0.000431,0.000823
55313000,0.0324,0.013523,0.002678,0.000431,0.000823
55314000,0.0324,0.013523,0.002678,0.000431,0.000705
55315000,0.0324,0.013523,0.002678,0.000431,0.000940
55316000,0.0324,0.013523,0.002678,0.000431,0.000940
55317000,0.0324,0.013523,0.002678,0.000431,0.000705
55318000,0.0324,0.013523,0.002678,0.000431,0.000940
55319000,0.0324,0.013523,0.002678,0.000431,0.000705
55320000,0.0324,0.013523,0.002678,0.000431,0.000940
55321000,0.0324,0.013523,0.002678,0.000431,0.000823
55322000,0.0324,0.013523,0.002678,0.000431,0.000823
55323000,0.0324,0.013523,0.002678,0.000431,0.000940
55324000,0.0324,0.013523,0.002678,0.000431,0.000705
55325000,0.0324,0.013523,0.002678,0.000431,0.000940
55326000,0.0324,0.013523,0.002678,0.000431,0.000823
55327000,0.0324,0.013523,0.002678,0.000431,0.000823
55328000,0.0324,0.013523,0.002678,0.000431,0.000823
55329000,0.0324,0.013523,0.002678,0.000431,0.000823
55330000,0.0324,0.013523,0.002678,0.000431,0.000823
55331000,0.0324,0.013523,0.002678,0.000431,0.000823
55332000,0.0324,0.013523,0.002678,0.000431,0.000940
55333000,0.0324,0.013523,0.002678,0.000431,0.000705
55334000,0.0324,0.013523,0.002678,0.000431,0.000940
55335000,0.0324,0.013523,0.002678,0.000431,0.000823
55336000,0.0324,0.013523,0.002678,0.000431,0.000823
55337000,0.0324,0.013523,0.002678,0.000431,0.000705
55338000,0.0324,0.013523,0.002678,0.000431,0.000940
55339000,0.0324,0.013523,0.002678,0.000431,0.000940
55340000,0.0324,0.013523,0.002678,0.000431,0.000705
55341000,0.0324,0.013523,0.002678,0.000431,0.000940
55342000,0.0324,0.013523,0.002678,0.000431,0.000705
55343000,0.0324,0.013523,0.002678,0.000431,0.000940
55344000,0.0324,0.013523,0.002678,0.000431,0.000823
55345000,0.0324,0.013523,0.002678,0.000431,0.000823
55346000,0.0324,0.013523,0.002678,0.000431,0.000940
55347000,0.0324,0.013523,0.002678,0.000431,0.000705
55348000,0.0324,0.013523,0.002678,0.000431,0.000940
55349000,0.0324,0.013523,0.002678,0.000431,0.000823
55350000,0.0324,0.013523,0.002678,0.000431,0.000823
55351000,0.0324,0.013523,0.002678,0.000431,0.000823
55352000,0.0324,0.013523,0.002678,0.000431,0.000823
55353000,0.0324,0.013523,0.002678,0.000431,0.000823
55354000,0.0324,0.013523,0.002678,0.000431,0.000823
55355000,0.0324,0.013523,0.002678,0.000431,0.000940
55356000,0.0324,0.013523,0.002678,0.000431,0.000705
55357000,0.0324,0.013523,0.002678,0.000431,0.000823
55358000,0.0324,0.013523,0.002678,0.000431,0.000823
55359000,0.0324,0.013523,0.002678,0.000431,0.000940
55360000,0.0324,0.013523,0.002678,0.000431,0.000823
55361000,0.0324,0.013523,0.002678,0.000431,0.000823
55362000,0.0324,0.013523,0.002678,0.000431,0.000705
55363000,0.0324,0.013523,0.002678,0.000431,0.000940
55364000,0.0324,0.013523,0.002678,0.000431,0.000940
55365000,0.0324,0.013523,0.002678,0.000431,0.000705
55366000,0.0324,0.013523,0.002678,0.000431,0.000940
55367000,0.0324,0.013523,0.002678,0.000431,0.000705
55368000,0.0324,0.013523,0.002678,0.000431,0.000940
55369000,0.0324,0.013523,0.002678,0.000431,0.000823
55370000,0.0324,0.013523,0.002678,0.000431,0.000823
55371000,0.0324,0.013523,0.002678,0.000431,0.000940
55372000,0.0324,0.013523,0.002678,0.000431,0.000705
55373000,0.0324,0.013523,0.002678,0.000431,0.000940
55374000,0.0324,0.013523,0.002678,0.000431,0.000823
55375000,0.0324,0.013523,0.002678,0.000431,0.000823
55376000,0.0324,0.013523,0.002678,0.000431,0.000823
55377000,0.0324,0.013523,0.002678,0.000431,0.000823
55378000,0.0324,0.013523,0.002678,0.000431,0.000823
55379000,0.0324,0.013523,0.002678,0.000431,0.000823
55380000,0.0324,0.013523,0.002678,0.000431,0.000940
55381000,0.0324,0.013523,0.002678,0.000431,0.000823
55382000,0.0324,0.013523,0.002678,0.000431,0.000823
55383000,0.0324,0.013523,0.002678,0.000431,0.000823
55384000,0.0324,0.013523,0.002678,0.000431,0.000823
55385000,0.0324,0.013523,0.002678,0.000431,0.000705
55386000,0.0324,0.013523,0.002678,0.000431,0.000940
55387000,0.0324,0.013523,0.002678,0.000431,0.000940
55388000,0.0324,0.013523,0.002678,0.000431,0.000705
55389000,0.0324,0.013523,0.002678,0.000431,0.000940
55390000,0.0324,0.013523,0.002678,0.000431,0.000705
55391000,0.0324,0.013523,0.002678,0.000431,0.000940
55392000,0.0324,0.013523,0.002678,0.000431,0.000823
55393000,0.0324,0.013523,0.002678,0.000431,0.000823
55394000,0.0324,0.013523,0.002678,0.000431,0.000940
55395000,0.0324,0.013523,0.002678,0.000431,0.000705
55396000,0.0324,0.013523,0.002678,0.000431,0.000940
55397000,0.0324,0.013523,0.002678,0.000431,0.000823
55398000,0.0324,0.013523,0.002678,0.000431,0.000823
55399000,0.0324,0.013523,0.002678,0.000431,0.000823
55400000,0.0324,0.013523,0.002678,0.000431,0.000823
55401000,0.0324,0.013523,0.002678,0.000431,0.000940
55402000,0.0324,0.013523,0.002678,0.000431,0.096843
55403000,0.0324,0.013523,0.002678,0.000431,0.554145
55404000,0.0324,0.013523,0.002678,0.000431,0.541335
55405000,0.0324,0.013523,0.002678,0.000431,0.134452
55406000,0.0324,0.013523,0.002678,0.000431,0.131632
55407000,0.0324,0.013523,0.002678,0.000431,0.625720
55408000,0.0324,0.013523,0.002678,0.000431,0.243636
55409000,0.0324,0.013523,0.002678,0.000431,0.224596
55410000,0.0324,0.013523,0.002678,0.000431,0.295701
55411000,0.0324,0.013523,0.002678,0.000431,0.136568
55412000,0.0324,0.013523,0.002678,0.000431,0.160073
55413000,0.0324,0.013523,0.002678,0.000431,0.096961
55414000,0.0324,0.013523,0.002678,0.000431,0.431916
55415000,0.0324,0.013523,0.002678,0.000431,0.143267
55416000,0.0324,0.013523,0.002678,0.000431,0.049479
55417000,0.0324,0.013523,0.002678,0.000431,0.040547
55418000,0.0324,0.013523,0.002678,0.000431,0.037491
55419000,0.0324,0.013523,0.002678,0.000431,0.031145
55420000,0.0324,0.013523,0.002678,0.000431,0.028442
55421000,0.0324,0.013523,0.002678,0.000431,0.024798
55422000,0.0324,0.013523,0.002678,0.000431,0.018805
55423000,0.0324,0.013523,0.002678,0.000431,0.021273
55424000,0.0324,0.013523,0.002678,0.000431,0.023741
55425000,0.0324,0.013523,0.002678,0.000431,0.016336
55426000,0.0324,0.013523,0.002678,0.000431,0.012576
55427000,0.0324,0.013523,0.002678,0.000431,0.014691
55428000,0.0324,0.013523,0.002678,0.000431,0.011400
55429000,0.0324,0.013523,0.002678,0.000431,0.008462
55430000,0.0324,0.013523,0.002678,0.000431,0.008109
55431000,0.0324,0.013523,0.002678,0.000431,0.008109
55432000,0.0324,0.013523,0.002678,0.000431,0.008580
55433000,0.0324,0.013523,0.002678,0.000431,0.008932
55434000,0.0324,0.013523,0.002678,0.000431,0.007992
55435000,0.0324,0.013523,0.002678,0.000431,0.009872
55436000,0.0324,0.013523,0.002678,0.000431,0.009050
55437000,0.0324,0.013523,0.002678,0.000431,0.006229
55438000,0.0324,0.013523,0.002678,0.000431,0.006699
55439000,0.0324,0.013523,0.002678,0.000431,0.006582
55440000,0.0324,0.013523,0.002678,0.000431,0.006699
55441000,0.0324,0.013523,0.002678,0.000431,0.006111
55442000,0.0324,0.013523,0.002678,0.000431,0.006934
55443000,0.0324,0.013523,0.002678,0.000431,0.006934
55444000,0.0324,0.013523,0.002678,0.000431,0.008580
55445000,0.0324,0.013523,0.002678,0.000431,0.006817
55446000,0.0324,0.013523,0.002678,0.000431,0.005289
55447000,0.0324,0.013523,0.002678,0.000431,0.004819
55448000,0.0324,0.013523,0.002678,0.000431,0.004819
55449000,0.0324,0.013523,0.002678,0.000431,0.005054
55450000,0.0324,0.013523,0.002678,0.000431,0.004819
55451000,0.0324,0.013523,0.002678,0.000431,0.004819
55452000,0.0324,0.013523,0.002678,0.000431,0.007052
55453000,0.0324,0.013523,0.002678,0.000431,0.004113
55454000,0.0324,0.013523,0.002678,0.000431,0.003996
55455000,0.0324,0.013523,0.002678,0.000431,0.004113
55456000,0.0324,0.013523,0.002678,0.000431,0.003996
55457000,0.0324,0.013523,0.002678,0.000431,0.004113
55458000,0.0324,0.013523,0.002678,0.000431,0.004349
55459000,0.0324,0.013523,0.002678,0.000431,0.003761
55460000,0.0324,0.013523,0.002678,0.000431,0.003761
55461000,0.0324,0.013523,0.002678,0.000431,0.003173
55462000,0.0324,0.013523,0.002678,0.000431,0.003526
55463000,0.0324,0.013523,0.002678,0.000431,0.003526
55464000,0.0324,0.013523,0.002678,0.000431,0.003056
55465000,0.0324,0.013523,0.002678,0.000431,0.003526
55466000,0.0324,0.013523,0.002678,0.000431,0.003408
55467000,0.0324,0.013523,0.002678,0.000431,0.003643
55468000,0.0324,0.013523,0.002678,0.000431,0.003056
55469000,0.0324,0.013523,0.002678,0.000431,0.003408
55470000,0.0324,0.013523,0.002678,0.000431,0.003408
55471000,0.0324,0.013523,0.002678,0.000431,0.003408
55472000,0.0324,0.013523,0.002678,0.000431,0.003526
55473000,0.0324,0.013523,0.002678,0.000431,0.003173
55474000,0.0324,0.013523,0.002678,0.000431,0.003643
55475000,0.0324,0.013523,0.002678,0.000431,0.005054
55476000,0.0324,0.013523,0.002678,0.000431,0.002938
55477000,0.0324,0.013523,0.002678,0.000431,0.002468
55478000,0.0324,0.013523,0.002678,0.000431,0.002468
55479000,0.0324,0.013523,0.002678,0.000431,0.002586
55480000,0.0324,0.013523,0.002678,0.000431,0.002468
55481000,0.0324,0.013523,0.002678,0.000431,0.002703
55482000,0.0324,0.013523,0.002678,0.000431,0.002468
55483000,0.0324,0.013523,0.002678,0.000431,0.002586
55484000,0.0324,0.013523,0.002678,0.000431,0.002351
55485000,0.0324,0.013523,0.002678,0.000431,0.002703
55486000,0.0324,0.013523,0.002678,0.000431,0.004113
55487000,0.0324,0.013523,0.002678,0.000431,0.002703
55488000,0.0324,0.013523,0.002678,0.000431,0.000705
55489000,0.0324,0.013523,0.002678,0.000431,0.000940
55490000,0.0324,0.013523,0.002678,0.000431,0.000823
55491000,0.0324,0.013523,0.002678,0.000431,0.000823
55492000,0.0324,0.013523,0.002678,0.000431,0.000823
55493000,0.0324,0.013523,0.002678,0.000431,0.000823
55494000,0.0324,0.013523,0.002678,0.000431,0.000940
55495000,0.0324,0.013523,0.002678,0.000431,0.000705
55496000,0.0324,0.013523,0.002678,0.000431,0.000940
55497000,0.0324,0.013523,0.002678,0.000431,0.000823
55498000,0.0324,0.013523,0.002678,0.000431,0.000823
55499000,0.0324,0.013523,0.002678,0.000431,0.000823
55500000,0.0324,0.013523,0.002678,0.000431,0.000823
55501000,0.0324,0.013523,0.002678,0.000431,0.000705
55502000,0.0324,0.013523,0.002678,0.000431,0.000940
55503000,0.0324,0.013523,0.002678,0.000431,0.000940
55504000,0.0324,0.013523,0.002678,0.000431,0.000705
55505000,0.0324,0.013523,0.002678,0.000431,0.000940
55506000,0.0324,0.013523,0.002678,0.000431,0.000705
55507000,0.0324,0.013523,0.002678,0.000431,0.000940
55508000,0.0324,0.013523,0.002678,0.000431,0.000940
55509000,0.0324,0.013523,0.002678,0.000431,0.000705
55510000,0.0324,0.013523,0.002678,0.000431,0.000940
55511000,0.0324,0.013523,0.002678,0.000431,0.000705
55512000,0.0324,0.013523,0.002678,0.000431,0.000940
55513000,0.0324,0.013523,0.002678,0.000431,0.000823
55514000,0.0324,0.013523,0.002678,0.000431,0.000823
55515000,0.0324,0.013523,0.002678,0.000431,0.000823
55516000,0.0324,0.013523,0.002678,0.000431,0.000823
55517000,0.0324,0.013523,0.002678,0.000431,0.000940
55518000,0.0324,0.013523,0.002678,0.000431,0.000705
55519000,0.0324,0.013523,0.002678,0.000431,0.000940
55520000,0.0324,0.013523,0.002678,0.000431,0.000705
55521000,0.0324,0.013523,0.002678,0.000431,0.000823
55522000,0.0324,0.013523,0.002678,0.000431,0.000940
55523000,0.0324,0.013523,0.002678,0.000431,0.000823
55524000,0.0324,0.013523,0.002678,0.000431,0.000823
55525000,0.0324,0.013523,0.002678,0.000431,0.000823
55526000,0.0324,0.013523,0.002678,0.000431,0.000823
55527000,0.0324,0.013523,0.002678,0.000431,0.000823
55528000,0.0324,0.013523,0.002678,0.000431,0.000940
55529000,0.0324,0.013523,0.002678,0.000431,0.000823
55530000,0.0324,0.013523,0.002678,0.000431,0.000823
55531000,0.0324,0.013523,0.002678,0.000431,0.000705
55532000,0.0324,0.013523,0.002678,0.000431,0.000940
55533000,0.0324,0.013523,0.002678,0.000431,0.000940
55534000,0.0324,0.013523,0.002678,0.000431,0.000705
55535000,0.0324,0.013523,0.002678,0.000431,0.000940
55536000,0.0324,0.013523,0.002678,0.000431,0.000705
55537000,0.0324,0.013523,0.002678,0.000431,0.000940
55538000,0.0324,0.013523,0.002678,0.000431,0.000823
55539000,0.0324,0.013523,0.002678,0.000431,0.000823
55540000,0.0324,0.013523,0.002678,0.000431,0.000823
55541000,0.0324,0.013523,0.002678,0.000431,0.000823
55542000,0.0324,0.013523,0.002678,0.000431,0.000940
55543000,0.0324,0.013523,0.002678,0.000431,0.000705
55544000,0.0324,0.013523,0.002678,0.000431,0.000940
55545000,0.0324,0.013523,0.002678,0.000431,0.000823
55546000,0.0324,0.013523,0.002678,0.000431,0.000823
55547000,0.0324,0.013523,0.002678,0.000431,0.000823
55548000,0.0324,0.013523,0.002678,0.000431,0.000823
55549000,0.0324,0.013523,0.002678,0.000431,0.000823
55550000,0.0324,0.013523,0.002678,0.000431,0.000823
55551000,0.0324,0.013523,0.002678,0.000431,0.000940
55552000,0.0324,0.013523,0.002678,0.000431,0.000705
55553000,0.0324,0.013523,0.002678,0.000431,0.000940
55554000,0.0324,0.013523,0.002678,0.000431,0.000705
55555000,0.0324,0.013523,0.002678,0.000431,0.000940
55556000,0.0324,0.013523,0.002678,0.000431,0.000823
55557000,0.0324,0.013523,0.002678,0.000431,0.000823
55558000,0.0324,0.013523,0.002678,0.000431,0.000940
55559000,0.0324,0.013523,0.002678,0.000431,0.000705
55560000,0.0324,0.013523,0.002678,0.000431,0.000940
55561000,0.0324,0.013523,0.002678,0.000431,0.000823
55562000,0.0324,0.013523,0.002678,0.000431,0.000823
55563000,0.0324,0.013523,0.002678,0.000431,0.000823
55564000,0.0324,0.013523,0.002678,0.000431,0.000823
55565000,0.0324,0.013523,0.002678,0.000431,0.000823
55566000,0.0324,0.013523,0.002678,0.000431,0.000823
55567000,0.0324,0.013523,0.002678,0.000431,0.000940
55568000,0.0324,0.013523,0.002678,0.000431,0.000823
55569000,0.0324,0.013523,0.002678,0.000431,0.000705
55570000,0.0324,0.013523,0.002678,0.000431,0.000940
55571000,0.0324,0.013523,0.002678,0.000431,0.000823
55572000,0.0324,0.013523,0.002678,0.000431,0.000823
55573000,0.0324,0.013523,0.002678,0.000431,0.000823
55574000,0.0324,0.013523,0.002678,0.000431,0.000823
55575000,0.0324,0.013523,0.002678,0.000431,0.000823
55576000,0.0324,0.013523,0.002678,0.000431,0.000940
55577000,0.0324,0.013523,0.002678,0.000431,0.000823
55578000,0.0324,0.013523,0.002678,0.000431,0.000823
55579000,0.0324,0.013523,0.002678,0.000431,0.000705
55580000,0.0324,0.013523,0.002678,0.000431,0.000940
55581000,0.0324,0.013523,0.002678,0.000431,0.000940
55582000,0.0324,0.013523,0.002678,0.000431,0.000705
55583000,0.0324,0.013523,0.002678,0.000431,0.000940
55584000,0.0324,0.013523,0.002678,0.000431,0.000705
55585000,0.0324,0.013523,0.002678,0.000431,0.000940
55586000,0.0324,0.013523,0.002678,0.000431,0.000823
55587000,0.0324,0.013523,0.002678,0.000431,0.000823
55588000,0.0324,0.013523,0.002678,0.000431,0.000823
55589000,0.0324,0.013523,0.002678,0.000431,0.000823
55590000,0.0324,0.013523,0.002678,0.000431,0.000940
55591000,0.0324,0.013523,0.002678,0.000431,0.000705
55592000,0.0324,0.013523,0.002678,0.000431,0.000940
55593000,0.0324,0.013523,0.002678,0.000431,0.000705
55594000,0.0324,0.013523,0.002678,0.000431,0.000940
55595000,0.0324,0.013523,0.002678,0.000431,0.000823
55596000,0.0324,0.013523,0.002678,0.000431,0.000823
55597000,0.0324,0.013523,0.002678,0.000431,0.000705
55598000,0.0324,0.013523,0.002678,0.000431,0.000940
55599000,0.0324,0.013523,0.002678,0.000431,0.000940
55600000,0.0324,0.013523,0.002678,0.000431,0.000705
55601000,0.0324,0.013523,0.002678,0.000431,0.000940
55602000,0.0324,0.013523,0.002678,0.000431,0.000705
55603000,0.0324,0.013523,0.002678,0.000431,0.000940
55604000,0.0324,0.013523,0.002678,0.000431,0.000823
55605000,0.0324,0.013523,0.002678,0.000431,0.000823
55606000,0.0324,0.013523,0.002678,0.000431,0.000823
55607000,0.0324,0.013523,0.002678,0.000431,0.000823
55608000,0.0324,0.013523,0.002678,0.000431,0.000940
55609000,0.0324,0.013523,0.002678,0.000431,0.000823
55610000,0.0324,0.013523,0.002678,0.000431,0.000823
55611000,0.0324,0.013523,0.002678,0.000431,0.000823
55612000,0.0324,0.013523,0.002678,0.000431,0.000823
55613000,0.0324,0.013523,0.002678,0.000431,0.000823
55614000,0.0324,0.013523,0.002678,0.000431,0.000823
55615000,0.0324,0.013523,0.002678,0.000431,0.000940
55616000,0.0324,0.013523,0.002678,0.000431,0.000705
55617000,0.0324,0.013523,0.002678,0.000431,0.000823
55618000,0.0324,0.013523,0.002678,0.000431,0.000940
55619000,0.0324,0.013523,0.002678,0.000431,0.000823
55620000,0.0324,0.013523,0.002678,0.000431,0.000823
55621000,0.0324,0.013523,0.002678,0.000431,0.000823
55622000,0.0324,0.013523,0.002678,0.000431,0.000705
55623000,0.0324,0.013523,0.002678,0.000431,0.000940
55624000,0.0324,0.013523,0.002678,0.000431,0.000940
55625000,0.0324,0.013523,0.002678,0.000431,0.000705
55626000,0.0324,0.013523,0.002678,0.000431,0.000940
55627000,0.0324,0.013523,0.002678,0.000431,0.000705
55628000,0.0324,0.013523,0.002678,0.000431,0.000940
55629000,0.0324,0.013523,0.002678,0.000431,0.000823
55630000,0.0324,0.013523,0.002678,0.000431,0.000823
55631000,0.0324,0.013523,0.002678,0.000431,0.000823
55632000,0.0324,0.013523,0.002678,0.000431,0.000823
55633000,0.0324,0.013523,0.002678,0.000431,0.000940
55634000,0.0324,0.013523,0.002678,0.000431,0.000705
55635000,0.0324,0.013523,0.002678,0.000431,0.000940
55636000,0.0324,0.013523,0.002678,0.000431,0.000823
55637000,0.0324,0.013523,0.002678,0.000431,0.000823
55638000,0.0324,0.013523,0.002678,0.000431,0.000823
55639000,0.0324,0.013523,0.002678,0.000431,0.000823
55640000,0.0324,0.013523,0.002678,0.000431,0.000823
55641000,0.0324,0.013523,0.002678,0.000431,0.000823
55642000,0.0324,0.013523,0.002678,0.000431,0.000940
55643000,0.0324,0.013523,0.002678,0.000431,0.000705
55644000,0.0324,0.013523,0.002678,0.000431,0.000940
55645000,0.0324,0.013523,0.002678,0.000431,0.000705
55646000,0.0324,0.013523,0.002678,0.000431,0.000940
55647000,0.0324,0.013523,0.002678,0.000431,0.000823
55648000,0.0324,0.013523,0.002678,0.000431,0.000823
55649000,0.0324,0.013523,0.002678,0.000431,0.000940
55650000,0.0324,0.013523,0.002678,0.000431,0.000705
55651000,0.0324,0.013523,0.002678,0.000431,0.000940
55652000,0.0324,0.013523,0.002678,0.000431,0.000823
55653000,0.0324,0.013523,0.002678,0.000431,0.000823
55654000,0.0324,0.013523,0.002678,0.000431,0.000823
55655000,0.0324,0.013523,0.002678,0.000431,0.000823
55656000,0.0324,0.013523,0.002678,0.000431,0.000940
55657000,0.0324,0.013523,0.002678,0.000431,0.000705
55658000,0.0324,0.013523,0.002678,0.000431,0.000940
55659000,0.0324,0.013523,0.002678,0.000431,0.000823
55660000,0.0324,0.013523,0.002678,0.000431,0.000823
55661000,0.0324,0.013523,0.002678,0.000431,0.000823
55662000,0.0324,0.013523,0.002678,0.000431,0.000823
55663000,0.0324,0.013523,0.002678,0.000431,0.000823
55664000,0.0324,0.013523,0.002678,0.000431,0.000823
55665000,0.0324,0.013523,0.002678,0.000431,0.000823
55666000,0.0324,0.013523,0.002678,0.000431,0.000823
55667000,0.0324,0.013523,0.002678,0.000431,0.000940
55668000,0.0324,0.013523,0.002678,0.000431,0.000823
55669000,0.0324,0.013523,0.002678,0.000431,0.000823
55670000,0.0324,0.013523,0.002678,0.000431,0.000705
55671000,0.0324,0.013523,0.002678,0.000431,0.000940
55672000,0.0324,0.013523,0.002678,0.000431,0.000940
55673000,0.0324,0.013523,0.002678,0.000431,0.000705
55674000,0.0324,0.013523,0.002678,0.000431,0.000940
55675000,0.0324,0.013523,0.002678,0.000431,0.000705
55676000,0.0324,0.013523,0.002678,0.000431,0.000940
55677000,0.0324,0.013523,0.002678,0.000431,0.000823
55678000,0.0324,0.013523,0.002678,0.000431,0.000823
55679000,0.0324,0.013523,0.002678,0.000431,0.000940
55680000,0.0324,0.013523,0.002678,0.000431,0.000705
55681000,0.0324,0.013523,0.002678,0.000431,0.000940
55682000,0.0324,0.013523,0.002678,0.000431,0.000823
55683000,0.0324,0.013523,0.002678,0.000431,0.000823
55684000,0.0324,0.013523,0.002678,0.000431,0.000823
55685000,0.0324,0.013523,0.002678,0.000431,0.000823
55686000,0.0324,0.013523,0.002678,0.000431,0.000940
55687000,0.0324,0.013523,0.002678,0.000431,0.000705
55688000,0.0324,0.013523,0.002678,0.000431,0.000940
55689000,0.0324,0.013523,0.002678,0.000431,0.000823
55690000,0.0324,0.013523,0.002678,0.000431,0.000823
55691000,0.0324,0.013523,0.002678,0.000431,0.000823
55692000,0.0324,0.013523,0.002678,0.000431,0.000823
55693000,0.0324,0.013523,0.002678,0.000431,0.000823
55694000,0.0324,0.013523,0.002678,0.000431,0.000823
55695000,0.0324,0.013523,0.002678,0.000431,0.000940
55696000,0.0324,0.013523,0.002678,0.000431,0.000705
55697000,0.0324,0.013523,0.002678,0.000431,0.000940
55698000,0.0324,0.013523,0.002678,0.000431,0.000705
55699000,0.0324,0.013523,0.002678,0.000431,0.000940
55700000,0.0324,0.013523,0.002678,0.000431,0.000940
55701000,0.0324,0.013523,0.002678,0.000431,0.000705
55702000,0.0324,0.013523,0.002678,0.000431,0.000940
55703000,0.0324,0.013523,0.002678,0.000431,0.000705
55704000,0.0324,0.013523,0.002678,0.000431,0.000940
55705000,0.0324,0.013523,0.002678,0.000431,0.000823
55706000,0.0324,0.013523,0.002678,0.000431,0.000823
55707000,0.0324,0.013523,0.002678,0.000431,0.000823
55708000,0.0324,0.013523,0.002678,0.000431,0.000823
55709000,0.0324,0.013523,0.002678,0.000431,0.000940
55710000,0.0324,0.013523,0.002678,0.000431,0.000705
55711000,0.0324,0.013523,0.002678,0.000431,0.000940
55712000,0.0324,0.013523,0.002678,0.000431,0.000823
55713000,0.0324,0.013523,0.002678,0.000431,0.000823
55714000,0.0324,0.013523,0.002678,0.000431,0.000823
55715000,0.0324,0.013523,0.002678,0.000431,0.000823
55716000,0.0324,0.013523,0.002678,0.000431,0.000940
55717000,0.0324,0.013523,0.002678,0.000431,0.000705
55718000,0.0324,0.013523,0.002678,0.000431,0.000823
55719000,0.0324,0.013523,0.002678,0.000431,0.000940
55720000,0.0324,0.013523,0.002678,0.000431,0.000823
55721000,0.0324,0.013523,0.002678,0.000431,0.000823
55722000,0.0324,0.013523,0.002678,0.000431,0.000823
55723000,0.0324,0.013523,0.002678,0.000431,0.000823
55724000,0.0324,0.013523,0.002678,0.000431,0.000823
55725000,0.0324,0.013523,0.002678,0.000431,0.000940
55726000,0.0324,0.013523,0.002678,0.000431,0.000823
55727000,0.0324,0.013523,0.002678,0.000431,0.000823
55728000,0.0324,0.013523,0.002678,0.000431,0.000705
55729000,0.0324,0.013523,0.002678,0.000431,0.000940
55730000,0.0324,0.013523,0.002678,0.000431,0.000940
55731000,0.0324,0.013523,0.002678,0.000431,0.000705
55732000,0.0324,0.013523,0.002678,0.000431,0.000940
55733000,0.0324,0.013523,0.002678,0.000431,0.000705
55734000,0.0324,0.013523,0.002678,0.000431,0.000940
55735000,0.0324,0.013523,0.002678,0.000431,0.000823
55736000,0.0324,0.013523,0.002678,0.000431,0.000823
55737000,0.0324,0.013523,0.002678,0.000431,0.000940
55738000,0.0324,0.013523,0.002678,0.000431,0.000705
55739000,0.0324,0.013523,0.002678,0.000431,0.000940
55740000,0.0324,0.013523,0.002678,0.000431,0.000823
55741000,0.0324,0.013523,0.002678,0.000431,0.000823
55742000,0.0324,0.013523,0.002678,0.000431,0.000823
55743000,0.0324,0.013523,0.002678,0.000431,0.000823
55744000,0.0324,0.013523,0.002678,0.000431,0.000940
55745000,0.0324,0.013523,0.002678,0.000431,0.000705
55746000,0.0324,0.013523,0.002678,0.000431,0.000940
55747000,0.0324,0.013523,0.002678,0.000431,0.000823
55748000,0.0324,0.013523,0.002678,0.000431,0.000823
55749000,0.0324,0.013523,0.002678,0.000431,0.000823
55750000,0.0324,0.013523,0.002678,0.000431,0.000823
55751000,0.0324,0.013523,0.002678,0.000431,0.000823
55752000,0.0324,0.013523,0.002678,0.000431,0.000823
55753000,0.0324,0.013523,0.002678,0.000431,0.000940
55754000,0.0324,0.013523,0.002678,0.000431,0.000705
55755000,0.0324,0.013523,0.002678,0.000431,0.000940
55756000,0.0324,0.013523,0.002678,0.000431,0.000705
55757000,0.0324,0.013523,0.002678,0.000431,0.000940
55758000,0.0324,0.013523,0.002678,0.000431,0.000940
55759000,0.0324,0.013523,0.002678,0.000431,0.000705
55760000,0.0324,0.013523,0.002678,0.000431,0.000940
55761000,0.0324,0.013523,0.002678,0.000431,0.000705
55762000,0.0324,0.013523,0.002678,0.000431,0.000940
55763000,0.0324,0.013523,0.002678,0.000431,0.000823
55764000,0.0324,0.013523,0.002678,0.000431,0.000823
55765000,0.0324,0.013523,0.002678,0.000431,0.000823
55766000,0.0324,0.013523,0.002678,0.000431,0.089909
55767000,0.0324,0.013523,0.002678,0.000431,0.501023
55768000,0.0324,0.013523,0.002678,0.000431,0.547094
55769000,0.0324,0.013523,0.002678,0.000431,0.133042
55770000,0.0324,0.013523,0.002678,0.000431,0.133512
55771000,0.0324,0.013523,0.002678,0.000431,0.626308
55772000,0.0324,0.013523,0.002678,0.000431,0.250688
55773000,0.0324,0.013523,0.002678,0.000431,0.259032
55774000,0.0324,0.013523,0.002678,0.000431,0.300049
55775000,0.0324,0.013523,0.002678,0.000431,0.145147
55776000,0.0324,0.013523,0.002678,0.000431,0.141034
55777000,0.0324,0.013523,0.002678,0.000431,0.110359
55778000,0.0324,0.013523,0.002678,0.000431,0.472581
55779000,0.0324,0.013523,0.002678,0.000431,0.188750
55780000,0.0324,0.013523,0.002678,0.000431,0.106245
55781000,0.0324,0.013523,0.002678,0.000431,0.091084
55782000,0.0324,0.013523,0.002678,0.000431,0.083445
55783000,0.0324,0.013523,0.002678,0.000431,0.062525
55784000,0.0324,0.013523,0.002678,0.000431,0.052065
55785000,0.0324,0.013523,0.002678,0.000431,0.049949
55786000,0.0324,0.013523,0.002678,0.000431,0.047246
55787000,0.0324,0.013523,0.002678,0.000431,0.029735
55788000,0.0324,0.013523,0.002678,0.000431,0.029265
55789000,0.0324,0.013523,0.002678,0.000431,0.032908
55790000,0.0324,0.013523,0.002678,0.000431,0.031498
55791000,0.0324,0.013523,0.002678,0.000431,0.029735
55792000,0.0324,0.013523,0.002678,0.000431,0.020802
55793000,0.0324,0.013523,0.002678,0.000431,0.019275
55794000,0.0324,0.013523,0.002678,0.000431,0.013163
55795000,0.0324,0.013523,0.002678,0.000431,0.013398
55796000,0.0324,0.013523,0.002678,0.000431,0.014691
55797000,0.0324,0.013523,0.002678,0.000431,0.009402
55798000,0.0324,0.013523,0.002678,0.000431,0.009402
55799000,0.0324,0.013523,0.002678,0.000431,0.008815
55800000,0.0324,0.013523,0.002678,0.000431,0.009285
55801000,0.0324,0.013523,0.002678,0.000431,0.010342
55802000,0.0324,0.013523,0.002678,0.000431,0.006582
55803000,0.0324,0.013523,0.002678,0.000431,0.005759
55804000,0.0324,0.013523,0.002678,0.000431,0.008109
55805000,0.0324,0.013523,0.002678,0.000431,0.004936
55806000,0.0324,0.013523,0.002678,0.000431,0.005054
55807000,0.0324,0.013523,0.002678,0.000431,0.005641
55808000,0.0324,0.013523,0.002678,0.000431,0.004113
55809000,0.0324,0.013523,0.002678,0.000431,0.004231
55810000,0.0324,0.013523,0.002678,0.000431,0.003878
55811000,0.0324,0.013523,0.002678,0.000431,0.004349
55812000,0.0324,0.013523,0.002678,0.000431,0.003761
55813000,0.0324,0.013523,0.002678,0.000431,0.004231
55814000,0.0324,0.013523,0.002678,0.000431,0.003878
55815000,0.0324,0.013523,0.002678,0.000431,0.004113
55816000,0.0324,0.013523,0.002678,0.000431,0.004584
55817000,0.0324,0.013523,0.002678,0.000431,0.003643
55818000,0.0324,0.013523,0.002678,0.000431,0.005171
55819000,0.0324,0.013523,0.002678,0.000431,0.004466
55820000,0.0324,0.013523,0.002678,0.000431,0.003878
55821000,0.0324,0.013523,0.002678,0.000431,0.003056
55822000,0.0324,0.013523,0.002678,0.000431,0.003173
55823000,0.0324,0.013523,0.002678,0.000431,0.000823
55824000,0.0324,0.013523,0.002678,0.000431,0.000823
55825000,0.0324,0.013523,0.002678,0.000431,0.000823
55826000,0.0324,0.013523,0.002678,0.000431,0.000823
55827000,0.0324,0.013523,0.002678,0.000431,0.000940
55828000,0.0324,0.013523,0.002678,0.000431,0.000705
55829000,0.0324,0.013523,0.002678,0.000431,0.000940
55830000,0.0324,0.013523,0.002678,0.000431,0.000823
55831000,0.0324,0.013523,0.002678,0.000431,0.000823
55832000,0.0324,0.013523,0.002678,0.000431,0.000705
55833000,0.0324,0.013523,0.002678,0.000431,0.000940
55834000,0.0324,0.013523,0.002678,0.000431,0.000940
55835000,0.0324,0.013523,0.002678,0.000431,0.000705
55836000,0.0324,0.013523,0.002678,0.000431,0.000940
55837000,0.0324,0.013523,0.002678,0.000431,0.000705
55838000,0.0324,0.013523,0.002678,0.000431,0.000940
55839000,0.0324,0.013523,0.002678,0.000431,0.000823
55840000,0.0324,0.013523,0.002678,0.000431,0.000823
55841000,0.0324,0.013523,0.002678,0.000431,0.000823
55842000,0.0324,0.013523,0.002678,0.000431,0.000823
55843000,0.0324,0.013523,0.002678,0.000431,0.000823
55844000,0.0324,0.013523,0.002678,0.000431,0.000823
55845000,0.0324,0.013523,0.002678,0.000431,0.000940
55846000,0.0324,0.013523,0.002678,0.000431,0.000823
55847000,0.0324,0.013523,0.002678,0.000431,0.000823
55848000,0.0324,0.013523,0.002678,0.000431,0.000823
55849000,0.0324,0.013523,0.002678,0.000431,0.000823
55850000,0.0324,0.013523,0.002678,0.000431,0.000823
55851000,0.0324,0.013523,0.002678,0.000431,0.000823
55852000,0.0324,0.013523,0.002678,0.000431,0.070869
55853000,0.0324,0.013523,0.002678,0.000431,0.579061
55854000,0.0324,0.013523,0.002678,0.000431,0.589639
55855000,0.0324,0.013523,0.002678,0.000431,0.136685
55856000,0.0324,0.013523,0.002678,0.000431,0.133982
55857000,0.0324,0.013523,0.002678,0.000431,0.610324
55858000,0.0324,0.013523,0.002678,0.000431,0.258327
55859000,0.0324,0.013523,0.002678,0.000431,0.265144
55860000,0.0324,0.013523,0.002678,0.000431,0.275839
55861000,0.0324,0.013523,0.002678,0.000431,0.143972
55862000,0.0324,0.013523,0.002678,0.000431,0.146910
55863000,0.0324,0.013523,0.002678,0.000431,0.201913
55864000,0.0324,0.013523,0.002678,0.000431,0.451426
55865000,0.0324,0.013523,0.002678,0.000431,0.114237
55866000,0.0324,0.013523,0.002678,0.000431,0.104130
55867000,0.0324,0.013523,0.002678,0.000431,0.077569
55868000,0.0324,0.013523,0.002678,0.000431,0.071810
55869000,0.0324,0.013523,0.002678,0.000431,0.055826
55870000,0.0324,0.013523,0.002678,0.000431,0.043133
55871000,0.0324,0.013523,0.002678,0.000431,0.030910
55872000,0.0324,0.013523,0.002678,0.000431,0.037374
55873000,0.0324,0.013523,0.002678,0.000431,0.023858
55874000,0.0324,0.013523,0.002678,0.000431,0.019157
55875000,0.0324,0.013523,0.002678,0.000431,0.019862
55876000,0.0324,0.013523,0.002678,0.000431,0.014926
55877000,0.0324,0.013523,0.002678,0.000431,0.011870
55878000,0.0324,0.013523,0.002678,0.000431,0.011635
55879000,0.0324,0.013523,0.002678,0.000431,0.010695
55880000,0.0324,0.013523,0.002678,0.000431,0.007757
55881000,0.0324,0.013523,0.002678,0.000431,0.004349
55882000,0.0324,0.013523,0.002678,0.000431,0.004113
55883000,0.0324,0.013523,0.002678,0.000431,0.006699
55884000,0.0324,0.013523,0.002678,0.000431,0.003408
55885000,0.0324,0.013523,0.002678,0.000431,0.003408
55886000,0.0324,0.013523,0.002678,0.000431,0.003526
55887000,0.0324,0.013523,0.002678,0.000431,0.003173
55888000,0.0324,0.013523,0.002678,0.000431,0.003291
55889000,0.0324,0.013523,0.002678,0.000431,0.003291
55890000,0.0324,0.013523,0.002678,0.000431,0.003643
55891000,0.0324,0.013523,0.002678,0.000431,0.002938
55892000,0.0324,0.013523,0.002678,0.000431,0.003526
55893000,0.0324,0.013523,0.002678,0.000431,0.003643
55894000,0.0324,0.013523,0.002678,0.000431,0.003173
55895000,0.0324,0.013523,0.002678,0.000431,0.004113
55896000,0.0324,0.013523,0.002678,0.000431,0.002468
55897000,0.0324,0.013523,0.002678,0.000431,0.002586
55898000,0.0324,0.013523,0.002678,0.000431,0.002586
55899000,0.0324,0.013523,0.002678,0.000431,0.002468
55900000,0.0324,0.013523,0.002678,0.000431,0.003291
55901000,0.0324,0.013523,0.002678,0.000431,0.439908
55902000,0.0324,0.013523,0.002678,0.000431,0.721976
55903000,0.0324,0.013523,0.002678,0.000431,0.149966
55904000,0.0324,0.013523,0.002678,0.000431,0.134805
55905000,0.0324,0.013523,0.002678,0.000431,0.304163
55906000,0.0324,0.013523,0.002678,0.000431,0.446842
55907000,0.0324,0.013523,0.002678,0.000431,0.266319
55908000,0.0324,0.013523,0.002678,0.000431,0.309687
55909000,0.0324,0.013523,0.002678,0.000431,0.143267
55910000,0.0324,0.013523,0.002678,0.000431,0.145382
55911000,0.0324,0.013523,0.002678,0.000431,0.116118
55912000,0.0324,0.013523,0.002678,0.000431,0.382437
55913000,0.0324,0.013523,0.002678,0.000431,0.226007
55914000,0.0324,0.013523,0.002678,0.000431,0.050420
55915000,0.0324,0.013523,0.002678,0.000431,0.035494
55916000,0.0324,0.013523,0.002678,0.000431,0.032790
55917000,0.0324,0.013523,0.002678,0.000431,0.027854
55918000,0.0324,0.013523,0.002678,0.000431,0.022095
55919000,0.0324,0.013523,0.002678,0.000431,0.016924
55920000,0.0324,0.013523,0.002678,0.000431,0.010813
55921000,0.0324,0.013523,0.002678,0.000431,0.013163
55922000,0.0324,0.013523,0.002678,0.000431,0.009520
55923000,0.0324,0.013523,0.002678,0.000431,0.008580
55924000,0.0324,0.013523,0.002678,0.000431,0.003643
55925000,0.0324,0.013523,0.002678,0.000431,0.003291
55926000,0.0324,0.013523,0.002678,0.000431,0.005054
55927000,0.0324,0.013523,0.002678,0.000431,0.002703
55928000,0.0324,0.013523,0.002678,0.000431,0.002586
55929000,0.0324,0.013523,0.002678,0.000431,0.002703
55930000,0.0324,0.013523,0.002678,0.000431,0.002351
55931000,0.0324,0.013523,0.002678,0.000431,0.002703
55932000,0.0324,0.013523,0.002678,0.000431,0.002586
55933000,0.0324,0.013523,0.002678,0.000431,0.002468
55934000,0.0324,0.013523,0.002678,0.000431,0.002586
55935000,0.0324,0.013523,0.002678,0.000431,0.002821
55936000,0.0324,0.013523,0.002678,0.000431,0.002586
55937000,0.0324,0.013523,0.002678,0.000431,0.002468
55938000,0.0324,0.013523,0.002678,0.000431,0.002468
55939000,0.0324,0.013523,0.002678,0.000431,0.002821
55940000,0.0324,0.013523,0.002678,0.000431,0.002586
55941000,0.0324,0.013523,0.002678,0.000431,0.002468
55942000,0.0324,0.013523,0.002678,0.000431,0.002703
55943000,0.0324,0.013523,0.002678,0.000431,0.002468
55944000,0.0324,0.013523,0.002678,0.000431,0.002703
55945000,0.0324,0.013523,0.002678,0.000431,0.002468
55946000,0.0324,0.013523,0.002678,0.000431,0.002703
55947000,0.0324,0.013523,0.002678,0.000431,0.002703
55948000,0.0324,0.013523,0.002678,0.000431,0.002351
55949000,0.0324,0.013523,0.002678,0.000431,0.002703
55950000,0.0324,0.013523,0.002678,0.000431,0.002586
55951000,0.0324,0.013523,0.002678,0.000431,0.004231
55952000,0.0324,0.013523,0.002678,0.000431,0.001645
55953000,0.0324,0.013523,0.002678,0.000431,0.001763
55954000,0.0324,0.013523,0.002678,0.000431,0.001763
55955000,0.0324,0.013523,0.002678,0.000431,0.001528
55956000,0.0324,0.013523,0.002678,0.000431,0.001880
55957000,0.0324,0.013523,0.002678,0.000431,0.001645
55958000,0.0324,0.013523,0.002678,0.000431,0.001880
55959000,0.0324,0.013523,0.002678,0.000431,0.001410
55960000,0.0324,0.013523,0.002678,0.000431,0.001880
55961000,0.0324,0.013523,0.002678,0.000431,0.001645
55962000,0.0324,0.013523,0.002678,0.000431,0.001763
55963000,0.0324,0.013523,0.002678,0.000431,0.001763
55964000,0.0324,0.013523,0.002678,0.000431,0.001645
55965000,0.0324,0.013523,0.002678,0.000431,0.001880
55966000,0.0324,0.013523,0.002678,0.000431,0.001528
55967000,0.0324,0.013523,0.002678,0.000431,0.001763
55968000,0.0324,0.013523,0.002678,0.000431,0.001763
55969000,0.0324,0.013523,0.002678,0.000431,0.001645
55970000,0.0324,0.013523,0.002678,0.000431,0.001763
55971000,0.0324,0.013523,0.002678,0.000431,0.001645
55972000,0.0324,0.013523,0.002678,0.000431,0.001880
55973000,0.0324,0.013523,0.002678,0.000431,0.001645
55974000,0.0324,0.013523,0.002678,0.000431,0.001645
55975000,0.0324,0.013523,0.002678,0.000431,0.001763
55976000,0.0324,0.013523,0.002678,0.000431,0.001763
55977000,0.0324,0.013523,0.002678,0.000431,0.001763
55978000,0.0324,0.013523,0.002678,0.000431,0.001528
55979000,0.0324,0.013523,0.002678,0.000431,0.001763
55980000,0.0324,0.013523,0.002678,0.000431,0.001763
55981000,0.0324,0.013523,0.002678,0.000431,0.001645
55982000,0.0324,0.013523,0.002678,0.000431,0.001645
55983000,0.0324,0.013523,0.002678,0.000431,0.001880
55984000,0.0324,0.013523,0.002678,0.000431,0.001645
55985000,0.0324,0.013523,0.002678,0.000431,0.001763
55986000,0.0324,0.013523,0.002678,0.000431,0.001528
55987000,0.0324,0.013523,0.002678,0.000431,0.001880
55988000,0.0324,0.013523,0.002678,0.000431,0.001763
55989000,0.0324,0.013523,0.002678,0.000431,0.001528
55990000,0.0324,0.013523,0.002678,0.000431,0.001880
55991000,0.0324,0.013523,0.002678,0.000431,0.001645
55992000,0.0324,0.013523,0.002678,0.000431,0.001763
55993000,0.0324,0.013523,0.002678,0.000431,0.001645
55994000,0.0324,0.013523,0.002678,0.000431,0.001763
55995000,0.0324,0.013523,0.002678,0.000431,0.001880
55996000,0.0324,0.013523,0.002678,0.000431,0.001410
55997000,0.0324,0.013523,0.002678,0.000431,0.002703
55998000,0.0324,0.013523,0.002678,0.000431,0.001763
55999000,0.0324,0.013523,0.002678,0.000431,0.000823
