Cycle,Area(mm^2),PeakDynamic(W),SubthresholdLeakage(W),GateLeakage(W),RunTimeDynamic(W)
42000000,0.0324,0.013523,0.002678,0.000431,0.134452
42001000,0.0324,0.013523,0.002678,0.000431,0.131632
42002000,0.0324,0.013523,0.002678,0.000431,0.590697
42003000,0.0324,0.013523,0.002678,0.000431,0.268082
42004000,0.0324,0.013523,0.002678,0.000431,0.275604
42005000,0.0324,0.013523,0.002678,0.000431,0.263263
42006000,0.0324,0.013523,0.002678,0.000431,0.143502
42007000,0.0324,0.013523,0.002678,0.000431,0.144090
42008000,0.0324,0.013523,0.002678,0.000431,0.114355
42009000,0.0324,0.013523,0.002678,0.000431,0.421574
42010000,0.0324,0.013523,0.002678,0.000431,0.209083
42011000,0.0324,0.013523,0.002678,0.000431,0.081682
42012000,0.0324,0.013523,0.002678,0.000431,0.052888
42013000,0.0324,0.013523,0.002678,0.000431,0.054533
42014000,0.0324,0.013523,0.002678,0.000431,0.041135
42015000,0.0324,0.013523,0.002678,0.000431,0.035729
42016000,0.0324,0.013523,0.002678,0.000431,0.026444
42017000,0.0324,0.013523,0.002678,0.000431,0.019745
42018000,0.0324,0.013523,0.002678,0.000431,0.022448
42019000,0.0324,0.013523,0.002678,0.000431,0.022683
42020000,0.0324,0.013523,0.002678,0.000431,0.019627
42021000,0.0324,0.013523,0.002678,0.000431,0.014338
42022000,0.0324,0.013523,0.002678,0.000431,0.014456
42023000,0.0324,0.013523,0.002678,0.000431,0.013986
42024000,0.0324,0.013523,0.002678,0.000431,0.009637
42025000,0.0324,0.013523,0.002678,0.000431,0.011635
42026000,0.0324,0.013523,0.002678,0.000431,0.007639
42027000,0.0324,0.013523,0.002678,0.000431,0.008109
42028000,0.0324,0.013523,0.002678,0.000431,0.011165
42029000,0.0324,0.013523,0.002678,0.000431,0.006347
42030000,0.0324,0.013523,0.002678,0.000431,0.006699
42031000,0.0324,0.013523,0.002678,0.000431,0.005524
42032000,0.0324,0.013523,0.002678,0.000431,0.005054
42033000,0.0324,0.013523,0.002678,0.000431,0.004584
42034000,0.0324,0.013523,0.002678,0.000431,0.004584
42035000,0.0324,0.013523,0.002678,0.000431,0.004936
42036000,0.0324,0.013523,0.002678,0.000431,0.004466
42037000,0.0324,0.013523,0.002678,0.000431,0.004701
42038000,0.0324,0.013523,0.002678,0.000431,0.005171
42039000,0.0324,0.013523,0.002678,0.000431,0.004231
42040000,0.0324,0.013523,0.002678,0.000431,0.004936
42041000,0.0324,0.013523,0.002678,0.000431,0.004819
42042000,0.0324,0.013523,0.002678,0.000431,0.003643
42043000,0.0324,0.013523,0.002678,0.000431,0.004349
42044000,0.0324,0.013523,0.002678,0.000431,0.003761
42045000,0.0324,0.013523,0.002678,0.000431,0.004113
42046000,0.0324,0.013523,0.002678,0.000431,0.003761
42047000,0.0324,0.013523,0.002678,0.000431,0.009402
42048000,0.0324,0.013523,0.002678,0.000431,0.002703
42049000,0.0324,0.013523,0.002678,0.000431,0.001763
42050000,0.0324,0.013523,0.002678,0.000431,0.002586
42051000,0.0324,0.013523,0.002678,0.000431,0.002116
42052000,0.0324,0.013523,0.002678,0.000431,0.002116
42053000,0.0324,0.013523,0.002678,0.000431,0.002586
42054000,0.0324,0.013523,0.002678,0.000431,0.001880
42055000,0.0324,0.013523,0.002678,0.000431,0.002586
42056000,0.0324,0.013523,0.002678,0.000431,0.001880
42057000,0.0324,0.013523,0.002678,0.000431,0.002351
42058000,0.0324,0.013523,0.002678,0.000431,0.002468
42059000,0.0324,0.013523,0.002678,0.000431,0.001998
42060000,0.0324,0.013523,0.002678,0.000431,0.002351
42061000,0.0324,0.013523,0.002678,0.000431,0.002351
42062000,0.0324,0.013523,0.002678,0.000431,0.001763
42063000,0.0324,0.013523,0.002678,0.000431,0.003408
42064000,0.0324,0.013523,0.002678,0.000431,0.000823
42065000,0.0324,0.013523,0.002678,0.000431,0.078861
42066000,0.0324,0.013523,0.002678,0.000431,0.569542
42067000,0.0324,0.013523,0.002678,0.000431,0.544508
42068000,0.0324,0.013523,0.002678,0.000431,0.133982
42069000,0.0324,0.013523,0.002678,0.000431,0.132572
42070000,0.0324,0.013523,0.002678,0.000431,0.543098
42071000,0.0324,0.013523,0.002678,0.000431,0.239287
42072000,0.0324,0.013523,0.002678,0.000431,0.230943
42073000,0.0324,0.013523,0.002678,0.000431,0.327198
42074000,0.0324,0.013523,0.002678,0.000431,0.150906
42075000,0.0324,0.013523,0.002678,0.000431,0.144677
42076000,0.0324,0.013523,0.002678,0.000431,0.108126
42077000,0.0324,0.013523,0.002678,0.000431,0.368921
42078000,0.0324,0.013523,0.002678,0.000431,0.227887
42079000,0.0324,0.013523,0.002678,0.000431,0.044896
42080000,0.0324,0.013523,0.002678,0.000431,0.033143
42081000,0.0324,0.013523,0.002678,0.000431,0.028677
42082000,0.0324,0.013523,0.002678,0.000431,0.022565
42083000,0.0324,0.013523,0.002678,0.000431,0.023271
42084000,0.0324,0.013523,0.002678,0.000431,0.016454
42085000,0.0324,0.013523,0.002678,0.000431,0.016336
42086000,0.0324,0.013523,0.002678,0.000431,0.015866
42087000,0.0324,0.013523,0.002678,0.000431,0.013163
42088000,0.0324,0.013523,0.002678,0.000431,0.010813
42089000,0.0324,0.013523,0.002678,0.000431,0.010695
42090000,0.0324,0.013523,0.002678,0.000431,0.008345
42091000,0.0324,0.013523,0.002678,0.000431,0.005289
42092000,0.0324,0.013523,0.002678,0.000431,0.005171
42093000,0.0324,0.013523,0.002678,0.000431,0.004936
42094000,0.0324,0.013523,0.002678,0.000431,0.005289
42095000,0.0324,0.013523,0.002678,0.000431,0.006699
42096000,0.0324,0.013523,0.002678,0.000431,0.004231
42097000,0.0324,0.013523,0.002678,0.000431,0.004113
42098000,0.0324,0.013523,0.002678,0.000431,0.004584
42099000,0.0324,0.013523,0.002678,0.000431,0.005171
42100000,0.0324,0.013523,0.002678,0.000431,0.004113
42101000,0.0324,0.013523,0.002678,0.000431,0.002586
42102000,0.0324,0.013523,0.002678,0.000431,0.003291
42103000,0.0324,0.013523,0.002678,0.000431,0.002703
42104000,0.0324,0.013523,0.002678,0.000431,0.001763
42105000,0.0324,0.013523,0.002678,0.000431,0.001763
42106000,0.0324,0.013523,0.002678,0.000431,0.001645
42107000,0.0324,0.013523,0.002678,0.000431,0.001645
42108000,0.0324,0.013523,0.002678,0.000431,0.001880
42109000,0.0324,0.013523,0.002678,0.000431,0.001645
42110000,0.0324,0.013523,0.002678,0.000431,0.002821
42111000,0.0324,0.013523,0.002678,0.000431,0.000940
42112000,0.0324,0.013523,0.002678,0.000431,0.000823
42113000,0.0324,0.013523,0.002678,0.000431,0.000823
42114000,0.0324,0.013523,0.002678,0.000431,0.000823
42115000,0.0324,0.013523,0.002678,0.000431,0.000705
42116000,0.0324,0.013523,0.002678,0.000431,0.000940
42117000,0.0324,0.013523,0.002678,0.000431,0.000940
42118000,0.0324,0.013523,0.002678,0.000431,0.000705
42119000,0.0324,0.013523,0.002678,0.000431,0.000940
42120000,0.0324,0.013523,0.002678,0.000431,0.000705
42121000,0.0324,0.013523,0.002678,0.000431,0.000940
42122000,0.0324,0.013523,0.002678,0.000431,0.000940
42123000,0.0324,0.013523,0.002678,0.000431,0.000705
42124000,0.0324,0.013523,0.002678,0.000431,0.000940
42125000,0.0324,0.013523,0.002678,0.000431,0.000705
42126000,0.0324,0.013523,0.002678,0.000431,0.000940
42127000,0.0324,0.013523,0.002678,0.000431,0.000823
42128000,0.0324,0.013523,0.002678,0.000431,0.000823
42129000,0.0324,0.013523,0.002678,0.000431,0.000823
42130000,0.0324,0.013523,0.002678,0.000431,0.000823
42131000,0.0324,0.013523,0.002678,0.000431,0.000940
42132000,0.0324,0.013523,0.002678,0.000431,0.000705
42133000,0.0324,0.013523,0.002678,0.000431,0.000940
42134000,0.0324,0.013523,0.002678,0.000431,0.000823
42135000,0.0324,0.013523,0.002678,0.000431,0.000823
42136000,0.0324,0.013523,0.002678,0.000431,0.000823
42137000,0.0324,0.013523,0.002678,0.000431,0.000823
42138000,0.0324,0.013523,0.002678,0.000431,0.000705
42139000,0.0324,0.013523,0.002678,0.000431,0.000940
42140000,0.0324,0.013523,0.002678,0.000431,0.000823
42141000,0.0324,0.013523,0.002678,0.000431,0.000823
42142000,0.0324,0.013523,0.002678,0.000431,0.000823
42143000,0.0324,0.013523,0.002678,0.000431,0.000823
42144000,0.0324,0.013523,0.002678,0.000431,0.000940
42145000,0.0324,0.013523,0.002678,0.000431,0.000705
42146000,0.0324,0.013523,0.002678,0.000431,0.000940
42147000,0.0324,0.013523,0.002678,0.000431,0.000823
42148000,0.0324,0.013523,0.002678,0.000431,0.000823
42149000,0.0324,0.013523,0.002678,0.000431,0.000823
42150000,0.0324,0.013523,0.002678,0.000431,0.000823
42151000,0.0324,0.013523,0.002678,0.000431,0.000823
42152000,0.0324,0.013523,0.002678,0.000431,0.000823
42153000,0.0324,0.013523,0.002678,0.000431,0.000940
42154000,0.0324,0.013523,0.002678,0.000431,0.000705
42155000,0.0324,0.013523,0.002678,0.000431,0.000940
42156000,0.0324,0.013523,0.002678,0.000431,0.000705
42157000,0.0324,0.013523,0.002678,0.000431,0.000940
42158000,0.0324,0.013523,0.002678,0.000431,0.000940
42159000,0.0324,0.013523,0.002678,0.000431,0.000705
42160000,0.0324,0.013523,0.002678,0.000431,0.000940
42161000,0.0324,0.013523,0.002678,0.000431,0.000705
42162000,0.0324,0.013523,0.002678,0.000431,0.000940
42163000,0.0324,0.013523,0.002678,0.000431,0.000823
42164000,0.0324,0.013523,0.002678,0.000431,0.000823
42165000,0.0324,0.013523,0.002678,0.000431,0.000823
42166000,0.0324,0.013523,0.002678,0.000431,0.000823
42167000,0.0324,0.013523,0.002678,0.000431,0.000940
42168000,0.0324,0.013523,0.002678,0.000431,0.000705
42169000,0.0324,0.013523,0.002678,0.000431,0.000940
42170000,0.0324,0.013523,0.002678,0.000431,0.000823
42171000,0.0324,0.013523,0.002678,0.000431,0.000823
42172000,0.0324,0.013523,0.002678,0.000431,0.000823
42173000,0.0324,0.013523,0.002678,0.000431,0.000823
42174000,0.0324,0.013523,0.002678,0.000431,0.000823
42175000,0.0324,0.013523,0.002678,0.000431,0.000823
42176000,0.0324,0.013523,0.002678,0.000431,0.000823
42177000,0.0324,0.013523,0.002678,0.000431,0.000823
42178000,0.0324,0.013523,0.002678,0.000431,0.000940
42179000,0.0324,0.013523,0.002678,0.000431,0.000823
42180000,0.0324,0.013523,0.002678,0.000431,0.000823
42181000,0.0324,0.013523,0.002678,0.000431,0.000705
42182000,0.0324,0.013523,0.002678,0.000431,0.000940
42183000,0.0324,0.013523,0.002678,0.000431,0.000940
42184000,0.0324,0.013523,0.002678,0.000431,0.000705
42185000,0.0324,0.013523,0.002678,0.000431,0.000940
42186000,0.0324,0.013523,0.002678,0.000431,0.000705
42187000,0.0324,0.013523,0.002678,0.000431,0.000940
42188000,0.0324,0.013523,0.002678,0.000431,0.000823
42189000,0.0324,0.013523,0.002678,0.000431,0.000823
42190000,0.0324,0.013523,0.002678,0.000431,0.000940
42191000,0.0324,0.013523,0.002678,0.000431,0.000705
42192000,0.0324,0.013523,0.002678,0.000431,0.000940
42193000,0.0324,0.013523,0.002678,0.000431,0.000823
42194000,0.0324,0.013523,0.002678,0.000431,0.000823
42195000,0.0324,0.013523,0.002678,0.000431,0.000823
42196000,0.0324,0.013523,0.002678,0.000431,0.000823
42197000,0.0324,0.013523,0.002678,0.000431,0.000823
42198000,0.0324,0.013523,0.002678,0.000431,0.000823
42199000,0.0324,0.013523,0.002678,0.000431,0.000940
42200000,0.0324,0.013523,0.002678,0.000431,0.000705
42201000,0.0324,0.013523,0.002678,0.000431,0.000823
42202000,0.0324,0.013523,0.002678,0.000431,0.000940
42203000,0.0324,0.013523,0.002678,0.000431,0.000823
42204000,0.0324,0.013523,0.002678,0.000431,0.000823
42205000,0.0324,0.013523,0.002678,0.000431,0.000823
42206000,0.0324,0.013523,0.002678,0.000431,0.000823
42207000,0.0324,0.013523,0.002678,0.000431,0.000823
42208000,0.0324,0.013523,0.002678,0.000431,0.000940
42209000,0.0324,0.013523,0.002678,0.000431,0.000823
42210000,0.0324,0.013523,0.002678,0.000431,0.000823
42211000,0.0324,0.013523,0.002678,0.000431,0.000705
42212000,0.0324,0.013523,0.002678,0.000431,0.000940
42213000,0.0324,0.013523,0.002678,0.000431,0.000940
42214000,0.0324,0.013523,0.002678,0.000431,0.000705
42215000,0.0324,0.013523,0.002678,0.000431,0.000940
42216000,0.0324,0.013523,0.002678,0.000431,0.000705
42217000,0.0324,0.013523,0.002678,0.000431,0.000940
42218000,0.0324,0.013523,0.002678,0.000431,0.000823
42219000,0.0324,0.013523,0.002678,0.000431,0.000823
42220000,0.0324,0.013523,0.002678,0.000431,0.000940
42221000,0.0324,0.013523,0.002678,0.000431,0.000705
42222000,0.0324,0.013523,0.002678,0.000431,0.000940
42223000,0.0324,0.013523,0.002678,0.000431,0.000823
42224000,0.0324,0.013523,0.002678,0.000431,0.000823
42225000,0.0324,0.013523,0.002678,0.000431,0.000823
42226000,0.0324,0.013523,0.002678,0.000431,0.000823
42227000,0.0324,0.013523,0.002678,0.000431,0.000823
42228000,0.0324,0.013523,0.002678,0.000431,0.000823
42229000,0.0324,0.013523,0.002678,0.000431,0.000940
42230000,0.0324,0.013523,0.002678,0.000431,0.000705
42231000,0.0324,0.013523,0.002678,0.000431,0.000940
42232000,0.0324,0.013523,0.002678,0.000431,0.000823
42233000,0.0324,0.013523,0.002678,0.000431,0.000823
42234000,0.0324,0.013523,0.002678,0.000431,0.000705
42235000,0.0324,0.013523,0.002678,0.000431,0.000940
42236000,0.0324,0.013523,0.002678,0.000431,0.000940
42237000,0.0324,0.013523,0.002678,0.000431,0.000705
42238000,0.0324,0.013523,0.002678,0.000431,0.000940
42239000,0.0324,0.013523,0.002678,0.000431,0.000705
42240000,0.0324,0.013523,0.002678,0.000431,0.000940
42241000,0.0324,0.013523,0.002678,0.000431,0.000823
42242000,0.0324,0.013523,0.002678,0.000431,0.000823
42243000,0.0324,0.013523,0.002678,0.000431,0.001645
42244000,0.0324,0.013523,0.002678,0.000431,0.349294
42245000,0.0324,0.013523,0.002678,0.000431,0.688715
42246000,0.0324,0.013523,0.002678,0.000431,0.142092
42247000,0.0324,0.013523,0.002678,0.000431,0.134922
42248000,0.0324,0.013523,0.002678,0.000431,0.130809
42249000,0.0324,0.013523,0.002678,0.000431,0.588816
42250000,0.0324,0.013523,0.002678,0.000431,0.233411
42251000,0.0324,0.013523,0.002678,0.000431,0.238347
42252000,0.0324,0.013523,0.002678,0.000431,0.276544
42253000,0.0324,0.013523,0.002678,0.000431,0.136098
42254000,0.0324,0.013523,0.002678,0.000431,0.154315
42255000,0.0324,0.013523,0.002678,0.000431,0.109889
42256000,0.0324,0.013523,0.002678,0.000431,0.412171
42257000,0.0324,0.013523,0.002678,0.000431,0.190866
42258000,0.0324,0.013523,0.002678,0.000431,0.042545
42259000,0.0324,0.013523,0.002678,0.000431,0.030205
42260000,0.0324,0.013523,0.002678,0.000431,0.024681
42261000,0.0324,0.013523,0.002678,0.000431,0.021743
42262000,0.0324,0.013523,0.002678,0.000431,0.021743
42263000,0.0324,0.013523,0.002678,0.000431,0.012576
42264000,0.0324,0.013523,0.002678,0.000431,0.011518
42265000,0.0324,0.013523,0.002678,0.000431,0.012928
42266000,0.0324,0.013523,0.002678,0.000431,0.008580
42267000,0.0324,0.013523,0.002678,0.000431,0.007757
42268000,0.0324,0.013523,0.002678,0.000431,0.009050
42269000,0.0324,0.013523,0.002678,0.000431,0.005641
42270000,0.0324,0.013523,0.002678,0.000431,0.006582
42271000,0.0324,0.013523,0.002678,0.000431,0.009167
42272000,0.0324,0.013523,0.002678,0.000431,0.005876
42273000,0.0324,0.013523,0.002678,0.000431,0.003526
42274000,0.0324,0.013523,0.002678,0.000431,0.004113
42275000,0.0324,0.013523,0.002678,0.000431,0.003526
42276000,0.0324,0.013523,0.002678,0.000431,0.003878
42277000,0.0324,0.013523,0.002678,0.000431,0.003996
42278000,0.0324,0.013523,0.002678,0.000431,0.004113
42279000,0.0324,0.013523,0.002678,0.000431,0.003878
42280000,0.0324,0.013523,0.002678,0.000431,0.001880
42281000,0.0324,0.013523,0.002678,0.000431,0.002116
42282000,0.0324,0.013523,0.002678,0.000431,0.001998
42283000,0.0324,0.013523,0.002678,0.000431,0.001410
42284000,0.0324,0.013523,0.002678,0.000431,0.001880
42285000,0.0324,0.013523,0.002678,0.000431,0.001645
42286000,0.0324,0.013523,0.002678,0.000431,0.001645
42287000,0.0324,0.013523,0.002678,0.000431,0.001880
42288000,0.0324,0.013523,0.002678,0.000431,0.001645
42289000,0.0324,0.013523,0.002678,0.000431,0.001645
42290000,0.0324,0.013523,0.002678,0.000431,0.001645
42291000,0.0324,0.013523,0.002678,0.000431,0.001645
42292000,0.0324,0.013523,0.002678,0.000431,0.001880
42293000,0.0324,0.013523,0.002678,0.000431,0.001645
42294000,0.0324,0.013523,0.002678,0.000431,0.001645
42295000,0.0324,0.013523,0.002678,0.000431,0.001880
42296000,0.0324,0.013523,0.002678,0.000431,0.001410
42297000,0.0324,0.013523,0.002678,0.000431,0.001763
42298000,0.0324,0.013523,0.002678,0.000431,0.000823
42299000,0.0324,0.013523,0.002678,0.000431,0.000823
42300000,0.0324,0.013523,0.002678,0.000431,0.071340
42301000,0.0324,0.013523,0.002678,0.000431,0.467175
42302000,0.0324,0.013523,0.002678,0.000431,0.590344
42303000,0.0324,0.013523,0.002678,0.000431,0.132454
42304000,0.0324,0.013523,0.002678,0.000431,0.134570
42305000,0.0324,0.013523,0.002678,0.000431,0.591637
42306000,0.0324,0.013523,0.002678,0.000431,0.272783
42307000,0.0324,0.013523,0.002678,0.000431,0.235762
42308000,0.0324,0.013523,0.002678,0.000431,0.314388
42309000,0.0324,0.013523,0.002678,0.000431,0.143032
42310000,0.0324,0.013523,0.002678,0.000431,0.158898
42311000,0.0324,0.013523,0.002678,0.000431,0.144442
42312000,0.0324,0.013523,0.002678,0.000431,0.462708
42313000,0.0324,0.013523,0.002678,0.000431,0.030087
42314000,0.0324,0.013523,0.002678,0.000431,0.019275
42315000,0.0324,0.013523,0.002678,0.000431,0.016571
42316000,0.0324,0.013523,0.002678,0.000431,0.012458
42317000,0.0324,0.013523,0.002678,0.000431,0.006934
42318000,0.0324,0.013523,0.002678,0.000431,0.010813
42319000,0.0324,0.013523,0.002678,0.000431,0.003996
42320000,0.0324,0.013523,0.002678,0.000431,0.005759
42321000,0.0324,0.013523,0.002678,0.000431,0.003526
42322000,0.0324,0.013523,0.002678,0.000431,0.003173
42323000,0.0324,0.013523,0.002678,0.000431,0.003643
42324000,0.0324,0.013523,0.002678,0.000431,0.002821
42325000,0.0324,0.013523,0.002678,0.000431,0.003761
42326000,0.0324,0.013523,0.002678,0.000431,0.003056
42327000,0.0324,0.013523,0.002678,0.000431,0.003408
42328000,0.0324,0.013523,0.002678,0.000431,0.003526
42329000,0.0324,0.013523,0.002678,0.000431,0.003878
42330000,0.0324,0.013523,0.002678,0.000431,0.003761
42331000,0.0324,0.013523,0.002678,0.000431,0.002233
42332000,0.0324,0.013523,0.002678,0.000431,0.003878
42333000,0.0324,0.013523,0.002678,0.000431,0.001880
42334000,0.0324,0.013523,0.002678,0.000431,0.001175
42335000,0.0324,0.013523,0.002678,0.000431,0.001880
42336000,0.0324,0.013523,0.002678,0.000431,0.001410
42337000,0.0324,0.013523,0.002678,0.000431,0.001645
42338000,0.0324,0.013523,0.002678,0.000431,0.001645
42339000,0.0324,0.013523,0.002678,0.000431,0.001410
42340000,0.0324,0.013523,0.002678,0.000431,0.001645
42341000,0.0324,0.013523,0.002678,0.000431,0.001645
42342000,0.0324,0.013523,0.002678,0.000431,0.123052
42343000,0.0324,0.013523,0.002678,0.000431,0.480925
42344000,0.0324,0.013523,0.002678,0.000431,0.526879
42345000,0.0324,0.013523,0.002678,0.000431,0.133982
42346000,0.0324,0.013523,0.002678,0.000431,0.132102
42347000,0.0324,0.013523,0.002678,0.000431,0.568954
42348000,0.0324,0.013523,0.002678,0.000431,0.239875
42349000,0.0324,0.013523,0.002678,0.000431,0.252568
42350000,0.0324,0.013523,0.002678,0.000431,0.333898
42351000,0.0324,0.013523,0.002678,0.000431,0.141857
42352000,0.0324,0.013523,0.002678,0.000431,0.166537
42353000,0.0324,0.013523,0.002678,0.000431,0.098724
42354000,0.0324,0.013523,0.002678,0.000431,0.469055
42355000,0.0324,0.013523,0.002678,0.000431,0.114590
42356000,0.0324,0.013523,0.002678,0.000431,0.048892
42357000,0.0324,0.013523,0.002678,0.000431,0.041370
42358000,0.0324,0.013523,0.002678,0.000431,0.033613
42359000,0.0324,0.013523,0.002678,0.000431,0.035023
42360000,0.0324,0.013523,0.002678,0.000431,0.031498
42361000,0.0324,0.013523,0.002678,0.000431,0.020685
42362000,0.0324,0.013523,0.002678,0.000431,0.017277
42363000,0.0324,0.013523,0.002678,0.000431,0.013986
42364000,0.0324,0.013523,0.002678,0.000431,0.011283
42365000,0.0324,0.013523,0.002678,0.000431,0.013398
42366000,0.0324,0.013523,0.002678,0.000431,0.010695
42367000,0.0324,0.013523,0.002678,0.000431,0.005994
42368000,0.0324,0.013523,0.002678,0.000431,0.008815
42369000,0.0324,0.013523,0.002678,0.000431,0.005171
42370000,0.0324,0.013523,0.002678,0.000431,0.004466
42371000,0.0324,0.013523,0.002678,0.000431,0.003291
42372000,0.0324,0.013523,0.002678,0.000431,0.003291
42373000,0.0324,0.013523,0.002678,0.000431,0.003408
42374000,0.0324,0.013523,0.002678,0.000431,0.003056
42375000,0.0324,0.013523,0.002678,0.000431,0.005171
42376000,0.0324,0.013523,0.002678,0.000431,0.002821
42377000,0.0324,0.013523,0.002678,0.000431,0.001645
42378000,0.0324,0.013523,0.002678,0.000431,0.001410
42379000,0.0324,0.013523,0.002678,0.000431,0.001880
42380000,0.0324,0.013523,0.002678,0.000431,0.001410
42381000,0.0324,0.013523,0.002678,0.000431,0.001645
42382000,0.0324,0.013523,0.002678,0.000431,0.001528
42383000,0.0324,0.013523,0.002678,0.000431,0.001528
42384000,0.0324,0.013523,0.002678,0.000431,0.001880
42385000,0.0324,0.013523,0.002678,0.000431,0.001175
42386000,0.0324,0.013523,0.002678,0.000431,0.001880
42387000,0.0324,0.013523,0.002678,0.000431,0.001528
42388000,0.0324,0.013523,0.002678,0.000431,0.001528
42389000,0.0324,0.013523,0.002678,0.000431,0.001645
42390000,0.0324,0.013523,0.002678,0.000431,0.001410
42391000,0.0324,0.013523,0.002678,0.000431,0.001645
42392000,0.0324,0.013523,0.002678,0.000431,0.001645
42393000,0.0324,0.013523,0.002678,0.000431,0.001645
42394000,0.0324,0.013523,0.002678,0.000431,0.001410
42395000,0.0324,0.013523,0.002678,0.000431,0.001645
42396000,0.0324,0.013523,0.002678,0.000431,0.001410
42397000,0.0324,0.013523,0.002678,0.000431,0.001528
42398000,0.0324,0.013523,0.002678,0.000431,0.000705
42399000,0.0324,0.013523,0.002678,0.000431,0.000940
42400000,0.0324,0.013523,0.002678,0.000431,0.000823
42401000,0.0324,0.013523,0.002678,0.000431,0.014338
42402000,0.0324,0.013523,0.002678,0.000431,0.510307
42403000,0.0324,0.013523,0.002678,0.000431,0.586818
42404000,0.0324,0.013523,0.002678,0.000431,0.133747
42405000,0.0324,0.013523,0.002678,0.000431,0.131984
42406000,0.0324,0.013523,0.002678,0.000431,0.495616
42407000,0.0324,0.013523,0.002678,0.000431,0.303810
42408000,0.0324,0.013523,0.002678,0.000431,0.298404
42409000,0.0324,0.013523,0.002678,0.000431,0.321087
42410000,0.0324,0.013523,0.002678,0.000431,0.143737
42411000,0.0324,0.013523,0.002678,0.000431,0.154079
42412000,0.0324,0.013523,0.002678,0.000431,0.096961
42413000,0.0324,0.013523,0.002678,0.000431,0.482571
42414000,0.0324,0.013523,0.002678,0.000431,0.172296
42415000,0.0324,0.013523,0.002678,0.000431,0.082387
42416000,0.0324,0.013523,0.002678,0.000431,0.072280
42417000,0.0324,0.013523,0.002678,0.000431,0.063935
42418000,0.0324,0.013523,0.002678,0.000431,0.051947
42419000,0.0324,0.013523,0.002678,0.000431,0.057119
42420000,0.0324,0.013523,0.002678,0.000431,0.049714
42421000,0.0324,0.013523,0.002678,0.000431,0.023153
42422000,0.0324,0.013523,0.002678,0.000431,0.018099
42423000,0.0324,0.013523,0.002678,0.000431,0.017982
42424000,0.0324,0.013523,0.002678,0.000431,0.014456
42425000,0.0324,0.013523,0.002678,0.000431,0.011753
42426000,0.0324,0.013523,0.002678,0.000431,0.014338
42427000,0.0324,0.013523,0.002678,0.000431,0.013046
42428000,0.0324,0.013523,0.002678,0.000431,0.007639
42429000,0.0324,0.013523,0.002678,0.000431,0.010107
42430000,0.0324,0.013523,0.002678,0.000431,0.010930
42431000,0.0324,0.013523,0.002678,0.000431,0.004584
42432000,0.0324,0.013523,0.002678,0.000431,0.007404
42433000,0.0324,0.013523,0.002678,0.000431,0.005289
42434000,0.0324,0.013523,0.002678,0.000431,0.001528
42435000,0.0324,0.013523,0.002678,0.000431,0.001763
42436000,0.0324,0.013523,0.002678,0.000431,0.001763
42437000,0.0324,0.013523,0.002678,0.000431,0.001998
42438000,0.0324,0.013523,0.002678,0.000431,0.003056
42439000,0.0324,0.013523,0.002678,0.000431,0.000823
42440000,0.0324,0.013523,0.002678,0.000431,0.000940
42441000,0.0324,0.013523,0.002678,0.000431,0.000940
42442000,0.0324,0.013523,0.002678,0.000431,0.000705
42443000,0.0324,0.013523,0.002678,0.000431,0.000940
42444000,0.0324,0.013523,0.002678,0.000431,0.000940
42445000,0.0324,0.013523,0.002678,0.000431,0.000940
42446000,0.0324,0.013523,0.002678,0.000431,0.000823
42447000,0.0324,0.013523,0.002678,0.000431,0.000823
42448000,0.0324,0.013523,0.002678,0.000431,0.000940
42449000,0.0324,0.013523,0.002678,0.000431,0.000823
42450000,0.0324,0.013523,0.002678,0.000431,0.000940
42451000,0.0324,0.013523,0.002678,0.000431,0.000823
42452000,0.0324,0.013523,0.002678,0.000431,0.000940
42453000,0.0324,0.013523,0.002678,0.000431,0.000823
42454000,0.0324,0.013523,0.002678,0.000431,0.000823
42455000,0.0324,0.013523,0.002678,0.000431,0.000940
42456000,0.0324,0.013523,0.002678,0.000431,0.000940
42457000,0.0324,0.013523,0.002678,0.000431,0.000823
42458000,0.0324,0.013523,0.002678,0.000431,0.000823
42459000,0.0324,0.013523,0.002678,0.000431,0.000940
42460000,0.0324,0.013523,0.002678,0.000431,0.000940
42461000,0.0324,0.013523,0.002678,0.000431,0.000705
42462000,0.0324,0.013523,0.002678,0.000431,0.000940
42463000,0.0324,0.013523,0.002678,0.000431,0.000940
42464000,0.0324,0.013523,0.002678,0.000431,0.000940
42465000,0.0324,0.013523,0.002678,0.000431,0.000705
42466000,0.0324,0.013523,0.002678,0.000431,0.000940
42467000,0.0324,0.013523,0.002678,0.000431,0.000940
42468000,0.0324,0.013523,0.002678,0.000431,0.000823
42469000,0.0324,0.013523,0.002678,0.000431,0.000823
42470000,0.0324,0.013523,0.002678,0.000431,0.000940
42471000,0.0324,0.013523,0.002678,0.000431,0.000940
42472000,0.0324,0.013523,0.002678,0.000431,0.000823
42473000,0.0324,0.013523,0.002678,0.000431,0.000823
42474000,0.0324,0.013523,0.002678,0.000431,0.000940
42475000,0.0324,0.013523,0.002678,0.000431,0.000823
42476000,0.0324,0.013523,0.002678,0.000431,0.000823
42477000,0.0324,0.013523,0.002678,0.000431,0.000940
42478000,0.0324,0.013523,0.002678,0.000431,0.000940
42479000,0.0324,0.013523,0.002678,0.000431,0.000940
42480000,0.0324,0.013523,0.002678,0.000431,0.000705
42481000,0.0324,0.013523,0.002678,0.000431,0.000940
42482000,0.0324,0.013523,0.002678,0.000431,0.000940
42483000,0.0324,0.013523,0.002678,0.000431,0.000823
42484000,0.0324,0.013523,0.002678,0.000431,0.000823
42485000,0.0324,0.013523,0.002678,0.000431,0.000940
42486000,0.0324,0.013523,0.002678,0.000431,0.000940
42487000,0.0324,0.013523,0.002678,0.000431,0.000823
42488000,0.0324,0.013523,0.002678,0.000431,0.000823
42489000,0.0324,0.013523,0.002678,0.000431,0.000940
42490000,0.0324,0.013523,0.002678,0.000431,0.000823
42491000,0.0324,0.013523,0.002678,0.000431,0.000940
42492000,0.0324,0.013523,0.002678,0.000431,0.000823
42493000,0.0324,0.013523,0.002678,0.000431,0.000940
42494000,0.0324,0.013523,0.002678,0.000431,0.000823
42495000,0.0324,0.013523,0.002678,0.000431,0.000823
42496000,0.0324,0.013523,0.002678,0.000431,0.000940
42497000,0.0324,0.013523,0.002678,0.000431,0.000940
42498000,0.0324,0.013523,0.002678,0.000431,0.000823
42499000,0.0324,0.013523,0.002678,0.000431,0.000823
42500000,0.0324,0.013523,0.002678,0.000431,0.000940
42501000,0.0324,0.013523,0.002678,0.000431,0.000940
42502000,0.0324,0.013523,0.002678,0.000431,0.000705
42503000,0.0324,0.013523,0.002678,0.000431,0.000940
42504000,0.0324,0.013523,0.002678,0.000431,0.000940
42505000,0.0324,0.013523,0.002678,0.000431,0.000940
42506000,0.0324,0.013523,0.002678,0.000431,0.000823
42507000,0.0324,0.013523,0.002678,0.000431,0.000823
42508000,0.0324,0.013523,0.002678,0.000431,0.000940
42509000,0.0324,0.013523,0.002678,0.000431,0.000823
42510000,0.0324,0.013523,0.002678,0.000431,0.000940
42511000,0.0324,0.013523,0.002678,0.000431,0.000823
42512000,0.0324,0.013523,0.002678,0.000431,0.000940
42513000,0.0324,0.013523,0.002678,0.000431,0.000823
42514000,0.0324,0.013523,0.002678,0.000431,0.000823
42515000,0.0324,0.013523,0.002678,0.000431,0.000940
42516000,0.0324,0.013523,0.002678,0.000431,0.000940
42517000,0.0324,0.013523,0.002678,0.000431,0.000705
42518000,0.0324,0.013523,0.002678,0.000431,0.000940
42519000,0.0324,0.013523,0.002678,0.000431,0.000940
42520000,0.0324,0.013523,0.002678,0.000431,0.000940
42521000,0.0324,0.013523,0.002678,0.000431,0.000705
42522000,0.0324,0.013523,0.002678,0.000431,0.000940
42523000,0.0324,0.013523,0.002678,0.000431,0.000940
42524000,0.0324,0.013523,0.002678,0.000431,0.000823
42525000,0.0324,0.013523,0.002678,0.000431,0.000823
42526000,0.0324,0.013523,0.002678,0.000431,0.000940
42527000,0.0324,0.013523,0.002678,0.000431,0.000940
42528000,0.0324,0.013523,0.002678,0.000431,0.000823
42529000,0.0324,0.013523,0.002678,0.000431,0.000823
42530000,0.0324,0.013523,0.002678,0.000431,0.000940
42531000,0.0324,0.013523,0.002678,0.000431,0.000823
42532000,0.0324,0.013523,0.002678,0.000431,0.000940
42533000,0.0324,0.013523,0.002678,0.000431,0.000823
42534000,0.0324,0.013523,0.002678,0.000431,0.000940
42535000,0.0324,0.013523,0.002678,0.000431,0.000823
42536000,0.0324,0.013523,0.002678,0.000431,0.000823
42537000,0.0324,0.013523,0.002678,0.000431,0.000940
42538000,0.0324,0.013523,0.002678,0.000431,0.000940
42539000,0.0324,0.013523,0.002678,0.000431,0.000940
42540000,0.0324,0.013523,0.002678,0.000431,0.000705
42541000,0.0324,0.013523,0.002678,0.000431,0.000940
42542000,0.0324,0.013523,0.002678,0.000431,0.000940
42543000,0.0324,0.013523,0.002678,0.000431,0.000823
42544000,0.0324,0.013523,0.002678,0.000431,0.000823
42545000,0.0324,0.013523,0.002678,0.000431,0.000940
42546000,0.0324,0.013523,0.002678,0.000431,0.000940
42547000,0.0324,0.013523,0.002678,0.000431,0.000823
42548000,0.0324,0.013523,0.002678,0.000431,0.000823
42549000,0.0324,0.013523,0.002678,0.000431,0.000940
42550000,0.0324,0.013523,0.002678,0.000431,0.000823
42551000,0.0324,0.013523,0.002678,0.000431,0.000940
42552000,0.0324,0.013523,0.002678,0.000431,0.000823
42553000,0.0324,0.013523,0.002678,0.000431,0.000940
42554000,0.0324,0.013523,0.002678,0.000431,0.000823
42555000,0.0324,0.013523,0.002678,0.000431,0.000823
42556000,0.0324,0.013523,0.002678,0.000431,0.000940
42557000,0.0324,0.013523,0.002678,0.000431,0.000940
42558000,0.0324,0.013523,0.002678,0.000431,0.000823
42559000,0.0324,0.013523,0.002678,0.000431,0.000823
42560000,0.0324,0.013523,0.002678,0.000431,0.000940
42561000,0.0324,0.013523,0.002678,0.000431,0.000940
42562000,0.0324,0.013523,0.002678,0.000431,0.000823
42563000,0.0324,0.013523,0.002678,0.000431,0.000823
42564000,0.0324,0.013523,0.002678,0.000431,0.000940
42565000,0.0324,0.013523,0.002678,0.000431,0.000823
42566000,0.0324,0.013523,0.002678,0.000431,0.000940
42567000,0.0324,0.013523,0.002678,0.000431,0.000823
42568000,0.0324,0.013523,0.002678,0.000431,0.000940
42569000,0.0324,0.013523,0.002678,0.000431,0.000823
42570000,0.0324,0.013523,0.002678,0.000431,0.000823
42571000,0.0324,0.013523,0.002678,0.000431,0.000940
42572000,0.0324,0.013523,0.002678,0.000431,0.000940
42573000,0.0324,0.013523,0.002678,0.000431,0.000823
42574000,0.0324,0.013523,0.002678,0.000431,0.000823
42575000,0.0324,0.013523,0.002678,0.000431,0.000940
42576000,0.0324,0.013523,0.002678,0.000431,0.000940
42577000,0.0324,0.013523,0.002678,0.000431,0.000705
42578000,0.0324,0.013523,0.002678,0.000431,0.000940
42579000,0.0324,0.013523,0.002678,0.000431,0.000940
42580000,0.0324,0.013523,0.002678,0.000431,0.000940
42581000,0.0324,0.013523,0.002678,0.000431,0.000705
42582000,0.0324,0.013523,0.002678,0.000431,0.000940
42583000,0.0324,0.013523,0.002678,0.000431,0.000940
42584000,0.0324,0.013523,0.002678,0.000431,0.000823
42585000,0.0324,0.013523,0.002678,0.000431,0.000823
42586000,0.0324,0.013523,0.002678,0.000431,0.000940
42587000,0.0324,0.013523,0.002678,0.000431,0.000940
42588000,0.0324,0.013523,0.002678,0.000431,0.000823
42589000,0.0324,0.013523,0.002678,0.000431,0.000823
42590000,0.0324,0.013523,0.002678,0.000431,0.000940
42591000,0.0324,0.013523,0.002678,0.000431,0.000823
42592000,0.0324,0.013523,0.002678,0.000431,0.000940
42593000,0.0324,0.013523,0.002678,0.000431,0.000823
42594000,0.0324,0.013523,0.002678,0.000431,0.000940
42595000,0.0324,0.013523,0.002678,0.000431,0.000823
42596000,0.0324,0.013523,0.002678,0.000431,0.000823
42597000,0.0324,0.013523,0.002678,0.000431,0.000940
42598000,0.0324,0.013523,0.002678,0.000431,0.000940
42599000,0.0324,0.013523,0.002678,0.000431,0.000940
42600000,0.0324,0.013523,0.002678,0.000431,0.000705
42601000,0.0324,0.013523,0.002678,0.000431,0.000940
42602000,0.0324,0.013523,0.002678,0.000431,0.000940
42603000,0.0324,0.013523,0.002678,0.000431,0.000823
42604000,0.0324,0.013523,0.002678,0.000431,0.000823
42605000,0.0324,0.013523,0.002678,0.000431,0.000940
42606000,0.0324,0.013523,0.002678,0.000431,0.000823
42607000,0.0324,0.013523,0.002678,0.000431,0.000940
42608000,0.0324,0.013523,0.002678,0.000431,0.000823
42609000,0.0324,0.013523,0.002678,0.000431,0.000940
42610000,0.0324,0.013523,0.002678,0.000431,0.000823
42611000,0.0324,0.013523,0.002678,0.000431,0.000823
42612000,0.0324,0.013523,0.002678,0.000431,0.000940
42613000,0.0324,0.013523,0.002678,0.000431,0.000940
42614000,0.0324,0.013523,0.002678,0.000431,0.000823
42615000,0.0324,0.013523,0.002678,0.000431,0.000823
42616000,0.0324,0.013523,0.002678,0.000431,0.000940
42617000,0.0324,0.013523,0.002678,0.000431,0.000940
42618000,0.0324,0.013523,0.002678,0.000431,0.000705
42619000,0.0324,0.013523,0.002678,0.000431,0.000940
42620000,0.0324,0.013523,0.002678,0.000431,0.000940
42621000,0.0324,0.013523,0.002678,0.000431,0.000940
42622000,0.0324,0.013523,0.002678,0.000431,0.000823
42623000,0.0324,0.013523,0.002678,0.000431,0.000823
42624000,0.0324,0.013523,0.002678,0.000431,0.000940
42625000,0.0324,0.013523,0.002678,0.000431,0.000823
42626000,0.0324,0.013523,0.002678,0.000431,0.000940
42627000,0.0324,0.013523,0.002678,0.000431,0.000823
42628000,0.0324,0.013523,0.002678,0.000431,0.000940
42629000,0.0324,0.013523,0.002678,0.000431,0.000823
42630000,0.0324,0.013523,0.002678,0.000431,0.000823
42631000,0.0324,0.013523,0.002678,0.000431,0.000940
42632000,0.0324,0.013523,0.002678,0.000431,0.000940
42633000,0.0324,0.013523,0.002678,0.000431,0.000823
42634000,0.0324,0.013523,0.002678,0.000431,0.000823
42635000,0.0324,0.013523,0.002678,0.000431,0.000940
42636000,0.0324,0.013523,0.002678,0.000431,0.000940
42637000,0.0324,0.013523,0.002678,0.000431,0.000705
42638000,0.0324,0.013523,0.002678,0.000431,0.000940
42639000,0.0324,0.013523,0.002678,0.000431,0.000940
42640000,0.0324,0.013523,0.002678,0.000431,0.000940
42641000,0.0324,0.013523,0.002678,0.000431,0.000705
42642000,0.0324,0.013523,0.002678,0.000431,0.000940
42643000,0.0324,0.013523,0.002678,0.000431,0.000940
42644000,0.0324,0.013523,0.002678,0.000431,0.000823
42645000,0.0324,0.013523,0.002678,0.000431,0.000823
42646000,0.0324,0.013523,0.002678,0.000431,0.000940
42647000,0.0324,0.013523,0.002678,0.000431,0.000940
42648000,0.0324,0.013523,0.002678,0.000431,0.000823
42649000,0.0324,0.013523,0.002678,0.000431,0.000823
42650000,0.0324,0.013523,0.002678,0.000431,0.000940
42651000,0.0324,0.013523,0.002678,0.000431,0.000823
42652000,0.0324,0.013523,0.002678,0.000431,0.000823
42653000,0.0324,0.013523,0.002678,0.000431,0.000940
42654000,0.0324,0.013523,0.002678,0.000431,0.000940
42655000,0.0324,0.013523,0.002678,0.000431,0.000823
42656000,0.0324,0.013523,0.002678,0.000431,0.000823
42657000,0.0324,0.013523,0.002678,0.000431,0.000940
42658000,0.0324,0.013523,0.002678,0.000431,0.000940
42659000,0.0324,0.013523,0.002678,0.000431,0.000823
42660000,0.0324,0.013523,0.002678,0.000431,0.000823
42661000,0.0324,0.013523,0.002678,0.000431,0.000940
42662000,0.0324,0.013523,0.002678,0.000431,0.000940
42663000,0.0324,0.013523,0.002678,0.000431,0.000823
42664000,0.0324,0.013523,0.002678,0.000431,0.000823
42665000,0.0324,0.013523,0.002678,0.000431,0.000940
42666000,0.0324,0.013523,0.002678,0.000431,0.000823
42667000,0.0324,0.013523,0.002678,0.000431,0.000940
42668000,0.0324,0.013523,0.002678,0.000431,0.000823
42669000,0.0324,0.013523,0.002678,0.000431,0.000940
42670000,0.0324,0.013523,0.002678,0.000431,0.000823
42671000,0.0324,0.013523,0.002678,0.000431,0.000823
42672000,0.0324,0.013523,0.002678,0.000431,0.000940
42673000,0.0324,0.013523,0.002678,0.000431,0.000940
42674000,0.0324,0.013523,0.002678,0.000431,0.000823
42675000,0.0324,0.013523,0.002678,0.000431,0.000823
42676000,0.0324,0.013523,0.002678,0.000431,0.000940
42677000,0.0324,0.013523,0.002678,0.000431,0.000940
42678000,0.0324,0.013523,0.002678,0.000431,0.000705
42679000,0.0324,0.013523,0.002678,0.000431,0.000940
42680000,0.0324,0.013523,0.002678,0.000431,0.000940
42681000,0.0324,0.013523,0.002678,0.000431,0.000940
42682000,0.0324,0.013523,0.002678,0.000431,0.000823
42683000,0.0324,0.013523,0.002678,0.000431,0.000823
42684000,0.0324,0.013523,0.002678,0.000431,0.000940
42685000,0.0324,0.013523,0.002678,0.000431,0.000823
42686000,0.0324,0.013523,0.002678,0.000431,0.000940
42687000,0.0324,0.013523,0.002678,0.000431,0.000823
42688000,0.0324,0.013523,0.002678,0.000431,0.000940
42689000,0.0324,0.013523,0.002678,0.000431,0.000823
42690000,0.0324,0.013523,0.002678,0.000431,0.000823
42691000,0.0324,0.013523,0.002678,0.000431,0.000940
42692000,0.0324,0.013523,0.002678,0.000431,0.000940
42693000,0.0324,0.013523,0.002678,0.000431,0.000705
42694000,0.0324,0.013523,0.002678,0.000431,0.000940
42695000,0.0324,0.013523,0.002678,0.000431,0.000940
42696000,0.0324,0.013523,0.002678,0.000431,0.000940
42697000,0.0324,0.013523,0.002678,0.000431,0.000705
42698000,0.0324,0.013523,0.002678,0.000431,0.000940
42699000,0.0324,0.013523,0.002678,0.000431,0.000940
42700000,0.0324,0.013523,0.002678,0.000431,0.000823
42701000,0.0324,0.013523,0.002678,0.000431,0.000823
42702000,0.0324,0.013523,0.002678,0.000431,0.000940
42703000,0.0324,0.013523,0.002678,0.000431,0.000940
42704000,0.0324,0.013523,0.002678,0.000431,0.000823
42705000,0.0324,0.013523,0.002678,0.000431,0.000823
42706000,0.0324,0.013523,0.002678,0.000431,0.000940
42707000,0.0324,0.013523,0.002678,0.000431,0.000823
42708000,0.0324,0.013523,0.002678,0.000431,0.000940
42709000,0.0324,0.013523,0.002678,0.000431,0.000823
42710000,0.0324,0.013523,0.002678,0.000431,0.000940
42711000,0.0324,0.013523,0.002678,0.000431,0.000823
42712000,0.0324,0.013523,0.002678,0.000431,0.000823
42713000,0.0324,0.013523,0.002678,0.000431,0.000940
42714000,0.0324,0.013523,0.002678,0.000431,0.000940
42715000,0.0324,0.013523,0.002678,0.000431,0.000823
42716000,0.0324,0.013523,0.002678,0.000431,0.000823
42717000,0.0324,0.013523,0.002678,0.000431,0.000940
42718000,0.0324,0.013523,0.002678,0.000431,0.000940
42719000,0.0324,0.013523,0.002678,0.000431,0.000823
42720000,0.0324,0.013523,0.002678,0.000431,0.000823
42721000,0.0324,0.013523,0.002678,0.000431,0.000940
42722000,0.0324,0.013523,0.002678,0.000431,0.000940
42723000,0.0324,0.013523,0.002678,0.000431,0.000823
42724000,0.0324,0.013523,0.002678,0.000431,0.000823
42725000,0.0324,0.013523,0.002678,0.000431,0.000940
42726000,0.0324,0.013523,0.002678,0.000431,0.000823
42727000,0.0324,0.013523,0.002678,0.000431,0.000940
42728000,0.0324,0.013523,0.002678,0.000431,0.000823
42729000,0.0324,0.013523,0.002678,0.000431,0.000940
42730000,0.0324,0.013523,0.002678,0.000431,0.000823
42731000,0.0324,0.013523,0.002678,0.000431,0.000823
42732000,0.0324,0.013523,0.002678,0.000431,0.000940
42733000,0.0324,0.013523,0.002678,0.000431,0.000940
42734000,0.0324,0.013523,0.002678,0.000431,0.000823
42735000,0.0324,0.013523,0.002678,0.000431,0.000823
42736000,0.0324,0.013523,0.002678,0.000431,0.000940
42737000,0.0324,0.013523,0.002678,0.000431,0.000940
42738000,0.0324,0.013523,0.002678,0.000431,0.000705
42739000,0.0324,0.013523,0.002678,0.000431,0.000940
42740000,0.0324,0.013523,0.002678,0.000431,0.000940
42741000,0.0324,0.013523,0.002678,0.000431,0.000823
42742000,0.0324,0.013523,0.002678,0.000431,0.000940
42743000,0.0324,0.013523,0.002678,0.000431,0.000823
42744000,0.0324,0.013523,0.002678,0.000431,0.000940
42745000,0.0324,0.013523,0.002678,0.000431,0.000823
42746000,0.0324,0.013523,0.002678,0.000431,0.000823
42747000,0.0324,0.013523,0.002678,0.000431,0.000940
42748000,0.0324,0.013523,0.002678,0.000431,0.000940
42749000,0.0324,0.013523,0.002678,0.000431,0.000823
42750000,0.0324,0.013523,0.002678,0.000431,0.000823
42751000,0.0324,0.013523,0.002678,0.000431,0.000940
42752000,0.0324,0.013523,0.002678,0.000431,0.000940
42753000,0.0324,0.013523,0.002678,0.000431,0.000705
42754000,0.0324,0.013523,0.002678,0.000431,0.000940
42755000,0.0324,0.013523,0.002678,0.000431,0.000940
42756000,0.0324,0.013523,0.002678,0.000431,0.000940
42757000,0.0324,0.013523,0.002678,0.000431,0.000705
42758000,0.0324,0.013523,0.002678,0.000431,0.219308
42759000,0.0324,0.013523,0.002678,0.000431,0.642997
42760000,0.0324,0.013523,0.002678,0.000431,0.379263
42761000,0.0324,0.013523,0.002678,0.000431,0.133159
42762000,0.0324,0.013523,0.002678,0.000431,0.151259
42763000,0.0324,0.013523,0.002678,0.000431,0.596338
42764000,0.0324,0.013523,0.002678,0.000431,0.270902
42765000,0.0324,0.013523,0.002678,0.000431,0.318854
42766000,0.0324,0.013523,0.002678,0.000431,0.185459
42767000,0.0324,0.013523,0.002678,0.000431,0.154079
42768000,0.0324,0.013523,0.002678,0.000431,0.102250
42769000,0.0324,0.013523,0.002678,0.000431,0.407470
42770000,0.0324,0.013523,0.002678,0.000431,0.229650
42771000,0.0324,0.013523,0.002678,0.000431,0.073573
42772000,0.0324,0.013523,0.002678,0.000431,0.065111
42773000,0.0324,0.013523,0.002678,0.000431,0.043015
42774000,0.0324,0.013523,0.002678,0.000431,0.042545
42775000,0.0324,0.013523,0.002678,0.000431,0.030557
42776000,0.0324,0.013523,0.002678,0.000431,0.022330
42777000,0.0324,0.013523,0.002678,0.000431,0.018217
42778000,0.0324,0.013523,0.002678,0.000431,0.019275
42779000,0.0324,0.013523,0.002678,0.000431,0.015984
42780000,0.0324,0.013523,0.002678,0.000431,0.009637
42781000,0.0324,0.013523,0.002678,0.000431,0.009872
42782000,0.0324,0.013523,0.002678,0.000431,0.010225
42783000,0.0324,0.013523,0.002678,0.000431,0.009285
42784000,0.0324,0.013523,0.002678,0.000431,0.014221
42785000,0.0324,0.013523,0.002678,0.000431,0.007287
42786000,0.0324,0.013523,0.002678,0.000431,0.007287
42787000,0.0324,0.013523,0.002678,0.000431,0.008462
42788000,0.0324,0.013523,0.002678,0.000431,0.009520
42789000,0.0324,0.013523,0.002678,0.000431,0.006464
42790000,0.0324,0.013523,0.002678,0.000431,0.005289
42791000,0.0324,0.013523,0.002678,0.000431,0.005759
42792000,0.0324,0.013523,0.002678,0.000431,0.005876
42793000,0.0324,0.013523,0.002678,0.000431,0.005524
42794000,0.0324,0.013523,0.002678,0.000431,0.005054
42795000,0.0324,0.013523,0.002678,0.000431,0.004231
42796000,0.0324,0.013523,0.002678,0.000431,0.003643
42797000,0.0324,0.013523,0.002678,0.000431,0.002821
42798000,0.0324,0.013523,0.002678,0.000431,0.003761
42799000,0.0324,0.013523,0.002678,0.000431,0.003408
42800000,0.0324,0.013523,0.002678,0.000431,0.005524
42801000,0.0324,0.013523,0.002678,0.000431,0.001880
42802000,0.0324,0.013523,0.002678,0.000431,0.001645
42803000,0.0324,0.013523,0.002678,0.000431,0.216134
42804000,0.0324,0.013523,0.002678,0.000431,0.624075
42805000,0.0324,0.013523,0.002678,0.000431,0.374562
42806000,0.0324,0.013523,0.002678,0.000431,0.133512
42807000,0.0324,0.013523,0.002678,0.000431,0.131749
42808000,0.0324,0.013523,0.002678,0.000431,0.577063
42809000,0.0324,0.013523,0.002678,0.000431,0.233999
42810000,0.0324,0.013523,0.002678,0.000431,0.272665
42811000,0.0324,0.013523,0.002678,0.000431,0.239757
42812000,0.0324,0.013523,0.002678,0.000431,0.144912
42813000,0.0324,0.013523,0.002678,0.000431,0.184754
42814000,0.0324,0.013523,0.002678,0.000431,0.094493
42815000,0.0324,0.013523,0.002678,0.000431,0.491150
42816000,0.0324,0.013523,0.002678,0.000431,0.086501
42817000,0.0324,0.013523,0.002678,0.000431,0.061702
42818000,0.0324,0.013523,0.002678,0.000431,0.056061
42819000,0.0324,0.013523,0.002678,0.000431,0.038549
42820000,0.0324,0.013523,0.002678,0.000431,0.034553
42821000,0.0324,0.013523,0.002678,0.000431,0.027384
42822000,0.0324,0.013523,0.002678,0.000431,0.022330
42823000,0.0324,0.013523,0.002678,0.000431,0.019392
42824000,0.0324,0.013523,0.002678,0.000431,0.022213
42825000,0.0324,0.013523,0.002678,0.000431,0.013751
42826000,0.0324,0.013523,0.002678,0.000431,0.013868
42827000,0.0324,0.013523,0.002678,0.000431,0.015279
42828000,0.0324,0.013523,0.002678,0.000431,0.008815
42829000,0.0324,0.013523,0.002678,0.000431,0.007522
42830000,0.0324,0.013523,0.002678,0.000431,0.015161
42831000,0.0324,0.013523,0.002678,0.000431,0.005406
42832000,0.0324,0.013523,0.002678,0.000431,0.005406
42833000,0.0324,0.013523,0.002678,0.000431,0.004819
42834000,0.0324,0.013523,0.002678,0.000431,0.005289
42835000,0.0324,0.013523,0.002678,0.000431,0.005171
42836000,0.0324,0.013523,0.002678,0.000431,0.005054
42837000,0.0324,0.013523,0.002678,0.000431,0.008462
42838000,0.0324,0.013523,0.002678,0.000431,0.003291
42839000,0.0324,0.013523,0.002678,0.000431,0.003643
42840000,0.0324,0.013523,0.002678,0.000431,0.003408
42841000,0.0324,0.013523,0.002678,0.000431,0.003173
42842000,0.0324,0.013523,0.002678,0.000431,0.003526
42843000,0.0324,0.013523,0.002678,0.000431,0.006934
42844000,0.0324,0.013523,0.002678,0.000431,0.002703
42845000,0.0324,0.013523,0.002678,0.000431,0.002351
42846000,0.0324,0.013523,0.002678,0.000431,0.004231
42847000,0.0324,0.013523,0.002678,0.000431,0.001880
42848000,0.0324,0.013523,0.002678,0.000431,0.001645
42849000,0.0324,0.013523,0.002678,0.000431,0.001645
42850000,0.0324,0.013523,0.002678,0.000431,0.001880
42851000,0.0324,0.013523,0.002678,0.000431,0.001880
42852000,0.0324,0.013523,0.002678,0.000431,0.001645
42853000,0.0324,0.013523,0.002678,0.000431,0.001645
42854000,0.0324,0.013523,0.002678,0.000431,0.003173
42855000,0.0324,0.013523,0.002678,0.000431,0.000823
42856000,0.0324,0.013523,0.002678,0.000431,0.000940
42857000,0.0324,0.013523,0.002678,0.000431,0.000823
42858000,0.0324,0.013523,0.002678,0.000431,0.000940
42859000,0.0324,0.013523,0.002678,0.000431,0.000823
42860000,0.0324,0.013523,0.002678,0.000431,0.000823
42861000,0.0324,0.013523,0.002678,0.000431,0.000940
42862000,0.0324,0.013523,0.002678,0.000431,0.000940
42863000,0.0324,0.013523,0.002678,0.000431,0.000940
42864000,0.0324,0.013523,0.002678,0.000431,0.000705
42865000,0.0324,0.013523,0.002678,0.000431,0.000940
42866000,0.0324,0.013523,0.002678,0.000431,0.000940
42867000,0.0324,0.013523,0.002678,0.000431,0.000823
42868000,0.0324,0.013523,0.002678,0.000431,0.000823
42869000,0.0324,0.013523,0.002678,0.000431,0.000940
42870000,0.0324,0.013523,0.002678,0.000431,0.000940
42871000,0.0324,0.013523,0.002678,0.000431,0.000823
42872000,0.0324,0.013523,0.002678,0.000431,0.000823
42873000,0.0324,0.013523,0.002678,0.000431,0.000940
42874000,0.0324,0.013523,0.002678,0.000431,0.000823
42875000,0.0324,0.013523,0.002678,0.000431,0.000940
42876000,0.0324,0.013523,0.002678,0.000431,0.000823
42877000,0.0324,0.013523,0.002678,0.000431,0.000940
42878000,0.0324,0.013523,0.002678,0.000431,0.000823
42879000,0.0324,0.013523,0.002678,0.000431,0.000823
42880000,0.0324,0.013523,0.002678,0.000431,0.000940
42881000,0.0324,0.013523,0.002678,0.000431,0.000940
42882000,0.0324,0.013523,0.002678,0.000431,0.000823
42883000,0.0324,0.013523,0.002678,0.000431,0.000823
42884000,0.0324,0.013523,0.002678,0.000431,0.000940
42885000,0.0324,0.013523,0.002678,0.000431,0.000940
42886000,0.0324,0.013523,0.002678,0.000431,0.000823
42887000,0.0324,0.013523,0.002678,0.000431,0.000823
42888000,0.0324,0.013523,0.002678,0.000431,0.000940
42889000,0.0324,0.013523,0.002678,0.000431,0.000823
42890000,0.0324,0.013523,0.002678,0.000431,0.000940
42891000,0.0324,0.013523,0.002678,0.000431,0.000823
42892000,0.0324,0.013523,0.002678,0.000431,0.000940
42893000,0.0324,0.013523,0.002678,0.000431,0.000823
42894000,0.0324,0.013523,0.002678,0.000431,0.000823
42895000,0.0324,0.013523,0.002678,0.000431,0.000940
42896000,0.0324,0.013523,0.002678,0.000431,0.000940
42897000,0.0324,0.013523,0.002678,0.000431,0.000823
42898000,0.0324,0.013523,0.002678,0.000431,0.000823
42899000,0.0324,0.013523,0.002678,0.000431,0.000940
42900000,0.0324,0.013523,0.002678,0.000431,0.000940
42901000,0.0324,0.013523,0.002678,0.000431,0.000705
42902000,0.0324,0.013523,0.002678,0.000431,0.000940
42903000,0.0324,0.013523,0.002678,0.000431,0.013751
42904000,0.0324,0.013523,0.002678,0.000431,0.514656
42905000,0.0324,0.013523,0.002678,0.000431,0.593165
42906000,0.0324,0.013523,0.002678,0.000431,0.133982
42907000,0.0324,0.013523,0.002678,0.000431,0.133042
42908000,0.0324,0.013523,0.002678,0.000431,0.488682
42909000,0.0324,0.013523,0.002678,0.000431,0.363867
42910000,0.0324,0.013523,0.002678,0.000431,0.300049
42911000,0.0324,0.013523,0.002678,0.000431,0.277131
42912000,0.0324,0.013523,0.002678,0.000431,0.139623
42913000,0.0324,0.013523,0.002678,0.000431,0.172061
42914000,0.0324,0.013523,0.002678,0.000431,0.085796
42915000,0.0324,0.013523,0.002678,0.000431,0.471053
42916000,0.0324,0.013523,0.002678,0.000431,0.098724
42917000,0.0324,0.013523,0.002678,0.000431,0.050655
42918000,0.0324,0.013523,0.002678,0.000431,0.048304
42919000,0.0324,0.013523,0.002678,0.000431,0.035729
42920000,0.0324,0.013523,0.002678,0.000431,0.033731
42921000,0.0324,0.013523,0.002678,0.000431,0.028324
42922000,0.0324,0.013523,0.002678,0.000431,0.030910
42923000,0.0324,0.013523,0.002678,0.000431,0.028324
42924000,0.0324,0.013523,0.002678,0.000431,0.027619
42925000,0.0324,0.013523,0.002678,0.000431,0.021625
42926000,0.0324,0.013523,0.002678,0.000431,0.021390
42927000,0.0324,0.013523,0.002678,0.000431,0.022683
42928000,0.0324,0.013523,0.002678,0.000431,0.014103
42929000,0.0324,0.013523,0.002678,0.000431,0.014573
42930000,0.0324,0.013523,0.002678,0.000431,0.010813
42931000,0.0324,0.013523,0.002678,0.000431,0.014691
42932000,0.0324,0.013523,0.002678,0.000431,0.010460
42933000,0.0324,0.013523,0.002678,0.000431,0.009755
42934000,0.0324,0.013523,0.002678,0.000431,0.007757
42935000,0.0324,0.013523,0.002678,0.000431,0.013516
42936000,0.0324,0.013523,0.002678,0.000431,0.003878
42937000,0.0324,0.013523,0.002678,0.000431,0.003643
42938000,0.0324,0.013523,0.002678,0.000431,0.003996
42939000,0.0324,0.013523,0.002678,0.000431,0.003408
42940000,0.0324,0.013523,0.002678,0.000431,0.003761
42941000,0.0324,0.013523,0.002678,0.000431,0.003996
42942000,0.0324,0.013523,0.002678,0.000431,0.003878
42943000,0.0324,0.013523,0.002678,0.000431,0.003761
42944000,0.0324,0.013523,0.002678,0.000431,0.003761
42945000,0.0324,0.013523,0.002678,0.000431,0.003878
42946000,0.0324,0.013523,0.002678,0.000431,0.003408
42947000,0.0324,0.013523,0.002678,0.000431,0.004113
42948000,0.0324,0.013523,0.002678,0.000431,0.003761
42949000,0.0324,0.013523,0.002678,0.000431,0.003408
42950000,0.0324,0.013523,0.002678,0.000431,0.004466
42951000,0.0324,0.013523,0.002678,0.000431,0.003408
42952000,0.0324,0.013523,0.002678,0.000431,0.003291
42953000,0.0324,0.013523,0.002678,0.000431,0.003291
42954000,0.0324,0.013523,0.002678,0.000431,0.003291
42955000,0.0324,0.013523,0.002678,0.000431,0.002938
42956000,0.0324,0.013523,0.002678,0.000431,0.003643
42957000,0.0324,0.013523,0.002678,0.000431,0.002821
42958000,0.0324,0.013523,0.002678,0.000431,0.003408
42959000,0.0324,0.013523,0.002678,0.000431,0.003173
42960000,0.0324,0.013523,0.002678,0.000431,0.002938
42961000,0.0324,0.013523,0.002678,0.000431,0.003526
42962000,0.0324,0.013523,0.002678,0.000431,0.003291
42963000,0.0324,0.013523,0.002678,0.000431,0.003056
42964000,0.0324,0.013523,0.002678,0.000431,0.004701
42965000,0.0324,0.013523,0.002678,0.000431,0.003643
42966000,0.0324,0.013523,0.002678,0.000431,0.002116
42967000,0.0324,0.013523,0.002678,0.000431,0.002468
42968000,0.0324,0.013523,0.002678,0.000431,0.002468
42969000,0.0324,0.013523,0.002678,0.000431,0.002116
42970000,0.0324,0.013523,0.002678,0.000431,0.002468
42971000,0.0324,0.013523,0.002678,0.000431,0.002233
42972000,0.0324,0.013523,0.002678,0.000431,0.002468
42973000,0.0324,0.013523,0.002678,0.000431,0.002468
42974000,0.0324,0.013523,0.002678,0.000431,0.002351
42975000,0.0324,0.013523,0.002678,0.000431,0.002233
42976000,0.0324,0.013523,0.002678,0.000431,0.002586
42977000,0.0324,0.013523,0.002678,0.000431,0.002233
42978000,0.0324,0.013523,0.002678,0.000431,0.002233
42979000,0.0324,0.013523,0.002678,0.000431,0.002821
42980000,0.0324,0.013523,0.002678,0.000431,0.002116
42981000,0.0324,0.013523,0.002678,0.000431,0.002351
42982000,0.0324,0.013523,0.002678,0.000431,0.002233
42983000,0.0324,0.013523,0.002678,0.000431,0.001763
42984000,0.0324,0.013523,0.002678,0.000431,0.001763
42985000,0.0324,0.013523,0.002678,0.000431,0.001410
42986000,0.0324,0.013523,0.002678,0.000431,0.004349
42987000,0.0324,0.013523,0.002678,0.000431,0.000940
42988000,0.0324,0.013523,0.002678,0.000431,0.000823
42989000,0.0324,0.013523,0.002678,0.000431,0.000823
42990000,0.0324,0.013523,0.002678,0.000431,0.000940
42991000,0.0324,0.013523,0.002678,0.000431,0.000940
42992000,0.0324,0.013523,0.002678,0.000431,0.000823
42993000,0.0324,0.013523,0.002678,0.000431,0.000823
42994000,0.0324,0.013523,0.002678,0.000431,0.000940
42995000,0.0324,0.013523,0.002678,0.000431,0.000823
42996000,0.0324,0.013523,0.002678,0.000431,0.000940
42997000,0.0324,0.013523,0.002678,0.000431,0.000823
42998000,0.0324,0.013523,0.002678,0.000431,0.000940
42999000,0.0324,0.013523,0.002678,0.000431,0.000823
