Cycle,Area(mm^2),PeakDynamic(W),SubthresholdLeakage(W),GateLeakage(W),RunTimeDynamic(W)
28000000,0.0324,0.013523,0.002678,0.000431,0.024328
28001000,0.0324,0.013523,0.002678,0.000431,0.025269
28002000,0.0324,0.013523,0.002678,0.000431,0.024446
28003000,0.0324,0.013523,0.002678,0.000431,0.026444
28004000,0.0324,0.013523,0.002678,0.000431,0.024211
28005000,0.0324,0.013523,0.002678,0.000431,0.024916
28006000,0.0324,0.013523,0.002678,0.000431,0.024798
28007000,0.0324,0.013523,0.002678,0.000431,0.025739
28008000,0.0324,0.013523,0.002678,0.000431,0.022918
28009000,0.0324,0.013523,0.002678,0.000431,0.021978
28010000,0.0324,0.013523,0.002678,0.000431,0.021743
28011000,0.0324,0.013523,0.002678,0.000431,0.025386
28012000,0.0324,0.013523,0.002678,0.000431,0.021743
28013000,0.0324,0.013523,0.002678,0.000431,0.021155
28014000,0.0324,0.013523,0.002678,0.000431,0.019862
28015000,0.0324,0.013523,0.002678,0.000431,0.020215
28016000,0.0324,0.013523,0.002678,0.000431,0.020567
28017000,0.0324,0.013523,0.002678,0.000431,0.019980
28018000,0.0324,0.013523,0.002678,0.000431,0.018805
28019000,0.0324,0.013523,0.002678,0.000431,0.017277
28020000,0.0324,0.013523,0.002678,0.000431,0.016571
28021000,0.0324,0.013523,0.002678,0.000431,0.015396
28022000,0.0324,0.013523,0.002678,0.000431,0.013868
28023000,0.0324,0.013523,0.002678,0.000431,0.014456
28024000,0.0324,0.013523,0.002678,0.000431,0.014103
28025000,0.0324,0.013523,0.002678,0.000431,0.014221
28026000,0.0324,0.013523,0.002678,0.000431,0.013398
28027000,0.0324,0.013523,0.002678,0.000431,0.013751
28028000,0.0324,0.013523,0.002678,0.000431,0.014456
28029000,0.0324,0.013523,0.002678,0.000431,0.014221
28030000,0.0324,0.013523,0.002678,0.000431,0.013751
28031000,0.0324,0.013523,0.002678,0.000431,0.014221
28032000,0.0324,0.013523,0.002678,0.000431,0.013281
28033000,0.0324,0.013523,0.002678,0.000431,0.014456
28034000,0.0324,0.013523,0.002678,0.000431,0.013751
28035000,0.0324,0.013523,0.002678,0.000431,0.013633
28036000,0.0324,0.013523,0.002678,0.000431,0.013516
28037000,0.0324,0.013523,0.002678,0.000431,0.012458
28038000,0.0324,0.013523,0.002678,0.000431,0.013751
28039000,0.0324,0.013523,0.002678,0.000431,0.014809
28040000,0.0324,0.013523,0.002678,0.000431,0.013986
28041000,0.0324,0.013523,0.002678,0.000431,0.011635
28042000,0.0324,0.013523,0.002678,0.000431,0.011283
28043000,0.0324,0.013523,0.002678,0.000431,0.012223
28044000,0.0324,0.013523,0.002678,0.000431,0.011283
28045000,0.0324,0.013523,0.002678,0.000431,0.012811
28046000,0.0324,0.013523,0.002678,0.000431,0.010460
28047000,0.0324,0.013523,0.002678,0.000431,0.010813
28048000,0.0324,0.013523,0.002678,0.000431,0.010813
28049000,0.0324,0.013523,0.002678,0.000431,0.014338
28050000,0.0324,0.013523,0.002678,0.000431,0.009167
28051000,0.0324,0.013523,0.002678,0.000431,0.008932
28052000,0.0324,0.013523,0.002678,0.000431,0.008932
28053000,0.0324,0.013523,0.002678,0.000431,0.008345
28054000,0.0324,0.013523,0.002678,0.000431,0.008815
28055000,0.0324,0.013523,0.002678,0.000431,0.007992
28056000,0.0324,0.013523,0.002678,0.000431,0.008462
28057000,0.0324,0.013523,0.002678,0.000431,0.008227
28058000,0.0324,0.013523,0.002678,0.000431,0.010107
28059000,0.0324,0.013523,0.002678,0.000431,0.010107
28060000,0.0324,0.013523,0.002678,0.000431,0.005876
28061000,0.0324,0.013523,0.002678,0.000431,0.006347
28062000,0.0324,0.013523,0.002678,0.000431,0.005524
28063000,0.0324,0.013523,0.002678,0.000431,0.005876
28064000,0.0324,0.013523,0.002678,0.000431,0.005759
28065000,0.0324,0.013523,0.002678,0.000431,0.007404
28066000,0.0324,0.013523,0.002678,0.000431,0.006582
28067000,0.0324,0.013523,0.002678,0.000431,0.004466
28068000,0.0324,0.013523,0.002678,0.000431,0.003878
28069000,0.0324,0.013523,0.002678,0.000431,0.004466
28070000,0.0324,0.013523,0.002678,0.000431,0.004113
28071000,0.0324,0.013523,0.002678,0.000431,0.004349
28072000,0.0324,0.013523,0.002678,0.000431,0.004466
28073000,0.0324,0.013523,0.002678,0.000431,0.003878
28074000,0.0324,0.013523,0.002678,0.000431,0.004466
28075000,0.0324,0.013523,0.002678,0.000431,0.004113
28076000,0.0324,0.013523,0.002678,0.000431,0.004466
28077000,0.0324,0.013523,0.002678,0.000431,0.004231
28078000,0.0324,0.013523,0.002678,0.000431,0.004113
28079000,0.0324,0.013523,0.002678,0.000431,0.004349
28080000,0.0324,0.013523,0.002678,0.000431,0.004231
28081000,0.0324,0.013523,0.002678,0.000431,0.004349
28082000,0.0324,0.013523,0.002678,0.000431,0.004113
28083000,0.0324,0.013523,0.002678,0.000431,0.004466
28084000,0.0324,0.013523,0.002678,0.000431,0.005759
28085000,0.0324,0.013523,0.002678,0.000431,0.003291
28086000,0.0324,0.013523,0.002678,0.000431,0.003408
28087000,0.0324,0.013523,0.002678,0.000431,0.003408
28088000,0.0324,0.013523,0.002678,0.000431,0.003291
28089000,0.0324,0.013523,0.002678,0.000431,0.003291
28090000,0.0324,0.013523,0.002678,0.000431,0.003526
28091000,0.0324,0.013523,0.002678,0.000431,0.003291
28092000,0.0324,0.013523,0.002678,0.000431,0.003526
28093000,0.0324,0.013523,0.002678,0.000431,0.003291
28094000,0.0324,0.013523,0.002678,0.000431,0.003526
28095000,0.0324,0.013523,0.002678,0.000431,0.003291
28096000,0.0324,0.013523,0.002678,0.000431,0.003291
28097000,0.0324,0.013523,0.002678,0.000431,0.003643
28098000,0.0324,0.013523,0.002678,0.000431,0.003291
28099000,0.0324,0.013523,0.002678,0.000431,0.003408
28100000,0.0324,0.013523,0.002678,0.000431,0.003408
28101000,0.0324,0.013523,0.002678,0.000431,0.003291
28102000,0.0324,0.013523,0.002678,0.000431,0.003526
28103000,0.0324,0.013523,0.002678,0.000431,0.003291
28104000,0.0324,0.013523,0.002678,0.000431,0.003408
28105000,0.0324,0.013523,0.002678,0.000431,0.003408
28106000,0.0324,0.013523,0.002678,0.000431,0.003408
28107000,0.0324,0.013523,0.002678,0.000431,0.003408
28108000,0.0324,0.013523,0.002678,0.000431,0.003291
28109000,0.0324,0.013523,0.002678,0.000431,0.004349
28110000,0.0324,0.013523,0.002678,0.000431,0.003761
28111000,0.0324,0.013523,0.002678,0.000431,0.002351
28112000,0.0324,0.013523,0.002678,0.000431,0.002586
28113000,0.0324,0.013523,0.002678,0.000431,0.002586
28114000,0.0324,0.013523,0.002678,0.000431,0.002586
28115000,0.0324,0.013523,0.002678,0.000431,0.002586
28116000,0.0324,0.013523,0.002678,0.000431,0.002468
28117000,0.0324,0.013523,0.002678,0.000431,0.002703
28118000,0.0324,0.013523,0.002678,0.000431,0.002351
28119000,0.0324,0.013523,0.002678,0.000431,0.002703
28120000,0.0324,0.013523,0.002678,0.000431,0.002703
28121000,0.0324,0.013523,0.002678,0.000431,0.004113
28122000,0.0324,0.013523,0.002678,0.000431,0.001763
28123000,0.0324,0.013523,0.002678,0.000431,0.001528
28124000,0.0324,0.013523,0.002678,0.000431,0.001880
28125000,0.0324,0.013523,0.002678,0.000431,0.001645
28126000,0.0324,0.013523,0.002678,0.000431,0.001763
28127000,0.0324,0.013523,0.002678,0.000431,0.001763
28128000,0.0324,0.013523,0.002678,0.000431,0.001645
28129000,0.0324,0.013523,0.002678,0.000431,0.001763
28130000,0.0324,0.013523,0.002678,0.000431,0.001645
28131000,0.0324,0.013523,0.002678,0.000431,0.001763
28132000,0.0324,0.013523,0.002678,0.000431,0.001763
28133000,0.0324,0.013523,0.002678,0.000431,0.001763
28134000,0.0324,0.013523,0.002678,0.000431,0.003408
28135000,0.0324,0.013523,0.002678,0.000431,0.000940
28136000,0.0324,0.013523,0.002678,0.000431,0.000940
28137000,0.0324,0.013523,0.002678,0.000431,0.000940
28138000,0.0324,0.013523,0.002678,0.000431,0.000705
28139000,0.0324,0.013523,0.002678,0.000431,0.000940
28140000,0.0324,0.013523,0.002678,0.000431,0.000940
28141000,0.0324,0.013523,0.002678,0.000431,0.000940
28142000,0.0324,0.013523,0.002678,0.000431,0.000705
28143000,0.0324,0.013523,0.002678,0.000431,0.000940
28144000,0.0324,0.013523,0.002678,0.000431,0.000940
28145000,0.0324,0.013523,0.002678,0.000431,0.000823
28146000,0.0324,0.013523,0.002678,0.000431,0.000823
28147000,0.0324,0.013523,0.002678,0.000431,0.000940
28148000,0.0324,0.013523,0.002678,0.000431,0.000940
28149000,0.0324,0.013523,0.002678,0.000431,0.000823
28150000,0.0324,0.013523,0.002678,0.000431,0.000823
28151000,0.0324,0.013523,0.002678,0.000431,0.000940
28152000,0.0324,0.013523,0.002678,0.000431,0.000823
28153000,0.0324,0.013523,0.002678,0.000431,0.000940
28154000,0.0324,0.013523,0.002678,0.000431,0.000823
28155000,0.0324,0.013523,0.002678,0.000431,0.000940
28156000,0.0324,0.013523,0.002678,0.000431,0.000823
28157000,0.0324,0.013523,0.002678,0.000431,0.000823
28158000,0.0324,0.013523,0.002678,0.000431,0.000940
28159000,0.0324,0.013523,0.002678,0.000431,0.000940
28160000,0.0324,0.013523,0.002678,0.000431,0.000940
28161000,0.0324,0.013523,0.002678,0.000431,0.000705
28162000,0.0324,0.013523,0.002678,0.000431,0.000940
28163000,0.0324,0.013523,0.002678,0.000431,0.000940
28164000,0.0324,0.013523,0.002678,0.000431,0.000823
28165000,0.0324,0.013523,0.002678,0.000431,0.000823
28166000,0.0324,0.013523,0.002678,0.000431,0.000940
28167000,0.0324,0.013523,0.002678,0.000431,0.000940
28168000,0.0324,0.013523,0.002678,0.000431,0.000823
28169000,0.0324,0.013523,0.002678,0.000431,0.000823
28170000,0.0324,0.013523,0.002678,0.000431,0.000940
28171000,0.0324,0.013523,0.002678,0.000431,0.000823
28172000,0.0324,0.013523,0.002678,0.000431,0.000940
28173000,0.0324,0.013523,0.002678,0.000431,0.000823
28174000,0.0324,0.013523,0.002678,0.000431,0.000940
28175000,0.0324,0.013523,0.002678,0.000431,0.000823
28176000,0.0324,0.013523,0.002678,0.000431,0.000823
28177000,0.0324,0.013523,0.002678,0.000431,0.000940
28178000,0.0324,0.013523,0.002678,0.000431,0.000940
28179000,0.0324,0.013523,0.002678,0.000431,0.000823
28180000,0.0324,0.013523,0.002678,0.000431,0.000823
28181000,0.0324,0.013523,0.002678,0.000431,0.000940
28182000,0.0324,0.013523,0.002678,0.000431,0.000940
28183000,0.0324,0.013523,0.002678,0.000431,0.000823
28184000,0.0324,0.013523,0.002678,0.000431,0.000823
28185000,0.0324,0.013523,0.002678,0.000431,0.000940
28186000,0.0324,0.013523,0.002678,0.000431,0.000823
28187000,0.0324,0.013523,0.002678,0.000431,0.000940
28188000,0.0324,0.013523,0.002678,0.000431,0.000823
28189000,0.0324,0.013523,0.002678,0.000431,0.000940
28190000,0.0324,0.013523,0.002678,0.000431,0.000823
28191000,0.0324,0.013523,0.002678,0.000431,0.000823
28192000,0.0324,0.013523,0.002678,0.000431,0.000940
28193000,0.0324,0.013523,0.002678,0.000431,0.000940
28194000,0.0324,0.013523,0.002678,0.000431,0.000823
28195000,0.0324,0.013523,0.002678,0.000431,0.000823
28196000,0.0324,0.013523,0.002678,0.000431,0.000940
28197000,0.0324,0.013523,0.002678,0.000431,0.000940
28198000,0.0324,0.013523,0.002678,0.000431,0.000705
28199000,0.0324,0.013523,0.002678,0.000431,0.000940
28200000,0.0324,0.013523,0.002678,0.000431,0.000940
28201000,0.0324,0.013523,0.002678,0.000431,0.000940
28202000,0.0324,0.013523,0.002678,0.000431,0.000705
28203000,0.0324,0.013523,0.002678,0.000431,0.000940
28204000,0.0324,0.013523,0.002678,0.000431,0.000940
28205000,0.0324,0.013523,0.002678,0.000431,0.000823
28206000,0.0324,0.013523,0.002678,0.000431,0.000823
28207000,0.0324,0.013523,0.002678,0.000431,0.000940
28208000,0.0324,0.013523,0.002678,0.000431,0.000940
28209000,0.0324,0.013523,0.002678,0.000431,0.000823
28210000,0.0324,0.013523,0.002678,0.000431,0.000823
28211000,0.0324,0.013523,0.002678,0.000431,0.000940
28212000,0.0324,0.013523,0.002678,0.000431,0.000823
28213000,0.0324,0.013523,0.002678,0.000431,0.000940
28214000,0.0324,0.013523,0.002678,0.000431,0.000823
28215000,0.0324,0.013523,0.002678,0.000431,0.000940
28216000,0.0324,0.013523,0.002678,0.000431,0.000940
28217000,0.0324,0.013523,0.002678,0.000431,0.000705
28218000,0.0324,0.013523,0.002678,0.000431,0.000940
28219000,0.0324,0.013523,0.002678,0.000431,0.000940
28220000,0.0324,0.013523,0.002678,0.000431,0.000940
28221000,0.0324,0.013523,0.002678,0.000431,0.000705
28222000,0.0324,0.013523,0.002678,0.000431,0.000940
28223000,0.0324,0.013523,0.002678,0.000431,0.000940
28224000,0.0324,0.013523,0.002678,0.000431,0.020685
28225000,0.0324,0.013523,0.002678,0.000431,0.475872
28226000,0.0324,0.013523,0.002678,0.000431,0.607856
28227000,0.0324,0.013523,0.002678,0.000431,0.132572
28228000,0.0324,0.013523,0.002678,0.000431,0.132102
28229000,0.0324,0.013523,0.002678,0.000431,0.385963
28230000,0.0324,0.013523,0.002678,0.000431,0.397833
28231000,0.0324,0.013523,0.002678,0.000431,0.238700
28232000,0.0324,0.013523,0.002678,0.000431,0.308864
28233000,0.0324,0.013523,0.002678,0.000431,0.199680
28234000,0.0324,0.013523,0.002678,0.000431,0.141739
28235000,0.0324,0.013523,0.002678,0.000431,0.156665
28236000,0.0324,0.013523,0.002678,0.000431,0.135863
28237000,0.0324,0.013523,0.002678,0.000431,0.441436
28238000,0.0324,0.013523,0.002678,0.000431,0.035729
28239000,0.0324,0.013523,0.002678,0.000431,0.033260
28240000,0.0324,0.013523,0.002678,0.000431,0.025504
28241000,0.0324,0.013523,0.002678,0.000431,0.023858
28242000,0.0324,0.013523,0.002678,0.000431,0.018452
28243000,0.0324,0.013523,0.002678,0.000431,0.017512
28244000,0.0324,0.013523,0.002678,0.000431,0.016454
28245000,0.0324,0.013523,0.002678,0.000431,0.016219
28246000,0.0324,0.013523,0.002678,0.000431,0.017512
28247000,0.0324,0.013523,0.002678,0.000431,0.011165
28248000,0.0324,0.013523,0.002678,0.000431,0.012811
28249000,0.0324,0.013523,0.002678,0.000431,0.010578
28250000,0.0324,0.013523,0.002678,0.000431,0.009872
28251000,0.0324,0.013523,0.002678,0.000431,0.010930
28252000,0.0324,0.013523,0.002678,0.000431,0.012811
28253000,0.0324,0.013523,0.002678,0.000431,0.007874
28254000,0.0324,0.013523,0.002678,0.000431,0.008462
28255000,0.0324,0.013523,0.002678,0.000431,0.008109
28256000,0.0324,0.013523,0.002678,0.000431,0.008109
28257000,0.0324,0.013523,0.002678,0.000431,0.007992
28258000,0.0324,0.013523,0.002678,0.000431,0.008462
28259000,0.0324,0.013523,0.002678,0.000431,0.008109
28260000,0.0324,0.013523,0.002678,0.000431,0.008697
28261000,0.0324,0.013523,0.002678,0.000431,0.008227
28262000,0.0324,0.013523,0.002678,0.000431,0.008580
28263000,0.0324,0.013523,0.002678,0.000431,0.007874
28264000,0.0324,0.013523,0.002678,0.000431,0.008580
28265000,0.0324,0.013523,0.002678,0.000431,0.009285
28266000,0.0324,0.013523,0.002678,0.000431,0.009637
28267000,0.0324,0.013523,0.002678,0.000431,0.005994
28268000,0.0324,0.013523,0.002678,0.000431,0.005524
28269000,0.0324,0.013523,0.002678,0.000431,0.007287
28270000,0.0324,0.013523,0.002678,0.000431,0.005171
28271000,0.0324,0.013523,0.002678,0.000431,0.004701
28272000,0.0324,0.013523,0.002678,0.000431,0.005289
28273000,0.0324,0.013523,0.002678,0.000431,0.004936
28274000,0.0324,0.013523,0.002678,0.000431,0.005054
28275000,0.0324,0.013523,0.002678,0.000431,0.006347
28276000,0.0324,0.013523,0.002678,0.000431,0.004113
28277000,0.0324,0.013523,0.002678,0.000431,0.005171
28278000,0.0324,0.013523,0.002678,0.000431,0.003173
28279000,0.0324,0.013523,0.002678,0.000431,0.003408
28280000,0.0324,0.013523,0.002678,0.000431,0.003408
28281000,0.0324,0.013523,0.002678,0.000431,0.003526
28282000,0.0324,0.013523,0.002678,0.000431,0.003173
28283000,0.0324,0.013523,0.002678,0.000431,0.003291
28284000,0.0324,0.013523,0.002678,0.000431,0.003291
28285000,0.0324,0.013523,0.002678,0.000431,0.003643
28286000,0.0324,0.013523,0.002678,0.000431,0.003408
28287000,0.0324,0.013523,0.002678,0.000431,0.003173
28288000,0.0324,0.013523,0.002678,0.000431,0.003526
28289000,0.0324,0.013523,0.002678,0.000431,0.004584
28290000,0.0324,0.013523,0.002678,0.000431,0.002821
28291000,0.0324,0.013523,0.002678,0.000431,0.002351
28292000,0.0324,0.013523,0.002678,0.000431,0.002586
28293000,0.0324,0.013523,0.002678,0.000431,0.002468
28294000,0.0324,0.013523,0.002678,0.000431,0.002468
28295000,0.0324,0.013523,0.002678,0.000431,0.002703
28296000,0.0324,0.013523,0.002678,0.000431,0.002233
28297000,0.0324,0.013523,0.002678,0.000431,0.002703
28298000,0.0324,0.013523,0.002678,0.000431,0.002468
28299000,0.0324,0.013523,0.002678,0.000431,0.002586
28300000,0.0324,0.013523,0.002678,0.000431,0.002351
28301000,0.0324,0.013523,0.002678,0.000431,0.002468
28302000,0.0324,0.013523,0.002678,0.000431,0.002468
28303000,0.0324,0.013523,0.002678,0.000431,0.002586
28304000,0.0324,0.013523,0.002678,0.000431,0.002586
28305000,0.0324,0.013523,0.002678,0.000431,0.002351
28306000,0.0324,0.013523,0.002678,0.000431,0.004349
28307000,0.0324,0.013523,0.002678,0.000431,0.001528
28308000,0.0324,0.013523,0.002678,0.000431,0.001763
28309000,0.0324,0.013523,0.002678,0.000431,0.001528
28310000,0.0324,0.013523,0.002678,0.000431,0.001763
28311000,0.0324,0.013523,0.002678,0.000431,0.001880
28312000,0.0324,0.013523,0.002678,0.000431,0.001410
28313000,0.0324,0.013523,0.002678,0.000431,0.002468
28314000,0.0324,0.013523,0.002678,0.000431,0.001645
28315000,0.0324,0.013523,0.002678,0.000431,0.000940
28316000,0.0324,0.013523,0.002678,0.000431,0.040430
28317000,0.0324,0.013523,0.002678,0.000431,0.436265
28318000,0.0324,0.013523,0.002678,0.000431,0.608208
28319000,0.0324,0.013523,0.002678,0.000431,0.131632
28320000,0.0324,0.013523,0.002678,0.000431,0.132572
28321000,0.0324,0.013523,0.002678,0.000431,0.452719
28322000,0.0324,0.013523,0.002678,0.000431,0.334368
28323000,0.0324,0.013523,0.002678,0.000431,0.246222
28324000,0.0324,0.013523,0.002678,0.000431,0.308864
28325000,0.0324,0.013523,0.002678,0.000431,0.184049
28326000,0.0324,0.013523,0.002678,0.000431,0.143854
28327000,0.0324,0.013523,0.002678,0.000431,0.151494
28328000,0.0324,0.013523,0.002678,0.000431,0.149261
28329000,0.0324,0.013523,0.002678,0.000431,0.463649
28330000,0.0324,0.013523,0.002678,0.000431,0.061585
28331000,0.0324,0.013523,0.002678,0.000431,0.050067
28332000,0.0324,0.013523,0.002678,0.000431,0.037491
28333000,0.0324,0.013523,0.002678,0.000431,0.033260
28334000,0.0324,0.013523,0.002678,0.000431,0.032438
28335000,0.0324,0.013523,0.002678,0.000431,0.024093
28336000,0.0324,0.013523,0.002678,0.000431,0.021978
28337000,0.0324,0.013523,0.002678,0.000431,0.017394
28338000,0.0324,0.013523,0.002678,0.000431,0.018452
28339000,0.0324,0.013523,0.002678,0.000431,0.018452
28340000,0.0324,0.013523,0.002678,0.000431,0.016454
28341000,0.0324,0.013523,0.002678,0.000431,0.014338
28342000,0.0324,0.013523,0.002678,0.000431,0.013516
28343000,0.0324,0.013523,0.002678,0.000431,0.014809
28344000,0.0324,0.013523,0.002678,0.000431,0.012693
28345000,0.0324,0.013523,0.002678,0.000431,0.016454
28346000,0.0324,0.013523,0.002678,0.000431,0.014573
28347000,0.0324,0.013523,0.002678,0.000431,0.010695
28348000,0.0324,0.013523,0.002678,0.000431,0.010578
28349000,0.0324,0.013523,0.002678,0.000431,0.011753
28350000,0.0324,0.013523,0.002678,0.000431,0.010107
28351000,0.0324,0.013523,0.002678,0.000431,0.011165
28352000,0.0324,0.013523,0.002678,0.000431,0.009755
28353000,0.0324,0.013523,0.002678,0.000431,0.010342
28354000,0.0324,0.013523,0.002678,0.000431,0.010813
28355000,0.0324,0.013523,0.002678,0.000431,0.009637
28356000,0.0324,0.013523,0.002678,0.000431,0.011988
28357000,0.0324,0.013523,0.002678,0.000431,0.010107
28358000,0.0324,0.013523,0.002678,0.000431,0.009755
28359000,0.0324,0.013523,0.002678,0.000431,0.011988
28360000,0.0324,0.013523,0.002678,0.000431,0.008697
28361000,0.0324,0.013523,0.002678,0.000431,0.008462
28362000,0.0324,0.013523,0.002678,0.000431,0.009050
28363000,0.0324,0.013523,0.002678,0.000431,0.009167
28364000,0.0324,0.013523,0.002678,0.000431,0.007757
28365000,0.0324,0.013523,0.002678,0.000431,0.006934
28366000,0.0324,0.013523,0.002678,0.000431,0.007052
28367000,0.0324,0.013523,0.002678,0.000431,0.007169
28368000,0.0324,0.013523,0.002678,0.000431,0.008580
28369000,0.0324,0.013523,0.002678,0.000431,0.006699
28370000,0.0324,0.013523,0.002678,0.000431,0.005994
28371000,0.0324,0.013523,0.002678,0.000431,0.005994
28372000,0.0324,0.013523,0.002678,0.000431,0.006347
28373000,0.0324,0.013523,0.002678,0.000431,0.005876
28374000,0.0324,0.013523,0.002678,0.000431,0.006347
28375000,0.0324,0.013523,0.002678,0.000431,0.006347
28376000,0.0324,0.013523,0.002678,0.000431,0.005876
28377000,0.0324,0.013523,0.002678,0.000431,0.006111
28378000,0.0324,0.013523,0.002678,0.000431,0.007639
28379000,0.0324,0.013523,0.002678,0.000431,0.005641
28380000,0.0324,0.013523,0.002678,0.000431,0.005171
28381000,0.0324,0.013523,0.002678,0.000431,0.005054
28382000,0.0324,0.013523,0.002678,0.000431,0.005406
28383000,0.0324,0.013523,0.002678,0.000431,0.005289
28384000,0.0324,0.013523,0.002678,0.000431,0.005171
28385000,0.0324,0.013523,0.002678,0.000431,0.005171
28386000,0.0324,0.013523,0.002678,0.000431,0.005641
28387000,0.0324,0.013523,0.002678,0.000431,0.004701
28388000,0.0324,0.013523,0.002678,0.000431,0.005641
28389000,0.0324,0.013523,0.002678,0.000431,0.005289
28390000,0.0324,0.013523,0.002678,0.000431,0.004701
28391000,0.0324,0.013523,0.002678,0.000431,0.006111
28392000,0.0324,0.013523,0.002678,0.000431,0.004466
28393000,0.0324,0.013523,0.002678,0.000431,0.005171
28394000,0.0324,0.013523,0.002678,0.000431,0.005876
28395000,0.0324,0.013523,0.002678,0.000431,0.004701
28396000,0.0324,0.013523,0.002678,0.000431,0.005289
28397000,0.0324,0.013523,0.002678,0.000431,0.005759
28398000,0.0324,0.013523,0.002678,0.000431,0.004349
28399000,0.0324,0.013523,0.002678,0.000431,0.005524
28400000,0.0324,0.013523,0.002678,0.000431,0.005289
28401000,0.0324,0.013523,0.002678,0.000431,0.004701
28402000,0.0324,0.013523,0.002678,0.000431,0.006111
28403000,0.0324,0.013523,0.002678,0.000431,0.004701
28404000,0.0324,0.013523,0.002678,0.000431,0.005171
28405000,0.0324,0.013523,0.002678,0.000431,0.005289
28406000,0.0324,0.013523,0.002678,0.000431,0.005171
28407000,0.0324,0.013523,0.002678,0.000431,0.005406
28408000,0.0324,0.013523,0.002678,0.000431,0.005054
28409000,0.0324,0.013523,0.002678,0.000431,0.005641
28410000,0.0324,0.013523,0.002678,0.000431,0.004819
28411000,0.0324,0.013523,0.002678,0.000431,0.005406
28412000,0.0324,0.013523,0.002678,0.000431,0.005054
28413000,0.0324,0.013523,0.002678,0.000431,0.005289
28414000,0.0324,0.013523,0.002678,0.000431,0.005524
28415000,0.0324,0.013523,0.002678,0.000431,0.004466
28416000,0.0324,0.013523,0.002678,0.000431,0.005759
28417000,0.0324,0.013523,0.002678,0.000431,0.005171
28418000,0.0324,0.013523,0.002678,0.000431,0.005054
28419000,0.0324,0.013523,0.002678,0.000431,0.005641
28420000,0.0324,0.013523,0.002678,0.000431,0.004936
28421000,0.0324,0.013523,0.002678,0.000431,0.004936
28422000,0.0324,0.013523,0.002678,0.000431,0.005994
28423000,0.0324,0.013523,0.002678,0.000431,0.004231
28424000,0.0324,0.013523,0.002678,0.000431,0.005759
28425000,0.0324,0.013523,0.002678,0.000431,0.005641
28426000,0.0324,0.013523,0.002678,0.000431,0.004231
28427000,0.0324,0.013523,0.002678,0.000431,0.006347
28428000,0.0324,0.013523,0.002678,0.000431,0.004936
28429000,0.0324,0.013523,0.002678,0.000431,0.004819
28430000,0.0324,0.013523,0.002678,0.000431,0.005876
28431000,0.0324,0.013523,0.002678,0.000431,0.004701
28432000,0.0324,0.013523,0.002678,0.000431,0.005524
28433000,0.0324,0.013523,0.002678,0.000431,0.005406
28434000,0.0324,0.013523,0.002678,0.000431,0.006229
28435000,0.0324,0.013523,0.002678,0.000431,0.005054
28436000,0.0324,0.013523,0.002678,0.000431,0.004584
28437000,0.0324,0.013523,0.002678,0.000431,0.003878
28438000,0.0324,0.013523,0.002678,0.000431,0.004701
28439000,0.0324,0.013523,0.002678,0.000431,0.004349
28440000,0.0324,0.013523,0.002678,0.000431,0.004466
28441000,0.0324,0.013523,0.002678,0.000431,0.004231
28442000,0.0324,0.013523,0.002678,0.000431,0.004349
28443000,0.0324,0.013523,0.002678,0.000431,0.004113
28444000,0.0324,0.013523,0.002678,0.000431,0.004701
28445000,0.0324,0.013523,0.002678,0.000431,0.004584
28446000,0.0324,0.013523,0.002678,0.000431,0.003761
28447000,0.0324,0.013523,0.002678,0.000431,0.005054
28448000,0.0324,0.013523,0.002678,0.000431,0.003996
28449000,0.0324,0.013523,0.002678,0.000431,0.004466
28450000,0.0324,0.013523,0.002678,0.000431,0.004701
28451000,0.0324,0.013523,0.002678,0.000431,0.003878
28452000,0.0324,0.013523,0.002678,0.000431,0.004819
28453000,0.0324,0.013523,0.002678,0.000431,0.004231
28454000,0.0324,0.013523,0.002678,0.000431,0.004701
28455000,0.0324,0.013523,0.002678,0.000431,0.004819
28456000,0.0324,0.013523,0.002678,0.000431,0.004231
28457000,0.0324,0.013523,0.002678,0.000431,0.004466
28458000,0.0324,0.013523,0.002678,0.000431,0.004466
28459000,0.0324,0.013523,0.002678,0.000431,0.004231
28460000,0.0324,0.013523,0.002678,0.000431,0.005054
28461000,0.0324,0.013523,0.002678,0.000431,0.004231
28462000,0.0324,0.013523,0.002678,0.000431,0.004231
28463000,0.0324,0.013523,0.002678,0.000431,0.005054
28464000,0.0324,0.013523,0.002678,0.000431,0.003526
28465000,0.0324,0.013523,0.002678,0.000431,0.005054
28466000,0.0324,0.013523,0.002678,0.000431,0.004231
28467000,0.0324,0.013523,0.002678,0.000431,0.004349
28468000,0.0324,0.013523,0.002678,0.000431,0.004584
28469000,0.0324,0.013523,0.002678,0.000431,0.004113
28470000,0.0324,0.013523,0.002678,0.000431,0.004936
28471000,0.0324,0.013523,0.002678,0.000431,0.004231
28472000,0.0324,0.013523,0.002678,0.000431,0.004113
28473000,0.0324,0.013523,0.002678,0.000431,0.004701
28474000,0.0324,0.013523,0.002678,0.000431,0.004231
28475000,0.0324,0.013523,0.002678,0.000431,0.004584
28476000,0.0324,0.013523,0.002678,0.000431,0.003996
28477000,0.0324,0.013523,0.002678,0.000431,0.004584
28478000,0.0324,0.013523,0.002678,0.000431,0.004819
28479000,0.0324,0.013523,0.002678,0.000431,0.003643
28480000,0.0324,0.013523,0.002678,0.000431,0.003878
28481000,0.0324,0.013523,0.002678,0.000431,0.004113
28482000,0.0324,0.013523,0.002678,0.000431,0.003291
28483000,0.0324,0.013523,0.002678,0.000431,0.004349
28484000,0.0324,0.013523,0.002678,0.000431,0.003643
28485000,0.0324,0.013523,0.002678,0.000431,0.004113
28486000,0.0324,0.013523,0.002678,0.000431,0.003408
28487000,0.0324,0.013523,0.002678,0.000431,0.003643
28488000,0.0324,0.013523,0.002678,0.000431,0.004584
28489000,0.0324,0.013523,0.002678,0.000431,0.003408
28490000,0.0324,0.013523,0.002678,0.000431,0.003878
28491000,0.0324,0.013523,0.002678,0.000431,0.003878
28492000,0.0324,0.013523,0.002678,0.000431,0.003761
28493000,0.0324,0.013523,0.002678,0.000431,0.004231
28494000,0.0324,0.013523,0.002678,0.000431,0.003173
28495000,0.0324,0.013523,0.002678,0.000431,0.004113
28496000,0.0324,0.013523,0.002678,0.000431,0.003878
28497000,0.0324,0.013523,0.002678,0.000431,0.003761
28498000,0.0324,0.013523,0.002678,0.000431,0.003878
28499000,0.0324,0.013523,0.002678,0.000431,0.003761
28500000,0.0324,0.013523,0.002678,0.000431,0.003996
28501000,0.0324,0.013523,0.002678,0.000431,0.003761
28502000,0.0324,0.013523,0.002678,0.000431,0.003408
28503000,0.0324,0.013523,0.002678,0.000431,0.004349
28504000,0.0324,0.013523,0.002678,0.000431,0.003526
28505000,0.0324,0.013523,0.002678,0.000431,0.003878
28506000,0.0324,0.013523,0.002678,0.000431,0.004113
28507000,0.0324,0.013523,0.002678,0.000431,0.003408
28508000,0.0324,0.013523,0.002678,0.000431,0.004231
28509000,0.0324,0.013523,0.002678,0.000431,0.003408
28510000,0.0324,0.013523,0.002678,0.000431,0.004231
28511000,0.0324,0.013523,0.002678,0.000431,0.003643
28512000,0.0324,0.013523,0.002678,0.000431,0.003643
28513000,0.0324,0.013523,0.002678,0.000431,0.005994
28514000,0.0324,0.013523,0.002678,0.000431,0.002586
28515000,0.0324,0.013523,0.002678,0.000431,0.002821
28516000,0.0324,0.013523,0.002678,0.000431,0.003291
28517000,0.0324,0.013523,0.002678,0.000431,0.002821
28518000,0.0324,0.013523,0.002678,0.000431,0.003056
28519000,0.0324,0.013523,0.002678,0.000431,0.002703
28520000,0.0324,0.013523,0.002678,0.000431,0.003173
28521000,0.0324,0.013523,0.002678,0.000431,0.003291
28522000,0.0324,0.013523,0.002678,0.000431,0.002351
28523000,0.0324,0.013523,0.002678,0.000431,0.003173
28524000,0.0324,0.013523,0.002678,0.000431,0.003056
28525000,0.0324,0.013523,0.002678,0.000431,0.002586
28526000,0.0324,0.013523,0.002678,0.000431,0.003173
28527000,0.0324,0.013523,0.002678,0.000431,0.003056
28528000,0.0324,0.013523,0.002678,0.000431,0.002821
28529000,0.0324,0.013523,0.002678,0.000431,0.003173
28530000,0.0324,0.013523,0.002678,0.000431,0.002586
28531000,0.0324,0.013523,0.002678,0.000431,0.003408
28532000,0.0324,0.013523,0.002678,0.000431,0.002586
28533000,0.0324,0.013523,0.002678,0.000431,0.002821
28534000,0.0324,0.013523,0.002678,0.000431,0.003408
28535000,0.0324,0.013523,0.002678,0.000431,0.002586
28536000,0.0324,0.013523,0.002678,0.000431,0.003408
28537000,0.0324,0.013523,0.002678,0.000431,0.002586
28538000,0.0324,0.013523,0.002678,0.000431,0.003056
28539000,0.0324,0.013523,0.002678,0.000431,0.003056
28540000,0.0324,0.013523,0.002678,0.000431,0.002586
28541000,0.0324,0.013523,0.002678,0.000431,0.003291
28542000,0.0324,0.013523,0.002678,0.000431,0.002938
28543000,0.0324,0.013523,0.002678,0.000431,0.002703
28544000,0.0324,0.013523,0.002678,0.000431,0.003173
28545000,0.0324,0.013523,0.002678,0.000431,0.002703
28546000,0.0324,0.013523,0.002678,0.000431,0.003056
28547000,0.0324,0.013523,0.002678,0.000431,0.002938
28548000,0.0324,0.013523,0.002678,0.000431,0.002938
28549000,0.0324,0.013523,0.002678,0.000431,0.003408
28550000,0.0324,0.013523,0.002678,0.000431,0.002351
28551000,0.0324,0.013523,0.002678,0.000431,0.003173
28552000,0.0324,0.013523,0.002678,0.000431,0.003056
28553000,0.0324,0.013523,0.002678,0.000431,0.002821
28554000,0.0324,0.013523,0.002678,0.000431,0.003173
28555000,0.0324,0.013523,0.002678,0.000431,0.002586
28556000,0.0324,0.013523,0.002678,0.000431,0.003408
28557000,0.0324,0.013523,0.002678,0.000431,0.002821
28558000,0.0324,0.013523,0.002678,0.000431,0.002586
28559000,0.0324,0.013523,0.002678,0.000431,0.003526
28560000,0.0324,0.013523,0.002678,0.000431,0.002586
28561000,0.0324,0.013523,0.002678,0.000431,0.003056
28562000,0.0324,0.013523,0.002678,0.000431,0.002703
28563000,0.0324,0.013523,0.002678,0.000431,0.003173
28564000,0.0324,0.013523,0.002678,0.000431,0.003056
28565000,0.0324,0.013523,0.002678,0.000431,0.002586
28566000,0.0324,0.013523,0.002678,0.000431,0.003291
28567000,0.0324,0.013523,0.002678,0.000431,0.002938
28568000,0.0324,0.013523,0.002678,0.000431,0.002586
28569000,0.0324,0.013523,0.002678,0.000431,0.003291
28570000,0.0324,0.013523,0.002678,0.000431,0.002938
28571000,0.0324,0.013523,0.002678,0.000431,0.002821
28572000,0.0324,0.013523,0.002678,0.000431,0.003173
28573000,0.0324,0.013523,0.002678,0.000431,0.002586
28574000,0.0324,0.013523,0.002678,0.000431,0.003408
28575000,0.0324,0.013523,0.002678,0.000431,0.002586
28576000,0.0324,0.013523,0.002678,0.000431,0.003056
28577000,0.0324,0.013523,0.002678,0.000431,0.003056
28578000,0.0324,0.013523,0.002678,0.000431,0.002703
28579000,0.0324,0.013523,0.002678,0.000431,0.003173
28580000,0.0324,0.013523,0.002678,0.000431,0.002703
28581000,0.0324,0.013523,0.002678,0.000431,0.003291
28582000,0.0324,0.013523,0.002678,0.000431,0.002821
28583000,0.0324,0.013523,0.002678,0.000431,0.002703
28584000,0.0324,0.013523,0.002678,0.000431,0.003291
28585000,0.0324,0.013523,0.002678,0.000431,0.002938
28586000,0.0324,0.013523,0.002678,0.000431,0.002586
28587000,0.0324,0.013523,0.002678,0.000431,0.003291
28588000,0.0324,0.013523,0.002678,0.000431,0.002821
28589000,0.0324,0.013523,0.002678,0.000431,0.003173
28590000,0.0324,0.013523,0.002678,0.000431,0.002703
28591000,0.0324,0.013523,0.002678,0.000431,0.002703
28592000,0.0324,0.013523,0.002678,0.000431,0.003643
28593000,0.0324,0.013523,0.002678,0.000431,0.002586
28594000,0.0324,0.013523,0.002678,0.000431,0.002938
28595000,0.0324,0.013523,0.002678,0.000431,0.003056
28596000,0.0324,0.013523,0.002678,0.000431,0.002821
28597000,0.0324,0.013523,0.002678,0.000431,0.003056
28598000,0.0324,0.013523,0.002678,0.000431,0.002703
28599000,0.0324,0.013523,0.002678,0.000431,0.003408
28600000,0.0324,0.013523,0.002678,0.000431,0.002703
28601000,0.0324,0.013523,0.002678,0.000431,0.002703
28602000,0.0324,0.013523,0.002678,0.000431,0.003526
28603000,0.0324,0.013523,0.002678,0.000431,0.002586
28604000,0.0324,0.013523,0.002678,0.000431,0.003056
28605000,0.0324,0.013523,0.002678,0.000431,0.002938
28606000,0.0324,0.013523,0.002678,0.000431,0.002938
28607000,0.0324,0.013523,0.002678,0.000431,0.003056
28608000,0.0324,0.013523,0.002678,0.000431,0.003291
28609000,0.0324,0.013523,0.002678,0.000431,0.002703
28610000,0.0324,0.013523,0.002678,0.000431,0.003173
28611000,0.0324,0.013523,0.002678,0.000431,0.003056
28612000,0.0324,0.013523,0.002678,0.000431,0.002703
28613000,0.0324,0.013523,0.002678,0.000431,0.003173
28614000,0.0324,0.013523,0.002678,0.000431,0.002703
28615000,0.0324,0.013523,0.002678,0.000431,0.003173
28616000,0.0324,0.013523,0.002678,0.000431,0.002821
28617000,0.0324,0.013523,0.002678,0.000431,0.002821
28618000,0.0324,0.013523,0.002678,0.000431,0.003291
28619000,0.0324,0.013523,0.002678,0.000431,0.002703
28620000,0.0324,0.013523,0.002678,0.000431,0.002938
28621000,0.0324,0.013523,0.002678,0.000431,0.003173
28622000,0.0324,0.013523,0.002678,0.000431,0.002586
28623000,0.0324,0.013523,0.002678,0.000431,0.003173
28624000,0.0324,0.013523,0.002678,0.000431,0.002938
28625000,0.0324,0.013523,0.002678,0.000431,0.002703
28626000,0.0324,0.013523,0.002678,0.000431,0.003408
28627000,0.0324,0.013523,0.002678,0.000431,0.002586
28628000,0.0324,0.013523,0.002678,0.000431,0.003291
28629000,0.0324,0.013523,0.002678,0.000431,0.002821
28630000,0.0324,0.013523,0.002678,0.000431,0.002703
28631000,0.0324,0.013523,0.002678,0.000431,0.003408
28632000,0.0324,0.013523,0.002678,0.000431,0.002821
28633000,0.0324,0.013523,0.002678,0.000431,0.002938
28634000,0.0324,0.013523,0.002678,0.000431,0.002821
28635000,0.0324,0.013523,0.002678,0.000431,0.003056
28636000,0.0324,0.013523,0.002678,0.000431,0.003291
28637000,0.0324,0.013523,0.002678,0.000431,0.002351
28638000,0.0324,0.013523,0.002678,0.000431,0.003291
28639000,0.0324,0.013523,0.002678,0.000431,0.002938
28640000,0.0324,0.013523,0.002678,0.000431,0.002938
28641000,0.0324,0.013523,0.002678,0.000431,0.003056
28642000,0.0324,0.013523,0.002678,0.000431,0.002821
28643000,0.0324,0.013523,0.002678,0.000431,0.003056
28644000,0.0324,0.013523,0.002678,0.000431,0.002938
28645000,0.0324,0.013523,0.002678,0.000431,0.002703
28646000,0.0324,0.013523,0.002678,0.000431,0.003291
28647000,0.0324,0.013523,0.002678,0.000431,0.002821
28648000,0.0324,0.013523,0.002678,0.000431,0.002703
28649000,0.0324,0.013523,0.002678,0.000431,0.003291
28650000,0.0324,0.013523,0.002678,0.000431,0.002233
28651000,0.0324,0.013523,0.002678,0.000431,0.003526
28652000,0.0324,0.013523,0.002678,0.000431,0.003056
28653000,0.0324,0.013523,0.002678,0.000431,0.002351
28654000,0.0324,0.013523,0.002678,0.000431,0.003408
28655000,0.0324,0.013523,0.002678,0.000431,0.002233
28656000,0.0324,0.013523,0.002678,0.000431,0.003526
28657000,0.0324,0.013523,0.002678,0.000431,0.002586
28658000,0.0324,0.013523,0.002678,0.000431,0.002821
28659000,0.0324,0.013523,0.002678,0.000431,0.003056
28660000,0.0324,0.013523,0.002678,0.000431,0.002586
28661000,0.0324,0.013523,0.002678,0.000431,0.003526
28662000,0.0324,0.013523,0.002678,0.000431,0.002233
28663000,0.0324,0.013523,0.002678,0.000431,0.003173
28664000,0.0324,0.013523,0.002678,0.000431,0.003056
28665000,0.0324,0.013523,0.002678,0.000431,0.002586
28666000,0.0324,0.013523,0.002678,0.000431,0.003056
28667000,0.0324,0.013523,0.002678,0.000431,0.002703
28668000,0.0324,0.013523,0.002678,0.000431,0.002703
28669000,0.0324,0.013523,0.002678,0.000431,0.003173
28670000,0.0324,0.013523,0.002678,0.000431,0.002703
28671000,0.0324,0.013523,0.002678,0.000431,0.002821
28672000,0.0324,0.013523,0.002678,0.000431,0.003173
28673000,0.0324,0.013523,0.002678,0.000431,0.003173
28674000,0.0324,0.013523,0.002678,0.000431,0.002938
28675000,0.0324,0.013523,0.002678,0.000431,0.003173
28676000,0.0324,0.013523,0.002678,0.000431,0.002821
28677000,0.0324,0.013523,0.002678,0.000431,0.002586
28678000,0.0324,0.013523,0.002678,0.000431,0.003291
28679000,0.0324,0.013523,0.002678,0.000431,0.002586
28680000,0.0324,0.013523,0.002678,0.000431,0.003291
28681000,0.0324,0.013523,0.002678,0.000431,0.002468
28682000,0.0324,0.013523,0.002678,0.000431,0.002938
28683000,0.0324,0.013523,0.002678,0.000431,0.003291
28684000,0.0324,0.013523,0.002678,0.000431,0.002586
28685000,0.0324,0.013523,0.002678,0.000431,0.002821
28686000,0.0324,0.013523,0.002678,0.000431,0.002938
28687000,0.0324,0.013523,0.002678,0.000431,0.002233
28688000,0.0324,0.013523,0.002678,0.000431,0.003526
28689000,0.0324,0.013523,0.002678,0.000431,0.003056
28690000,0.0324,0.013523,0.002678,0.000431,0.002351
28691000,0.0324,0.013523,0.002678,0.000431,0.003408
28692000,0.0324,0.013523,0.002678,0.000431,0.002938
28693000,0.0324,0.013523,0.002678,0.000431,0.006699
28694000,0.0324,0.013523,0.002678,0.000431,0.000940
28695000,0.0324,0.013523,0.002678,0.000431,0.201913
28696000,0.0324,0.013523,0.002678,0.000431,0.483511
28697000,0.0324,0.013523,0.002678,0.000431,0.507839
28698000,0.0324,0.013523,0.002678,0.000431,0.133512
28699000,0.0324,0.013523,0.002678,0.000431,0.131161
28700000,0.0324,0.013523,0.002678,0.000431,0.596103
28701000,0.0324,0.013523,0.002678,0.000431,0.275369
28702000,0.0324,0.013523,0.002678,0.000431,0.256799
28703000,0.0324,0.013523,0.002678,0.000431,0.285829
28704000,0.0324,0.013523,0.002678,0.000431,0.141151
28705000,0.0324,0.013523,0.002678,0.000431,0.156900
28706000,0.0324,0.013523,0.002678,0.000431,0.148086
28707000,0.0324,0.013523,0.002678,0.000431,0.444021
28708000,0.0324,0.013523,0.002678,0.000431,0.057236
28709000,0.0324,0.013523,0.002678,0.000431,0.038079
28710000,0.0324,0.013523,0.002678,0.000431,0.027031
28711000,0.0324,0.013523,0.002678,0.000431,0.024681
28712000,0.0324,0.013523,0.002678,0.000431,0.022095
28713000,0.0324,0.013523,0.002678,0.000431,0.016454
28714000,0.0324,0.013523,0.002678,0.000431,0.014691
28715000,0.0324,0.013523,0.002678,0.000431,0.011518
28716000,0.0324,0.013523,0.002678,0.000431,0.011635
28717000,0.0324,0.013523,0.002678,0.000431,0.013046
28718000,0.0324,0.013523,0.002678,0.000431,0.010930
28719000,0.0324,0.013523,0.002678,0.000431,0.010225
28720000,0.0324,0.013523,0.002678,0.000431,0.010930
28721000,0.0324,0.013523,0.002678,0.000431,0.012223
28722000,0.0324,0.013523,0.002678,0.000431,0.011048
28723000,0.0324,0.013523,0.002678,0.000431,0.008580
28724000,0.0324,0.013523,0.002678,0.000431,0.008932
28725000,0.0324,0.013523,0.002678,0.000431,0.010225
28726000,0.0324,0.013523,0.002678,0.000431,0.009755
28727000,0.0324,0.013523,0.002678,0.000431,0.008345
28728000,0.0324,0.013523,0.002678,0.000431,0.005289
28729000,0.0324,0.013523,0.002678,0.000431,0.004701
28730000,0.0324,0.013523,0.002678,0.000431,0.005289
28731000,0.0324,0.013523,0.002678,0.000431,0.004819
28732000,0.0324,0.013523,0.002678,0.000431,0.005406
28733000,0.0324,0.013523,0.002678,0.000431,0.005054
28734000,0.0324,0.013523,0.002678,0.000431,0.004701
28735000,0.0324,0.013523,0.002678,0.000431,0.005289
28736000,0.0324,0.013523,0.002678,0.000431,0.005171
28737000,0.0324,0.013523,0.002678,0.000431,0.005054
28738000,0.0324,0.013523,0.002678,0.000431,0.005289
28739000,0.0324,0.013523,0.002678,0.000431,0.005994
28740000,0.0324,0.013523,0.002678,0.000431,0.006934
28741000,0.0324,0.013523,0.002678,0.000431,0.004584
28742000,0.0324,0.013523,0.002678,0.000431,0.002468
28743000,0.0324,0.013523,0.002678,0.000431,0.002703
28744000,0.0324,0.013523,0.002678,0.000431,0.002586
28745000,0.0324,0.013523,0.002678,0.000431,0.005171
28746000,0.0324,0.013523,0.002678,0.000431,0.001645
28747000,0.0324,0.013523,0.002678,0.000431,0.001763
28748000,0.0324,0.013523,0.002678,0.000431,0.001763
28749000,0.0324,0.013523,0.002678,0.000431,0.001528
28750000,0.0324,0.013523,0.002678,0.000431,0.001763
28751000,0.0324,0.013523,0.002678,0.000431,0.001528
28752000,0.0324,0.013523,0.002678,0.000431,0.003291
28753000,0.0324,0.013523,0.002678,0.000431,0.001058
28754000,0.0324,0.013523,0.002678,0.000431,0.000823
28755000,0.0324,0.013523,0.002678,0.000431,0.000823
28756000,0.0324,0.013523,0.002678,0.000431,0.013986
28757000,0.0324,0.013523,0.002678,0.000431,0.501140
28758000,0.0324,0.013523,0.002678,0.000431,0.587993
28759000,0.0324,0.013523,0.002678,0.000431,0.134452
28760000,0.0324,0.013523,0.002678,0.000431,0.131279
28761000,0.0324,0.013523,0.002678,0.000431,0.411701
28762000,0.0324,0.013523,0.002678,0.000431,0.426275
28763000,0.0324,0.013523,0.002678,0.000431,0.228827
28764000,0.0324,0.013523,0.002678,0.000431,0.329902
28765000,0.0324,0.013523,0.002678,0.000431,0.157018
28766000,0.0324,0.013523,0.002678,0.000431,0.142209
28767000,0.0324,0.013523,0.002678,0.000431,0.115413
28768000,0.0324,0.013523,0.002678,0.000431,0.328609
28769000,0.0324,0.013523,0.002678,0.000431,0.288062
28770000,0.0324,0.013523,0.002678,0.000431,0.072280
28771000,0.0324,0.013523,0.002678,0.000431,0.055238
28772000,0.0324,0.013523,0.002678,0.000431,0.049009
28773000,0.0324,0.013523,0.002678,0.000431,0.040312
28774000,0.0324,0.013523,0.002678,0.000431,0.034788
28775000,0.0324,0.013523,0.002678,0.000431,0.029970
28776000,0.0324,0.013523,0.002678,0.000431,0.027972
28777000,0.0324,0.013523,0.002678,0.000431,0.024093
28778000,0.0324,0.013523,0.002678,0.000431,0.020332
28779000,0.0324,0.013523,0.002678,0.000431,0.019510
28780000,0.0324,0.013523,0.002678,0.000431,0.014456
28781000,0.0324,0.013523,0.002678,0.000431,0.013046
28782000,0.0324,0.013523,0.002678,0.000431,0.016336
28783000,0.0324,0.013523,0.002678,0.000431,0.014573
28784000,0.0324,0.013523,0.002678,0.000431,0.010342
28785000,0.0324,0.013523,0.002678,0.000431,0.011400
28786000,0.0324,0.013523,0.002678,0.000431,0.011048
28787000,0.0324,0.013523,0.002678,0.000431,0.013163
28788000,0.0324,0.013523,0.002678,0.000431,0.008697
28789000,0.0324,0.013523,0.002678,0.000431,0.008345
28790000,0.0324,0.013523,0.002678,0.000431,0.008345
28791000,0.0324,0.013523,0.002678,0.000431,0.007874
28792000,0.0324,0.013523,0.002678,0.000431,0.008345
28793000,0.0324,0.013523,0.002678,0.000431,0.007874
28794000,0.0324,0.013523,0.002678,0.000431,0.011165
28795000,0.0324,0.013523,0.002678,0.000431,0.006817
28796000,0.0324,0.013523,0.002678,0.000431,0.007992
28797000,0.0324,0.013523,0.002678,0.000431,0.007757
28798000,0.0324,0.013523,0.002678,0.000431,0.005994
28799000,0.0324,0.013523,0.002678,0.000431,0.006817
28800000,0.0324,0.013523,0.002678,0.000431,0.006111
28801000,0.0324,0.013523,0.002678,0.000431,0.006699
28802000,0.0324,0.013523,0.002678,0.000431,0.005876
28803000,0.0324,0.013523,0.002678,0.000431,0.007874
28804000,0.0324,0.013523,0.002678,0.000431,0.005289
28805000,0.0324,0.013523,0.002678,0.000431,0.004819
28806000,0.0324,0.013523,0.002678,0.000431,0.005406
28807000,0.0324,0.013523,0.002678,0.000431,0.004819
28808000,0.0324,0.013523,0.002678,0.000431,0.007639
28809000,0.0324,0.013523,0.002678,0.000431,0.004231
28810000,0.0324,0.013523,0.002678,0.000431,0.004349
28811000,0.0324,0.013523,0.002678,0.000431,0.004113
28812000,0.0324,0.013523,0.002678,0.000431,0.004113
28813000,0.0324,0.013523,0.002678,0.000431,0.004466
28814000,0.0324,0.013523,0.002678,0.000431,0.003996
28815000,0.0324,0.013523,0.002678,0.000431,0.004349
28816000,0.0324,0.013523,0.002678,0.000431,0.004231
28817000,0.0324,0.013523,0.002678,0.000431,0.005406
28818000,0.0324,0.013523,0.002678,0.000431,0.004584
28819000,0.0324,0.013523,0.002678,0.000431,0.003408
28820000,0.0324,0.013523,0.002678,0.000431,0.003526
28821000,0.0324,0.013523,0.002678,0.000431,0.003173
28822000,0.0324,0.013523,0.002678,0.000431,0.003761
28823000,0.0324,0.013523,0.002678,0.000431,0.002938
28824000,0.0324,0.013523,0.002678,0.000431,0.003761
28825000,0.0324,0.013523,0.002678,0.000431,0.003173
28826000,0.0324,0.013523,0.002678,0.000431,0.003408
28827000,0.0324,0.013523,0.002678,0.000431,0.003643
28828000,0.0324,0.013523,0.002678,0.000431,0.004466
28829000,0.0324,0.013523,0.002678,0.000431,0.002821
28830000,0.0324,0.013523,0.002678,0.000431,0.002233
28831000,0.0324,0.013523,0.002678,0.000431,0.002703
28832000,0.0324,0.013523,0.002678,0.000431,0.002586
28833000,0.0324,0.013523,0.002678,0.000431,0.002468
28834000,0.0324,0.013523,0.002678,0.000431,0.002586
28835000,0.0324,0.013523,0.002678,0.000431,0.002468
28836000,0.0324,0.013523,0.002678,0.000431,0.002586
28837000,0.0324,0.013523,0.002678,0.000431,0.002586
28838000,0.0324,0.013523,0.002678,0.000431,0.002586
28839000,0.0324,0.013523,0.002678,0.000431,0.002468
28840000,0.0324,0.013523,0.002678,0.000431,0.002468
28841000,0.0324,0.013523,0.002678,0.000431,0.002586
28842000,0.0324,0.013523,0.002678,0.000431,0.002586
28843000,0.0324,0.013523,0.002678,0.000431,0.002586
28844000,0.0324,0.013523,0.002678,0.000431,0.002468
28845000,0.0324,0.013523,0.002678,0.000431,0.002586
28846000,0.0324,0.013523,0.002678,0.000431,0.002586
28847000,0.0324,0.013523,0.002678,0.000431,0.002703
28848000,0.0324,0.013523,0.002678,0.000431,0.002116
28849000,0.0324,0.013523,0.002678,0.000431,0.002821
28850000,0.0324,0.013523,0.002678,0.000431,0.002586
28851000,0.0324,0.013523,0.002678,0.000431,0.002586
28852000,0.0324,0.013523,0.002678,0.000431,0.002703
28853000,0.0324,0.013523,0.002678,0.000431,0.002233
28854000,0.0324,0.013523,0.002678,0.000431,0.002821
28855000,0.0324,0.013523,0.002678,0.000431,0.002468
28856000,0.0324,0.013523,0.002678,0.000431,0.002586
28857000,0.0324,0.013523,0.002678,0.000431,0.002586
28858000,0.0324,0.013523,0.002678,0.000431,0.002468
28859000,0.0324,0.013523,0.002678,0.000431,0.002586
28860000,0.0324,0.013523,0.002678,0.000431,0.002468
28861000,0.0324,0.013523,0.002678,0.000431,0.002703
28862000,0.0324,0.013523,0.002678,0.000431,0.002586
28863000,0.0324,0.013523,0.002678,0.000431,0.002468
28864000,0.0324,0.013523,0.002678,0.000431,0.002586
28865000,0.0324,0.013523,0.002678,0.000431,0.002468
28866000,0.0324,0.013523,0.002678,0.000431,0.002703
28867000,0.0324,0.013523,0.002678,0.000431,0.002351
28868000,0.0324,0.013523,0.002678,0.000431,0.002586
28869000,0.0324,0.013523,0.002678,0.000431,0.002586
28870000,0.0324,0.013523,0.002678,0.000431,0.002703
28871000,0.0324,0.013523,0.002678,0.000431,0.002351
28872000,0.0324,0.013523,0.002678,0.000431,0.002586
28873000,0.0324,0.013523,0.002678,0.000431,0.002586
28874000,0.0324,0.013523,0.002678,0.000431,0.002468
28875000,0.0324,0.013523,0.002678,0.000431,0.004466
28876000,0.0324,0.013523,0.002678,0.000431,0.001410
28877000,0.0324,0.013523,0.002678,0.000431,0.001880
28878000,0.0324,0.013523,0.002678,0.000431,0.001645
28879000,0.0324,0.013523,0.002678,0.000431,0.001645
28880000,0.0324,0.013523,0.002678,0.000431,0.001763
28881000,0.0324,0.013523,0.002678,0.000431,0.001528
28882000,0.0324,0.013523,0.002678,0.000431,0.001763
28883000,0.0324,0.013523,0.002678,0.000431,0.001645
28884000,0.0324,0.013523,0.002678,0.000431,0.001763
28885000,0.0324,0.013523,0.002678,0.000431,0.001528
28886000,0.0324,0.013523,0.002678,0.000431,0.001763
28887000,0.0324,0.013523,0.002678,0.000431,0.001763
28888000,0.0324,0.013523,0.002678,0.000431,0.001645
28889000,0.0324,0.013523,0.002678,0.000431,0.001645
28890000,0.0324,0.013523,0.002678,0.000431,0.001645
28891000,0.0324,0.013523,0.002678,0.000431,0.001645
28892000,0.0324,0.013523,0.002678,0.000431,0.001645
28893000,0.0324,0.013523,0.002678,0.000431,0.001645
28894000,0.0324,0.013523,0.002678,0.000431,0.001880
28895000,0.0324,0.013523,0.002678,0.000431,0.001528
28896000,0.0324,0.013523,0.002678,0.000431,0.001645
28897000,0.0324,0.013523,0.002678,0.000431,0.001763
28898000,0.0324,0.013523,0.002678,0.000431,0.001528
28899000,0.0324,0.013523,0.002678,0.000431,0.001763
28900000,0.0324,0.013523,0.002678,0.000431,0.003056
28901000,0.0324,0.013523,0.002678,0.000431,0.000705
28902000,0.0324,0.013523,0.002678,0.000431,0.000940
28903000,0.0324,0.013523,0.002678,0.000431,0.000940
28904000,0.0324,0.013523,0.002678,0.000431,0.000705
28905000,0.0324,0.013523,0.002678,0.000431,0.000940
28906000,0.0324,0.013523,0.002678,0.000431,0.000705
28907000,0.0324,0.013523,0.002678,0.000431,0.000940
28908000,0.0324,0.013523,0.002678,0.000431,0.000940
28909000,0.0324,0.013523,0.002678,0.000431,0.000705
28910000,0.0324,0.013523,0.002678,0.000431,0.000940
28911000,0.0324,0.013523,0.002678,0.000431,0.000705
28912000,0.0324,0.013523,0.002678,0.000431,0.000940
28913000,0.0324,0.013523,0.002678,0.000431,0.000823
28914000,0.0324,0.013523,0.002678,0.000431,0.000823
28915000,0.0324,0.013523,0.002678,0.000431,0.000823
28916000,0.0324,0.013523,0.002678,0.000431,0.000823
28917000,0.0324,0.013523,0.002678,0.000431,0.000940
28918000,0.0324,0.013523,0.002678,0.000431,0.000705
28919000,0.0324,0.013523,0.002678,0.000431,0.000940
28920000,0.0324,0.013523,0.002678,0.000431,0.000823
28921000,0.0324,0.013523,0.002678,0.000431,0.000823
28922000,0.0324,0.013523,0.002678,0.000431,0.000823
28923000,0.0324,0.013523,0.002678,0.000431,0.000823
28924000,0.0324,0.013523,0.002678,0.000431,0.000823
28925000,0.0324,0.013523,0.002678,0.000431,0.000823
28926000,0.0324,0.013523,0.002678,0.000431,0.000940
28927000,0.0324,0.013523,0.002678,0.000431,0.000705
28928000,0.0324,0.013523,0.002678,0.000431,0.000940
28929000,0.0324,0.013523,0.002678,0.000431,0.000705
28930000,0.0324,0.013523,0.002678,0.000431,0.000940
28931000,0.0324,0.013523,0.002678,0.000431,0.000940
28932000,0.0324,0.013523,0.002678,0.000431,0.000705
28933000,0.0324,0.013523,0.002678,0.000431,0.000940
28934000,0.0324,0.013523,0.002678,0.000431,0.000705
28935000,0.0324,0.013523,0.002678,0.000431,0.000940
28936000,0.0324,0.013523,0.002678,0.000431,0.000823
28937000,0.0324,0.013523,0.002678,0.000431,0.000823
28938000,0.0324,0.013523,0.002678,0.000431,0.000823
28939000,0.0324,0.013523,0.002678,0.000431,0.000823
28940000,0.0324,0.013523,0.002678,0.000431,0.000940
28941000,0.0324,0.013523,0.002678,0.000431,0.000705
28942000,0.0324,0.013523,0.002678,0.000431,0.000940
28943000,0.0324,0.013523,0.002678,0.000431,0.000823
28944000,0.0324,0.013523,0.002678,0.000431,0.000823
28945000,0.0324,0.013523,0.002678,0.000431,0.000823
28946000,0.0324,0.013523,0.002678,0.000431,0.000823
28947000,0.0324,0.013523,0.002678,0.000431,0.000823
28948000,0.0324,0.013523,0.002678,0.000431,0.000823
28949000,0.0324,0.013523,0.002678,0.000431,0.000823
28950000,0.0324,0.013523,0.002678,0.000431,0.000823
28951000,0.0324,0.013523,0.002678,0.000431,0.000940
28952000,0.0324,0.013523,0.002678,0.000431,0.000823
28953000,0.0324,0.013523,0.002678,0.000431,0.000823
28954000,0.0324,0.013523,0.002678,0.000431,0.000705
28955000,0.0324,0.013523,0.002678,0.000431,0.000940
28956000,0.0324,0.013523,0.002678,0.000431,0.000940
28957000,0.0324,0.013523,0.002678,0.000431,0.000705
28958000,0.0324,0.013523,0.002678,0.000431,0.000940
28959000,0.0324,0.013523,0.002678,0.000431,0.000705
28960000,0.0324,0.013523,0.002678,0.000431,0.000940
28961000,0.0324,0.013523,0.002678,0.000431,0.000823
28962000,0.0324,0.013523,0.002678,0.000431,0.000823
28963000,0.0324,0.013523,0.002678,0.000431,0.000940
28964000,0.0324,0.013523,0.002678,0.000431,0.000705
28965000,0.0324,0.013523,0.002678,0.000431,0.000940
28966000,0.0324,0.013523,0.002678,0.000431,0.000823
28967000,0.0324,0.013523,0.002678,0.000431,0.000823
28968000,0.0324,0.013523,0.002678,0.000431,0.000823
28969000,0.0324,0.013523,0.002678,0.000431,0.000823
28970000,0.0324,0.013523,0.002678,0.000431,0.000940
28971000,0.0324,0.013523,0.002678,0.000431,0.000705
28972000,0.0324,0.013523,0.002678,0.000431,0.000940
28973000,0.0324,0.013523,0.002678,0.000431,0.000823
28974000,0.0324,0.013523,0.002678,0.000431,0.000823
28975000,0.0324,0.013523,0.002678,0.000431,0.000823
28976000,0.0324,0.013523,0.002678,0.000431,0.000823
28977000,0.0324,0.013523,0.002678,0.000431,0.000705
28978000,0.0324,0.013523,0.002678,0.000431,0.000940
28979000,0.0324,0.013523,0.002678,0.000431,0.000940
28980000,0.0324,0.013523,0.002678,0.000431,0.000705
28981000,0.0324,0.013523,0.002678,0.000431,0.000940
28982000,0.0324,0.013523,0.002678,0.000431,0.000705
28983000,0.0324,0.013523,0.002678,0.000431,0.000940
28984000,0.0324,0.013523,0.002678,0.000431,0.000940
28985000,0.0324,0.013523,0.002678,0.000431,0.000705
28986000,0.0324,0.013523,0.002678,0.000431,0.000940
28987000,0.0324,0.013523,0.002678,0.000431,0.000705
28988000,0.0324,0.013523,0.002678,0.000431,0.000940
28989000,0.0324,0.013523,0.002678,0.000431,0.000823
28990000,0.0324,0.013523,0.002678,0.000431,0.000823
28991000,0.0324,0.013523,0.002678,0.000431,0.000823
28992000,0.0324,0.013523,0.002678,0.000431,0.000823
28993000,0.0324,0.013523,0.002678,0.000431,0.000940
28994000,0.0324,0.013523,0.002678,0.000431,0.000705
28995000,0.0324,0.013523,0.002678,0.000431,0.000940
28996000,0.0324,0.013523,0.002678,0.000431,0.000705
28997000,0.0324,0.013523,0.002678,0.000431,0.000823
28998000,0.0324,0.013523,0.002678,0.000431,0.000940
28999000,0.0324,0.013523,0.002678,0.000431,0.000823
