Cycle,Area(mm^2),PeakDynamic(W),SubthresholdLeakage(W),GateLeakage(W),RunTimeDynamic(W)
94000000,0.0324,0.013523,0.002678,0.000431,0.239287
94001000,0.0324,0.013523,0.002678,0.000431,0.301812
94002000,0.0324,0.013523,0.002678,0.000431,0.264086
94003000,0.0324,0.013523,0.002678,0.000431,0.145617
94004000,0.0324,0.013523,0.002678,0.000431,0.167713
94005000,0.0324,0.013523,0.002678,0.000431,0.101544
94006000,0.0324,0.013523,0.002678,0.000431,0.467175
94007000,0.0324,0.013523,0.002678,0.000431,0.097431
94008000,0.0324,0.013523,0.002678,0.000431,0.055943
94009000,0.0324,0.013523,0.002678,0.000431,0.039019
94010000,0.0324,0.013523,0.002678,0.000431,0.041135
94011000,0.0324,0.013523,0.002678,0.000431,0.035141
94012000,0.0324,0.013523,0.002678,0.000431,0.029265
94013000,0.0324,0.013523,0.002678,0.000431,0.021273
94014000,0.0324,0.013523,0.002678,0.000431,0.021743
94015000,0.0324,0.013523,0.002678,0.000431,0.020802
94016000,0.0324,0.013523,0.002678,0.000431,0.020567
94017000,0.0324,0.013523,0.002678,0.000431,0.011870
94018000,0.0324,0.013523,0.002678,0.000431,0.015044
94019000,0.0324,0.013523,0.002678,0.000431,0.013398
94020000,0.0324,0.013523,0.002678,0.000431,0.012223
94021000,0.0324,0.013523,0.002678,0.000431,0.008697
94022000,0.0324,0.013523,0.002678,0.000431,0.009520
94023000,0.0324,0.013523,0.002678,0.000431,0.007404
94024000,0.0324,0.013523,0.002678,0.000431,0.005171
94025000,0.0324,0.013523,0.002678,0.000431,0.004701
94026000,0.0324,0.013523,0.002678,0.000431,0.003996
94027000,0.0324,0.013523,0.002678,0.000431,0.006464
94028000,0.0324,0.013523,0.002678,0.000431,0.003526
94029000,0.0324,0.013523,0.002678,0.000431,0.004701
94030000,0.0324,0.013523,0.002678,0.000431,0.000705
94031000,0.0324,0.013523,0.002678,0.000431,0.000940
94032000,0.0324,0.013523,0.002678,0.000431,0.000705
94033000,0.0324,0.013523,0.002678,0.000431,0.000940
94034000,0.0324,0.013523,0.002678,0.000431,0.000823
94035000,0.0324,0.013523,0.002678,0.000431,0.000823
94036000,0.0324,0.013523,0.002678,0.000431,0.000940
94037000,0.0324,0.013523,0.002678,0.000431,0.000705
94038000,0.0324,0.013523,0.002678,0.000431,0.000940
94039000,0.0324,0.013523,0.002678,0.000431,0.000823
94040000,0.0324,0.013523,0.002678,0.000431,0.000823
94041000,0.0324,0.013523,0.002678,0.000431,0.000823
94042000,0.0324,0.013523,0.002678,0.000431,0.000823
94043000,0.0324,0.013523,0.002678,0.000431,0.000940
94044000,0.0324,0.013523,0.002678,0.000431,0.000705
94045000,0.0324,0.013523,0.002678,0.000431,0.000940
94046000,0.0324,0.013523,0.002678,0.000431,0.000823
94047000,0.0324,0.013523,0.002678,0.000431,0.000823
94048000,0.0324,0.013523,0.002678,0.000431,0.000823
94049000,0.0324,0.013523,0.002678,0.000431,0.000823
94050000,0.0324,0.013523,0.002678,0.000431,0.000823
94051000,0.0324,0.013523,0.002678,0.000431,0.000823
94052000,0.0324,0.013523,0.002678,0.000431,0.000940
94053000,0.0324,0.013523,0.002678,0.000431,0.000705
94054000,0.0324,0.013523,0.002678,0.000431,0.000940
94055000,0.0324,0.013523,0.002678,0.000431,0.000705
94056000,0.0324,0.013523,0.002678,0.000431,0.000940
94057000,0.0324,0.013523,0.002678,0.000431,0.000940
94058000,0.0324,0.013523,0.002678,0.000431,0.000705
94059000,0.0324,0.013523,0.002678,0.000431,0.000823
94060000,0.0324,0.013523,0.002678,0.000431,0.000823
94061000,0.0324,0.013523,0.002678,0.000431,0.000940
94062000,0.0324,0.013523,0.002678,0.000431,0.000705
94063000,0.0324,0.013523,0.002678,0.000431,0.000940
94064000,0.0324,0.013523,0.002678,0.000431,0.000705
94065000,0.0324,0.013523,0.002678,0.000431,0.000940
94066000,0.0324,0.013523,0.002678,0.000431,0.000823
94067000,0.0324,0.013523,0.002678,0.000431,0.000823
94068000,0.0324,0.013523,0.002678,0.000431,0.000823
94069000,0.0324,0.013523,0.002678,0.000431,0.000823
94070000,0.0324,0.013523,0.002678,0.000431,0.000940
94071000,0.0324,0.013523,0.002678,0.000431,0.000705
94072000,0.0324,0.013523,0.002678,0.000431,0.000940
94073000,0.0324,0.013523,0.002678,0.000431,0.000705
94074000,0.0324,0.013523,0.002678,0.000431,0.000940
94075000,0.0324,0.013523,0.002678,0.000431,0.000823
94076000,0.0324,0.013523,0.002678,0.000431,0.000823
94077000,0.0324,0.013523,0.002678,0.000431,0.000940
94078000,0.0324,0.013523,0.002678,0.000431,0.000705
94079000,0.0324,0.013523,0.002678,0.000431,0.000940
94080000,0.0324,0.013523,0.002678,0.000431,0.000823
94081000,0.0324,0.013523,0.002678,0.000431,0.000823
94082000,0.0324,0.013523,0.002678,0.000431,0.000823
94083000,0.0324,0.013523,0.002678,0.000431,0.000823
94084000,0.0324,0.013523,0.002678,0.000431,0.000940
94085000,0.0324,0.013523,0.002678,0.000431,0.000705
94086000,0.0324,0.013523,0.002678,0.000431,0.000940
94087000,0.0324,0.013523,0.002678,0.000431,0.000823
94088000,0.0324,0.013523,0.002678,0.000431,0.000823
94089000,0.0324,0.013523,0.002678,0.000431,0.000823
94090000,0.0324,0.013523,0.002678,0.000431,0.000823
94091000,0.0324,0.013523,0.002678,0.000431,0.000823
94092000,0.0324,0.013523,0.002678,0.000431,0.000823
94093000,0.0324,0.013523,0.002678,0.000431,0.000823
94094000,0.0324,0.013523,0.002678,0.000431,0.000823
94095000,0.0324,0.013523,0.002678,0.000431,0.000940
94096000,0.0324,0.013523,0.002678,0.000431,0.000823
94097000,0.0324,0.013523,0.002678,0.000431,0.000823
94098000,0.0324,0.013523,0.002678,0.000431,0.000705
94099000,0.0324,0.013523,0.002678,0.000431,0.000940
94100000,0.0324,0.013523,0.002678,0.000431,0.000940
94101000,0.0324,0.013523,0.002678,0.000431,0.000705
94102000,0.0324,0.013523,0.002678,0.000431,0.000940
94103000,0.0324,0.013523,0.002678,0.000431,0.000705
94104000,0.0324,0.013523,0.002678,0.000431,0.000940
94105000,0.0324,0.013523,0.002678,0.000431,0.000823
94106000,0.0324,0.013523,0.002678,0.000431,0.000823
94107000,0.0324,0.013523,0.002678,0.000431,0.000940
94108000,0.0324,0.013523,0.002678,0.000431,0.000705
94109000,0.0324,0.013523,0.002678,0.000431,0.000940
94110000,0.0324,0.013523,0.002678,0.000431,0.000823
94111000,0.0324,0.013523,0.002678,0.000431,0.000823
94112000,0.0324,0.013523,0.002678,0.000431,0.000823
94113000,0.0324,0.013523,0.002678,0.000431,0.000823
94114000,0.0324,0.013523,0.002678,0.000431,0.000823
94115000,0.0324,0.013523,0.002678,0.000431,0.000823
94116000,0.0324,0.013523,0.002678,0.000431,0.000940
94117000,0.0324,0.013523,0.002678,0.000431,0.000705
94118000,0.0324,0.013523,0.002678,0.000431,0.000940
94119000,0.0324,0.013523,0.002678,0.000431,0.000823
94120000,0.0324,0.013523,0.002678,0.000431,0.000823
94121000,0.0324,0.013523,0.002678,0.000431,0.000705
94122000,0.0324,0.013523,0.002678,0.000431,0.000940
94123000,0.0324,0.013523,0.002678,0.000431,0.000940
94124000,0.0324,0.013523,0.002678,0.000431,0.000705
94125000,0.0324,0.013523,0.002678,0.000431,0.000940
94126000,0.0324,0.013523,0.002678,0.000431,0.000705
94127000,0.0324,0.013523,0.002678,0.000431,0.000940
94128000,0.0324,0.013523,0.002678,0.000431,0.000823
94129000,0.0324,0.013523,0.002678,0.000431,0.000823
94130000,0.0324,0.013523,0.002678,0.000431,0.000940
94131000,0.0324,0.013523,0.002678,0.000431,0.000705
94132000,0.0324,0.013523,0.002678,0.000431,0.000940
94133000,0.0324,0.013523,0.002678,0.000431,0.000823
94134000,0.0324,0.013523,0.002678,0.000431,0.000823
94135000,0.0324,0.013523,0.002678,0.000431,0.000823
94136000,0.0324,0.013523,0.002678,0.000431,0.000823
94137000,0.0324,0.013523,0.002678,0.000431,0.000823
94138000,0.0324,0.013523,0.002678,0.000431,0.000823
94139000,0.0324,0.013523,0.002678,0.000431,0.000940
94140000,0.0324,0.013523,0.002678,0.000431,0.000705
94141000,0.0324,0.013523,0.002678,0.000431,0.000823
94142000,0.0324,0.013523,0.002678,0.000431,0.000940
94143000,0.0324,0.013523,0.002678,0.000431,0.000823
94144000,0.0324,0.013523,0.002678,0.000431,0.000823
94145000,0.0324,0.013523,0.002678,0.000431,0.000823
94146000,0.0324,0.013523,0.002678,0.000431,0.000823
94147000,0.0324,0.013523,0.002678,0.000431,0.000823
94148000,0.0324,0.013523,0.002678,0.000431,0.000940
94149000,0.0324,0.013523,0.002678,0.000431,0.000823
94150000,0.0324,0.013523,0.002678,0.000431,0.000823
94151000,0.0324,0.013523,0.002678,0.000431,0.000705
94152000,0.0324,0.013523,0.002678,0.000431,0.000940
94153000,0.0324,0.013523,0.002678,0.000431,0.000940
94154000,0.0324,0.013523,0.002678,0.000431,0.000705
94155000,0.0324,0.013523,0.002678,0.000431,0.000940
94156000,0.0324,0.013523,0.002678,0.000431,0.000705
94157000,0.0324,0.013523,0.002678,0.000431,0.000940
94158000,0.0324,0.013523,0.002678,0.000431,0.000823
94159000,0.0324,0.013523,0.002678,0.000431,0.000823
94160000,0.0324,0.013523,0.002678,0.000431,0.000823
94161000,0.0324,0.013523,0.002678,0.000431,0.000823
94162000,0.0324,0.013523,0.002678,0.000431,0.000940
94163000,0.0324,0.013523,0.002678,0.000431,0.000823
94164000,0.0324,0.013523,0.002678,0.000431,0.000823
94165000,0.0324,0.013523,0.002678,0.000431,0.000823
94166000,0.0324,0.013523,0.002678,0.000431,0.000823
94167000,0.0324,0.013523,0.002678,0.000431,0.000823
94168000,0.0324,0.013523,0.002678,0.000431,0.000823
94169000,0.0324,0.013523,0.002678,0.000431,0.000940
94170000,0.0324,0.013523,0.002678,0.000431,0.000705
94171000,0.0324,0.013523,0.002678,0.000431,0.000940
94172000,0.0324,0.013523,0.002678,0.000431,0.000823
94173000,0.0324,0.013523,0.002678,0.000431,0.000823
94174000,0.0324,0.013523,0.002678,0.000431,0.000705
94175000,0.0324,0.013523,0.002678,0.000431,0.000940
94176000,0.0324,0.013523,0.002678,0.000431,0.001880
94177000,0.0324,0.013523,0.002678,0.000431,0.319794
94178000,0.0324,0.013523,0.002678,0.000431,0.617493
94179000,0.0324,0.013523,0.002678,0.000431,0.245281
94180000,0.0324,0.013523,0.002678,0.000431,0.132454
94181000,0.0324,0.013523,0.002678,0.000431,0.152904
94182000,0.0324,0.013523,0.002678,0.000431,0.646993
94183000,0.0324,0.013523,0.002678,0.000431,0.235409
94184000,0.0324,0.013523,0.002678,0.000431,0.307454
94185000,0.0324,0.013523,0.002678,0.000431,0.222833
94186000,0.0324,0.013523,0.002678,0.000431,0.147145
94187000,0.0324,0.013523,0.002678,0.000431,0.118586
94188000,0.0324,0.013523,0.002678,0.000431,0.299814
94189000,0.0324,0.013523,0.002678,0.000431,0.308511
94190000,0.0324,0.013523,0.002678,0.000431,0.068519
94191000,0.0324,0.013523,0.002678,0.000431,0.050772
94192000,0.0324,0.013523,0.002678,0.000431,0.039960
94193000,0.0324,0.013523,0.002678,0.000431,0.039842
94194000,0.0324,0.013523,0.002678,0.000431,0.033848
94195000,0.0324,0.013523,0.002678,0.000431,0.026444
94196000,0.0324,0.013523,0.002678,0.000431,0.023623
94197000,0.0324,0.013523,0.002678,0.000431,0.022565
94198000,0.0324,0.013523,0.002678,0.000431,0.018687
94199000,0.0324,0.013523,0.002678,0.000431,0.019040
94200000,0.0324,0.013523,0.002678,0.000431,0.018452
94201000,0.0324,0.013523,0.002678,0.000431,0.018099
94202000,0.0324,0.013523,0.002678,0.000431,0.014809
94203000,0.0324,0.013523,0.002678,0.000431,0.012811
94204000,0.0324,0.013523,0.002678,0.000431,0.011635
94205000,0.0324,0.013523,0.002678,0.000431,0.010695
94206000,0.0324,0.013523,0.002678,0.000431,0.010107
94207000,0.0324,0.013523,0.002678,0.000431,0.009285
94208000,0.0324,0.013523,0.002678,0.000431,0.011165
94209000,0.0324,0.013523,0.002678,0.000431,0.010107
94210000,0.0324,0.013523,0.002678,0.000431,0.009167
94211000,0.0324,0.013523,0.002678,0.000431,0.008815
94212000,0.0324,0.013523,0.002678,0.000431,0.006817
94213000,0.0324,0.013523,0.002678,0.000431,0.007639
94214000,0.0324,0.013523,0.002678,0.000431,0.006817
94215000,0.0324,0.013523,0.002678,0.000431,0.007992
94216000,0.0324,0.013523,0.002678,0.000431,0.007052
94217000,0.0324,0.013523,0.002678,0.000431,0.007404
94218000,0.0324,0.013523,0.002678,0.000431,0.006699
94219000,0.0324,0.013523,0.002678,0.000431,0.007874
94220000,0.0324,0.013523,0.002678,0.000431,0.007992
94221000,0.0324,0.013523,0.002678,0.000431,0.006111
94222000,0.0324,0.013523,0.002678,0.000431,0.005524
94223000,0.0324,0.013523,0.002678,0.000431,0.006111
94224000,0.0324,0.013523,0.002678,0.000431,0.005876
94225000,0.0324,0.013523,0.002678,0.000431,0.005876
94226000,0.0324,0.013523,0.002678,0.000431,0.006111
94227000,0.0324,0.013523,0.002678,0.000431,0.005641
94228000,0.0324,0.013523,0.002678,0.000431,0.008227
94229000,0.0324,0.013523,0.002678,0.000431,0.004584
94230000,0.0324,0.013523,0.002678,0.000431,0.005289
94231000,0.0324,0.013523,0.002678,0.000431,0.007874
94232000,0.0324,0.013523,0.002678,0.000431,0.003878
94233000,0.0324,0.013523,0.002678,0.000431,0.004466
94234000,0.0324,0.013523,0.002678,0.000431,0.004113
94235000,0.0324,0.013523,0.002678,0.000431,0.003996
94236000,0.0324,0.013523,0.002678,0.000431,0.004113
94237000,0.0324,0.013523,0.002678,0.000431,0.004113
94238000,0.0324,0.013523,0.002678,0.000431,0.003878
94239000,0.0324,0.013523,0.002678,0.000431,0.004231
94240000,0.0324,0.013523,0.002678,0.000431,0.004584
94241000,0.0324,0.013523,0.002678,0.000431,0.003996
94242000,0.0324,0.013523,0.002678,0.000431,0.004113
94243000,0.0324,0.013523,0.002678,0.000431,0.004231
94244000,0.0324,0.013523,0.002678,0.000431,0.004231
94245000,0.0324,0.013523,0.002678,0.000431,0.005524
94246000,0.0324,0.013523,0.002678,0.000431,0.004349
94247000,0.0324,0.013523,0.002678,0.000431,0.002586
94248000,0.0324,0.013523,0.002678,0.000431,0.002703
94249000,0.0324,0.013523,0.002678,0.000431,0.003878
94250000,0.0324,0.013523,0.002678,0.000431,0.001763
94251000,0.0324,0.013523,0.002678,0.000431,0.001880
94252000,0.0324,0.013523,0.002678,0.000431,0.001645
94253000,0.0324,0.013523,0.002678,0.000431,0.001645
94254000,0.0324,0.013523,0.002678,0.000431,0.001645
94255000,0.0324,0.013523,0.002678,0.000431,0.001880
94256000,0.0324,0.013523,0.002678,0.000431,0.001763
94257000,0.0324,0.013523,0.002678,0.000431,0.001528
94258000,0.0324,0.013523,0.002678,0.000431,0.001763
94259000,0.0324,0.013523,0.002678,0.000431,0.001763
94260000,0.0324,0.013523,0.002678,0.000431,0.001763
94261000,0.0324,0.013523,0.002678,0.000431,0.001645
94262000,0.0324,0.013523,0.002678,0.000431,0.001763
94263000,0.0324,0.013523,0.002678,0.000431,0.001763
94264000,0.0324,0.013523,0.002678,0.000431,0.001645
94265000,0.0324,0.013523,0.002678,0.000431,0.001645
94266000,0.0324,0.013523,0.002678,0.000431,0.001763
94267000,0.0324,0.013523,0.002678,0.000431,0.001763
94268000,0.0324,0.013523,0.002678,0.000431,0.001645
94269000,0.0324,0.013523,0.002678,0.000431,0.001763
94270000,0.0324,0.013523,0.002678,0.000431,0.001645
94271000,0.0324,0.013523,0.002678,0.000431,0.001880
94272000,0.0324,0.013523,0.002678,0.000431,0.001410
94273000,0.0324,0.013523,0.002678,0.000431,0.001880
94274000,0.0324,0.013523,0.002678,0.000431,0.001880
94275000,0.0324,0.013523,0.002678,0.000431,0.001645
94276000,0.0324,0.013523,0.002678,0.000431,0.003173
94277000,0.0324,0.013523,0.002678,0.000431,0.000705
94278000,0.0324,0.013523,0.002678,0.000431,0.000940
94279000,0.0324,0.013523,0.002678,0.000431,0.000823
94280000,0.0324,0.013523,0.002678,0.000431,0.000823
94281000,0.0324,0.013523,0.002678,0.000431,0.000823
94282000,0.0324,0.013523,0.002678,0.000431,0.000823
94283000,0.0324,0.013523,0.002678,0.000431,0.000940
94284000,0.0324,0.013523,0.002678,0.000431,0.000705
94285000,0.0324,0.013523,0.002678,0.000431,0.000940
94286000,0.0324,0.013523,0.002678,0.000431,0.000823
94287000,0.0324,0.013523,0.002678,0.000431,0.000823
94288000,0.0324,0.013523,0.002678,0.000431,0.000823
94289000,0.0324,0.013523,0.002678,0.000431,0.000823
94290000,0.0324,0.013523,0.002678,0.000431,0.000823
94291000,0.0324,0.013523,0.002678,0.000431,0.000823
94292000,0.0324,0.013523,0.002678,0.000431,0.000823
94293000,0.0324,0.013523,0.002678,0.000431,0.000823
94294000,0.0324,0.013523,0.002678,0.000431,0.000940
94295000,0.0324,0.013523,0.002678,0.000431,0.000823
94296000,0.0324,0.013523,0.002678,0.000431,0.000823
94297000,0.0324,0.013523,0.002678,0.000431,0.000705
94298000,0.0324,0.013523,0.002678,0.000431,0.000940
94299000,0.0324,0.013523,0.002678,0.000431,0.000940
94300000,0.0324,0.013523,0.002678,0.000431,0.000705
94301000,0.0324,0.013523,0.002678,0.000431,0.000940
94302000,0.0324,0.013523,0.002678,0.000431,0.000705
94303000,0.0324,0.013523,0.002678,0.000431,0.000940
94304000,0.0324,0.013523,0.002678,0.000431,0.000823
94305000,0.0324,0.013523,0.002678,0.000431,0.000823
94306000,0.0324,0.013523,0.002678,0.000431,0.000940
94307000,0.0324,0.013523,0.002678,0.000431,0.000705
94308000,0.0324,0.013523,0.002678,0.000431,0.000940
94309000,0.0324,0.013523,0.002678,0.000431,0.000823
94310000,0.0324,0.013523,0.002678,0.000431,0.000823
94311000,0.0324,0.013523,0.002678,0.000431,0.000823
94312000,0.0324,0.013523,0.002678,0.000431,0.000823
94313000,0.0324,0.013523,0.002678,0.000431,0.000940
94314000,0.0324,0.013523,0.002678,0.000431,0.000705
94315000,0.0324,0.013523,0.002678,0.000431,0.000940
94316000,0.0324,0.013523,0.002678,0.000431,0.000823
94317000,0.0324,0.013523,0.002678,0.000431,0.000823
94318000,0.0324,0.013523,0.002678,0.000431,0.000823
94319000,0.0324,0.013523,0.002678,0.000431,0.000823
94320000,0.0324,0.013523,0.002678,0.000431,0.000705
94321000,0.0324,0.013523,0.002678,0.000431,0.000940
94322000,0.0324,0.013523,0.002678,0.000431,0.000940
94323000,0.0324,0.013523,0.002678,0.000431,0.000705
94324000,0.0324,0.013523,0.002678,0.000431,0.000940
94325000,0.0324,0.013523,0.002678,0.000431,0.000705
94326000,0.0324,0.013523,0.002678,0.000431,0.000940
94327000,0.0324,0.013523,0.002678,0.000431,0.000705
94328000,0.0324,0.013523,0.002678,0.000431,0.000940
94329000,0.0324,0.013523,0.002678,0.000431,0.000705
94330000,0.0324,0.013523,0.002678,0.000431,0.000940
94331000,0.0324,0.013523,0.002678,0.000431,0.000823
94332000,0.0324,0.013523,0.002678,0.000431,0.000823
94333000,0.0324,0.013523,0.002678,0.000431,0.000940
94334000,0.0324,0.013523,0.002678,0.000431,0.000705
94335000,0.0324,0.013523,0.002678,0.000431,0.000940
94336000,0.0324,0.013523,0.002678,0.000431,0.000705
94337000,0.0324,0.013523,0.002678,0.000431,0.000940
94338000,0.0324,0.013523,0.002678,0.000431,0.000823
94339000,0.0324,0.013523,0.002678,0.000431,0.000823
94340000,0.0324,0.013523,0.002678,0.000431,0.000823
94341000,0.0324,0.013523,0.002678,0.000431,0.000823
94342000,0.0324,0.013523,0.002678,0.000431,0.000940
94343000,0.0324,0.013523,0.002678,0.000431,0.000705
94344000,0.0324,0.013523,0.002678,0.000431,0.000823
94345000,0.0324,0.013523,0.002678,0.000431,0.000940
94346000,0.0324,0.013523,0.002678,0.000431,0.000823
94347000,0.0324,0.013523,0.002678,0.000431,0.000823
94348000,0.0324,0.013523,0.002678,0.000431,0.000823
94349000,0.0324,0.013523,0.002678,0.000431,0.000705
94350000,0.0324,0.013523,0.002678,0.000431,0.000940
94351000,0.0324,0.013523,0.002678,0.000431,0.000940
94352000,0.0324,0.013523,0.002678,0.000431,0.000705
94353000,0.0324,0.013523,0.002678,0.000431,0.000940
94354000,0.0324,0.013523,0.002678,0.000431,0.000705
94355000,0.0324,0.013523,0.002678,0.000431,0.000940
94356000,0.0324,0.013523,0.002678,0.000431,0.000823
94357000,0.0324,0.013523,0.002678,0.000431,0.000823
94358000,0.0324,0.013523,0.002678,0.000431,0.000940
94359000,0.0324,0.013523,0.002678,0.000431,0.000705
94360000,0.0324,0.013523,0.002678,0.000431,0.000940
94361000,0.0324,0.013523,0.002678,0.000431,0.000823
94362000,0.0324,0.013523,0.002678,0.000431,0.000823
94363000,0.0324,0.013523,0.002678,0.000431,0.000823
94364000,0.0324,0.013523,0.002678,0.000431,0.000823
94365000,0.0324,0.013523,0.002678,0.000431,0.000823
94366000,0.0324,0.013523,0.002678,0.000431,0.000823
94367000,0.0324,0.013523,0.002678,0.000431,0.000940
94368000,0.0324,0.013523,0.002678,0.000431,0.000705
94369000,0.0324,0.013523,0.002678,0.000431,0.000940
94370000,0.0324,0.013523,0.002678,0.000431,0.000823
94371000,0.0324,0.013523,0.002678,0.000431,0.000823
94372000,0.0324,0.013523,0.002678,0.000431,0.000705
94373000,0.0324,0.013523,0.002678,0.000431,0.000940
94374000,0.0324,0.013523,0.002678,0.000431,0.000940
94375000,0.0324,0.013523,0.002678,0.000431,0.000705
94376000,0.0324,0.013523,0.002678,0.000431,0.000940
94377000,0.0324,0.013523,0.002678,0.000431,0.000705
94378000,0.0324,0.013523,0.002678,0.000431,0.000940
94379000,0.0324,0.013523,0.002678,0.000431,0.000823
94380000,0.0324,0.013523,0.002678,0.000431,0.000823
94381000,0.0324,0.013523,0.002678,0.000431,0.000940
94382000,0.0324,0.013523,0.002678,0.000431,0.000705
94383000,0.0324,0.013523,0.002678,0.000431,0.000940
94384000,0.0324,0.013523,0.002678,0.000431,0.000823
94385000,0.0324,0.013523,0.002678,0.000431,0.000823
94386000,0.0324,0.013523,0.002678,0.000431,0.000823
94387000,0.0324,0.013523,0.002678,0.000431,0.000823
94388000,0.0324,0.013523,0.002678,0.000431,0.000823
94389000,0.0324,0.013523,0.002678,0.000431,0.000823
94390000,0.0324,0.013523,0.002678,0.000431,0.000940
94391000,0.0324,0.013523,0.002678,0.000431,0.000705
94392000,0.0324,0.013523,0.002678,0.000431,0.000823
94393000,0.0324,0.013523,0.002678,0.000431,0.000940
94394000,0.0324,0.013523,0.002678,0.000431,0.000823
94395000,0.0324,0.013523,0.002678,0.000431,0.000823
94396000,0.0324,0.013523,0.002678,0.000431,0.000823
94397000,0.0324,0.013523,0.002678,0.000431,0.000705
94398000,0.0324,0.013523,0.002678,0.000431,0.000940
94399000,0.0324,0.013523,0.002678,0.000431,0.000940
94400000,0.0324,0.013523,0.002678,0.000431,0.000705
94401000,0.0324,0.013523,0.002678,0.000431,0.000940
94402000,0.0324,0.013523,0.002678,0.000431,0.000705
94403000,0.0324,0.013523,0.002678,0.000431,0.000940
94404000,0.0324,0.013523,0.002678,0.000431,0.000823
94405000,0.0324,0.013523,0.002678,0.000431,0.000823
94406000,0.0324,0.013523,0.002678,0.000431,0.000940
94407000,0.0324,0.013523,0.002678,0.000431,0.000705
94408000,0.0324,0.013523,0.002678,0.000431,0.000940
94409000,0.0324,0.013523,0.002678,0.000431,0.000823
94410000,0.0324,0.013523,0.002678,0.000431,0.000823
94411000,0.0324,0.013523,0.002678,0.000431,0.000823
94412000,0.0324,0.013523,0.002678,0.000431,0.000823
94413000,0.0324,0.013523,0.002678,0.000431,0.000823
94414000,0.0324,0.013523,0.002678,0.000431,0.000823
94415000,0.0324,0.013523,0.002678,0.000431,0.000940
94416000,0.0324,0.013523,0.002678,0.000431,0.000705
94417000,0.0324,0.013523,0.002678,0.000431,0.001880
94418000,0.0324,0.013523,0.002678,0.000431,0.355758
94419000,0.0324,0.013523,0.002678,0.000431,0.678725
94420000,0.0324,0.013523,0.002678,0.000431,0.172296
94421000,0.0324,0.013523,0.002678,0.000431,0.133042
94422000,0.0324,0.013523,0.002678,0.000431,0.144442
94423000,0.0324,0.013523,0.002678,0.000431,0.602802
94424000,0.0324,0.013523,0.002678,0.000431,0.273135
94425000,0.0324,0.013523,0.002678,0.000431,0.271725
94426000,0.0324,0.013523,0.002678,0.000431,0.223891
94427000,0.0324,0.013523,0.002678,0.000431,0.143737
94428000,0.0324,0.013523,0.002678,0.000431,0.170181
94429000,0.0324,0.013523,0.002678,0.000431,0.117176
94430000,0.0324,0.013523,0.002678,0.000431,0.457185
94431000,0.0324,0.013523,0.002678,0.000431,0.069577
94432000,0.0324,0.013523,0.002678,0.000431,0.047716
94433000,0.0324,0.013523,0.002678,0.000431,0.031380
94434000,0.0324,0.013523,0.002678,0.000431,0.031027
94435000,0.0324,0.013523,0.002678,0.000431,0.021155
94436000,0.0324,0.013523,0.002678,0.000431,0.022213
94437000,0.0324,0.013523,0.002678,0.000431,0.017747
94438000,0.0324,0.013523,0.002678,0.000431,0.014691
94439000,0.0324,0.013523,0.002678,0.000431,0.014809
94440000,0.0324,0.013523,0.002678,0.000431,0.011635
94441000,0.0324,0.013523,0.002678,0.000431,0.011753
94442000,0.0324,0.013523,0.002678,0.000431,0.012458
94443000,0.0324,0.013523,0.002678,0.000431,0.009990
94444000,0.0324,0.013523,0.002678,0.000431,0.007639
94445000,0.0324,0.013523,0.002678,0.000431,0.007404
94446000,0.0324,0.013523,0.002678,0.000431,0.007757
94447000,0.0324,0.013523,0.002678,0.000431,0.009637
94448000,0.0324,0.013523,0.002678,0.000431,0.006817
94449000,0.0324,0.013523,0.002678,0.000431,0.007992
94450000,0.0324,0.013523,0.002678,0.000431,0.005876
94451000,0.0324,0.013523,0.002678,0.000431,0.006464
94452000,0.0324,0.013523,0.002678,0.000431,0.005759
94453000,0.0324,0.013523,0.002678,0.000431,0.007522
94454000,0.0324,0.013523,0.002678,0.000431,0.007052
94455000,0.0324,0.013523,0.002678,0.000431,0.005054
94456000,0.0324,0.013523,0.002678,0.000431,0.004819
94457000,0.0324,0.013523,0.002678,0.000431,0.005054
94458000,0.0324,0.013523,0.002678,0.000431,0.005054
94459000,0.0324,0.013523,0.002678,0.000431,0.005054
94460000,0.0324,0.013523,0.002678,0.000431,0.004819
94461000,0.0324,0.013523,0.002678,0.000431,0.004819
94462000,0.0324,0.013523,0.002678,0.000431,0.005289
94463000,0.0324,0.013523,0.002678,0.000431,0.004701
94464000,0.0324,0.013523,0.002678,0.000431,0.005054
94465000,0.0324,0.013523,0.002678,0.000431,0.005054
94466000,0.0324,0.013523,0.002678,0.000431,0.004701
94467000,0.0324,0.013523,0.002678,0.000431,0.005406
94468000,0.0324,0.013523,0.002678,0.000431,0.004701
94469000,0.0324,0.013523,0.002678,0.000431,0.004936
94470000,0.0324,0.013523,0.002678,0.000431,0.005759
94471000,0.0324,0.013523,0.002678,0.000431,0.005406
94472000,0.0324,0.013523,0.002678,0.000431,0.005759
94473000,0.0324,0.013523,0.002678,0.000431,0.003173
94474000,0.0324,0.013523,0.002678,0.000431,0.003173
94475000,0.0324,0.013523,0.002678,0.000431,0.003291
94476000,0.0324,0.013523,0.002678,0.000431,0.003056
94477000,0.0324,0.013523,0.002678,0.000431,0.003643
94478000,0.0324,0.013523,0.002678,0.000431,0.002821
94479000,0.0324,0.013523,0.002678,0.000431,0.003643
94480000,0.0324,0.013523,0.002678,0.000431,0.003056
94481000,0.0324,0.013523,0.002678,0.000431,0.004701
94482000,0.0324,0.013523,0.002678,0.000431,0.001645
94483000,0.0324,0.013523,0.002678,0.000431,0.001645
94484000,0.0324,0.013523,0.002678,0.000431,0.001763
94485000,0.0324,0.013523,0.002678,0.000431,0.001528
94486000,0.0324,0.013523,0.002678,0.000431,0.001763
94487000,0.0324,0.013523,0.002678,0.000431,0.001645
94488000,0.0324,0.013523,0.002678,0.000431,0.001763
94489000,0.0324,0.013523,0.002678,0.000431,0.001528
94490000,0.0324,0.013523,0.002678,0.000431,0.001763
94491000,0.0324,0.013523,0.002678,0.000431,0.001645
94492000,0.0324,0.013523,0.002678,0.000431,0.001645
94493000,0.0324,0.013523,0.002678,0.000431,0.001645
94494000,0.0324,0.013523,0.002678,0.000431,0.001763
94495000,0.0324,0.013523,0.002678,0.000431,0.001645
94496000,0.0324,0.013523,0.002678,0.000431,0.001645
94497000,0.0324,0.013523,0.002678,0.000431,0.001763
94498000,0.0324,0.013523,0.002678,0.000431,0.001528
94499000,0.0324,0.013523,0.002678,0.000431,0.001763
94500000,0.0324,0.013523,0.002678,0.000431,0.001763
94501000,0.0324,0.013523,0.002678,0.000431,0.001528
94502000,0.0324,0.013523,0.002678,0.000431,0.001763
94503000,0.0324,0.013523,0.002678,0.000431,0.001528
94504000,0.0324,0.013523,0.002678,0.000431,0.001880
94505000,0.0324,0.013523,0.002678,0.000431,0.001645
94506000,0.0324,0.013523,0.002678,0.000431,0.001645
94507000,0.0324,0.013523,0.002678,0.000431,0.001763
94508000,0.0324,0.013523,0.002678,0.000431,0.001528
94509000,0.0324,0.013523,0.002678,0.000431,0.001763
94510000,0.0324,0.013523,0.002678,0.000431,0.001645
94511000,0.0324,0.013523,0.002678,0.000431,0.003291
94512000,0.0324,0.013523,0.002678,0.000431,0.000823
94513000,0.0324,0.013523,0.002678,0.000431,0.000823
94514000,0.0324,0.013523,0.002678,0.000431,0.000940
94515000,0.0324,0.013523,0.002678,0.000431,0.000705
94516000,0.0324,0.013523,0.002678,0.000431,0.000940
94517000,0.0324,0.013523,0.002678,0.000431,0.000823
94518000,0.0324,0.013523,0.002678,0.000431,0.000823
94519000,0.0324,0.013523,0.002678,0.000431,0.000823
94520000,0.0324,0.013523,0.002678,0.000431,0.000823
94521000,0.0324,0.013523,0.002678,0.000431,0.000823
94522000,0.0324,0.013523,0.002678,0.000431,0.000823
94523000,0.0324,0.013523,0.002678,0.000431,0.000823
94524000,0.0324,0.013523,0.002678,0.000431,0.000823
94525000,0.0324,0.013523,0.002678,0.000431,0.000940
94526000,0.0324,0.013523,0.002678,0.000431,0.000823
94527000,0.0324,0.013523,0.002678,0.000431,0.000823
94528000,0.0324,0.013523,0.002678,0.000431,0.000705
94529000,0.0324,0.013523,0.002678,0.000431,0.000940
94530000,0.0324,0.013523,0.002678,0.000431,0.000940
94531000,0.0324,0.013523,0.002678,0.000431,0.000705
94532000,0.0324,0.013523,0.002678,0.000431,0.000940
94533000,0.0324,0.013523,0.002678,0.000431,0.000705
94534000,0.0324,0.013523,0.002678,0.000431,0.000940
94535000,0.0324,0.013523,0.002678,0.000431,0.000823
94536000,0.0324,0.013523,0.002678,0.000431,0.000823
94537000,0.0324,0.013523,0.002678,0.000431,0.000940
94538000,0.0324,0.013523,0.002678,0.000431,0.000705
94539000,0.0324,0.013523,0.002678,0.000431,0.000940
94540000,0.0324,0.013523,0.002678,0.000431,0.000823
94541000,0.0324,0.013523,0.002678,0.000431,0.000823
94542000,0.0324,0.013523,0.002678,0.000431,0.000823
94543000,0.0324,0.013523,0.002678,0.000431,0.000823
94544000,0.0324,0.013523,0.002678,0.000431,0.000823
94545000,0.0324,0.013523,0.002678,0.000431,0.000823
94546000,0.0324,0.013523,0.002678,0.000431,0.000940
94547000,0.0324,0.013523,0.002678,0.000431,0.000705
94548000,0.0324,0.013523,0.002678,0.000431,0.000940
94549000,0.0324,0.013523,0.002678,0.000431,0.000823
94550000,0.0324,0.013523,0.002678,0.000431,0.000823
94551000,0.0324,0.013523,0.002678,0.000431,0.000705
94552000,0.0324,0.013523,0.002678,0.000431,0.000940
94553000,0.0324,0.013523,0.002678,0.000431,0.000940
94554000,0.0324,0.013523,0.002678,0.000431,0.000705
94555000,0.0324,0.013523,0.002678,0.000431,0.000940
94556000,0.0324,0.013523,0.002678,0.000431,0.000705
94557000,0.0324,0.013523,0.002678,0.000431,0.000940
94558000,0.0324,0.013523,0.002678,0.000431,0.000823
94559000,0.0324,0.013523,0.002678,0.000431,0.000823
94560000,0.0324,0.013523,0.002678,0.000431,0.000940
94561000,0.0324,0.013523,0.002678,0.000431,0.000705
94562000,0.0324,0.013523,0.002678,0.000431,0.000940
94563000,0.0324,0.013523,0.002678,0.000431,0.000823
94564000,0.0324,0.013523,0.002678,0.000431,0.000823
94565000,0.0324,0.013523,0.002678,0.000431,0.000823
94566000,0.0324,0.013523,0.002678,0.000431,0.000823
94567000,0.0324,0.013523,0.002678,0.000431,0.000823
94568000,0.0324,0.013523,0.002678,0.000431,0.000823
94569000,0.0324,0.013523,0.002678,0.000431,0.000940
94570000,0.0324,0.013523,0.002678,0.000431,0.000705
94571000,0.0324,0.013523,0.002678,0.000431,0.000823
94572000,0.0324,0.013523,0.002678,0.000431,0.000940
94573000,0.0324,0.013523,0.002678,0.000431,0.000823
94574000,0.0324,0.013523,0.002678,0.000431,0.000823
94575000,0.0324,0.013523,0.002678,0.000431,0.000823
94576000,0.0324,0.013523,0.002678,0.000431,0.000705
94577000,0.0324,0.013523,0.002678,0.000431,0.000940
94578000,0.0324,0.013523,0.002678,0.000431,0.000940
94579000,0.0324,0.013523,0.002678,0.000431,0.000705
94580000,0.0324,0.013523,0.002678,0.000431,0.000940
94581000,0.0324,0.013523,0.002678,0.000431,0.000705
94582000,0.0324,0.013523,0.002678,0.000431,0.000940
94583000,0.0324,0.013523,0.002678,0.000431,0.000940
94584000,0.0324,0.013523,0.002678,0.000431,0.000705
94585000,0.0324,0.013523,0.002678,0.000431,0.000940
94586000,0.0324,0.013523,0.002678,0.000431,0.000705
94587000,0.0324,0.013523,0.002678,0.000431,0.000940
94588000,0.0324,0.013523,0.002678,0.000431,0.000823
94589000,0.0324,0.013523,0.002678,0.000431,0.000823
94590000,0.0324,0.013523,0.002678,0.000431,0.000823
94591000,0.0324,0.013523,0.002678,0.000431,0.000823
94592000,0.0324,0.013523,0.002678,0.000431,0.000940
94593000,0.0324,0.013523,0.002678,0.000431,0.000823
94594000,0.0324,0.013523,0.002678,0.000431,0.000823
94595000,0.0324,0.013523,0.002678,0.000431,0.000823
94596000,0.0324,0.013523,0.002678,0.000431,0.000823
94597000,0.0324,0.013523,0.002678,0.000431,0.000823
94598000,0.0324,0.013523,0.002678,0.000431,0.000823
94599000,0.0324,0.013523,0.002678,0.000431,0.000940
94600000,0.0324,0.013523,0.002678,0.000431,0.000705
94601000,0.0324,0.013523,0.002678,0.000431,0.000940
94602000,0.0324,0.013523,0.002678,0.000431,0.000823
94603000,0.0324,0.013523,0.002678,0.000431,0.000823
94604000,0.0324,0.013523,0.002678,0.000431,0.000705
94605000,0.0324,0.013523,0.002678,0.000431,0.000940
94606000,0.0324,0.013523,0.002678,0.000431,0.000940
94607000,0.0324,0.013523,0.002678,0.000431,0.000705
94608000,0.0324,0.013523,0.002678,0.000431,0.000940
94609000,0.0324,0.013523,0.002678,0.000431,0.000705
94610000,0.0324,0.013523,0.002678,0.000431,0.000940
94611000,0.0324,0.013523,0.002678,0.000431,0.000823
94612000,0.0324,0.013523,0.002678,0.000431,0.000823
94613000,0.0324,0.013523,0.002678,0.000431,0.000940
94614000,0.0324,0.013523,0.002678,0.000431,0.000705
94615000,0.0324,0.013523,0.002678,0.000431,0.000940
94616000,0.0324,0.013523,0.002678,0.000431,0.000823
94617000,0.0324,0.013523,0.002678,0.000431,0.000823
94618000,0.0324,0.013523,0.002678,0.000431,0.000823
94619000,0.0324,0.013523,0.002678,0.000431,0.000823
94620000,0.0324,0.013523,0.002678,0.000431,0.000823
94621000,0.0324,0.013523,0.002678,0.000431,0.000823
94622000,0.0324,0.013523,0.002678,0.000431,0.000940
94623000,0.0324,0.013523,0.002678,0.000431,0.000705
94624000,0.0324,0.013523,0.002678,0.000431,0.000823
94625000,0.0324,0.013523,0.002678,0.000431,0.000940
94626000,0.0324,0.013523,0.002678,0.000431,0.000823
94627000,0.0324,0.013523,0.002678,0.000431,0.000823
94628000,0.0324,0.013523,0.002678,0.000431,0.000823
94629000,0.0324,0.013523,0.002678,0.000431,0.000705
94630000,0.0324,0.013523,0.002678,0.000431,0.000940
94631000,0.0324,0.013523,0.002678,0.000431,0.000940
94632000,0.0324,0.013523,0.002678,0.000431,0.000705
94633000,0.0324,0.013523,0.002678,0.000431,0.000940
94634000,0.0324,0.013523,0.002678,0.000431,0.000705
94635000,0.0324,0.013523,0.002678,0.000431,0.000940
94636000,0.0324,0.013523,0.002678,0.000431,0.000823
94637000,0.0324,0.013523,0.002678,0.000431,0.000823
94638000,0.0324,0.013523,0.002678,0.000431,0.000940
94639000,0.0324,0.013523,0.002678,0.000431,0.000705
94640000,0.0324,0.013523,0.002678,0.000431,0.000940
94641000,0.0324,0.013523,0.002678,0.000431,0.000823
94642000,0.0324,0.013523,0.002678,0.000431,0.000823
94643000,0.0324,0.013523,0.002678,0.000431,0.000823
94644000,0.0324,0.013523,0.002678,0.000431,0.000823
94645000,0.0324,0.013523,0.002678,0.000431,0.000940
94646000,0.0324,0.013523,0.002678,0.000431,0.000705
94647000,0.0324,0.013523,0.002678,0.000431,0.000940
94648000,0.0324,0.013523,0.002678,0.000431,0.000823
94649000,0.0324,0.013523,0.002678,0.000431,0.000823
94650000,0.0324,0.013523,0.002678,0.000431,0.000823
94651000,0.0324,0.013523,0.002678,0.000431,0.000823
94652000,0.0324,0.013523,0.002678,0.000431,0.000705
94653000,0.0324,0.013523,0.002678,0.000431,0.000940
94654000,0.0324,0.013523,0.002678,0.000431,0.000940
94655000,0.0324,0.013523,0.002678,0.000431,0.000705
94656000,0.0324,0.013523,0.002678,0.000431,0.000940
94657000,0.0324,0.013523,0.002678,0.000431,0.000705
94658000,0.0324,0.013523,0.002678,0.000431,0.000940
94659000,0.0324,0.013523,0.002678,0.000431,0.000823
94660000,0.0324,0.013523,0.002678,0.000431,0.000823
94661000,0.0324,0.013523,0.002678,0.000431,0.000940
94662000,0.0324,0.013523,0.002678,0.000431,0.000705
94663000,0.0324,0.013523,0.002678,0.000431,0.000940
94664000,0.0324,0.013523,0.002678,0.000431,0.000823
94665000,0.0324,0.013523,0.002678,0.000431,0.000823
94666000,0.0324,0.013523,0.002678,0.000431,0.000823
94667000,0.0324,0.013523,0.002678,0.000431,0.000823
94668000,0.0324,0.013523,0.002678,0.000431,0.000823
94669000,0.0324,0.013523,0.002678,0.000431,0.000823
94670000,0.0324,0.013523,0.002678,0.000431,0.000940
94671000,0.0324,0.013523,0.002678,0.000431,0.000705
94672000,0.0324,0.013523,0.002678,0.000431,0.000823
94673000,0.0324,0.013523,0.002678,0.000431,0.000940
94674000,0.0324,0.013523,0.002678,0.000431,0.000823
94675000,0.0324,0.013523,0.002678,0.000431,0.000823
94676000,0.0324,0.013523,0.002678,0.000431,0.000823
94677000,0.0324,0.013523,0.002678,0.000431,0.000705
94678000,0.0324,0.013523,0.002678,0.000431,0.000940
94679000,0.0324,0.013523,0.002678,0.000431,0.000940
94680000,0.0324,0.013523,0.002678,0.000431,0.000705
94681000,0.0324,0.013523,0.002678,0.000431,0.000940
94682000,0.0324,0.013523,0.002678,0.000431,0.000705
94683000,0.0324,0.013523,0.002678,0.000431,0.000940
94684000,0.0324,0.013523,0.002678,0.000431,0.000940
94685000,0.0324,0.013523,0.002678,0.000431,0.000705
94686000,0.0324,0.013523,0.002678,0.000431,0.000940
94687000,0.0324,0.013523,0.002678,0.000431,0.000705
94688000,0.0324,0.013523,0.002678,0.000431,0.000940
94689000,0.0324,0.013523,0.002678,0.000431,0.000823
94690000,0.0324,0.013523,0.002678,0.000431,0.000823
94691000,0.0324,0.013523,0.002678,0.000431,0.000823
94692000,0.0324,0.013523,0.002678,0.000431,0.000823
94693000,0.0324,0.013523,0.002678,0.000431,0.000940
94694000,0.0324,0.013523,0.002678,0.000431,0.000823
94695000,0.0324,0.013523,0.002678,0.000431,0.000823
94696000,0.0324,0.013523,0.002678,0.000431,0.000823
94697000,0.0324,0.013523,0.002678,0.000431,0.000823
94698000,0.0324,0.013523,0.002678,0.000431,0.000823
94699000,0.0324,0.013523,0.002678,0.000431,0.000823
94700000,0.0324,0.013523,0.002678,0.000431,0.000940
94701000,0.0324,0.013523,0.002678,0.000431,0.000705
94702000,0.0324,0.013523,0.002678,0.000431,0.000940
94703000,0.0324,0.013523,0.002678,0.000431,0.000823
94704000,0.0324,0.013523,0.002678,0.000431,0.000823
94705000,0.0324,0.013523,0.002678,0.000431,0.000705
94706000,0.0324,0.013523,0.002678,0.000431,0.000940
94707000,0.0324,0.013523,0.002678,0.000431,0.000940
94708000,0.0324,0.013523,0.002678,0.000431,0.000705
94709000,0.0324,0.013523,0.002678,0.000431,0.000940
94710000,0.0324,0.013523,0.002678,0.000431,0.000705
94711000,0.0324,0.013523,0.002678,0.000431,0.000940
94712000,0.0324,0.013523,0.002678,0.000431,0.000823
94713000,0.0324,0.013523,0.002678,0.000431,0.000823
94714000,0.0324,0.013523,0.002678,0.000431,0.000940
94715000,0.0324,0.013523,0.002678,0.000431,0.000705
94716000,0.0324,0.013523,0.002678,0.000431,0.000940
94717000,0.0324,0.013523,0.002678,0.000431,0.000823
94718000,0.0324,0.013523,0.002678,0.000431,0.000823
94719000,0.0324,0.013523,0.002678,0.000431,0.000823
94720000,0.0324,0.013523,0.002678,0.000431,0.000823
94721000,0.0324,0.013523,0.002678,0.000431,0.000823
94722000,0.0324,0.013523,0.002678,0.000431,0.000823
94723000,0.0324,0.013523,0.002678,0.000431,0.000940
94724000,0.0324,0.013523,0.002678,0.000431,0.000705
94725000,0.0324,0.013523,0.002678,0.000431,0.000823
94726000,0.0324,0.013523,0.002678,0.000431,0.000940
94727000,0.0324,0.013523,0.002678,0.000431,0.000823
94728000,0.0324,0.013523,0.002678,0.000431,0.000823
94729000,0.0324,0.013523,0.002678,0.000431,0.000823
94730000,0.0324,0.013523,0.002678,0.000431,0.000823
94731000,0.0324,0.013523,0.002678,0.000431,0.000823
94732000,0.0324,0.013523,0.002678,0.000431,0.000940
94733000,0.0324,0.013523,0.002678,0.000431,0.000823
94734000,0.0324,0.013523,0.002678,0.000431,0.000823
94735000,0.0324,0.013523,0.002678,0.000431,0.000705
94736000,0.0324,0.013523,0.002678,0.000431,0.000940
94737000,0.0324,0.013523,0.002678,0.000431,0.000940
94738000,0.0324,0.013523,0.002678,0.000431,0.000705
94739000,0.0324,0.013523,0.002678,0.000431,0.000940
94740000,0.0324,0.013523,0.002678,0.000431,0.000705
94741000,0.0324,0.013523,0.002678,0.000431,0.000940
94742000,0.0324,0.013523,0.002678,0.000431,0.000823
94743000,0.0324,0.013523,0.002678,0.000431,0.000823
94744000,0.0324,0.013523,0.002678,0.000431,0.000823
94745000,0.0324,0.013523,0.002678,0.000431,0.000823
94746000,0.0324,0.013523,0.002678,0.000431,0.000940
94747000,0.0324,0.013523,0.002678,0.000431,0.000705
94748000,0.0324,0.013523,0.002678,0.000431,0.000940
94749000,0.0324,0.013523,0.002678,0.000431,0.000823
94750000,0.0324,0.013523,0.002678,0.000431,0.000823
94751000,0.0324,0.013523,0.002678,0.000431,0.000823
94752000,0.0324,0.013523,0.002678,0.000431,0.000823
94753000,0.0324,0.013523,0.002678,0.000431,0.000823
94754000,0.0324,0.013523,0.002678,0.000431,0.000823
94755000,0.0324,0.013523,0.002678,0.000431,0.000940
94756000,0.0324,0.013523,0.002678,0.000431,0.000705
94757000,0.0324,0.013523,0.002678,0.000431,0.000940
94758000,0.0324,0.013523,0.002678,0.000431,0.000705
94759000,0.0324,0.013523,0.002678,0.000431,0.000940
94760000,0.0324,0.013523,0.002678,0.000431,0.000823
94761000,0.0324,0.013523,0.002678,0.000431,0.000823
94762000,0.0324,0.013523,0.002678,0.000431,0.000940
94763000,0.0324,0.013523,0.002678,0.000431,0.000705
94764000,0.0324,0.013523,0.002678,0.000431,0.000940
94765000,0.0324,0.013523,0.002678,0.000431,0.000823
94766000,0.0324,0.013523,0.002678,0.000431,0.000823
94767000,0.0324,0.013523,0.002678,0.000431,0.000823
94768000,0.0324,0.013523,0.002678,0.000431,0.000823
94769000,0.0324,0.013523,0.002678,0.000431,0.000940
94770000,0.0324,0.013523,0.002678,0.000431,0.000705
94771000,0.0324,0.013523,0.002678,0.000431,0.000940
94772000,0.0324,0.013523,0.002678,0.000431,0.000823
94773000,0.0324,0.013523,0.002678,0.000431,0.000823
94774000,0.0324,0.013523,0.002678,0.000431,0.000823
94775000,0.0324,0.013523,0.002678,0.000431,0.000823
94776000,0.0324,0.013523,0.002678,0.000431,0.000940
94777000,0.0324,0.013523,0.002678,0.000431,0.000705
94778000,0.0324,0.013523,0.002678,0.000431,0.000823
94779000,0.0324,0.013523,0.002678,0.000431,0.000940
94780000,0.0324,0.013523,0.002678,0.000431,0.000823
94781000,0.0324,0.013523,0.002678,0.000431,0.000823
94782000,0.0324,0.013523,0.002678,0.000431,0.000823
94783000,0.0324,0.013523,0.002678,0.000431,0.000823
94784000,0.0324,0.013523,0.002678,0.000431,0.000823
94785000,0.0324,0.013523,0.002678,0.000431,0.000940
94786000,0.0324,0.013523,0.002678,0.000431,0.000823
94787000,0.0324,0.013523,0.002678,0.000431,0.000823
94788000,0.0324,0.013523,0.002678,0.000431,0.000705
94789000,0.0324,0.013523,0.002678,0.000431,0.000940
94790000,0.0324,0.013523,0.002678,0.000431,0.000940
94791000,0.0324,0.013523,0.002678,0.000431,0.000705
94792000,0.0324,0.013523,0.002678,0.000431,0.000940
94793000,0.0324,0.013523,0.002678,0.000431,0.000705
94794000,0.0324,0.013523,0.002678,0.000431,0.000940
94795000,0.0324,0.013523,0.002678,0.000431,0.000823
94796000,0.0324,0.013523,0.002678,0.000431,0.000823
94797000,0.0324,0.013523,0.002678,0.000431,0.000940
94798000,0.0324,0.013523,0.002678,0.000431,0.000705
94799000,0.0324,0.013523,0.002678,0.000431,0.000940
94800000,0.0324,0.013523,0.002678,0.000431,0.000823
94801000,0.0324,0.013523,0.002678,0.000431,0.000823
94802000,0.0324,0.013523,0.002678,0.000431,0.000823
94803000,0.0324,0.013523,0.002678,0.000431,0.000823
94804000,0.0324,0.013523,0.002678,0.000431,0.000940
94805000,0.0324,0.013523,0.002678,0.000431,0.000705
94806000,0.0324,0.013523,0.002678,0.000431,0.000940
94807000,0.0324,0.013523,0.002678,0.000431,0.000823
94808000,0.0324,0.013523,0.002678,0.000431,0.000823
94809000,0.0324,0.013523,0.002678,0.000431,0.000823
94810000,0.0324,0.013523,0.002678,0.000431,0.000823
94811000,0.0324,0.013523,0.002678,0.000431,0.000940
94812000,0.0324,0.013523,0.002678,0.000431,0.000705
94813000,0.0324,0.013523,0.002678,0.000431,0.000940
94814000,0.0324,0.013523,0.002678,0.000431,0.000823
94815000,0.0324,0.013523,0.002678,0.000431,0.000823
94816000,0.0324,0.013523,0.002678,0.000431,0.000705
94817000,0.0324,0.013523,0.002678,0.000431,0.000940
94818000,0.0324,0.013523,0.002678,0.000431,0.000940
94819000,0.0324,0.013523,0.002678,0.000431,0.000705
94820000,0.0324,0.013523,0.002678,0.000431,0.000940
94821000,0.0324,0.013523,0.002678,0.000431,0.000705
94822000,0.0324,0.013523,0.002678,0.000431,0.000940
94823000,0.0324,0.013523,0.002678,0.000431,0.000823
94824000,0.0324,0.013523,0.002678,0.000431,0.000823
94825000,0.0324,0.013523,0.002678,0.000431,0.000940
94826000,0.0324,0.013523,0.002678,0.000431,0.000705
94827000,0.0324,0.013523,0.002678,0.000431,0.000940
94828000,0.0324,0.013523,0.002678,0.000431,0.000823
94829000,0.0324,0.013523,0.002678,0.000431,0.000823
94830000,0.0324,0.013523,0.002678,0.000431,0.000823
94831000,0.0324,0.013523,0.002678,0.000431,0.000823
94832000,0.0324,0.013523,0.002678,0.000431,0.000940
94833000,0.0324,0.013523,0.002678,0.000431,0.000705
94834000,0.0324,0.013523,0.002678,0.000431,0.000940
94835000,0.0324,0.013523,0.002678,0.000431,0.000823
94836000,0.0324,0.013523,0.002678,0.000431,0.000823
94837000,0.0324,0.013523,0.002678,0.000431,0.000823
94838000,0.0324,0.013523,0.002678,0.000431,0.000823
94839000,0.0324,0.013523,0.002678,0.000431,0.000940
94840000,0.0324,0.013523,0.002678,0.000431,0.000705
94841000,0.0324,0.013523,0.002678,0.000431,0.000823
94842000,0.0324,0.013523,0.002678,0.000431,0.000940
94843000,0.0324,0.013523,0.002678,0.000431,0.000823
94844000,0.0324,0.013523,0.002678,0.000431,0.000823
94845000,0.0324,0.013523,0.002678,0.000431,0.000823
94846000,0.0324,0.013523,0.002678,0.000431,0.000823
94847000,0.0324,0.013523,0.002678,0.000431,0.000823
94848000,0.0324,0.013523,0.002678,0.000431,0.000940
94849000,0.0324,0.013523,0.002678,0.000431,0.000823
94850000,0.0324,0.013523,0.002678,0.000431,0.000823
94851000,0.0324,0.013523,0.002678,0.000431,0.000705
94852000,0.0324,0.013523,0.002678,0.000431,0.000940
94853000,0.0324,0.013523,0.002678,0.000431,0.000940
94854000,0.0324,0.013523,0.002678,0.000431,0.000705
94855000,0.0324,0.013523,0.002678,0.000431,0.000940
94856000,0.0324,0.013523,0.002678,0.000431,0.000705
94857000,0.0324,0.013523,0.002678,0.000431,0.000940
94858000,0.0324,0.013523,0.002678,0.000431,0.000823
94859000,0.0324,0.013523,0.002678,0.000431,0.000823
94860000,0.0324,0.013523,0.002678,0.000431,0.000940
94861000,0.0324,0.013523,0.002678,0.000431,0.000705
94862000,0.0324,0.013523,0.002678,0.000431,0.000940
94863000,0.0324,0.013523,0.002678,0.000431,0.000823
94864000,0.0324,0.013523,0.002678,0.000431,0.000823
94865000,0.0324,0.013523,0.002678,0.000431,0.000823
94866000,0.0324,0.013523,0.002678,0.000431,0.000823
94867000,0.0324,0.013523,0.002678,0.000431,0.000940
94868000,0.0324,0.013523,0.002678,0.000431,0.000705
94869000,0.0324,0.013523,0.002678,0.000431,0.000940
94870000,0.0324,0.013523,0.002678,0.000431,0.000823
94871000,0.0324,0.013523,0.002678,0.000431,0.000823
94872000,0.0324,0.013523,0.002678,0.000431,0.000823
94873000,0.0324,0.013523,0.002678,0.000431,0.000823
94874000,0.0324,0.013523,0.002678,0.000431,0.000823
94875000,0.0324,0.013523,0.002678,0.000431,0.000823
94876000,0.0324,0.013523,0.002678,0.000431,0.000940
94877000,0.0324,0.013523,0.002678,0.000431,0.000705
94878000,0.0324,0.013523,0.002678,0.000431,0.000940
94879000,0.0324,0.013523,0.002678,0.000431,0.000705
94880000,0.0324,0.013523,0.002678,0.000431,0.000940
94881000,0.0324,0.013523,0.002678,0.000431,0.000940
94882000,0.0324,0.013523,0.002678,0.000431,0.000705
94883000,0.0324,0.013523,0.002678,0.000431,0.000940
94884000,0.0324,0.013523,0.002678,0.000431,0.000705
94885000,0.0324,0.013523,0.002678,0.000431,0.000940
94886000,0.0324,0.013523,0.002678,0.000431,0.000823
94887000,0.0324,0.013523,0.002678,0.000431,0.000823
94888000,0.0324,0.013523,0.002678,0.000431,0.000940
94889000,0.0324,0.013523,0.002678,0.000431,0.000705
94890000,0.0324,0.013523,0.002678,0.000431,0.000940
94891000,0.0324,0.013523,0.002678,0.000431,0.000823
94892000,0.0324,0.013523,0.002678,0.000431,0.000823
94893000,0.0324,0.013523,0.002678,0.000431,0.000823
94894000,0.0324,0.013523,0.002678,0.000431,0.000823
94895000,0.0324,0.013523,0.002678,0.000431,0.000940
94896000,0.0324,0.013523,0.002678,0.000431,0.000705
94897000,0.0324,0.013523,0.002678,0.000431,0.000940
94898000,0.0324,0.013523,0.002678,0.000431,0.000823
94899000,0.0324,0.013523,0.002678,0.000431,0.000823
94900000,0.0324,0.013523,0.002678,0.000431,0.000823
94901000,0.0324,0.013523,0.002678,0.000431,0.000823
94902000,0.0324,0.013523,0.002678,0.000431,0.000823
94903000,0.0324,0.013523,0.002678,0.000431,0.000823
94904000,0.0324,0.013523,0.002678,0.000431,0.000823
94905000,0.0324,0.013523,0.002678,0.000431,0.000823
94906000,0.0324,0.013523,0.002678,0.000431,0.071105
94907000,0.0324,0.013523,0.002678,0.000431,0.460828
94908000,0.0324,0.013523,0.002678,0.000431,0.592225
94909000,0.0324,0.013523,0.002678,0.000431,0.131161
94910000,0.0324,0.013523,0.002678,0.000431,0.136215
94911000,0.0324,0.013523,0.002678,0.000431,0.634300
94912000,0.0324,0.013523,0.002678,0.000431,0.227417
94913000,0.0324,0.013523,0.002678,0.000431,0.282068
94914000,0.0324,0.013523,0.002678,0.000431,0.273841
94915000,0.0324,0.013523,0.002678,0.000431,0.143384
94916000,0.0324,0.013523,0.002678,0.000431,0.153257
94917000,0.0324,0.013523,0.002678,0.000431,0.104247
94918000,0.0324,0.013523,0.002678,0.000431,0.407235
94919000,0.0324,0.013523,0.002678,0.000431,0.135980
94920000,0.0324,0.013523,0.002678,0.000431,0.015279
94921000,0.0324,0.013523,0.002678,0.000431,0.010460
94922000,0.0324,0.013523,0.002678,0.000431,0.009990
94923000,0.0324,0.013523,0.002678,0.000431,0.009167
94924000,0.0324,0.013523,0.002678,0.000431,0.006229
94925000,0.0324,0.013523,0.002678,0.000431,0.005406
94926000,0.0324,0.013523,0.002678,0.000431,0.005994
94927000,0.0324,0.013523,0.002678,0.000431,0.005524
94928000,0.0324,0.013523,0.002678,0.000431,0.004936
94929000,0.0324,0.013523,0.002678,0.000431,0.007757
94930000,0.0324,0.013523,0.002678,0.000431,0.002468
94931000,0.0324,0.013523,0.002678,0.000431,0.003408
94932000,0.0324,0.013523,0.002678,0.000431,0.000940
94933000,0.0324,0.013523,0.002678,0.000431,0.000705
94934000,0.0324,0.013523,0.002678,0.000431,0.000940
94935000,0.0324,0.013523,0.002678,0.000431,0.000823
94936000,0.0324,0.013523,0.002678,0.000431,0.000823
94937000,0.0324,0.013523,0.002678,0.000431,0.000823
94938000,0.0324,0.013523,0.002678,0.000431,0.000823
94939000,0.0324,0.013523,0.002678,0.000431,0.000823
94940000,0.0324,0.013523,0.002678,0.000431,0.000823
94941000,0.0324,0.013523,0.002678,0.000431,0.000940
94942000,0.0324,0.013523,0.002678,0.000431,0.000705
94943000,0.0324,0.013523,0.002678,0.000431,0.000940
94944000,0.0324,0.013523,0.002678,0.000431,0.000823
94945000,0.0324,0.013523,0.002678,0.000431,0.000823
94946000,0.0324,0.013523,0.002678,0.000431,0.000705
94947000,0.0324,0.013523,0.002678,0.000431,0.000940
94948000,0.0324,0.013523,0.002678,0.000431,0.000940
94949000,0.0324,0.013523,0.002678,0.000431,0.000705
94950000,0.0324,0.013523,0.002678,0.000431,0.000940
94951000,0.0324,0.013523,0.002678,0.000431,0.000705
94952000,0.0324,0.013523,0.002678,0.000431,0.000940
94953000,0.0324,0.013523,0.002678,0.000431,0.000823
94954000,0.0324,0.013523,0.002678,0.000431,0.000823
94955000,0.0324,0.013523,0.002678,0.000431,0.000940
94956000,0.0324,0.013523,0.002678,0.000431,0.000705
94957000,0.0324,0.013523,0.002678,0.000431,0.000940
94958000,0.0324,0.013523,0.002678,0.000431,0.000823
94959000,0.0324,0.013523,0.002678,0.000431,0.000823
94960000,0.0324,0.013523,0.002678,0.000431,0.000823
94961000,0.0324,0.013523,0.002678,0.000431,0.000823
94962000,0.0324,0.013523,0.002678,0.000431,0.000823
94963000,0.0324,0.013523,0.002678,0.000431,0.000823
94964000,0.0324,0.013523,0.002678,0.000431,0.000705
94965000,0.0324,0.013523,0.002678,0.000431,0.006817
94966000,0.0324,0.013523,0.002678,0.000431,0.393367
94967000,0.0324,0.013523,0.002678,0.000431,0.617963
94968000,0.0324,0.013523,0.002678,0.000431,0.131514
94969000,0.0324,0.013523,0.002678,0.000431,0.133159
94970000,0.0324,0.013523,0.002678,0.000431,0.137978
94971000,0.0324,0.013523,0.002678,0.000431,0.600334
94972000,0.0324,0.013523,0.002678,0.000431,0.242108
94973000,0.0324,0.013523,0.002678,0.000431,0.269962
94974000,0.0324,0.013523,0.002678,0.000431,0.266671
94975000,0.0324,0.013523,0.002678,0.000431,0.137273
94976000,0.0324,0.013523,0.002678,0.000431,0.146323
94977000,0.0324,0.013523,0.002678,0.000431,0.100252
94978000,0.0324,0.013523,0.002678,0.000431,0.407000
94979000,0.0324,0.013523,0.002678,0.000431,0.152199
94980000,0.0324,0.013523,0.002678,0.000431,0.001763
94981000,0.0324,0.013523,0.002678,0.000431,0.001880
94982000,0.0324,0.013523,0.002678,0.000431,0.001528
94983000,0.0324,0.013523,0.002678,0.000431,0.001880
94984000,0.0324,0.013523,0.002678,0.000431,0.001763
94985000,0.0324,0.013523,0.002678,0.000431,0.001763
94986000,0.0324,0.013523,0.002678,0.000431,0.001645
94987000,0.0324,0.013523,0.002678,0.000431,0.001880
94988000,0.0324,0.013523,0.002678,0.000431,0.001880
94989000,0.0324,0.013523,0.002678,0.000431,0.001528
94990000,0.0324,0.013523,0.002678,0.000431,0.001763
94991000,0.0324,0.013523,0.002678,0.000431,0.001880
94992000,0.0324,0.013523,0.002678,0.000431,0.001645
94993000,0.0324,0.013523,0.002678,0.000431,0.001763
94994000,0.0324,0.013523,0.002678,0.000431,0.001763
94995000,0.0324,0.013523,0.002678,0.000431,0.001763
94996000,0.0324,0.013523,0.002678,0.000431,0.001763
94997000,0.0324,0.013523,0.002678,0.000431,0.001645
94998000,0.0324,0.013523,0.002678,0.000431,0.002468
94999000,0.0324,0.013523,0.002678,0.000431,0.000940
