Cycle,Area(mm^2),PeakDynamic(W),SubthresholdLeakage(W),GateLeakage(W),RunTimeDynamic(W)
67000000,0.0324,0.013523,0.002678,0.000431,0.005406
67001000,0.0324,0.013523,0.002678,0.000431,0.007169
67002000,0.0324,0.013523,0.002678,0.000431,0.004113
67003000,0.0324,0.013523,0.002678,0.000431,0.004113
67004000,0.0324,0.013523,0.002678,0.000431,0.004349
67005000,0.0324,0.013523,0.002678,0.000431,0.005406
67006000,0.0324,0.013523,0.002678,0.000431,0.002116
67007000,0.0324,0.013523,0.002678,0.000431,0.002821
67008000,0.0324,0.013523,0.002678,0.000431,0.002586
67009000,0.0324,0.013523,0.002678,0.000431,0.002586
67010000,0.0324,0.013523,0.002678,0.000431,0.002586
67011000,0.0324,0.013523,0.002678,0.000431,0.002586
67012000,0.0324,0.013523,0.002678,0.000431,0.002586
67013000,0.0324,0.013523,0.002678,0.000431,0.002351
67014000,0.0324,0.013523,0.002678,0.000431,0.002821
67015000,0.0324,0.013523,0.002678,0.000431,0.002703
67016000,0.0324,0.013523,0.002678,0.000431,0.002468
67017000,0.0324,0.013523,0.002678,0.000431,0.002468
67018000,0.0324,0.013523,0.002678,0.000431,0.002703
67019000,0.0324,0.013523,0.002678,0.000431,0.002586
67020000,0.0324,0.013523,0.002678,0.000431,0.002586
67021000,0.0324,0.013523,0.002678,0.000431,0.002586
67022000,0.0324,0.013523,0.002678,0.000431,0.002703
67023000,0.0324,0.013523,0.002678,0.000431,0.002468
67024000,0.0324,0.013523,0.002678,0.000431,0.002468
67025000,0.0324,0.013523,0.002678,0.000431,0.002703
67026000,0.0324,0.013523,0.002678,0.000431,0.002468
67027000,0.0324,0.013523,0.002678,0.000431,0.002703
67028000,0.0324,0.013523,0.002678,0.000431,0.002468
67029000,0.0324,0.013523,0.002678,0.000431,0.002703
67030000,0.0324,0.013523,0.002678,0.000431,0.002586
67031000,0.0324,0.013523,0.002678,0.000431,0.002468
67032000,0.0324,0.013523,0.002678,0.000431,0.002703
67033000,0.0324,0.013523,0.002678,0.000431,0.002586
67034000,0.0324,0.013523,0.002678,0.000431,0.002351
67035000,0.0324,0.013523,0.002678,0.000431,0.002821
67036000,0.0324,0.013523,0.002678,0.000431,0.002586
67037000,0.0324,0.013523,0.002678,0.000431,0.002586
67038000,0.0324,0.013523,0.002678,0.000431,0.002351
67039000,0.0324,0.013523,0.002678,0.000431,0.002821
67040000,0.0324,0.013523,0.002678,0.000431,0.002703
67041000,0.0324,0.013523,0.002678,0.000431,0.002233
67042000,0.0324,0.013523,0.002678,0.000431,0.002821
67043000,0.0324,0.013523,0.002678,0.000431,0.002586
67044000,0.0324,0.013523,0.002678,0.000431,0.002821
67045000,0.0324,0.013523,0.002678,0.000431,0.001645
67046000,0.0324,0.013523,0.002678,0.000431,0.001763
67047000,0.0324,0.013523,0.002678,0.000431,0.001763
67048000,0.0324,0.013523,0.002678,0.000431,0.001645
67049000,0.0324,0.013523,0.002678,0.000431,0.001763
67050000,0.0324,0.013523,0.002678,0.000431,0.001645
67051000,0.0324,0.013523,0.002678,0.000431,0.001880
67052000,0.0324,0.013523,0.002678,0.000431,0.001528
67053000,0.0324,0.013523,0.002678,0.000431,0.001763
67054000,0.0324,0.013523,0.002678,0.000431,0.001763
67055000,0.0324,0.013523,0.002678,0.000431,0.001645
67056000,0.0324,0.013523,0.002678,0.000431,0.001645
67057000,0.0324,0.013523,0.002678,0.000431,0.001763
67058000,0.0324,0.013523,0.002678,0.000431,0.001763
67059000,0.0324,0.013523,0.002678,0.000431,0.001645
67060000,0.0324,0.013523,0.002678,0.000431,0.001763
67061000,0.0324,0.013523,0.002678,0.000431,0.001645
67062000,0.0324,0.013523,0.002678,0.000431,0.001763
67063000,0.0324,0.013523,0.002678,0.000431,0.001880
67064000,0.0324,0.013523,0.002678,0.000431,0.001528
67065000,0.0324,0.013523,0.002678,0.000431,0.001763
67066000,0.0324,0.013523,0.002678,0.000431,0.001763
67067000,0.0324,0.013523,0.002678,0.000431,0.001528
67068000,0.0324,0.013523,0.002678,0.000431,0.001763
67069000,0.0324,0.013523,0.002678,0.000431,0.001880
67070000,0.0324,0.013523,0.002678,0.000431,0.001528
67071000,0.0324,0.013523,0.002678,0.000431,0.001880
67072000,0.0324,0.013523,0.002678,0.000431,0.001528
67073000,0.0324,0.013523,0.002678,0.000431,0.001880
67074000,0.0324,0.013523,0.002678,0.000431,0.001763
67075000,0.0324,0.013523,0.002678,0.000431,0.001998
67076000,0.0324,0.013523,0.002678,0.000431,0.002468
67077000,0.0324,0.013523,0.002678,0.000431,0.000940
67078000,0.0324,0.013523,0.002678,0.000431,0.000823
67079000,0.0324,0.013523,0.002678,0.000431,0.000823
67080000,0.0324,0.013523,0.002678,0.000431,0.000940
67081000,0.0324,0.013523,0.002678,0.000431,0.000940
67082000,0.0324,0.013523,0.002678,0.000431,0.000705
67083000,0.0324,0.013523,0.002678,0.000431,0.000940
67084000,0.0324,0.013523,0.002678,0.000431,0.000940
67085000,0.0324,0.013523,0.002678,0.000431,0.000940
67086000,0.0324,0.013523,0.002678,0.000431,0.000705
67087000,0.0324,0.013523,0.002678,0.000431,0.000940
67088000,0.0324,0.013523,0.002678,0.000431,0.000940
67089000,0.0324,0.013523,0.002678,0.000431,0.000823
67090000,0.0324,0.013523,0.002678,0.000431,0.000940
67091000,0.0324,0.013523,0.002678,0.000431,0.000823
67092000,0.0324,0.013523,0.002678,0.000431,0.000940
67093000,0.0324,0.013523,0.002678,0.000431,0.000823
67094000,0.0324,0.013523,0.002678,0.000431,0.000823
67095000,0.0324,0.013523,0.002678,0.000431,0.000940
67096000,0.0324,0.013523,0.002678,0.000431,0.000940
67097000,0.0324,0.013523,0.002678,0.000431,0.000823
67098000,0.0324,0.013523,0.002678,0.000431,0.000823
67099000,0.0324,0.013523,0.002678,0.000431,0.000940
67100000,0.0324,0.013523,0.002678,0.000431,0.000823
67101000,0.0324,0.013523,0.002678,0.000431,0.000823
67102000,0.0324,0.013523,0.002678,0.000431,0.000940
67103000,0.0324,0.013523,0.002678,0.000431,0.000940
67104000,0.0324,0.013523,0.002678,0.000431,0.000823
67105000,0.0324,0.013523,0.002678,0.000431,0.000823
67106000,0.0324,0.013523,0.002678,0.000431,0.000940
67107000,0.0324,0.013523,0.002678,0.000431,0.000823
67108000,0.0324,0.013523,0.002678,0.000431,0.000940
67109000,0.0324,0.013523,0.002678,0.000431,0.000823
67110000,0.0324,0.013523,0.002678,0.000431,0.000940
67111000,0.0324,0.013523,0.002678,0.000431,0.000823
67112000,0.0324,0.013523,0.002678,0.000431,0.000823
67113000,0.0324,0.013523,0.002678,0.000431,0.000940
67114000,0.0324,0.013523,0.002678,0.000431,0.000940
67115000,0.0324,0.013523,0.002678,0.000431,0.000823
67116000,0.0324,0.013523,0.002678,0.000431,0.000823
67117000,0.0324,0.013523,0.002678,0.000431,0.000940
67118000,0.0324,0.013523,0.002678,0.000431,0.000940
67119000,0.0324,0.013523,0.002678,0.000431,0.000823
67120000,0.0324,0.013523,0.002678,0.000431,0.000823
67121000,0.0324,0.013523,0.002678,0.000431,0.000940
67122000,0.0324,0.013523,0.002678,0.000431,0.000823
67123000,0.0324,0.013523,0.002678,0.000431,0.000940
67124000,0.0324,0.013523,0.002678,0.000431,0.000823
67125000,0.0324,0.013523,0.002678,0.000431,0.000940
67126000,0.0324,0.013523,0.002678,0.000431,0.000823
67127000,0.0324,0.013523,0.002678,0.000431,0.000823
67128000,0.0324,0.013523,0.002678,0.000431,0.000940
67129000,0.0324,0.013523,0.002678,0.000431,0.000940
67130000,0.0324,0.013523,0.002678,0.000431,0.000823
67131000,0.0324,0.013523,0.002678,0.000431,0.000823
67132000,0.0324,0.013523,0.002678,0.000431,0.000940
67133000,0.0324,0.013523,0.002678,0.000431,0.000940
67134000,0.0324,0.013523,0.002678,0.000431,0.000705
67135000,0.0324,0.013523,0.002678,0.000431,0.000940
67136000,0.0324,0.013523,0.002678,0.000431,0.000940
67137000,0.0324,0.013523,0.002678,0.000431,0.000940
67138000,0.0324,0.013523,0.002678,0.000431,0.000705
67139000,0.0324,0.013523,0.002678,0.000431,0.000940
67140000,0.0324,0.013523,0.002678,0.000431,0.000940
67141000,0.0324,0.013523,0.002678,0.000431,0.000940
67142000,0.0324,0.013523,0.002678,0.000431,0.210023
67143000,0.0324,0.013523,0.002678,0.000431,0.586936
67144000,0.0324,0.013523,0.002678,0.000431,0.327669
67145000,0.0324,0.013523,0.002678,0.000431,0.131161
67146000,0.0324,0.013523,0.002678,0.000431,0.133512
67147000,0.0324,0.013523,0.002678,0.000431,0.568366
67148000,0.0324,0.013523,0.002678,0.000431,0.246574
67149000,0.0324,0.013523,0.002678,0.000431,0.221188
67150000,0.0324,0.013523,0.002678,0.000431,0.330842
67151000,0.0324,0.013523,0.002678,0.000431,0.138683
67152000,0.0324,0.013523,0.002678,0.000431,0.137626
67153000,0.0324,0.013523,0.002678,0.000431,0.126930
67154000,0.0324,0.013523,0.002678,0.000431,0.289589
67155000,0.0324,0.013523,0.002678,0.000431,0.292058
67156000,0.0324,0.013523,0.002678,0.000431,0.023153
67157000,0.0324,0.013523,0.002678,0.000431,0.014456
67158000,0.0324,0.013523,0.002678,0.000431,0.008227
67159000,0.0324,0.013523,0.002678,0.000431,0.012693
67160000,0.0324,0.013523,0.002678,0.000431,0.007639
67161000,0.0324,0.013523,0.002678,0.000431,0.006229
67162000,0.0324,0.013523,0.002678,0.000431,0.004584
67163000,0.0324,0.013523,0.002678,0.000431,0.003996
67164000,0.0324,0.013523,0.002678,0.000431,0.004466
67165000,0.0324,0.013523,0.002678,0.000431,0.003996
67166000,0.0324,0.013523,0.002678,0.000431,0.004349
67167000,0.0324,0.013523,0.002678,0.000431,0.004349
67168000,0.0324,0.013523,0.002678,0.000431,0.003996
67169000,0.0324,0.013523,0.002678,0.000431,0.004349
67170000,0.0324,0.013523,0.002678,0.000431,0.005759
67171000,0.0324,0.013523,0.002678,0.000431,0.003408
67172000,0.0324,0.013523,0.002678,0.000431,0.003291
67173000,0.0324,0.013523,0.002678,0.000431,0.003526
67174000,0.0324,0.013523,0.002678,0.000431,0.003408
67175000,0.0324,0.013523,0.002678,0.000431,0.003173
67176000,0.0324,0.013523,0.002678,0.000431,0.003408
67177000,0.0324,0.013523,0.002678,0.000431,0.003291
67178000,0.0324,0.013523,0.002678,0.000431,0.003526
67179000,0.0324,0.013523,0.002678,0.000431,0.003291
67180000,0.0324,0.013523,0.002678,0.000431,0.003291
67181000,0.0324,0.013523,0.002678,0.000431,0.003173
67182000,0.0324,0.013523,0.002678,0.000431,0.004819
67183000,0.0324,0.013523,0.002678,0.000431,0.002586
67184000,0.0324,0.013523,0.002678,0.000431,0.002468
67185000,0.0324,0.013523,0.002678,0.000431,0.002468
67186000,0.0324,0.013523,0.002678,0.000431,0.002233
67187000,0.0324,0.013523,0.002678,0.000431,0.005289
67188000,0.0324,0.013523,0.002678,0.000431,0.001880
67189000,0.0324,0.013523,0.002678,0.000431,0.001410
67190000,0.0324,0.013523,0.002678,0.000431,0.001880
67191000,0.0324,0.013523,0.002678,0.000431,0.001410
67192000,0.0324,0.013523,0.002678,0.000431,0.002938
67193000,0.0324,0.013523,0.002678,0.000431,0.000940
67194000,0.0324,0.013523,0.002678,0.000431,0.000705
67195000,0.0324,0.013523,0.002678,0.000431,0.000940
67196000,0.0324,0.013523,0.002678,0.000431,0.000705
67197000,0.0324,0.013523,0.002678,0.000431,0.000940
67198000,0.0324,0.013523,0.002678,0.000431,0.000823
67199000,0.0324,0.013523,0.002678,0.000431,0.000823
67200000,0.0324,0.013523,0.002678,0.000431,0.000823
67201000,0.0324,0.013523,0.002678,0.000431,0.000823
67202000,0.0324,0.013523,0.002678,0.000431,0.000940
67203000,0.0324,0.013523,0.002678,0.000431,0.000705
67204000,0.0324,0.013523,0.002678,0.000431,0.000940
67205000,0.0324,0.013523,0.002678,0.000431,0.000705
67206000,0.0324,0.013523,0.002678,0.000431,0.000940
67207000,0.0324,0.013523,0.002678,0.000431,0.000823
67208000,0.0324,0.013523,0.002678,0.000431,0.000823
67209000,0.0324,0.013523,0.002678,0.000431,0.000823
67210000,0.0324,0.013523,0.002678,0.000431,0.000823
67211000,0.0324,0.013523,0.002678,0.000431,0.000940
67212000,0.0324,0.013523,0.002678,0.000431,0.000705
67213000,0.0324,0.013523,0.002678,0.000431,0.000940
67214000,0.0324,0.013523,0.002678,0.000431,0.000705
67215000,0.0324,0.013523,0.002678,0.000431,0.000940
67216000,0.0324,0.013523,0.002678,0.000431,0.000823
67217000,0.0324,0.013523,0.002678,0.000431,0.000823
67218000,0.0324,0.013523,0.002678,0.000431,0.001880
67219000,0.0324,0.013523,0.002678,0.000431,0.291235
67220000,0.0324,0.013523,0.002678,0.000431,0.622547
67221000,0.0324,0.013523,0.002678,0.000431,0.222011
67222000,0.0324,0.013523,0.002678,0.000431,0.130691
67223000,0.0324,0.013523,0.002678,0.000431,0.134452
67224000,0.0324,0.013523,0.002678,0.000431,0.577886
67225000,0.0324,0.013523,0.002678,0.000431,0.233058
67226000,0.0324,0.013523,0.002678,0.000431,0.225654
67227000,0.0324,0.013523,0.002678,0.000431,0.303458
67228000,0.0324,0.013523,0.002678,0.000431,0.149496
67229000,0.0324,0.013523,0.002678,0.000431,0.143267
67230000,0.0324,0.013523,0.002678,0.000431,0.129046
67231000,0.0324,0.013523,0.002678,0.000431,0.245046
67232000,0.0324,0.013523,0.002678,0.000431,0.372212
67233000,0.0324,0.013523,0.002678,0.000431,0.080389
67234000,0.0324,0.013523,0.002678,0.000431,0.067344
67235000,0.0324,0.013523,0.002678,0.000431,0.057941
67236000,0.0324,0.013523,0.002678,0.000431,0.055121
67237000,0.0324,0.013523,0.002678,0.000431,0.044896
67238000,0.0324,0.013523,0.002678,0.000431,0.044426
67239000,0.0324,0.013523,0.002678,0.000431,0.033613
67240000,0.0324,0.013523,0.002678,0.000431,0.023388
67241000,0.0324,0.013523,0.002678,0.000431,0.017042
67242000,0.0324,0.013523,0.002678,0.000431,0.018099
67243000,0.0324,0.013523,0.002678,0.000431,0.015044
67244000,0.0324,0.013523,0.002678,0.000431,0.014691
67245000,0.0324,0.013523,0.002678,0.000431,0.011400
67246000,0.0324,0.013523,0.002678,0.000431,0.010695
67247000,0.0324,0.013523,0.002678,0.000431,0.012811
67248000,0.0324,0.013523,0.002678,0.000431,0.015749
67249000,0.0324,0.013523,0.002678,0.000431,0.008345
67250000,0.0324,0.013523,0.002678,0.000431,0.008697
67251000,0.0324,0.013523,0.002678,0.000431,0.008697
67252000,0.0324,0.013523,0.002678,0.000431,0.008580
67253000,0.0324,0.013523,0.002678,0.000431,0.007404
67254000,0.0324,0.013523,0.002678,0.000431,0.007874
67255000,0.0324,0.013523,0.002678,0.000431,0.007404
67256000,0.0324,0.013523,0.002678,0.000431,0.007404
67257000,0.0324,0.013523,0.002678,0.000431,0.007757
67258000,0.0324,0.013523,0.002678,0.000431,0.007052
67259000,0.0324,0.013523,0.002678,0.000431,0.007874
67260000,0.0324,0.013523,0.002678,0.000431,0.007169
67261000,0.0324,0.013523,0.002678,0.000431,0.007757
67262000,0.0324,0.013523,0.002678,0.000431,0.007404
67263000,0.0324,0.013523,0.002678,0.000431,0.008815
67264000,0.0324,0.013523,0.002678,0.000431,0.008697
67265000,0.0324,0.013523,0.002678,0.000431,0.006699
67266000,0.0324,0.013523,0.002678,0.000431,0.005524
67267000,0.0324,0.013523,0.002678,0.000431,0.004349
67268000,0.0324,0.013523,0.002678,0.000431,0.005171
67269000,0.0324,0.013523,0.002678,0.000431,0.005054
67270000,0.0324,0.013523,0.002678,0.000431,0.004584
67271000,0.0324,0.013523,0.002678,0.000431,0.005289
67272000,0.0324,0.013523,0.002678,0.000431,0.004701
67273000,0.0324,0.013523,0.002678,0.000431,0.005054
67274000,0.0324,0.013523,0.002678,0.000431,0.007287
67275000,0.0324,0.013523,0.002678,0.000431,0.004113
67276000,0.0324,0.013523,0.002678,0.000431,0.003996
67277000,0.0324,0.013523,0.002678,0.000431,0.004231
67278000,0.0324,0.013523,0.002678,0.000431,0.003878
67279000,0.0324,0.013523,0.002678,0.000431,0.004349
67280000,0.0324,0.013523,0.002678,0.000431,0.003878
67281000,0.0324,0.013523,0.002678,0.000431,0.004113
67282000,0.0324,0.013523,0.002678,0.000431,0.004349
67283000,0.0324,0.013523,0.002678,0.000431,0.003761
67284000,0.0324,0.013523,0.002678,0.000431,0.004466
67285000,0.0324,0.013523,0.002678,0.000431,0.003878
67286000,0.0324,0.013523,0.002678,0.000431,0.004113
67287000,0.0324,0.013523,0.002678,0.000431,0.003878
67288000,0.0324,0.013523,0.002678,0.000431,0.005759
67289000,0.0324,0.013523,0.002678,0.000431,0.003526
67290000,0.0324,0.013523,0.002678,0.000431,0.002821
67291000,0.0324,0.013523,0.002678,0.000431,0.003526
67292000,0.0324,0.013523,0.002678,0.000431,0.004701
67293000,0.0324,0.013523,0.002678,0.000431,0.002586
67294000,0.0324,0.013523,0.002678,0.000431,0.002468
67295000,0.0324,0.013523,0.002678,0.000431,0.002233
67296000,0.0324,0.013523,0.002678,0.000431,0.002468
67297000,0.0324,0.013523,0.002678,0.000431,0.002586
67298000,0.0324,0.013523,0.002678,0.000431,0.002116
67299000,0.0324,0.013523,0.002678,0.000431,0.002468
67300000,0.0324,0.013523,0.002678,0.000431,0.002586
67301000,0.0324,0.013523,0.002678,0.000431,0.002233
67302000,0.0324,0.013523,0.002678,0.000431,0.002703
67303000,0.0324,0.013523,0.002678,0.000431,0.002233
67304000,0.0324,0.013523,0.002678,0.000431,0.002351
67305000,0.0324,0.013523,0.002678,0.000431,0.002233
67306000,0.0324,0.013523,0.002678,0.000431,0.002703
67307000,0.0324,0.013523,0.002678,0.000431,0.002586
67308000,0.0324,0.013523,0.002678,0.000431,0.002116
67309000,0.0324,0.013523,0.002678,0.000431,0.003878
67310000,0.0324,0.013523,0.002678,0.000431,0.001058
67311000,0.0324,0.013523,0.002678,0.000431,0.000940
67312000,0.0324,0.013523,0.002678,0.000431,0.000705
67313000,0.0324,0.013523,0.002678,0.000431,0.000940
67314000,0.0324,0.013523,0.002678,0.000431,0.000705
67315000,0.0324,0.013523,0.002678,0.000431,0.000940
67316000,0.0324,0.013523,0.002678,0.000431,0.000823
67317000,0.0324,0.013523,0.002678,0.000431,0.000823
67318000,0.0324,0.013523,0.002678,0.000431,0.000823
67319000,0.0324,0.013523,0.002678,0.000431,0.000823
67320000,0.0324,0.013523,0.002678,0.000431,0.000940
67321000,0.0324,0.013523,0.002678,0.000431,0.000705
67322000,0.0324,0.013523,0.002678,0.000431,0.000940
67323000,0.0324,0.013523,0.002678,0.000431,0.000823
67324000,0.0324,0.013523,0.002678,0.000431,0.000823
67325000,0.0324,0.013523,0.002678,0.000431,0.000823
67326000,0.0324,0.013523,0.002678,0.000431,0.071457
67327000,0.0324,0.013523,0.002678,0.000431,0.527584
67328000,0.0324,0.013523,0.002678,0.000431,0.576123
67329000,0.0324,0.013523,0.002678,0.000431,0.132572
67330000,0.0324,0.013523,0.002678,0.000431,0.133982
67331000,0.0324,0.013523,0.002678,0.000431,0.580824
67332000,0.0324,0.013523,0.002678,0.000431,0.232588
67333000,0.0324,0.013523,0.002678,0.000431,0.331077
67334000,0.0324,0.013523,0.002678,0.000431,0.282185
67335000,0.0324,0.013523,0.002678,0.000431,0.141621
67336000,0.0324,0.013523,0.002678,0.000431,0.156077
67337000,0.0324,0.013523,0.002678,0.000431,0.155490
67338000,0.0324,0.013523,0.002678,0.000431,0.412877
67339000,0.0324,0.013523,0.002678,0.000431,0.009990
67340000,0.0324,0.013523,0.002678,0.000431,0.005054
67341000,0.0324,0.013523,0.002678,0.000431,0.005406
67342000,0.0324,0.013523,0.002678,0.000431,0.005054
67343000,0.0324,0.013523,0.002678,0.000431,0.005406
67344000,0.0324,0.013523,0.002678,0.000431,0.005171
67345000,0.0324,0.013523,0.002678,0.000431,0.005289
67346000,0.0324,0.013523,0.002678,0.000431,0.004936
67347000,0.0324,0.013523,0.002678,0.000431,0.005406
67348000,0.0324,0.013523,0.002678,0.000431,0.005171
67349000,0.0324,0.013523,0.002678,0.000431,0.005406
67350000,0.0324,0.013523,0.002678,0.000431,0.004819
67351000,0.0324,0.013523,0.002678,0.000431,0.005289
67352000,0.0324,0.013523,0.002678,0.000431,0.005289
67353000,0.0324,0.013523,0.002678,0.000431,0.005406
67354000,0.0324,0.013523,0.002678,0.000431,0.005054
67355000,0.0324,0.013523,0.002678,0.000431,0.005171
67356000,0.0324,0.013523,0.002678,0.000431,0.005406
67357000,0.0324,0.013523,0.002678,0.000431,0.005054
67358000,0.0324,0.013523,0.002678,0.000431,0.005171
67359000,0.0324,0.013523,0.002678,0.000431,0.006464
67360000,0.0324,0.013523,0.002678,0.000431,0.004231
67361000,0.0324,0.013523,0.002678,0.000431,0.004466
67362000,0.0324,0.013523,0.002678,0.000431,0.004349
67363000,0.0324,0.013523,0.002678,0.000431,0.004231
67364000,0.0324,0.013523,0.002678,0.000431,0.004466
67365000,0.0324,0.013523,0.002678,0.000431,0.004936
67366000,0.0324,0.013523,0.002678,0.000431,0.004701
67367000,0.0324,0.013523,0.002678,0.000431,0.003408
67368000,0.0324,0.013523,0.002678,0.000431,0.003761
67369000,0.0324,0.013523,0.002678,0.000431,0.003173
67370000,0.0324,0.013523,0.002678,0.000431,0.003643
67371000,0.0324,0.013523,0.002678,0.000431,0.003526
67372000,0.0324,0.013523,0.002678,0.000431,0.004936
67373000,0.0324,0.013523,0.002678,0.000431,0.002703
67374000,0.0324,0.013523,0.002678,0.000431,0.004466
67375000,0.0324,0.013523,0.002678,0.000431,0.001998
67376000,0.0324,0.013523,0.002678,0.000431,0.000940
67377000,0.0324,0.013523,0.002678,0.000431,0.000823
67378000,0.0324,0.013523,0.002678,0.000431,0.000823
67379000,0.0324,0.013523,0.002678,0.000431,0.000940
67380000,0.0324,0.013523,0.002678,0.000431,0.000940
67381000,0.0324,0.013523,0.002678,0.000431,0.000705
67382000,0.0324,0.013523,0.002678,0.000431,0.001880
67383000,0.0324,0.013523,0.002678,0.000431,0.310862
67384000,0.0324,0.013523,0.002678,0.000431,0.669793
67385000,0.0324,0.013523,0.002678,0.000431,0.137273
67386000,0.0324,0.013523,0.002678,0.000431,0.135392
67387000,0.0324,0.013523,0.002678,0.000431,0.130221
67388000,0.0324,0.013523,0.002678,0.000431,0.586583
67389000,0.0324,0.013523,0.002678,0.000431,0.218955
67390000,0.0324,0.013523,0.002678,0.000431,0.259385
67391000,0.0324,0.013523,0.002678,0.000431,0.270667
67392000,0.0324,0.013523,0.002678,0.000431,0.137390
67393000,0.0324,0.013523,0.002678,0.000431,0.140211
67394000,0.0324,0.013523,0.002678,0.000431,0.144677
67395000,0.0324,0.013523,0.002678,0.000431,0.226242
67396000,0.0324,0.013523,0.002678,0.000431,0.361047
67397000,0.0324,0.013523,0.002678,0.000431,0.047951
67398000,0.0324,0.013523,0.002678,0.000431,0.045131
67399000,0.0324,0.013523,0.002678,0.000431,0.038314
67400000,0.0324,0.013523,0.002678,0.000431,0.025739
67401000,0.0324,0.013523,0.002678,0.000431,0.024446
67402000,0.0324,0.013523,0.002678,0.000431,0.025739
67403000,0.0324,0.013523,0.002678,0.000431,0.023271
67404000,0.0324,0.013523,0.002678,0.000431,0.017747
67405000,0.0324,0.013523,0.002678,0.000431,0.018099
67406000,0.0324,0.013523,0.002678,0.000431,0.017512
67407000,0.0324,0.013523,0.002678,0.000431,0.017394
67408000,0.0324,0.013523,0.002678,0.000431,0.015044
67409000,0.0324,0.013523,0.002678,0.000431,0.013986
67410000,0.0324,0.013523,0.002678,0.000431,0.013163
67411000,0.0324,0.013523,0.002678,0.000431,0.010578
67412000,0.0324,0.013523,0.002678,0.000431,0.013163
67413000,0.0324,0.013523,0.002678,0.000431,0.009755
67414000,0.0324,0.013523,0.002678,0.000431,0.009872
67415000,0.0324,0.013523,0.002678,0.000431,0.010107
67416000,0.0324,0.013523,0.002678,0.000431,0.010695
67417000,0.0324,0.013523,0.002678,0.000431,0.009050
67418000,0.0324,0.013523,0.002678,0.000431,0.009167
67419000,0.0324,0.013523,0.002678,0.000431,0.012105
67420000,0.0324,0.013523,0.002678,0.000431,0.005876
67421000,0.0324,0.013523,0.002678,0.000431,0.005994
67422000,0.0324,0.013523,0.002678,0.000431,0.006817
67423000,0.0324,0.013523,0.002678,0.000431,0.005054
67424000,0.0324,0.013523,0.002678,0.000431,0.005171
67425000,0.0324,0.013523,0.002678,0.000431,0.005289
67426000,0.0324,0.013523,0.002678,0.000431,0.004819
67427000,0.0324,0.013523,0.002678,0.000431,0.004936
67428000,0.0324,0.013523,0.002678,0.000431,0.005524
67429000,0.0324,0.013523,0.002678,0.000431,0.006817
67430000,0.0324,0.013523,0.002678,0.000431,0.004113
67431000,0.0324,0.013523,0.002678,0.000431,0.004231
67432000,0.0324,0.013523,0.002678,0.000431,0.005171
67433000,0.0324,0.013523,0.002678,0.000431,0.004466
67434000,0.0324,0.013523,0.002678,0.000431,0.003291
67435000,0.0324,0.013523,0.002678,0.000431,0.003408
67436000,0.0324,0.013523,0.002678,0.000431,0.003408
67437000,0.0324,0.013523,0.002678,0.000431,0.003408
67438000,0.0324,0.013523,0.002678,0.000431,0.003526
67439000,0.0324,0.013523,0.002678,0.000431,0.004701
67440000,0.0324,0.013523,0.002678,0.000431,0.002703
67441000,0.0324,0.013523,0.002678,0.000431,0.002468
67442000,0.0324,0.013523,0.002678,0.000431,0.002586
67443000,0.0324,0.013523,0.002678,0.000431,0.002586
67444000,0.0324,0.013523,0.002678,0.000431,0.002586
67445000,0.0324,0.013523,0.002678,0.000431,0.002703
67446000,0.0324,0.013523,0.002678,0.000431,0.003996
67447000,0.0324,0.013523,0.002678,0.000431,0.003526
67448000,0.0324,0.013523,0.002678,0.000431,0.001645
67449000,0.0324,0.013523,0.002678,0.000431,0.001645
67450000,0.0324,0.013523,0.002678,0.000431,0.001880
67451000,0.0324,0.013523,0.002678,0.000431,0.003056
67452000,0.0324,0.013523,0.002678,0.000431,0.000940
67453000,0.0324,0.013523,0.002678,0.000431,0.000823
67454000,0.0324,0.013523,0.002678,0.000431,0.000940
67455000,0.0324,0.013523,0.002678,0.000431,0.000823
67456000,0.0324,0.013523,0.002678,0.000431,0.000823
67457000,0.0324,0.013523,0.002678,0.000431,0.000940
67458000,0.0324,0.013523,0.002678,0.000431,0.000823
67459000,0.0324,0.013523,0.002678,0.000431,0.000940
67460000,0.0324,0.013523,0.002678,0.000431,0.000823
67461000,0.0324,0.013523,0.002678,0.000431,0.000823
67462000,0.0324,0.013523,0.002678,0.000431,0.000823
67463000,0.0324,0.013523,0.002678,0.000431,0.000940
67464000,0.0324,0.013523,0.002678,0.000431,0.000940
67465000,0.0324,0.013523,0.002678,0.000431,0.000823
67466000,0.0324,0.013523,0.002678,0.000431,0.071105
67467000,0.0324,0.013523,0.002678,0.000431,0.482101
67468000,0.0324,0.013523,0.002678,0.000431,0.561550
67469000,0.0324,0.013523,0.002678,0.000431,0.132572
67470000,0.0324,0.013523,0.002678,0.000431,0.132572
67471000,0.0324,0.013523,0.002678,0.000431,0.543803
67472000,0.0324,0.013523,0.002678,0.000431,0.219308
67473000,0.0324,0.013523,0.002678,0.000431,0.248337
67474000,0.0324,0.013523,0.002678,0.000431,0.286769
67475000,0.0324,0.013523,0.002678,0.000431,0.167360
67476000,0.0324,0.013523,0.002678,0.000431,0.136803
67477000,0.0324,0.013523,0.002678,0.000431,0.185812
67478000,0.0324,0.013523,0.002678,0.000431,0.088616
67479000,0.0324,0.013523,0.002678,0.000431,0.462826
67480000,0.0324,0.013523,0.002678,0.000431,0.058294
67481000,0.0324,0.013523,0.002678,0.000431,0.027502
67482000,0.0324,0.013523,0.002678,0.000431,0.023623
67483000,0.0324,0.013523,0.002678,0.000431,0.023271
67484000,0.0324,0.013523,0.002678,0.000431,0.022683
67485000,0.0324,0.013523,0.002678,0.000431,0.013868
67486000,0.0324,0.013523,0.002678,0.000431,0.012105
67487000,0.0324,0.013523,0.002678,0.000431,0.012340
67488000,0.0324,0.013523,0.002678,0.000431,0.013516
67489000,0.0324,0.013523,0.002678,0.000431,0.013046
67490000,0.0324,0.013523,0.002678,0.000431,0.007639
67491000,0.0324,0.013523,0.002678,0.000431,0.009520
67492000,0.0324,0.013523,0.002678,0.000431,0.007287
67493000,0.0324,0.013523,0.002678,0.000431,0.006699
67494000,0.0324,0.013523,0.002678,0.000431,0.007522
67495000,0.0324,0.013523,0.002678,0.000431,0.007404
67496000,0.0324,0.013523,0.002678,0.000431,0.005994
67497000,0.0324,0.013523,0.002678,0.000431,0.006229
67498000,0.0324,0.013523,0.002678,0.000431,0.005994
67499000,0.0324,0.013523,0.002678,0.000431,0.006817
67500000,0.0324,0.013523,0.002678,0.000431,0.005994
67501000,0.0324,0.013523,0.002678,0.000431,0.003996
67502000,0.0324,0.013523,0.002678,0.000431,0.004466
67503000,0.0324,0.013523,0.002678,0.000431,0.008345
67504000,0.0324,0.013523,0.002678,0.000431,0.002586
67505000,0.0324,0.013523,0.002678,0.000431,0.002703
67506000,0.0324,0.013523,0.002678,0.000431,0.002351
67507000,0.0324,0.013523,0.002678,0.000431,0.002703
67508000,0.0324,0.013523,0.002678,0.000431,0.002586
67509000,0.0324,0.013523,0.002678,0.000431,0.003173
67510000,0.0324,0.013523,0.002678,0.000431,0.001880
67511000,0.0324,0.013523,0.002678,0.000431,0.001410
67512000,0.0324,0.013523,0.002678,0.000431,0.001880
67513000,0.0324,0.013523,0.002678,0.000431,0.001528
67514000,0.0324,0.013523,0.002678,0.000431,0.001763
67515000,0.0324,0.013523,0.002678,0.000431,0.001645
67516000,0.0324,0.013523,0.002678,0.000431,0.001645
67517000,0.0324,0.013523,0.002678,0.000431,0.001880
67518000,0.0324,0.013523,0.002678,0.000431,0.001528
67519000,0.0324,0.013523,0.002678,0.000431,0.001763
67520000,0.0324,0.013523,0.002678,0.000431,0.003173
67521000,0.0324,0.013523,0.002678,0.000431,0.000940
67522000,0.0324,0.013523,0.002678,0.000431,0.000823
67523000,0.0324,0.013523,0.002678,0.000431,0.000823
67524000,0.0324,0.013523,0.002678,0.000431,0.000823
67525000,0.0324,0.013523,0.002678,0.000431,0.000823
67526000,0.0324,0.013523,0.002678,0.000431,0.000940
67527000,0.0324,0.013523,0.002678,0.000431,0.000705
67528000,0.0324,0.013523,0.002678,0.000431,0.000940
67529000,0.0324,0.013523,0.002678,0.000431,0.000705
67530000,0.0324,0.013523,0.002678,0.000431,0.000940
67531000,0.0324,0.013523,0.002678,0.000431,0.187575
67532000,0.0324,0.013523,0.002678,0.000431,0.443786
67533000,0.0324,0.013523,0.002678,0.000431,0.491150
67534000,0.0324,0.013523,0.002678,0.000431,0.133042
67535000,0.0324,0.013523,0.002678,0.000431,0.131632
67536000,0.0324,0.013523,0.002678,0.000431,0.540395
67537000,0.0324,0.013523,0.002678,0.000431,0.252686
67538000,0.0324,0.013523,0.002678,0.000431,0.222951
67539000,0.0324,0.013523,0.002678,0.000431,0.289824
67540000,0.0324,0.013523,0.002678,0.000431,0.136333
67541000,0.0324,0.013523,0.002678,0.000431,0.143384
67542000,0.0324,0.013523,0.002678,0.000431,0.182756
67543000,0.0324,0.013523,0.002678,0.000431,0.093317
67544000,0.0324,0.013523,0.002678,0.000431,0.448017
67545000,0.0324,0.013523,0.002678,0.000431,0.039019
67546000,0.0324,0.013523,0.002678,0.000431,0.000823
67547000,0.0324,0.013523,0.002678,0.000431,0.000823
67548000,0.0324,0.013523,0.002678,0.000431,0.000823
67549000,0.0324,0.013523,0.002678,0.000431,0.000940
67550000,0.0324,0.013523,0.002678,0.000431,0.000823
67551000,0.0324,0.013523,0.002678,0.000431,0.000823
67552000,0.0324,0.013523,0.002678,0.000431,0.000823
67553000,0.0324,0.013523,0.002678,0.000431,0.000823
67554000,0.0324,0.013523,0.002678,0.000431,0.000823
67555000,0.0324,0.013523,0.002678,0.000431,0.000823
67556000,0.0324,0.013523,0.002678,0.000431,0.000940
67557000,0.0324,0.013523,0.002678,0.000431,0.000705
67558000,0.0324,0.013523,0.002678,0.000431,0.000940
67559000,0.0324,0.013523,0.002678,0.000431,0.000705
67560000,0.0324,0.013523,0.002678,0.000431,0.000940
67561000,0.0324,0.013523,0.002678,0.000431,0.000823
67562000,0.0324,0.013523,0.002678,0.000431,0.000823
67563000,0.0324,0.013523,0.002678,0.000431,0.000940
67564000,0.0324,0.013523,0.002678,0.000431,0.000705
67565000,0.0324,0.013523,0.002678,0.000431,0.000940
67566000,0.0324,0.013523,0.002678,0.000431,0.000823
67567000,0.0324,0.013523,0.002678,0.000431,0.000823
67568000,0.0324,0.013523,0.002678,0.000431,0.000823
67569000,0.0324,0.013523,0.002678,0.000431,0.000823
67570000,0.0324,0.013523,0.002678,0.000431,0.000940
67571000,0.0324,0.013523,0.002678,0.000431,0.000705
67572000,0.0324,0.013523,0.002678,0.000431,0.000940
67573000,0.0324,0.013523,0.002678,0.000431,0.000823
67574000,0.0324,0.013523,0.002678,0.000431,0.000823
67575000,0.0324,0.013523,0.002678,0.000431,0.000823
67576000,0.0324,0.013523,0.002678,0.000431,0.000823
67577000,0.0324,0.013523,0.002678,0.000431,0.000823
67578000,0.0324,0.013523,0.002678,0.000431,0.000823
67579000,0.0324,0.013523,0.002678,0.000431,0.000823
67580000,0.0324,0.013523,0.002678,0.000431,0.000823
67581000,0.0324,0.013523,0.002678,0.000431,0.000940
67582000,0.0324,0.013523,0.002678,0.000431,0.000823
67583000,0.0324,0.013523,0.002678,0.000431,0.000823
67584000,0.0324,0.013523,0.002678,0.000431,0.000705
67585000,0.0324,0.013523,0.002678,0.000431,0.000940
67586000,0.0324,0.013523,0.002678,0.000431,0.000940
67587000,0.0324,0.013523,0.002678,0.000431,0.000705
67588000,0.0324,0.013523,0.002678,0.000431,0.000940
67589000,0.0324,0.013523,0.002678,0.000431,0.000705
67590000,0.0324,0.013523,0.002678,0.000431,0.000940
67591000,0.0324,0.013523,0.002678,0.000431,0.000823
67592000,0.0324,0.013523,0.002678,0.000431,0.000823
67593000,0.0324,0.013523,0.002678,0.000431,0.000940
67594000,0.0324,0.013523,0.002678,0.000431,0.000705
67595000,0.0324,0.013523,0.002678,0.000431,0.000940
67596000,0.0324,0.013523,0.002678,0.000431,0.000823
67597000,0.0324,0.013523,0.002678,0.000431,0.000823
67598000,0.0324,0.013523,0.002678,0.000431,0.000823
67599000,0.0324,0.013523,0.002678,0.000431,0.000823
67600000,0.0324,0.013523,0.002678,0.000431,0.000823
67601000,0.0324,0.013523,0.002678,0.000431,0.000823
67602000,0.0324,0.013523,0.002678,0.000431,0.000940
67603000,0.0324,0.013523,0.002678,0.000431,0.000705
67604000,0.0324,0.013523,0.002678,0.000431,0.000940
67605000,0.0324,0.013523,0.002678,0.000431,0.000823
67606000,0.0324,0.013523,0.002678,0.000431,0.000823
67607000,0.0324,0.013523,0.002678,0.000431,0.000705
67608000,0.0324,0.013523,0.002678,0.000431,0.000940
67609000,0.0324,0.013523,0.002678,0.000431,0.000940
67610000,0.0324,0.013523,0.002678,0.000431,0.000705
67611000,0.0324,0.013523,0.002678,0.000431,0.000940
67612000,0.0324,0.013523,0.002678,0.000431,0.000705
67613000,0.0324,0.013523,0.002678,0.000431,0.000940
67614000,0.0324,0.013523,0.002678,0.000431,0.000823
67615000,0.0324,0.013523,0.002678,0.000431,0.000823
67616000,0.0324,0.013523,0.002678,0.000431,0.000940
67617000,0.0324,0.013523,0.002678,0.000431,0.000705
67618000,0.0324,0.013523,0.002678,0.000431,0.000940
67619000,0.0324,0.013523,0.002678,0.000431,0.000823
67620000,0.0324,0.013523,0.002678,0.000431,0.000823
67621000,0.0324,0.013523,0.002678,0.000431,0.000823
67622000,0.0324,0.013523,0.002678,0.000431,0.000823
67623000,0.0324,0.013523,0.002678,0.000431,0.000823
67624000,0.0324,0.013523,0.002678,0.000431,0.000823
67625000,0.0324,0.013523,0.002678,0.000431,0.000940
67626000,0.0324,0.013523,0.002678,0.000431,0.000705
67627000,0.0324,0.013523,0.002678,0.000431,0.000823
67628000,0.0324,0.013523,0.002678,0.000431,0.000940
67629000,0.0324,0.013523,0.002678,0.000431,0.000823
67630000,0.0324,0.013523,0.002678,0.000431,0.000823
67631000,0.0324,0.013523,0.002678,0.000431,0.000823
67632000,0.0324,0.013523,0.002678,0.000431,0.000823
67633000,0.0324,0.013523,0.002678,0.000431,0.000823
67634000,0.0324,0.013523,0.002678,0.000431,0.000940
67635000,0.0324,0.013523,0.002678,0.000431,0.000823
67636000,0.0324,0.013523,0.002678,0.000431,0.000823
67637000,0.0324,0.013523,0.002678,0.000431,0.000705
67638000,0.0324,0.013523,0.002678,0.000431,0.000940
67639000,0.0324,0.013523,0.002678,0.000431,0.000940
67640000,0.0324,0.013523,0.002678,0.000431,0.000705
67641000,0.0324,0.013523,0.002678,0.000431,0.000940
67642000,0.0324,0.013523,0.002678,0.000431,0.000705
67643000,0.0324,0.013523,0.002678,0.000431,0.000940
67644000,0.0324,0.013523,0.002678,0.000431,0.000823
67645000,0.0324,0.013523,0.002678,0.000431,0.000823
67646000,0.0324,0.013523,0.002678,0.000431,0.000940
67647000,0.0324,0.013523,0.002678,0.000431,0.000705
67648000,0.0324,0.013523,0.002678,0.000431,0.000940
67649000,0.0324,0.013523,0.002678,0.000431,0.000705
67650000,0.0324,0.013523,0.002678,0.000431,0.000940
67651000,0.0324,0.013523,0.002678,0.000431,0.000823
67652000,0.0324,0.013523,0.002678,0.000431,0.000823
67653000,0.0324,0.013523,0.002678,0.000431,0.000823
67654000,0.0324,0.013523,0.002678,0.000431,0.000823
67655000,0.0324,0.013523,0.002678,0.000431,0.000940
67656000,0.0324,0.013523,0.002678,0.000431,0.000705
67657000,0.0324,0.013523,0.002678,0.000431,0.000940
67658000,0.0324,0.013523,0.002678,0.000431,0.000705
67659000,0.0324,0.013523,0.002678,0.000431,0.000940
67660000,0.0324,0.013523,0.002678,0.000431,0.000705
67661000,0.0324,0.013523,0.002678,0.000431,0.000940
67662000,0.0324,0.013523,0.002678,0.000431,0.000940
67663000,0.0324,0.013523,0.002678,0.000431,0.000705
67664000,0.0324,0.013523,0.002678,0.000431,0.000940
67665000,0.0324,0.013523,0.002678,0.000431,0.000705
67666000,0.0324,0.013523,0.002678,0.000431,0.000940
67667000,0.0324,0.013523,0.002678,0.000431,0.000823
67668000,0.0324,0.013523,0.002678,0.000431,0.000823
67669000,0.0324,0.013523,0.002678,0.000431,0.000823
67670000,0.0324,0.013523,0.002678,0.000431,0.000823
67671000,0.0324,0.013523,0.002678,0.000431,0.000940
67672000,0.0324,0.013523,0.002678,0.000431,0.000705
67673000,0.0324,0.013523,0.002678,0.000431,0.000940
67674000,0.0324,0.013523,0.002678,0.000431,0.000823
67675000,0.0324,0.013523,0.002678,0.000431,0.000823
67676000,0.0324,0.013523,0.002678,0.000431,0.013516
67677000,0.0324,0.013523,0.002678,0.000431,0.407118
67678000,0.0324,0.013523,0.002678,0.000431,0.595398
67679000,0.0324,0.013523,0.002678,0.000431,0.133747
67680000,0.0324,0.013523,0.002678,0.000431,0.131161
67681000,0.0324,0.013523,0.002678,0.000431,0.194627
67682000,0.0324,0.013523,0.002678,0.000431,0.565898
67683000,0.0324,0.013523,0.002678,0.000431,0.252921
67684000,0.0324,0.013523,0.002678,0.000431,0.267494
67685000,0.0324,0.013523,0.002678,0.000431,0.246339
67686000,0.0324,0.013523,0.002678,0.000431,0.142797
67687000,0.0324,0.013523,0.002678,0.000431,0.152904
67688000,0.0324,0.013523,0.002678,0.000431,0.110006
67689000,0.0324,0.013523,0.002678,0.000431,0.456479
67690000,0.0324,0.013523,0.002678,0.000431,0.103072
67691000,0.0324,0.013523,0.002678,0.000431,0.050420
67692000,0.0324,0.013523,0.002678,0.000431,0.031262
67693000,0.0324,0.013523,0.002678,0.000431,0.034436
67694000,0.0324,0.013523,0.002678,0.000431,0.025974
67695000,0.0324,0.013523,0.002678,0.000431,0.027267
67696000,0.0324,0.013523,0.002678,0.000431,0.024681
67697000,0.0324,0.013523,0.002678,0.000431,0.023153
67698000,0.0324,0.013523,0.002678,0.000431,0.019157
67699000,0.0324,0.013523,0.002678,0.000431,0.022683
67700000,0.0324,0.013523,0.002678,0.000431,0.022095
67701000,0.0324,0.013523,0.002678,0.000431,0.020802
67702000,0.0324,0.013523,0.002678,0.000431,0.019040
67703000,0.0324,0.013523,0.002678,0.000431,0.015044
67704000,0.0324,0.013523,0.002678,0.000431,0.013281
67705000,0.0324,0.013523,0.002678,0.000431,0.017277
67706000,0.0324,0.013523,0.002678,0.000431,0.011400
67707000,0.0324,0.013523,0.002678,0.000431,0.011518
67708000,0.0324,0.013523,0.002678,0.000431,0.011048
67709000,0.0324,0.013523,0.002678,0.000431,0.013986
67710000,0.0324,0.013523,0.002678,0.000431,0.009637
67711000,0.0324,0.013523,0.002678,0.000431,0.009285
67712000,0.0324,0.013523,0.002678,0.000431,0.008697
67713000,0.0324,0.013523,0.002678,0.000431,0.010225
67714000,0.0324,0.013523,0.002678,0.000431,0.009637
67715000,0.0324,0.013523,0.002678,0.000431,0.006347
67716000,0.0324,0.013523,0.002678,0.000431,0.008697
67717000,0.0324,0.013523,0.002678,0.000431,0.005641
67718000,0.0324,0.013523,0.002678,0.000431,0.005524
67719000,0.0324,0.013523,0.002678,0.000431,0.005406
67720000,0.0324,0.013523,0.002678,0.000431,0.005759
67721000,0.0324,0.013523,0.002678,0.000431,0.005524
67722000,0.0324,0.013523,0.002678,0.000431,0.004819
67723000,0.0324,0.013523,0.002678,0.000431,0.006229
67724000,0.0324,0.013523,0.002678,0.000431,0.005171
67725000,0.0324,0.013523,0.002678,0.000431,0.005759
67726000,0.0324,0.013523,0.002678,0.000431,0.005289
67727000,0.0324,0.013523,0.002678,0.000431,0.005524
67728000,0.0324,0.013523,0.002678,0.000431,0.005054
67729000,0.0324,0.013523,0.002678,0.000431,0.005289
67730000,0.0324,0.013523,0.002678,0.000431,0.004701
67731000,0.0324,0.013523,0.002678,0.000431,0.004936
67732000,0.0324,0.013523,0.002678,0.000431,0.007639
67733000,0.0324,0.013523,0.002678,0.000431,0.002821
67734000,0.0324,0.013523,0.002678,0.000431,0.003408
67735000,0.0324,0.013523,0.002678,0.000431,0.003291
67736000,0.0324,0.013523,0.002678,0.000431,0.003291
67737000,0.0324,0.013523,0.002678,0.000431,0.004936
67738000,0.0324,0.013523,0.002678,0.000431,0.001645
67739000,0.0324,0.013523,0.002678,0.000431,0.001645
67740000,0.0324,0.013523,0.002678,0.000431,0.001645
67741000,0.0324,0.013523,0.002678,0.000431,0.001763
67742000,0.0324,0.013523,0.002678,0.000431,0.001645
67743000,0.0324,0.013523,0.002678,0.000431,0.002938
67744000,0.0324,0.013523,0.002678,0.000431,0.199680
67745000,0.0324,0.013523,0.002678,0.000431,0.536399
67746000,0.0324,0.013523,0.002678,0.000431,0.432386
67747000,0.0324,0.013523,0.002678,0.000431,0.132572
67748000,0.0324,0.013523,0.002678,0.000431,0.133512
67749000,0.0324,0.013523,0.002678,0.000431,0.587288
67750000,0.0324,0.013523,0.002678,0.000431,0.281950
67751000,0.0324,0.013523,0.002678,0.000431,0.244811
67752000,0.0324,0.013523,0.002678,0.000431,0.284066
67753000,0.0324,0.013523,0.002678,0.000431,0.143502
67754000,0.0324,0.013523,0.002678,0.000431,0.180406
67755000,0.0324,0.013523,0.002678,0.000431,0.081330
67756000,0.0324,0.013523,0.002678,0.000431,0.470348
67757000,0.0324,0.013523,0.002678,0.000431,0.093552
67758000,0.0324,0.013523,0.002678,0.000431,0.044073
67759000,0.0324,0.013523,0.002678,0.000431,0.045836
67760000,0.0324,0.013523,0.002678,0.000431,0.032085
67761000,0.0324,0.013523,0.002678,0.000431,0.027619
67762000,0.0324,0.013523,0.002678,0.000431,0.029147
67763000,0.0324,0.013523,0.002678,0.000431,0.028677
67764000,0.0324,0.013523,0.002678,0.000431,0.025269
67765000,0.0324,0.013523,0.002678,0.000431,0.018217
67766000,0.0324,0.013523,0.002678,0.000431,0.011635
67767000,0.0324,0.013523,0.002678,0.000431,0.012811
67768000,0.0324,0.013523,0.002678,0.000431,0.010695
67769000,0.0324,0.013523,0.002678,0.000431,0.010695
67770000,0.0324,0.013523,0.002678,0.000431,0.007757
67771000,0.0324,0.013523,0.002678,0.000431,0.006582
67772000,0.0324,0.013523,0.002678,0.000431,0.006934
67773000,0.0324,0.013523,0.002678,0.000431,0.006934
67774000,0.0324,0.013523,0.002678,0.000431,0.006817
67775000,0.0324,0.013523,0.002678,0.000431,0.007992
67776000,0.0324,0.013523,0.002678,0.000431,0.007992
67777000,0.0324,0.013523,0.002678,0.000431,0.005171
67778000,0.0324,0.013523,0.002678,0.000431,0.004936
67779000,0.0324,0.013523,0.002678,0.000431,0.004936
67780000,0.0324,0.013523,0.002678,0.000431,0.005289
67781000,0.0324,0.013523,0.002678,0.000431,0.004936
67782000,0.0324,0.013523,0.002678,0.000431,0.004936
67783000,0.0324,0.013523,0.002678,0.000431,0.006699
67784000,0.0324,0.013523,0.002678,0.000431,0.004349
67785000,0.0324,0.013523,0.002678,0.000431,0.004113
67786000,0.0324,0.013523,0.002678,0.000431,0.004231
67787000,0.0324,0.013523,0.002678,0.000431,0.005171
67788000,0.0324,0.013523,0.002678,0.000431,0.004701
67789000,0.0324,0.013523,0.002678,0.000431,0.003408
67790000,0.0324,0.013523,0.002678,0.000431,0.003056
67791000,0.0324,0.013523,0.002678,0.000431,0.003643
67792000,0.0324,0.013523,0.002678,0.000431,0.003526
67793000,0.0324,0.013523,0.002678,0.000431,0.003173
67794000,0.0324,0.013523,0.002678,0.000431,0.003526
67795000,0.0324,0.013523,0.002678,0.000431,0.003291
67796000,0.0324,0.013523,0.002678,0.000431,0.003526
67797000,0.0324,0.013523,0.002678,0.000431,0.003291
67798000,0.0324,0.013523,0.002678,0.000431,0.003291
67799000,0.0324,0.013523,0.002678,0.000431,0.003526
67800000,0.0324,0.013523,0.002678,0.000431,0.003291
67801000,0.0324,0.013523,0.002678,0.000431,0.003408
67802000,0.0324,0.013523,0.002678,0.000431,0.003291
67803000,0.0324,0.013523,0.002678,0.000431,0.003643
67804000,0.0324,0.013523,0.002678,0.000431,0.003291
67805000,0.0324,0.013523,0.002678,0.000431,0.003291
67806000,0.0324,0.013523,0.002678,0.000431,0.003291
67807000,0.0324,0.013523,0.002678,0.000431,0.003408
67808000,0.0324,0.013523,0.002678,0.000431,0.003643
67809000,0.0324,0.013523,0.002678,0.000431,0.003173
67810000,0.0324,0.013523,0.002678,0.000431,0.003526
67811000,0.0324,0.013523,0.002678,0.000431,0.003408
67812000,0.0324,0.013523,0.002678,0.000431,0.003173
67813000,0.0324,0.013523,0.002678,0.000431,0.003408
67814000,0.0324,0.013523,0.002678,0.000431,0.003643
67815000,0.0324,0.013523,0.002678,0.000431,0.003408
67816000,0.0324,0.013523,0.002678,0.000431,0.003291
67817000,0.0324,0.013523,0.002678,0.000431,0.003408
67818000,0.0324,0.013523,0.002678,0.000431,0.003291
67819000,0.0324,0.013523,0.002678,0.000431,0.003526
67820000,0.0324,0.013523,0.002678,0.000431,0.005759
67821000,0.0324,0.013523,0.002678,0.000431,0.002468
67822000,0.0324,0.013523,0.002678,0.000431,0.002586
67823000,0.0324,0.013523,0.002678,0.000431,0.002586
67824000,0.0324,0.013523,0.002678,0.000431,0.002351
67825000,0.0324,0.013523,0.002678,0.000431,0.002703
67826000,0.0324,0.013523,0.002678,0.000431,0.002703
67827000,0.0324,0.013523,0.002678,0.000431,0.002233
67828000,0.0324,0.013523,0.002678,0.000431,0.002703
67829000,0.0324,0.013523,0.002678,0.000431,0.002468
67830000,0.0324,0.013523,0.002678,0.000431,0.002821
67831000,0.0324,0.013523,0.002678,0.000431,0.002233
67832000,0.0324,0.013523,0.002678,0.000431,0.002703
67833000,0.0324,0.013523,0.002678,0.000431,0.002703
67834000,0.0324,0.013523,0.002678,0.000431,0.002351
67835000,0.0324,0.013523,0.002678,0.000431,0.002468
67836000,0.0324,0.013523,0.002678,0.000431,0.002703
67837000,0.0324,0.013523,0.002678,0.000431,0.002703
67838000,0.0324,0.013523,0.002678,0.000431,0.002351
67839000,0.0324,0.013523,0.002678,0.000431,0.002586
67840000,0.0324,0.013523,0.002678,0.000431,0.002468
67841000,0.0324,0.013523,0.002678,0.000431,0.002586
67842000,0.0324,0.013523,0.002678,0.000431,0.002703
67843000,0.0324,0.013523,0.002678,0.000431,0.002351
67844000,0.0324,0.013523,0.002678,0.000431,0.002703
67845000,0.0324,0.013523,0.002678,0.000431,0.002468
67846000,0.0324,0.013523,0.002678,0.000431,0.002586
67847000,0.0324,0.013523,0.002678,0.000431,0.002586
67848000,0.0324,0.013523,0.002678,0.000431,0.002586
67849000,0.0324,0.013523,0.002678,0.000431,0.002468
67850000,0.0324,0.013523,0.002678,0.000431,0.002468
67851000,0.0324,0.013523,0.002678,0.000431,0.002703
67852000,0.0324,0.013523,0.002678,0.000431,0.002468
67853000,0.0324,0.013523,0.002678,0.000431,0.002703
67854000,0.0324,0.013523,0.002678,0.000431,0.002233
67855000,0.0324,0.013523,0.002678,0.000431,0.002703
67856000,0.0324,0.013523,0.002678,0.000431,0.002703
67857000,0.0324,0.013523,0.002678,0.000431,0.002468
67858000,0.0324,0.013523,0.002678,0.000431,0.002586
67859000,0.0324,0.013523,0.002678,0.000431,0.002468
67860000,0.0324,0.013523,0.002678,0.000431,0.002468
67861000,0.0324,0.013523,0.002678,0.000431,0.002703
67862000,0.0324,0.013523,0.002678,0.000431,0.002586
67863000,0.0324,0.013523,0.002678,0.000431,0.002468
67864000,0.0324,0.013523,0.002678,0.000431,0.002586
67865000,0.0324,0.013523,0.002678,0.000431,0.002351
67866000,0.0324,0.013523,0.002678,0.000431,0.002703
67867000,0.0324,0.013523,0.002678,0.000431,0.002821
67868000,0.0324,0.013523,0.002678,0.000431,0.002233
67869000,0.0324,0.013523,0.002678,0.000431,0.002703
67870000,0.0324,0.013523,0.002678,0.000431,0.002468
67871000,0.0324,0.013523,0.002678,0.000431,0.002703
67872000,0.0324,0.013523,0.002678,0.000431,0.002351
67873000,0.0324,0.013523,0.002678,0.000431,0.002586
67874000,0.0324,0.013523,0.002678,0.000431,0.002703
67875000,0.0324,0.013523,0.002678,0.000431,0.002351
67876000,0.0324,0.013523,0.002678,0.000431,0.002821
67877000,0.0324,0.013523,0.002678,0.000431,0.002233
67878000,0.0324,0.013523,0.002678,0.000431,0.002821
67879000,0.0324,0.013523,0.002678,0.000431,0.002468
67880000,0.0324,0.013523,0.002678,0.000431,0.002468
67881000,0.0324,0.013523,0.002678,0.000431,0.002703
67882000,0.0324,0.013523,0.002678,0.000431,0.002468
67883000,0.0324,0.013523,0.002678,0.000431,0.002351
67884000,0.0324,0.013523,0.002678,0.000431,0.004584
67885000,0.0324,0.013523,0.002678,0.000431,0.001880
67886000,0.0324,0.013523,0.002678,0.000431,0.001645
67887000,0.0324,0.013523,0.002678,0.000431,0.001645
67888000,0.0324,0.013523,0.002678,0.000431,0.001645
67889000,0.0324,0.013523,0.002678,0.000431,0.001880
67890000,0.0324,0.013523,0.002678,0.000431,0.001880
67891000,0.0324,0.013523,0.002678,0.000431,0.001410
67892000,0.0324,0.013523,0.002678,0.000431,0.001880
67893000,0.0324,0.013523,0.002678,0.000431,0.001645
67894000,0.0324,0.013523,0.002678,0.000431,0.001763
67895000,0.0324,0.013523,0.002678,0.000431,0.001645
67896000,0.0324,0.013523,0.002678,0.000431,0.001763
67897000,0.0324,0.013523,0.002678,0.000431,0.001763
67898000,0.0324,0.013523,0.002678,0.000431,0.001645
67899000,0.0324,0.013523,0.002678,0.000431,0.001763
67900000,0.0324,0.013523,0.002678,0.000431,0.001645
67901000,0.0324,0.013523,0.002678,0.000431,0.001763
67902000,0.0324,0.013523,0.002678,0.000431,0.001763
67903000,0.0324,0.013523,0.002678,0.000431,0.001645
67904000,0.0324,0.013523,0.002678,0.000431,0.001763
67905000,0.0324,0.013523,0.002678,0.000431,0.001645
67906000,0.0324,0.013523,0.002678,0.000431,0.001645
67907000,0.0324,0.013523,0.002678,0.000431,0.001763
67908000,0.0324,0.013523,0.002678,0.000431,0.001763
67909000,0.0324,0.013523,0.002678,0.000431,0.001763
67910000,0.0324,0.013523,0.002678,0.000431,0.001645
67911000,0.0324,0.013523,0.002678,0.000431,0.001763
67912000,0.0324,0.013523,0.002678,0.000431,0.001763
67913000,0.0324,0.013523,0.002678,0.000431,0.001528
67914000,0.0324,0.013523,0.002678,0.000431,0.001763
67915000,0.0324,0.013523,0.002678,0.000431,0.001880
67916000,0.0324,0.013523,0.002678,0.000431,0.001528
67917000,0.0324,0.013523,0.002678,0.000431,0.001880
67918000,0.0324,0.013523,0.002678,0.000431,0.001528
67919000,0.0324,0.013523,0.002678,0.000431,0.001880
67920000,0.0324,0.013523,0.002678,0.000431,0.001645
67921000,0.0324,0.013523,0.002678,0.000431,0.001645
67922000,0.0324,0.013523,0.002678,0.000431,0.001880
67923000,0.0324,0.013523,0.002678,0.000431,0.001645
67924000,0.0324,0.013523,0.002678,0.000431,0.001763
67925000,0.0324,0.013523,0.002678,0.000431,0.003056
67926000,0.0324,0.013523,0.002678,0.000431,0.000940
67927000,0.0324,0.013523,0.002678,0.000431,0.000940
67928000,0.0324,0.013523,0.002678,0.000431,0.000823
67929000,0.0324,0.013523,0.002678,0.000431,0.000940
67930000,0.0324,0.013523,0.002678,0.000431,0.000823
67931000,0.0324,0.013523,0.002678,0.000431,0.000940
67932000,0.0324,0.013523,0.002678,0.000431,0.000823
67933000,0.0324,0.013523,0.002678,0.000431,0.000823
67934000,0.0324,0.013523,0.002678,0.000431,0.000940
67935000,0.0324,0.013523,0.002678,0.000431,0.000940
67936000,0.0324,0.013523,0.002678,0.000431,0.000940
67937000,0.0324,0.013523,0.002678,0.000431,0.000705
67938000,0.0324,0.013523,0.002678,0.000431,0.000940
67939000,0.0324,0.013523,0.002678,0.000431,0.000940
67940000,0.0324,0.013523,0.002678,0.000431,0.000823
67941000,0.0324,0.013523,0.002678,0.000431,0.000823
67942000,0.0324,0.013523,0.002678,0.000431,0.000940
67943000,0.0324,0.013523,0.002678,0.000431,0.000940
67944000,0.0324,0.013523,0.002678,0.000431,0.000823
67945000,0.0324,0.013523,0.002678,0.000431,0.000823
67946000,0.0324,0.013523,0.002678,0.000431,0.000940
67947000,0.0324,0.013523,0.002678,0.000431,0.000823
67948000,0.0324,0.013523,0.002678,0.000431,0.000940
67949000,0.0324,0.013523,0.002678,0.000431,0.000823
67950000,0.0324,0.013523,0.002678,0.000431,0.000940
67951000,0.0324,0.013523,0.002678,0.000431,0.000823
67952000,0.0324,0.013523,0.002678,0.000431,0.000823
67953000,0.0324,0.013523,0.002678,0.000431,0.000940
67954000,0.0324,0.013523,0.002678,0.000431,0.000940
67955000,0.0324,0.013523,0.002678,0.000431,0.000823
67956000,0.0324,0.013523,0.002678,0.000431,0.000823
67957000,0.0324,0.013523,0.002678,0.000431,0.000940
67958000,0.0324,0.013523,0.002678,0.000431,0.000940
67959000,0.0324,0.013523,0.002678,0.000431,0.000823
67960000,0.0324,0.013523,0.002678,0.000431,0.000823
67961000,0.0324,0.013523,0.002678,0.000431,0.000940
67962000,0.0324,0.013523,0.002678,0.000431,0.000823
67963000,0.0324,0.013523,0.002678,0.000431,0.000940
67964000,0.0324,0.013523,0.002678,0.000431,0.000823
67965000,0.0324,0.013523,0.002678,0.000431,0.000940
67966000,0.0324,0.013523,0.002678,0.000431,0.000823
67967000,0.0324,0.013523,0.002678,0.000431,0.000823
67968000,0.0324,0.013523,0.002678,0.000431,0.000940
67969000,0.0324,0.013523,0.002678,0.000431,0.000940
67970000,0.0324,0.013523,0.002678,0.000431,0.000823
67971000,0.0324,0.013523,0.002678,0.000431,0.000823
67972000,0.0324,0.013523,0.002678,0.000431,0.000940
67973000,0.0324,0.013523,0.002678,0.000431,0.000940
67974000,0.0324,0.013523,0.002678,0.000431,0.000705
67975000,0.0324,0.013523,0.002678,0.000431,0.000940
67976000,0.0324,0.013523,0.002678,0.000431,0.000940
67977000,0.0324,0.013523,0.002678,0.000431,0.000940
67978000,0.0324,0.013523,0.002678,0.000431,0.000705
67979000,0.0324,0.013523,0.002678,0.000431,0.000940
67980000,0.0324,0.013523,0.002678,0.000431,0.000940
67981000,0.0324,0.013523,0.002678,0.000431,0.000823
67982000,0.0324,0.013523,0.002678,0.000431,0.000823
67983000,0.0324,0.013523,0.002678,0.000431,0.000940
67984000,0.0324,0.013523,0.002678,0.000431,0.000940
67985000,0.0324,0.013523,0.002678,0.000431,0.000823
67986000,0.0324,0.013523,0.002678,0.000431,0.000823
67987000,0.0324,0.013523,0.002678,0.000431,0.000940
67988000,0.0324,0.013523,0.002678,0.000431,0.000823
67989000,0.0324,0.013523,0.002678,0.000431,0.000940
67990000,0.0324,0.013523,0.002678,0.000431,0.000823
67991000,0.0324,0.013523,0.002678,0.000431,0.000940
67992000,0.0324,0.013523,0.002678,0.000431,0.000823
67993000,0.0324,0.013523,0.002678,0.000431,0.000823
67994000,0.0324,0.013523,0.002678,0.000431,0.000940
67995000,0.0324,0.013523,0.002678,0.000431,0.000940
67996000,0.0324,0.013523,0.002678,0.000431,0.000940
67997000,0.0324,0.013523,0.002678,0.000431,0.000705
67998000,0.0324,0.013523,0.002678,0.000431,0.000940
67999000,0.0324,0.013523,0.002678,0.000431,0.000940
