Cycle,Area(mm^2),PeakDynamic(W),SubthresholdLeakage(W),GateLeakage(W),RunTimeDynamic(W)
29000000,0.0324,0.013523,0.002678,0.000431,0.000823
29001000,0.0324,0.013523,0.002678,0.000431,0.000823
29002000,0.0324,0.013523,0.002678,0.000431,0.000823
29003000,0.0324,0.013523,0.002678,0.000431,0.000823
29004000,0.0324,0.013523,0.002678,0.000431,0.000940
29005000,0.0324,0.013523,0.002678,0.000431,0.000823
29006000,0.0324,0.013523,0.002678,0.000431,0.000823
29007000,0.0324,0.013523,0.002678,0.000431,0.000705
29008000,0.0324,0.013523,0.002678,0.000431,0.000940
29009000,0.0324,0.013523,0.002678,0.000431,0.000940
29010000,0.0324,0.013523,0.002678,0.000431,0.000705
29011000,0.0324,0.013523,0.002678,0.000431,0.000940
29012000,0.0324,0.013523,0.002678,0.000431,0.000705
29013000,0.0324,0.013523,0.002678,0.000431,0.000940
29014000,0.0324,0.013523,0.002678,0.000431,0.000823
29015000,0.0324,0.013523,0.002678,0.000431,0.000823
29016000,0.0324,0.013523,0.002678,0.000431,0.000940
29017000,0.0324,0.013523,0.002678,0.000431,0.000705
29018000,0.0324,0.013523,0.002678,0.000431,0.000940
29019000,0.0324,0.013523,0.002678,0.000431,0.000823
29020000,0.0324,0.013523,0.002678,0.000431,0.000823
29021000,0.0324,0.013523,0.002678,0.000431,0.000823
29022000,0.0324,0.013523,0.002678,0.000431,0.000823
29023000,0.0324,0.013523,0.002678,0.000431,0.000940
29024000,0.0324,0.013523,0.002678,0.000431,0.000705
29025000,0.0324,0.013523,0.002678,0.000431,0.000940
29026000,0.0324,0.013523,0.002678,0.000431,0.000823
29027000,0.0324,0.013523,0.002678,0.000431,0.000823
29028000,0.0324,0.013523,0.002678,0.000431,0.000823
29029000,0.0324,0.013523,0.002678,0.000431,0.000823
29030000,0.0324,0.013523,0.002678,0.000431,0.000823
29031000,0.0324,0.013523,0.002678,0.000431,0.000823
29032000,0.0324,0.013523,0.002678,0.000431,0.000940
29033000,0.0324,0.013523,0.002678,0.000431,0.000823
29034000,0.0324,0.013523,0.002678,0.000431,0.000823
29035000,0.0324,0.013523,0.002678,0.000431,0.000705
29036000,0.0324,0.013523,0.002678,0.000431,0.000940
29037000,0.0324,0.013523,0.002678,0.000431,0.000940
29038000,0.0324,0.013523,0.002678,0.000431,0.000705
29039000,0.0324,0.013523,0.002678,0.000431,0.000940
29040000,0.0324,0.013523,0.002678,0.000431,0.000705
29041000,0.0324,0.013523,0.002678,0.000431,0.000940
29042000,0.0324,0.013523,0.002678,0.000431,0.000823
29043000,0.0324,0.013523,0.002678,0.000431,0.000823
29044000,0.0324,0.013523,0.002678,0.000431,0.000940
29045000,0.0324,0.013523,0.002678,0.000431,0.000705
29046000,0.0324,0.013523,0.002678,0.000431,0.000940
29047000,0.0324,0.013523,0.002678,0.000431,0.000823
29048000,0.0324,0.013523,0.002678,0.000431,0.000823
29049000,0.0324,0.013523,0.002678,0.000431,0.000823
29050000,0.0324,0.013523,0.002678,0.000431,0.000823
29051000,0.0324,0.013523,0.002678,0.000431,0.000940
29052000,0.0324,0.013523,0.002678,0.000431,0.000705
29053000,0.0324,0.013523,0.002678,0.000431,0.000940
29054000,0.0324,0.013523,0.002678,0.000431,0.000823
29055000,0.0324,0.013523,0.002678,0.000431,0.000823
29056000,0.0324,0.013523,0.002678,0.000431,0.000823
29057000,0.0324,0.013523,0.002678,0.000431,0.000823
29058000,0.0324,0.013523,0.002678,0.000431,0.000940
29059000,0.0324,0.013523,0.002678,0.000431,0.000705
29060000,0.0324,0.013523,0.002678,0.000431,0.000823
29061000,0.0324,0.013523,0.002678,0.000431,0.000940
29062000,0.0324,0.013523,0.002678,0.000431,0.000823
29063000,0.0324,0.013523,0.002678,0.000431,0.000823
29064000,0.0324,0.013523,0.002678,0.000431,0.000823
29065000,0.0324,0.013523,0.002678,0.000431,0.000705
29066000,0.0324,0.013523,0.002678,0.000431,0.000940
29067000,0.0324,0.013523,0.002678,0.000431,0.000940
29068000,0.0324,0.013523,0.002678,0.000431,0.000823
29069000,0.0324,0.013523,0.002678,0.000431,0.000823
29070000,0.0324,0.013523,0.002678,0.000431,0.000705
29071000,0.0324,0.013523,0.002678,0.000431,0.000940
29072000,0.0324,0.013523,0.002678,0.000431,0.000940
29073000,0.0324,0.013523,0.002678,0.000431,0.000705
29074000,0.0324,0.013523,0.002678,0.000431,0.000940
29075000,0.0324,0.013523,0.002678,0.000431,0.000705
29076000,0.0324,0.013523,0.002678,0.000431,0.000940
29077000,0.0324,0.013523,0.002678,0.000431,0.000823
29078000,0.0324,0.013523,0.002678,0.000431,0.000823
29079000,0.0324,0.013523,0.002678,0.000431,0.000940
29080000,0.0324,0.013523,0.002678,0.000431,0.000705
29081000,0.0324,0.013523,0.002678,0.000431,0.000940
29082000,0.0324,0.013523,0.002678,0.000431,0.000823
29083000,0.0324,0.013523,0.002678,0.000431,0.000823
29084000,0.0324,0.013523,0.002678,0.000431,0.000823
29085000,0.0324,0.013523,0.002678,0.000431,0.000823
29086000,0.0324,0.013523,0.002678,0.000431,0.000940
29087000,0.0324,0.013523,0.002678,0.000431,0.000705
29088000,0.0324,0.013523,0.002678,0.000431,0.000940
29089000,0.0324,0.013523,0.002678,0.000431,0.000823
29090000,0.0324,0.013523,0.002678,0.000431,0.000823
29091000,0.0324,0.013523,0.002678,0.000431,0.000823
29092000,0.0324,0.013523,0.002678,0.000431,0.000823
29093000,0.0324,0.013523,0.002678,0.000431,0.000823
29094000,0.0324,0.013523,0.002678,0.000431,0.000823
29095000,0.0324,0.013523,0.002678,0.000431,0.000940
29096000,0.0324,0.013523,0.002678,0.000431,0.000823
29097000,0.0324,0.013523,0.002678,0.000431,0.000823
29098000,0.0324,0.013523,0.002678,0.000431,0.000705
29099000,0.0324,0.013523,0.002678,0.000431,0.000940
29100000,0.0324,0.013523,0.002678,0.000431,0.000940
29101000,0.0324,0.013523,0.002678,0.000431,0.000705
29102000,0.0324,0.013523,0.002678,0.000431,0.000940
29103000,0.0324,0.013523,0.002678,0.000431,0.000705
29104000,0.0324,0.013523,0.002678,0.000431,0.000940
29105000,0.0324,0.013523,0.002678,0.000431,0.000823
29106000,0.0324,0.013523,0.002678,0.000431,0.000823
29107000,0.0324,0.013523,0.002678,0.000431,0.000940
29108000,0.0324,0.013523,0.002678,0.000431,0.000705
29109000,0.0324,0.013523,0.002678,0.000431,0.000940
29110000,0.0324,0.013523,0.002678,0.000431,0.000823
29111000,0.0324,0.013523,0.002678,0.000431,0.000823
29112000,0.0324,0.013523,0.002678,0.000431,0.000940
29113000,0.0324,0.013523,0.002678,0.000431,0.000705
29114000,0.0324,0.013523,0.002678,0.000431,0.000940
29115000,0.0324,0.013523,0.002678,0.000431,0.000823
29116000,0.0324,0.013523,0.002678,0.000431,0.000823
29117000,0.0324,0.013523,0.002678,0.000431,0.005524
29118000,0.0324,0.013523,0.002678,0.000431,0.470230
29119000,0.0324,0.013523,0.002678,0.000431,0.641351
29120000,0.0324,0.013523,0.002678,0.000431,0.134452
29121000,0.0324,0.013523,0.002678,0.000431,0.131632
29122000,0.0324,0.013523,0.002678,0.000431,0.174059
29123000,0.0324,0.013523,0.002678,0.000431,0.564370
29124000,0.0324,0.013523,0.002678,0.000431,0.248337
29125000,0.0324,0.013523,0.002678,0.000431,0.290295
29126000,0.0324,0.013523,0.002678,0.000431,0.220483
29127000,0.0324,0.013523,0.002678,0.000431,0.142679
29128000,0.0324,0.013523,0.002678,0.000431,0.165245
29129000,0.0324,0.013523,0.002678,0.000431,0.129986
29130000,0.0324,0.013523,0.002678,0.000431,0.466939
29131000,0.0324,0.013523,0.002678,0.000431,0.067226
29132000,0.0324,0.013523,0.002678,0.000431,0.056766
29133000,0.0324,0.013523,0.002678,0.000431,0.049714
29134000,0.0324,0.013523,0.002678,0.000431,0.043368
29135000,0.0324,0.013523,0.002678,0.000431,0.034906
29136000,0.0324,0.013523,0.002678,0.000431,0.029735
29137000,0.0324,0.013523,0.002678,0.000431,0.026796
29138000,0.0324,0.013523,0.002678,0.000431,0.026561
29139000,0.0324,0.013523,0.002678,0.000431,0.023506
29140000,0.0324,0.013523,0.002678,0.000431,0.024211
29141000,0.0324,0.013523,0.002678,0.000431,0.012340
29142000,0.0324,0.013523,0.002678,0.000431,0.009990
29143000,0.0324,0.013523,0.002678,0.000431,0.009755
29144000,0.0324,0.013523,0.002678,0.000431,0.010342
29145000,0.0324,0.013523,0.002678,0.000431,0.007404
29146000,0.0324,0.013523,0.002678,0.000431,0.007522
29147000,0.0324,0.013523,0.002678,0.000431,0.007404
29148000,0.0324,0.013523,0.002678,0.000431,0.010342
29149000,0.0324,0.013523,0.002678,0.000431,0.007874
29150000,0.0324,0.013523,0.002678,0.000431,0.004466
29151000,0.0324,0.013523,0.002678,0.000431,0.005994
29152000,0.0324,0.013523,0.002678,0.000431,0.003526
29153000,0.0324,0.013523,0.002678,0.000431,0.003291
29154000,0.0324,0.013523,0.002678,0.000431,0.003408
29155000,0.0324,0.013523,0.002678,0.000431,0.003526
29156000,0.0324,0.013523,0.002678,0.000431,0.004231
29157000,0.0324,0.013523,0.002678,0.000431,0.003878
29158000,0.0324,0.013523,0.002678,0.000431,0.002586
29159000,0.0324,0.013523,0.002678,0.000431,0.002468
29160000,0.0324,0.013523,0.002678,0.000431,0.002351
29161000,0.0324,0.013523,0.002678,0.000431,0.002703
29162000,0.0324,0.013523,0.002678,0.000431,0.002703
29163000,0.0324,0.013523,0.002678,0.000431,0.002468
29164000,0.0324,0.013523,0.002678,0.000431,0.002586
29165000,0.0324,0.013523,0.002678,0.000431,0.002351
29166000,0.0324,0.013523,0.002678,0.000431,0.002821
29167000,0.0324,0.013523,0.002678,0.000431,0.002468
29168000,0.0324,0.013523,0.002678,0.000431,0.002468
29169000,0.0324,0.013523,0.002678,0.000431,0.002586
29170000,0.0324,0.013523,0.002678,0.000431,0.002586
29171000,0.0324,0.013523,0.002678,0.000431,0.002703
29172000,0.0324,0.013523,0.002678,0.000431,0.002351
29173000,0.0324,0.013523,0.002678,0.000431,0.002703
29174000,0.0324,0.013523,0.002678,0.000431,0.002586
29175000,0.0324,0.013523,0.002678,0.000431,0.003996
29176000,0.0324,0.013523,0.002678,0.000431,0.001763
29177000,0.0324,0.013523,0.002678,0.000431,0.003408
29178000,0.0324,0.013523,0.002678,0.000431,0.000823
29179000,0.0324,0.013523,0.002678,0.000431,0.000823
29180000,0.0324,0.013523,0.002678,0.000431,0.000940
29181000,0.0324,0.013523,0.002678,0.000431,0.000940
29182000,0.0324,0.013523,0.002678,0.000431,0.000823
29183000,0.0324,0.013523,0.002678,0.000431,0.000823
29184000,0.0324,0.013523,0.002678,0.000431,0.000940
29185000,0.0324,0.013523,0.002678,0.000431,0.000940
29186000,0.0324,0.013523,0.002678,0.000431,0.000705
29187000,0.0324,0.013523,0.002678,0.000431,0.000940
29188000,0.0324,0.013523,0.002678,0.000431,0.000940
29189000,0.0324,0.013523,0.002678,0.000431,0.000823
29190000,0.0324,0.013523,0.002678,0.000431,0.000940
29191000,0.0324,0.013523,0.002678,0.000431,0.000823
29192000,0.0324,0.013523,0.002678,0.000431,0.000940
29193000,0.0324,0.013523,0.002678,0.000431,0.000823
29194000,0.0324,0.013523,0.002678,0.000431,0.000823
29195000,0.0324,0.013523,0.002678,0.000431,0.000940
29196000,0.0324,0.013523,0.002678,0.000431,0.000940
29197000,0.0324,0.013523,0.002678,0.000431,0.000823
29198000,0.0324,0.013523,0.002678,0.000431,0.000823
29199000,0.0324,0.013523,0.002678,0.000431,0.000940
29200000,0.0324,0.013523,0.002678,0.000431,0.000940
29201000,0.0324,0.013523,0.002678,0.000431,0.000705
29202000,0.0324,0.013523,0.002678,0.000431,0.000940
29203000,0.0324,0.013523,0.002678,0.000431,0.000940
29204000,0.0324,0.013523,0.002678,0.000431,0.000940
29205000,0.0324,0.013523,0.002678,0.000431,0.094023
29206000,0.0324,0.013523,0.002678,0.000431,0.537104
29207000,0.0324,0.013523,0.002678,0.000431,0.536281
29208000,0.0324,0.013523,0.002678,0.000431,0.133159
29209000,0.0324,0.013523,0.002678,0.000431,0.133042
29210000,0.0324,0.013523,0.002678,0.000431,0.584115
29211000,0.0324,0.013523,0.002678,0.000431,0.243283
29212000,0.0324,0.013523,0.002678,0.000431,0.299109
29213000,0.0324,0.013523,0.002678,0.000431,0.278072
29214000,0.0324,0.013523,0.002678,0.000431,0.138566
29215000,0.0324,0.013523,0.002678,0.000431,0.173354
29216000,0.0324,0.013523,0.002678,0.000431,0.110712
29217000,0.0324,0.013523,0.002678,0.000431,0.450250
29218000,0.0324,0.013523,0.002678,0.000431,0.052183
29219000,0.0324,0.013523,0.002678,0.000431,0.016689
29220000,0.0324,0.013523,0.002678,0.000431,0.014338
29221000,0.0324,0.013523,0.002678,0.000431,0.011635
29222000,0.0324,0.013523,0.002678,0.000431,0.009167
29223000,0.0324,0.013523,0.002678,0.000431,0.009402
29224000,0.0324,0.013523,0.002678,0.000431,0.010695
29225000,0.0324,0.013523,0.002678,0.000431,0.012576
29226000,0.0324,0.013523,0.002678,0.000431,0.006229
29227000,0.0324,0.013523,0.002678,0.000431,0.006347
29228000,0.0324,0.013523,0.002678,0.000431,0.005406
29229000,0.0324,0.013523,0.002678,0.000431,0.006699
29230000,0.0324,0.013523,0.002678,0.000431,0.004349
29231000,0.0324,0.013523,0.002678,0.000431,0.004231
29232000,0.0324,0.013523,0.002678,0.000431,0.004349
29233000,0.0324,0.013523,0.002678,0.000431,0.005054
29234000,0.0324,0.013523,0.002678,0.000431,0.004349
29235000,0.0324,0.013523,0.002678,0.000431,0.005759
29236000,0.0324,0.013523,0.002678,0.000431,0.000823
29237000,0.0324,0.013523,0.002678,0.000431,0.000823
29238000,0.0324,0.013523,0.002678,0.000431,0.000705
29239000,0.0324,0.013523,0.002678,0.000431,0.000940
29240000,0.0324,0.013523,0.002678,0.000431,0.000940
29241000,0.0324,0.013523,0.002678,0.000431,0.000705
29242000,0.0324,0.013523,0.002678,0.000431,0.000940
29243000,0.0324,0.013523,0.002678,0.000431,0.000705
29244000,0.0324,0.013523,0.002678,0.000431,0.000940
29245000,0.0324,0.013523,0.002678,0.000431,0.000823
29246000,0.0324,0.013523,0.002678,0.000431,0.000823
29247000,0.0324,0.013523,0.002678,0.000431,0.000940
29248000,0.0324,0.013523,0.002678,0.000431,0.000705
29249000,0.0324,0.013523,0.002678,0.000431,0.000940
29250000,0.0324,0.013523,0.002678,0.000431,0.000823
29251000,0.0324,0.013523,0.002678,0.000431,0.000823
29252000,0.0324,0.013523,0.002678,0.000431,0.000823
29253000,0.0324,0.013523,0.002678,0.000431,0.000823
29254000,0.0324,0.013523,0.002678,0.000431,0.000823
29255000,0.0324,0.013523,0.002678,0.000431,0.000823
29256000,0.0324,0.013523,0.002678,0.000431,0.000940
29257000,0.0324,0.013523,0.002678,0.000431,0.000705
29258000,0.0324,0.013523,0.002678,0.000431,0.000823
29259000,0.0324,0.013523,0.002678,0.000431,0.000940
29260000,0.0324,0.013523,0.002678,0.000431,0.000823
29261000,0.0324,0.013523,0.002678,0.000431,0.000823
29262000,0.0324,0.013523,0.002678,0.000431,0.000823
29263000,0.0324,0.013523,0.002678,0.000431,0.000705
29264000,0.0324,0.013523,0.002678,0.000431,0.000940
29265000,0.0324,0.013523,0.002678,0.000431,0.000940
29266000,0.0324,0.013523,0.002678,0.000431,0.000705
29267000,0.0324,0.013523,0.002678,0.000431,0.000940
29268000,0.0324,0.013523,0.002678,0.000431,0.000705
29269000,0.0324,0.013523,0.002678,0.000431,0.000940
29270000,0.0324,0.013523,0.002678,0.000431,0.000940
29271000,0.0324,0.013523,0.002678,0.000431,0.000705
29272000,0.0324,0.013523,0.002678,0.000431,0.000940
29273000,0.0324,0.013523,0.002678,0.000431,0.000705
29274000,0.0324,0.013523,0.002678,0.000431,0.000940
29275000,0.0324,0.013523,0.002678,0.000431,0.176880
29276000,0.0324,0.013523,0.002678,0.000431,0.401124
29277000,0.0324,0.013523,0.002678,0.000431,0.534048
29278000,0.0324,0.013523,0.002678,0.000431,0.134452
29279000,0.0324,0.013523,0.002678,0.000431,0.131161
29280000,0.0324,0.013523,0.002678,0.000431,0.562255
29281000,0.0324,0.013523,0.002678,0.000431,0.226477
29282000,0.0324,0.013523,0.002678,0.000431,0.250453
29283000,0.0324,0.013523,0.002678,0.000431,0.326963
29284000,0.0324,0.013523,0.002678,0.000431,0.150789
29285000,0.0324,0.013523,0.002678,0.000431,0.141386
29286000,0.0324,0.013523,0.002678,0.000431,0.128693
29287000,0.0324,0.013523,0.002678,0.000431,0.242226
29288000,0.0324,0.013523,0.002678,0.000431,0.356110
29289000,0.0324,0.013523,0.002678,0.000431,0.045954
29290000,0.0324,0.013523,0.002678,0.000431,0.044308
29291000,0.0324,0.013523,0.002678,0.000431,0.040547
29292000,0.0324,0.013523,0.002678,0.000431,0.032320
29293000,0.0324,0.013523,0.002678,0.000431,0.035023
29294000,0.0324,0.013523,0.002678,0.000431,0.026091
29295000,0.0324,0.013523,0.002678,0.000431,0.022095
29296000,0.0324,0.013523,0.002678,0.000431,0.020450
29297000,0.0324,0.013523,0.002678,0.000431,0.015984
29298000,0.0324,0.013523,0.002678,0.000431,0.016101
29299000,0.0324,0.013523,0.002678,0.000431,0.015749
29300000,0.0324,0.013523,0.002678,0.000431,0.017864
29301000,0.0324,0.013523,0.002678,0.000431,0.014691
29302000,0.0324,0.013523,0.002678,0.000431,0.017982
29303000,0.0324,0.013523,0.002678,0.000431,0.013163
29304000,0.0324,0.013523,0.002678,0.000431,0.012928
29305000,0.0324,0.013523,0.002678,0.000431,0.012693
29306000,0.0324,0.013523,0.002678,0.000431,0.013281
29307000,0.0324,0.013523,0.002678,0.000431,0.012576
29308000,0.0324,0.013523,0.002678,0.000431,0.011518
29309000,0.0324,0.013523,0.002678,0.000431,0.011518
29310000,0.0324,0.013523,0.002678,0.000431,0.011048
29311000,0.0324,0.013523,0.002678,0.000431,0.012340
29312000,0.0324,0.013523,0.002678,0.000431,0.011518
29313000,0.0324,0.013523,0.002678,0.000431,0.010578
29314000,0.0324,0.013523,0.002678,0.000431,0.009872
29315000,0.0324,0.013523,0.002678,0.000431,0.010342
29316000,0.0324,0.013523,0.002678,0.000431,0.010107
29317000,0.0324,0.013523,0.002678,0.000431,0.010460
29318000,0.0324,0.013523,0.002678,0.000431,0.009872
29319000,0.0324,0.013523,0.002678,0.000431,0.010342
29320000,0.0324,0.013523,0.002678,0.000431,0.010695
29321000,0.0324,0.013523,0.002678,0.000431,0.009637
29322000,0.0324,0.013523,0.002678,0.000431,0.010578
29323000,0.0324,0.013523,0.002678,0.000431,0.009990
29324000,0.0324,0.013523,0.002678,0.000431,0.010813
29325000,0.0324,0.013523,0.002678,0.000431,0.008932
29326000,0.0324,0.013523,0.002678,0.000431,0.007874
29327000,0.0324,0.013523,0.002678,0.000431,0.011635
29328000,0.0324,0.013523,0.002678,0.000431,0.008932
29329000,0.0324,0.013523,0.002678,0.000431,0.005759
29330000,0.0324,0.013523,0.002678,0.000431,0.005876
29331000,0.0324,0.013523,0.002678,0.000431,0.005759
29332000,0.0324,0.013523,0.002678,0.000431,0.007052
29333000,0.0324,0.013523,0.002678,0.000431,0.004819
29334000,0.0324,0.013523,0.002678,0.000431,0.005054
29335000,0.0324,0.013523,0.002678,0.000431,0.004936
29336000,0.0324,0.013523,0.002678,0.000431,0.004936
29337000,0.0324,0.013523,0.002678,0.000431,0.005054
29338000,0.0324,0.013523,0.002678,0.000431,0.004819
29339000,0.0324,0.013523,0.002678,0.000431,0.004819
29340000,0.0324,0.013523,0.002678,0.000431,0.004936
29341000,0.0324,0.013523,0.002678,0.000431,0.005171
29342000,0.0324,0.013523,0.002678,0.000431,0.005054
29343000,0.0324,0.013523,0.002678,0.000431,0.004466
29344000,0.0324,0.013523,0.002678,0.000431,0.005289
29345000,0.0324,0.013523,0.002678,0.000431,0.005171
29346000,0.0324,0.013523,0.002678,0.000431,0.004466
29347000,0.0324,0.013523,0.002678,0.000431,0.005289
29348000,0.0324,0.013523,0.002678,0.000431,0.004819
29349000,0.0324,0.013523,0.002678,0.000431,0.004819
29350000,0.0324,0.013523,0.002678,0.000431,0.004584
29351000,0.0324,0.013523,0.002678,0.000431,0.004113
29352000,0.0324,0.013523,0.002678,0.000431,0.004231
29353000,0.0324,0.013523,0.002678,0.000431,0.004231
29354000,0.0324,0.013523,0.002678,0.000431,0.004349
29355000,0.0324,0.013523,0.002678,0.000431,0.005054
29356000,0.0324,0.013523,0.002678,0.000431,0.004231
29357000,0.0324,0.013523,0.002678,0.000431,0.003643
29358000,0.0324,0.013523,0.002678,0.000431,0.003408
29359000,0.0324,0.013523,0.002678,0.000431,0.003526
29360000,0.0324,0.013523,0.002678,0.000431,0.003173
29361000,0.0324,0.013523,0.002678,0.000431,0.003526
29362000,0.0324,0.013523,0.002678,0.000431,0.003408
29363000,0.0324,0.013523,0.002678,0.000431,0.005054
29364000,0.0324,0.013523,0.002678,0.000431,0.002586
29365000,0.0324,0.013523,0.002678,0.000431,0.002586
29366000,0.0324,0.013523,0.002678,0.000431,0.002821
29367000,0.0324,0.013523,0.002678,0.000431,0.002468
29368000,0.0324,0.013523,0.002678,0.000431,0.002586
29369000,0.0324,0.013523,0.002678,0.000431,0.002468
29370000,0.0324,0.013523,0.002678,0.000431,0.002821
29371000,0.0324,0.013523,0.002678,0.000431,0.002703
29372000,0.0324,0.013523,0.002678,0.000431,0.003996
29373000,0.0324,0.013523,0.002678,0.000431,0.001880
29374000,0.0324,0.013523,0.002678,0.000431,0.001645
29375000,0.0324,0.013523,0.002678,0.000431,0.001880
29376000,0.0324,0.013523,0.002678,0.000431,0.001645
29377000,0.0324,0.013523,0.002678,0.000431,0.001645
29378000,0.0324,0.013523,0.002678,0.000431,0.001880
29379000,0.0324,0.013523,0.002678,0.000431,0.001528
29380000,0.0324,0.013523,0.002678,0.000431,0.003761
29381000,0.0324,0.013523,0.002678,0.000431,0.000940
29382000,0.0324,0.013523,0.002678,0.000431,0.000940
29383000,0.0324,0.013523,0.002678,0.000431,0.000823
29384000,0.0324,0.013523,0.002678,0.000431,0.000823
29385000,0.0324,0.013523,0.002678,0.000431,0.000940
29386000,0.0324,0.013523,0.002678,0.000431,0.000940
29387000,0.0324,0.013523,0.002678,0.000431,0.000705
29388000,0.0324,0.013523,0.002678,0.000431,0.000940
29389000,0.0324,0.013523,0.002678,0.000431,0.000940
29390000,0.0324,0.013523,0.002678,0.000431,0.000940
29391000,0.0324,0.013523,0.002678,0.000431,0.000705
29392000,0.0324,0.013523,0.002678,0.000431,0.000940
29393000,0.0324,0.013523,0.002678,0.000431,0.000940
29394000,0.0324,0.013523,0.002678,0.000431,0.000823
29395000,0.0324,0.013523,0.002678,0.000431,0.000823
29396000,0.0324,0.013523,0.002678,0.000431,0.000940
29397000,0.0324,0.013523,0.002678,0.000431,0.000940
29398000,0.0324,0.013523,0.002678,0.000431,0.000823
29399000,0.0324,0.013523,0.002678,0.000431,0.000823
29400000,0.0324,0.013523,0.002678,0.000431,0.000940
29401000,0.0324,0.013523,0.002678,0.000431,0.000823
29402000,0.0324,0.013523,0.002678,0.000431,0.000940
29403000,0.0324,0.013523,0.002678,0.000431,0.000823
29404000,0.0324,0.013523,0.002678,0.000431,0.000940
29405000,0.0324,0.013523,0.002678,0.000431,0.000823
29406000,0.0324,0.013523,0.002678,0.000431,0.000823
29407000,0.0324,0.013523,0.002678,0.000431,0.000940
29408000,0.0324,0.013523,0.002678,0.000431,0.000940
29409000,0.0324,0.013523,0.002678,0.000431,0.000823
29410000,0.0324,0.013523,0.002678,0.000431,0.000823
29411000,0.0324,0.013523,0.002678,0.000431,0.000940
29412000,0.0324,0.013523,0.002678,0.000431,0.000940
29413000,0.0324,0.013523,0.002678,0.000431,0.000823
29414000,0.0324,0.013523,0.002678,0.000431,0.000823
29415000,0.0324,0.013523,0.002678,0.000431,0.000940
29416000,0.0324,0.013523,0.002678,0.000431,0.000940
29417000,0.0324,0.013523,0.002678,0.000431,0.000823
29418000,0.0324,0.013523,0.002678,0.000431,0.000823
29419000,0.0324,0.013523,0.002678,0.000431,0.000940
29420000,0.0324,0.013523,0.002678,0.000431,0.000823
29421000,0.0324,0.013523,0.002678,0.000431,0.000940
29422000,0.0324,0.013523,0.002678,0.000431,0.000823
29423000,0.0324,0.013523,0.002678,0.000431,0.000940
29424000,0.0324,0.013523,0.002678,0.000431,0.000823
29425000,0.0324,0.013523,0.002678,0.000431,0.000823
29426000,0.0324,0.013523,0.002678,0.000431,0.000940
29427000,0.0324,0.013523,0.002678,0.000431,0.000940
29428000,0.0324,0.013523,0.002678,0.000431,0.000823
29429000,0.0324,0.013523,0.002678,0.000431,0.000823
29430000,0.0324,0.013523,0.002678,0.000431,0.000940
29431000,0.0324,0.013523,0.002678,0.000431,0.000940
29432000,0.0324,0.013523,0.002678,0.000431,0.000705
29433000,0.0324,0.013523,0.002678,0.000431,0.000940
29434000,0.0324,0.013523,0.002678,0.000431,0.000940
29435000,0.0324,0.013523,0.002678,0.000431,0.000823
29436000,0.0324,0.013523,0.002678,0.000431,0.000940
29437000,0.0324,0.013523,0.002678,0.000431,0.000823
29438000,0.0324,0.013523,0.002678,0.000431,0.000940
29439000,0.0324,0.013523,0.002678,0.000431,0.000823
29440000,0.0324,0.013523,0.002678,0.000431,0.000823
29441000,0.0324,0.013523,0.002678,0.000431,0.000940
29442000,0.0324,0.013523,0.002678,0.000431,0.000823
29443000,0.0324,0.013523,0.002678,0.000431,0.000940
29444000,0.0324,0.013523,0.002678,0.000431,0.000823
29445000,0.0324,0.013523,0.002678,0.000431,0.000940
29446000,0.0324,0.013523,0.002678,0.000431,0.000940
29447000,0.0324,0.013523,0.002678,0.000431,0.000705
29448000,0.0324,0.013523,0.002678,0.000431,0.000940
29449000,0.0324,0.013523,0.002678,0.000431,0.000940
29450000,0.0324,0.013523,0.002678,0.000431,0.000940
29451000,0.0324,0.013523,0.002678,0.000431,0.000705
29452000,0.0324,0.013523,0.002678,0.000431,0.000940
29453000,0.0324,0.013523,0.002678,0.000431,0.000940
29454000,0.0324,0.013523,0.002678,0.000431,0.000823
29455000,0.0324,0.013523,0.002678,0.000431,0.000823
29456000,0.0324,0.013523,0.002678,0.000431,0.000940
29457000,0.0324,0.013523,0.002678,0.000431,0.000940
29458000,0.0324,0.013523,0.002678,0.000431,0.000823
29459000,0.0324,0.013523,0.002678,0.000431,0.000823
29460000,0.0324,0.013523,0.002678,0.000431,0.000940
29461000,0.0324,0.013523,0.002678,0.000431,0.000823
29462000,0.0324,0.013523,0.002678,0.000431,0.000940
29463000,0.0324,0.013523,0.002678,0.000431,0.000823
29464000,0.0324,0.013523,0.002678,0.000431,0.000940
29465000,0.0324,0.013523,0.002678,0.000431,0.000823
29466000,0.0324,0.013523,0.002678,0.000431,0.000823
29467000,0.0324,0.013523,0.002678,0.000431,0.000940
29468000,0.0324,0.013523,0.002678,0.000431,0.000940
29469000,0.0324,0.013523,0.002678,0.000431,0.000823
29470000,0.0324,0.013523,0.002678,0.000431,0.000823
29471000,0.0324,0.013523,0.002678,0.000431,0.000940
29472000,0.0324,0.013523,0.002678,0.000431,0.000940
29473000,0.0324,0.013523,0.002678,0.000431,0.000823
29474000,0.0324,0.013523,0.002678,0.000431,0.000823
29475000,0.0324,0.013523,0.002678,0.000431,0.000940
29476000,0.0324,0.013523,0.002678,0.000431,0.000823
29477000,0.0324,0.013523,0.002678,0.000431,0.000940
29478000,0.0324,0.013523,0.002678,0.000431,0.000823
29479000,0.0324,0.013523,0.002678,0.000431,0.000940
29480000,0.0324,0.013523,0.002678,0.000431,0.000823
29481000,0.0324,0.013523,0.002678,0.000431,0.000823
29482000,0.0324,0.013523,0.002678,0.000431,0.000940
29483000,0.0324,0.013523,0.002678,0.000431,0.000940
29484000,0.0324,0.013523,0.002678,0.000431,0.000823
29485000,0.0324,0.013523,0.002678,0.000431,0.000823
29486000,0.0324,0.013523,0.002678,0.000431,0.000940
29487000,0.0324,0.013523,0.002678,0.000431,0.000940
29488000,0.0324,0.013523,0.002678,0.000431,0.000705
29489000,0.0324,0.013523,0.002678,0.000431,0.000940
29490000,0.0324,0.013523,0.002678,0.000431,0.194979
29491000,0.0324,0.013523,0.002678,0.000431,0.513951
29492000,0.0324,0.013523,0.002678,0.000431,0.453541
29493000,0.0324,0.013523,0.002678,0.000431,0.132572
29494000,0.0324,0.013523,0.002678,0.000431,0.131514
29495000,0.0324,0.013523,0.002678,0.000431,0.581412
29496000,0.0324,0.013523,0.002678,0.000431,0.248925
29497000,0.0324,0.013523,0.002678,0.000431,0.267494
29498000,0.0324,0.013523,0.002678,0.000431,0.324143
29499000,0.0324,0.013523,0.002678,0.000431,0.137273
29500000,0.0324,0.013523,0.002678,0.000431,0.157958
29501000,0.0324,0.013523,0.002678,0.000431,0.101427
29502000,0.0324,0.013523,0.002678,0.000431,0.442023
29503000,0.0324,0.013523,0.002678,0.000431,0.086736
29504000,0.0324,0.013523,0.002678,0.000431,0.016454
29505000,0.0324,0.013523,0.002678,0.000431,0.018687
29506000,0.0324,0.013523,0.002678,0.000431,0.014691
29507000,0.0324,0.013523,0.002678,0.000431,0.012340
29508000,0.0324,0.013523,0.002678,0.000431,0.012928
29509000,0.0324,0.013523,0.002678,0.000431,0.012105
29510000,0.0324,0.013523,0.002678,0.000431,0.009755
29511000,0.0324,0.013523,0.002678,0.000431,0.008697
29512000,0.0324,0.013523,0.002678,0.000431,0.007052
29513000,0.0324,0.013523,0.002678,0.000431,0.006934
29514000,0.0324,0.013523,0.002678,0.000431,0.007287
29515000,0.0324,0.013523,0.002678,0.000431,0.006347
29516000,0.0324,0.013523,0.002678,0.000431,0.007169
29517000,0.0324,0.013523,0.002678,0.000431,0.007169
29518000,0.0324,0.013523,0.002678,0.000431,0.006582
29519000,0.0324,0.013523,0.002678,0.000431,0.007522
29520000,0.0324,0.013523,0.002678,0.000431,0.006229
29521000,0.0324,0.013523,0.002678,0.000431,0.007522
29522000,0.0324,0.013523,0.002678,0.000431,0.007052
29523000,0.0324,0.013523,0.002678,0.000431,0.006464
29524000,0.0324,0.013523,0.002678,0.000431,0.009637
29525000,0.0324,0.013523,0.002678,0.000431,0.004936
29526000,0.0324,0.013523,0.002678,0.000431,0.005289
29527000,0.0324,0.013523,0.002678,0.000431,0.006347
29528000,0.0324,0.013523,0.002678,0.000431,0.007287
29529000,0.0324,0.013523,0.002678,0.000431,0.002703
29530000,0.0324,0.013523,0.002678,0.000431,0.002468
29531000,0.0324,0.013523,0.002678,0.000431,0.003761
29532000,0.0324,0.013523,0.002678,0.000431,0.001763
29533000,0.0324,0.013523,0.002678,0.000431,0.001763
29534000,0.0324,0.013523,0.002678,0.000431,0.001528
29535000,0.0324,0.013523,0.002678,0.000431,0.001763
29536000,0.0324,0.013523,0.002678,0.000431,0.001880
29537000,0.0324,0.013523,0.002678,0.000431,0.001645
29538000,0.0324,0.013523,0.002678,0.000431,0.001763
29539000,0.0324,0.013523,0.002678,0.000431,0.001763
29540000,0.0324,0.013523,0.002678,0.000431,0.002938
29541000,0.0324,0.013523,0.002678,0.000431,0.000940
29542000,0.0324,0.013523,0.002678,0.000431,0.000823
29543000,0.0324,0.013523,0.002678,0.000431,0.000940
29544000,0.0324,0.013523,0.002678,0.000431,0.000823
29545000,0.0324,0.013523,0.002678,0.000431,0.000823
29546000,0.0324,0.013523,0.002678,0.000431,0.000940
29547000,0.0324,0.013523,0.002678,0.000431,0.000940
29548000,0.0324,0.013523,0.002678,0.000431,0.000823
29549000,0.0324,0.013523,0.002678,0.000431,0.000823
29550000,0.0324,0.013523,0.002678,0.000431,0.000940
29551000,0.0324,0.013523,0.002678,0.000431,0.000940
29552000,0.0324,0.013523,0.002678,0.000431,0.000823
29553000,0.0324,0.013523,0.002678,0.000431,0.000823
29554000,0.0324,0.013523,0.002678,0.000431,0.000940
29555000,0.0324,0.013523,0.002678,0.000431,0.000940
29556000,0.0324,0.013523,0.002678,0.000431,0.000823
29557000,0.0324,0.013523,0.002678,0.000431,0.000823
29558000,0.0324,0.013523,0.002678,0.000431,0.000940
29559000,0.0324,0.013523,0.002678,0.000431,0.000823
29560000,0.0324,0.013523,0.002678,0.000431,0.000940
29561000,0.0324,0.013523,0.002678,0.000431,0.000823
29562000,0.0324,0.013523,0.002678,0.000431,0.000940
29563000,0.0324,0.013523,0.002678,0.000431,0.000823
29564000,0.0324,0.013523,0.002678,0.000431,0.000823
29565000,0.0324,0.013523,0.002678,0.000431,0.000940
29566000,0.0324,0.013523,0.002678,0.000431,0.000940
29567000,0.0324,0.013523,0.002678,0.000431,0.000705
29568000,0.0324,0.013523,0.002678,0.000431,0.000940
29569000,0.0324,0.013523,0.002678,0.000431,0.000940
29570000,0.0324,0.013523,0.002678,0.000431,0.000940
29571000,0.0324,0.013523,0.002678,0.000431,0.000705
29572000,0.0324,0.013523,0.002678,0.000431,0.000940
29573000,0.0324,0.013523,0.002678,0.000431,0.000940
29574000,0.0324,0.013523,0.002678,0.000431,0.000823
29575000,0.0324,0.013523,0.002678,0.000431,0.000823
29576000,0.0324,0.013523,0.002678,0.000431,0.000940
29577000,0.0324,0.013523,0.002678,0.000431,0.000940
29578000,0.0324,0.013523,0.002678,0.000431,0.000823
29579000,0.0324,0.013523,0.002678,0.000431,0.000823
29580000,0.0324,0.013523,0.002678,0.000431,0.000940
29581000,0.0324,0.013523,0.002678,0.000431,0.000823
29582000,0.0324,0.013523,0.002678,0.000431,0.000940
29583000,0.0324,0.013523,0.002678,0.000431,0.000823
29584000,0.0324,0.013523,0.002678,0.000431,0.000940
29585000,0.0324,0.013523,0.002678,0.000431,0.000940
29586000,0.0324,0.013523,0.002678,0.000431,0.000705
29587000,0.0324,0.013523,0.002678,0.000431,0.000940
29588000,0.0324,0.013523,0.002678,0.000431,0.000940
29589000,0.0324,0.013523,0.002678,0.000431,0.000940
29590000,0.0324,0.013523,0.002678,0.000431,0.000705
29591000,0.0324,0.013523,0.002678,0.000431,0.000940
29592000,0.0324,0.013523,0.002678,0.000431,0.000940
29593000,0.0324,0.013523,0.002678,0.000431,0.000823
29594000,0.0324,0.013523,0.002678,0.000431,0.000823
29595000,0.0324,0.013523,0.002678,0.000431,0.000940
29596000,0.0324,0.013523,0.002678,0.000431,0.000940
29597000,0.0324,0.013523,0.002678,0.000431,0.000823
29598000,0.0324,0.013523,0.002678,0.000431,0.000823
29599000,0.0324,0.013523,0.002678,0.000431,0.000940
29600000,0.0324,0.013523,0.002678,0.000431,0.000823
29601000,0.0324,0.013523,0.002678,0.000431,0.000940
29602000,0.0324,0.013523,0.002678,0.000431,0.000823
29603000,0.0324,0.013523,0.002678,0.000431,0.000940
29604000,0.0324,0.013523,0.002678,0.000431,0.000823
29605000,0.0324,0.013523,0.002678,0.000431,0.000823
29606000,0.0324,0.013523,0.002678,0.000431,0.000940
29607000,0.0324,0.013523,0.002678,0.000431,0.000940
29608000,0.0324,0.013523,0.002678,0.000431,0.000823
29609000,0.0324,0.013523,0.002678,0.000431,0.000823
29610000,0.0324,0.013523,0.002678,0.000431,0.000940
29611000,0.0324,0.013523,0.002678,0.000431,0.000940
29612000,0.0324,0.013523,0.002678,0.000431,0.000823
29613000,0.0324,0.013523,0.002678,0.000431,0.000823
29614000,0.0324,0.013523,0.002678,0.000431,0.000940
29615000,0.0324,0.013523,0.002678,0.000431,0.000940
29616000,0.0324,0.013523,0.002678,0.000431,0.000940
29617000,0.0324,0.013523,0.002678,0.000431,0.000705
29618000,0.0324,0.013523,0.002678,0.000431,0.000940
29619000,0.0324,0.013523,0.002678,0.000431,0.000940
29620000,0.0324,0.013523,0.002678,0.000431,0.000940
29621000,0.0324,0.013523,0.002678,0.000431,0.000705
29622000,0.0324,0.013523,0.002678,0.000431,0.000940
29623000,0.0324,0.013523,0.002678,0.000431,0.000940
29624000,0.0324,0.013523,0.002678,0.000431,0.000823
29625000,0.0324,0.013523,0.002678,0.000431,0.000823
29626000,0.0324,0.013523,0.002678,0.000431,0.000940
29627000,0.0324,0.013523,0.002678,0.000431,0.000940
29628000,0.0324,0.013523,0.002678,0.000431,0.000823
29629000,0.0324,0.013523,0.002678,0.000431,0.000823
29630000,0.0324,0.013523,0.002678,0.000431,0.000940
29631000,0.0324,0.013523,0.002678,0.000431,0.000823
29632000,0.0324,0.013523,0.002678,0.000431,0.000940
29633000,0.0324,0.013523,0.002678,0.000431,0.000823
29634000,0.0324,0.013523,0.002678,0.000431,0.000940
29635000,0.0324,0.013523,0.002678,0.000431,0.000823
29636000,0.0324,0.013523,0.002678,0.000431,0.000823
29637000,0.0324,0.013523,0.002678,0.000431,0.000940
29638000,0.0324,0.013523,0.002678,0.000431,0.000940
29639000,0.0324,0.013523,0.002678,0.000431,0.000940
29640000,0.0324,0.013523,0.002678,0.000431,0.000705
29641000,0.0324,0.013523,0.002678,0.000431,0.000940
29642000,0.0324,0.013523,0.002678,0.000431,0.000940
29643000,0.0324,0.013523,0.002678,0.000431,0.000823
29644000,0.0324,0.013523,0.002678,0.000431,0.000823
29645000,0.0324,0.013523,0.002678,0.000431,0.000940
29646000,0.0324,0.013523,0.002678,0.000431,0.000823
29647000,0.0324,0.013523,0.002678,0.000431,0.000940
29648000,0.0324,0.013523,0.002678,0.000431,0.000823
29649000,0.0324,0.013523,0.002678,0.000431,0.000940
29650000,0.0324,0.013523,0.002678,0.000431,0.000823
29651000,0.0324,0.013523,0.002678,0.000431,0.000823
29652000,0.0324,0.013523,0.002678,0.000431,0.000940
29653000,0.0324,0.013523,0.002678,0.000431,0.000940
29654000,0.0324,0.013523,0.002678,0.000431,0.000823
29655000,0.0324,0.013523,0.002678,0.000431,0.000823
29656000,0.0324,0.013523,0.002678,0.000431,0.000940
29657000,0.0324,0.013523,0.002678,0.000431,0.000940
29658000,0.0324,0.013523,0.002678,0.000431,0.000705
29659000,0.0324,0.013523,0.002678,0.000431,0.000940
29660000,0.0324,0.013523,0.002678,0.000431,0.000940
29661000,0.0324,0.013523,0.002678,0.000431,0.000940
29662000,0.0324,0.013523,0.002678,0.000431,0.000705
29663000,0.0324,0.013523,0.002678,0.000431,0.000940
29664000,0.0324,0.013523,0.002678,0.000431,0.000940
29665000,0.0324,0.013523,0.002678,0.000431,0.000823
29666000,0.0324,0.013523,0.002678,0.000431,0.000940
29667000,0.0324,0.013523,0.002678,0.000431,0.000823
29668000,0.0324,0.013523,0.002678,0.000431,0.000940
29669000,0.0324,0.013523,0.002678,0.000431,0.000823
29670000,0.0324,0.013523,0.002678,0.000431,0.000823
29671000,0.0324,0.013523,0.002678,0.000431,0.000940
29672000,0.0324,0.013523,0.002678,0.000431,0.000940
29673000,0.0324,0.013523,0.002678,0.000431,0.000823
29674000,0.0324,0.013523,0.002678,0.000431,0.000823
29675000,0.0324,0.013523,0.002678,0.000431,0.012223
29676000,0.0324,0.013523,0.002678,0.000431,0.418400
29677000,0.0324,0.013523,0.002678,0.000431,0.598689
29678000,0.0324,0.013523,0.002678,0.000431,0.133982
29679000,0.0324,0.013523,0.002678,0.000431,0.131279
29680000,0.0324,0.013523,0.002678,0.000431,0.149731
29681000,0.0324,0.013523,0.002678,0.000431,0.599159
29682000,0.0324,0.013523,0.002678,0.000431,0.249512
29683000,0.0324,0.013523,0.002678,0.000431,0.260090
29684000,0.0324,0.013523,0.002678,0.000431,0.233999
29685000,0.0324,0.013523,0.002678,0.000431,0.138448
29686000,0.0324,0.013523,0.002678,0.000431,0.157723
29687000,0.0324,0.013523,0.002678,0.000431,0.107303
29688000,0.0324,0.013523,0.002678,0.000431,0.400066
29689000,0.0324,0.013523,0.002678,0.000431,0.161836
29690000,0.0324,0.013523,0.002678,0.000431,0.026209
29691000,0.0324,0.013523,0.002678,0.000431,0.023506
29692000,0.0324,0.013523,0.002678,0.000431,0.016454
29693000,0.0324,0.013523,0.002678,0.000431,0.015396
29694000,0.0324,0.013523,0.002678,0.000431,0.014456
29695000,0.0324,0.013523,0.002678,0.000431,0.018452
29696000,0.0324,0.013523,0.002678,0.000431,0.015396
29697000,0.0324,0.013523,0.002678,0.000431,0.012105
29698000,0.0324,0.013523,0.002678,0.000431,0.011048
29699000,0.0324,0.013523,0.002678,0.000431,0.011635
29700000,0.0324,0.013523,0.002678,0.000431,0.014573
29701000,0.0324,0.013523,0.002678,0.000431,0.009050
29702000,0.0324,0.013523,0.002678,0.000431,0.007992
29703000,0.0324,0.013523,0.002678,0.000431,0.007639
29704000,0.0324,0.013523,0.002678,0.000431,0.007522
29705000,0.0324,0.013523,0.002678,0.000431,0.007874
29706000,0.0324,0.013523,0.002678,0.000431,0.007639
29707000,0.0324,0.013523,0.002678,0.000431,0.007287
29708000,0.0324,0.013523,0.002678,0.000431,0.009637
29709000,0.0324,0.013523,0.002678,0.000431,0.006111
29710000,0.0324,0.013523,0.002678,0.000431,0.007287
29711000,0.0324,0.013523,0.002678,0.000431,0.006817
29712000,0.0324,0.013523,0.002678,0.000431,0.006817
29713000,0.0324,0.013523,0.002678,0.000431,0.006817
29714000,0.0324,0.013523,0.002678,0.000431,0.006464
29715000,0.0324,0.013523,0.002678,0.000431,0.006229
29716000,0.0324,0.013523,0.002678,0.000431,0.005994
29717000,0.0324,0.013523,0.002678,0.000431,0.006582
29718000,0.0324,0.013523,0.002678,0.000431,0.005406
29719000,0.0324,0.013523,0.002678,0.000431,0.006699
29720000,0.0324,0.013523,0.002678,0.000431,0.005876
29721000,0.0324,0.013523,0.002678,0.000431,0.005876
29722000,0.0324,0.013523,0.002678,0.000431,0.006699
29723000,0.0324,0.013523,0.002678,0.000431,0.005406
29724000,0.0324,0.013523,0.002678,0.000431,0.006699
29725000,0.0324,0.013523,0.002678,0.000431,0.008109
29726000,0.0324,0.013523,0.002678,0.000431,0.004936
29727000,0.0324,0.013523,0.002678,0.000431,0.005406
29728000,0.0324,0.013523,0.002678,0.000431,0.005406
29729000,0.0324,0.013523,0.002678,0.000431,0.005289
29730000,0.0324,0.013523,0.002678,0.000431,0.004701
29731000,0.0324,0.013523,0.002678,0.000431,0.005406
29732000,0.0324,0.013523,0.002678,0.000431,0.005406
29733000,0.0324,0.013523,0.002678,0.000431,0.005054
29734000,0.0324,0.013523,0.002678,0.000431,0.005171
29735000,0.0324,0.013523,0.002678,0.000431,0.006347
29736000,0.0324,0.013523,0.002678,0.000431,0.003291
29737000,0.0324,0.013523,0.002678,0.000431,0.003408
29738000,0.0324,0.013523,0.002678,0.000431,0.003408
29739000,0.0324,0.013523,0.002678,0.000431,0.003291
29740000,0.0324,0.013523,0.002678,0.000431,0.004584
29741000,0.0324,0.013523,0.002678,0.000431,0.002586
29742000,0.0324,0.013523,0.002678,0.000431,0.002586
29743000,0.0324,0.013523,0.002678,0.000431,0.005289
29744000,0.0324,0.013523,0.002678,0.000431,0.001763
29745000,0.0324,0.013523,0.002678,0.000431,0.001880
29746000,0.0324,0.013523,0.002678,0.000431,0.001528
29747000,0.0324,0.013523,0.002678,0.000431,0.001763
29748000,0.0324,0.013523,0.002678,0.000431,0.001645
29749000,0.0324,0.013523,0.002678,0.000431,0.003526
29750000,0.0324,0.013523,0.002678,0.000431,0.000940
29751000,0.0324,0.013523,0.002678,0.000431,0.000823
29752000,0.0324,0.013523,0.002678,0.000431,0.000940
29753000,0.0324,0.013523,0.002678,0.000431,0.000705
29754000,0.0324,0.013523,0.002678,0.000431,0.000940
29755000,0.0324,0.013523,0.002678,0.000431,0.000823
29756000,0.0324,0.013523,0.002678,0.000431,0.000823
29757000,0.0324,0.013523,0.002678,0.000431,0.000823
29758000,0.0324,0.013523,0.002678,0.000431,0.000823
29759000,0.0324,0.013523,0.002678,0.000431,0.000823
29760000,0.0324,0.013523,0.002678,0.000431,0.000823
29761000,0.0324,0.013523,0.002678,0.000431,0.000940
29762000,0.0324,0.013523,0.002678,0.000431,0.000705
29763000,0.0324,0.013523,0.002678,0.000431,0.000823
29764000,0.0324,0.013523,0.002678,0.000431,0.000940
29765000,0.0324,0.013523,0.002678,0.000431,0.000823
29766000,0.0324,0.013523,0.002678,0.000431,0.000823
29767000,0.0324,0.013523,0.002678,0.000431,0.000823
29768000,0.0324,0.013523,0.002678,0.000431,0.000705
29769000,0.0324,0.013523,0.002678,0.000431,0.000940
29770000,0.0324,0.013523,0.002678,0.000431,0.000940
29771000,0.0324,0.013523,0.002678,0.000431,0.000705
29772000,0.0324,0.013523,0.002678,0.000431,0.000940
29773000,0.0324,0.013523,0.002678,0.000431,0.000705
29774000,0.0324,0.013523,0.002678,0.000431,0.000940
29775000,0.0324,0.013523,0.002678,0.000431,0.000823
29776000,0.0324,0.013523,0.002678,0.000431,0.000823
29777000,0.0324,0.013523,0.002678,0.000431,0.000940
29778000,0.0324,0.013523,0.002678,0.000431,0.000705
29779000,0.0324,0.013523,0.002678,0.000431,0.000940
29780000,0.0324,0.013523,0.002678,0.000431,0.000705
29781000,0.0324,0.013523,0.002678,0.000431,0.000940
29782000,0.0324,0.013523,0.002678,0.000431,0.000823
29783000,0.0324,0.013523,0.002678,0.000431,0.000823
29784000,0.0324,0.013523,0.002678,0.000431,0.000823
29785000,0.0324,0.013523,0.002678,0.000431,0.000823
29786000,0.0324,0.013523,0.002678,0.000431,0.000823
29787000,0.0324,0.013523,0.002678,0.000431,0.000823
29788000,0.0324,0.013523,0.002678,0.000431,0.000940
29789000,0.0324,0.013523,0.002678,0.000431,0.000705
29790000,0.0324,0.013523,0.002678,0.000431,0.000940
29791000,0.0324,0.013523,0.002678,0.000431,0.000705
29792000,0.0324,0.013523,0.002678,0.000431,0.000940
29793000,0.0324,0.013523,0.002678,0.000431,0.000940
29794000,0.0324,0.013523,0.002678,0.000431,0.000705
29795000,0.0324,0.013523,0.002678,0.000431,0.000940
29796000,0.0324,0.013523,0.002678,0.000431,0.000705
29797000,0.0324,0.013523,0.002678,0.000431,0.000940
29798000,0.0324,0.013523,0.002678,0.000431,0.000823
29799000,0.0324,0.013523,0.002678,0.000431,0.000823
29800000,0.0324,0.013523,0.002678,0.000431,0.159721
29801000,0.0324,0.013523,0.002678,0.000431,0.420751
29802000,0.0324,0.013523,0.002678,0.000431,0.535106
29803000,0.0324,0.013523,0.002678,0.000431,0.134452
29804000,0.0324,0.013523,0.002678,0.000431,0.130691
29805000,0.0324,0.013523,0.002678,0.000431,0.607973
29806000,0.0324,0.013523,0.002678,0.000431,0.278072
29807000,0.0324,0.013523,0.002678,0.000431,0.247867
29808000,0.0324,0.013523,0.002678,0.000431,0.289942
29809000,0.0324,0.013523,0.002678,0.000431,0.142914
29810000,0.0324,0.013523,0.002678,0.000431,0.143267
29811000,0.0324,0.013523,0.002678,0.000431,0.100252
29812000,0.0324,0.013523,0.002678,0.000431,0.415462
29813000,0.0324,0.013523,0.002678,0.000431,0.169006
29814000,0.0324,0.013523,0.002678,0.000431,0.047599
29815000,0.0324,0.013523,0.002678,0.000431,0.033848
29816000,0.0324,0.013523,0.002678,0.000431,0.034083
29817000,0.0324,0.013523,0.002678,0.000431,0.029735
29818000,0.0324,0.013523,0.002678,0.000431,0.025386
29819000,0.0324,0.013523,0.002678,0.000431,0.020097
29820000,0.0324,0.013523,0.002678,0.000431,0.019157
29821000,0.0324,0.013523,0.002678,0.000431,0.018687
29822000,0.0324,0.013523,0.002678,0.000431,0.015396
29823000,0.0324,0.013523,0.002678,0.000431,0.014691
29824000,0.0324,0.013523,0.002678,0.000431,0.015396
29825000,0.0324,0.013523,0.002678,0.000431,0.015044
29826000,0.0324,0.013523,0.002678,0.000431,0.014221
29827000,0.0324,0.013523,0.002678,0.000431,0.011165
29828000,0.0324,0.013523,0.002678,0.000431,0.011753
29829000,0.0324,0.013523,0.002678,0.000431,0.014456
29830000,0.0324,0.013523,0.002678,0.000431,0.009520
29831000,0.0324,0.013523,0.002678,0.000431,0.009050
29832000,0.0324,0.013523,0.002678,0.000431,0.011048
29833000,0.0324,0.013523,0.002678,0.000431,0.008697
29834000,0.0324,0.013523,0.002678,0.000431,0.009990
29835000,0.0324,0.013523,0.002678,0.000431,0.007287
29836000,0.0324,0.013523,0.002678,0.000431,0.007874
29837000,0.0324,0.013523,0.002678,0.000431,0.007757
29838000,0.0324,0.013523,0.002678,0.000431,0.008815
29839000,0.0324,0.013523,0.002678,0.000431,0.008345
29840000,0.0324,0.013523,0.002678,0.000431,0.007052
29841000,0.0324,0.013523,0.002678,0.000431,0.007052
29842000,0.0324,0.013523,0.002678,0.000431,0.006582
29843000,0.0324,0.013523,0.002678,0.000431,0.007639
29844000,0.0324,0.013523,0.002678,0.000431,0.007052
29845000,0.0324,0.013523,0.002678,0.000431,0.005759
29846000,0.0324,0.013523,0.002678,0.000431,0.005994
29847000,0.0324,0.013523,0.002678,0.000431,0.006111
29848000,0.0324,0.013523,0.002678,0.000431,0.006111
29849000,0.0324,0.013523,0.002678,0.000431,0.005876
29850000,0.0324,0.013523,0.002678,0.000431,0.006817
29851000,0.0324,0.013523,0.002678,0.000431,0.005289
29852000,0.0324,0.013523,0.002678,0.000431,0.006934
29853000,0.0324,0.013523,0.002678,0.000431,0.004466
29854000,0.0324,0.013523,0.002678,0.000431,0.005641
29855000,0.0324,0.013523,0.002678,0.000431,0.005054
29856000,0.0324,0.013523,0.002678,0.000431,0.002821
29857000,0.0324,0.013523,0.002678,0.000431,0.002586
29858000,0.0324,0.013523,0.002678,0.000431,0.002468
29859000,0.0324,0.013523,0.002678,0.000431,0.002351
29860000,0.0324,0.013523,0.002678,0.000431,0.002703
29861000,0.0324,0.013523,0.002678,0.000431,0.002703
29862000,0.0324,0.013523,0.002678,0.000431,0.002351
29863000,0.0324,0.013523,0.002678,0.000431,0.002703
29864000,0.0324,0.013523,0.002678,0.000431,0.002468
29865000,0.0324,0.013523,0.002678,0.000431,0.002586
29866000,0.0324,0.013523,0.002678,0.000431,0.004231
29867000,0.0324,0.013523,0.002678,0.000431,0.001763
29868000,0.0324,0.013523,0.002678,0.000431,0.001645
29869000,0.0324,0.013523,0.002678,0.000431,0.001645
29870000,0.0324,0.013523,0.002678,0.000431,0.001645
29871000,0.0324,0.013523,0.002678,0.000431,0.001645
29872000,0.0324,0.013523,0.002678,0.000431,0.001763
29873000,0.0324,0.013523,0.002678,0.000431,0.001645
29874000,0.0324,0.013523,0.002678,0.000431,0.001763
29875000,0.0324,0.013523,0.002678,0.000431,0.001528
29876000,0.0324,0.013523,0.002678,0.000431,0.001763
29877000,0.0324,0.013523,0.002678,0.000431,0.001763
29878000,0.0324,0.013523,0.002678,0.000431,0.001528
29879000,0.0324,0.013523,0.002678,0.000431,0.001763
29880000,0.0324,0.013523,0.002678,0.000431,0.001645
29881000,0.0324,0.013523,0.002678,0.000431,0.001763
29882000,0.0324,0.013523,0.002678,0.000431,0.004113
29883000,0.0324,0.013523,0.002678,0.000431,0.000940
29884000,0.0324,0.013523,0.002678,0.000431,0.000940
29885000,0.0324,0.013523,0.002678,0.000431,0.000705
29886000,0.0324,0.013523,0.002678,0.000431,0.000940
29887000,0.0324,0.013523,0.002678,0.000431,0.000705
29888000,0.0324,0.013523,0.002678,0.000431,0.000940
29889000,0.0324,0.013523,0.002678,0.000431,0.000823
29890000,0.0324,0.013523,0.002678,0.000431,0.000823
29891000,0.0324,0.013523,0.002678,0.000431,0.000940
29892000,0.0324,0.013523,0.002678,0.000431,0.000705
29893000,0.0324,0.013523,0.002678,0.000431,0.000940
29894000,0.0324,0.013523,0.002678,0.000431,0.000823
29895000,0.0324,0.013523,0.002678,0.000431,0.000823
29896000,0.0324,0.013523,0.002678,0.000431,0.000823
29897000,0.0324,0.013523,0.002678,0.000431,0.000823
29898000,0.0324,0.013523,0.002678,0.000431,0.000823
29899000,0.0324,0.013523,0.002678,0.000431,0.000823
29900000,0.0324,0.013523,0.002678,0.000431,0.000940
29901000,0.0324,0.013523,0.002678,0.000431,0.000705
29902000,0.0324,0.013523,0.002678,0.000431,0.000823
29903000,0.0324,0.013523,0.002678,0.000431,0.000940
29904000,0.0324,0.013523,0.002678,0.000431,0.000823
29905000,0.0324,0.013523,0.002678,0.000431,0.000823
29906000,0.0324,0.013523,0.002678,0.000431,0.000823
29907000,0.0324,0.013523,0.002678,0.000431,0.000823
29908000,0.0324,0.013523,0.002678,0.000431,0.000823
29909000,0.0324,0.013523,0.002678,0.000431,0.000940
29910000,0.0324,0.013523,0.002678,0.000431,0.000705
29911000,0.0324,0.013523,0.002678,0.000431,0.000940
29912000,0.0324,0.013523,0.002678,0.000431,0.000705
29913000,0.0324,0.013523,0.002678,0.000431,0.000940
29914000,0.0324,0.013523,0.002678,0.000431,0.000823
29915000,0.0324,0.013523,0.002678,0.000431,0.000823
29916000,0.0324,0.013523,0.002678,0.000431,0.000940
29917000,0.0324,0.013523,0.002678,0.000431,0.000705
29918000,0.0324,0.013523,0.002678,0.000431,0.000940
29919000,0.0324,0.013523,0.002678,0.000431,0.000823
29920000,0.0324,0.013523,0.002678,0.000431,0.000823
29921000,0.0324,0.013523,0.002678,0.000431,0.000823
29922000,0.0324,0.013523,0.002678,0.000431,0.000823
29923000,0.0324,0.013523,0.002678,0.000431,0.000940
29924000,0.0324,0.013523,0.002678,0.000431,0.000705
29925000,0.0324,0.013523,0.002678,0.000431,0.000940
29926000,0.0324,0.013523,0.002678,0.000431,0.000823
29927000,0.0324,0.013523,0.002678,0.000431,0.000823
29928000,0.0324,0.013523,0.002678,0.000431,0.000823
29929000,0.0324,0.013523,0.002678,0.000431,0.000823
29930000,0.0324,0.013523,0.002678,0.000431,0.000823
29931000,0.0324,0.013523,0.002678,0.000431,0.000823
29932000,0.0324,0.013523,0.002678,0.000431,0.000940
29933000,0.0324,0.013523,0.002678,0.000431,0.000705
29934000,0.0324,0.013523,0.002678,0.000431,0.000940
29935000,0.0324,0.013523,0.002678,0.000431,0.000705
29936000,0.0324,0.013523,0.002678,0.000431,0.000940
29937000,0.0324,0.013523,0.002678,0.000431,0.000823
29938000,0.0324,0.013523,0.002678,0.000431,0.000823
29939000,0.0324,0.013523,0.002678,0.000431,0.000940
29940000,0.0324,0.013523,0.002678,0.000431,0.000705
29941000,0.0324,0.013523,0.002678,0.000431,0.000940
29942000,0.0324,0.013523,0.002678,0.000431,0.000823
29943000,0.0324,0.013523,0.002678,0.000431,0.000823
29944000,0.0324,0.013523,0.002678,0.000431,0.000823
29945000,0.0324,0.013523,0.002678,0.000431,0.000823
29946000,0.0324,0.013523,0.002678,0.000431,0.000940
29947000,0.0324,0.013523,0.002678,0.000431,0.000705
29948000,0.0324,0.013523,0.002678,0.000431,0.000940
29949000,0.0324,0.013523,0.002678,0.000431,0.000823
29950000,0.0324,0.013523,0.002678,0.000431,0.000823
29951000,0.0324,0.013523,0.002678,0.000431,0.000823
29952000,0.0324,0.013523,0.002678,0.000431,0.000823
29953000,0.0324,0.013523,0.002678,0.000431,0.000823
29954000,0.0324,0.013523,0.002678,0.000431,0.000823
29955000,0.0324,0.013523,0.002678,0.000431,0.000823
29956000,0.0324,0.013523,0.002678,0.000431,0.000823
29957000,0.0324,0.013523,0.002678,0.000431,0.000940
29958000,0.0324,0.013523,0.002678,0.000431,0.000823
29959000,0.0324,0.013523,0.002678,0.000431,0.000823
29960000,0.0324,0.013523,0.002678,0.000431,0.000705
29961000,0.0324,0.013523,0.002678,0.000431,0.000940
29962000,0.0324,0.013523,0.002678,0.000431,0.000940
29963000,0.0324,0.013523,0.002678,0.000431,0.000705
29964000,0.0324,0.013523,0.002678,0.000431,0.000940
29965000,0.0324,0.013523,0.002678,0.000431,0.000705
29966000,0.0324,0.013523,0.002678,0.000431,0.000940
29967000,0.0324,0.013523,0.002678,0.000431,0.000823
29968000,0.0324,0.013523,0.002678,0.000431,0.000823
29969000,0.0324,0.013523,0.002678,0.000431,0.000940
29970000,0.0324,0.013523,0.002678,0.000431,0.000705
29971000,0.0324,0.013523,0.002678,0.000431,0.000940
29972000,0.0324,0.013523,0.002678,0.000431,0.000705
29973000,0.0324,0.013523,0.002678,0.000431,0.000940
29974000,0.0324,0.013523,0.002678,0.000431,0.000823
29975000,0.0324,0.013523,0.002678,0.000431,0.000823
29976000,0.0324,0.013523,0.002678,0.000431,0.000823
29977000,0.0324,0.013523,0.002678,0.000431,0.000823
29978000,0.0324,0.013523,0.002678,0.000431,0.000823
29979000,0.0324,0.013523,0.002678,0.000431,0.000823
29980000,0.0324,0.013523,0.002678,0.000431,0.013398
29981000,0.0324,0.013523,0.002678,0.000431,0.478340
29982000,0.0324,0.013523,0.002678,0.000431,0.599746
29983000,0.0324,0.013523,0.002678,0.000431,0.134922
29984000,0.0324,0.013523,0.002678,0.000431,0.130691
29985000,0.0324,0.013523,0.002678,0.000431,0.212726
29986000,0.0324,0.013523,0.002678,0.000431,0.522060
29987000,0.0324,0.013523,0.002678,0.000431,0.246692
29988000,0.0324,0.013523,0.002678,0.000431,0.244694
29989000,0.0324,0.013523,0.002678,0.000431,0.248925
29990000,0.0324,0.013523,0.002678,0.000431,0.139506
29991000,0.0324,0.013523,0.002678,0.000431,0.162071
29992000,0.0324,0.013523,0.002678,0.000431,0.097313
29993000,0.0324,0.013523,0.002678,0.000431,0.424629
29994000,0.0324,0.013523,0.002678,0.000431,0.157840
29995000,0.0324,0.013523,0.002678,0.000431,0.034083
29996000,0.0324,0.013523,0.002678,0.000431,0.034788
29997000,0.0324,0.013523,0.002678,0.000431,0.027619
29998000,0.0324,0.013523,0.002678,0.000431,0.023976
29999000,0.0324,0.013523,0.002678,0.000431,0.022565
