Cycle,Area(mm^2),PeakDynamic(W),SubthresholdLeakage(W),GateLeakage(W),RunTimeDynamic(W)
122000000,0.0324,0.013523,0.002678,0.000431,0.000940
122001000,0.0324,0.013523,0.002678,0.000431,0.000823
122002000,0.0324,0.013523,0.002678,0.000431,0.000823
122003000,0.0324,0.013523,0.002678,0.000431,0.000823
122004000,0.0324,0.013523,0.002678,0.000431,0.000823
122005000,0.0324,0.013523,0.002678,0.000431,0.000823
122006000,0.0324,0.013523,0.002678,0.000431,0.000823
122007000,0.0324,0.013523,0.002678,0.000431,0.000823
122008000,0.0324,0.013523,0.002678,0.000431,0.000823
122009000,0.0324,0.013523,0.002678,0.000431,0.000940
122010000,0.0324,0.013523,0.002678,0.000431,0.000823
122011000,0.0324,0.013523,0.002678,0.000431,0.000823
122012000,0.0324,0.013523,0.002678,0.000431,0.000705
122013000,0.0324,0.013523,0.002678,0.000431,0.000940
122014000,0.0324,0.013523,0.002678,0.000431,0.000940
122015000,0.0324,0.013523,0.002678,0.000431,0.000705
122016000,0.0324,0.013523,0.002678,0.000431,0.000940
122017000,0.0324,0.013523,0.002678,0.000431,0.000705
122018000,0.0324,0.013523,0.002678,0.000431,0.000940
122019000,0.0324,0.013523,0.002678,0.000431,0.000823
122020000,0.0324,0.013523,0.002678,0.000431,0.000823
122021000,0.0324,0.013523,0.002678,0.000431,0.000940
122022000,0.0324,0.013523,0.002678,0.000431,0.000705
122023000,0.0324,0.013523,0.002678,0.000431,0.000940
122024000,0.0324,0.013523,0.002678,0.000431,0.000823
122025000,0.0324,0.013523,0.002678,0.000431,0.000823
122026000,0.0324,0.013523,0.002678,0.000431,0.000823
122027000,0.0324,0.013523,0.002678,0.000431,0.000823
122028000,0.0324,0.013523,0.002678,0.000431,0.000823
122029000,0.0324,0.013523,0.002678,0.000431,0.000823
122030000,0.0324,0.013523,0.002678,0.000431,0.000940
122031000,0.0324,0.013523,0.002678,0.000431,0.000705
122032000,0.0324,0.013523,0.002678,0.000431,0.000940
122033000,0.0324,0.013523,0.002678,0.000431,0.000823
122034000,0.0324,0.013523,0.002678,0.000431,0.000823
122035000,0.0324,0.013523,0.002678,0.000431,0.000705
122036000,0.0324,0.013523,0.002678,0.000431,0.000940
122037000,0.0324,0.013523,0.002678,0.000431,0.000940
122038000,0.0324,0.013523,0.002678,0.000431,0.000705
122039000,0.0324,0.013523,0.002678,0.000431,0.000940
122040000,0.0324,0.013523,0.002678,0.000431,0.000705
122041000,0.0324,0.013523,0.002678,0.000431,0.000940
122042000,0.0324,0.013523,0.002678,0.000431,0.000823
122043000,0.0324,0.013523,0.002678,0.000431,0.000823
122044000,0.0324,0.013523,0.002678,0.000431,0.000940
122045000,0.0324,0.013523,0.002678,0.000431,0.000705
122046000,0.0324,0.013523,0.002678,0.000431,0.000940
122047000,0.0324,0.013523,0.002678,0.000431,0.000823
122048000,0.0324,0.013523,0.002678,0.000431,0.000823
122049000,0.0324,0.013523,0.002678,0.000431,0.000823
122050000,0.0324,0.013523,0.002678,0.000431,0.000823
122051000,0.0324,0.013523,0.002678,0.000431,0.000823
122052000,0.0324,0.013523,0.002678,0.000431,0.000823
122053000,0.0324,0.013523,0.002678,0.000431,0.000940
122054000,0.0324,0.013523,0.002678,0.000431,0.000705
122055000,0.0324,0.013523,0.002678,0.000431,0.000823
122056000,0.0324,0.013523,0.002678,0.000431,0.000940
122057000,0.0324,0.013523,0.002678,0.000431,0.000823
122058000,0.0324,0.013523,0.002678,0.000431,0.000823
122059000,0.0324,0.013523,0.002678,0.000431,0.000823
122060000,0.0324,0.013523,0.002678,0.000431,0.000823
122061000,0.0324,0.013523,0.002678,0.000431,0.000823
122062000,0.0324,0.013523,0.002678,0.000431,0.000940
122063000,0.0324,0.013523,0.002678,0.000431,0.000823
122064000,0.0324,0.013523,0.002678,0.000431,0.000823
122065000,0.0324,0.013523,0.002678,0.000431,0.000705
122066000,0.0324,0.013523,0.002678,0.000431,0.000940
122067000,0.0324,0.013523,0.002678,0.000431,0.000940
122068000,0.0324,0.013523,0.002678,0.000431,0.000705
122069000,0.0324,0.013523,0.002678,0.000431,0.000940
122070000,0.0324,0.013523,0.002678,0.000431,0.000705
122071000,0.0324,0.013523,0.002678,0.000431,0.000940
122072000,0.0324,0.013523,0.002678,0.000431,0.000940
122073000,0.0324,0.013523,0.002678,0.000431,0.000705
122074000,0.0324,0.013523,0.002678,0.000431,0.000823
122075000,0.0324,0.013523,0.002678,0.000431,0.000940
122076000,0.0324,0.013523,0.002678,0.000431,0.000823
122077000,0.0324,0.013523,0.002678,0.000431,0.000823
122078000,0.0324,0.013523,0.002678,0.000431,0.000823
122079000,0.0324,0.013523,0.002678,0.000431,0.000823
122080000,0.0324,0.013523,0.002678,0.000431,0.000823
122081000,0.0324,0.013523,0.002678,0.000431,0.000940
122082000,0.0324,0.013523,0.002678,0.000431,0.000823
122083000,0.0324,0.013523,0.002678,0.000431,0.000823
122084000,0.0324,0.013523,0.002678,0.000431,0.000705
122085000,0.0324,0.013523,0.002678,0.000431,0.000940
122086000,0.0324,0.013523,0.002678,0.000431,0.000940
122087000,0.0324,0.013523,0.002678,0.000431,0.000705
122088000,0.0324,0.013523,0.002678,0.000431,0.000940
122089000,0.0324,0.013523,0.002678,0.000431,0.000705
122090000,0.0324,0.013523,0.002678,0.000431,0.000940
122091000,0.0324,0.013523,0.002678,0.000431,0.000823
122092000,0.0324,0.013523,0.002678,0.000431,0.000823
122093000,0.0324,0.013523,0.002678,0.000431,0.000940
122094000,0.0324,0.013523,0.002678,0.000431,0.000705
122095000,0.0324,0.013523,0.002678,0.000431,0.000940
122096000,0.0324,0.013523,0.002678,0.000431,0.000823
122097000,0.0324,0.013523,0.002678,0.000431,0.000823
122098000,0.0324,0.013523,0.002678,0.000431,0.000823
122099000,0.0324,0.013523,0.002678,0.000431,0.000823
122100000,0.0324,0.013523,0.002678,0.000431,0.000940
122101000,0.0324,0.013523,0.002678,0.000431,0.000705
122102000,0.0324,0.013523,0.002678,0.000431,0.000940
122103000,0.0324,0.013523,0.002678,0.000431,0.000823
122104000,0.0324,0.013523,0.002678,0.000431,0.000823
122105000,0.0324,0.013523,0.002678,0.000431,0.000823
122106000,0.0324,0.013523,0.002678,0.000431,0.000823
122107000,0.0324,0.013523,0.002678,0.000431,0.000940
122108000,0.0324,0.013523,0.002678,0.000431,0.000705
122109000,0.0324,0.013523,0.002678,0.000431,0.000940
122110000,0.0324,0.013523,0.002678,0.000431,0.000823
122111000,0.0324,0.013523,0.002678,0.000431,0.000823
122112000,0.0324,0.013523,0.002678,0.000431,0.000705
122113000,0.0324,0.013523,0.002678,0.000431,0.000940
122114000,0.0324,0.013523,0.002678,0.000431,0.000940
122115000,0.0324,0.013523,0.002678,0.000431,0.000705
122116000,0.0324,0.013523,0.002678,0.000431,0.000940
122117000,0.0324,0.013523,0.002678,0.000431,0.000705
122118000,0.0324,0.013523,0.002678,0.000431,0.000940
122119000,0.0324,0.013523,0.002678,0.000431,0.000823
122120000,0.0324,0.013523,0.002678,0.000431,0.000823
122121000,0.0324,0.013523,0.002678,0.000431,0.000940
122122000,0.0324,0.013523,0.002678,0.000431,0.000705
122123000,0.0324,0.013523,0.002678,0.000431,0.000940
122124000,0.0324,0.013523,0.002678,0.000431,0.000823
122125000,0.0324,0.013523,0.002678,0.000431,0.000823
122126000,0.0324,0.013523,0.002678,0.000431,0.000823
122127000,0.0324,0.013523,0.002678,0.000431,0.000823
122128000,0.0324,0.013523,0.002678,0.000431,0.000940
122129000,0.0324,0.013523,0.002678,0.000431,0.000705
122130000,0.0324,0.013523,0.002678,0.000431,0.000940
122131000,0.0324,0.013523,0.002678,0.000431,0.000823
122132000,0.0324,0.013523,0.002678,0.000431,0.000823
122133000,0.0324,0.013523,0.002678,0.000431,0.000823
122134000,0.0324,0.013523,0.002678,0.000431,0.000823
122135000,0.0324,0.013523,0.002678,0.000431,0.000940
122136000,0.0324,0.013523,0.002678,0.000431,0.000705
122137000,0.0324,0.013523,0.002678,0.000431,0.000823
122138000,0.0324,0.013523,0.002678,0.000431,0.000940
122139000,0.0324,0.013523,0.002678,0.000431,0.000823
122140000,0.0324,0.013523,0.002678,0.000431,0.000823
122141000,0.0324,0.013523,0.002678,0.000431,0.000823
122142000,0.0324,0.013523,0.002678,0.000431,0.000823
122143000,0.0324,0.013523,0.002678,0.000431,0.000823
122144000,0.0324,0.013523,0.002678,0.000431,0.000940
122145000,0.0324,0.013523,0.002678,0.000431,0.000823
122146000,0.0324,0.013523,0.002678,0.000431,0.000823
122147000,0.0324,0.013523,0.002678,0.000431,0.000705
122148000,0.0324,0.013523,0.002678,0.000431,0.000940
122149000,0.0324,0.013523,0.002678,0.000431,0.000940
122150000,0.0324,0.013523,0.002678,0.000431,0.000705
122151000,0.0324,0.013523,0.002678,0.000431,0.000940
122152000,0.0324,0.013523,0.002678,0.000431,0.000705
122153000,0.0324,0.013523,0.002678,0.000431,0.000940
122154000,0.0324,0.013523,0.002678,0.000431,0.000823
122155000,0.0324,0.013523,0.002678,0.000431,0.000823
122156000,0.0324,0.013523,0.002678,0.000431,0.000940
122157000,0.0324,0.013523,0.002678,0.000431,0.000705
122158000,0.0324,0.013523,0.002678,0.000431,0.000940
122159000,0.0324,0.013523,0.002678,0.000431,0.000823
122160000,0.0324,0.013523,0.002678,0.000431,0.000823
122161000,0.0324,0.013523,0.002678,0.000431,0.000823
122162000,0.0324,0.013523,0.002678,0.000431,0.000823
122163000,0.0324,0.013523,0.002678,0.000431,0.000940
122164000,0.0324,0.013523,0.002678,0.000431,0.000705
122165000,0.0324,0.013523,0.002678,0.000431,0.000940
122166000,0.0324,0.013523,0.002678,0.000431,0.000823
122167000,0.0324,0.013523,0.002678,0.000431,0.000823
122168000,0.0324,0.013523,0.002678,0.000431,0.000823
122169000,0.0324,0.013523,0.002678,0.000431,0.000823
122170000,0.0324,0.013523,0.002678,0.000431,0.000823
122171000,0.0324,0.013523,0.002678,0.000431,0.000823
122172000,0.0324,0.013523,0.002678,0.000431,0.000940
122173000,0.0324,0.013523,0.002678,0.000431,0.000705
122174000,0.0324,0.013523,0.002678,0.000431,0.000940
122175000,0.0324,0.013523,0.002678,0.000431,0.000705
122176000,0.0324,0.013523,0.002678,0.000431,0.000940
122177000,0.0324,0.013523,0.002678,0.000431,0.000940
122178000,0.0324,0.013523,0.002678,0.000431,0.000705
122179000,0.0324,0.013523,0.002678,0.000431,0.000940
122180000,0.0324,0.013523,0.002678,0.000431,0.000705
122181000,0.0324,0.013523,0.002678,0.000431,0.000940
122182000,0.0324,0.013523,0.002678,0.000431,0.000823
122183000,0.0324,0.013523,0.002678,0.000431,0.000823
122184000,0.0324,0.013523,0.002678,0.000431,0.000823
122185000,0.0324,0.013523,0.002678,0.000431,0.000823
122186000,0.0324,0.013523,0.002678,0.000431,0.001528
122187000,0.0324,0.013523,0.002678,0.000431,0.283360
122188000,0.0324,0.013523,0.002678,0.000431,0.587876
122189000,0.0324,0.013523,0.002678,0.000431,0.234351
122190000,0.0324,0.013523,0.002678,0.000431,0.131632
122191000,0.0324,0.013523,0.002678,0.000431,0.133982
122192000,0.0324,0.013523,0.002678,0.000431,0.579061
122193000,0.0324,0.013523,0.002678,0.000431,0.235174
122194000,0.0324,0.013523,0.002678,0.000431,0.230355
122195000,0.0324,0.013523,0.002678,0.000431,0.301460
122196000,0.0324,0.013523,0.002678,0.000431,0.137508
122197000,0.0324,0.013523,0.002678,0.000431,0.140681
122198000,0.0324,0.013523,0.002678,0.000431,0.143972
122199000,0.0324,0.013523,0.002678,0.000431,0.232823
122200000,0.0324,0.013523,0.002678,0.000431,0.339304
122201000,0.0324,0.013523,0.002678,0.000431,0.007992
122202000,0.0324,0.013523,0.002678,0.000431,0.005406
122203000,0.0324,0.013523,0.002678,0.000431,0.005289
122204000,0.0324,0.013523,0.002678,0.000431,0.005406
122205000,0.0324,0.013523,0.002678,0.000431,0.005406
122206000,0.0324,0.013523,0.002678,0.000431,0.006699
122207000,0.0324,0.013523,0.002678,0.000431,0.005641
122208000,0.0324,0.013523,0.002678,0.000431,0.003643
122209000,0.0324,0.013523,0.002678,0.000431,0.003526
122210000,0.0324,0.013523,0.002678,0.000431,0.003291
122211000,0.0324,0.013523,0.002678,0.000431,0.003643
122212000,0.0324,0.013523,0.002678,0.000431,0.003643
122213000,0.0324,0.013523,0.002678,0.000431,0.003291
122214000,0.0324,0.013523,0.002678,0.000431,0.003526
122215000,0.0324,0.013523,0.002678,0.000431,0.003643
122216000,0.0324,0.013523,0.002678,0.000431,0.003526
122217000,0.0324,0.013523,0.002678,0.000431,0.003408
122218000,0.0324,0.013523,0.002678,0.000431,0.003526
122219000,0.0324,0.013523,0.002678,0.000431,0.003643
122220000,0.0324,0.013523,0.002678,0.000431,0.003291
122221000,0.0324,0.013523,0.002678,0.000431,0.003526
122222000,0.0324,0.013523,0.002678,0.000431,0.003643
122223000,0.0324,0.013523,0.002678,0.000431,0.003643
122224000,0.0324,0.013523,0.002678,0.000431,0.003408
122225000,0.0324,0.013523,0.002678,0.000431,0.003291
122226000,0.0324,0.013523,0.002678,0.000431,0.004701
122227000,0.0324,0.013523,0.002678,0.000431,0.002821
122228000,0.0324,0.013523,0.002678,0.000431,0.002468
122229000,0.0324,0.013523,0.002678,0.000431,0.002586
122230000,0.0324,0.013523,0.002678,0.000431,0.002703
122231000,0.0324,0.013523,0.002678,0.000431,0.002821
122232000,0.0324,0.013523,0.002678,0.000431,0.002468
122233000,0.0324,0.013523,0.002678,0.000431,0.002468
122234000,0.0324,0.013523,0.002678,0.000431,0.002821
122235000,0.0324,0.013523,0.002678,0.000431,0.002586
122236000,0.0324,0.013523,0.002678,0.000431,0.002703
122237000,0.0324,0.013523,0.002678,0.000431,0.002468
122238000,0.0324,0.013523,0.002678,0.000431,0.002821
122239000,0.0324,0.013523,0.002678,0.000431,0.004113
122240000,0.0324,0.013523,0.002678,0.000431,0.003291
122241000,0.0324,0.013523,0.002678,0.000431,0.000940
122242000,0.0324,0.013523,0.002678,0.000431,0.000823
122243000,0.0324,0.013523,0.002678,0.000431,0.000940
122244000,0.0324,0.013523,0.002678,0.000431,0.000823
122245000,0.0324,0.013523,0.002678,0.000431,0.000823
122246000,0.0324,0.013523,0.002678,0.000431,0.000940
122247000,0.0324,0.013523,0.002678,0.000431,0.000823
122248000,0.0324,0.013523,0.002678,0.000431,0.000823
122249000,0.0324,0.013523,0.002678,0.000431,0.000940
122250000,0.0324,0.013523,0.002678,0.000431,0.001645
122251000,0.0324,0.013523,0.002678,0.000431,0.300285
122252000,0.0324,0.013523,0.002678,0.000431,0.605153
122253000,0.0324,0.013523,0.002678,0.000431,0.204734
122254000,0.0324,0.013523,0.002678,0.000431,0.131632
122255000,0.0324,0.013523,0.002678,0.000431,0.133394
122256000,0.0324,0.013523,0.002678,0.000431,0.615730
122257000,0.0324,0.013523,0.002678,0.000431,0.265261
122258000,0.0324,0.013523,0.002678,0.000431,0.245751
122259000,0.0324,0.013523,0.002678,0.000431,0.238230
122260000,0.0324,0.013523,0.002678,0.000431,0.138096
122261000,0.0324,0.013523,0.002678,0.000431,0.142679
122262000,0.0324,0.013523,0.002678,0.000431,0.127988
122263000,0.0324,0.013523,0.002678,0.000431,0.283831
122264000,0.0324,0.013523,0.002678,0.000431,0.346120
122265000,0.0324,0.013523,0.002678,0.000431,0.079567
122266000,0.0324,0.013523,0.002678,0.000431,0.062407
122267000,0.0324,0.013523,0.002678,0.000431,0.058176
122268000,0.0324,0.013523,0.002678,0.000431,0.053828
122269000,0.0324,0.013523,0.002678,0.000431,0.044896
122270000,0.0324,0.013523,0.002678,0.000431,0.044778
122271000,0.0324,0.013523,0.002678,0.000431,0.030557
122272000,0.0324,0.013523,0.002678,0.000431,0.033731
122273000,0.0324,0.013523,0.002678,0.000431,0.028677
122274000,0.0324,0.013523,0.002678,0.000431,0.028324
122275000,0.0324,0.013523,0.002678,0.000431,0.027267
122276000,0.0324,0.013523,0.002678,0.000431,0.019392
122277000,0.0324,0.013523,0.002678,0.000431,0.015749
122278000,0.0324,0.013523,0.002678,0.000431,0.013516
122279000,0.0324,0.013523,0.002678,0.000431,0.012340
122280000,0.0324,0.013523,0.002678,0.000431,0.013633
122281000,0.0324,0.013523,0.002678,0.000431,0.012340
122282000,0.0324,0.013523,0.002678,0.000431,0.014103
122283000,0.0324,0.013523,0.002678,0.000431,0.011753
122284000,0.0324,0.013523,0.002678,0.000431,0.010578
122285000,0.0324,0.013523,0.002678,0.000431,0.012693
122286000,0.0324,0.013523,0.002678,0.000431,0.010107
122287000,0.0324,0.013523,0.002678,0.000431,0.010107
122288000,0.0324,0.013523,0.002678,0.000431,0.013046
122289000,0.0324,0.013523,0.002678,0.000431,0.007639
122290000,0.0324,0.013523,0.002678,0.000431,0.007522
122291000,0.0324,0.013523,0.002678,0.000431,0.007757
122292000,0.0324,0.013523,0.002678,0.000431,0.007639
122293000,0.0324,0.013523,0.002678,0.000431,0.007639
122294000,0.0324,0.013523,0.002678,0.000431,0.007639
122295000,0.0324,0.013523,0.002678,0.000431,0.008462
122296000,0.0324,0.013523,0.002678,0.000431,0.007169
122297000,0.0324,0.013523,0.002678,0.000431,0.009050
122298000,0.0324,0.013523,0.002678,0.000431,0.007874
122299000,0.0324,0.013523,0.002678,0.000431,0.004819
122300000,0.0324,0.013523,0.002678,0.000431,0.005524
122301000,0.0324,0.013523,0.002678,0.000431,0.005171
122302000,0.0324,0.013523,0.002678,0.000431,0.004819
122303000,0.0324,0.013523,0.002678,0.000431,0.005406
122304000,0.0324,0.013523,0.002678,0.000431,0.004936
122305000,0.0324,0.013523,0.002678,0.000431,0.003761
122306000,0.0324,0.013523,0.002678,0.000431,0.004231
122307000,0.0324,0.013523,0.002678,0.000431,0.003996
122308000,0.0324,0.013523,0.002678,0.000431,0.002586
122309000,0.0324,0.013523,0.002678,0.000431,0.002468
122310000,0.0324,0.013523,0.002678,0.000431,0.002703
122311000,0.0324,0.013523,0.002678,0.000431,0.002468
122312000,0.0324,0.013523,0.002678,0.000431,0.002586
122313000,0.0324,0.013523,0.002678,0.000431,0.002703
122314000,0.0324,0.013523,0.002678,0.000431,0.002468
122315000,0.0324,0.013523,0.002678,0.000431,0.002703
122316000,0.0324,0.013523,0.002678,0.000431,0.002468
122317000,0.0324,0.013523,0.002678,0.000431,0.002586
122318000,0.0324,0.013523,0.002678,0.000431,0.002586
122319000,0.0324,0.013523,0.002678,0.000431,0.002703
122320000,0.0324,0.013523,0.002678,0.000431,0.002468
122321000,0.0324,0.013523,0.002678,0.000431,0.002703
122322000,0.0324,0.013523,0.002678,0.000431,0.002468
122323000,0.0324,0.013523,0.002678,0.000431,0.002703
122324000,0.0324,0.013523,0.002678,0.000431,0.002468
122325000,0.0324,0.013523,0.002678,0.000431,0.002703
122326000,0.0324,0.013523,0.002678,0.000431,0.002468
122327000,0.0324,0.013523,0.002678,0.000431,0.004584
122328000,0.0324,0.013523,0.002678,0.000431,0.001880
122329000,0.0324,0.013523,0.002678,0.000431,0.001763
122330000,0.0324,0.013523,0.002678,0.000431,0.003526
122331000,0.0324,0.013523,0.002678,0.000431,0.000823
122332000,0.0324,0.013523,0.002678,0.000431,0.000940
122333000,0.0324,0.013523,0.002678,0.000431,0.000823
122334000,0.0324,0.013523,0.002678,0.000431,0.000940
122335000,0.0324,0.013523,0.002678,0.000431,0.000823
122336000,0.0324,0.013523,0.002678,0.000431,0.000940
122337000,0.0324,0.013523,0.002678,0.000431,0.000823
122338000,0.0324,0.013523,0.002678,0.000431,0.000823
122339000,0.0324,0.013523,0.002678,0.000431,0.000940
122340000,0.0324,0.013523,0.002678,0.000431,0.000940
122341000,0.0324,0.013523,0.002678,0.000431,0.000823
122342000,0.0324,0.013523,0.002678,0.000431,0.000823
122343000,0.0324,0.013523,0.002678,0.000431,0.000940
122344000,0.0324,0.013523,0.002678,0.000431,0.000940
122345000,0.0324,0.013523,0.002678,0.000431,0.000705
122346000,0.0324,0.013523,0.002678,0.000431,0.000940
122347000,0.0324,0.013523,0.002678,0.000431,0.000940
122348000,0.0324,0.013523,0.002678,0.000431,0.000940
122349000,0.0324,0.013523,0.002678,0.000431,0.000705
122350000,0.0324,0.013523,0.002678,0.000431,0.000940
122351000,0.0324,0.013523,0.002678,0.000431,0.000940
122352000,0.0324,0.013523,0.002678,0.000431,0.000823
122353000,0.0324,0.013523,0.002678,0.000431,0.000940
122354000,0.0324,0.013523,0.002678,0.000431,0.000823
122355000,0.0324,0.013523,0.002678,0.000431,0.000940
122356000,0.0324,0.013523,0.002678,0.000431,0.000823
122357000,0.0324,0.013523,0.002678,0.000431,0.000823
122358000,0.0324,0.013523,0.002678,0.000431,0.000940
122359000,0.0324,0.013523,0.002678,0.000431,0.000823
122360000,0.0324,0.013523,0.002678,0.000431,0.000823
122361000,0.0324,0.013523,0.002678,0.000431,0.000940
122362000,0.0324,0.013523,0.002678,0.000431,0.000940
122363000,0.0324,0.013523,0.002678,0.000431,0.000940
122364000,0.0324,0.013523,0.002678,0.000431,0.000705
122365000,0.0324,0.013523,0.002678,0.000431,0.000940
122366000,0.0324,0.013523,0.002678,0.000431,0.000940
122367000,0.0324,0.013523,0.002678,0.000431,0.000823
122368000,0.0324,0.013523,0.002678,0.000431,0.000823
122369000,0.0324,0.013523,0.002678,0.000431,0.000940
122370000,0.0324,0.013523,0.002678,0.000431,0.000940
122371000,0.0324,0.013523,0.002678,0.000431,0.000823
122372000,0.0324,0.013523,0.002678,0.000431,0.000823
122373000,0.0324,0.013523,0.002678,0.000431,0.000940
122374000,0.0324,0.013523,0.002678,0.000431,0.000823
122375000,0.0324,0.013523,0.002678,0.000431,0.000940
122376000,0.0324,0.013523,0.002678,0.000431,0.000823
122377000,0.0324,0.013523,0.002678,0.000431,0.000940
122378000,0.0324,0.013523,0.002678,0.000431,0.000823
122379000,0.0324,0.013523,0.002678,0.000431,0.000823
122380000,0.0324,0.013523,0.002678,0.000431,0.000940
122381000,0.0324,0.013523,0.002678,0.000431,0.000940
122382000,0.0324,0.013523,0.002678,0.000431,0.000823
122383000,0.0324,0.013523,0.002678,0.000431,0.000823
122384000,0.0324,0.013523,0.002678,0.000431,0.000940
122385000,0.0324,0.013523,0.002678,0.000431,0.000940
122386000,0.0324,0.013523,0.002678,0.000431,0.000823
122387000,0.0324,0.013523,0.002678,0.000431,0.000823
122388000,0.0324,0.013523,0.002678,0.000431,0.000940
122389000,0.0324,0.013523,0.002678,0.000431,0.000940
122390000,0.0324,0.013523,0.002678,0.000431,0.000823
122391000,0.0324,0.013523,0.002678,0.000431,0.000823
122392000,0.0324,0.013523,0.002678,0.000431,0.000940
122393000,0.0324,0.013523,0.002678,0.000431,0.000823
122394000,0.0324,0.013523,0.002678,0.000431,0.000940
122395000,0.0324,0.013523,0.002678,0.000431,0.000823
122396000,0.0324,0.013523,0.002678,0.000431,0.000940
122397000,0.0324,0.013523,0.002678,0.000431,0.000823
122398000,0.0324,0.013523,0.002678,0.000431,0.000823
122399000,0.0324,0.013523,0.002678,0.000431,0.000940
122400000,0.0324,0.013523,0.002678,0.000431,0.000940
122401000,0.0324,0.013523,0.002678,0.000431,0.000705
122402000,0.0324,0.013523,0.002678,0.000431,0.000940
122403000,0.0324,0.013523,0.002678,0.000431,0.000940
122404000,0.0324,0.013523,0.002678,0.000431,0.000940
122405000,0.0324,0.013523,0.002678,0.000431,0.000705
122406000,0.0324,0.013523,0.002678,0.000431,0.000940
122407000,0.0324,0.013523,0.002678,0.000431,0.000940
122408000,0.0324,0.013523,0.002678,0.000431,0.000823
122409000,0.0324,0.013523,0.002678,0.000431,0.000823
122410000,0.0324,0.013523,0.002678,0.000431,0.000940
122411000,0.0324,0.013523,0.002678,0.000431,0.000940
122412000,0.0324,0.013523,0.002678,0.000431,0.000823
122413000,0.0324,0.013523,0.002678,0.000431,0.000823
122414000,0.0324,0.013523,0.002678,0.000431,0.000940
122415000,0.0324,0.013523,0.002678,0.000431,0.000823
122416000,0.0324,0.013523,0.002678,0.000431,0.000940
122417000,0.0324,0.013523,0.002678,0.000431,0.000823
122418000,0.0324,0.013523,0.002678,0.000431,0.000940
122419000,0.0324,0.013523,0.002678,0.000431,0.000823
122420000,0.0324,0.013523,0.002678,0.000431,0.000823
122421000,0.0324,0.013523,0.002678,0.000431,0.000940
122422000,0.0324,0.013523,0.002678,0.000431,0.000940
122423000,0.0324,0.013523,0.002678,0.000431,0.000940
122424000,0.0324,0.013523,0.002678,0.000431,0.000705
122425000,0.0324,0.013523,0.002678,0.000431,0.000940
122426000,0.0324,0.013523,0.002678,0.000431,0.000940
122427000,0.0324,0.013523,0.002678,0.000431,0.000823
122428000,0.0324,0.013523,0.002678,0.000431,0.000823
122429000,0.0324,0.013523,0.002678,0.000431,0.000940
122430000,0.0324,0.013523,0.002678,0.000431,0.000940
122431000,0.0324,0.013523,0.002678,0.000431,0.000823
122432000,0.0324,0.013523,0.002678,0.000431,0.000823
122433000,0.0324,0.013523,0.002678,0.000431,0.000940
122434000,0.0324,0.013523,0.002678,0.000431,0.000823
122435000,0.0324,0.013523,0.002678,0.000431,0.000940
122436000,0.0324,0.013523,0.002678,0.000431,0.000823
122437000,0.0324,0.013523,0.002678,0.000431,0.000940
122438000,0.0324,0.013523,0.002678,0.000431,0.000823
122439000,0.0324,0.013523,0.002678,0.000431,0.000823
122440000,0.0324,0.013523,0.002678,0.000431,0.000940
122441000,0.0324,0.013523,0.002678,0.000431,0.000940
122442000,0.0324,0.013523,0.002678,0.000431,0.000823
122443000,0.0324,0.013523,0.002678,0.000431,0.000823
122444000,0.0324,0.013523,0.002678,0.000431,0.000940
122445000,0.0324,0.013523,0.002678,0.000431,0.000940
122446000,0.0324,0.013523,0.002678,0.000431,0.000823
122447000,0.0324,0.013523,0.002678,0.000431,0.000823
122448000,0.0324,0.013523,0.002678,0.000431,0.000940
122449000,0.0324,0.013523,0.002678,0.000431,0.000823
122450000,0.0324,0.013523,0.002678,0.000431,0.000940
122451000,0.0324,0.013523,0.002678,0.000431,0.000823
122452000,0.0324,0.013523,0.002678,0.000431,0.000940
122453000,0.0324,0.013523,0.002678,0.000431,0.000823
122454000,0.0324,0.013523,0.002678,0.000431,0.000823
122455000,0.0324,0.013523,0.002678,0.000431,0.000940
122456000,0.0324,0.013523,0.002678,0.000431,0.000940
122457000,0.0324,0.013523,0.002678,0.000431,0.000823
122458000,0.0324,0.013523,0.002678,0.000431,0.000823
122459000,0.0324,0.013523,0.002678,0.000431,0.000940
122460000,0.0324,0.013523,0.002678,0.000431,0.000940
122461000,0.0324,0.013523,0.002678,0.000431,0.000705
122462000,0.0324,0.013523,0.002678,0.000431,0.000940
122463000,0.0324,0.013523,0.002678,0.000431,0.000940
122464000,0.0324,0.013523,0.002678,0.000431,0.000940
122465000,0.0324,0.013523,0.002678,0.000431,0.000705
122466000,0.0324,0.013523,0.002678,0.000431,0.000940
122467000,0.0324,0.013523,0.002678,0.000431,0.000940
122468000,0.0324,0.013523,0.002678,0.000431,0.000823
122469000,0.0324,0.013523,0.002678,0.000431,0.000823
122470000,0.0324,0.013523,0.002678,0.000431,0.000940
122471000,0.0324,0.013523,0.002678,0.000431,0.000940
122472000,0.0324,0.013523,0.002678,0.000431,0.002586
122473000,0.0324,0.013523,0.002678,0.000431,0.444021
122474000,0.0324,0.013523,0.002678,0.000431,0.670851
122475000,0.0324,0.013523,0.002678,0.000431,0.132572
122476000,0.0324,0.013523,0.002678,0.000431,0.133042
122477000,0.0324,0.013523,0.002678,0.000431,0.210023
122478000,0.0324,0.013523,0.002678,0.000431,0.542275
122479000,0.0324,0.013523,0.002678,0.000431,0.265379
122480000,0.0324,0.013523,0.002678,0.000431,0.294408
122481000,0.0324,0.013523,0.002678,0.000431,0.210258
122482000,0.0324,0.013523,0.002678,0.000431,0.147498
122483000,0.0324,0.013523,0.002678,0.000431,0.141974
122484000,0.0324,0.013523,0.002678,0.000431,0.206379
122485000,0.0324,0.013523,0.002678,0.000431,0.377383
122486000,0.0324,0.013523,0.002678,0.000431,0.053593
122487000,0.0324,0.013523,0.002678,0.000431,0.050420
122488000,0.0324,0.013523,0.002678,0.000431,0.046424
122489000,0.0324,0.013523,0.002678,0.000431,0.039842
122490000,0.0324,0.013523,0.002678,0.000431,0.041017
122491000,0.0324,0.013523,0.002678,0.000431,0.032085
122492000,0.0324,0.013523,0.002678,0.000431,0.030675
122493000,0.0324,0.013523,0.002678,0.000431,0.026444
122494000,0.0324,0.013523,0.002678,0.000431,0.019862
122495000,0.0324,0.013523,0.002678,0.000431,0.018805
122496000,0.0324,0.013523,0.002678,0.000431,0.019510
122497000,0.0324,0.013523,0.002678,0.000431,0.015514
122498000,0.0324,0.013523,0.002678,0.000431,0.016807
122499000,0.0324,0.013523,0.002678,0.000431,0.016219
122500000,0.0324,0.013523,0.002678,0.000431,0.014573
122501000,0.0324,0.013523,0.002678,0.000431,0.018334
122502000,0.0324,0.013523,0.002678,0.000431,0.010225
122503000,0.0324,0.013523,0.002678,0.000431,0.012576
122504000,0.0324,0.013523,0.002678,0.000431,0.009990
122505000,0.0324,0.013523,0.002678,0.000431,0.009167
122506000,0.0324,0.013523,0.002678,0.000431,0.009872
122507000,0.0324,0.013523,0.002678,0.000431,0.009402
122508000,0.0324,0.013523,0.002678,0.000431,0.009167
122509000,0.0324,0.013523,0.002678,0.000431,0.011518
122510000,0.0324,0.013523,0.002678,0.000431,0.007757
122511000,0.0324,0.013523,0.002678,0.000431,0.009050
122512000,0.0324,0.013523,0.002678,0.000431,0.009990
122513000,0.0324,0.013523,0.002678,0.000431,0.006464
122514000,0.0324,0.013523,0.002678,0.000431,0.005641
122515000,0.0324,0.013523,0.002678,0.000431,0.005876
122516000,0.0324,0.013523,0.002678,0.000431,0.006229
122517000,0.0324,0.013523,0.002678,0.000431,0.006464
122518000,0.0324,0.013523,0.002678,0.000431,0.006111
122519000,0.0324,0.013523,0.002678,0.000431,0.006582
122520000,0.0324,0.013523,0.002678,0.000431,0.005171
122521000,0.0324,0.013523,0.002678,0.000431,0.006111
122522000,0.0324,0.013523,0.002678,0.000431,0.006347
122523000,0.0324,0.013523,0.002678,0.000431,0.004819
122524000,0.0324,0.013523,0.002678,0.000431,0.004936
122525000,0.0324,0.013523,0.002678,0.000431,0.004231
122526000,0.0324,0.013523,0.002678,0.000431,0.005289
122527000,0.0324,0.013523,0.002678,0.000431,0.004349
122528000,0.0324,0.013523,0.002678,0.000431,0.004936
122529000,0.0324,0.013523,0.002678,0.000431,0.004701
122530000,0.0324,0.013523,0.002678,0.000431,0.004936
122531000,0.0324,0.013523,0.002678,0.000431,0.004466
122532000,0.0324,0.013523,0.002678,0.000431,0.004936
122533000,0.0324,0.013523,0.002678,0.000431,0.004701
122534000,0.0324,0.013523,0.002678,0.000431,0.004701
122535000,0.0324,0.013523,0.002678,0.000431,0.004231
122536000,0.0324,0.013523,0.002678,0.000431,0.004936
122537000,0.0324,0.013523,0.002678,0.000431,0.005054
122538000,0.0324,0.013523,0.002678,0.000431,0.004819
122539000,0.0324,0.013523,0.002678,0.000431,0.005994
122540000,0.0324,0.013523,0.002678,0.000431,0.003408
122541000,0.0324,0.013523,0.002678,0.000431,0.003291
122542000,0.0324,0.013523,0.002678,0.000431,0.003173
122543000,0.0324,0.013523,0.002678,0.000431,0.003408
122544000,0.0324,0.013523,0.002678,0.000431,0.003878
122545000,0.0324,0.013523,0.002678,0.000431,0.001645
122546000,0.0324,0.013523,0.002678,0.000431,0.001763
122547000,0.0324,0.013523,0.002678,0.000431,0.001410
122548000,0.0324,0.013523,0.002678,0.000431,0.001880
122549000,0.0324,0.013523,0.002678,0.000431,0.001763
122550000,0.0324,0.013523,0.002678,0.000431,0.001528
122551000,0.0324,0.013523,0.002678,0.000431,0.001763
122552000,0.0324,0.013523,0.002678,0.000431,0.001528
122553000,0.0324,0.013523,0.002678,0.000431,0.001645
122554000,0.0324,0.013523,0.002678,0.000431,0.001880
122555000,0.0324,0.013523,0.002678,0.000431,0.001528
122556000,0.0324,0.013523,0.002678,0.000431,0.001763
122557000,0.0324,0.013523,0.002678,0.000431,0.001528
122558000,0.0324,0.013523,0.002678,0.000431,0.001763
122559000,0.0324,0.013523,0.002678,0.000431,0.001645
122560000,0.0324,0.013523,0.002678,0.000431,0.001645
122561000,0.0324,0.013523,0.002678,0.000431,0.001645
122562000,0.0324,0.013523,0.002678,0.000431,0.001645
122563000,0.0324,0.013523,0.002678,0.000431,0.001763
122564000,0.0324,0.013523,0.002678,0.000431,0.001645
122565000,0.0324,0.013523,0.002678,0.000431,0.001645
122566000,0.0324,0.013523,0.002678,0.000431,0.001763
122567000,0.0324,0.013523,0.002678,0.000431,0.001645
122568000,0.0324,0.013523,0.002678,0.000431,0.001645
122569000,0.0324,0.013523,0.002678,0.000431,0.001763
122570000,0.0324,0.013523,0.002678,0.000431,0.001645
122571000,0.0324,0.013523,0.002678,0.000431,0.001645
122572000,0.0324,0.013523,0.002678,0.000431,0.001645
122573000,0.0324,0.013523,0.002678,0.000431,0.001645
122574000,0.0324,0.013523,0.002678,0.000431,0.001763
122575000,0.0324,0.013523,0.002678,0.000431,0.001645
122576000,0.0324,0.013523,0.002678,0.000431,0.001645
122577000,0.0324,0.013523,0.002678,0.000431,0.001645
122578000,0.0324,0.013523,0.002678,0.000431,0.001763
122579000,0.0324,0.013523,0.002678,0.000431,0.001763
122580000,0.0324,0.013523,0.002678,0.000431,0.001645
122581000,0.0324,0.013523,0.002678,0.000431,0.002586
122582000,0.0324,0.013523,0.002678,0.000431,0.001763
122583000,0.0324,0.013523,0.002678,0.000431,0.000940
122584000,0.0324,0.013523,0.002678,0.000431,0.000940
122585000,0.0324,0.013523,0.002678,0.000431,0.000705
122586000,0.0324,0.013523,0.002678,0.000431,0.000940
122587000,0.0324,0.013523,0.002678,0.000431,0.000705
122588000,0.0324,0.013523,0.002678,0.000431,0.000940
122589000,0.0324,0.013523,0.002678,0.000431,0.000823
122590000,0.0324,0.013523,0.002678,0.000431,0.000823
122591000,0.0324,0.013523,0.002678,0.000431,0.000940
122592000,0.0324,0.013523,0.002678,0.000431,0.000705
122593000,0.0324,0.013523,0.002678,0.000431,0.000940
122594000,0.0324,0.013523,0.002678,0.000431,0.000823
122595000,0.0324,0.013523,0.002678,0.000431,0.000823
122596000,0.0324,0.013523,0.002678,0.000431,0.000823
122597000,0.0324,0.013523,0.002678,0.000431,0.000823
122598000,0.0324,0.013523,0.002678,0.000431,0.000940
122599000,0.0324,0.013523,0.002678,0.000431,0.000705
122600000,0.0324,0.013523,0.002678,0.000431,0.000940
122601000,0.0324,0.013523,0.002678,0.000431,0.000705
122602000,0.0324,0.013523,0.002678,0.000431,0.000940
122603000,0.0324,0.013523,0.002678,0.000431,0.000823
122604000,0.0324,0.013523,0.002678,0.000431,0.000823
122605000,0.0324,0.013523,0.002678,0.000431,0.000823
122606000,0.0324,0.013523,0.002678,0.000431,0.000823
122607000,0.0324,0.013523,0.002678,0.000431,0.000823
122608000,0.0324,0.013523,0.002678,0.000431,0.000823
122609000,0.0324,0.013523,0.002678,0.000431,0.000940
122610000,0.0324,0.013523,0.002678,0.000431,0.000705
122611000,0.0324,0.013523,0.002678,0.000431,0.000823
122612000,0.0324,0.013523,0.002678,0.000431,0.000940
122613000,0.0324,0.013523,0.002678,0.000431,0.000823
122614000,0.0324,0.013523,0.002678,0.000431,0.000823
122615000,0.0324,0.013523,0.002678,0.000431,0.000823
122616000,0.0324,0.013523,0.002678,0.000431,0.000705
122617000,0.0324,0.013523,0.002678,0.000431,0.000940
122618000,0.0324,0.013523,0.002678,0.000431,0.000940
122619000,0.0324,0.013523,0.002678,0.000431,0.000705
122620000,0.0324,0.013523,0.002678,0.000431,0.000940
122621000,0.0324,0.013523,0.002678,0.000431,0.000705
122622000,0.0324,0.013523,0.002678,0.000431,0.000940
122623000,0.0324,0.013523,0.002678,0.000431,0.000940
122624000,0.0324,0.013523,0.002678,0.000431,0.000705
122625000,0.0324,0.013523,0.002678,0.000431,0.000940
122626000,0.0324,0.013523,0.002678,0.000431,0.000705
122627000,0.0324,0.013523,0.002678,0.000431,0.000940
122628000,0.0324,0.013523,0.002678,0.000431,0.000823
122629000,0.0324,0.013523,0.002678,0.000431,0.000823
122630000,0.0324,0.013523,0.002678,0.000431,0.000823
122631000,0.0324,0.013523,0.002678,0.000431,0.000823
122632000,0.0324,0.013523,0.002678,0.000431,0.000940
122633000,0.0324,0.013523,0.002678,0.000431,0.000705
122634000,0.0324,0.013523,0.002678,0.000431,0.000940
122635000,0.0324,0.013523,0.002678,0.000431,0.000705
122636000,0.0324,0.013523,0.002678,0.000431,0.000940
122637000,0.0324,0.013523,0.002678,0.000431,0.000823
122638000,0.0324,0.013523,0.002678,0.000431,0.000823
122639000,0.0324,0.013523,0.002678,0.000431,0.000705
122640000,0.0324,0.013523,0.002678,0.000431,0.000940
122641000,0.0324,0.013523,0.002678,0.000431,0.000940
122642000,0.0324,0.013523,0.002678,0.000431,0.000705
122643000,0.0324,0.013523,0.002678,0.000431,0.000940
122644000,0.0324,0.013523,0.002678,0.000431,0.000705
122645000,0.0324,0.013523,0.002678,0.000431,0.000940
122646000,0.0324,0.013523,0.002678,0.000431,0.000823
122647000,0.0324,0.013523,0.002678,0.000431,0.000823
122648000,0.0324,0.013523,0.002678,0.000431,0.000940
122649000,0.0324,0.013523,0.002678,0.000431,0.000705
122650000,0.0324,0.013523,0.002678,0.000431,0.000940
122651000,0.0324,0.013523,0.002678,0.000431,0.000823
122652000,0.0324,0.013523,0.002678,0.000431,0.000823
122653000,0.0324,0.013523,0.002678,0.000431,0.000823
122654000,0.0324,0.013523,0.002678,0.000431,0.000823
122655000,0.0324,0.013523,0.002678,0.000431,0.000823
122656000,0.0324,0.013523,0.002678,0.000431,0.000823
122657000,0.0324,0.013523,0.002678,0.000431,0.000940
122658000,0.0324,0.013523,0.002678,0.000431,0.000705
122659000,0.0324,0.013523,0.002678,0.000431,0.000823
122660000,0.0324,0.013523,0.002678,0.000431,0.000940
122661000,0.0324,0.013523,0.002678,0.000431,0.000823
122662000,0.0324,0.013523,0.002678,0.000431,0.000823
122663000,0.0324,0.013523,0.002678,0.000431,0.000823
122664000,0.0324,0.013523,0.002678,0.000431,0.000705
122665000,0.0324,0.013523,0.002678,0.000431,0.002233
122666000,0.0324,0.013523,0.002678,0.000431,0.339069
122667000,0.0324,0.013523,0.002678,0.000431,0.694121
122668000,0.0324,0.013523,0.002678,0.000431,0.139741
122669000,0.0324,0.013523,0.002678,0.000431,0.134805
122670000,0.0324,0.013523,0.002678,0.000431,0.130809
122671000,0.0324,0.013523,0.002678,0.000431,0.593400
122672000,0.0324,0.013523,0.002678,0.000431,0.225302
122673000,0.0324,0.013523,0.002678,0.000431,0.286416
122674000,0.0324,0.013523,0.002678,0.000431,0.257857
122675000,0.0324,0.013523,0.002678,0.000431,0.137273
122676000,0.0324,0.013523,0.002678,0.000431,0.135745
122677000,0.0324,0.013523,0.002678,0.000431,0.114943
122678000,0.0324,0.013523,0.002678,0.000431,0.371154
122679000,0.0324,0.013523,0.002678,0.000431,0.253391
122680000,0.0324,0.013523,0.002678,0.000431,0.073690
122681000,0.0324,0.013523,0.002678,0.000431,0.064523
122682000,0.0324,0.013523,0.002678,0.000431,0.062995
122683000,0.0324,0.013523,0.002678,0.000431,0.055003
122684000,0.0324,0.013523,0.002678,0.000431,0.044308
122685000,0.0324,0.013523,0.002678,0.000431,0.044543
122686000,0.0324,0.013523,0.002678,0.000431,0.038902
122687000,0.0324,0.013523,0.002678,0.000431,0.034201
122688000,0.0324,0.013523,0.002678,0.000431,0.034671
122689000,0.0324,0.013523,0.002678,0.000431,0.023036
122690000,0.0324,0.013523,0.002678,0.000431,0.022448
122691000,0.0324,0.013523,0.002678,0.000431,0.021508
122692000,0.0324,0.013523,0.002678,0.000431,0.017629
122693000,0.0324,0.013523,0.002678,0.000431,0.021273
122694000,0.0324,0.013523,0.002678,0.000431,0.016219
122695000,0.0324,0.013523,0.002678,0.000431,0.014456
122696000,0.0324,0.013523,0.002678,0.000431,0.015279
122697000,0.0324,0.013523,0.002678,0.000431,0.015044
122698000,0.0324,0.013523,0.002678,0.000431,0.016336
122699000,0.0324,0.013523,0.002678,0.000431,0.015749
122700000,0.0324,0.013523,0.002678,0.000431,0.012340
122701000,0.0324,0.013523,0.002678,0.000431,0.016219
122702000,0.0324,0.013523,0.002678,0.000431,0.010930
122703000,0.0324,0.013523,0.002678,0.000431,0.010813
122704000,0.0324,0.013523,0.002678,0.000431,0.011283
122705000,0.0324,0.013523,0.002678,0.000431,0.010695
122706000,0.0324,0.013523,0.002678,0.000431,0.011283
122707000,0.0324,0.013523,0.002678,0.000431,0.014926
122708000,0.0324,0.013523,0.002678,0.000431,0.009990
122709000,0.0324,0.013523,0.002678,0.000431,0.010342
122710000,0.0324,0.013523,0.002678,0.000431,0.009755
122711000,0.0324,0.013523,0.002678,0.000431,0.010342
122712000,0.0324,0.013523,0.002678,0.000431,0.010107
122713000,0.0324,0.013523,0.002678,0.000431,0.009637
122714000,0.0324,0.013523,0.002678,0.000431,0.010225
122715000,0.0324,0.013523,0.002678,0.000431,0.009755
122716000,0.0324,0.013523,0.002678,0.000431,0.010107
122717000,0.0324,0.013523,0.002678,0.000431,0.009872
122718000,0.0324,0.013523,0.002678,0.000431,0.009637
122719000,0.0324,0.013523,0.002678,0.000431,0.010460
122720000,0.0324,0.013523,0.002678,0.000431,0.010107
122721000,0.0324,0.013523,0.002678,0.000431,0.007757
122722000,0.0324,0.013523,0.002678,0.000431,0.008580
122723000,0.0324,0.013523,0.002678,0.000431,0.007639
122724000,0.0324,0.013523,0.002678,0.000431,0.006934
122725000,0.0324,0.013523,0.002678,0.000431,0.006464
122726000,0.0324,0.013523,0.002678,0.000431,0.008109
122727000,0.0324,0.013523,0.002678,0.000431,0.005876
122728000,0.0324,0.013523,0.002678,0.000431,0.005876
122729000,0.0324,0.013523,0.002678,0.000431,0.005876
122730000,0.0324,0.013523,0.002678,0.000431,0.006111
122731000,0.0324,0.013523,0.002678,0.000431,0.007992
122732000,0.0324,0.013523,0.002678,0.000431,0.004936
122733000,0.0324,0.013523,0.002678,0.000431,0.005171
122734000,0.0324,0.013523,0.002678,0.000431,0.006111
122735000,0.0324,0.013523,0.002678,0.000431,0.004701
122736000,0.0324,0.013523,0.002678,0.000431,0.005171
122737000,0.0324,0.013523,0.002678,0.000431,0.003526
122738000,0.0324,0.013523,0.002678,0.000431,0.003643
122739000,0.0324,0.013523,0.002678,0.000431,0.003291
122740000,0.0324,0.013523,0.002678,0.000431,0.007169
122741000,0.0324,0.013523,0.002678,0.000431,0.002586
122742000,0.0324,0.013523,0.002678,0.000431,0.002703
122743000,0.0324,0.013523,0.002678,0.000431,0.002468
122744000,0.0324,0.013523,0.002678,0.000431,0.005054
122745000,0.0324,0.013523,0.002678,0.000431,0.001645
122746000,0.0324,0.013523,0.002678,0.000431,0.001763
122747000,0.0324,0.013523,0.002678,0.000431,0.002938
122748000,0.0324,0.013523,0.002678,0.000431,0.000705
122749000,0.0324,0.013523,0.002678,0.000431,0.000940
122750000,0.0324,0.013523,0.002678,0.000431,0.000823
122751000,0.0324,0.013523,0.002678,0.000431,0.000823
122752000,0.0324,0.013523,0.002678,0.000431,0.000823
122753000,0.0324,0.013523,0.002678,0.000431,0.000823
122754000,0.0324,0.013523,0.002678,0.000431,0.000823
122755000,0.0324,0.013523,0.002678,0.000431,0.000823
122756000,0.0324,0.013523,0.002678,0.000431,0.000823
122757000,0.0324,0.013523,0.002678,0.000431,0.000823
122758000,0.0324,0.013523,0.002678,0.000431,0.000940
122759000,0.0324,0.013523,0.002678,0.000431,0.000823
122760000,0.0324,0.013523,0.002678,0.000431,0.000823
122761000,0.0324,0.013523,0.002678,0.000431,0.000705
122762000,0.0324,0.013523,0.002678,0.000431,0.000940
122763000,0.0324,0.013523,0.002678,0.000431,0.000940
122764000,0.0324,0.013523,0.002678,0.000431,0.000705
122765000,0.0324,0.013523,0.002678,0.000431,0.000940
122766000,0.0324,0.013523,0.002678,0.000431,0.000705
122767000,0.0324,0.013523,0.002678,0.000431,0.000940
122768000,0.0324,0.013523,0.002678,0.000431,0.000823
122769000,0.0324,0.013523,0.002678,0.000431,0.000823
122770000,0.0324,0.013523,0.002678,0.000431,0.000940
122771000,0.0324,0.013523,0.002678,0.000431,0.000705
122772000,0.0324,0.013523,0.002678,0.000431,0.000940
122773000,0.0324,0.013523,0.002678,0.000431,0.000823
122774000,0.0324,0.013523,0.002678,0.000431,0.000823
122775000,0.0324,0.013523,0.002678,0.000431,0.000823
122776000,0.0324,0.013523,0.002678,0.000431,0.000823
122777000,0.0324,0.013523,0.002678,0.000431,0.000940
122778000,0.0324,0.013523,0.002678,0.000431,0.000705
122779000,0.0324,0.013523,0.002678,0.000431,0.000940
122780000,0.0324,0.013523,0.002678,0.000431,0.000823
122781000,0.0324,0.013523,0.002678,0.000431,0.000823
122782000,0.0324,0.013523,0.002678,0.000431,0.002821
122783000,0.0324,0.013523,0.002678,0.000431,0.436500
122784000,0.0324,0.013523,0.002678,0.000431,0.669676
122785000,0.0324,0.013523,0.002678,0.000431,0.135863
122786000,0.0324,0.013523,0.002678,0.000431,0.132572
122787000,0.0324,0.013523,0.002678,0.000431,0.187810
122788000,0.0324,0.013523,0.002678,0.000431,0.570834
122789000,0.0324,0.013523,0.002678,0.000431,0.279482
122790000,0.0324,0.013523,0.002678,0.000431,0.285358
122791000,0.0324,0.013523,0.002678,0.000431,0.202148
122792000,0.0324,0.013523,0.002678,0.000431,0.142209
122793000,0.0324,0.013523,0.002678,0.000431,0.149966
122794000,0.0324,0.013523,0.002678,0.000431,0.179583
122795000,0.0324,0.013523,0.002678,0.000431,0.399126
122796000,0.0324,0.013523,0.002678,0.000431,0.026091
122797000,0.0324,0.013523,0.002678,0.000431,0.024446
122798000,0.0324,0.013523,0.002678,0.000431,0.024211
122799000,0.0324,0.013523,0.002678,0.000431,0.020332
122800000,0.0324,0.013523,0.002678,0.000431,0.020332
122801000,0.0324,0.013523,0.002678,0.000431,0.023388
122802000,0.0324,0.013523,0.002678,0.000431,0.018099
122803000,0.0324,0.013523,0.002678,0.000431,0.016219
122804000,0.0324,0.013523,0.002678,0.000431,0.011753
122805000,0.0324,0.013523,0.002678,0.000431,0.008815
122806000,0.0324,0.013523,0.002678,0.000431,0.007757
122807000,0.0324,0.013523,0.002678,0.000431,0.007992
122808000,0.0324,0.013523,0.002678,0.000431,0.007992
122809000,0.0324,0.013523,0.002678,0.000431,0.007874
122810000,0.0324,0.013523,0.002678,0.000431,0.008109
122811000,0.0324,0.013523,0.002678,0.000431,0.008932
122812000,0.0324,0.013523,0.002678,0.000431,0.008462
122813000,0.0324,0.013523,0.002678,0.000431,0.005641
122814000,0.0324,0.013523,0.002678,0.000431,0.004936
122815000,0.0324,0.013523,0.002678,0.000431,0.004936
122816000,0.0324,0.013523,0.002678,0.000431,0.005406
122817000,0.0324,0.013523,0.002678,0.000431,0.005524
122818000,0.0324,0.013523,0.002678,0.000431,0.006229
122819000,0.0324,0.013523,0.002678,0.000431,0.003291
122820000,0.0324,0.013523,0.002678,0.000431,0.003056
122821000,0.0324,0.013523,0.002678,0.000431,0.003056
122822000,0.0324,0.013523,0.002678,0.000431,0.003291
122823000,0.0324,0.013523,0.002678,0.000431,0.003056
122824000,0.0324,0.013523,0.002678,0.000431,0.003643
122825000,0.0324,0.013523,0.002678,0.000431,0.002938
122826000,0.0324,0.013523,0.002678,0.000431,0.003173
122827000,0.0324,0.013523,0.002678,0.000431,0.003291
122828000,0.0324,0.013523,0.002678,0.000431,0.003291
122829000,0.0324,0.013523,0.002678,0.000431,0.002821
122830000,0.0324,0.013523,0.002678,0.000431,0.003643
122831000,0.0324,0.013523,0.002678,0.000431,0.002821
122832000,0.0324,0.013523,0.002678,0.000431,0.003526
122833000,0.0324,0.013523,0.002678,0.000431,0.003056
122834000,0.0324,0.013523,0.002678,0.000431,0.003056
122835000,0.0324,0.013523,0.002678,0.000431,0.003056
122836000,0.0324,0.013523,0.002678,0.000431,0.003643
122837000,0.0324,0.013523,0.002678,0.000431,0.003056
122838000,0.0324,0.013523,0.002678,0.000431,0.002351
122839000,0.0324,0.013523,0.002678,0.000431,0.002821
122840000,0.0324,0.013523,0.002678,0.000431,0.002233
122841000,0.0324,0.013523,0.002678,0.000431,0.002703
122842000,0.0324,0.013523,0.002678,0.000431,0.002468
122843000,0.0324,0.013523,0.002678,0.000431,0.002468
122844000,0.0324,0.013523,0.002678,0.000431,0.002586
122845000,0.0324,0.013523,0.002678,0.000431,0.002351
122846000,0.0324,0.013523,0.002678,0.000431,0.004231
122847000,0.0324,0.013523,0.002678,0.000431,0.001645
122848000,0.0324,0.013523,0.002678,0.000431,0.001528
122849000,0.0324,0.013523,0.002678,0.000431,0.001880
122850000,0.0324,0.013523,0.002678,0.000431,0.001645
122851000,0.0324,0.013523,0.002678,0.000431,0.001645
122852000,0.0324,0.013523,0.002678,0.000431,0.001880
122853000,0.0324,0.013523,0.002678,0.000431,0.002468
122854000,0.0324,0.013523,0.002678,0.000431,0.000940
122855000,0.0324,0.013523,0.002678,0.000431,0.000940
122856000,0.0324,0.013523,0.002678,0.000431,0.000705
122857000,0.0324,0.013523,0.002678,0.000431,0.000940
122858000,0.0324,0.013523,0.002678,0.000431,0.000705
122859000,0.0324,0.013523,0.002678,0.000431,0.000940
122860000,0.0324,0.013523,0.002678,0.000431,0.000940
122861000,0.0324,0.013523,0.002678,0.000431,0.000705
122862000,0.0324,0.013523,0.002678,0.000431,0.000940
122863000,0.0324,0.013523,0.002678,0.000431,0.000705
122864000,0.0324,0.013523,0.002678,0.000431,0.000940
122865000,0.0324,0.013523,0.002678,0.000431,0.000823
122866000,0.0324,0.013523,0.002678,0.000431,0.000823
122867000,0.0324,0.013523,0.002678,0.000431,0.000823
122868000,0.0324,0.013523,0.002678,0.000431,0.000823
122869000,0.0324,0.013523,0.002678,0.000431,0.000940
122870000,0.0324,0.013523,0.002678,0.000431,0.000705
122871000,0.0324,0.013523,0.002678,0.000431,0.000940
122872000,0.0324,0.013523,0.002678,0.000431,0.000705
122873000,0.0324,0.013523,0.002678,0.000431,0.000940
122874000,0.0324,0.013523,0.002678,0.000431,0.000823
122875000,0.0324,0.013523,0.002678,0.000431,0.000823
122876000,0.0324,0.013523,0.002678,0.000431,0.000705
122877000,0.0324,0.013523,0.002678,0.000431,0.000940
122878000,0.0324,0.013523,0.002678,0.000431,0.000940
122879000,0.0324,0.013523,0.002678,0.000431,0.000705
122880000,0.0324,0.013523,0.002678,0.000431,0.000940
122881000,0.0324,0.013523,0.002678,0.000431,0.000705
122882000,0.0324,0.013523,0.002678,0.000431,0.000940
122883000,0.0324,0.013523,0.002678,0.000431,0.000823
122884000,0.0324,0.013523,0.002678,0.000431,0.000823
122885000,0.0324,0.013523,0.002678,0.000431,0.000940
122886000,0.0324,0.013523,0.002678,0.000431,0.000705
122887000,0.0324,0.013523,0.002678,0.000431,0.000940
122888000,0.0324,0.013523,0.002678,0.000431,0.000823
122889000,0.0324,0.013523,0.002678,0.000431,0.000823
122890000,0.0324,0.013523,0.002678,0.000431,0.000823
122891000,0.0324,0.013523,0.002678,0.000431,0.000823
122892000,0.0324,0.013523,0.002678,0.000431,0.000823
122893000,0.0324,0.013523,0.002678,0.000431,0.000823
122894000,0.0324,0.013523,0.002678,0.000431,0.000940
122895000,0.0324,0.013523,0.002678,0.000431,0.000823
122896000,0.0324,0.013523,0.002678,0.000431,0.000823
122897000,0.0324,0.013523,0.002678,0.000431,0.000823
122898000,0.0324,0.013523,0.002678,0.000431,0.000823
122899000,0.0324,0.013523,0.002678,0.000431,0.000823
122900000,0.0324,0.013523,0.002678,0.000431,0.000823
122901000,0.0324,0.013523,0.002678,0.000431,0.000823
122902000,0.0324,0.013523,0.002678,0.000431,0.000823
122903000,0.0324,0.013523,0.002678,0.000431,0.000940
122904000,0.0324,0.013523,0.002678,0.000431,0.000823
122905000,0.0324,0.013523,0.002678,0.000431,0.000823
122906000,0.0324,0.013523,0.002678,0.000431,0.000705
122907000,0.0324,0.013523,0.002678,0.000431,0.000940
122908000,0.0324,0.013523,0.002678,0.000431,0.000705
122909000,0.0324,0.013523,0.002678,0.000431,0.000940
122910000,0.0324,0.013523,0.002678,0.000431,0.000705
122911000,0.0324,0.013523,0.002678,0.000431,0.000940
122912000,0.0324,0.013523,0.002678,0.000431,0.000940
122913000,0.0324,0.013523,0.002678,0.000431,0.000705
122914000,0.0324,0.013523,0.002678,0.000431,0.000940
122915000,0.0324,0.013523,0.002678,0.000431,0.000705
122916000,0.0324,0.013523,0.002678,0.000431,0.000940
122917000,0.0324,0.013523,0.002678,0.000431,0.000823
122918000,0.0324,0.013523,0.002678,0.000431,0.000823
122919000,0.0324,0.013523,0.002678,0.000431,0.000823
122920000,0.0324,0.013523,0.002678,0.000431,0.000823
122921000,0.0324,0.013523,0.002678,0.000431,0.000940
122922000,0.0324,0.013523,0.002678,0.000431,0.000705
122923000,0.0324,0.013523,0.002678,0.000431,0.000940
122924000,0.0324,0.013523,0.002678,0.000431,0.000823
122925000,0.0324,0.013523,0.002678,0.000431,0.000823
122926000,0.0324,0.013523,0.002678,0.000431,0.000823
122927000,0.0324,0.013523,0.002678,0.000431,0.000823
122928000,0.0324,0.013523,0.002678,0.000431,0.000823
122929000,0.0324,0.013523,0.002678,0.000431,0.000823
122930000,0.0324,0.013523,0.002678,0.000431,0.000940
122931000,0.0324,0.013523,0.002678,0.000431,0.000823
122932000,0.0324,0.013523,0.002678,0.000431,0.000823
122933000,0.0324,0.013523,0.002678,0.000431,0.000705
122934000,0.0324,0.013523,0.002678,0.000431,0.000940
122935000,0.0324,0.013523,0.002678,0.000431,0.000940
122936000,0.0324,0.013523,0.002678,0.000431,0.000705
122937000,0.0324,0.013523,0.002678,0.000431,0.000940
122938000,0.0324,0.013523,0.002678,0.000431,0.000705
122939000,0.0324,0.013523,0.002678,0.000431,0.000940
122940000,0.0324,0.013523,0.002678,0.000431,0.000823
122941000,0.0324,0.013523,0.002678,0.000431,0.000823
122942000,0.0324,0.013523,0.002678,0.000431,0.000940
122943000,0.0324,0.013523,0.002678,0.000431,0.000705
122944000,0.0324,0.013523,0.002678,0.000431,0.000940
122945000,0.0324,0.013523,0.002678,0.000431,0.000823
122946000,0.0324,0.013523,0.002678,0.000431,0.000823
122947000,0.0324,0.013523,0.002678,0.000431,0.000823
122948000,0.0324,0.013523,0.002678,0.000431,0.000823
122949000,0.0324,0.013523,0.002678,0.000431,0.000823
122950000,0.0324,0.013523,0.002678,0.000431,0.000823
122951000,0.0324,0.013523,0.002678,0.000431,0.000940
122952000,0.0324,0.013523,0.002678,0.000431,0.000705
122953000,0.0324,0.013523,0.002678,0.000431,0.000823
122954000,0.0324,0.013523,0.002678,0.000431,0.000940
122955000,0.0324,0.013523,0.002678,0.000431,0.000823
122956000,0.0324,0.013523,0.002678,0.000431,0.000823
122957000,0.0324,0.013523,0.002678,0.000431,0.000823
122958000,0.0324,0.013523,0.002678,0.000431,0.000705
122959000,0.0324,0.013523,0.002678,0.000431,0.000940
122960000,0.0324,0.013523,0.002678,0.000431,0.000940
122961000,0.0324,0.013523,0.002678,0.000431,0.000705
122962000,0.0324,0.013523,0.002678,0.000431,0.000940
122963000,0.0324,0.013523,0.002678,0.000431,0.000705
122964000,0.0324,0.013523,0.002678,0.000431,0.000940
122965000,0.0324,0.013523,0.002678,0.000431,0.000940
122966000,0.0324,0.013523,0.002678,0.000431,0.000705
122967000,0.0324,0.013523,0.002678,0.000431,0.000940
122968000,0.0324,0.013523,0.002678,0.000431,0.000705
122969000,0.0324,0.013523,0.002678,0.000431,0.000940
122970000,0.0324,0.013523,0.002678,0.000431,0.000823
122971000,0.0324,0.013523,0.002678,0.000431,0.000823
122972000,0.0324,0.013523,0.002678,0.000431,0.000823
122973000,0.0324,0.013523,0.002678,0.000431,0.000823
122974000,0.0324,0.013523,0.002678,0.000431,0.000940
122975000,0.0324,0.013523,0.002678,0.000431,0.000705
122976000,0.0324,0.013523,0.002678,0.000431,0.000940
122977000,0.0324,0.013523,0.002678,0.000431,0.000823
122978000,0.0324,0.013523,0.002678,0.000431,0.000823
122979000,0.0324,0.013523,0.002678,0.000431,0.000823
122980000,0.0324,0.013523,0.002678,0.000431,0.000823
122981000,0.0324,0.013523,0.002678,0.000431,0.000823
122982000,0.0324,0.013523,0.002678,0.000431,0.000823
122983000,0.0324,0.013523,0.002678,0.000431,0.000823
122984000,0.0324,0.013523,0.002678,0.000431,0.000823
122985000,0.0324,0.013523,0.002678,0.000431,0.000940
122986000,0.0324,0.013523,0.002678,0.000431,0.000705
122987000,0.0324,0.013523,0.002678,0.000431,0.000940
122988000,0.0324,0.013523,0.002678,0.000431,0.000705
122989000,0.0324,0.013523,0.002678,0.000431,0.000940
122990000,0.0324,0.013523,0.002678,0.000431,0.000940
122991000,0.0324,0.013523,0.002678,0.000431,0.000705
122992000,0.0324,0.013523,0.002678,0.000431,0.000940
122993000,0.0324,0.013523,0.002678,0.000431,0.000705
122994000,0.0324,0.013523,0.002678,0.000431,0.000940
122995000,0.0324,0.013523,0.002678,0.000431,0.000823
122996000,0.0324,0.013523,0.002678,0.000431,0.000823
122997000,0.0324,0.013523,0.002678,0.000431,0.000823
122998000,0.0324,0.013523,0.002678,0.000431,0.000823
122999000,0.0324,0.013523,0.002678,0.000431,0.000940
