Cycle,Area(mm^2),PeakDynamic(W),SubthresholdLeakage(W),GateLeakage(W),RunTimeDynamic(W)
17000000,0.0324,0.013523,0.002678,0.000431,0.000823
17001000,0.0324,0.013523,0.002678,0.000431,0.000823
17002000,0.0324,0.013523,0.002678,0.000431,0.000940
17003000,0.0324,0.013523,0.002678,0.000431,0.000940
17004000,0.0324,0.013523,0.002678,0.000431,0.000823
17005000,0.0324,0.013523,0.002678,0.000431,0.000823
17006000,0.0324,0.013523,0.002678,0.000431,0.000940
17007000,0.0324,0.013523,0.002678,0.000431,0.000940
17008000,0.0324,0.013523,0.002678,0.000431,0.000823
17009000,0.0324,0.013523,0.002678,0.000431,0.000823
17010000,0.0324,0.013523,0.002678,0.000431,0.000940
17011000,0.0324,0.013523,0.002678,0.000431,0.000940
17012000,0.0324,0.013523,0.002678,0.000431,0.000823
17013000,0.0324,0.013523,0.002678,0.000431,0.000823
17014000,0.0324,0.013523,0.002678,0.000431,0.000940
17015000,0.0324,0.013523,0.002678,0.000431,0.000823
17016000,0.0324,0.013523,0.002678,0.000431,0.000940
17017000,0.0324,0.013523,0.002678,0.000431,0.000823
17018000,0.0324,0.013523,0.002678,0.000431,0.000940
17019000,0.0324,0.013523,0.002678,0.000431,0.000823
17020000,0.0324,0.013523,0.002678,0.000431,0.000823
17021000,0.0324,0.013523,0.002678,0.000431,0.000940
17022000,0.0324,0.013523,0.002678,0.000431,0.000940
17023000,0.0324,0.013523,0.002678,0.000431,0.000705
17024000,0.0324,0.013523,0.002678,0.000431,0.000940
17025000,0.0324,0.013523,0.002678,0.000431,0.000940
17026000,0.0324,0.013523,0.002678,0.000431,0.000940
17027000,0.0324,0.013523,0.002678,0.000431,0.000705
17028000,0.0324,0.013523,0.002678,0.000431,0.000940
17029000,0.0324,0.013523,0.002678,0.000431,0.000940
17030000,0.0324,0.013523,0.002678,0.000431,0.000823
17031000,0.0324,0.013523,0.002678,0.000431,0.000823
17032000,0.0324,0.013523,0.002678,0.000431,0.000940
17033000,0.0324,0.013523,0.002678,0.000431,0.000940
17034000,0.0324,0.013523,0.002678,0.000431,0.000823
17035000,0.0324,0.013523,0.002678,0.000431,0.000823
17036000,0.0324,0.013523,0.002678,0.000431,0.000940
17037000,0.0324,0.013523,0.002678,0.000431,0.000823
17038000,0.0324,0.013523,0.002678,0.000431,0.000940
17039000,0.0324,0.013523,0.002678,0.000431,0.000823
17040000,0.0324,0.013523,0.002678,0.000431,0.000940
17041000,0.0324,0.013523,0.002678,0.000431,0.000823
17042000,0.0324,0.013523,0.002678,0.000431,0.000823
17043000,0.0324,0.013523,0.002678,0.000431,0.000940
17044000,0.0324,0.013523,0.002678,0.000431,0.000940
17045000,0.0324,0.013523,0.002678,0.000431,0.000940
17046000,0.0324,0.013523,0.002678,0.000431,0.000705
17047000,0.0324,0.013523,0.002678,0.000431,0.000940
17048000,0.0324,0.013523,0.002678,0.000431,0.000940
17049000,0.0324,0.013523,0.002678,0.000431,0.000823
17050000,0.0324,0.013523,0.002678,0.000431,0.000823
17051000,0.0324,0.013523,0.002678,0.000431,0.000940
17052000,0.0324,0.013523,0.002678,0.000431,0.000940
17053000,0.0324,0.013523,0.002678,0.000431,0.000823
17054000,0.0324,0.013523,0.002678,0.000431,0.000823
17055000,0.0324,0.013523,0.002678,0.000431,0.000940
17056000,0.0324,0.013523,0.002678,0.000431,0.000823
17057000,0.0324,0.013523,0.002678,0.000431,0.000940
17058000,0.0324,0.013523,0.002678,0.000431,0.000823
17059000,0.0324,0.013523,0.002678,0.000431,0.000940
17060000,0.0324,0.013523,0.002678,0.000431,0.000823
17061000,0.0324,0.013523,0.002678,0.000431,0.000823
17062000,0.0324,0.013523,0.002678,0.000431,0.000940
17063000,0.0324,0.013523,0.002678,0.000431,0.000940
17064000,0.0324,0.013523,0.002678,0.000431,0.000823
17065000,0.0324,0.013523,0.002678,0.000431,0.000823
17066000,0.0324,0.013523,0.002678,0.000431,0.000940
17067000,0.0324,0.013523,0.002678,0.000431,0.000940
17068000,0.0324,0.013523,0.002678,0.000431,0.000823
17069000,0.0324,0.013523,0.002678,0.000431,0.000823
17070000,0.0324,0.013523,0.002678,0.000431,0.000940
17071000,0.0324,0.013523,0.002678,0.000431,0.000823
17072000,0.0324,0.013523,0.002678,0.000431,0.000940
17073000,0.0324,0.013523,0.002678,0.000431,0.000823
17074000,0.0324,0.013523,0.002678,0.000431,0.000940
17075000,0.0324,0.013523,0.002678,0.000431,0.000823
17076000,0.0324,0.013523,0.002678,0.000431,0.000823
17077000,0.0324,0.013523,0.002678,0.000431,0.000940
17078000,0.0324,0.013523,0.002678,0.000431,0.000940
17079000,0.0324,0.013523,0.002678,0.000431,0.000823
17080000,0.0324,0.013523,0.002678,0.000431,0.000823
17081000,0.0324,0.013523,0.002678,0.000431,0.000940
17082000,0.0324,0.013523,0.002678,0.000431,0.000940
17083000,0.0324,0.013523,0.002678,0.000431,0.000705
17084000,0.0324,0.013523,0.002678,0.000431,0.000940
17085000,0.0324,0.013523,0.002678,0.000431,0.000940
17086000,0.0324,0.013523,0.002678,0.000431,0.000940
17087000,0.0324,0.013523,0.002678,0.000431,0.000705
17088000,0.0324,0.013523,0.002678,0.000431,0.000940
17089000,0.0324,0.013523,0.002678,0.000431,0.000940
17090000,0.0324,0.013523,0.002678,0.000431,0.000823
17091000,0.0324,0.013523,0.002678,0.000431,0.000823
17092000,0.0324,0.013523,0.002678,0.000431,0.000940
17093000,0.0324,0.013523,0.002678,0.000431,0.000940
17094000,0.0324,0.013523,0.002678,0.000431,0.000823
17095000,0.0324,0.013523,0.002678,0.000431,0.000823
17096000,0.0324,0.013523,0.002678,0.000431,0.000940
17097000,0.0324,0.013523,0.002678,0.000431,0.000823
17098000,0.0324,0.013523,0.002678,0.000431,0.000940
17099000,0.0324,0.013523,0.002678,0.000431,0.000823
17100000,0.0324,0.013523,0.002678,0.000431,0.071810
17101000,0.0324,0.013523,0.002678,0.000431,0.409938
17102000,0.0324,0.013523,0.002678,0.000431,0.601157
17103000,0.0324,0.013523,0.002678,0.000431,0.132102
17104000,0.0324,0.013523,0.002678,0.000431,0.133159
17105000,0.0324,0.013523,0.002678,0.000431,0.534283
17106000,0.0324,0.013523,0.002678,0.000431,0.247867
17107000,0.0324,0.013523,0.002678,0.000431,0.275721
17108000,0.0324,0.013523,0.002678,0.000431,0.263616
17109000,0.0324,0.013523,0.002678,0.000431,0.161249
17110000,0.0324,0.013523,0.002678,0.000431,0.139036
17111000,0.0324,0.013523,0.002678,0.000431,0.172179
17112000,0.0324,0.013523,0.002678,0.000431,0.132924
17113000,0.0324,0.013523,0.002678,0.000431,0.441436
17114000,0.0324,0.013523,0.002678,0.000431,0.038549
17115000,0.0324,0.013523,0.002678,0.000431,0.023153
17116000,0.0324,0.013523,0.002678,0.000431,0.017277
17117000,0.0324,0.013523,0.002678,0.000431,0.013633
17118000,0.0324,0.013523,0.002678,0.000431,0.017277
17119000,0.0324,0.013523,0.002678,0.000431,0.014221
17120000,0.0324,0.013523,0.002678,0.000431,0.011635
17121000,0.0324,0.013523,0.002678,0.000431,0.012576
17122000,0.0324,0.013523,0.002678,0.000431,0.008227
17123000,0.0324,0.013523,0.002678,0.000431,0.008462
17124000,0.0324,0.013523,0.002678,0.000431,0.007874
17125000,0.0324,0.013523,0.002678,0.000431,0.007287
17126000,0.0324,0.013523,0.002678,0.000431,0.007052
17127000,0.0324,0.013523,0.002678,0.000431,0.007169
17128000,0.0324,0.013523,0.002678,0.000431,0.007052
17129000,0.0324,0.013523,0.002678,0.000431,0.007169
17130000,0.0324,0.013523,0.002678,0.000431,0.007287
17131000,0.0324,0.013523,0.002678,0.000431,0.008462
17132000,0.0324,0.013523,0.002678,0.000431,0.006582
17133000,0.0324,0.013523,0.002678,0.000431,0.005876
17134000,0.0324,0.013523,0.002678,0.000431,0.006464
17135000,0.0324,0.013523,0.002678,0.000431,0.006229
17136000,0.0324,0.013523,0.002678,0.000431,0.006111
17137000,0.0324,0.013523,0.002678,0.000431,0.007052
17138000,0.0324,0.013523,0.002678,0.000431,0.005759
17139000,0.0324,0.013523,0.002678,0.000431,0.005759
17140000,0.0324,0.013523,0.002678,0.000431,0.005289
17141000,0.0324,0.013523,0.002678,0.000431,0.005171
17142000,0.0324,0.013523,0.002678,0.000431,0.005641
17143000,0.0324,0.013523,0.002678,0.000431,0.005171
17144000,0.0324,0.013523,0.002678,0.000431,0.005524
17145000,0.0324,0.013523,0.002678,0.000431,0.005289
17146000,0.0324,0.013523,0.002678,0.000431,0.005406
17147000,0.0324,0.013523,0.002678,0.000431,0.005524
17148000,0.0324,0.013523,0.002678,0.000431,0.005054
17149000,0.0324,0.013523,0.002678,0.000431,0.005641
17150000,0.0324,0.013523,0.002678,0.000431,0.005994
17151000,0.0324,0.013523,0.002678,0.000431,0.006111
17152000,0.0324,0.013523,0.002678,0.000431,0.004349
17153000,0.0324,0.013523,0.002678,0.000431,0.004113
17154000,0.0324,0.013523,0.002678,0.000431,0.004584
17155000,0.0324,0.013523,0.002678,0.000431,0.004584
17156000,0.0324,0.013523,0.002678,0.000431,0.003878
17157000,0.0324,0.013523,0.002678,0.000431,0.004584
17158000,0.0324,0.013523,0.002678,0.000431,0.004349
17159000,0.0324,0.013523,0.002678,0.000431,0.004466
17160000,0.0324,0.013523,0.002678,0.000431,0.005524
17161000,0.0324,0.013523,0.002678,0.000431,0.003643
17162000,0.0324,0.013523,0.002678,0.000431,0.003643
17163000,0.0324,0.013523,0.002678,0.000431,0.003173
17164000,0.0324,0.013523,0.002678,0.000431,0.003526
17165000,0.0324,0.013523,0.002678,0.000431,0.003526
17166000,0.0324,0.013523,0.002678,0.000431,0.003643
17167000,0.0324,0.013523,0.002678,0.000431,0.003408
17168000,0.0324,0.013523,0.002678,0.000431,0.003291
17169000,0.0324,0.013523,0.002678,0.000431,0.003643
17170000,0.0324,0.013523,0.002678,0.000431,0.003291
17171000,0.0324,0.013523,0.002678,0.000431,0.003643
17172000,0.0324,0.013523,0.002678,0.000431,0.003408
17173000,0.0324,0.013523,0.002678,0.000431,0.003526
17174000,0.0324,0.013523,0.002678,0.000431,0.003291
17175000,0.0324,0.013523,0.002678,0.000431,0.003291
17176000,0.0324,0.013523,0.002678,0.000431,0.003526
17177000,0.0324,0.013523,0.002678,0.000431,0.003526
17178000,0.0324,0.013523,0.002678,0.000431,0.003408
17179000,0.0324,0.013523,0.002678,0.000431,0.003291
17180000,0.0324,0.013523,0.002678,0.000431,0.003643
17181000,0.0324,0.013523,0.002678,0.000431,0.003408
17182000,0.0324,0.013523,0.002678,0.000431,0.003291
17183000,0.0324,0.013523,0.002678,0.000431,0.005524
17184000,0.0324,0.013523,0.002678,0.000431,0.002821
17185000,0.0324,0.013523,0.002678,0.000431,0.002468
17186000,0.0324,0.013523,0.002678,0.000431,0.002703
17187000,0.0324,0.013523,0.002678,0.000431,0.002703
17188000,0.0324,0.013523,0.002678,0.000431,0.002703
17189000,0.0324,0.013523,0.002678,0.000431,0.002468
17190000,0.0324,0.013523,0.002678,0.000431,0.002703
17191000,0.0324,0.013523,0.002678,0.000431,0.002703
17192000,0.0324,0.013523,0.002678,0.000431,0.002586
17193000,0.0324,0.013523,0.002678,0.000431,0.002586
17194000,0.0324,0.013523,0.002678,0.000431,0.002586
17195000,0.0324,0.013523,0.002678,0.000431,0.002821
17196000,0.0324,0.013523,0.002678,0.000431,0.002586
17197000,0.0324,0.013523,0.002678,0.000431,0.002468
17198000,0.0324,0.013523,0.002678,0.000431,0.002821
17199000,0.0324,0.013523,0.002678,0.000431,0.003761
17200000,0.0324,0.013523,0.002678,0.000431,0.001998
17201000,0.0324,0.013523,0.002678,0.000431,0.001645
17202000,0.0324,0.013523,0.002678,0.000431,0.001880
17203000,0.0324,0.013523,0.002678,0.000431,0.001645
17204000,0.0324,0.013523,0.002678,0.000431,0.001763
17205000,0.0324,0.013523,0.002678,0.000431,0.001763
17206000,0.0324,0.013523,0.002678,0.000431,0.001763
17207000,0.0324,0.013523,0.002678,0.000431,0.001763
17208000,0.0324,0.013523,0.002678,0.000431,0.001763
17209000,0.0324,0.013523,0.002678,0.000431,0.001763
17210000,0.0324,0.013523,0.002678,0.000431,0.001763
17211000,0.0324,0.013523,0.002678,0.000431,0.001645
17212000,0.0324,0.013523,0.002678,0.000431,0.001880
17213000,0.0324,0.013523,0.002678,0.000431,0.001645
17214000,0.0324,0.013523,0.002678,0.000431,0.001763
17215000,0.0324,0.013523,0.002678,0.000431,0.001880
17216000,0.0324,0.013523,0.002678,0.000431,0.001763
17217000,0.0324,0.013523,0.002678,0.000431,0.001645
17218000,0.0324,0.013523,0.002678,0.000431,0.001763
17219000,0.0324,0.013523,0.002678,0.000431,0.001763
17220000,0.0324,0.013523,0.002678,0.000431,0.001763
17221000,0.0324,0.013523,0.002678,0.000431,0.001763
17222000,0.0324,0.013523,0.002678,0.000431,0.001763
17223000,0.0324,0.013523,0.002678,0.000431,0.001763
17224000,0.0324,0.013523,0.002678,0.000431,0.001763
17225000,0.0324,0.013523,0.002678,0.000431,0.001763
17226000,0.0324,0.013523,0.002678,0.000431,0.001645
17227000,0.0324,0.013523,0.002678,0.000431,0.001880
17228000,0.0324,0.013523,0.002678,0.000431,0.001763
17229000,0.0324,0.013523,0.002678,0.000431,0.001763
17230000,0.0324,0.013523,0.002678,0.000431,0.001645
17231000,0.0324,0.013523,0.002678,0.000431,0.003526
17232000,0.0324,0.013523,0.002678,0.000431,0.001058
17233000,0.0324,0.013523,0.002678,0.000431,0.000823
17234000,0.0324,0.013523,0.002678,0.000431,0.000823
17235000,0.0324,0.013523,0.002678,0.000431,0.000940
17236000,0.0324,0.013523,0.002678,0.000431,0.000940
17237000,0.0324,0.013523,0.002678,0.000431,0.000823
17238000,0.0324,0.013523,0.002678,0.000431,0.000823
17239000,0.0324,0.013523,0.002678,0.000431,0.000940
17240000,0.0324,0.013523,0.002678,0.000431,0.000823
17241000,0.0324,0.013523,0.002678,0.000431,0.000940
17242000,0.0324,0.013523,0.002678,0.000431,0.000823
17243000,0.0324,0.013523,0.002678,0.000431,0.000940
17244000,0.0324,0.013523,0.002678,0.000431,0.000823
17245000,0.0324,0.013523,0.002678,0.000431,0.000823
17246000,0.0324,0.013523,0.002678,0.000431,0.000940
17247000,0.0324,0.013523,0.002678,0.000431,0.000940
17248000,0.0324,0.013523,0.002678,0.000431,0.000823
17249000,0.0324,0.013523,0.002678,0.000431,0.000823
17250000,0.0324,0.013523,0.002678,0.000431,0.000940
17251000,0.0324,0.013523,0.002678,0.000431,0.000940
17252000,0.0324,0.013523,0.002678,0.000431,0.000823
17253000,0.0324,0.013523,0.002678,0.000431,0.000823
17254000,0.0324,0.013523,0.002678,0.000431,0.000940
17255000,0.0324,0.013523,0.002678,0.000431,0.000823
17256000,0.0324,0.013523,0.002678,0.000431,0.000940
17257000,0.0324,0.013523,0.002678,0.000431,0.000823
17258000,0.0324,0.013523,0.002678,0.000431,0.000940
17259000,0.0324,0.013523,0.002678,0.000431,0.000823
17260000,0.0324,0.013523,0.002678,0.000431,0.000823
17261000,0.0324,0.013523,0.002678,0.000431,0.000823
17262000,0.0324,0.013523,0.002678,0.000431,0.000823
17263000,0.0324,0.013523,0.002678,0.000431,0.000940
17264000,0.0324,0.013523,0.002678,0.000431,0.000705
17265000,0.0324,0.013523,0.002678,0.000431,0.000823
17266000,0.0324,0.013523,0.002678,0.000431,0.000940
17267000,0.0324,0.013523,0.002678,0.000431,0.000823
17268000,0.0324,0.013523,0.002678,0.000431,0.000823
17269000,0.0324,0.013523,0.002678,0.000431,0.000823
17270000,0.0324,0.013523,0.002678,0.000431,0.000705
17271000,0.0324,0.013523,0.002678,0.000431,0.000940
17272000,0.0324,0.013523,0.002678,0.000431,0.000940
17273000,0.0324,0.013523,0.002678,0.000431,0.000705
17274000,0.0324,0.013523,0.002678,0.000431,0.000940
17275000,0.0324,0.013523,0.002678,0.000431,0.000705
17276000,0.0324,0.013523,0.002678,0.000431,0.000940
17277000,0.0324,0.013523,0.002678,0.000431,0.000940
17278000,0.0324,0.013523,0.002678,0.000431,0.000705
17279000,0.0324,0.013523,0.002678,0.000431,0.000940
17280000,0.0324,0.013523,0.002678,0.000431,0.000705
17281000,0.0324,0.013523,0.002678,0.000431,0.000940
17282000,0.0324,0.013523,0.002678,0.000431,0.000823
17283000,0.0324,0.013523,0.002678,0.000431,0.000823
17284000,0.0324,0.013523,0.002678,0.000431,0.000823
17285000,0.0324,0.013523,0.002678,0.000431,0.000823
17286000,0.0324,0.013523,0.002678,0.000431,0.000940
17287000,0.0324,0.013523,0.002678,0.000431,0.000705
17288000,0.0324,0.013523,0.002678,0.000431,0.000940
17289000,0.0324,0.013523,0.002678,0.000431,0.000823
17290000,0.0324,0.013523,0.002678,0.000431,0.000823
17291000,0.0324,0.013523,0.002678,0.000431,0.000940
17292000,0.0324,0.013523,0.002678,0.000431,0.000823
17293000,0.0324,0.013523,0.002678,0.000431,0.000940
17294000,0.0324,0.013523,0.002678,0.000431,0.000823
17295000,0.0324,0.013523,0.002678,0.000431,0.000940
17296000,0.0324,0.013523,0.002678,0.000431,0.000823
17297000,0.0324,0.013523,0.002678,0.000431,0.000823
17298000,0.0324,0.013523,0.002678,0.000431,0.000940
17299000,0.0324,0.013523,0.002678,0.000431,0.000940
17300000,0.0324,0.013523,0.002678,0.000431,0.000823
17301000,0.0324,0.013523,0.002678,0.000431,0.000823
17302000,0.0324,0.013523,0.002678,0.000431,0.000940
17303000,0.0324,0.013523,0.002678,0.000431,0.000940
17304000,0.0324,0.013523,0.002678,0.000431,0.000705
17305000,0.0324,0.013523,0.002678,0.000431,0.000940
17306000,0.0324,0.013523,0.002678,0.000431,0.000940
17307000,0.0324,0.013523,0.002678,0.000431,0.000823
17308000,0.0324,0.013523,0.002678,0.000431,0.000940
17309000,0.0324,0.013523,0.002678,0.000431,0.000823
17310000,0.0324,0.013523,0.002678,0.000431,0.000940
17311000,0.0324,0.013523,0.002678,0.000431,0.000823
17312000,0.0324,0.013523,0.002678,0.000431,0.000823
17313000,0.0324,0.013523,0.002678,0.000431,0.000940
17314000,0.0324,0.013523,0.002678,0.000431,0.000823
17315000,0.0324,0.013523,0.002678,0.000431,0.000940
17316000,0.0324,0.013523,0.002678,0.000431,0.000823
17317000,0.0324,0.013523,0.002678,0.000431,0.000940
17318000,0.0324,0.013523,0.002678,0.000431,0.065933
17319000,0.0324,0.013523,0.002678,0.000431,0.413699
17320000,0.0324,0.013523,0.002678,0.000431,0.606210
17321000,0.0324,0.013523,0.002678,0.000431,0.130221
17322000,0.0324,0.013523,0.002678,0.000431,0.134452
17323000,0.0324,0.013523,0.002678,0.000431,0.575536
17324000,0.0324,0.013523,0.002678,0.000431,0.278307
17325000,0.0324,0.013523,0.002678,0.000431,0.245399
17326000,0.0324,0.013523,0.002678,0.000431,0.310039
17327000,0.0324,0.013523,0.002678,0.000431,0.137743
17328000,0.0324,0.013523,0.002678,0.000431,0.143149
17329000,0.0324,0.013523,0.002678,0.000431,0.120701
17330000,0.0324,0.013523,0.002678,0.000431,0.293585
17331000,0.0324,0.013523,0.002678,0.000431,0.281715
17332000,0.0324,0.013523,0.002678,0.000431,0.020685
17333000,0.0324,0.013523,0.002678,0.000431,0.022330
17334000,0.0324,0.013523,0.002678,0.000431,0.017747
17335000,0.0324,0.013523,0.002678,0.000431,0.011870
17336000,0.0324,0.013523,0.002678,0.000431,0.010578
17337000,0.0324,0.013523,0.002678,0.000431,0.009872
17338000,0.0324,0.013523,0.002678,0.000431,0.011165
17339000,0.0324,0.013523,0.002678,0.000431,0.014926
17340000,0.0324,0.013523,0.002678,0.000431,0.004936
17341000,0.0324,0.013523,0.002678,0.000431,0.004819
17342000,0.0324,0.013523,0.002678,0.000431,0.004819
17343000,0.0324,0.013523,0.002678,0.000431,0.004231
17344000,0.0324,0.013523,0.002678,0.000431,0.004349
17345000,0.0324,0.013523,0.002678,0.000431,0.005406
17346000,0.0324,0.013523,0.002678,0.000431,0.003526
17347000,0.0324,0.013523,0.002678,0.000431,0.003761
17348000,0.0324,0.013523,0.002678,0.000431,0.007287
17349000,0.0324,0.013523,0.002678,0.000431,0.001058
17350000,0.0324,0.013523,0.002678,0.000431,0.000823
17351000,0.0324,0.013523,0.002678,0.000431,0.000823
17352000,0.0324,0.013523,0.002678,0.000431,0.000940
17353000,0.0324,0.013523,0.002678,0.000431,0.000940
17354000,0.0324,0.013523,0.002678,0.000431,0.000940
17355000,0.0324,0.013523,0.002678,0.000431,0.000705
17356000,0.0324,0.013523,0.002678,0.000431,0.000940
17357000,0.0324,0.013523,0.002678,0.000431,0.000940
17358000,0.0324,0.013523,0.002678,0.000431,0.000823
17359000,0.0324,0.013523,0.002678,0.000431,0.000823
17360000,0.0324,0.013523,0.002678,0.000431,0.000940
17361000,0.0324,0.013523,0.002678,0.000431,0.000823
17362000,0.0324,0.013523,0.002678,0.000431,0.000940
17363000,0.0324,0.013523,0.002678,0.000431,0.000823
17364000,0.0324,0.013523,0.002678,0.000431,0.000940
17365000,0.0324,0.013523,0.002678,0.000431,0.000823
17366000,0.0324,0.013523,0.002678,0.000431,0.000823
17367000,0.0324,0.013523,0.002678,0.000431,0.000940
17368000,0.0324,0.013523,0.002678,0.000431,0.000940
17369000,0.0324,0.013523,0.002678,0.000431,0.000823
17370000,0.0324,0.013523,0.002678,0.000431,0.000823
17371000,0.0324,0.013523,0.002678,0.000431,0.000940
17372000,0.0324,0.013523,0.002678,0.000431,0.000940
17373000,0.0324,0.013523,0.002678,0.000431,0.000705
17374000,0.0324,0.013523,0.002678,0.000431,0.000940
17375000,0.0324,0.013523,0.002678,0.000431,0.000940
17376000,0.0324,0.013523,0.002678,0.000431,0.000940
17377000,0.0324,0.013523,0.002678,0.000431,0.000823
17378000,0.0324,0.013523,0.002678,0.000431,0.000823
17379000,0.0324,0.013523,0.002678,0.000431,0.000940
17380000,0.0324,0.013523,0.002678,0.000431,0.180876
17381000,0.0324,0.013523,0.002678,0.000431,0.381144
17382000,0.0324,0.013523,0.002678,0.000431,0.537809
17383000,0.0324,0.013523,0.002678,0.000431,0.133982
17384000,0.0324,0.013523,0.002678,0.000431,0.131161
17385000,0.0324,0.013523,0.002678,0.000431,0.628658
17386000,0.0324,0.013523,0.002678,0.000431,0.254096
17387000,0.0324,0.013523,0.002678,0.000431,0.256329
17388000,0.0324,0.013523,0.002678,0.000431,0.259267
17389000,0.0324,0.013523,0.002678,0.000431,0.137273
17390000,0.0324,0.013523,0.002678,0.000431,0.143502
17391000,0.0324,0.013523,0.002678,0.000431,0.118468
17392000,0.0324,0.013523,0.002678,0.000431,0.291352
17393000,0.0324,0.013523,0.002678,0.000431,0.305691
17394000,0.0324,0.013523,0.002678,0.000431,0.052183
17395000,0.0324,0.013523,0.002678,0.000431,0.047951
17396000,0.0324,0.013523,0.002678,0.000431,0.032908
17397000,0.0324,0.013523,0.002678,0.000431,0.024328
17398000,0.0324,0.013523,0.002678,0.000431,0.022565
17399000,0.0324,0.013523,0.002678,0.000431,0.018099
17400000,0.0324,0.013523,0.002678,0.000431,0.015044
17401000,0.0324,0.013523,0.002678,0.000431,0.017394
17402000,0.0324,0.013523,0.002678,0.000431,0.014926
17403000,0.0324,0.013523,0.002678,0.000431,0.010225
17404000,0.0324,0.013523,0.002678,0.000431,0.012458
17405000,0.0324,0.013523,0.002678,0.000431,0.009755
17406000,0.0324,0.013523,0.002678,0.000431,0.011870
17407000,0.0324,0.013523,0.002678,0.000431,0.007757
17408000,0.0324,0.013523,0.002678,0.000431,0.008227
17409000,0.0324,0.013523,0.002678,0.000431,0.008697
17410000,0.0324,0.013523,0.002678,0.000431,0.010342
17411000,0.0324,0.013523,0.002678,0.000431,0.007639
17412000,0.0324,0.013523,0.002678,0.000431,0.007639
17413000,0.0324,0.013523,0.002678,0.000431,0.006817
17414000,0.0324,0.013523,0.002678,0.000431,0.006934
17415000,0.0324,0.013523,0.002678,0.000431,0.006934
17416000,0.0324,0.013523,0.002678,0.000431,0.006699
17417000,0.0324,0.013523,0.002678,0.000431,0.006699
17418000,0.0324,0.013523,0.002678,0.000431,0.006464
17419000,0.0324,0.013523,0.002678,0.000431,0.007404
17420000,0.0324,0.013523,0.002678,0.000431,0.006817
17421000,0.0324,0.013523,0.002678,0.000431,0.007404
17422000,0.0324,0.013523,0.002678,0.000431,0.006111
17423000,0.0324,0.013523,0.002678,0.000431,0.007757
17424000,0.0324,0.013523,0.002678,0.000431,0.005054
17425000,0.0324,0.013523,0.002678,0.000431,0.005054
17426000,0.0324,0.013523,0.002678,0.000431,0.006464
17427000,0.0324,0.013523,0.002678,0.000431,0.004466
17428000,0.0324,0.013523,0.002678,0.000431,0.003996
17429000,0.0324,0.013523,0.002678,0.000431,0.004349
17430000,0.0324,0.013523,0.002678,0.000431,0.004113
17431000,0.0324,0.013523,0.002678,0.000431,0.004466
17432000,0.0324,0.013523,0.002678,0.000431,0.004231
17433000,0.0324,0.013523,0.002678,0.000431,0.003996
17434000,0.0324,0.013523,0.002678,0.000431,0.004466
17435000,0.0324,0.013523,0.002678,0.000431,0.005406
17436000,0.0324,0.013523,0.002678,0.000431,0.003526
17437000,0.0324,0.013523,0.002678,0.000431,0.003291
17438000,0.0324,0.013523,0.002678,0.000431,0.006347
17439000,0.0324,0.013523,0.002678,0.000431,0.003173
17440000,0.0324,0.013523,0.002678,0.000431,0.001645
17441000,0.0324,0.013523,0.002678,0.000431,0.001763
17442000,0.0324,0.013523,0.002678,0.000431,0.001763
17443000,0.0324,0.013523,0.002678,0.000431,0.001645
17444000,0.0324,0.013523,0.002678,0.000431,0.001645
17445000,0.0324,0.013523,0.002678,0.000431,0.001880
17446000,0.0324,0.013523,0.002678,0.000431,0.001763
17447000,0.0324,0.013523,0.002678,0.000431,0.001528
17448000,0.0324,0.013523,0.002678,0.000431,0.001645
17449000,0.0324,0.013523,0.002678,0.000431,0.001880
17450000,0.0324,0.013523,0.002678,0.000431,0.001880
17451000,0.0324,0.013523,0.002678,0.000431,0.003761
17452000,0.0324,0.013523,0.002678,0.000431,0.000823
17453000,0.0324,0.013523,0.002678,0.000431,0.000940
17454000,0.0324,0.013523,0.002678,0.000431,0.000940
17455000,0.0324,0.013523,0.002678,0.000431,0.229885
17456000,0.0324,0.013523,0.002678,0.000431,0.646875
17457000,0.0324,0.013523,0.002678,0.000431,0.311567
17458000,0.0324,0.013523,0.002678,0.000431,0.131161
17459000,0.0324,0.013523,0.002678,0.000431,0.133982
17460000,0.0324,0.013523,0.002678,0.000431,0.593987
17461000,0.0324,0.013523,0.002678,0.000431,0.223539
17462000,0.0324,0.013523,0.002678,0.000431,0.307336
17463000,0.0324,0.013523,0.002678,0.000431,0.280305
17464000,0.0324,0.013523,0.002678,0.000431,0.137743
17465000,0.0324,0.013523,0.002678,0.000431,0.177115
17466000,0.0324,0.013523,0.002678,0.000431,0.089909
17467000,0.0324,0.013523,0.002678,0.000431,0.471406
17468000,0.0324,0.013523,0.002678,0.000431,0.070399
17469000,0.0324,0.013523,0.002678,0.000431,0.026914
17470000,0.0324,0.013523,0.002678,0.000431,0.025034
17471000,0.0324,0.013523,0.002678,0.000431,0.017394
17472000,0.0324,0.013523,0.002678,0.000431,0.012693
17473000,0.0324,0.013523,0.002678,0.000431,0.011988
17474000,0.0324,0.013523,0.002678,0.000431,0.012693
17475000,0.0324,0.013523,0.002678,0.000431,0.013633
17476000,0.0324,0.013523,0.002678,0.000431,0.010460
17477000,0.0324,0.013523,0.002678,0.000431,0.008580
17478000,0.0324,0.013523,0.002678,0.000431,0.009990
17479000,0.0324,0.013523,0.002678,0.000431,0.009050
17480000,0.0324,0.013523,0.002678,0.000431,0.009285
17481000,0.0324,0.013523,0.002678,0.000431,0.006347
17482000,0.0324,0.013523,0.002678,0.000431,0.007874
17483000,0.0324,0.013523,0.002678,0.000431,0.005641
17484000,0.0324,0.013523,0.002678,0.000431,0.005759
17485000,0.0324,0.013523,0.002678,0.000431,0.009520
17486000,0.0324,0.013523,0.002678,0.000431,0.004936
17487000,0.0324,0.013523,0.002678,0.000431,0.004584
17488000,0.0324,0.013523,0.002678,0.000431,0.006582
17489000,0.0324,0.013523,0.002678,0.000431,0.004466
17490000,0.0324,0.013523,0.002678,0.000431,0.004231
17491000,0.0324,0.013523,0.002678,0.000431,0.003643
17492000,0.0324,0.013523,0.002678,0.000431,0.004349
17493000,0.0324,0.013523,0.002678,0.000431,0.004113
17494000,0.0324,0.013523,0.002678,0.000431,0.003643
17495000,0.0324,0.013523,0.002678,0.000431,0.004113
17496000,0.0324,0.013523,0.002678,0.000431,0.004231
17497000,0.0324,0.013523,0.002678,0.000431,0.004466
17498000,0.0324,0.013523,0.002678,0.000431,0.003056
17499000,0.0324,0.013523,0.002678,0.000431,0.003996
17500000,0.0324,0.013523,0.002678,0.000431,0.000940
17501000,0.0324,0.013523,0.002678,0.000431,0.000823
17502000,0.0324,0.013523,0.002678,0.000431,0.000705
17503000,0.0324,0.013523,0.002678,0.000431,0.000940
17504000,0.0324,0.013523,0.002678,0.000431,0.000940
17505000,0.0324,0.013523,0.002678,0.000431,0.000705
17506000,0.0324,0.013523,0.002678,0.000431,0.000940
17507000,0.0324,0.013523,0.002678,0.000431,0.000940
17508000,0.0324,0.013523,0.002678,0.000431,0.000940
17509000,0.0324,0.013523,0.002678,0.000431,0.000823
17510000,0.0324,0.013523,0.002678,0.000431,0.000823
17511000,0.0324,0.013523,0.002678,0.000431,0.000940
17512000,0.0324,0.013523,0.002678,0.000431,0.000823
17513000,0.0324,0.013523,0.002678,0.000431,0.000823
17514000,0.0324,0.013523,0.002678,0.000431,0.000940
17515000,0.0324,0.013523,0.002678,0.000431,0.000940
17516000,0.0324,0.013523,0.002678,0.000431,0.000940
17517000,0.0324,0.013523,0.002678,0.000431,0.000705
17518000,0.0324,0.013523,0.002678,0.000431,0.000940
17519000,0.0324,0.013523,0.002678,0.000431,0.000940
17520000,0.0324,0.013523,0.002678,0.000431,0.000823
17521000,0.0324,0.013523,0.002678,0.000431,0.000823
17522000,0.0324,0.013523,0.002678,0.000431,0.000940
17523000,0.0324,0.013523,0.002678,0.000431,0.000940
17524000,0.0324,0.013523,0.002678,0.000431,0.000823
17525000,0.0324,0.013523,0.002678,0.000431,0.000823
17526000,0.0324,0.013523,0.002678,0.000431,0.000940
17527000,0.0324,0.013523,0.002678,0.000431,0.000823
17528000,0.0324,0.013523,0.002678,0.000431,0.001058
17529000,0.0324,0.013523,0.002678,0.000431,0.018922
17530000,0.0324,0.013523,0.002678,0.000431,0.474579
17531000,0.0324,0.013523,0.002678,0.000431,0.602332
17532000,0.0324,0.013523,0.002678,0.000431,0.132102
17533000,0.0324,0.013523,0.002678,0.000431,0.132102
17534000,0.0324,0.013523,0.002678,0.000431,0.430271
17535000,0.0324,0.013523,0.002678,0.000431,0.355993
17536000,0.0324,0.013523,0.002678,0.000431,0.261030
17537000,0.0324,0.013523,0.002678,0.000431,0.292058
17538000,0.0324,0.013523,0.002678,0.000431,0.181228
17539000,0.0324,0.013523,0.002678,0.000431,0.142797
17540000,0.0324,0.013523,0.002678,0.000431,0.146910
17541000,0.0324,0.013523,0.002678,0.000431,0.211903
17542000,0.0324,0.013523,0.002678,0.000431,0.396775
17543000,0.0324,0.013523,0.002678,0.000431,0.052183
17544000,0.0324,0.013523,0.002678,0.000431,0.033260
17545000,0.0324,0.013523,0.002678,0.000431,0.026796
17546000,0.0324,0.013523,0.002678,0.000431,0.012811
17547000,0.0324,0.013523,0.002678,0.000431,0.014103
17548000,0.0324,0.013523,0.002678,0.000431,0.013516
17549000,0.0324,0.013523,0.002678,0.000431,0.012223
17550000,0.0324,0.013523,0.002678,0.000431,0.009285
17551000,0.0324,0.013523,0.002678,0.000431,0.011048
17552000,0.0324,0.013523,0.002678,0.000431,0.008227
17553000,0.0324,0.013523,0.002678,0.000431,0.007874
17554000,0.0324,0.013523,0.002678,0.000431,0.010460
17555000,0.0324,0.013523,0.002678,0.000431,0.008815
17556000,0.0324,0.013523,0.002678,0.000431,0.006699
17557000,0.0324,0.013523,0.002678,0.000431,0.006582
17558000,0.0324,0.013523,0.002678,0.000431,0.005759
17559000,0.0324,0.013523,0.002678,0.000431,0.008109
17560000,0.0324,0.013523,0.002678,0.000431,0.005054
17561000,0.0324,0.013523,0.002678,0.000431,0.003996
17562000,0.0324,0.013523,0.002678,0.000431,0.005406
17563000,0.0324,0.013523,0.002678,0.000431,0.005171
17564000,0.0324,0.013523,0.002678,0.000431,0.003996
17565000,0.0324,0.013523,0.002678,0.000431,0.005524
17566000,0.0324,0.013523,0.002678,0.000431,0.004584
17567000,0.0324,0.013523,0.002678,0.000431,0.005876
17568000,0.0324,0.013523,0.002678,0.000431,0.003643
17569000,0.0324,0.013523,0.002678,0.000431,0.005054
17570000,0.0324,0.013523,0.002678,0.000431,0.002821
17571000,0.0324,0.013523,0.002678,0.000431,0.001410
17572000,0.0324,0.013523,0.002678,0.000431,0.001058
17573000,0.0324,0.013523,0.002678,0.000431,0.000823
17574000,0.0324,0.013523,0.002678,0.000431,0.000823
17575000,0.0324,0.013523,0.002678,0.000431,0.203206
17576000,0.0324,0.013523,0.002678,0.000431,0.556849
17577000,0.0324,0.013523,0.002678,0.000431,0.422514
17578000,0.0324,0.013523,0.002678,0.000431,0.131632
17579000,0.0324,0.013523,0.002678,0.000431,0.134452
17580000,0.0324,0.013523,0.002678,0.000431,0.572245
17581000,0.0324,0.013523,0.002678,0.000431,0.226829
17582000,0.0324,0.013523,0.002678,0.000431,0.236349
17583000,0.0324,0.013523,0.002678,0.000431,0.289942
17584000,0.0324,0.013523,0.002678,0.000431,0.144677
17585000,0.0324,0.013523,0.002678,0.000431,0.154197
17586000,0.0324,0.013523,0.002678,0.000431,0.110359
17587000,0.0324,0.013523,0.002678,0.000431,0.429683
17588000,0.0324,0.013523,0.002678,0.000431,0.200033
17589000,0.0324,0.013523,0.002678,0.000431,0.068636
17590000,0.0324,0.013523,0.002678,0.000431,0.066286
17591000,0.0324,0.013523,0.002678,0.000431,0.047246
17592000,0.0324,0.013523,0.002678,0.000431,0.044191
17593000,0.0324,0.013523,0.002678,0.000431,0.042075
17594000,0.0324,0.013523,0.002678,0.000431,0.035611
17595000,0.0324,0.013523,0.002678,0.000431,0.026444
17596000,0.0324,0.013523,0.002678,0.000431,0.026444
17597000,0.0324,0.013523,0.002678,0.000431,0.021155
17598000,0.0324,0.013523,0.002678,0.000431,0.020567
17599000,0.0324,0.013523,0.002678,0.000431,0.016101
17600000,0.0324,0.013523,0.002678,0.000431,0.019392
17601000,0.0324,0.013523,0.002678,0.000431,0.017747
17602000,0.0324,0.013523,0.002678,0.000431,0.012458
17603000,0.0324,0.013523,0.002678,0.000431,0.009872
17604000,0.0324,0.013523,0.002678,0.000431,0.008932
17605000,0.0324,0.013523,0.002678,0.000431,0.009402
17606000,0.0324,0.013523,0.002678,0.000431,0.009050
17607000,0.0324,0.013523,0.002678,0.000431,0.008462
17608000,0.0324,0.013523,0.002678,0.000431,0.009520
17609000,0.0324,0.013523,0.002678,0.000431,0.012576
17610000,0.0324,0.013523,0.002678,0.000431,0.008462
17611000,0.0324,0.013523,0.002678,0.000431,0.005171
17612000,0.0324,0.013523,0.002678,0.000431,0.007052
17613000,0.0324,0.013523,0.002678,0.000431,0.005406
17614000,0.0324,0.013523,0.002678,0.000431,0.002468
17615000,0.0324,0.013523,0.002678,0.000431,0.002586
17616000,0.0324,0.013523,0.002678,0.000431,0.002703
17617000,0.0324,0.013523,0.002678,0.000431,0.002586
17618000,0.0324,0.013523,0.002678,0.000431,0.002586
17619000,0.0324,0.013523,0.002678,0.000431,0.002468
17620000,0.0324,0.013523,0.002678,0.000431,0.002821
17621000,0.0324,0.013523,0.002678,0.000431,0.002233
17622000,0.0324,0.013523,0.002678,0.000431,0.002821
17623000,0.0324,0.013523,0.002678,0.000431,0.002586
17624000,0.0324,0.013523,0.002678,0.000431,0.002703
17625000,0.0324,0.013523,0.002678,0.000431,0.002233
17626000,0.0324,0.013523,0.002678,0.000431,0.002703
17627000,0.0324,0.013523,0.002678,0.000431,0.002821
17628000,0.0324,0.013523,0.002678,0.000431,0.002468
17629000,0.0324,0.013523,0.002678,0.000431,0.002703
17630000,0.0324,0.013523,0.002678,0.000431,0.002351
17631000,0.0324,0.013523,0.002678,0.000431,0.002821
17632000,0.0324,0.013523,0.002678,0.000431,0.004349
17633000,0.0324,0.013523,0.002678,0.000431,0.001763
17634000,0.0324,0.013523,0.002678,0.000431,0.001763
17635000,0.0324,0.013523,0.002678,0.000431,0.001645
17636000,0.0324,0.013523,0.002678,0.000431,0.001763
17637000,0.0324,0.013523,0.002678,0.000431,0.001763
17638000,0.0324,0.013523,0.002678,0.000431,0.001645
17639000,0.0324,0.013523,0.002678,0.000431,0.001763
17640000,0.0324,0.013523,0.002678,0.000431,0.001645
17641000,0.0324,0.013523,0.002678,0.000431,0.001645
17642000,0.0324,0.013523,0.002678,0.000431,0.001763
17643000,0.0324,0.013523,0.002678,0.000431,0.001880
17644000,0.0324,0.013523,0.002678,0.000431,0.001528
17645000,0.0324,0.013523,0.002678,0.000431,0.001645
17646000,0.0324,0.013523,0.002678,0.000431,0.001880
17647000,0.0324,0.013523,0.002678,0.000431,0.001763
17648000,0.0324,0.013523,0.002678,0.000431,0.001528
17649000,0.0324,0.013523,0.002678,0.000431,0.001763
17650000,0.0324,0.013523,0.002678,0.000431,0.001763
17651000,0.0324,0.013523,0.002678,0.000431,0.001763
17652000,0.0324,0.013523,0.002678,0.000431,0.004231
17653000,0.0324,0.013523,0.002678,0.000431,0.000823
17654000,0.0324,0.013523,0.002678,0.000431,0.000940
17655000,0.0324,0.013523,0.002678,0.000431,0.000823
17656000,0.0324,0.013523,0.002678,0.000431,0.000940
17657000,0.0324,0.013523,0.002678,0.000431,0.000823
17658000,0.0324,0.013523,0.002678,0.000431,0.000940
17659000,0.0324,0.013523,0.002678,0.000431,0.000823
17660000,0.0324,0.013523,0.002678,0.000431,0.000823
17661000,0.0324,0.013523,0.002678,0.000431,0.000940
17662000,0.0324,0.013523,0.002678,0.000431,0.000940
17663000,0.0324,0.013523,0.002678,0.000431,0.000823
17664000,0.0324,0.013523,0.002678,0.000431,0.000823
17665000,0.0324,0.013523,0.002678,0.000431,0.000940
17666000,0.0324,0.013523,0.002678,0.000431,0.000940
17667000,0.0324,0.013523,0.002678,0.000431,0.000705
17668000,0.0324,0.013523,0.002678,0.000431,0.000940
17669000,0.0324,0.013523,0.002678,0.000431,0.000940
17670000,0.0324,0.013523,0.002678,0.000431,0.000705
17671000,0.0324,0.013523,0.002678,0.000431,0.000940
17672000,0.0324,0.013523,0.002678,0.000431,0.000823
17673000,0.0324,0.013523,0.002678,0.000431,0.000823
17674000,0.0324,0.013523,0.002678,0.000431,0.000823
17675000,0.0324,0.013523,0.002678,0.000431,0.000823
17676000,0.0324,0.013523,0.002678,0.000431,0.000940
17677000,0.0324,0.013523,0.002678,0.000431,0.000705
17678000,0.0324,0.013523,0.002678,0.000431,0.000940
17679000,0.0324,0.013523,0.002678,0.000431,0.000823
17680000,0.0324,0.013523,0.002678,0.000431,0.000823
17681000,0.0324,0.013523,0.002678,0.000431,0.000940
17682000,0.0324,0.013523,0.002678,0.000431,0.000823
17683000,0.0324,0.013523,0.002678,0.000431,0.000940
17684000,0.0324,0.013523,0.002678,0.000431,0.000823
17685000,0.0324,0.013523,0.002678,0.000431,0.000940
17686000,0.0324,0.013523,0.002678,0.000431,0.000823
17687000,0.0324,0.013523,0.002678,0.000431,0.000823
17688000,0.0324,0.013523,0.002678,0.000431,0.000940
17689000,0.0324,0.013523,0.002678,0.000431,0.000940
17690000,0.0324,0.013523,0.002678,0.000431,0.000940
17691000,0.0324,0.013523,0.002678,0.000431,0.000705
17692000,0.0324,0.013523,0.002678,0.000431,0.000940
17693000,0.0324,0.013523,0.002678,0.000431,0.000940
17694000,0.0324,0.013523,0.002678,0.000431,0.000823
17695000,0.0324,0.013523,0.002678,0.000431,0.000823
17696000,0.0324,0.013523,0.002678,0.000431,0.000940
17697000,0.0324,0.013523,0.002678,0.000431,0.000940
17698000,0.0324,0.013523,0.002678,0.000431,0.000823
17699000,0.0324,0.013523,0.002678,0.000431,0.000823
17700000,0.0324,0.013523,0.002678,0.000431,0.000940
17701000,0.0324,0.013523,0.002678,0.000431,0.000823
17702000,0.0324,0.013523,0.002678,0.000431,0.000940
17703000,0.0324,0.013523,0.002678,0.000431,0.000823
17704000,0.0324,0.013523,0.002678,0.000431,0.000940
17705000,0.0324,0.013523,0.002678,0.000431,0.000823
17706000,0.0324,0.013523,0.002678,0.000431,0.000823
17707000,0.0324,0.013523,0.002678,0.000431,0.000940
17708000,0.0324,0.013523,0.002678,0.000431,0.000940
17709000,0.0324,0.013523,0.002678,0.000431,0.000823
17710000,0.0324,0.013523,0.002678,0.000431,0.000823
17711000,0.0324,0.013523,0.002678,0.000431,0.000940
17712000,0.0324,0.013523,0.002678,0.000431,0.000940
17713000,0.0324,0.013523,0.002678,0.000431,0.000705
17714000,0.0324,0.013523,0.002678,0.000431,0.000940
17715000,0.0324,0.013523,0.002678,0.000431,0.000940
17716000,0.0324,0.013523,0.002678,0.000431,0.000823
17717000,0.0324,0.013523,0.002678,0.000431,0.000940
17718000,0.0324,0.013523,0.002678,0.000431,0.000823
17719000,0.0324,0.013523,0.002678,0.000431,0.000940
17720000,0.0324,0.013523,0.002678,0.000431,0.000823
17721000,0.0324,0.013523,0.002678,0.000431,0.000823
17722000,0.0324,0.013523,0.002678,0.000431,0.000940
17723000,0.0324,0.013523,0.002678,0.000431,0.000940
17724000,0.0324,0.013523,0.002678,0.000431,0.000823
17725000,0.0324,0.013523,0.002678,0.000431,0.000823
17726000,0.0324,0.013523,0.002678,0.000431,0.000940
17727000,0.0324,0.013523,0.002678,0.000431,0.000940
17728000,0.0324,0.013523,0.002678,0.000431,0.000705
17729000,0.0324,0.013523,0.002678,0.000431,0.000940
17730000,0.0324,0.013523,0.002678,0.000431,0.000940
17731000,0.0324,0.013523,0.002678,0.000431,0.000940
17732000,0.0324,0.013523,0.002678,0.000431,0.000705
17733000,0.0324,0.013523,0.002678,0.000431,0.000940
17734000,0.0324,0.013523,0.002678,0.000431,0.000940
17735000,0.0324,0.013523,0.002678,0.000431,0.000823
17736000,0.0324,0.013523,0.002678,0.000431,0.000823
17737000,0.0324,0.013523,0.002678,0.000431,0.000940
17738000,0.0324,0.013523,0.002678,0.000431,0.000940
17739000,0.0324,0.013523,0.002678,0.000431,0.000823
17740000,0.0324,0.013523,0.002678,0.000431,0.000823
17741000,0.0324,0.013523,0.002678,0.000431,0.000940
17742000,0.0324,0.013523,0.002678,0.000431,0.000823
17743000,0.0324,0.013523,0.002678,0.000431,0.000940
17744000,0.0324,0.013523,0.002678,0.000431,0.000823
17745000,0.0324,0.013523,0.002678,0.000431,0.000940
17746000,0.0324,0.013523,0.002678,0.000431,0.000823
17747000,0.0324,0.013523,0.002678,0.000431,0.000823
17748000,0.0324,0.013523,0.002678,0.000431,0.000940
17749000,0.0324,0.013523,0.002678,0.000431,0.000940
17750000,0.0324,0.013523,0.002678,0.000431,0.000940
17751000,0.0324,0.013523,0.002678,0.000431,0.000705
17752000,0.0324,0.013523,0.002678,0.000431,0.000940
17753000,0.0324,0.013523,0.002678,0.000431,0.000940
17754000,0.0324,0.013523,0.002678,0.000431,0.000823
17755000,0.0324,0.013523,0.002678,0.000431,0.000823
17756000,0.0324,0.013523,0.002678,0.000431,0.000940
17757000,0.0324,0.013523,0.002678,0.000431,0.000823
17758000,0.0324,0.013523,0.002678,0.000431,0.000940
17759000,0.0324,0.013523,0.002678,0.000431,0.000823
17760000,0.0324,0.013523,0.002678,0.000431,0.000940
17761000,0.0324,0.013523,0.002678,0.000431,0.000823
17762000,0.0324,0.013523,0.002678,0.000431,0.000823
17763000,0.0324,0.013523,0.002678,0.000431,0.000940
17764000,0.0324,0.013523,0.002678,0.000431,0.000940
17765000,0.0324,0.013523,0.002678,0.000431,0.000823
17766000,0.0324,0.013523,0.002678,0.000431,0.000823
17767000,0.0324,0.013523,0.002678,0.000431,0.000940
17768000,0.0324,0.013523,0.002678,0.000431,0.000940
17769000,0.0324,0.013523,0.002678,0.000431,0.000705
17770000,0.0324,0.013523,0.002678,0.000431,0.000940
17771000,0.0324,0.013523,0.002678,0.000431,0.000940
17772000,0.0324,0.013523,0.002678,0.000431,0.000940
17773000,0.0324,0.013523,0.002678,0.000431,0.000705
17774000,0.0324,0.013523,0.002678,0.000431,0.000940
17775000,0.0324,0.013523,0.002678,0.000431,0.000940
17776000,0.0324,0.013523,0.002678,0.000431,0.000823
17777000,0.0324,0.013523,0.002678,0.000431,0.000940
17778000,0.0324,0.013523,0.002678,0.000431,0.000823
17779000,0.0324,0.013523,0.002678,0.000431,0.000940
17780000,0.0324,0.013523,0.002678,0.000431,0.000823
17781000,0.0324,0.013523,0.002678,0.000431,0.000823
17782000,0.0324,0.013523,0.002678,0.000431,0.000940
17783000,0.0324,0.013523,0.002678,0.000431,0.000940
17784000,0.0324,0.013523,0.002678,0.000431,0.000823
17785000,0.0324,0.013523,0.002678,0.000431,0.000823
17786000,0.0324,0.013523,0.002678,0.000431,0.000940
17787000,0.0324,0.013523,0.002678,0.000431,0.000940
17788000,0.0324,0.013523,0.002678,0.000431,0.000705
17789000,0.0324,0.013523,0.002678,0.000431,0.000940
17790000,0.0324,0.013523,0.002678,0.000431,0.000940
17791000,0.0324,0.013523,0.002678,0.000431,0.000940
17792000,0.0324,0.013523,0.002678,0.000431,0.000705
17793000,0.0324,0.013523,0.002678,0.000431,0.000940
17794000,0.0324,0.013523,0.002678,0.000431,0.000940
17795000,0.0324,0.013523,0.002678,0.000431,0.000823
17796000,0.0324,0.013523,0.002678,0.000431,0.000823
17797000,0.0324,0.013523,0.002678,0.000431,0.000940
17798000,0.0324,0.013523,0.002678,0.000431,0.000823
17799000,0.0324,0.013523,0.002678,0.000431,0.000940
17800000,0.0324,0.013523,0.002678,0.000431,0.000823
17801000,0.0324,0.013523,0.002678,0.000431,0.000940
17802000,0.0324,0.013523,0.002678,0.000431,0.000823
17803000,0.0324,0.013523,0.002678,0.000431,0.000823
17804000,0.0324,0.013523,0.002678,0.000431,0.000940
17805000,0.0324,0.013523,0.002678,0.000431,0.000940
17806000,0.0324,0.013523,0.002678,0.000431,0.000823
17807000,0.0324,0.013523,0.002678,0.000431,0.000823
17808000,0.0324,0.013523,0.002678,0.000431,0.000940
17809000,0.0324,0.013523,0.002678,0.000431,0.000940
17810000,0.0324,0.013523,0.002678,0.000431,0.000823
17811000,0.0324,0.013523,0.002678,0.000431,0.000823
17812000,0.0324,0.013523,0.002678,0.000431,0.000940
17813000,0.0324,0.013523,0.002678,0.000431,0.000940
17814000,0.0324,0.013523,0.002678,0.000431,0.000823
17815000,0.0324,0.013523,0.002678,0.000431,0.000823
17816000,0.0324,0.013523,0.002678,0.000431,0.000940
17817000,0.0324,0.013523,0.002678,0.000431,0.000823
17818000,0.0324,0.013523,0.002678,0.000431,0.000940
17819000,0.0324,0.013523,0.002678,0.000431,0.000823
17820000,0.0324,0.013523,0.002678,0.000431,0.000940
17821000,0.0324,0.013523,0.002678,0.000431,0.000823
17822000,0.0324,0.013523,0.002678,0.000431,0.000823
17823000,0.0324,0.013523,0.002678,0.000431,0.207672
17824000,0.0324,0.013523,0.002678,0.000431,0.553205
17825000,0.0324,0.013523,0.002678,0.000431,0.454246
17826000,0.0324,0.013523,0.002678,0.000431,0.133042
17827000,0.0324,0.013523,0.002678,0.000431,0.132572
17828000,0.0324,0.013523,0.002678,0.000431,0.582470
17829000,0.0324,0.013523,0.002678,0.000431,0.233528
17830000,0.0324,0.013523,0.002678,0.000431,0.272548
17831000,0.0324,0.013523,0.002678,0.000431,0.234821
17832000,0.0324,0.013523,0.002678,0.000431,0.138213
17833000,0.0324,0.013523,0.002678,0.000431,0.165480
17834000,0.0324,0.013523,0.002678,0.000431,0.107186
17835000,0.0324,0.013523,0.002678,0.000431,0.424982
17836000,0.0324,0.013523,0.002678,0.000431,0.149026
17837000,0.0324,0.013523,0.002678,0.000431,0.038432
17838000,0.0324,0.013523,0.002678,0.000431,0.027149
17839000,0.0324,0.013523,0.002678,0.000431,0.016924
17840000,0.0324,0.013523,0.002678,0.000431,0.013046
17841000,0.0324,0.013523,0.002678,0.000431,0.017394
17842000,0.0324,0.013523,0.002678,0.000431,0.013398
17843000,0.0324,0.013523,0.002678,0.000431,0.008109
17844000,0.0324,0.013523,0.002678,0.000431,0.007757
17845000,0.0324,0.013523,0.002678,0.000431,0.010695
17846000,0.0324,0.013523,0.002678,0.000431,0.007522
17847000,0.0324,0.013523,0.002678,0.000431,0.006934
17848000,0.0324,0.013523,0.002678,0.000431,0.007757
17849000,0.0324,0.013523,0.002678,0.000431,0.004113
17850000,0.0324,0.013523,0.002678,0.000431,0.004231
17851000,0.0324,0.013523,0.002678,0.000431,0.004349
17852000,0.0324,0.013523,0.002678,0.000431,0.005759
17853000,0.0324,0.013523,0.002678,0.000431,0.003526
17854000,0.0324,0.013523,0.002678,0.000431,0.005641
17855000,0.0324,0.013523,0.002678,0.000431,0.002468
17856000,0.0324,0.013523,0.002678,0.000431,0.002703
17857000,0.0324,0.013523,0.002678,0.000431,0.002586
17858000,0.0324,0.013523,0.002678,0.000431,0.002703
17859000,0.0324,0.013523,0.002678,0.000431,0.002586
17860000,0.0324,0.013523,0.002678,0.000431,0.002586
17861000,0.0324,0.013523,0.002678,0.000431,0.002703
17862000,0.0324,0.013523,0.002678,0.000431,0.002703
17863000,0.0324,0.013523,0.002678,0.000431,0.002586
17864000,0.0324,0.013523,0.002678,0.000431,0.002586
17865000,0.0324,0.013523,0.002678,0.000431,0.002586
17866000,0.0324,0.013523,0.002678,0.000431,0.002821
17867000,0.0324,0.013523,0.002678,0.000431,0.002351
17868000,0.0324,0.013523,0.002678,0.000431,0.002821
17869000,0.0324,0.013523,0.002678,0.000431,0.003408
17870000,0.0324,0.013523,0.002678,0.000431,0.002938
17871000,0.0324,0.013523,0.002678,0.000431,0.003643
17872000,0.0324,0.013523,0.002678,0.000431,0.000940
17873000,0.0324,0.013523,0.002678,0.000431,0.000940
17874000,0.0324,0.013523,0.002678,0.000431,0.000823
17875000,0.0324,0.013523,0.002678,0.000431,0.000940
17876000,0.0324,0.013523,0.002678,0.000431,0.000823
17877000,0.0324,0.013523,0.002678,0.000431,0.000940
17878000,0.0324,0.013523,0.002678,0.000431,0.000823
17879000,0.0324,0.013523,0.002678,0.000431,0.000823
17880000,0.0324,0.013523,0.002678,0.000431,0.000940
17881000,0.0324,0.013523,0.002678,0.000431,0.000940
17882000,0.0324,0.013523,0.002678,0.000431,0.000705
17883000,0.0324,0.013523,0.002678,0.000431,0.000940
17884000,0.0324,0.013523,0.002678,0.000431,0.000940
17885000,0.0324,0.013523,0.002678,0.000431,0.000940
17886000,0.0324,0.013523,0.002678,0.000431,0.000705
17887000,0.0324,0.013523,0.002678,0.000431,0.000940
17888000,0.0324,0.013523,0.002678,0.000431,0.000940
17889000,0.0324,0.013523,0.002678,0.000431,0.000823
17890000,0.0324,0.013523,0.002678,0.000431,0.000823
17891000,0.0324,0.013523,0.002678,0.000431,0.000940
17892000,0.0324,0.013523,0.002678,0.000431,0.000940
17893000,0.0324,0.013523,0.002678,0.000431,0.000940
17894000,0.0324,0.013523,0.002678,0.000431,0.000705
17895000,0.0324,0.013523,0.002678,0.000431,0.000940
17896000,0.0324,0.013523,0.002678,0.000431,0.000940
17897000,0.0324,0.013523,0.002678,0.000431,0.157958
17898000,0.0324,0.013523,0.002678,0.000431,0.456362
17899000,0.0324,0.013523,0.002678,0.000431,0.531110
17900000,0.0324,0.013523,0.002678,0.000431,0.133512
17901000,0.0324,0.013523,0.002678,0.000431,0.133512
17902000,0.0324,0.013523,0.002678,0.000431,0.559434
17903000,0.0324,0.013523,0.002678,0.000431,0.245634
17904000,0.0324,0.013523,0.002678,0.000431,0.255624
17905000,0.0324,0.013523,0.002678,0.000431,0.292410
17906000,0.0324,0.013523,0.002678,0.000431,0.145382
17907000,0.0324,0.013523,0.002678,0.000431,0.146793
17908000,0.0324,0.013523,0.002678,0.000431,0.111652
17909000,0.0324,0.013523,0.002678,0.000431,0.358108
17910000,0.0324,0.013523,0.002678,0.000431,0.248337
17911000,0.0324,0.013523,0.002678,0.000431,0.045836
17912000,0.0324,0.013523,0.002678,0.000431,0.047246
17913000,0.0324,0.013523,0.002678,0.000431,0.042898
17914000,0.0324,0.013523,0.002678,0.000431,0.033496
17915000,0.0324,0.013523,0.002678,0.000431,0.035023
17916000,0.0324,0.013523,0.002678,0.000431,0.025386
17917000,0.0324,0.013523,0.002678,0.000431,0.025621
17918000,0.0324,0.013523,0.002678,0.000431,0.024681
17919000,0.0324,0.013523,0.002678,0.000431,0.018922
17920000,0.0324,0.013523,0.002678,0.000431,0.021155
17921000,0.0324,0.013523,0.002678,0.000431,0.014456
17922000,0.0324,0.013523,0.002678,0.000431,0.016454
17923000,0.0324,0.013523,0.002678,0.000431,0.014456
17924000,0.0324,0.013523,0.002678,0.000431,0.011400
17925000,0.0324,0.013523,0.002678,0.000431,0.010695
17926000,0.0324,0.013523,0.002678,0.000431,0.015279
17927000,0.0324,0.013523,0.002678,0.000431,0.009637
17928000,0.0324,0.013523,0.002678,0.000431,0.009285
17929000,0.0324,0.013523,0.002678,0.000431,0.010342
17930000,0.0324,0.013523,0.002678,0.000431,0.008815
17931000,0.0324,0.013523,0.002678,0.000431,0.008580
17932000,0.0324,0.013523,0.002678,0.000431,0.008580
17933000,0.0324,0.013523,0.002678,0.000431,0.010225
17934000,0.0324,0.013523,0.002678,0.000431,0.007992
17935000,0.0324,0.013523,0.002678,0.000431,0.006582
17936000,0.0324,0.013523,0.002678,0.000431,0.009167
17937000,0.0324,0.013523,0.002678,0.000431,0.007992
17938000,0.0324,0.013523,0.002678,0.000431,0.004349
17939000,0.0324,0.013523,0.002678,0.000431,0.004466
17940000,0.0324,0.013523,0.002678,0.000431,0.003878
17941000,0.0324,0.013523,0.002678,0.000431,0.004584
17942000,0.0324,0.013523,0.002678,0.000431,0.004466
17943000,0.0324,0.013523,0.002678,0.000431,0.005759
17944000,0.0324,0.013523,0.002678,0.000431,0.003408
17945000,0.0324,0.013523,0.002678,0.000431,0.005171
17946000,0.0324,0.013523,0.002678,0.000431,0.002703
17947000,0.0324,0.013523,0.002678,0.000431,0.002351
17948000,0.0324,0.013523,0.002678,0.000431,0.002703
17949000,0.0324,0.013523,0.002678,0.000431,0.002703
17950000,0.0324,0.013523,0.002678,0.000431,0.002586
17951000,0.0324,0.013523,0.002678,0.000431,0.002468
17952000,0.0324,0.013523,0.002678,0.000431,0.002586
17953000,0.0324,0.013523,0.002678,0.000431,0.002821
17954000,0.0324,0.013523,0.002678,0.000431,0.003526
17955000,0.0324,0.013523,0.002678,0.000431,0.001763
17956000,0.0324,0.013523,0.002678,0.000431,0.001645
17957000,0.0324,0.013523,0.002678,0.000431,0.001880
17958000,0.0324,0.013523,0.002678,0.000431,0.001528
17959000,0.0324,0.013523,0.002678,0.000431,0.001763
17960000,0.0324,0.013523,0.002678,0.000431,0.001763
17961000,0.0324,0.013523,0.002678,0.000431,0.001645
17962000,0.0324,0.013523,0.002678,0.000431,0.001880
17963000,0.0324,0.013523,0.002678,0.000431,0.001528
17964000,0.0324,0.013523,0.002678,0.000431,0.001880
17965000,0.0324,0.013523,0.002678,0.000431,0.001645
17966000,0.0324,0.013523,0.002678,0.000431,0.001645
17967000,0.0324,0.013523,0.002678,0.000431,0.002586
17968000,0.0324,0.013523,0.002678,0.000431,0.001998
17969000,0.0324,0.013523,0.002678,0.000431,0.000823
17970000,0.0324,0.013523,0.002678,0.000431,0.000823
17971000,0.0324,0.013523,0.002678,0.000431,0.000940
17972000,0.0324,0.013523,0.002678,0.000431,0.000705
17973000,0.0324,0.013523,0.002678,0.000431,0.000823
17974000,0.0324,0.013523,0.002678,0.000431,0.000940
17975000,0.0324,0.013523,0.002678,0.000431,0.000823
17976000,0.0324,0.013523,0.002678,0.000431,0.000823
17977000,0.0324,0.013523,0.002678,0.000431,0.000823
17978000,0.0324,0.013523,0.002678,0.000431,0.000705
17979000,0.0324,0.013523,0.002678,0.000431,0.000940
17980000,0.0324,0.013523,0.002678,0.000431,0.000940
17981000,0.0324,0.013523,0.002678,0.000431,0.000705
17982000,0.0324,0.013523,0.002678,0.000431,0.000940
17983000,0.0324,0.013523,0.002678,0.000431,0.000705
17984000,0.0324,0.013523,0.002678,0.000431,0.000940
17985000,0.0324,0.013523,0.002678,0.000431,0.000823
17986000,0.0324,0.013523,0.002678,0.000431,0.000823
17987000,0.0324,0.013523,0.002678,0.000431,0.000940
17988000,0.0324,0.013523,0.002678,0.000431,0.000705
17989000,0.0324,0.013523,0.002678,0.000431,0.000940
17990000,0.0324,0.013523,0.002678,0.000431,0.000705
17991000,0.0324,0.013523,0.002678,0.000431,0.000940
17992000,0.0324,0.013523,0.002678,0.000431,0.000823
17993000,0.0324,0.013523,0.002678,0.000431,0.000823
17994000,0.0324,0.013523,0.002678,0.000431,0.000823
17995000,0.0324,0.013523,0.002678,0.000431,0.000823
17996000,0.0324,0.013523,0.002678,0.000431,0.000823
17997000,0.0324,0.013523,0.002678,0.000431,0.000823
17998000,0.0324,0.013523,0.002678,0.000431,0.000940
17999000,0.0324,0.013523,0.002678,0.000431,0.000823
