Cycle,Area(mm^2),PeakDynamic(W),SubthresholdLeakage(W),GateLeakage(W),RunTimeDynamic(W)
93000000,0.0324,0.013523,0.002678,0.000431,0.000940
93001000,0.0324,0.013523,0.002678,0.000431,0.000940
93002000,0.0324,0.013523,0.002678,0.000431,0.000940
93003000,0.0324,0.013523,0.002678,0.000431,0.000823
93004000,0.0324,0.013523,0.002678,0.000431,0.000823
93005000,0.0324,0.013523,0.002678,0.000431,0.000940
93006000,0.0324,0.013523,0.002678,0.000431,0.000940
93007000,0.0324,0.013523,0.002678,0.000431,0.000823
93008000,0.0324,0.013523,0.002678,0.000431,0.000823
93009000,0.0324,0.013523,0.002678,0.000431,0.000940
93010000,0.0324,0.013523,0.002678,0.000431,0.000823
93011000,0.0324,0.013523,0.002678,0.000431,0.001058
93012000,0.0324,0.013523,0.002678,0.000431,0.002586
93013000,0.0324,0.013523,0.002678,0.000431,0.369038
93014000,0.0324,0.013523,0.002678,0.000431,0.691066
93015000,0.0324,0.013523,0.002678,0.000431,0.137038
93016000,0.0324,0.013523,0.002678,0.000431,0.133982
93017000,0.0324,0.013523,0.002678,0.000431,0.167478
93018000,0.0324,0.013523,0.002678,0.000431,0.600099
93019000,0.0324,0.013523,0.002678,0.000431,0.280657
93020000,0.0324,0.013523,0.002678,0.000431,0.265731
93021000,0.0324,0.013523,0.002678,0.000431,0.226829
93022000,0.0324,0.013523,0.002678,0.000431,0.145382
93023000,0.0324,0.013523,0.002678,0.000431,0.155842
93024000,0.0324,0.013523,0.002678,0.000431,0.151846
93025000,0.0324,0.013523,0.002678,0.000431,0.445079
93026000,0.0324,0.013523,0.002678,0.000431,0.066521
93027000,0.0324,0.013523,0.002678,0.000431,0.052418
93028000,0.0324,0.013523,0.002678,0.000431,0.049949
93029000,0.0324,0.013523,0.002678,0.000431,0.041370
93030000,0.0324,0.013523,0.002678,0.000431,0.035611
93031000,0.0324,0.013523,0.002678,0.000431,0.033496
93032000,0.0324,0.013523,0.002678,0.000431,0.026796
93033000,0.0324,0.013523,0.002678,0.000431,0.025034
93034000,0.0324,0.013523,0.002678,0.000431,0.029617
93035000,0.0324,0.013523,0.002678,0.000431,0.023036
93036000,0.0324,0.013523,0.002678,0.000431,0.023271
93037000,0.0324,0.013523,0.002678,0.000431,0.016101
93038000,0.0324,0.013523,0.002678,0.000431,0.016571
93039000,0.0324,0.013523,0.002678,0.000431,0.015514
93040000,0.0324,0.013523,0.002678,0.000431,0.012105
93041000,0.0324,0.013523,0.002678,0.000431,0.010342
93042000,0.0324,0.013523,0.002678,0.000431,0.011400
93043000,0.0324,0.013523,0.002678,0.000431,0.009050
93044000,0.0324,0.013523,0.002678,0.000431,0.008227
93045000,0.0324,0.013523,0.002678,0.000431,0.011165
93046000,0.0324,0.013523,0.002678,0.000431,0.007874
93047000,0.0324,0.013523,0.002678,0.000431,0.009402
93048000,0.0324,0.013523,0.002678,0.000431,0.009402
93049000,0.0324,0.013523,0.002678,0.000431,0.006229
93050000,0.0324,0.013523,0.002678,0.000431,0.005994
93051000,0.0324,0.013523,0.002678,0.000431,0.005994
93052000,0.0324,0.013523,0.002678,0.000431,0.006111
93053000,0.0324,0.013523,0.002678,0.000431,0.008109
93054000,0.0324,0.013523,0.002678,0.000431,0.005289
93055000,0.0324,0.013523,0.002678,0.000431,0.005289
93056000,0.0324,0.013523,0.002678,0.000431,0.005054
93057000,0.0324,0.013523,0.002678,0.000431,0.006582
93058000,0.0324,0.013523,0.002678,0.000431,0.004349
93059000,0.0324,0.013523,0.002678,0.000431,0.004936
93060000,0.0324,0.013523,0.002678,0.000431,0.003408
93061000,0.0324,0.013523,0.002678,0.000431,0.003408
93062000,0.0324,0.013523,0.002678,0.000431,0.003643
93063000,0.0324,0.013523,0.002678,0.000431,0.007169
93064000,0.0324,0.013523,0.002678,0.000431,0.002821
93065000,0.0324,0.013523,0.002678,0.000431,0.002468
93066000,0.0324,0.013523,0.002678,0.000431,0.000705
93067000,0.0324,0.013523,0.002678,0.000431,0.000940
93068000,0.0324,0.013523,0.002678,0.000431,0.188163
93069000,0.0324,0.013523,0.002678,0.000431,0.450133
93070000,0.0324,0.013523,0.002678,0.000431,0.528054
93071000,0.0324,0.013523,0.002678,0.000431,0.133512
93072000,0.0324,0.013523,0.002678,0.000431,0.132102
93073000,0.0324,0.013523,0.002678,0.000431,0.547564
93074000,0.0324,0.013523,0.002678,0.000431,0.253038
93075000,0.0324,0.013523,0.002678,0.000431,0.219778
93076000,0.0324,0.013523,0.002678,0.000431,0.338481
93077000,0.0324,0.013523,0.002678,0.000431,0.148908
93078000,0.0324,0.013523,0.002678,0.000431,0.138566
93079000,0.0324,0.013523,0.002678,0.000431,0.120936
93080000,0.0324,0.013523,0.002678,0.000431,0.292998
93081000,0.0324,0.013523,0.002678,0.000431,0.342477
93082000,0.0324,0.013523,0.002678,0.000431,0.093552
93083000,0.0324,0.013523,0.002678,0.000431,0.086971
93084000,0.0324,0.013523,0.002678,0.000431,0.070752
93085000,0.0324,0.013523,0.002678,0.000431,0.060057
93086000,0.0324,0.013523,0.002678,0.000431,0.048304
93087000,0.0324,0.013523,0.002678,0.000431,0.043720
93088000,0.0324,0.013523,0.002678,0.000431,0.032438
93089000,0.0324,0.013523,0.002678,0.000431,0.023858
93090000,0.0324,0.013523,0.002678,0.000431,0.021860
93091000,0.0324,0.013523,0.002678,0.000431,0.014103
93092000,0.0324,0.013523,0.002678,0.000431,0.017394
93093000,0.0324,0.013523,0.002678,0.000431,0.013281
93094000,0.0324,0.013523,0.002678,0.000431,0.011635
93095000,0.0324,0.013523,0.002678,0.000431,0.009637
93096000,0.0324,0.013523,0.002678,0.000431,0.009520
93097000,0.0324,0.013523,0.002678,0.000431,0.010578
93098000,0.0324,0.013523,0.002678,0.000431,0.006347
93099000,0.0324,0.013523,0.002678,0.000431,0.005641
93100000,0.0324,0.013523,0.002678,0.000431,0.006464
93101000,0.0324,0.013523,0.002678,0.000431,0.007169
93102000,0.0324,0.013523,0.002678,0.000431,0.005759
93103000,0.0324,0.013523,0.002678,0.000431,0.005171
93104000,0.0324,0.013523,0.002678,0.000431,0.004936
93105000,0.0324,0.013523,0.002678,0.000431,0.005524
93106000,0.0324,0.013523,0.002678,0.000431,0.004936
93107000,0.0324,0.013523,0.002678,0.000431,0.006111
93108000,0.0324,0.013523,0.002678,0.000431,0.004466
93109000,0.0324,0.013523,0.002678,0.000431,0.005406
93110000,0.0324,0.013523,0.002678,0.000431,0.005759
93111000,0.0324,0.013523,0.002678,0.000431,0.004936
93112000,0.0324,0.013523,0.002678,0.000431,0.005289
93113000,0.0324,0.013523,0.002678,0.000431,0.005054
93114000,0.0324,0.013523,0.002678,0.000431,0.005524
93115000,0.0324,0.013523,0.002678,0.000431,0.006464
93116000,0.0324,0.013523,0.002678,0.000431,0.003643
93117000,0.0324,0.013523,0.002678,0.000431,0.003878
93118000,0.0324,0.013523,0.002678,0.000431,0.006464
93119000,0.0324,0.013523,0.002678,0.000431,0.002586
93120000,0.0324,0.013523,0.002678,0.000431,0.004113
93121000,0.0324,0.013523,0.002678,0.000431,0.001645
93122000,0.0324,0.013523,0.002678,0.000431,0.001645
93123000,0.0324,0.013523,0.002678,0.000431,0.001645
93124000,0.0324,0.013523,0.002678,0.000431,0.001645
93125000,0.0324,0.013523,0.002678,0.000431,0.001763
93126000,0.0324,0.013523,0.002678,0.000431,0.001645
93127000,0.0324,0.013523,0.002678,0.000431,0.001645
93128000,0.0324,0.013523,0.002678,0.000431,0.001645
93129000,0.0324,0.013523,0.002678,0.000431,0.001763
93130000,0.0324,0.013523,0.002678,0.000431,0.001645
93131000,0.0324,0.013523,0.002678,0.000431,0.001645
93132000,0.0324,0.013523,0.002678,0.000431,0.001763
93133000,0.0324,0.013523,0.002678,0.000431,0.001645
93134000,0.0324,0.013523,0.002678,0.000431,0.001645
93135000,0.0324,0.013523,0.002678,0.000431,0.001645
93136000,0.0324,0.013523,0.002678,0.000431,0.001645
93137000,0.0324,0.013523,0.002678,0.000431,0.001763
93138000,0.0324,0.013523,0.002678,0.000431,0.001880
93139000,0.0324,0.013523,0.002678,0.000431,0.001410
93140000,0.0324,0.013523,0.002678,0.000431,0.001880
93141000,0.0324,0.013523,0.002678,0.000431,0.002821
93142000,0.0324,0.013523,0.002678,0.000431,0.000823
93143000,0.0324,0.013523,0.002678,0.000431,0.000940
93144000,0.0324,0.013523,0.002678,0.000431,0.000823
93145000,0.0324,0.013523,0.002678,0.000431,0.000823
93146000,0.0324,0.013523,0.002678,0.000431,0.000705
93147000,0.0324,0.013523,0.002678,0.000431,0.000940
93148000,0.0324,0.013523,0.002678,0.000431,0.000940
93149000,0.0324,0.013523,0.002678,0.000431,0.000705
93150000,0.0324,0.013523,0.002678,0.000431,0.000940
93151000,0.0324,0.013523,0.002678,0.000431,0.000705
93152000,0.0324,0.013523,0.002678,0.000431,0.000940
93153000,0.0324,0.013523,0.002678,0.000431,0.000823
93154000,0.0324,0.013523,0.002678,0.000431,0.000940
93155000,0.0324,0.013523,0.002678,0.000431,0.014103
93156000,0.0324,0.013523,0.002678,0.000431,0.561432
93157000,0.0324,0.013523,0.002678,0.000431,0.582705
93158000,0.0324,0.013523,0.002678,0.000431,0.133159
93159000,0.0324,0.013523,0.002678,0.000431,0.134452
93160000,0.0324,0.013523,0.002678,0.000431,0.515126
93161000,0.0324,0.013523,0.002678,0.000431,0.255036
93162000,0.0324,0.013523,0.002678,0.000431,0.279247
93163000,0.0324,0.013523,0.002678,0.000431,0.312272
93164000,0.0324,0.013523,0.002678,0.000431,0.144677
93165000,0.0324,0.013523,0.002678,0.000431,0.155960
93166000,0.0324,0.013523,0.002678,0.000431,0.109889
93167000,0.0324,0.013523,0.002678,0.000431,0.414639
93168000,0.0324,0.013523,0.002678,0.000431,0.178643
93169000,0.0324,0.013523,0.002678,0.000431,0.066403
93170000,0.0324,0.013523,0.002678,0.000431,0.055591
93171000,0.0324,0.013523,0.002678,0.000431,0.046306
93172000,0.0324,0.013523,0.002678,0.000431,0.037021
93173000,0.0324,0.013523,0.002678,0.000431,0.034906
93174000,0.0324,0.013523,0.002678,0.000431,0.035376
93175000,0.0324,0.013523,0.002678,0.000431,0.030792
93176000,0.0324,0.013523,0.002678,0.000431,0.025856
93177000,0.0324,0.013523,0.002678,0.000431,0.022918
93178000,0.0324,0.013523,0.002678,0.000431,0.021038
93179000,0.0324,0.013523,0.002678,0.000431,0.015631
93180000,0.0324,0.013523,0.002678,0.000431,0.013398
93181000,0.0324,0.013523,0.002678,0.000431,0.014456
93182000,0.0324,0.013523,0.002678,0.000431,0.012811
93183000,0.0324,0.013523,0.002678,0.000431,0.008815
93184000,0.0324,0.013523,0.002678,0.000431,0.008697
93185000,0.0324,0.013523,0.002678,0.000431,0.005759
93186000,0.0324,0.013523,0.002678,0.000431,0.006934
93187000,0.0324,0.013523,0.002678,0.000431,0.006582
93188000,0.0324,0.013523,0.002678,0.000431,0.006817
93189000,0.0324,0.013523,0.002678,0.000431,0.006464
93190000,0.0324,0.013523,0.002678,0.000431,0.005759
93191000,0.0324,0.013523,0.002678,0.000431,0.004466
93192000,0.0324,0.013523,0.002678,0.000431,0.004113
93193000,0.0324,0.013523,0.002678,0.000431,0.004231
93194000,0.0324,0.013523,0.002678,0.000431,0.005406
93195000,0.0324,0.013523,0.002678,0.000431,0.006229
93196000,0.0324,0.013523,0.002678,0.000431,0.002586
93197000,0.0324,0.013523,0.002678,0.000431,0.002586
93198000,0.0324,0.013523,0.002678,0.000431,0.002586
93199000,0.0324,0.013523,0.002678,0.000431,0.002586
93200000,0.0324,0.013523,0.002678,0.000431,0.002586
93201000,0.0324,0.013523,0.002678,0.000431,0.002468
93202000,0.0324,0.013523,0.002678,0.000431,0.002703
93203000,0.0324,0.013523,0.002678,0.000431,0.002586
93204000,0.0324,0.013523,0.002678,0.000431,0.002586
93205000,0.0324,0.013523,0.002678,0.000431,0.002586
93206000,0.0324,0.013523,0.002678,0.000431,0.004231
93207000,0.0324,0.013523,0.002678,0.000431,0.001528
93208000,0.0324,0.013523,0.002678,0.000431,0.001763
93209000,0.0324,0.013523,0.002678,0.000431,0.001880
93210000,0.0324,0.013523,0.002678,0.000431,0.001645
93211000,0.0324,0.013523,0.002678,0.000431,0.001763
93212000,0.0324,0.013523,0.002678,0.000431,0.001528
93213000,0.0324,0.013523,0.002678,0.000431,0.001880
93214000,0.0324,0.013523,0.002678,0.000431,0.001645
93215000,0.0324,0.013523,0.002678,0.000431,0.001763
93216000,0.0324,0.013523,0.002678,0.000431,0.001645
93217000,0.0324,0.013523,0.002678,0.000431,0.001763
93218000,0.0324,0.013523,0.002678,0.000431,0.001763
93219000,0.0324,0.013523,0.002678,0.000431,0.001528
93220000,0.0324,0.013523,0.002678,0.000431,0.001880
93221000,0.0324,0.013523,0.002678,0.000431,0.001763
93222000,0.0324,0.013523,0.002678,0.000431,0.001763
93223000,0.0324,0.013523,0.002678,0.000431,0.001645
93224000,0.0324,0.013523,0.002678,0.000431,0.001645
93225000,0.0324,0.013523,0.002678,0.000431,0.001880
93226000,0.0324,0.013523,0.002678,0.000431,0.001645
93227000,0.0324,0.013523,0.002678,0.000431,0.001645
93228000,0.0324,0.013523,0.002678,0.000431,0.001645
93229000,0.0324,0.013523,0.002678,0.000431,0.001645
93230000,0.0324,0.013523,0.002678,0.000431,0.001763
93231000,0.0324,0.013523,0.002678,0.000431,0.001763
93232000,0.0324,0.013523,0.002678,0.000431,0.001645
93233000,0.0324,0.013523,0.002678,0.000431,0.001880
93234000,0.0324,0.013523,0.002678,0.000431,0.001528
93235000,0.0324,0.013523,0.002678,0.000431,0.001763
93236000,0.0324,0.013523,0.002678,0.000431,0.001763
93237000,0.0324,0.013523,0.002678,0.000431,0.001763
93238000,0.0324,0.013523,0.002678,0.000431,0.001763
93239000,0.0324,0.013523,0.002678,0.000431,0.001528
93240000,0.0324,0.013523,0.002678,0.000431,0.001880
93241000,0.0324,0.013523,0.002678,0.000431,0.001763
93242000,0.0324,0.013523,0.002678,0.000431,0.001645
93243000,0.0324,0.013523,0.002678,0.000431,0.001645
93244000,0.0324,0.013523,0.002678,0.000431,0.001763
93245000,0.0324,0.013523,0.002678,0.000431,0.001528
93246000,0.0324,0.013523,0.002678,0.000431,0.001763
93247000,0.0324,0.013523,0.002678,0.000431,0.002703
93248000,0.0324,0.013523,0.002678,0.000431,0.000940
93249000,0.0324,0.013523,0.002678,0.000431,0.000823
93250000,0.0324,0.013523,0.002678,0.000431,0.000823
93251000,0.0324,0.013523,0.002678,0.000431,0.000940
93252000,0.0324,0.013523,0.002678,0.000431,0.000940
93253000,0.0324,0.013523,0.002678,0.000431,0.000823
93254000,0.0324,0.013523,0.002678,0.000431,0.000823
93255000,0.0324,0.013523,0.002678,0.000431,0.000940
93256000,0.0324,0.013523,0.002678,0.000431,0.000940
93257000,0.0324,0.013523,0.002678,0.000431,0.000705
93258000,0.0324,0.013523,0.002678,0.000431,0.000940
93259000,0.0324,0.013523,0.002678,0.000431,0.000940
93260000,0.0324,0.013523,0.002678,0.000431,0.000940
93261000,0.0324,0.013523,0.002678,0.000431,0.000823
93262000,0.0324,0.013523,0.002678,0.000431,0.000823
93263000,0.0324,0.013523,0.002678,0.000431,0.000940
93264000,0.0324,0.013523,0.002678,0.000431,0.000823
93265000,0.0324,0.013523,0.002678,0.000431,0.000940
93266000,0.0324,0.013523,0.002678,0.000431,0.000823
93267000,0.0324,0.013523,0.002678,0.000431,0.000940
93268000,0.0324,0.013523,0.002678,0.000431,0.000823
93269000,0.0324,0.013523,0.002678,0.000431,0.000823
93270000,0.0324,0.013523,0.002678,0.000431,0.000940
93271000,0.0324,0.013523,0.002678,0.000431,0.000940
93272000,0.0324,0.013523,0.002678,0.000431,0.000705
93273000,0.0324,0.013523,0.002678,0.000431,0.000940
93274000,0.0324,0.013523,0.002678,0.000431,0.000940
93275000,0.0324,0.013523,0.002678,0.000431,0.000940
93276000,0.0324,0.013523,0.002678,0.000431,0.000705
93277000,0.0324,0.013523,0.002678,0.000431,0.000940
93278000,0.0324,0.013523,0.002678,0.000431,0.000940
93279000,0.0324,0.013523,0.002678,0.000431,0.000823
93280000,0.0324,0.013523,0.002678,0.000431,0.000823
93281000,0.0324,0.013523,0.002678,0.000431,0.000940
93282000,0.0324,0.013523,0.002678,0.000431,0.000940
93283000,0.0324,0.013523,0.002678,0.000431,0.000823
93284000,0.0324,0.013523,0.002678,0.000431,0.000823
93285000,0.0324,0.013523,0.002678,0.000431,0.000940
93286000,0.0324,0.013523,0.002678,0.000431,0.000823
93287000,0.0324,0.013523,0.002678,0.000431,0.000940
93288000,0.0324,0.013523,0.002678,0.000431,0.000823
93289000,0.0324,0.013523,0.002678,0.000431,0.000940
93290000,0.0324,0.013523,0.002678,0.000431,0.000823
93291000,0.0324,0.013523,0.002678,0.000431,0.000823
93292000,0.0324,0.013523,0.002678,0.000431,0.000940
93293000,0.0324,0.013523,0.002678,0.000431,0.000940
93294000,0.0324,0.013523,0.002678,0.000431,0.000940
93295000,0.0324,0.013523,0.002678,0.000431,0.000705
93296000,0.0324,0.013523,0.002678,0.000431,0.000940
93297000,0.0324,0.013523,0.002678,0.000431,0.000940
93298000,0.0324,0.013523,0.002678,0.000431,0.000823
93299000,0.0324,0.013523,0.002678,0.000431,0.000823
93300000,0.0324,0.013523,0.002678,0.000431,0.000940
93301000,0.0324,0.013523,0.002678,0.000431,0.000940
93302000,0.0324,0.013523,0.002678,0.000431,0.000823
93303000,0.0324,0.013523,0.002678,0.000431,0.000823
93304000,0.0324,0.013523,0.002678,0.000431,0.000940
93305000,0.0324,0.013523,0.002678,0.000431,0.000823
93306000,0.0324,0.013523,0.002678,0.000431,0.000940
93307000,0.0324,0.013523,0.002678,0.000431,0.000823
93308000,0.0324,0.013523,0.002678,0.000431,0.000940
93309000,0.0324,0.013523,0.002678,0.000431,0.000823
93310000,0.0324,0.013523,0.002678,0.000431,0.000823
93311000,0.0324,0.013523,0.002678,0.000431,0.000940
93312000,0.0324,0.013523,0.002678,0.000431,0.000940
93313000,0.0324,0.013523,0.002678,0.000431,0.000823
93314000,0.0324,0.013523,0.002678,0.000431,0.000823
93315000,0.0324,0.013523,0.002678,0.000431,0.000940
93316000,0.0324,0.013523,0.002678,0.000431,0.000940
93317000,0.0324,0.013523,0.002678,0.000431,0.000705
93318000,0.0324,0.013523,0.002678,0.000431,0.000940
93319000,0.0324,0.013523,0.002678,0.000431,0.000940
93320000,0.0324,0.013523,0.002678,0.000431,0.000823
93321000,0.0324,0.013523,0.002678,0.000431,0.000940
93322000,0.0324,0.013523,0.002678,0.000431,0.000823
93323000,0.0324,0.013523,0.002678,0.000431,0.000940
93324000,0.0324,0.013523,0.002678,0.000431,0.000823
93325000,0.0324,0.013523,0.002678,0.000431,0.000823
93326000,0.0324,0.013523,0.002678,0.000431,0.000940
93327000,0.0324,0.013523,0.002678,0.000431,0.000940
93328000,0.0324,0.013523,0.002678,0.000431,0.000823
93329000,0.0324,0.013523,0.002678,0.000431,0.000823
93330000,0.0324,0.013523,0.002678,0.000431,0.000940
93331000,0.0324,0.013523,0.002678,0.000431,0.000940
93332000,0.0324,0.013523,0.002678,0.000431,0.000705
93333000,0.0324,0.013523,0.002678,0.000431,0.000940
93334000,0.0324,0.013523,0.002678,0.000431,0.000940
93335000,0.0324,0.013523,0.002678,0.000431,0.000940
93336000,0.0324,0.013523,0.002678,0.000431,0.000705
93337000,0.0324,0.013523,0.002678,0.000431,0.000940
93338000,0.0324,0.013523,0.002678,0.000431,0.000940
93339000,0.0324,0.013523,0.002678,0.000431,0.000823
93340000,0.0324,0.013523,0.002678,0.000431,0.000823
93341000,0.0324,0.013523,0.002678,0.000431,0.000940
93342000,0.0324,0.013523,0.002678,0.000431,0.000940
93343000,0.0324,0.013523,0.002678,0.000431,0.000823
93344000,0.0324,0.013523,0.002678,0.000431,0.000823
93345000,0.0324,0.013523,0.002678,0.000431,0.000940
93346000,0.0324,0.013523,0.002678,0.000431,0.000823
93347000,0.0324,0.013523,0.002678,0.000431,0.000940
93348000,0.0324,0.013523,0.002678,0.000431,0.000823
93349000,0.0324,0.013523,0.002678,0.000431,0.000940
93350000,0.0324,0.013523,0.002678,0.000431,0.000823
93351000,0.0324,0.013523,0.002678,0.000431,0.000823
93352000,0.0324,0.013523,0.002678,0.000431,0.000940
93353000,0.0324,0.013523,0.002678,0.000431,0.070869
93354000,0.0324,0.013523,0.002678,0.000431,0.473521
93355000,0.0324,0.013523,0.002678,0.000431,0.600334
93356000,0.0324,0.013523,0.002678,0.000431,0.132102
93357000,0.0324,0.013523,0.002678,0.000431,0.132572
93358000,0.0324,0.013523,0.002678,0.000431,0.544038
93359000,0.0324,0.013523,0.002678,0.000431,0.233293
93360000,0.0324,0.013523,0.002678,0.000431,0.243989
93361000,0.0324,0.013523,0.002678,0.000431,0.345768
93362000,0.0324,0.013523,0.002678,0.000431,0.137038
93363000,0.0324,0.013523,0.002678,0.000431,0.142914
93364000,0.0324,0.013523,0.002678,0.000431,0.130339
93365000,0.0324,0.013523,0.002678,0.000431,0.285946
93366000,0.0324,0.013523,0.002678,0.000431,0.338834
93367000,0.0324,0.013523,0.002678,0.000431,0.074395
93368000,0.0324,0.013523,0.002678,0.000431,0.059939
93369000,0.0324,0.013523,0.002678,0.000431,0.061350
93370000,0.0324,0.013523,0.002678,0.000431,0.052065
93371000,0.0324,0.013523,0.002678,0.000431,0.038549
93372000,0.0324,0.013523,0.002678,0.000431,0.040782
93373000,0.0324,0.013523,0.002678,0.000431,0.034788
93374000,0.0324,0.013523,0.002678,0.000431,0.034201
93375000,0.0324,0.013523,0.002678,0.000431,0.021978
93376000,0.0324,0.013523,0.002678,0.000431,0.014103
93377000,0.0324,0.013523,0.002678,0.000431,0.017982
93378000,0.0324,0.013523,0.002678,0.000431,0.014103
93379000,0.0324,0.013523,0.002678,0.000431,0.011400
93380000,0.0324,0.013523,0.002678,0.000431,0.013398
93381000,0.0324,0.013523,0.002678,0.000431,0.008109
93382000,0.0324,0.013523,0.002678,0.000431,0.008815
93383000,0.0324,0.013523,0.002678,0.000431,0.009520
93384000,0.0324,0.013523,0.002678,0.000431,0.009755
93385000,0.0324,0.013523,0.002678,0.000431,0.005759
93386000,0.0324,0.013523,0.002678,0.000431,0.006111
93387000,0.0324,0.013523,0.002678,0.000431,0.006229
93388000,0.0324,0.013523,0.002678,0.000431,0.008109
93389000,0.0324,0.013523,0.002678,0.000431,0.005054
93390000,0.0324,0.013523,0.002678,0.000431,0.005171
93391000,0.0324,0.013523,0.002678,0.000431,0.005054
93392000,0.0324,0.013523,0.002678,0.000431,0.004231
93393000,0.0324,0.013523,0.002678,0.000431,0.003643
93394000,0.0324,0.013523,0.002678,0.000431,0.003643
93395000,0.0324,0.013523,0.002678,0.000431,0.004113
93396000,0.0324,0.013523,0.002678,0.000431,0.004466
93397000,0.0324,0.013523,0.002678,0.000431,0.005876
93398000,0.0324,0.013523,0.002678,0.000431,0.005171
93399000,0.0324,0.013523,0.002678,0.000431,0.002351
93400000,0.0324,0.013523,0.002678,0.000431,0.002586
93401000,0.0324,0.013523,0.002678,0.000431,0.002351
93402000,0.0324,0.013523,0.002678,0.000431,0.001998
93403000,0.0324,0.013523,0.002678,0.000431,0.001998
93404000,0.0324,0.013523,0.002678,0.000431,0.002821
93405000,0.0324,0.013523,0.002678,0.000431,0.001998
93406000,0.0324,0.013523,0.002678,0.000431,0.001998
93407000,0.0324,0.013523,0.002678,0.000431,0.002468
93408000,0.0324,0.013523,0.002678,0.000431,0.002233
93409000,0.0324,0.013523,0.002678,0.000431,0.002468
93410000,0.0324,0.013523,0.002678,0.000431,0.001763
93411000,0.0324,0.013523,0.002678,0.000431,0.002586
93412000,0.0324,0.013523,0.002678,0.000431,0.001998
93413000,0.0324,0.013523,0.002678,0.000431,0.002351
93414000,0.0324,0.013523,0.002678,0.000431,0.002233
93415000,0.0324,0.013523,0.002678,0.000431,0.002586
93416000,0.0324,0.013523,0.002678,0.000431,0.003526
93417000,0.0324,0.013523,0.002678,0.000431,0.000823
93418000,0.0324,0.013523,0.002678,0.000431,0.013868
93419000,0.0324,0.013523,0.002678,0.000431,0.534636
93420000,0.0324,0.013523,0.002678,0.000431,0.593870
93421000,0.0324,0.013523,0.002678,0.000431,0.133512
93422000,0.0324,0.013523,0.002678,0.000431,0.132102
93423000,0.0324,0.013523,0.002678,0.000431,0.503726
93424000,0.0324,0.013523,0.002678,0.000431,0.301342
93425000,0.0324,0.013523,0.002678,0.000431,0.253743
93426000,0.0324,0.013523,0.002678,0.000431,0.344005
93427000,0.0324,0.013523,0.002678,0.000431,0.139036
93428000,0.0324,0.013523,0.002678,0.000431,0.147968
93429000,0.0324,0.013523,0.002678,0.000431,0.113062
93430000,0.0324,0.013523,0.002678,0.000431,0.406177
93431000,0.0324,0.013523,0.002678,0.000431,0.166067
93432000,0.0324,0.013523,0.002678,0.000431,0.028794
93433000,0.0324,0.013523,0.002678,0.000431,0.027619
93434000,0.0324,0.013523,0.002678,0.000431,0.023623
93435000,0.0324,0.013523,0.002678,0.000431,0.019040
93436000,0.0324,0.013523,0.002678,0.000431,0.016689
93437000,0.0324,0.013523,0.002678,0.000431,0.014456
93438000,0.0324,0.013523,0.002678,0.000431,0.015866
93439000,0.0324,0.013523,0.002678,0.000431,0.011635
93440000,0.0324,0.013523,0.002678,0.000431,0.011870
93441000,0.0324,0.013523,0.002678,0.000431,0.010930
93442000,0.0324,0.013523,0.002678,0.000431,0.010342
93443000,0.0324,0.013523,0.002678,0.000431,0.012223
93444000,0.0324,0.013523,0.002678,0.000431,0.012223
93445000,0.0324,0.013523,0.002678,0.000431,0.006699
93446000,0.0324,0.013523,0.002678,0.000431,0.004113
93447000,0.0324,0.013523,0.002678,0.000431,0.004466
93448000,0.0324,0.013523,0.002678,0.000431,0.003878
93449000,0.0324,0.013523,0.002678,0.000431,0.003878
93450000,0.0324,0.013523,0.002678,0.000431,0.004349
93451000,0.0324,0.013523,0.002678,0.000431,0.003878
93452000,0.0324,0.013523,0.002678,0.000431,0.004231
93453000,0.0324,0.013523,0.002678,0.000431,0.005876
93454000,0.0324,0.013523,0.002678,0.000431,0.002821
93455000,0.0324,0.013523,0.002678,0.000431,0.004349
93456000,0.0324,0.013523,0.002678,0.000431,0.000823
93457000,0.0324,0.013523,0.002678,0.000431,0.000705
93458000,0.0324,0.013523,0.002678,0.000431,0.000940
93459000,0.0324,0.013523,0.002678,0.000431,0.000940
93460000,0.0324,0.013523,0.002678,0.000431,0.000705
93461000,0.0324,0.013523,0.002678,0.000431,0.000940
93462000,0.0324,0.013523,0.002678,0.000431,0.000705
93463000,0.0324,0.013523,0.002678,0.000431,0.000940
93464000,0.0324,0.013523,0.002678,0.000431,0.000823
93465000,0.0324,0.013523,0.002678,0.000431,0.000823
93466000,0.0324,0.013523,0.002678,0.000431,0.000940
93467000,0.0324,0.013523,0.002678,0.000431,0.000705
93468000,0.0324,0.013523,0.002678,0.000431,0.000940
93469000,0.0324,0.013523,0.002678,0.000431,0.000823
93470000,0.0324,0.013523,0.002678,0.000431,0.000823
93471000,0.0324,0.013523,0.002678,0.000431,0.000823
93472000,0.0324,0.013523,0.002678,0.000431,0.000823
93473000,0.0324,0.013523,0.002678,0.000431,0.000823
93474000,0.0324,0.013523,0.002678,0.000431,0.000823
93475000,0.0324,0.013523,0.002678,0.000431,0.000940
93476000,0.0324,0.013523,0.002678,0.000431,0.000705
93477000,0.0324,0.013523,0.002678,0.000431,0.000823
93478000,0.0324,0.013523,0.002678,0.000431,0.000940
93479000,0.0324,0.013523,0.002678,0.000431,0.000823
93480000,0.0324,0.013523,0.002678,0.000431,0.000823
93481000,0.0324,0.013523,0.002678,0.000431,0.000823
93482000,0.0324,0.013523,0.002678,0.000431,0.000705
93483000,0.0324,0.013523,0.002678,0.000431,0.000940
93484000,0.0324,0.013523,0.002678,0.000431,0.000940
93485000,0.0324,0.013523,0.002678,0.000431,0.000705
93486000,0.0324,0.013523,0.002678,0.000431,0.000940
93487000,0.0324,0.013523,0.002678,0.000431,0.000705
93488000,0.0324,0.013523,0.002678,0.000431,0.000940
93489000,0.0324,0.013523,0.002678,0.000431,0.187575
93490000,0.0324,0.013523,0.002678,0.000431,0.447195
93491000,0.0324,0.013523,0.002678,0.000431,0.489740
93492000,0.0324,0.013523,0.002678,0.000431,0.132102
93493000,0.0324,0.013523,0.002678,0.000431,0.131161
93494000,0.0324,0.013523,0.002678,0.000431,0.568131
93495000,0.0324,0.013523,0.002678,0.000431,0.265731
93496000,0.0324,0.013523,0.002678,0.000431,0.243636
93497000,0.0324,0.013523,0.002678,0.000431,0.291705
93498000,0.0324,0.013523,0.002678,0.000431,0.142092
93499000,0.0324,0.013523,0.002678,0.000431,0.142914
93500000,0.0324,0.013523,0.002678,0.000431,0.122347
93501000,0.0324,0.013523,0.002678,0.000431,0.298051
93502000,0.0324,0.013523,0.002678,0.000431,0.318384
93503000,0.0324,0.013523,0.002678,0.000431,0.081917
93504000,0.0324,0.013523,0.002678,0.000431,0.070869
93505000,0.0324,0.013523,0.002678,0.000431,0.058059
93506000,0.0324,0.013523,0.002678,0.000431,0.050772
93507000,0.0324,0.013523,0.002678,0.000431,0.038079
93508000,0.0324,0.013523,0.002678,0.000431,0.038314
93509000,0.0324,0.013523,0.002678,0.000431,0.034318
93510000,0.0324,0.013523,0.002678,0.000431,0.025621
93511000,0.0324,0.013523,0.002678,0.000431,0.023036
93512000,0.0324,0.013523,0.002678,0.000431,0.026209
93513000,0.0324,0.013523,0.002678,0.000431,0.013633
93514000,0.0324,0.013523,0.002678,0.000431,0.013516
93515000,0.0324,0.013523,0.002678,0.000431,0.012928
93516000,0.0324,0.013523,0.002678,0.000431,0.014456
93517000,0.0324,0.013523,0.002678,0.000431,0.012576
93518000,0.0324,0.013523,0.002678,0.000431,0.009755
93519000,0.0324,0.013523,0.002678,0.000431,0.008697
93520000,0.0324,0.013523,0.002678,0.000431,0.007639
93521000,0.0324,0.013523,0.002678,0.000431,0.006934
93522000,0.0324,0.013523,0.002678,0.000431,0.007522
93523000,0.0324,0.013523,0.002678,0.000431,0.006464
93524000,0.0324,0.013523,0.002678,0.000431,0.010930
93525000,0.0324,0.013523,0.002678,0.000431,0.005759
93526000,0.0324,0.013523,0.002678,0.000431,0.005406
93527000,0.0324,0.013523,0.002678,0.000431,0.004701
93528000,0.0324,0.013523,0.002678,0.000431,0.005171
93529000,0.0324,0.013523,0.002678,0.000431,0.004819
93530000,0.0324,0.013523,0.002678,0.000431,0.005171
93531000,0.0324,0.013523,0.002678,0.000431,0.004466
93532000,0.0324,0.013523,0.002678,0.000431,0.005054
93533000,0.0324,0.013523,0.002678,0.000431,0.004584
93534000,0.0324,0.013523,0.002678,0.000431,0.005406
93535000,0.0324,0.013523,0.002678,0.000431,0.004466
93536000,0.0324,0.013523,0.002678,0.000431,0.005054
93537000,0.0324,0.013523,0.002678,0.000431,0.005171
93538000,0.0324,0.013523,0.002678,0.000431,0.004466
93539000,0.0324,0.013523,0.002678,0.000431,0.004584
93540000,0.0324,0.013523,0.002678,0.000431,0.004113
93541000,0.0324,0.013523,0.002678,0.000431,0.006347
93542000,0.0324,0.013523,0.002678,0.000431,0.003173
93543000,0.0324,0.013523,0.002678,0.000431,0.003408
93544000,0.0324,0.013523,0.002678,0.000431,0.003173
93545000,0.0324,0.013523,0.002678,0.000431,0.003408
93546000,0.0324,0.013523,0.002678,0.000431,0.003526
93547000,0.0324,0.013523,0.002678,0.000431,0.003056
93548000,0.0324,0.013523,0.002678,0.000431,0.003761
93549000,0.0324,0.013523,0.002678,0.000431,0.002938
93550000,0.0324,0.013523,0.002678,0.000431,0.003643
93551000,0.0324,0.013523,0.002678,0.000431,0.003173
93552000,0.0324,0.013523,0.002678,0.000431,0.003408
93553000,0.0324,0.013523,0.002678,0.000431,0.003526
93554000,0.0324,0.013523,0.002678,0.000431,0.003056
93555000,0.0324,0.013523,0.002678,0.000431,0.003526
93556000,0.0324,0.013523,0.002678,0.000431,0.003173
93557000,0.0324,0.013523,0.002678,0.000431,0.003643
93558000,0.0324,0.013523,0.002678,0.000431,0.003056
93559000,0.0324,0.013523,0.002678,0.000431,0.003526
93560000,0.0324,0.013523,0.002678,0.000431,0.003408
93561000,0.0324,0.013523,0.002678,0.000431,0.003173
93562000,0.0324,0.013523,0.002678,0.000431,0.003761
93563000,0.0324,0.013523,0.002678,0.000431,0.003056
93564000,0.0324,0.013523,0.002678,0.000431,0.003408
93565000,0.0324,0.013523,0.002678,0.000431,0.004231
93566000,0.0324,0.013523,0.002678,0.000431,0.002586
93567000,0.0324,0.013523,0.002678,0.000431,0.002468
93568000,0.0324,0.013523,0.002678,0.000431,0.002468
93569000,0.0324,0.013523,0.002678,0.000431,0.002703
93570000,0.0324,0.013523,0.002678,0.000431,0.002233
93571000,0.0324,0.013523,0.002678,0.000431,0.002821
93572000,0.0324,0.013523,0.002678,0.000431,0.002233
93573000,0.0324,0.013523,0.002678,0.000431,0.002703
93574000,0.0324,0.013523,0.002678,0.000431,0.003291
93575000,0.0324,0.013523,0.002678,0.000431,0.002586
93576000,0.0324,0.013523,0.002678,0.000431,0.001763
93577000,0.0324,0.013523,0.002678,0.000431,0.001645
93578000,0.0324,0.013523,0.002678,0.000431,0.001645
93579000,0.0324,0.013523,0.002678,0.000431,0.001645
93580000,0.0324,0.013523,0.002678,0.000431,0.001763
93581000,0.0324,0.013523,0.002678,0.000431,0.001645
93582000,0.0324,0.013523,0.002678,0.000431,0.001645
93583000,0.0324,0.013523,0.002678,0.000431,0.001528
93584000,0.0324,0.013523,0.002678,0.000431,0.001645
93585000,0.0324,0.013523,0.002678,0.000431,0.001880
93586000,0.0324,0.013523,0.002678,0.000431,0.001645
93587000,0.0324,0.013523,0.002678,0.000431,0.001645
93588000,0.0324,0.013523,0.002678,0.000431,0.001645
93589000,0.0324,0.013523,0.002678,0.000431,0.001645
93590000,0.0324,0.013523,0.002678,0.000431,0.001763
93591000,0.0324,0.013523,0.002678,0.000431,0.001645
93592000,0.0324,0.013523,0.002678,0.000431,0.001763
93593000,0.0324,0.013523,0.002678,0.000431,0.001645
93594000,0.0324,0.013523,0.002678,0.000431,0.001645
93595000,0.0324,0.013523,0.002678,0.000431,0.001763
93596000,0.0324,0.013523,0.002678,0.000431,0.001645
93597000,0.0324,0.013523,0.002678,0.000431,0.001645
93598000,0.0324,0.013523,0.002678,0.000431,0.001645
93599000,0.0324,0.013523,0.002678,0.000431,0.001645
93600000,0.0324,0.013523,0.002678,0.000431,0.001763
93601000,0.0324,0.013523,0.002678,0.000431,0.001645
93602000,0.0324,0.013523,0.002678,0.000431,0.001645
93603000,0.0324,0.013523,0.002678,0.000431,0.001645
93604000,0.0324,0.013523,0.002678,0.000431,0.001763
93605000,0.0324,0.013523,0.002678,0.000431,0.001645
93606000,0.0324,0.013523,0.002678,0.000431,0.001528
93607000,0.0324,0.013523,0.002678,0.000431,0.001645
93608000,0.0324,0.013523,0.002678,0.000431,0.001880
93609000,0.0324,0.013523,0.002678,0.000431,0.001645
93610000,0.0324,0.013523,0.002678,0.000431,0.001645
93611000,0.0324,0.013523,0.002678,0.000431,0.001645
93612000,0.0324,0.013523,0.002678,0.000431,0.001645
93613000,0.0324,0.013523,0.002678,0.000431,0.001763
93614000,0.0324,0.013523,0.002678,0.000431,0.001645
93615000,0.0324,0.013523,0.002678,0.000431,0.001763
93616000,0.0324,0.013523,0.002678,0.000431,0.001528
93617000,0.0324,0.013523,0.002678,0.000431,0.001763
93618000,0.0324,0.013523,0.002678,0.000431,0.001763
93619000,0.0324,0.013523,0.002678,0.000431,0.001645
93620000,0.0324,0.013523,0.002678,0.000431,0.001645
93621000,0.0324,0.013523,0.002678,0.000431,0.001645
93622000,0.0324,0.013523,0.002678,0.000431,0.001645
93623000,0.0324,0.013523,0.002678,0.000431,0.001645
93624000,0.0324,0.013523,0.002678,0.000431,0.001763
93625000,0.0324,0.013523,0.002678,0.000431,0.001645
93626000,0.0324,0.013523,0.002678,0.000431,0.001528
93627000,0.0324,0.013523,0.002678,0.000431,0.001763
93628000,0.0324,0.013523,0.002678,0.000431,0.001763
93629000,0.0324,0.013523,0.002678,0.000431,0.001645
93630000,0.0324,0.013523,0.002678,0.000431,0.001645
93631000,0.0324,0.013523,0.002678,0.000431,0.001645
93632000,0.0324,0.013523,0.002678,0.000431,0.001528
93633000,0.0324,0.013523,0.002678,0.000431,0.001880
93634000,0.0324,0.013523,0.002678,0.000431,0.001763
93635000,0.0324,0.013523,0.002678,0.000431,0.001528
93636000,0.0324,0.013523,0.002678,0.000431,0.001645
93637000,0.0324,0.013523,0.002678,0.000431,0.001645
93638000,0.0324,0.013523,0.002678,0.000431,0.001880
93639000,0.0324,0.013523,0.002678,0.000431,0.001645
93640000,0.0324,0.013523,0.002678,0.000431,0.001645
93641000,0.0324,0.013523,0.002678,0.000431,0.001645
93642000,0.0324,0.013523,0.002678,0.000431,0.001645
93643000,0.0324,0.013523,0.002678,0.000431,0.001763
93644000,0.0324,0.013523,0.002678,0.000431,0.002703
93645000,0.0324,0.013523,0.002678,0.000431,0.002351
93646000,0.0324,0.013523,0.002678,0.000431,0.000823
93647000,0.0324,0.013523,0.002678,0.000431,0.000823
93648000,0.0324,0.013523,0.002678,0.000431,0.000823
93649000,0.0324,0.013523,0.002678,0.000431,0.000940
93650000,0.0324,0.013523,0.002678,0.000431,0.000705
93651000,0.0324,0.013523,0.002678,0.000431,0.000940
93652000,0.0324,0.013523,0.002678,0.000431,0.000823
93653000,0.0324,0.013523,0.002678,0.000431,0.000823
93654000,0.0324,0.013523,0.002678,0.000431,0.000823
93655000,0.0324,0.013523,0.002678,0.000431,0.000823
93656000,0.0324,0.013523,0.002678,0.000431,0.000940
93657000,0.0324,0.013523,0.002678,0.000431,0.000705
93658000,0.0324,0.013523,0.002678,0.000431,0.000940
93659000,0.0324,0.013523,0.002678,0.000431,0.000705
93660000,0.0324,0.013523,0.002678,0.000431,0.000940
93661000,0.0324,0.013523,0.002678,0.000431,0.000823
93662000,0.0324,0.013523,0.002678,0.000431,0.000823
93663000,0.0324,0.013523,0.002678,0.000431,0.000940
93664000,0.0324,0.013523,0.002678,0.000431,0.000705
93665000,0.0324,0.013523,0.002678,0.000431,0.000940
93666000,0.0324,0.013523,0.002678,0.000431,0.000823
93667000,0.0324,0.013523,0.002678,0.000431,0.000823
93668000,0.0324,0.013523,0.002678,0.000431,0.000823
93669000,0.0324,0.013523,0.002678,0.000431,0.000823
93670000,0.0324,0.013523,0.002678,0.000431,0.000823
93671000,0.0324,0.013523,0.002678,0.000431,0.000823
93672000,0.0324,0.013523,0.002678,0.000431,0.000940
93673000,0.0324,0.013523,0.002678,0.000431,0.000823
93674000,0.0324,0.013523,0.002678,0.000431,0.000823
93675000,0.0324,0.013523,0.002678,0.000431,0.000823
93676000,0.0324,0.013523,0.002678,0.000431,0.000823
93677000,0.0324,0.013523,0.002678,0.000431,0.000823
93678000,0.0324,0.013523,0.002678,0.000431,0.000823
93679000,0.0324,0.013523,0.002678,0.000431,0.000940
93680000,0.0324,0.013523,0.002678,0.000431,0.000705
93681000,0.0324,0.013523,0.002678,0.000431,0.000940
93682000,0.0324,0.013523,0.002678,0.000431,0.000823
93683000,0.0324,0.013523,0.002678,0.000431,0.000823
93684000,0.0324,0.013523,0.002678,0.000431,0.000823
93685000,0.0324,0.013523,0.002678,0.000431,0.000823
93686000,0.0324,0.013523,0.002678,0.000431,0.000823
93687000,0.0324,0.013523,0.002678,0.000431,0.000823
93688000,0.0324,0.013523,0.002678,0.000431,0.000940
93689000,0.0324,0.013523,0.002678,0.000431,0.000705
93690000,0.0324,0.013523,0.002678,0.000431,0.000940
93691000,0.0324,0.013523,0.002678,0.000431,0.000823
93692000,0.0324,0.013523,0.002678,0.000431,0.000823
93693000,0.0324,0.013523,0.002678,0.000431,0.000705
93694000,0.0324,0.013523,0.002678,0.000431,0.000940
93695000,0.0324,0.013523,0.002678,0.000431,0.000940
93696000,0.0324,0.013523,0.002678,0.000431,0.000705
93697000,0.0324,0.013523,0.002678,0.000431,0.000940
93698000,0.0324,0.013523,0.002678,0.000431,0.000705
93699000,0.0324,0.013523,0.002678,0.000431,0.000940
93700000,0.0324,0.013523,0.002678,0.000431,0.000823
93701000,0.0324,0.013523,0.002678,0.000431,0.000823
93702000,0.0324,0.013523,0.002678,0.000431,0.000940
93703000,0.0324,0.013523,0.002678,0.000431,0.000705
93704000,0.0324,0.013523,0.002678,0.000431,0.000940
93705000,0.0324,0.013523,0.002678,0.000431,0.000705
93706000,0.0324,0.013523,0.002678,0.000431,0.000940
93707000,0.0324,0.013523,0.002678,0.000431,0.000823
93708000,0.0324,0.013523,0.002678,0.000431,0.000823
93709000,0.0324,0.013523,0.002678,0.000431,0.000823
93710000,0.0324,0.013523,0.002678,0.000431,0.000823
93711000,0.0324,0.013523,0.002678,0.000431,0.000940
93712000,0.0324,0.013523,0.002678,0.000431,0.000705
93713000,0.0324,0.013523,0.002678,0.000431,0.000823
93714000,0.0324,0.013523,0.002678,0.000431,0.000940
93715000,0.0324,0.013523,0.002678,0.000431,0.014221
93716000,0.0324,0.013523,0.002678,0.000431,0.514656
93717000,0.0324,0.013523,0.002678,0.000431,0.597631
93718000,0.0324,0.013523,0.002678,0.000431,0.133982
93719000,0.0324,0.013523,0.002678,0.000431,0.132572
93720000,0.0324,0.013523,0.002678,0.000431,0.331782
93721000,0.0324,0.013523,0.002678,0.000431,0.419693
93722000,0.0324,0.013523,0.002678,0.000431,0.223774
93723000,0.0324,0.013523,0.002678,0.000431,0.301460
93724000,0.0324,0.013523,0.002678,0.000431,0.207790
93725000,0.0324,0.013523,0.002678,0.000431,0.142444
93726000,0.0324,0.013523,0.002678,0.000431,0.164069
93727000,0.0324,0.013523,0.002678,0.000431,0.130809
93728000,0.0324,0.013523,0.002678,0.000431,0.466587
93729000,0.0324,0.013523,0.002678,0.000431,0.073338
93730000,0.0324,0.013523,0.002678,0.000431,0.053945
93731000,0.0324,0.013523,0.002678,0.000431,0.040430
93732000,0.0324,0.013523,0.002678,0.000431,0.037491
93733000,0.0324,0.013523,0.002678,0.000431,0.032673
93734000,0.0324,0.013523,0.002678,0.000431,0.027267
93735000,0.0324,0.013523,0.002678,0.000431,0.022918
93736000,0.0324,0.013523,0.002678,0.000431,0.029617
93737000,0.0324,0.013523,0.002678,0.000431,0.021625
93738000,0.0324,0.013523,0.002678,0.000431,0.014573
93739000,0.0324,0.013523,0.002678,0.000431,0.014338
93740000,0.0324,0.013523,0.002678,0.000431,0.012458
93741000,0.0324,0.013523,0.002678,0.000431,0.012928
93742000,0.0324,0.013523,0.002678,0.000431,0.009402
93743000,0.0324,0.013523,0.002678,0.000431,0.006817
93744000,0.0324,0.013523,0.002678,0.000431,0.006699
93745000,0.0324,0.013523,0.002678,0.000431,0.007052
93746000,0.0324,0.013523,0.002678,0.000431,0.008580
93747000,0.0324,0.013523,0.002678,0.000431,0.005406
93748000,0.0324,0.013523,0.002678,0.000431,0.005406
93749000,0.0324,0.013523,0.002678,0.000431,0.006111
93750000,0.0324,0.013523,0.002678,0.000431,0.004349
93751000,0.0324,0.013523,0.002678,0.000431,0.004466
93752000,0.0324,0.013523,0.002678,0.000431,0.004584
93753000,0.0324,0.013523,0.002678,0.000431,0.005524
93754000,0.0324,0.013523,0.002678,0.000431,0.003408
93755000,0.0324,0.013523,0.002678,0.000431,0.005289
93756000,0.0324,0.013523,0.002678,0.000431,0.002703
93757000,0.0324,0.013523,0.002678,0.000431,0.002586
93758000,0.0324,0.013523,0.002678,0.000431,0.002468
93759000,0.0324,0.013523,0.002678,0.000431,0.002821
93760000,0.0324,0.013523,0.002678,0.000431,0.002468
93761000,0.0324,0.013523,0.002678,0.000431,0.002468
93762000,0.0324,0.013523,0.002678,0.000431,0.002703
93763000,0.0324,0.013523,0.002678,0.000431,0.003408
93764000,0.0324,0.013523,0.002678,0.000431,0.002821
93765000,0.0324,0.013523,0.002678,0.000431,0.001645
93766000,0.0324,0.013523,0.002678,0.000431,0.001645
93767000,0.0324,0.013523,0.002678,0.000431,0.001763
93768000,0.0324,0.013523,0.002678,0.000431,0.001763
93769000,0.0324,0.013523,0.002678,0.000431,0.001645
93770000,0.0324,0.013523,0.002678,0.000431,0.001645
93771000,0.0324,0.013523,0.002678,0.000431,0.001880
93772000,0.0324,0.013523,0.002678,0.000431,0.001645
93773000,0.0324,0.013523,0.002678,0.000431,0.003408
93774000,0.0324,0.013523,0.002678,0.000431,0.000823
93775000,0.0324,0.013523,0.002678,0.000431,0.000705
93776000,0.0324,0.013523,0.002678,0.000431,0.000940
93777000,0.0324,0.013523,0.002678,0.000431,0.000940
93778000,0.0324,0.013523,0.002678,0.000431,0.000705
93779000,0.0324,0.013523,0.002678,0.000431,0.000940
93780000,0.0324,0.013523,0.002678,0.000431,0.000705
93781000,0.0324,0.013523,0.002678,0.000431,0.000940
93782000,0.0324,0.013523,0.002678,0.000431,0.000940
93783000,0.0324,0.013523,0.002678,0.000431,0.000705
93784000,0.0324,0.013523,0.002678,0.000431,0.000940
93785000,0.0324,0.013523,0.002678,0.000431,0.000705
93786000,0.0324,0.013523,0.002678,0.000431,0.000940
93787000,0.0324,0.013523,0.002678,0.000431,0.000823
93788000,0.0324,0.013523,0.002678,0.000431,0.000823
93789000,0.0324,0.013523,0.002678,0.000431,0.000823
93790000,0.0324,0.013523,0.002678,0.000431,0.000823
93791000,0.0324,0.013523,0.002678,0.000431,0.000940
93792000,0.0324,0.013523,0.002678,0.000431,0.000705
93793000,0.0324,0.013523,0.002678,0.000431,0.000940
93794000,0.0324,0.013523,0.002678,0.000431,0.000823
93795000,0.0324,0.013523,0.002678,0.000431,0.000823
93796000,0.0324,0.013523,0.002678,0.000431,0.000823
93797000,0.0324,0.013523,0.002678,0.000431,0.000823
93798000,0.0324,0.013523,0.002678,0.000431,0.000823
93799000,0.0324,0.013523,0.002678,0.000431,0.000823
93800000,0.0324,0.013523,0.002678,0.000431,0.000940
93801000,0.0324,0.013523,0.002678,0.000431,0.000705
93802000,0.0324,0.013523,0.002678,0.000431,0.000940
93803000,0.0324,0.013523,0.002678,0.000431,0.000705
93804000,0.0324,0.013523,0.002678,0.000431,0.000940
93805000,0.0324,0.013523,0.002678,0.000431,0.000940
93806000,0.0324,0.013523,0.002678,0.000431,0.000705
93807000,0.0324,0.013523,0.002678,0.000431,0.000940
93808000,0.0324,0.013523,0.002678,0.000431,0.000705
93809000,0.0324,0.013523,0.002678,0.000431,0.000940
93810000,0.0324,0.013523,0.002678,0.000431,0.000823
93811000,0.0324,0.013523,0.002678,0.000431,0.000823
93812000,0.0324,0.013523,0.002678,0.000431,0.000823
93813000,0.0324,0.013523,0.002678,0.000431,0.000823
93814000,0.0324,0.013523,0.002678,0.000431,0.000940
93815000,0.0324,0.013523,0.002678,0.000431,0.000705
93816000,0.0324,0.013523,0.002678,0.000431,0.000940
93817000,0.0324,0.013523,0.002678,0.000431,0.000823
93818000,0.0324,0.013523,0.002678,0.000431,0.000823
93819000,0.0324,0.013523,0.002678,0.000431,0.000823
93820000,0.0324,0.013523,0.002678,0.000431,0.000823
93821000,0.0324,0.013523,0.002678,0.000431,0.000823
93822000,0.0324,0.013523,0.002678,0.000431,0.000823
93823000,0.0324,0.013523,0.002678,0.000431,0.000823
93824000,0.0324,0.013523,0.002678,0.000431,0.000823
93825000,0.0324,0.013523,0.002678,0.000431,0.000940
93826000,0.0324,0.013523,0.002678,0.000431,0.000940
93827000,0.0324,0.013523,0.002678,0.000431,0.000823
93828000,0.0324,0.013523,0.002678,0.000431,0.002233
93829000,0.0324,0.013523,0.002678,0.000431,0.256799
93830000,0.0324,0.013523,0.002678,0.000431,0.649108
93831000,0.0324,0.013523,0.002678,0.000431,0.292528
93832000,0.0324,0.013523,0.002678,0.000431,0.131161
93833000,0.0324,0.013523,0.002678,0.000431,0.134452
93834000,0.0324,0.013523,0.002678,0.000431,0.584938
93835000,0.0324,0.013523,0.002678,0.000431,0.224479
93836000,0.0324,0.013523,0.002678,0.000431,0.247044
93837000,0.0324,0.013523,0.002678,0.000431,0.286299
93838000,0.0324,0.013523,0.002678,0.000431,0.143267
93839000,0.0324,0.013523,0.002678,0.000431,0.157605
93840000,0.0324,0.013523,0.002678,0.000431,0.108479
93841000,0.0324,0.013523,0.002678,0.000431,0.445549
93842000,0.0324,0.013523,0.002678,0.000431,0.194979
93843000,0.0324,0.013523,0.002678,0.000431,0.087911
93844000,0.0324,0.013523,0.002678,0.000431,0.074160
93845000,0.0324,0.013523,0.002678,0.000431,0.057001
93846000,0.0324,0.013523,0.002678,0.000431,0.050772
93847000,0.0324,0.013523,0.002678,0.000431,0.042663
93848000,0.0324,0.013523,0.002678,0.000431,0.045131
93849000,0.0324,0.013523,0.002678,0.000431,0.039137
93850000,0.0324,0.013523,0.002678,0.000431,0.032438
93851000,0.0324,0.013523,0.002678,0.000431,0.026679
93852000,0.0324,0.013523,0.002678,0.000431,0.017512
93853000,0.0324,0.013523,0.002678,0.000431,0.015631
93854000,0.0324,0.013523,0.002678,0.000431,0.011283
93855000,0.0324,0.013523,0.002678,0.000431,0.013046
93856000,0.0324,0.013523,0.002678,0.000431,0.010342
93857000,0.0324,0.013523,0.002678,0.000431,0.010342
93858000,0.0324,0.013523,0.002678,0.000431,0.012105
93859000,0.0324,0.013523,0.002678,0.000431,0.008815
93860000,0.0324,0.013523,0.002678,0.000431,0.009285
93861000,0.0324,0.013523,0.002678,0.000431,0.008932
93862000,0.0324,0.013523,0.002678,0.000431,0.009520
93863000,0.0324,0.013523,0.002678,0.000431,0.008697
93864000,0.0324,0.013523,0.002678,0.000431,0.009050
93865000,0.0324,0.013523,0.002678,0.000431,0.008345
93866000,0.0324,0.013523,0.002678,0.000431,0.011635
93867000,0.0324,0.013523,0.002678,0.000431,0.007992
93868000,0.0324,0.013523,0.002678,0.000431,0.009520
93869000,0.0324,0.013523,0.002678,0.000431,0.007639
93870000,0.0324,0.013523,0.002678,0.000431,0.006464
93871000,0.0324,0.013523,0.002678,0.000431,0.010107
93872000,0.0324,0.013523,0.002678,0.000431,0.006111
93873000,0.0324,0.013523,0.002678,0.000431,0.005641
93874000,0.0324,0.013523,0.002678,0.000431,0.007287
93875000,0.0324,0.013523,0.002678,0.000431,0.005289
93876000,0.0324,0.013523,0.002678,0.000431,0.005171
93877000,0.0324,0.013523,0.002678,0.000431,0.006111
93878000,0.0324,0.013523,0.002678,0.000431,0.005759
93879000,0.0324,0.013523,0.002678,0.000431,0.004113
93880000,0.0324,0.013523,0.002678,0.000431,0.004113
93881000,0.0324,0.013523,0.002678,0.000431,0.004231
93882000,0.0324,0.013523,0.002678,0.000431,0.003996
93883000,0.0324,0.013523,0.002678,0.000431,0.007052
93884000,0.0324,0.013523,0.002678,0.000431,0.003526
93885000,0.0324,0.013523,0.002678,0.000431,0.001763
93886000,0.0324,0.013523,0.002678,0.000431,0.001763
93887000,0.0324,0.013523,0.002678,0.000431,0.001763
93888000,0.0324,0.013523,0.002678,0.000431,0.001763
93889000,0.0324,0.013523,0.002678,0.000431,0.001763
93890000,0.0324,0.013523,0.002678,0.000431,0.001763
93891000,0.0324,0.013523,0.002678,0.000431,0.001645
93892000,0.0324,0.013523,0.002678,0.000431,0.001763
93893000,0.0324,0.013523,0.002678,0.000431,0.001880
93894000,0.0324,0.013523,0.002678,0.000431,0.001763
93895000,0.0324,0.013523,0.002678,0.000431,0.001645
93896000,0.0324,0.013523,0.002678,0.000431,0.001763
93897000,0.0324,0.013523,0.002678,0.000431,0.001763
93898000,0.0324,0.013523,0.002678,0.000431,0.001763
93899000,0.0324,0.013523,0.002678,0.000431,0.003056
93900000,0.0324,0.013523,0.002678,0.000431,0.000940
93901000,0.0324,0.013523,0.002678,0.000431,0.000823
93902000,0.0324,0.013523,0.002678,0.000431,0.000940
93903000,0.0324,0.013523,0.002678,0.000431,0.000823
93904000,0.0324,0.013523,0.002678,0.000431,0.000940
93905000,0.0324,0.013523,0.002678,0.000431,0.000823
93906000,0.0324,0.013523,0.002678,0.000431,0.000823
93907000,0.0324,0.013523,0.002678,0.000431,0.000940
93908000,0.0324,0.013523,0.002678,0.000431,0.000940
93909000,0.0324,0.013523,0.002678,0.000431,0.000823
93910000,0.0324,0.013523,0.002678,0.000431,0.000823
93911000,0.0324,0.013523,0.002678,0.000431,0.000940
93912000,0.0324,0.013523,0.002678,0.000431,0.000940
93913000,0.0324,0.013523,0.002678,0.000431,0.000823
93914000,0.0324,0.013523,0.002678,0.000431,0.000823
93915000,0.0324,0.013523,0.002678,0.000431,0.000940
93916000,0.0324,0.013523,0.002678,0.000431,0.000940
93917000,0.0324,0.013523,0.002678,0.000431,0.000823
93918000,0.0324,0.013523,0.002678,0.000431,0.000823
93919000,0.0324,0.013523,0.002678,0.000431,0.000940
93920000,0.0324,0.013523,0.002678,0.000431,0.000823
93921000,0.0324,0.013523,0.002678,0.000431,0.000940
93922000,0.0324,0.013523,0.002678,0.000431,0.000823
93923000,0.0324,0.013523,0.002678,0.000431,0.000940
93924000,0.0324,0.013523,0.002678,0.000431,0.000823
93925000,0.0324,0.013523,0.002678,0.000431,0.000940
93926000,0.0324,0.013523,0.002678,0.000431,0.000823
93927000,0.0324,0.013523,0.002678,0.000431,0.000940
93928000,0.0324,0.013523,0.002678,0.000431,0.000823
93929000,0.0324,0.013523,0.002678,0.000431,0.000940
93930000,0.0324,0.013523,0.002678,0.000431,0.000823
93931000,0.0324,0.013523,0.002678,0.000431,0.000940
93932000,0.0324,0.013523,0.002678,0.000431,0.000823
93933000,0.0324,0.013523,0.002678,0.000431,0.000823
93934000,0.0324,0.013523,0.002678,0.000431,0.000940
93935000,0.0324,0.013523,0.002678,0.000431,0.000940
93936000,0.0324,0.013523,0.002678,0.000431,0.000823
93937000,0.0324,0.013523,0.002678,0.000431,0.000823
93938000,0.0324,0.013523,0.002678,0.000431,0.000940
93939000,0.0324,0.013523,0.002678,0.000431,0.000940
93940000,0.0324,0.013523,0.002678,0.000431,0.000823
93941000,0.0324,0.013523,0.002678,0.000431,0.000823
93942000,0.0324,0.013523,0.002678,0.000431,0.000940
93943000,0.0324,0.013523,0.002678,0.000431,0.000940
93944000,0.0324,0.013523,0.002678,0.000431,0.000823
93945000,0.0324,0.013523,0.002678,0.000431,0.000823
93946000,0.0324,0.013523,0.002678,0.000431,0.000940
93947000,0.0324,0.013523,0.002678,0.000431,0.000823
93948000,0.0324,0.013523,0.002678,0.000431,0.000940
93949000,0.0324,0.013523,0.002678,0.000431,0.000823
93950000,0.0324,0.013523,0.002678,0.000431,0.000940
93951000,0.0324,0.013523,0.002678,0.000431,0.000823
93952000,0.0324,0.013523,0.002678,0.000431,0.000823
93953000,0.0324,0.013523,0.002678,0.000431,0.000940
93954000,0.0324,0.013523,0.002678,0.000431,0.000940
93955000,0.0324,0.013523,0.002678,0.000431,0.000823
93956000,0.0324,0.013523,0.002678,0.000431,0.000823
93957000,0.0324,0.013523,0.002678,0.000431,0.000940
93958000,0.0324,0.013523,0.002678,0.000431,0.000940
93959000,0.0324,0.013523,0.002678,0.000431,0.000705
93960000,0.0324,0.013523,0.002678,0.000431,0.000940
93961000,0.0324,0.013523,0.002678,0.000431,0.000940
93962000,0.0324,0.013523,0.002678,0.000431,0.000823
93963000,0.0324,0.013523,0.002678,0.000431,0.000940
93964000,0.0324,0.013523,0.002678,0.000431,0.000823
93965000,0.0324,0.013523,0.002678,0.000431,0.000940
93966000,0.0324,0.013523,0.002678,0.000431,0.000823
93967000,0.0324,0.013523,0.002678,0.000431,0.000823
93968000,0.0324,0.013523,0.002678,0.000431,0.000940
93969000,0.0324,0.013523,0.002678,0.000431,0.000823
93970000,0.0324,0.013523,0.002678,0.000431,0.000940
93971000,0.0324,0.013523,0.002678,0.000431,0.000823
93972000,0.0324,0.013523,0.002678,0.000431,0.000940
93973000,0.0324,0.013523,0.002678,0.000431,0.000940
93974000,0.0324,0.013523,0.002678,0.000431,0.000705
93975000,0.0324,0.013523,0.002678,0.000431,0.000940
93976000,0.0324,0.013523,0.002678,0.000431,0.000940
93977000,0.0324,0.013523,0.002678,0.000431,0.000940
93978000,0.0324,0.013523,0.002678,0.000431,0.000705
93979000,0.0324,0.013523,0.002678,0.000431,0.000940
93980000,0.0324,0.013523,0.002678,0.000431,0.000940
93981000,0.0324,0.013523,0.002678,0.000431,0.000823
93982000,0.0324,0.013523,0.002678,0.000431,0.000823
93983000,0.0324,0.013523,0.002678,0.000431,0.000940
93984000,0.0324,0.013523,0.002678,0.000431,0.000940
93985000,0.0324,0.013523,0.002678,0.000431,0.000823
93986000,0.0324,0.013523,0.002678,0.000431,0.000823
93987000,0.0324,0.013523,0.002678,0.000431,0.000940
93988000,0.0324,0.013523,0.002678,0.000431,0.000823
93989000,0.0324,0.013523,0.002678,0.000431,0.000940
93990000,0.0324,0.013523,0.002678,0.000431,0.000823
93991000,0.0324,0.013523,0.002678,0.000431,0.000940
93992000,0.0324,0.013523,0.002678,0.000431,0.000823
93993000,0.0324,0.013523,0.002678,0.000431,0.000823
93994000,0.0324,0.013523,0.002678,0.000431,0.071105
93995000,0.0324,0.013523,0.002678,0.000431,0.546506
93996000,0.0324,0.013523,0.002678,0.000431,0.580707
93997000,0.0324,0.013523,0.002678,0.000431,0.133512
93998000,0.0324,0.013523,0.002678,0.000431,0.132924
93999000,0.0324,0.013523,0.002678,0.000431,0.559199
