Cycle,Area(mm^2),PeakDynamic(W),SubthresholdLeakage(W),GateLeakage(W),RunTimeDynamic(W)
23000000,0.0324,0.013523,0.002678,0.000431,0.000940
23001000,0.0324,0.013523,0.002678,0.000431,0.000823
23002000,0.0324,0.013523,0.002678,0.000431,0.000823
23003000,0.0324,0.013523,0.002678,0.000431,0.000940
23004000,0.0324,0.013523,0.002678,0.000431,0.000705
23005000,0.0324,0.013523,0.002678,0.000431,0.000940
23006000,0.0324,0.013523,0.002678,0.000431,0.000705
23007000,0.0324,0.013523,0.002678,0.000431,0.000940
23008000,0.0324,0.013523,0.002678,0.000431,0.000823
23009000,0.0324,0.013523,0.002678,0.000431,0.000823
23010000,0.0324,0.013523,0.002678,0.000431,0.000823
23011000,0.0324,0.013523,0.002678,0.000431,0.000823
23012000,0.0324,0.013523,0.002678,0.000431,0.000940
23013000,0.0324,0.013523,0.002678,0.000431,0.000705
23014000,0.0324,0.013523,0.002678,0.000431,0.000940
23015000,0.0324,0.013523,0.002678,0.000431,0.000823
23016000,0.0324,0.013523,0.002678,0.000431,0.000823
23017000,0.0324,0.013523,0.002678,0.000431,0.000705
23018000,0.0324,0.013523,0.002678,0.000431,0.000940
23019000,0.0324,0.013523,0.002678,0.000431,0.000940
23020000,0.0324,0.013523,0.002678,0.000431,0.000705
23021000,0.0324,0.013523,0.002678,0.000431,0.000940
23022000,0.0324,0.013523,0.002678,0.000431,0.000705
23023000,0.0324,0.013523,0.002678,0.000431,0.000940
23024000,0.0324,0.013523,0.002678,0.000431,0.000823
23025000,0.0324,0.013523,0.002678,0.000431,0.000823
23026000,0.0324,0.013523,0.002678,0.000431,0.000940
23027000,0.0324,0.013523,0.002678,0.000431,0.000705
23028000,0.0324,0.013523,0.002678,0.000431,0.000940
23029000,0.0324,0.013523,0.002678,0.000431,0.000823
23030000,0.0324,0.013523,0.002678,0.000431,0.000823
23031000,0.0324,0.013523,0.002678,0.000431,0.000823
23032000,0.0324,0.013523,0.002678,0.000431,0.000823
23033000,0.0324,0.013523,0.002678,0.000431,0.000823
23034000,0.0324,0.013523,0.002678,0.000431,0.000823
23035000,0.0324,0.013523,0.002678,0.000431,0.000940
23036000,0.0324,0.013523,0.002678,0.000431,0.000705
23037000,0.0324,0.013523,0.002678,0.000431,0.000823
23038000,0.0324,0.013523,0.002678,0.000431,0.000940
23039000,0.0324,0.013523,0.002678,0.000431,0.000823
23040000,0.0324,0.013523,0.002678,0.000431,0.000823
23041000,0.0324,0.013523,0.002678,0.000431,0.000823
23042000,0.0324,0.013523,0.002678,0.000431,0.000823
23043000,0.0324,0.013523,0.002678,0.000431,0.000823
23044000,0.0324,0.013523,0.002678,0.000431,0.000940
23045000,0.0324,0.013523,0.002678,0.000431,0.000705
23046000,0.0324,0.013523,0.002678,0.000431,0.000940
23047000,0.0324,0.013523,0.002678,0.000431,0.000705
23048000,0.0324,0.013523,0.002678,0.000431,0.000940
23049000,0.0324,0.013523,0.002678,0.000431,0.000940
23050000,0.0324,0.013523,0.002678,0.000431,0.000705
23051000,0.0324,0.013523,0.002678,0.000431,0.000940
23052000,0.0324,0.013523,0.002678,0.000431,0.000705
23053000,0.0324,0.013523,0.002678,0.000431,0.000940
23054000,0.0324,0.013523,0.002678,0.000431,0.000823
23055000,0.0324,0.013523,0.002678,0.000431,0.000823
23056000,0.0324,0.013523,0.002678,0.000431,0.000823
23057000,0.0324,0.013523,0.002678,0.000431,0.000823
23058000,0.0324,0.013523,0.002678,0.000431,0.000940
23059000,0.0324,0.013523,0.002678,0.000431,0.000705
23060000,0.0324,0.013523,0.002678,0.000431,0.000940
23061000,0.0324,0.013523,0.002678,0.000431,0.000823
23062000,0.0324,0.013523,0.002678,0.000431,0.000823
23063000,0.0324,0.013523,0.002678,0.000431,0.000823
23064000,0.0324,0.013523,0.002678,0.000431,0.000823
23065000,0.0324,0.013523,0.002678,0.000431,0.000823
23066000,0.0324,0.013523,0.002678,0.000431,0.000823
23067000,0.0324,0.013523,0.002678,0.000431,0.000940
23068000,0.0324,0.013523,0.002678,0.000431,0.000705
23069000,0.0324,0.013523,0.002678,0.000431,0.000940
23070000,0.0324,0.013523,0.002678,0.000431,0.000705
23071000,0.0324,0.013523,0.002678,0.000431,0.000940
23072000,0.0324,0.013523,0.002678,0.000431,0.000940
23073000,0.0324,0.013523,0.002678,0.000431,0.000705
23074000,0.0324,0.013523,0.002678,0.000431,0.000940
23075000,0.0324,0.013523,0.002678,0.000431,0.000705
23076000,0.0324,0.013523,0.002678,0.000431,0.000940
23077000,0.0324,0.013523,0.002678,0.000431,0.000823
23078000,0.0324,0.013523,0.002678,0.000431,0.000823
23079000,0.0324,0.013523,0.002678,0.000431,0.000823
23080000,0.0324,0.013523,0.002678,0.000431,0.000823
23081000,0.0324,0.013523,0.002678,0.000431,0.000940
23082000,0.0324,0.013523,0.002678,0.000431,0.000705
23083000,0.0324,0.013523,0.002678,0.000431,0.000940
23084000,0.0324,0.013523,0.002678,0.000431,0.000823
23085000,0.0324,0.013523,0.002678,0.000431,0.000823
23086000,0.0324,0.013523,0.002678,0.000431,0.000823
23087000,0.0324,0.013523,0.002678,0.000431,0.000823
23088000,0.0324,0.013523,0.002678,0.000431,0.000823
23089000,0.0324,0.013523,0.002678,0.000431,0.000823
23090000,0.0324,0.013523,0.002678,0.000431,0.000823
23091000,0.0324,0.013523,0.002678,0.000431,0.000940
23092000,0.0324,0.013523,0.002678,0.000431,0.000823
23093000,0.0324,0.013523,0.002678,0.000431,0.000823
23094000,0.0324,0.013523,0.002678,0.000431,0.000823
23095000,0.0324,0.013523,0.002678,0.000431,0.000705
23096000,0.0324,0.013523,0.002678,0.000431,0.000940
23097000,0.0324,0.013523,0.002678,0.000431,0.000940
23098000,0.0324,0.013523,0.002678,0.000431,0.000705
23099000,0.0324,0.013523,0.002678,0.000431,0.000940
23100000,0.0324,0.013523,0.002678,0.000431,0.000705
23101000,0.0324,0.013523,0.002678,0.000431,0.000940
23102000,0.0324,0.013523,0.002678,0.000431,0.000940
23103000,0.0324,0.013523,0.002678,0.000431,0.013398
23104000,0.0324,0.013523,0.002678,0.000431,0.439320
23105000,0.0324,0.013523,0.002678,0.000431,0.594928
23106000,0.0324,0.013523,0.002678,0.000431,0.133512
23107000,0.0324,0.013523,0.002678,0.000431,0.131632
23108000,0.0324,0.013523,0.002678,0.000431,0.192864
23109000,0.0324,0.013523,0.002678,0.000431,0.566368
23110000,0.0324,0.013523,0.002678,0.000431,0.243283
23111000,0.0324,0.013523,0.002678,0.000431,0.304280
23112000,0.0324,0.013523,0.002678,0.000431,0.216369
23113000,0.0324,0.013523,0.002678,0.000431,0.135980
23114000,0.0324,0.013523,0.002678,0.000431,0.181346
23115000,0.0324,0.013523,0.002678,0.000431,0.087794
23116000,0.0324,0.013523,0.002678,0.000431,0.451308
23117000,0.0324,0.013523,0.002678,0.000431,0.075453
23118000,0.0324,0.013523,0.002678,0.000431,0.028207
23119000,0.0324,0.013523,0.002678,0.000431,0.026326
23120000,0.0324,0.013523,0.002678,0.000431,0.023623
23121000,0.0324,0.013523,0.002678,0.000431,0.018099
23122000,0.0324,0.013523,0.002678,0.000431,0.015631
23123000,0.0324,0.013523,0.002678,0.000431,0.017042
23124000,0.0324,0.013523,0.002678,0.000431,0.014926
23125000,0.0324,0.013523,0.002678,0.000431,0.014691
23126000,0.0324,0.013523,0.002678,0.000431,0.012693
23127000,0.0324,0.013523,0.002678,0.000431,0.015866
23128000,0.0324,0.013523,0.002678,0.000431,0.010460
23129000,0.0324,0.013523,0.002678,0.000431,0.010107
23130000,0.0324,0.013523,0.002678,0.000431,0.011988
23131000,0.0324,0.013523,0.002678,0.000431,0.010225
23132000,0.0324,0.013523,0.002678,0.000431,0.008580
23133000,0.0324,0.013523,0.002678,0.000431,0.010813
23134000,0.0324,0.013523,0.002678,0.000431,0.009520
23135000,0.0324,0.013523,0.002678,0.000431,0.006464
23136000,0.0324,0.013523,0.002678,0.000431,0.006817
23137000,0.0324,0.013523,0.002678,0.000431,0.007287
23138000,0.0324,0.013523,0.002678,0.000431,0.005994
23139000,0.0324,0.013523,0.002678,0.000431,0.007287
23140000,0.0324,0.013523,0.002678,0.000431,0.006347
23141000,0.0324,0.013523,0.002678,0.000431,0.006817
23142000,0.0324,0.013523,0.002678,0.000431,0.006934
23143000,0.0324,0.013523,0.002678,0.000431,0.006464
23144000,0.0324,0.013523,0.002678,0.000431,0.007052
23145000,0.0324,0.013523,0.002678,0.000431,0.006229
23146000,0.0324,0.013523,0.002678,0.000431,0.006934
23147000,0.0324,0.013523,0.002678,0.000431,0.006464
23148000,0.0324,0.013523,0.002678,0.000431,0.006934
23149000,0.0324,0.013523,0.002678,0.000431,0.009167
23150000,0.0324,0.013523,0.002678,0.000431,0.005994
23151000,0.0324,0.013523,0.002678,0.000431,0.005054
23152000,0.0324,0.013523,0.002678,0.000431,0.004936
23153000,0.0324,0.013523,0.002678,0.000431,0.005171
23154000,0.0324,0.013523,0.002678,0.000431,0.004936
23155000,0.0324,0.013523,0.002678,0.000431,0.006464
23156000,0.0324,0.013523,0.002678,0.000431,0.004231
23157000,0.0324,0.013523,0.002678,0.000431,0.005759
23158000,0.0324,0.013523,0.002678,0.000431,0.003291
23159000,0.0324,0.013523,0.002678,0.000431,0.003291
23160000,0.0324,0.013523,0.002678,0.000431,0.003526
23161000,0.0324,0.013523,0.002678,0.000431,0.003408
23162000,0.0324,0.013523,0.002678,0.000431,0.003408
23163000,0.0324,0.013523,0.002678,0.000431,0.002938
23164000,0.0324,0.013523,0.002678,0.000431,0.004701
23165000,0.0324,0.013523,0.002678,0.000431,0.002351
23166000,0.0324,0.013523,0.002678,0.000431,0.002586
23167000,0.0324,0.013523,0.002678,0.000431,0.002821
23168000,0.0324,0.013523,0.002678,0.000431,0.002116
23169000,0.0324,0.013523,0.002678,0.000431,0.002821
23170000,0.0324,0.013523,0.002678,0.000431,0.002233
23171000,0.0324,0.013523,0.002678,0.000431,0.002703
23172000,0.0324,0.013523,0.002678,0.000431,0.002586
23173000,0.0324,0.013523,0.002678,0.000431,0.002351
23174000,0.0324,0.013523,0.002678,0.000431,0.004466
23175000,0.0324,0.013523,0.002678,0.000431,0.001528
23176000,0.0324,0.013523,0.002678,0.000431,0.001880
23177000,0.0324,0.013523,0.002678,0.000431,0.001528
23178000,0.0324,0.013523,0.002678,0.000431,0.001763
23179000,0.0324,0.013523,0.002678,0.000431,0.001645
23180000,0.0324,0.013523,0.002678,0.000431,0.001645
23181000,0.0324,0.013523,0.002678,0.000431,0.001763
23182000,0.0324,0.013523,0.002678,0.000431,0.001528
23183000,0.0324,0.013523,0.002678,0.000431,0.001880
23184000,0.0324,0.013523,0.002678,0.000431,0.001410
23185000,0.0324,0.013523,0.002678,0.000431,0.001880
23186000,0.0324,0.013523,0.002678,0.000431,0.001645
23187000,0.0324,0.013523,0.002678,0.000431,0.001645
23188000,0.0324,0.013523,0.002678,0.000431,0.001410
23189000,0.0324,0.013523,0.002678,0.000431,0.001880
23190000,0.0324,0.013523,0.002678,0.000431,0.001880
23191000,0.0324,0.013523,0.002678,0.000431,0.001410
23192000,0.0324,0.013523,0.002678,0.000431,0.001880
23193000,0.0324,0.013523,0.002678,0.000431,0.001410
23194000,0.0324,0.013523,0.002678,0.000431,0.001880
23195000,0.0324,0.013523,0.002678,0.000431,0.001645
23196000,0.0324,0.013523,0.002678,0.000431,0.001645
23197000,0.0324,0.013523,0.002678,0.000431,0.001763
23198000,0.0324,0.013523,0.002678,0.000431,0.001528
23199000,0.0324,0.013523,0.002678,0.000431,0.001880
23200000,0.0324,0.013523,0.002678,0.000431,0.001645
23201000,0.0324,0.013523,0.002678,0.000431,0.001645
23202000,0.0324,0.013523,0.002678,0.000431,0.001645
23203000,0.0324,0.013523,0.002678,0.000431,0.001645
23204000,0.0324,0.013523,0.002678,0.000431,0.001645
23205000,0.0324,0.013523,0.002678,0.000431,0.001645
23206000,0.0324,0.013523,0.002678,0.000431,0.001880
23207000,0.0324,0.013523,0.002678,0.000431,0.001410
23208000,0.0324,0.013523,0.002678,0.000431,0.001645
23209000,0.0324,0.013523,0.002678,0.000431,0.001763
23210000,0.0324,0.013523,0.002678,0.000431,0.001763
23211000,0.0324,0.013523,0.002678,0.000431,0.001645
23212000,0.0324,0.013523,0.002678,0.000431,0.001645
23213000,0.0324,0.013523,0.002678,0.000431,0.001645
23214000,0.0324,0.013523,0.002678,0.000431,0.001645
23215000,0.0324,0.013523,0.002678,0.000431,0.001763
23216000,0.0324,0.013523,0.002678,0.000431,0.001528
23217000,0.0324,0.013523,0.002678,0.000431,0.001880
23218000,0.0324,0.013523,0.002678,0.000431,0.001410
23219000,0.0324,0.013523,0.002678,0.000431,0.003643
23220000,0.0324,0.013523,0.002678,0.000431,0.000823
23221000,0.0324,0.013523,0.002678,0.000431,0.000823
23222000,0.0324,0.013523,0.002678,0.000431,0.000823
23223000,0.0324,0.013523,0.002678,0.000431,0.000823
23224000,0.0324,0.013523,0.002678,0.000431,0.000940
23225000,0.0324,0.013523,0.002678,0.000431,0.000823
23226000,0.0324,0.013523,0.002678,0.000431,0.000823
23227000,0.0324,0.013523,0.002678,0.000431,0.000705
23228000,0.0324,0.013523,0.002678,0.000431,0.000940
23229000,0.0324,0.013523,0.002678,0.000431,0.000940
23230000,0.0324,0.013523,0.002678,0.000431,0.000705
23231000,0.0324,0.013523,0.002678,0.000431,0.000940
23232000,0.0324,0.013523,0.002678,0.000431,0.000705
23233000,0.0324,0.013523,0.002678,0.000431,0.000940
23234000,0.0324,0.013523,0.002678,0.000431,0.000823
23235000,0.0324,0.013523,0.002678,0.000431,0.000823
23236000,0.0324,0.013523,0.002678,0.000431,0.000940
23237000,0.0324,0.013523,0.002678,0.000431,0.000705
23238000,0.0324,0.013523,0.002678,0.000431,0.000940
23239000,0.0324,0.013523,0.002678,0.000431,0.000823
23240000,0.0324,0.013523,0.002678,0.000431,0.000823
23241000,0.0324,0.013523,0.002678,0.000431,0.000823
23242000,0.0324,0.013523,0.002678,0.000431,0.000823
23243000,0.0324,0.013523,0.002678,0.000431,0.000823
23244000,0.0324,0.013523,0.002678,0.000431,0.000823
23245000,0.0324,0.013523,0.002678,0.000431,0.000940
23246000,0.0324,0.013523,0.002678,0.000431,0.000705
23247000,0.0324,0.013523,0.002678,0.000431,0.000940
23248000,0.0324,0.013523,0.002678,0.000431,0.000823
23249000,0.0324,0.013523,0.002678,0.000431,0.000823
23250000,0.0324,0.013523,0.002678,0.000431,0.000705
23251000,0.0324,0.013523,0.002678,0.000431,0.000940
23252000,0.0324,0.013523,0.002678,0.000431,0.000940
23253000,0.0324,0.013523,0.002678,0.000431,0.000705
23254000,0.0324,0.013523,0.002678,0.000431,0.000705
23255000,0.0324,0.013523,0.002678,0.000431,0.000940
23256000,0.0324,0.013523,0.002678,0.000431,0.000940
23257000,0.0324,0.013523,0.002678,0.000431,0.000705
23258000,0.0324,0.013523,0.002678,0.000431,0.000940
23259000,0.0324,0.013523,0.002678,0.000431,0.000823
23260000,0.0324,0.013523,0.002678,0.000431,0.000823
23261000,0.0324,0.013523,0.002678,0.000431,0.000823
23262000,0.0324,0.013523,0.002678,0.000431,0.000823
23263000,0.0324,0.013523,0.002678,0.000431,0.000940
23264000,0.0324,0.013523,0.002678,0.000431,0.000705
23265000,0.0324,0.013523,0.002678,0.000431,0.000823
23266000,0.0324,0.013523,0.002678,0.000431,0.000940
23267000,0.0324,0.013523,0.002678,0.000431,0.000823
23268000,0.0324,0.013523,0.002678,0.000431,0.000823
23269000,0.0324,0.013523,0.002678,0.000431,0.000823
23270000,0.0324,0.013523,0.002678,0.000431,0.000823
23271000,0.0324,0.013523,0.002678,0.000431,0.000823
23272000,0.0324,0.013523,0.002678,0.000431,0.000940
23273000,0.0324,0.013523,0.002678,0.000431,0.000823
23274000,0.0324,0.013523,0.002678,0.000431,0.000823
23275000,0.0324,0.013523,0.002678,0.000431,0.000705
23276000,0.0324,0.013523,0.002678,0.000431,0.000940
23277000,0.0324,0.013523,0.002678,0.000431,0.000940
23278000,0.0324,0.013523,0.002678,0.000431,0.000705
23279000,0.0324,0.013523,0.002678,0.000431,0.000940
23280000,0.0324,0.013523,0.002678,0.000431,0.000705
23281000,0.0324,0.013523,0.002678,0.000431,0.000940
23282000,0.0324,0.013523,0.002678,0.000431,0.000823
23283000,0.0324,0.013523,0.002678,0.000431,0.000823
23284000,0.0324,0.013523,0.002678,0.000431,0.000940
23285000,0.0324,0.013523,0.002678,0.000431,0.000705
23286000,0.0324,0.013523,0.002678,0.000431,0.000940
23287000,0.0324,0.013523,0.002678,0.000431,0.000823
23288000,0.0324,0.013523,0.002678,0.000431,0.000823
23289000,0.0324,0.013523,0.002678,0.000431,0.000823
23290000,0.0324,0.013523,0.002678,0.000431,0.000823
23291000,0.0324,0.013523,0.002678,0.000431,0.000940
23292000,0.0324,0.013523,0.002678,0.000431,0.000705
23293000,0.0324,0.013523,0.002678,0.000431,0.000940
23294000,0.0324,0.013523,0.002678,0.000431,0.000823
23295000,0.0324,0.013523,0.002678,0.000431,0.000823
23296000,0.0324,0.013523,0.002678,0.000431,0.000940
23297000,0.0324,0.013523,0.002678,0.000431,0.185577
23298000,0.0324,0.013523,0.002678,0.000431,0.417930
23299000,0.0324,0.013523,0.002678,0.000431,0.519357
23300000,0.0324,0.013523,0.002678,0.000431,0.133512
23301000,0.0324,0.013523,0.002678,0.000431,0.131161
23302000,0.0324,0.013523,0.002678,0.000431,0.553675
23303000,0.0324,0.013523,0.002678,0.000431,0.245751
23304000,0.0324,0.013523,0.002678,0.000431,0.234469
23305000,0.0324,0.013523,0.002678,0.000431,0.328139
23306000,0.0324,0.013523,0.002678,0.000431,0.143619
23307000,0.0324,0.013523,0.002678,0.000431,0.143502
23308000,0.0324,0.013523,0.002678,0.000431,0.127753
23309000,0.0324,0.013523,0.002678,0.000431,0.259150
23310000,0.0324,0.013523,0.002678,0.000431,0.340832
23311000,0.0324,0.013523,0.002678,0.000431,0.055943
23312000,0.0324,0.013523,0.002678,0.000431,0.040195
23313000,0.0324,0.013523,0.002678,0.000431,0.028677
23314000,0.0324,0.013523,0.002678,0.000431,0.037491
23315000,0.0324,0.013523,0.002678,0.000431,0.021155
23316000,0.0324,0.013523,0.002678,0.000431,0.019510
23317000,0.0324,0.013523,0.002678,0.000431,0.016924
23318000,0.0324,0.013523,0.002678,0.000431,0.013281
23319000,0.0324,0.013523,0.002678,0.000431,0.009755
23320000,0.0324,0.013523,0.002678,0.000431,0.012223
23321000,0.0324,0.013523,0.002678,0.000431,0.010930
23322000,0.0324,0.013523,0.002678,0.000431,0.010342
23323000,0.0324,0.013523,0.002678,0.000431,0.012105
23324000,0.0324,0.013523,0.002678,0.000431,0.005876
23325000,0.0324,0.013523,0.002678,0.000431,0.005406
23326000,0.0324,0.013523,0.002678,0.000431,0.005876
23327000,0.0324,0.013523,0.002678,0.000431,0.005524
23328000,0.0324,0.013523,0.002678,0.000431,0.007287
23329000,0.0324,0.013523,0.002678,0.000431,0.005054
23330000,0.0324,0.013523,0.002678,0.000431,0.005054
23331000,0.0324,0.013523,0.002678,0.000431,0.005994
23332000,0.0324,0.013523,0.002678,0.000431,0.003878
23333000,0.0324,0.013523,0.002678,0.000431,0.004113
23334000,0.0324,0.013523,0.002678,0.000431,0.003878
23335000,0.0324,0.013523,0.002678,0.000431,0.003996
23336000,0.0324,0.013523,0.002678,0.000431,0.003996
23337000,0.0324,0.013523,0.002678,0.000431,0.003526
23338000,0.0324,0.013523,0.002678,0.000431,0.004466
23339000,0.0324,0.013523,0.002678,0.000431,0.004231
23340000,0.0324,0.013523,0.002678,0.000431,0.003526
23341000,0.0324,0.013523,0.002678,0.000431,0.003878
23342000,0.0324,0.013523,0.002678,0.000431,0.004113
23343000,0.0324,0.013523,0.002678,0.000431,0.003761
23344000,0.0324,0.013523,0.002678,0.000431,0.003996
23345000,0.0324,0.013523,0.002678,0.000431,0.003996
23346000,0.0324,0.013523,0.002678,0.000431,0.004231
23347000,0.0324,0.013523,0.002678,0.000431,0.003526
23348000,0.0324,0.013523,0.002678,0.000431,0.005641
23349000,0.0324,0.013523,0.002678,0.000431,0.002233
23350000,0.0324,0.013523,0.002678,0.000431,0.002468
23351000,0.0324,0.013523,0.002678,0.000431,0.002116
23352000,0.0324,0.013523,0.002678,0.000431,0.002586
23353000,0.0324,0.013523,0.002678,0.000431,0.002116
23354000,0.0324,0.013523,0.002678,0.000431,0.001528
23355000,0.0324,0.013523,0.002678,0.000431,0.001645
23356000,0.0324,0.013523,0.002678,0.000431,0.001763
23357000,0.0324,0.013523,0.002678,0.000431,0.001763
23358000,0.0324,0.013523,0.002678,0.000431,0.001528
23359000,0.0324,0.013523,0.002678,0.000431,0.001763
23360000,0.0324,0.013523,0.002678,0.000431,0.001528
23361000,0.0324,0.013523,0.002678,0.000431,0.001763
23362000,0.0324,0.013523,0.002678,0.000431,0.001645
23363000,0.0324,0.013523,0.002678,0.000431,0.001645
23364000,0.0324,0.013523,0.002678,0.000431,0.001763
23365000,0.0324,0.013523,0.002678,0.000431,0.001645
23366000,0.0324,0.013523,0.002678,0.000431,0.001763
23367000,0.0324,0.013523,0.002678,0.000431,0.001763
23368000,0.0324,0.013523,0.002678,0.000431,0.001645
23369000,0.0324,0.013523,0.002678,0.000431,0.001763
23370000,0.0324,0.013523,0.002678,0.000431,0.003173
23371000,0.0324,0.013523,0.002678,0.000431,0.000823
23372000,0.0324,0.013523,0.002678,0.000431,0.000823
23373000,0.0324,0.013523,0.002678,0.000431,0.000940
23374000,0.0324,0.013523,0.002678,0.000431,0.000705
23375000,0.0324,0.013523,0.002678,0.000431,0.000823
23376000,0.0324,0.013523,0.002678,0.000431,0.000940
23377000,0.0324,0.013523,0.002678,0.000431,0.071340
23378000,0.0324,0.013523,0.002678,0.000431,0.508427
23379000,0.0324,0.013523,0.002678,0.000431,0.562725
23380000,0.0324,0.013523,0.002678,0.000431,0.133042
23381000,0.0324,0.013523,0.002678,0.000431,0.132102
23382000,0.0324,0.013523,0.002678,0.000431,0.574243
23383000,0.0324,0.013523,0.002678,0.000431,0.260090
23384000,0.0324,0.013523,0.002678,0.000431,0.252215
23385000,0.0324,0.013523,0.002678,0.000431,0.300285
23386000,0.0324,0.013523,0.002678,0.000431,0.138566
23387000,0.0324,0.013523,0.002678,0.000431,0.149731
23388000,0.0324,0.013523,0.002678,0.000431,0.110594
23389000,0.0324,0.013523,0.002678,0.000431,0.359989
23390000,0.0324,0.013523,0.002678,0.000431,0.251275
23391000,0.0324,0.013523,0.002678,0.000431,0.068636
23392000,0.0324,0.013523,0.002678,0.000431,0.044426
23393000,0.0324,0.013523,0.002678,0.000431,0.040430
23394000,0.0324,0.013523,0.002678,0.000431,0.032790
23395000,0.0324,0.013523,0.002678,0.000431,0.027737
23396000,0.0324,0.013523,0.002678,0.000431,0.023741
23397000,0.0324,0.013523,0.002678,0.000431,0.016807
23398000,0.0324,0.013523,0.002678,0.000431,0.017277
23399000,0.0324,0.013523,0.002678,0.000431,0.014338
23400000,0.0324,0.013523,0.002678,0.000431,0.013633
23401000,0.0324,0.013523,0.002678,0.000431,0.014338
23402000,0.0324,0.013523,0.002678,0.000431,0.015161
23403000,0.0324,0.013523,0.002678,0.000431,0.014573
23404000,0.0324,0.013523,0.002678,0.000431,0.008345
23405000,0.0324,0.013523,0.002678,0.000431,0.009755
23406000,0.0324,0.013523,0.002678,0.000431,0.003173
23407000,0.0324,0.013523,0.002678,0.000431,0.003526
23408000,0.0324,0.013523,0.002678,0.000431,0.003526
23409000,0.0324,0.013523,0.002678,0.000431,0.003173
23410000,0.0324,0.013523,0.002678,0.000431,0.003526
23411000,0.0324,0.013523,0.002678,0.000431,0.004231
23412000,0.0324,0.013523,0.002678,0.000431,0.003996
23413000,0.0324,0.013523,0.002678,0.000431,0.002468
23414000,0.0324,0.013523,0.002678,0.000431,0.002468
23415000,0.0324,0.013523,0.002678,0.000431,0.002586
23416000,0.0324,0.013523,0.002678,0.000431,0.002468
23417000,0.0324,0.013523,0.002678,0.000431,0.002703
23418000,0.0324,0.013523,0.002678,0.000431,0.002351
23419000,0.0324,0.013523,0.002678,0.000431,0.002468
23420000,0.0324,0.013523,0.002678,0.000431,0.002586
23421000,0.0324,0.013523,0.002678,0.000431,0.002586
23422000,0.0324,0.013523,0.002678,0.000431,0.002233
23423000,0.0324,0.013523,0.002678,0.000431,0.002703
23424000,0.0324,0.013523,0.002678,0.000431,0.002586
23425000,0.0324,0.013523,0.002678,0.000431,0.002351
23426000,0.0324,0.013523,0.002678,0.000431,0.002703
23427000,0.0324,0.013523,0.002678,0.000431,0.002468
23428000,0.0324,0.013523,0.002678,0.000431,0.002703
23429000,0.0324,0.013523,0.002678,0.000431,0.002468
23430000,0.0324,0.013523,0.002678,0.000431,0.002586
23431000,0.0324,0.013523,0.002678,0.000431,0.002586
23432000,0.0324,0.013523,0.002678,0.000431,0.002586
23433000,0.0324,0.013523,0.002678,0.000431,0.002586
23434000,0.0324,0.013523,0.002678,0.000431,0.002468
23435000,0.0324,0.013523,0.002678,0.000431,0.002586
23436000,0.0324,0.013523,0.002678,0.000431,0.002586
23437000,0.0324,0.013523,0.002678,0.000431,0.002468
23438000,0.0324,0.013523,0.002678,0.000431,0.003643
23439000,0.0324,0.013523,0.002678,0.000431,0.001880
23440000,0.0324,0.013523,0.002678,0.000431,0.001645
23441000,0.0324,0.013523,0.002678,0.000431,0.001880
23442000,0.0324,0.013523,0.002678,0.000431,0.001410
23443000,0.0324,0.013523,0.002678,0.000431,0.001880
23444000,0.0324,0.013523,0.002678,0.000431,0.001880
23445000,0.0324,0.013523,0.002678,0.000431,0.001645
23446000,0.0324,0.013523,0.002678,0.000431,0.001645
23447000,0.0324,0.013523,0.002678,0.000431,0.001645
23448000,0.0324,0.013523,0.002678,0.000431,0.002703
23449000,0.0324,0.013523,0.002678,0.000431,0.001998
23450000,0.0324,0.013523,0.002678,0.000431,0.000823
23451000,0.0324,0.013523,0.002678,0.000431,0.000823
23452000,0.0324,0.013523,0.002678,0.000431,0.001528
23453000,0.0324,0.013523,0.002678,0.000431,0.349294
23454000,0.0324,0.013523,0.002678,0.000431,0.668500
23455000,0.0324,0.013523,0.002678,0.000431,0.189690
23456000,0.0324,0.013523,0.002678,0.000431,0.132807
23457000,0.0324,0.013523,0.002678,0.000431,0.132337
23458000,0.0324,0.013523,0.002678,0.000431,0.580942
23459000,0.0324,0.013523,0.002678,0.000431,0.224949
23460000,0.0324,0.013523,0.002678,0.000431,0.279364
23461000,0.0324,0.013523,0.002678,0.000431,0.238230
23462000,0.0324,0.013523,0.002678,0.000431,0.135980
23463000,0.0324,0.013523,0.002678,0.000431,0.145382
23464000,0.0324,0.013523,0.002678,0.000431,0.128341
23465000,0.0324,0.013523,0.002678,0.000431,0.315328
23466000,0.0324,0.013523,0.002678,0.000431,0.256446
23467000,0.0324,0.013523,0.002678,0.000431,0.022330
23468000,0.0324,0.013523,0.002678,0.000431,0.021508
23469000,0.0324,0.013523,0.002678,0.000431,0.012105
23470000,0.0324,0.013523,0.002678,0.000431,0.011753
23471000,0.0324,0.013523,0.002678,0.000431,0.010342
23472000,0.0324,0.013523,0.002678,0.000431,0.013751
23473000,0.0324,0.013523,0.002678,0.000431,0.007522
23474000,0.0324,0.013523,0.002678,0.000431,0.004936
23475000,0.0324,0.013523,0.002678,0.000431,0.005171
23476000,0.0324,0.013523,0.002678,0.000431,0.004819
23477000,0.0324,0.013523,0.002678,0.000431,0.005289
23478000,0.0324,0.013523,0.002678,0.000431,0.005054
23479000,0.0324,0.013523,0.002678,0.000431,0.005054
23480000,0.0324,0.013523,0.002678,0.000431,0.005054
23481000,0.0324,0.013523,0.002678,0.000431,0.004819
23482000,0.0324,0.013523,0.002678,0.000431,0.005524
23483000,0.0324,0.013523,0.002678,0.000431,0.004701
23484000,0.0324,0.013523,0.002678,0.000431,0.006464
23485000,0.0324,0.013523,0.002678,0.000431,0.005876
23486000,0.0324,0.013523,0.002678,0.000431,0.004819
23487000,0.0324,0.013523,0.002678,0.000431,0.002703
23488000,0.0324,0.013523,0.002678,0.000431,0.002233
23489000,0.0324,0.013523,0.002678,0.000431,0.002703
23490000,0.0324,0.013523,0.002678,0.000431,0.004466
23491000,0.0324,0.013523,0.002678,0.000431,0.001645
23492000,0.0324,0.013523,0.002678,0.000431,0.001645
23493000,0.0324,0.013523,0.002678,0.000431,0.001645
23494000,0.0324,0.013523,0.002678,0.000431,0.001763
23495000,0.0324,0.013523,0.002678,0.000431,0.001528
23496000,0.0324,0.013523,0.002678,0.000431,0.001880
23497000,0.0324,0.013523,0.002678,0.000431,0.001645
23498000,0.0324,0.013523,0.002678,0.000431,0.001645
23499000,0.0324,0.013523,0.002678,0.000431,0.001528
23500000,0.0324,0.013523,0.002678,0.000431,0.001763
23501000,0.0324,0.013523,0.002678,0.000431,0.001763
23502000,0.0324,0.013523,0.002678,0.000431,0.001528
23503000,0.0324,0.013523,0.002678,0.000431,0.001880
23504000,0.0324,0.013523,0.002678,0.000431,0.001528
23505000,0.0324,0.013523,0.002678,0.000431,0.003526
23506000,0.0324,0.013523,0.002678,0.000431,0.000823
23507000,0.0324,0.013523,0.002678,0.000431,0.000823
23508000,0.0324,0.013523,0.002678,0.000431,0.000823
23509000,0.0324,0.013523,0.002678,0.000431,0.000823
23510000,0.0324,0.013523,0.002678,0.000431,0.000940
23511000,0.0324,0.013523,0.002678,0.000431,0.000705
23512000,0.0324,0.013523,0.002678,0.000431,0.000940
23513000,0.0324,0.013523,0.002678,0.000431,0.000823
23514000,0.0324,0.013523,0.002678,0.000431,0.000823
23515000,0.0324,0.013523,0.002678,0.000431,0.000823
23516000,0.0324,0.013523,0.002678,0.000431,0.000823
23517000,0.0324,0.013523,0.002678,0.000431,0.000940
23518000,0.0324,0.013523,0.002678,0.000431,0.000705
23519000,0.0324,0.013523,0.002678,0.000431,0.000823
23520000,0.0324,0.013523,0.002678,0.000431,0.000940
23521000,0.0324,0.013523,0.002678,0.000431,0.000823
23522000,0.0324,0.013523,0.002678,0.000431,0.000823
23523000,0.0324,0.013523,0.002678,0.000431,0.000823
23524000,0.0324,0.013523,0.002678,0.000431,0.000940
23525000,0.0324,0.013523,0.002678,0.000431,0.000940
23526000,0.0324,0.013523,0.002678,0.000431,0.014221
23527000,0.0324,0.013523,0.002678,0.000431,0.450956
23528000,0.0324,0.013523,0.002678,0.000431,0.595750
23529000,0.0324,0.013523,0.002678,0.000431,0.132572
23530000,0.0324,0.013523,0.002678,0.000431,0.132102
23531000,0.0324,0.013523,0.002678,0.000431,0.327081
23532000,0.0324,0.013523,0.002678,0.000431,0.436030
23533000,0.0324,0.013523,0.002678,0.000431,0.224361
23534000,0.0324,0.013523,0.002678,0.000431,0.290882
23535000,0.0324,0.013523,0.002678,0.000431,0.215547
23536000,0.0324,0.013523,0.002678,0.000431,0.146323
23537000,0.0324,0.013523,0.002678,0.000431,0.180288
23538000,0.0324,0.013523,0.002678,0.000431,0.083915
23539000,0.0324,0.013523,0.002678,0.000431,0.447782
23540000,0.0324,0.013523,0.002678,0.000431,0.047246
23541000,0.0324,0.013523,0.002678,0.000431,0.002821
23542000,0.0324,0.013523,0.002678,0.000431,0.002468
23543000,0.0324,0.013523,0.002678,0.000431,0.002821
23544000,0.0324,0.013523,0.002678,0.000431,0.002468
23545000,0.0324,0.013523,0.002678,0.000431,0.002703
23546000,0.0324,0.013523,0.002678,0.000431,0.002586
23547000,0.0324,0.013523,0.002678,0.000431,0.002586
23548000,0.0324,0.013523,0.002678,0.000431,0.002586
23549000,0.0324,0.013523,0.002678,0.000431,0.002821
23550000,0.0324,0.013523,0.002678,0.000431,0.002468
23551000,0.0324,0.013523,0.002678,0.000431,0.002703
23552000,0.0324,0.013523,0.002678,0.000431,0.002586
23553000,0.0324,0.013523,0.002678,0.000431,0.002821
23554000,0.0324,0.013523,0.002678,0.000431,0.002468
23555000,0.0324,0.013523,0.002678,0.000431,0.002586
23556000,0.0324,0.013523,0.002678,0.000431,0.002703
23557000,0.0324,0.013523,0.002678,0.000431,0.002586
23558000,0.0324,0.013523,0.002678,0.000431,0.002703
23559000,0.0324,0.013523,0.002678,0.000431,0.002703
23560000,0.0324,0.013523,0.002678,0.000431,0.002586
23561000,0.0324,0.013523,0.002678,0.000431,0.002586
23562000,0.0324,0.013523,0.002678,0.000431,0.002586
23563000,0.0324,0.013523,0.002678,0.000431,0.002821
23564000,0.0324,0.013523,0.002678,0.000431,0.002468
23565000,0.0324,0.013523,0.002678,0.000431,0.002703
23566000,0.0324,0.013523,0.002678,0.000431,0.002586
23567000,0.0324,0.013523,0.002678,0.000431,0.002703
23568000,0.0324,0.013523,0.002678,0.000431,0.002703
23569000,0.0324,0.013523,0.002678,0.000431,0.002351
23570000,0.0324,0.013523,0.002678,0.000431,0.002821
23571000,0.0324,0.013523,0.002678,0.000431,0.003996
23572000,0.0324,0.013523,0.002678,0.000431,0.001763
23573000,0.0324,0.013523,0.002678,0.000431,0.002703
23574000,0.0324,0.013523,0.002678,0.000431,0.000940
23575000,0.0324,0.013523,0.002678,0.000431,0.071105
23576000,0.0324,0.013523,0.002678,0.000431,0.371272
23577000,0.0324,0.013523,0.002678,0.000431,0.600451
23578000,0.0324,0.013523,0.002678,0.000431,0.131161
23579000,0.0324,0.013523,0.002678,0.000431,0.134452
23580000,0.0324,0.013523,0.002678,0.000431,0.493383
23581000,0.0324,0.013523,0.002678,0.000431,0.296641
23582000,0.0324,0.013523,0.002678,0.000431,0.247044
23583000,0.0324,0.013523,0.002678,0.000431,0.289942
23584000,0.0324,0.013523,0.002678,0.000431,0.184049
23585000,0.0324,0.013523,0.002678,0.000431,0.138566
23586000,0.0324,0.013523,0.002678,0.000431,0.176645
23587000,0.0324,0.013523,0.002678,0.000431,0.098959
23588000,0.0324,0.013523,0.002678,0.000431,0.449545
23589000,0.0324,0.013523,0.002678,0.000431,0.037609
23590000,0.0324,0.013523,0.002678,0.000431,0.000940
23591000,0.0324,0.013523,0.002678,0.000431,0.000823
23592000,0.0324,0.013523,0.002678,0.000431,0.000940
23593000,0.0324,0.013523,0.002678,0.000431,0.000823
23594000,0.0324,0.013523,0.002678,0.000431,0.000823
23595000,0.0324,0.013523,0.002678,0.000431,0.000940
23596000,0.0324,0.013523,0.002678,0.000431,0.000940
23597000,0.0324,0.013523,0.002678,0.000431,0.000940
23598000,0.0324,0.013523,0.002678,0.000431,0.000705
23599000,0.0324,0.013523,0.002678,0.000431,0.000940
23600000,0.0324,0.013523,0.002678,0.000431,0.000940
23601000,0.0324,0.013523,0.002678,0.000431,0.000823
23602000,0.0324,0.013523,0.002678,0.000431,0.000823
23603000,0.0324,0.013523,0.002678,0.000431,0.000940
23604000,0.0324,0.013523,0.002678,0.000431,0.000823
23605000,0.0324,0.013523,0.002678,0.000431,0.000940
23606000,0.0324,0.013523,0.002678,0.000431,0.000823
23607000,0.0324,0.013523,0.002678,0.000431,0.000940
23608000,0.0324,0.013523,0.002678,0.000431,0.000823
23609000,0.0324,0.013523,0.002678,0.000431,0.000823
23610000,0.0324,0.013523,0.002678,0.000431,0.000940
23611000,0.0324,0.013523,0.002678,0.000431,0.000940
23612000,0.0324,0.013523,0.002678,0.000431,0.000823
23613000,0.0324,0.013523,0.002678,0.000431,0.000823
23614000,0.0324,0.013523,0.002678,0.000431,0.000940
23615000,0.0324,0.013523,0.002678,0.000431,0.000940
23616000,0.0324,0.013523,0.002678,0.000431,0.000705
23617000,0.0324,0.013523,0.002678,0.000431,0.000940
23618000,0.0324,0.013523,0.002678,0.000431,0.000940
23619000,0.0324,0.013523,0.002678,0.000431,0.000940
23620000,0.0324,0.013523,0.002678,0.000431,0.000823
23621000,0.0324,0.013523,0.002678,0.000431,0.000823
23622000,0.0324,0.013523,0.002678,0.000431,0.000940
23623000,0.0324,0.013523,0.002678,0.000431,0.000940
23624000,0.0324,0.013523,0.002678,0.000431,0.000940
23625000,0.0324,0.013523,0.002678,0.000431,0.000705
23626000,0.0324,0.013523,0.002678,0.000431,0.000940
23627000,0.0324,0.013523,0.002678,0.000431,0.000940
23628000,0.0324,0.013523,0.002678,0.000431,0.000823
23629000,0.0324,0.013523,0.002678,0.000431,0.000823
23630000,0.0324,0.013523,0.002678,0.000431,0.000940
23631000,0.0324,0.013523,0.002678,0.000431,0.000940
23632000,0.0324,0.013523,0.002678,0.000431,0.000823
23633000,0.0324,0.013523,0.002678,0.000431,0.000823
23634000,0.0324,0.013523,0.002678,0.000431,0.000940
23635000,0.0324,0.013523,0.002678,0.000431,0.000823
23636000,0.0324,0.013523,0.002678,0.000431,0.000940
23637000,0.0324,0.013523,0.002678,0.000431,0.000823
23638000,0.0324,0.013523,0.002678,0.000431,0.000940
23639000,0.0324,0.013523,0.002678,0.000431,0.000823
23640000,0.0324,0.013523,0.002678,0.000431,0.000823
23641000,0.0324,0.013523,0.002678,0.000431,0.000940
23642000,0.0324,0.013523,0.002678,0.000431,0.000940
23643000,0.0324,0.013523,0.002678,0.000431,0.000823
23644000,0.0324,0.013523,0.002678,0.000431,0.000823
23645000,0.0324,0.013523,0.002678,0.000431,0.000940
23646000,0.0324,0.013523,0.002678,0.000431,0.000940
23647000,0.0324,0.013523,0.002678,0.000431,0.000823
23648000,0.0324,0.013523,0.002678,0.000431,0.000823
23649000,0.0324,0.013523,0.002678,0.000431,0.000940
23650000,0.0324,0.013523,0.002678,0.000431,0.000940
23651000,0.0324,0.013523,0.002678,0.000431,0.000823
23652000,0.0324,0.013523,0.002678,0.000431,0.000823
23653000,0.0324,0.013523,0.002678,0.000431,0.000940
23654000,0.0324,0.013523,0.002678,0.000431,0.000823
23655000,0.0324,0.013523,0.002678,0.000431,0.000940
23656000,0.0324,0.013523,0.002678,0.000431,0.000823
23657000,0.0324,0.013523,0.002678,0.000431,0.000940
23658000,0.0324,0.013523,0.002678,0.000431,0.000823
23659000,0.0324,0.013523,0.002678,0.000431,0.000823
23660000,0.0324,0.013523,0.002678,0.000431,0.000940
23661000,0.0324,0.013523,0.002678,0.000431,0.000940
23662000,0.0324,0.013523,0.002678,0.000431,0.000705
23663000,0.0324,0.013523,0.002678,0.000431,0.000940
23664000,0.0324,0.013523,0.002678,0.000431,0.000940
23665000,0.0324,0.013523,0.002678,0.000431,0.000940
23666000,0.0324,0.013523,0.002678,0.000431,0.000705
23667000,0.0324,0.013523,0.002678,0.000431,0.000940
23668000,0.0324,0.013523,0.002678,0.000431,0.000940
23669000,0.0324,0.013523,0.002678,0.000431,0.000823
23670000,0.0324,0.013523,0.002678,0.000431,0.000823
23671000,0.0324,0.013523,0.002678,0.000431,0.000940
23672000,0.0324,0.013523,0.002678,0.000431,0.000940
23673000,0.0324,0.013523,0.002678,0.000431,0.000823
23674000,0.0324,0.013523,0.002678,0.000431,0.000823
23675000,0.0324,0.013523,0.002678,0.000431,0.000940
23676000,0.0324,0.013523,0.002678,0.000431,0.000823
23677000,0.0324,0.013523,0.002678,0.000431,0.000940
23678000,0.0324,0.013523,0.002678,0.000431,0.000823
23679000,0.0324,0.013523,0.002678,0.000431,0.000940
23680000,0.0324,0.013523,0.002678,0.000431,0.000823
23681000,0.0324,0.013523,0.002678,0.000431,0.000823
23682000,0.0324,0.013523,0.002678,0.000431,0.000940
23683000,0.0324,0.013523,0.002678,0.000431,0.000940
23684000,0.0324,0.013523,0.002678,0.000431,0.000940
23685000,0.0324,0.013523,0.002678,0.000431,0.000705
23686000,0.0324,0.013523,0.002678,0.000431,0.000940
23687000,0.0324,0.013523,0.002678,0.000431,0.000940
23688000,0.0324,0.013523,0.002678,0.000431,0.000823
23689000,0.0324,0.013523,0.002678,0.000431,0.000823
23690000,0.0324,0.013523,0.002678,0.000431,0.000940
23691000,0.0324,0.013523,0.002678,0.000431,0.000940
23692000,0.0324,0.013523,0.002678,0.000431,0.000823
23693000,0.0324,0.013523,0.002678,0.000431,0.000823
23694000,0.0324,0.013523,0.002678,0.000431,0.000940
23695000,0.0324,0.013523,0.002678,0.000431,0.000823
23696000,0.0324,0.013523,0.002678,0.000431,0.000940
23697000,0.0324,0.013523,0.002678,0.000431,0.000823
23698000,0.0324,0.013523,0.002678,0.000431,0.000940
23699000,0.0324,0.013523,0.002678,0.000431,0.000823
23700000,0.0324,0.013523,0.002678,0.000431,0.000823
23701000,0.0324,0.013523,0.002678,0.000431,0.000940
23702000,0.0324,0.013523,0.002678,0.000431,0.000940
23703000,0.0324,0.013523,0.002678,0.000431,0.000823
23704000,0.0324,0.013523,0.002678,0.000431,0.000823
23705000,0.0324,0.013523,0.002678,0.000431,0.000940
23706000,0.0324,0.013523,0.002678,0.000431,0.000940
23707000,0.0324,0.013523,0.002678,0.000431,0.000823
23708000,0.0324,0.013523,0.002678,0.000431,0.000823
23709000,0.0324,0.013523,0.002678,0.000431,0.000940
23710000,0.0324,0.013523,0.002678,0.000431,0.000823
23711000,0.0324,0.013523,0.002678,0.000431,0.000940
23712000,0.0324,0.013523,0.002678,0.000431,0.000823
23713000,0.0324,0.013523,0.002678,0.000431,0.000940
23714000,0.0324,0.013523,0.002678,0.000431,0.000823
23715000,0.0324,0.013523,0.002678,0.000431,0.000823
23716000,0.0324,0.013523,0.002678,0.000431,0.000940
23717000,0.0324,0.013523,0.002678,0.000431,0.000940
23718000,0.0324,0.013523,0.002678,0.000431,0.000823
23719000,0.0324,0.013523,0.002678,0.000431,0.000823
23720000,0.0324,0.013523,0.002678,0.000431,0.000940
23721000,0.0324,0.013523,0.002678,0.000431,0.000940
23722000,0.0324,0.013523,0.002678,0.000431,0.000705
23723000,0.0324,0.013523,0.002678,0.000431,0.000940
23724000,0.0324,0.013523,0.002678,0.000431,0.000940
23725000,0.0324,0.013523,0.002678,0.000431,0.000940
23726000,0.0324,0.013523,0.002678,0.000431,0.000705
23727000,0.0324,0.013523,0.002678,0.000431,0.000940
23728000,0.0324,0.013523,0.002678,0.000431,0.000940
23729000,0.0324,0.013523,0.002678,0.000431,0.000823
23730000,0.0324,0.013523,0.002678,0.000431,0.000823
23731000,0.0324,0.013523,0.002678,0.000431,0.000940
23732000,0.0324,0.013523,0.002678,0.000431,0.000940
23733000,0.0324,0.013523,0.002678,0.000431,0.000823
23734000,0.0324,0.013523,0.002678,0.000431,0.000823
23735000,0.0324,0.013523,0.002678,0.000431,0.000940
23736000,0.0324,0.013523,0.002678,0.000431,0.000823
23737000,0.0324,0.013523,0.002678,0.000431,0.000940
23738000,0.0324,0.013523,0.002678,0.000431,0.000823
23739000,0.0324,0.013523,0.002678,0.000431,0.000940
23740000,0.0324,0.013523,0.002678,0.000431,0.000940
23741000,0.0324,0.013523,0.002678,0.000431,0.000705
23742000,0.0324,0.013523,0.002678,0.000431,0.000940
23743000,0.0324,0.013523,0.002678,0.000431,0.000940
23744000,0.0324,0.013523,0.002678,0.000431,0.000940
23745000,0.0324,0.013523,0.002678,0.000431,0.000705
23746000,0.0324,0.013523,0.002678,0.000431,0.000940
23747000,0.0324,0.013523,0.002678,0.000431,0.000940
23748000,0.0324,0.013523,0.002678,0.000431,0.000823
23749000,0.0324,0.013523,0.002678,0.000431,0.000823
23750000,0.0324,0.013523,0.002678,0.000431,0.000940
23751000,0.0324,0.013523,0.002678,0.000431,0.000823
23752000,0.0324,0.013523,0.002678,0.000431,0.000940
23753000,0.0324,0.013523,0.002678,0.000431,0.000823
23754000,0.0324,0.013523,0.002678,0.000431,0.000940
23755000,0.0324,0.013523,0.002678,0.000431,0.000823
23756000,0.0324,0.013523,0.002678,0.000431,0.000823
23757000,0.0324,0.013523,0.002678,0.000431,0.000940
23758000,0.0324,0.013523,0.002678,0.000431,0.000940
23759000,0.0324,0.013523,0.002678,0.000431,0.000823
23760000,0.0324,0.013523,0.002678,0.000431,0.000823
23761000,0.0324,0.013523,0.002678,0.000431,0.000940
23762000,0.0324,0.013523,0.002678,0.000431,0.000940
23763000,0.0324,0.013523,0.002678,0.000431,0.000705
23764000,0.0324,0.013523,0.002678,0.000431,0.000940
23765000,0.0324,0.013523,0.002678,0.000431,0.000940
23766000,0.0324,0.013523,0.002678,0.000431,0.000940
23767000,0.0324,0.013523,0.002678,0.000431,0.000823
23768000,0.0324,0.013523,0.002678,0.000431,0.000823
23769000,0.0324,0.013523,0.002678,0.000431,0.000940
23770000,0.0324,0.013523,0.002678,0.000431,0.000823
23771000,0.0324,0.013523,0.002678,0.000431,0.000940
23772000,0.0324,0.013523,0.002678,0.000431,0.000823
23773000,0.0324,0.013523,0.002678,0.000431,0.000940
23774000,0.0324,0.013523,0.002678,0.000431,0.000823
23775000,0.0324,0.013523,0.002678,0.000431,0.000823
23776000,0.0324,0.013523,0.002678,0.000431,0.000940
23777000,0.0324,0.013523,0.002678,0.000431,0.000940
23778000,0.0324,0.013523,0.002678,0.000431,0.000823
23779000,0.0324,0.013523,0.002678,0.000431,0.000823
23780000,0.0324,0.013523,0.002678,0.000431,0.000940
23781000,0.0324,0.013523,0.002678,0.000431,0.000940
23782000,0.0324,0.013523,0.002678,0.000431,0.000705
23783000,0.0324,0.013523,0.002678,0.000431,0.000940
23784000,0.0324,0.013523,0.002678,0.000431,0.000940
23785000,0.0324,0.013523,0.002678,0.000431,0.000940
23786000,0.0324,0.013523,0.002678,0.000431,0.000705
23787000,0.0324,0.013523,0.002678,0.000431,0.000940
23788000,0.0324,0.013523,0.002678,0.000431,0.000940
23789000,0.0324,0.013523,0.002678,0.000431,0.000823
23790000,0.0324,0.013523,0.002678,0.000431,0.000823
23791000,0.0324,0.013523,0.002678,0.000431,0.000940
23792000,0.0324,0.013523,0.002678,0.000431,0.000940
23793000,0.0324,0.013523,0.002678,0.000431,0.000823
23794000,0.0324,0.013523,0.002678,0.000431,0.000823
23795000,0.0324,0.013523,0.002678,0.000431,0.000940
23796000,0.0324,0.013523,0.002678,0.000431,0.000823
23797000,0.0324,0.013523,0.002678,0.000431,0.000823
23798000,0.0324,0.013523,0.002678,0.000431,0.000940
23799000,0.0324,0.013523,0.002678,0.000431,0.000940
23800000,0.0324,0.013523,0.002678,0.000431,0.000940
23801000,0.0324,0.013523,0.002678,0.000431,0.000705
23802000,0.0324,0.013523,0.002678,0.000431,0.000940
23803000,0.0324,0.013523,0.002678,0.000431,0.000940
23804000,0.0324,0.013523,0.002678,0.000431,0.000823
23805000,0.0324,0.013523,0.002678,0.000431,0.000823
23806000,0.0324,0.013523,0.002678,0.000431,0.000940
23807000,0.0324,0.013523,0.002678,0.000431,0.000940
23808000,0.0324,0.013523,0.002678,0.000431,0.000823
23809000,0.0324,0.013523,0.002678,0.000431,0.000823
23810000,0.0324,0.013523,0.002678,0.000431,0.000940
23811000,0.0324,0.013523,0.002678,0.000431,0.000823
23812000,0.0324,0.013523,0.002678,0.000431,0.000940
23813000,0.0324,0.013523,0.002678,0.000431,0.000823
23814000,0.0324,0.013523,0.002678,0.000431,0.000940
23815000,0.0324,0.013523,0.002678,0.000431,0.000823
23816000,0.0324,0.013523,0.002678,0.000431,0.000823
23817000,0.0324,0.013523,0.002678,0.000431,0.000940
23818000,0.0324,0.013523,0.002678,0.000431,0.000940
23819000,0.0324,0.013523,0.002678,0.000431,0.000823
23820000,0.0324,0.013523,0.002678,0.000431,0.000823
23821000,0.0324,0.013523,0.002678,0.000431,0.000940
23822000,0.0324,0.013523,0.002678,0.000431,0.000940
23823000,0.0324,0.013523,0.002678,0.000431,0.000705
23824000,0.0324,0.013523,0.002678,0.000431,0.000940
23825000,0.0324,0.013523,0.002678,0.000431,0.000940
23826000,0.0324,0.013523,0.002678,0.000431,0.000940
23827000,0.0324,0.013523,0.002678,0.000431,0.000823
23828000,0.0324,0.013523,0.002678,0.000431,0.000823
23829000,0.0324,0.013523,0.002678,0.000431,0.000940
23830000,0.0324,0.013523,0.002678,0.000431,0.000823
23831000,0.0324,0.013523,0.002678,0.000431,0.000940
23832000,0.0324,0.013523,0.002678,0.000431,0.000823
23833000,0.0324,0.013523,0.002678,0.000431,0.000940
23834000,0.0324,0.013523,0.002678,0.000431,0.000823
23835000,0.0324,0.013523,0.002678,0.000431,0.000823
23836000,0.0324,0.013523,0.002678,0.000431,0.000940
23837000,0.0324,0.013523,0.002678,0.000431,0.000940
23838000,0.0324,0.013523,0.002678,0.000431,0.000705
23839000,0.0324,0.013523,0.002678,0.000431,0.000940
23840000,0.0324,0.013523,0.002678,0.000431,0.000940
23841000,0.0324,0.013523,0.002678,0.000431,0.000940
23842000,0.0324,0.013523,0.002678,0.000431,0.000705
23843000,0.0324,0.013523,0.002678,0.000431,0.000940
23844000,0.0324,0.013523,0.002678,0.000431,0.000940
23845000,0.0324,0.013523,0.002678,0.000431,0.000823
23846000,0.0324,0.013523,0.002678,0.000431,0.000823
23847000,0.0324,0.013523,0.002678,0.000431,0.000940
23848000,0.0324,0.013523,0.002678,0.000431,0.000940
23849000,0.0324,0.013523,0.002678,0.000431,0.000823
23850000,0.0324,0.013523,0.002678,0.000431,0.000823
23851000,0.0324,0.013523,0.002678,0.000431,0.000940
23852000,0.0324,0.013523,0.002678,0.000431,0.000823
23853000,0.0324,0.013523,0.002678,0.000431,0.000940
23854000,0.0324,0.013523,0.002678,0.000431,0.000823
23855000,0.0324,0.013523,0.002678,0.000431,0.000940
23856000,0.0324,0.013523,0.002678,0.000431,0.000823
23857000,0.0324,0.013523,0.002678,0.000431,0.000823
23858000,0.0324,0.013523,0.002678,0.000431,0.000940
23859000,0.0324,0.013523,0.002678,0.000431,0.000940
23860000,0.0324,0.013523,0.002678,0.000431,0.000940
23861000,0.0324,0.013523,0.002678,0.000431,0.000705
23862000,0.0324,0.013523,0.002678,0.000431,0.000940
23863000,0.0324,0.013523,0.002678,0.000431,0.000940
23864000,0.0324,0.013523,0.002678,0.000431,0.000823
23865000,0.0324,0.013523,0.002678,0.000431,0.000823
23866000,0.0324,0.013523,0.002678,0.000431,0.000940
23867000,0.0324,0.013523,0.002678,0.000431,0.000940
23868000,0.0324,0.013523,0.002678,0.000431,0.000823
23869000,0.0324,0.013523,0.002678,0.000431,0.000823
23870000,0.0324,0.013523,0.002678,0.000431,0.000940
23871000,0.0324,0.013523,0.002678,0.000431,0.000823
23872000,0.0324,0.013523,0.002678,0.000431,0.000940
23873000,0.0324,0.013523,0.002678,0.000431,0.000823
23874000,0.0324,0.013523,0.002678,0.000431,0.000940
23875000,0.0324,0.013523,0.002678,0.000431,0.000823
23876000,0.0324,0.013523,0.002678,0.000431,0.000823
23877000,0.0324,0.013523,0.002678,0.000431,0.000940
23878000,0.0324,0.013523,0.002678,0.000431,0.000940
23879000,0.0324,0.013523,0.002678,0.000431,0.000823
23880000,0.0324,0.013523,0.002678,0.000431,0.000823
23881000,0.0324,0.013523,0.002678,0.000431,0.000940
23882000,0.0324,0.013523,0.002678,0.000431,0.000940
23883000,0.0324,0.013523,0.002678,0.000431,0.000823
23884000,0.0324,0.013523,0.002678,0.000431,0.000823
23885000,0.0324,0.013523,0.002678,0.000431,0.000940
23886000,0.0324,0.013523,0.002678,0.000431,0.000823
23887000,0.0324,0.013523,0.002678,0.000431,0.000940
23888000,0.0324,0.013523,0.002678,0.000431,0.000823
23889000,0.0324,0.013523,0.002678,0.000431,0.000940
23890000,0.0324,0.013523,0.002678,0.000431,0.000823
23891000,0.0324,0.013523,0.002678,0.000431,0.000823
23892000,0.0324,0.013523,0.002678,0.000431,0.000940
23893000,0.0324,0.013523,0.002678,0.000431,0.000940
23894000,0.0324,0.013523,0.002678,0.000431,0.000823
23895000,0.0324,0.013523,0.002678,0.000431,0.000823
23896000,0.0324,0.013523,0.002678,0.000431,0.000940
23897000,0.0324,0.013523,0.002678,0.000431,0.000940
23898000,0.0324,0.013523,0.002678,0.000431,0.000705
23899000,0.0324,0.013523,0.002678,0.000431,0.000940
23900000,0.0324,0.013523,0.002678,0.000431,0.000940
23901000,0.0324,0.013523,0.002678,0.000431,0.000940
23902000,0.0324,0.013523,0.002678,0.000431,0.000705
23903000,0.0324,0.013523,0.002678,0.000431,0.000940
23904000,0.0324,0.013523,0.002678,0.000431,0.000940
23905000,0.0324,0.013523,0.002678,0.000431,0.000823
23906000,0.0324,0.013523,0.002678,0.000431,0.000823
23907000,0.0324,0.013523,0.002678,0.000431,0.000940
23908000,0.0324,0.013523,0.002678,0.000431,0.000940
23909000,0.0324,0.013523,0.002678,0.000431,0.000823
23910000,0.0324,0.013523,0.002678,0.000431,0.000823
23911000,0.0324,0.013523,0.002678,0.000431,0.000940
23912000,0.0324,0.013523,0.002678,0.000431,0.000823
23913000,0.0324,0.013523,0.002678,0.000431,0.000940
23914000,0.0324,0.013523,0.002678,0.000431,0.000823
23915000,0.0324,0.013523,0.002678,0.000431,0.000940
23916000,0.0324,0.013523,0.002678,0.000431,0.000823
23917000,0.0324,0.013523,0.002678,0.000431,0.000823
23918000,0.0324,0.013523,0.002678,0.000431,0.000940
23919000,0.0324,0.013523,0.002678,0.000431,0.000940
23920000,0.0324,0.013523,0.002678,0.000431,0.000940
23921000,0.0324,0.013523,0.002678,0.000431,0.000705
23922000,0.0324,0.013523,0.002678,0.000431,0.000940
23923000,0.0324,0.013523,0.002678,0.000431,0.000940
23924000,0.0324,0.013523,0.002678,0.000431,0.000823
23925000,0.0324,0.013523,0.002678,0.000431,0.000823
23926000,0.0324,0.013523,0.002678,0.000431,0.000940
23927000,0.0324,0.013523,0.002678,0.000431,0.000823
23928000,0.0324,0.013523,0.002678,0.000431,0.000940
23929000,0.0324,0.013523,0.002678,0.000431,0.000823
23930000,0.0324,0.013523,0.002678,0.000431,0.000940
23931000,0.0324,0.013523,0.002678,0.000431,0.000823
23932000,0.0324,0.013523,0.002678,0.000431,0.000823
23933000,0.0324,0.013523,0.002678,0.000431,0.000940
23934000,0.0324,0.013523,0.002678,0.000431,0.000940
23935000,0.0324,0.013523,0.002678,0.000431,0.000823
23936000,0.0324,0.013523,0.002678,0.000431,0.000823
23937000,0.0324,0.013523,0.002678,0.000431,0.000940
23938000,0.0324,0.013523,0.002678,0.000431,0.000940
23939000,0.0324,0.013523,0.002678,0.000431,0.000705
23940000,0.0324,0.013523,0.002678,0.000431,0.000940
23941000,0.0324,0.013523,0.002678,0.000431,0.000940
23942000,0.0324,0.013523,0.002678,0.000431,0.000940
23943000,0.0324,0.013523,0.002678,0.000431,0.000823
23944000,0.0324,0.013523,0.002678,0.000431,0.000823
23945000,0.0324,0.013523,0.002678,0.000431,0.000940
23946000,0.0324,0.013523,0.002678,0.000431,0.000823
23947000,0.0324,0.013523,0.002678,0.000431,0.000940
23948000,0.0324,0.013523,0.002678,0.000431,0.000823
23949000,0.0324,0.013523,0.002678,0.000431,0.000940
23950000,0.0324,0.013523,0.002678,0.000431,0.000823
23951000,0.0324,0.013523,0.002678,0.000431,0.000823
23952000,0.0324,0.013523,0.002678,0.000431,0.000940
23953000,0.0324,0.013523,0.002678,0.000431,0.000940
23954000,0.0324,0.013523,0.002678,0.000431,0.000823
23955000,0.0324,0.013523,0.002678,0.000431,0.000823
23956000,0.0324,0.013523,0.002678,0.000431,0.000940
23957000,0.0324,0.013523,0.002678,0.000431,0.000940
23958000,0.0324,0.013523,0.002678,0.000431,0.000705
23959000,0.0324,0.013523,0.002678,0.000431,0.000940
23960000,0.0324,0.013523,0.002678,0.000431,0.000940
23961000,0.0324,0.013523,0.002678,0.000431,0.000940
23962000,0.0324,0.013523,0.002678,0.000431,0.000705
23963000,0.0324,0.013523,0.002678,0.000431,0.000940
23964000,0.0324,0.013523,0.002678,0.000431,0.000940
23965000,0.0324,0.013523,0.002678,0.000431,0.000823
23966000,0.0324,0.013523,0.002678,0.000431,0.000823
23967000,0.0324,0.013523,0.002678,0.000431,0.000940
23968000,0.0324,0.013523,0.002678,0.000431,0.000940
23969000,0.0324,0.013523,0.002678,0.000431,0.000823
23970000,0.0324,0.013523,0.002678,0.000431,0.000823
23971000,0.0324,0.013523,0.002678,0.000431,0.000940
23972000,0.0324,0.013523,0.002678,0.000431,0.000823
23973000,0.0324,0.013523,0.002678,0.000431,0.000823
23974000,0.0324,0.013523,0.002678,0.000431,0.000940
23975000,0.0324,0.013523,0.002678,0.000431,0.000940
23976000,0.0324,0.013523,0.002678,0.000431,0.000823
23977000,0.0324,0.013523,0.002678,0.000431,0.000823
23978000,0.0324,0.013523,0.002678,0.000431,0.000940
23979000,0.0324,0.013523,0.002678,0.000431,0.000940
23980000,0.0324,0.013523,0.002678,0.000431,0.000823
23981000,0.0324,0.013523,0.002678,0.000431,0.000823
23982000,0.0324,0.013523,0.002678,0.000431,0.000940
23983000,0.0324,0.013523,0.002678,0.000431,0.000940
23984000,0.0324,0.013523,0.002678,0.000431,0.000823
23985000,0.0324,0.013523,0.002678,0.000431,0.000823
23986000,0.0324,0.013523,0.002678,0.000431,0.000940
23987000,0.0324,0.013523,0.002678,0.000431,0.000823
23988000,0.0324,0.013523,0.002678,0.000431,0.000940
23989000,0.0324,0.013523,0.002678,0.000431,0.013633
23990000,0.0324,0.013523,0.002678,0.000431,0.414169
23991000,0.0324,0.013523,0.002678,0.000431,0.591167
23992000,0.0324,0.013523,0.002678,0.000431,0.134452
23993000,0.0324,0.013523,0.002678,0.000431,0.130691
23994000,0.0324,0.013523,0.002678,0.000431,0.201561
23995000,0.0324,0.013523,0.002678,0.000431,0.555203
23996000,0.0324,0.013523,0.002678,0.000431,0.270550
23997000,0.0324,0.013523,0.002678,0.000431,0.247632
23998000,0.0324,0.013523,0.002678,0.000431,0.220718
23999000,0.0324,0.013523,0.002678,0.000431,0.143032
