Cycle,Area(mm^2),PeakDynamic(W),SubthresholdLeakage(W),GateLeakage(W),RunTimeDynamic(W)
31000000,0.0324,0.013523,0.002678,0.000431,0.000940
31001000,0.0324,0.013523,0.002678,0.000431,0.000823
31002000,0.0324,0.013523,0.002678,0.000431,0.000823
31003000,0.0324,0.013523,0.002678,0.000431,0.000940
31004000,0.0324,0.013523,0.002678,0.000431,0.000823
31005000,0.0324,0.013523,0.002678,0.000431,0.000940
31006000,0.0324,0.013523,0.002678,0.000431,0.000823
31007000,0.0324,0.013523,0.002678,0.000431,0.000940
31008000,0.0324,0.013523,0.002678,0.000431,0.000940
31009000,0.0324,0.013523,0.002678,0.000431,0.000705
31010000,0.0324,0.013523,0.002678,0.000431,0.000940
31011000,0.0324,0.013523,0.002678,0.000431,0.000940
31012000,0.0324,0.013523,0.002678,0.000431,0.000940
31013000,0.0324,0.013523,0.002678,0.000431,0.000705
31014000,0.0324,0.013523,0.002678,0.000431,0.000940
31015000,0.0324,0.013523,0.002678,0.000431,0.000940
31016000,0.0324,0.013523,0.002678,0.000431,0.000823
31017000,0.0324,0.013523,0.002678,0.000431,0.000823
31018000,0.0324,0.013523,0.002678,0.000431,0.000940
31019000,0.0324,0.013523,0.002678,0.000431,0.000823
31020000,0.0324,0.013523,0.002678,0.000431,0.023623
31021000,0.0324,0.013523,0.002678,0.000431,0.544508
31022000,0.0324,0.013523,0.002678,0.000431,0.587993
31023000,0.0324,0.013523,0.002678,0.000431,0.137155
31024000,0.0324,0.013523,0.002678,0.000431,0.132572
31025000,0.0324,0.013523,0.002678,0.000431,0.561432
31026000,0.0324,0.013523,0.002678,0.000431,0.228475
31027000,0.0324,0.013523,0.002678,0.000431,0.272665
31028000,0.0324,0.013523,0.002678,0.000431,0.329079
31029000,0.0324,0.013523,0.002678,0.000431,0.138801
31030000,0.0324,0.013523,0.002678,0.000431,0.155725
31031000,0.0324,0.013523,0.002678,0.000431,0.100252
31032000,0.0324,0.013523,0.002678,0.000431,0.433679
31033000,0.0324,0.013523,0.002678,0.000431,0.143032
31034000,0.0324,0.013523,0.002678,0.000431,0.019275
31035000,0.0324,0.013523,0.002678,0.000431,0.016454
31036000,0.0324,0.013523,0.002678,0.000431,0.013986
31037000,0.0324,0.013523,0.002678,0.000431,0.016454
31038000,0.0324,0.013523,0.002678,0.000431,0.010578
31039000,0.0324,0.013523,0.002678,0.000431,0.011165
31040000,0.0324,0.013523,0.002678,0.000431,0.013633
31041000,0.0324,0.013523,0.002678,0.000431,0.009285
31042000,0.0324,0.013523,0.002678,0.000431,0.010695
31043000,0.0324,0.013523,0.002678,0.000431,0.008580
31044000,0.0324,0.013523,0.002678,0.000431,0.006699
31045000,0.0324,0.013523,0.002678,0.000431,0.009872
31046000,0.0324,0.013523,0.002678,0.000431,0.006699
31047000,0.0324,0.013523,0.002678,0.000431,0.006464
31048000,0.0324,0.013523,0.002678,0.000431,0.007639
31049000,0.0324,0.013523,0.002678,0.000431,0.005994
31050000,0.0324,0.013523,0.002678,0.000431,0.007169
31051000,0.0324,0.013523,0.002678,0.000431,0.006582
31052000,0.0324,0.013523,0.002678,0.000431,0.006582
31053000,0.0324,0.013523,0.002678,0.000431,0.006111
31054000,0.0324,0.013523,0.002678,0.000431,0.007757
31055000,0.0324,0.013523,0.002678,0.000431,0.005289
31056000,0.0324,0.013523,0.002678,0.000431,0.005524
31057000,0.0324,0.013523,0.002678,0.000431,0.005406
31058000,0.0324,0.013523,0.002678,0.000431,0.005171
31059000,0.0324,0.013523,0.002678,0.000431,0.005289
31060000,0.0324,0.013523,0.002678,0.000431,0.005289
31061000,0.0324,0.013523,0.002678,0.000431,0.005876
31062000,0.0324,0.013523,0.002678,0.000431,0.004113
31063000,0.0324,0.013523,0.002678,0.000431,0.004231
31064000,0.0324,0.013523,0.002678,0.000431,0.006111
31065000,0.0324,0.013523,0.002678,0.000431,0.003291
31066000,0.0324,0.013523,0.002678,0.000431,0.003173
31067000,0.0324,0.013523,0.002678,0.000431,0.003173
31068000,0.0324,0.013523,0.002678,0.000431,0.003643
31069000,0.0324,0.013523,0.002678,0.000431,0.003408
31070000,0.0324,0.013523,0.002678,0.000431,0.003291
31071000,0.0324,0.013523,0.002678,0.000431,0.003526
31072000,0.0324,0.013523,0.002678,0.000431,0.003291
31073000,0.0324,0.013523,0.002678,0.000431,0.003408
31074000,0.0324,0.013523,0.002678,0.000431,0.002938
31075000,0.0324,0.013523,0.002678,0.000431,0.003761
31076000,0.0324,0.013523,0.002678,0.000431,0.003408
31077000,0.0324,0.013523,0.002678,0.000431,0.003291
31078000,0.0324,0.013523,0.002678,0.000431,0.003408
31079000,0.0324,0.013523,0.002678,0.000431,0.003173
31080000,0.0324,0.013523,0.002678,0.000431,0.003526
31081000,0.0324,0.013523,0.002678,0.000431,0.003291
31082000,0.0324,0.013523,0.002678,0.000431,0.003408
31083000,0.0324,0.013523,0.002678,0.000431,0.003408
31084000,0.0324,0.013523,0.002678,0.000431,0.003291
31085000,0.0324,0.013523,0.002678,0.000431,0.003526
31086000,0.0324,0.013523,0.002678,0.000431,0.003173
31087000,0.0324,0.013523,0.002678,0.000431,0.003408
31088000,0.0324,0.013523,0.002678,0.000431,0.004584
31089000,0.0324,0.013523,0.002678,0.000431,0.001645
31090000,0.0324,0.013523,0.002678,0.000431,0.001763
31091000,0.0324,0.013523,0.002678,0.000431,0.001645
31092000,0.0324,0.013523,0.002678,0.000431,0.001880
31093000,0.0324,0.013523,0.002678,0.000431,0.001528
31094000,0.0324,0.013523,0.002678,0.000431,0.001763
31095000,0.0324,0.013523,0.002678,0.000431,0.001763
31096000,0.0324,0.013523,0.002678,0.000431,0.003173
31097000,0.0324,0.013523,0.002678,0.000431,0.000823
31098000,0.0324,0.013523,0.002678,0.000431,0.000940
31099000,0.0324,0.013523,0.002678,0.000431,0.000940
31100000,0.0324,0.013523,0.002678,0.000431,0.000705
31101000,0.0324,0.013523,0.002678,0.000431,0.000940
31102000,0.0324,0.013523,0.002678,0.000431,0.000705
31103000,0.0324,0.013523,0.002678,0.000431,0.000940
31104000,0.0324,0.013523,0.002678,0.000431,0.000823
31105000,0.0324,0.013523,0.002678,0.000431,0.000823
31106000,0.0324,0.013523,0.002678,0.000431,0.000940
31107000,0.0324,0.013523,0.002678,0.000431,0.000705
31108000,0.0324,0.013523,0.002678,0.000431,0.000940
31109000,0.0324,0.013523,0.002678,0.000431,0.000823
31110000,0.0324,0.013523,0.002678,0.000431,0.000823
31111000,0.0324,0.013523,0.002678,0.000431,0.000823
31112000,0.0324,0.013523,0.002678,0.000431,0.000823
31113000,0.0324,0.013523,0.002678,0.000431,0.000823
31114000,0.0324,0.013523,0.002678,0.000431,0.001998
31115000,0.0324,0.013523,0.002678,0.000431,0.350587
31116000,0.0324,0.013523,0.002678,0.000431,0.686717
31117000,0.0324,0.013523,0.002678,0.000431,0.139153
31118000,0.0324,0.013523,0.002678,0.000431,0.133982
31119000,0.0324,0.013523,0.002678,0.000431,0.131161
31120000,0.0324,0.013523,0.002678,0.000431,0.585173
31121000,0.0324,0.013523,0.002678,0.000431,0.236114
31122000,0.0324,0.013523,0.002678,0.000431,0.239405
31123000,0.0324,0.013523,0.002678,0.000431,0.269140
31124000,0.0324,0.013523,0.002678,0.000431,0.146793
31125000,0.0324,0.013523,0.002678,0.000431,0.148556
31126000,0.0324,0.013523,0.002678,0.000431,0.106833
31127000,0.0324,0.013523,0.002678,0.000431,0.356110
31128000,0.0324,0.013523,0.002678,0.000431,0.242696
31129000,0.0324,0.013523,0.002678,0.000431,0.041135
31130000,0.0324,0.013523,0.002678,0.000431,0.032438
31131000,0.0324,0.013523,0.002678,0.000431,0.028442
31132000,0.0324,0.013523,0.002678,0.000431,0.024916
31133000,0.0324,0.013523,0.002678,0.000431,0.016219
31134000,0.0324,0.013523,0.002678,0.000431,0.015279
31135000,0.0324,0.013523,0.002678,0.000431,0.013516
31136000,0.0324,0.013523,0.002678,0.000431,0.012928
31137000,0.0324,0.013523,0.002678,0.000431,0.015631
31138000,0.0324,0.013523,0.002678,0.000431,0.013633
31139000,0.0324,0.013523,0.002678,0.000431,0.013633
31140000,0.0324,0.013523,0.002678,0.000431,0.012928
31141000,0.0324,0.013523,0.002678,0.000431,0.008932
31142000,0.0324,0.013523,0.002678,0.000431,0.010578
31143000,0.0324,0.013523,0.002678,0.000431,0.008345
31144000,0.0324,0.013523,0.002678,0.000431,0.007522
31145000,0.0324,0.013523,0.002678,0.000431,0.007874
31146000,0.0324,0.013523,0.002678,0.000431,0.007757
31147000,0.0324,0.013523,0.002678,0.000431,0.007169
31148000,0.0324,0.013523,0.002678,0.000431,0.005876
31149000,0.0324,0.013523,0.002678,0.000431,0.006111
31150000,0.0324,0.013523,0.002678,0.000431,0.007404
31151000,0.0324,0.013523,0.002678,0.000431,0.005054
31152000,0.0324,0.013523,0.002678,0.000431,0.005524
31153000,0.0324,0.013523,0.002678,0.000431,0.004701
31154000,0.0324,0.013523,0.002678,0.000431,0.005054
31155000,0.0324,0.013523,0.002678,0.000431,0.004936
31156000,0.0324,0.013523,0.002678,0.000431,0.005171
31157000,0.0324,0.013523,0.002678,0.000431,0.004936
31158000,0.0324,0.013523,0.002678,0.000431,0.005054
31159000,0.0324,0.013523,0.002678,0.000431,0.005171
31160000,0.0324,0.013523,0.002678,0.000431,0.004819
31161000,0.0324,0.013523,0.002678,0.000431,0.004936
31162000,0.0324,0.013523,0.002678,0.000431,0.005994
31163000,0.0324,0.013523,0.002678,0.000431,0.004584
31164000,0.0324,0.013523,0.002678,0.000431,0.004113
31165000,0.0324,0.013523,0.002678,0.000431,0.004113
31166000,0.0324,0.013523,0.002678,0.000431,0.005994
31167000,0.0324,0.013523,0.002678,0.000431,0.005054
31168000,0.0324,0.013523,0.002678,0.000431,0.002703
31169000,0.0324,0.013523,0.002678,0.000431,0.002468
31170000,0.0324,0.013523,0.002678,0.000431,0.002351
31171000,0.0324,0.013523,0.002678,0.000431,0.002586
31172000,0.0324,0.013523,0.002678,0.000431,0.002586
31173000,0.0324,0.013523,0.002678,0.000431,0.002586
31174000,0.0324,0.013523,0.002678,0.000431,0.002351
31175000,0.0324,0.013523,0.002678,0.000431,0.002468
31176000,0.0324,0.013523,0.002678,0.000431,0.002703
31177000,0.0324,0.013523,0.002678,0.000431,0.002468
31178000,0.0324,0.013523,0.002678,0.000431,0.002468
31179000,0.0324,0.013523,0.002678,0.000431,0.002468
31180000,0.0324,0.013523,0.002678,0.000431,0.002586
31181000,0.0324,0.013523,0.002678,0.000431,0.002468
31182000,0.0324,0.013523,0.002678,0.000431,0.002468
31183000,0.0324,0.013523,0.002678,0.000431,0.002703
31184000,0.0324,0.013523,0.002678,0.000431,0.002468
31185000,0.0324,0.013523,0.002678,0.000431,0.002468
31186000,0.0324,0.013523,0.002678,0.000431,0.002586
31187000,0.0324,0.013523,0.002678,0.000431,0.002351
31188000,0.0324,0.013523,0.002678,0.000431,0.002586
31189000,0.0324,0.013523,0.002678,0.000431,0.002586
31190000,0.0324,0.013523,0.002678,0.000431,0.002351
31191000,0.0324,0.013523,0.002678,0.000431,0.002586
31192000,0.0324,0.013523,0.002678,0.000431,0.002468
31193000,0.0324,0.013523,0.002678,0.000431,0.002821
31194000,0.0324,0.013523,0.002678,0.000431,0.004466
31195000,0.0324,0.013523,0.002678,0.000431,0.001763
31196000,0.0324,0.013523,0.002678,0.000431,0.001763
31197000,0.0324,0.013523,0.002678,0.000431,0.001528
31198000,0.0324,0.013523,0.002678,0.000431,0.001763
31199000,0.0324,0.013523,0.002678,0.000431,0.001763
31200000,0.0324,0.013523,0.002678,0.000431,0.002703
31201000,0.0324,0.013523,0.002678,0.000431,0.000823
31202000,0.0324,0.013523,0.002678,0.000431,0.000823
31203000,0.0324,0.013523,0.002678,0.000431,0.000823
31204000,0.0324,0.013523,0.002678,0.000431,0.000823
31205000,0.0324,0.013523,0.002678,0.000431,0.000940
31206000,0.0324,0.013523,0.002678,0.000431,0.000823
31207000,0.0324,0.013523,0.002678,0.000431,0.000823
31208000,0.0324,0.013523,0.002678,0.000431,0.000705
31209000,0.0324,0.013523,0.002678,0.000431,0.000940
31210000,0.0324,0.013523,0.002678,0.000431,0.000823
31211000,0.0324,0.013523,0.002678,0.000431,0.000823
31212000,0.0324,0.013523,0.002678,0.000431,0.000940
31213000,0.0324,0.013523,0.002678,0.000431,0.000705
31214000,0.0324,0.013523,0.002678,0.000431,0.000940
31215000,0.0324,0.013523,0.002678,0.000431,0.000705
31216000,0.0324,0.013523,0.002678,0.000431,0.000823
31217000,0.0324,0.013523,0.002678,0.000431,0.000940
31218000,0.0324,0.013523,0.002678,0.000431,0.000823
31219000,0.0324,0.013523,0.002678,0.000431,0.000823
31220000,0.0324,0.013523,0.002678,0.000431,0.000823
31221000,0.0324,0.013523,0.002678,0.000431,0.000823
31222000,0.0324,0.013523,0.002678,0.000431,0.000823
31223000,0.0324,0.013523,0.002678,0.000431,0.000940
31224000,0.0324,0.013523,0.002678,0.000431,0.000705
31225000,0.0324,0.013523,0.002678,0.000431,0.000940
31226000,0.0324,0.013523,0.002678,0.000431,0.000705
31227000,0.0324,0.013523,0.002678,0.000431,0.000940
31228000,0.0324,0.013523,0.002678,0.000431,0.000940
31229000,0.0324,0.013523,0.002678,0.000431,0.000705
31230000,0.0324,0.013523,0.002678,0.000431,0.000940
31231000,0.0324,0.013523,0.002678,0.000431,0.000705
31232000,0.0324,0.013523,0.002678,0.000431,0.000940
31233000,0.0324,0.013523,0.002678,0.000431,0.000823
31234000,0.0324,0.013523,0.002678,0.000431,0.000823
31235000,0.0324,0.013523,0.002678,0.000431,0.000823
31236000,0.0324,0.013523,0.002678,0.000431,0.000823
31237000,0.0324,0.013523,0.002678,0.000431,0.000940
31238000,0.0324,0.013523,0.002678,0.000431,0.000705
31239000,0.0324,0.013523,0.002678,0.000431,0.000940
31240000,0.0324,0.013523,0.002678,0.000431,0.000823
31241000,0.0324,0.013523,0.002678,0.000431,0.000823
31242000,0.0324,0.013523,0.002678,0.000431,0.000823
31243000,0.0324,0.013523,0.002678,0.000431,0.000823
31244000,0.0324,0.013523,0.002678,0.000431,0.000823
31245000,0.0324,0.013523,0.002678,0.000431,0.000823
31246000,0.0324,0.013523,0.002678,0.000431,0.000940
31247000,0.0324,0.013523,0.002678,0.000431,0.000823
31248000,0.0324,0.013523,0.002678,0.000431,0.000823
31249000,0.0324,0.013523,0.002678,0.000431,0.000705
31250000,0.0324,0.013523,0.002678,0.000431,0.014926
31251000,0.0324,0.013523,0.002678,0.000431,0.487977
31252000,0.0324,0.013523,0.002678,0.000431,0.591637
31253000,0.0324,0.013523,0.002678,0.000431,0.134452
31254000,0.0324,0.013523,0.002678,0.000431,0.130691
31255000,0.0324,0.013523,0.002678,0.000431,0.302282
31256000,0.0324,0.013523,0.002678,0.000431,0.464589
31257000,0.0324,0.013523,0.002678,0.000431,0.230355
31258000,0.0324,0.013523,0.002678,0.000431,0.294173
31259000,0.0324,0.013523,0.002678,0.000431,0.212491
31260000,0.0324,0.013523,0.002678,0.000431,0.135863
31261000,0.0324,0.013523,0.002678,0.000431,0.175117
31262000,0.0324,0.013523,0.002678,0.000431,0.103072
31263000,0.0324,0.013523,0.002678,0.000431,0.485862
31264000,0.0324,0.013523,0.002678,0.000431,0.107068
31265000,0.0324,0.013523,0.002678,0.000431,0.069342
31266000,0.0324,0.013523,0.002678,0.000431,0.062878
31267000,0.0324,0.013523,0.002678,0.000431,0.050772
31268000,0.0324,0.013523,0.002678,0.000431,0.049714
31269000,0.0324,0.013523,0.002678,0.000431,0.046894
31270000,0.0324,0.013523,0.002678,0.000431,0.038667
31271000,0.0324,0.013523,0.002678,0.000431,0.033731
31272000,0.0324,0.013523,0.002678,0.000431,0.029382
31273000,0.0324,0.013523,0.002678,0.000431,0.031733
31274000,0.0324,0.013523,0.002678,0.000431,0.021625
31275000,0.0324,0.013523,0.002678,0.000431,0.021625
31276000,0.0324,0.013523,0.002678,0.000431,0.013633
31277000,0.0324,0.013523,0.002678,0.000431,0.019510
31278000,0.0324,0.013523,0.002678,0.000431,0.010813
31279000,0.0324,0.013523,0.002678,0.000431,0.011400
31280000,0.0324,0.013523,0.002678,0.000431,0.009285
31281000,0.0324,0.013523,0.002678,0.000431,0.006699
31282000,0.0324,0.013523,0.002678,0.000431,0.006817
31283000,0.0324,0.013523,0.002678,0.000431,0.006934
31284000,0.0324,0.013523,0.002678,0.000431,0.009167
31285000,0.0324,0.013523,0.002678,0.000431,0.007522
31286000,0.0324,0.013523,0.002678,0.000431,0.005054
31287000,0.0324,0.013523,0.002678,0.000431,0.005289
31288000,0.0324,0.013523,0.002678,0.000431,0.006699
31289000,0.0324,0.013523,0.002678,0.000431,0.004231
31290000,0.0324,0.013523,0.002678,0.000431,0.004349
31291000,0.0324,0.013523,0.002678,0.000431,0.004466
31292000,0.0324,0.013523,0.002678,0.000431,0.004231
31293000,0.0324,0.013523,0.002678,0.000431,0.006699
31294000,0.0324,0.013523,0.002678,0.000431,0.003408
31295000,0.0324,0.013523,0.002678,0.000431,0.003643
31296000,0.0324,0.013523,0.002678,0.000431,0.005994
31297000,0.0324,0.013523,0.002678,0.000431,0.002468
31298000,0.0324,0.013523,0.002678,0.000431,0.005406
31299000,0.0324,0.013523,0.002678,0.000431,0.001880
31300000,0.0324,0.013523,0.002678,0.000431,0.001528
31301000,0.0324,0.013523,0.002678,0.000431,0.001763
31302000,0.0324,0.013523,0.002678,0.000431,0.001880
31303000,0.0324,0.013523,0.002678,0.000431,0.001645
31304000,0.0324,0.013523,0.002678,0.000431,0.001880
31305000,0.0324,0.013523,0.002678,0.000431,0.001645
31306000,0.0324,0.013523,0.002678,0.000431,0.001880
31307000,0.0324,0.013523,0.002678,0.000431,0.001645
31308000,0.0324,0.013523,0.002678,0.000431,0.001645
31309000,0.0324,0.013523,0.002678,0.000431,0.001880
31310000,0.0324,0.013523,0.002678,0.000431,0.001880
31311000,0.0324,0.013523,0.002678,0.000431,0.001645
31312000,0.0324,0.013523,0.002678,0.000431,0.001645
31313000,0.0324,0.013523,0.002678,0.000431,0.001998
31314000,0.0324,0.013523,0.002678,0.000431,0.001763
31315000,0.0324,0.013523,0.002678,0.000431,0.001645
31316000,0.0324,0.013523,0.002678,0.000431,0.001763
31317000,0.0324,0.013523,0.002678,0.000431,0.001763
31318000,0.0324,0.013523,0.002678,0.000431,0.001880
31319000,0.0324,0.013523,0.002678,0.000431,0.001645
31320000,0.0324,0.013523,0.002678,0.000431,0.001645
31321000,0.0324,0.013523,0.002678,0.000431,0.001880
31322000,0.0324,0.013523,0.002678,0.000431,0.001763
31323000,0.0324,0.013523,0.002678,0.000431,0.001763
31324000,0.0324,0.013523,0.002678,0.000431,0.001645
31325000,0.0324,0.013523,0.002678,0.000431,0.001880
31326000,0.0324,0.013523,0.002678,0.000431,0.001763
31327000,0.0324,0.013523,0.002678,0.000431,0.001645
31328000,0.0324,0.013523,0.002678,0.000431,0.001763
31329000,0.0324,0.013523,0.002678,0.000431,0.001763
31330000,0.0324,0.013523,0.002678,0.000431,0.001880
31331000,0.0324,0.013523,0.002678,0.000431,0.001645
31332000,0.0324,0.013523,0.002678,0.000431,0.001763
31333000,0.0324,0.013523,0.002678,0.000431,0.001763
31334000,0.0324,0.013523,0.002678,0.000431,0.001645
31335000,0.0324,0.013523,0.002678,0.000431,0.001880
31336000,0.0324,0.013523,0.002678,0.000431,0.001763
31337000,0.0324,0.013523,0.002678,0.000431,0.001880
31338000,0.0324,0.013523,0.002678,0.000431,0.001528
31339000,0.0324,0.013523,0.002678,0.000431,0.001763
31340000,0.0324,0.013523,0.002678,0.000431,0.001880
31341000,0.0324,0.013523,0.002678,0.000431,0.001763
31342000,0.0324,0.013523,0.002678,0.000431,0.001645
31343000,0.0324,0.013523,0.002678,0.000431,0.001763
31344000,0.0324,0.013523,0.002678,0.000431,0.001763
31345000,0.0324,0.013523,0.002678,0.000431,0.001880
31346000,0.0324,0.013523,0.002678,0.000431,0.001645
31347000,0.0324,0.013523,0.002678,0.000431,0.001763
31348000,0.0324,0.013523,0.002678,0.000431,0.001763
31349000,0.0324,0.013523,0.002678,0.000431,0.001763
31350000,0.0324,0.013523,0.002678,0.000431,0.001763
31351000,0.0324,0.013523,0.002678,0.000431,0.001763
31352000,0.0324,0.013523,0.002678,0.000431,0.001763
31353000,0.0324,0.013523,0.002678,0.000431,0.001645
31354000,0.0324,0.013523,0.002678,0.000431,0.001880
31355000,0.0324,0.013523,0.002678,0.000431,0.001763
31356000,0.0324,0.013523,0.002678,0.000431,0.001645
31357000,0.0324,0.013523,0.002678,0.000431,0.001763
31358000,0.0324,0.013523,0.002678,0.000431,0.001763
31359000,0.0324,0.013523,0.002678,0.000431,0.001880
31360000,0.0324,0.013523,0.002678,0.000431,0.001645
31361000,0.0324,0.013523,0.002678,0.000431,0.001763
31362000,0.0324,0.013523,0.002678,0.000431,0.001763
31363000,0.0324,0.013523,0.002678,0.000431,0.001763
31364000,0.0324,0.013523,0.002678,0.000431,0.001880
31365000,0.0324,0.013523,0.002678,0.000431,0.001528
31366000,0.0324,0.013523,0.002678,0.000431,0.001880
31367000,0.0324,0.013523,0.002678,0.000431,0.001880
31368000,0.0324,0.013523,0.002678,0.000431,0.003878
31369000,0.0324,0.013523,0.002678,0.000431,0.000940
31370000,0.0324,0.013523,0.002678,0.000431,0.000940
31371000,0.0324,0.013523,0.002678,0.000431,0.000940
31372000,0.0324,0.013523,0.002678,0.000431,0.000823
31373000,0.0324,0.013523,0.002678,0.000431,0.000823
31374000,0.0324,0.013523,0.002678,0.000431,0.000940
31375000,0.0324,0.013523,0.002678,0.000431,0.000823
31376000,0.0324,0.013523,0.002678,0.000431,0.000940
31377000,0.0324,0.013523,0.002678,0.000431,0.000823
31378000,0.0324,0.013523,0.002678,0.000431,0.000940
31379000,0.0324,0.013523,0.002678,0.000431,0.000940
31380000,0.0324,0.013523,0.002678,0.000431,0.000705
31381000,0.0324,0.013523,0.002678,0.000431,0.000940
31382000,0.0324,0.013523,0.002678,0.000431,0.000940
31383000,0.0324,0.013523,0.002678,0.000431,0.000940
31384000,0.0324,0.013523,0.002678,0.000431,0.000705
31385000,0.0324,0.013523,0.002678,0.000431,0.000940
31386000,0.0324,0.013523,0.002678,0.000431,0.000940
31387000,0.0324,0.013523,0.002678,0.000431,0.000823
31388000,0.0324,0.013523,0.002678,0.000431,0.000823
31389000,0.0324,0.013523,0.002678,0.000431,0.000940
31390000,0.0324,0.013523,0.002678,0.000431,0.000940
31391000,0.0324,0.013523,0.002678,0.000431,0.000823
31392000,0.0324,0.013523,0.002678,0.000431,0.000823
31393000,0.0324,0.013523,0.002678,0.000431,0.000940
31394000,0.0324,0.013523,0.002678,0.000431,0.000823
31395000,0.0324,0.013523,0.002678,0.000431,0.000940
31396000,0.0324,0.013523,0.002678,0.000431,0.000823
31397000,0.0324,0.013523,0.002678,0.000431,0.000940
31398000,0.0324,0.013523,0.002678,0.000431,0.000823
31399000,0.0324,0.013523,0.002678,0.000431,0.000823
31400000,0.0324,0.013523,0.002678,0.000431,0.000940
31401000,0.0324,0.013523,0.002678,0.000431,0.000940
31402000,0.0324,0.013523,0.002678,0.000431,0.000823
31403000,0.0324,0.013523,0.002678,0.000431,0.000823
31404000,0.0324,0.013523,0.002678,0.000431,0.000940
31405000,0.0324,0.013523,0.002678,0.000431,0.000940
31406000,0.0324,0.013523,0.002678,0.000431,0.000823
31407000,0.0324,0.013523,0.002678,0.000431,0.000823
31408000,0.0324,0.013523,0.002678,0.000431,0.000940
31409000,0.0324,0.013523,0.002678,0.000431,0.000823
31410000,0.0324,0.013523,0.002678,0.000431,0.000940
31411000,0.0324,0.013523,0.002678,0.000431,0.000823
31412000,0.0324,0.013523,0.002678,0.000431,0.000940
31413000,0.0324,0.013523,0.002678,0.000431,0.000823
31414000,0.0324,0.013523,0.002678,0.000431,0.000823
31415000,0.0324,0.013523,0.002678,0.000431,0.000940
31416000,0.0324,0.013523,0.002678,0.000431,0.000940
31417000,0.0324,0.013523,0.002678,0.000431,0.000823
31418000,0.0324,0.013523,0.002678,0.000431,0.000823
31419000,0.0324,0.013523,0.002678,0.000431,0.000940
31420000,0.0324,0.013523,0.002678,0.000431,0.000940
31421000,0.0324,0.013523,0.002678,0.000431,0.000705
31422000,0.0324,0.013523,0.002678,0.000431,0.000940
31423000,0.0324,0.013523,0.002678,0.000431,0.210375
31424000,0.0324,0.013523,0.002678,0.000431,0.547329
31425000,0.0324,0.013523,0.002678,0.000431,0.467292
31426000,0.0324,0.013523,0.002678,0.000431,0.133512
31427000,0.0324,0.013523,0.002678,0.000431,0.132454
31428000,0.0324,0.013523,0.002678,0.000431,0.598806
31429000,0.0324,0.013523,0.002678,0.000431,0.241638
31430000,0.0324,0.013523,0.002678,0.000431,0.294643
31431000,0.0324,0.013523,0.002678,0.000431,0.259855
31432000,0.0324,0.013523,0.002678,0.000431,0.151611
31433000,0.0324,0.013523,0.002678,0.000431,0.155137
31434000,0.0324,0.013523,0.002678,0.000431,0.152904
31435000,0.0324,0.013523,0.002678,0.000431,0.440261
31436000,0.0324,0.013523,0.002678,0.000431,0.076041
31437000,0.0324,0.013523,0.002678,0.000431,0.050067
31438000,0.0324,0.013523,0.002678,0.000431,0.041252
31439000,0.0324,0.013523,0.002678,0.000431,0.028912
31440000,0.0324,0.013523,0.002678,0.000431,0.030910
31441000,0.0324,0.013523,0.002678,0.000431,0.028207
31442000,0.0324,0.013523,0.002678,0.000431,0.027737
31443000,0.0324,0.013523,0.002678,0.000431,0.017864
31444000,0.0324,0.013523,0.002678,0.000431,0.014103
31445000,0.0324,0.013523,0.002678,0.000431,0.017512
31446000,0.0324,0.013523,0.002678,0.000431,0.011753
31447000,0.0324,0.013523,0.002678,0.000431,0.012811
31448000,0.0324,0.013523,0.002678,0.000431,0.013163
31449000,0.0324,0.013523,0.002678,0.000431,0.008932
31450000,0.0324,0.013523,0.002678,0.000431,0.005759
31451000,0.0324,0.013523,0.002678,0.000431,0.005759
31452000,0.0324,0.013523,0.002678,0.000431,0.006229
31453000,0.0324,0.013523,0.002678,0.000431,0.005641
31454000,0.0324,0.013523,0.002678,0.000431,0.009402
31455000,0.0324,0.013523,0.002678,0.000431,0.004349
31456000,0.0324,0.013523,0.002678,0.000431,0.005994
31457000,0.0324,0.013523,0.002678,0.000431,0.006347
31458000,0.0324,0.013523,0.002678,0.000431,0.002586
31459000,0.0324,0.013523,0.002678,0.000431,0.002586
31460000,0.0324,0.013523,0.002678,0.000431,0.002351
31461000,0.0324,0.013523,0.002678,0.000431,0.002586
31462000,0.0324,0.013523,0.002678,0.000431,0.002468
31463000,0.0324,0.013523,0.002678,0.000431,0.002586
31464000,0.0324,0.013523,0.002678,0.000431,0.002586
31465000,0.0324,0.013523,0.002678,0.000431,0.004701
31466000,0.0324,0.013523,0.002678,0.000431,0.001880
31467000,0.0324,0.013523,0.002678,0.000431,0.001528
31468000,0.0324,0.013523,0.002678,0.000431,0.001763
31469000,0.0324,0.013523,0.002678,0.000431,0.001645
31470000,0.0324,0.013523,0.002678,0.000431,0.001645
31471000,0.0324,0.013523,0.002678,0.000431,0.001645
31472000,0.0324,0.013523,0.002678,0.000431,0.001645
31473000,0.0324,0.013523,0.002678,0.000431,0.001763
31474000,0.0324,0.013523,0.002678,0.000431,0.001528
31475000,0.0324,0.013523,0.002678,0.000431,0.001880
31476000,0.0324,0.013523,0.002678,0.000431,0.001410
31477000,0.0324,0.013523,0.002678,0.000431,0.001763
31478000,0.0324,0.013523,0.002678,0.000431,0.001645
31479000,0.0324,0.013523,0.002678,0.000431,0.001763
31480000,0.0324,0.013523,0.002678,0.000431,0.001763
31481000,0.0324,0.013523,0.002678,0.000431,0.001528
31482000,0.0324,0.013523,0.002678,0.000431,0.003643
31483000,0.0324,0.013523,0.002678,0.000431,0.000940
31484000,0.0324,0.013523,0.002678,0.000431,0.000940
31485000,0.0324,0.013523,0.002678,0.000431,0.000705
31486000,0.0324,0.013523,0.002678,0.000431,0.000940
31487000,0.0324,0.013523,0.002678,0.000431,0.000705
31488000,0.0324,0.013523,0.002678,0.000431,0.000940
31489000,0.0324,0.013523,0.002678,0.000431,0.000940
31490000,0.0324,0.013523,0.002678,0.000431,0.140446
31491000,0.0324,0.013523,0.002678,0.000431,0.503256
31492000,0.0324,0.013523,0.002678,0.000431,0.531345
31493000,0.0324,0.013523,0.002678,0.000431,0.134452
31494000,0.0324,0.013523,0.002678,0.000431,0.131632
31495000,0.0324,0.013523,0.002678,0.000431,0.558964
31496000,0.0324,0.013523,0.002678,0.000431,0.239170
31497000,0.0324,0.013523,0.002678,0.000431,0.252686
31498000,0.0324,0.013523,0.002678,0.000431,0.331665
31499000,0.0324,0.013523,0.002678,0.000431,0.142914
31500000,0.0324,0.013523,0.002678,0.000431,0.149261
31501000,0.0324,0.013523,0.002678,0.000431,0.102014
31502000,0.0324,0.013523,0.002678,0.000431,0.398303
31503000,0.0324,0.013523,0.002678,0.000431,0.207672
31504000,0.0324,0.013523,0.002678,0.000431,0.055121
31505000,0.0324,0.013523,0.002678,0.000431,0.048657
31506000,0.0324,0.013523,0.002678,0.000431,0.049244
31507000,0.0324,0.013523,0.002678,0.000431,0.041840
31508000,0.0324,0.013523,0.002678,0.000431,0.039137
31509000,0.0324,0.013523,0.002678,0.000431,0.034083
31510000,0.0324,0.013523,0.002678,0.000431,0.037609
31511000,0.0324,0.013523,0.002678,0.000431,0.036316
31512000,0.0324,0.013523,0.002678,0.000431,0.033613
31513000,0.0324,0.013523,0.002678,0.000431,0.019510
31514000,0.0324,0.013523,0.002678,0.000431,0.017277
31515000,0.0324,0.013523,0.002678,0.000431,0.015279
31516000,0.0324,0.013523,0.002678,0.000431,0.010695
31517000,0.0324,0.013523,0.002678,0.000431,0.011518
31518000,0.0324,0.013523,0.002678,0.000431,0.008462
31519000,0.0324,0.013523,0.002678,0.000431,0.008697
31520000,0.0324,0.013523,0.002678,0.000431,0.007874
31521000,0.0324,0.013523,0.002678,0.000431,0.008227
31522000,0.0324,0.013523,0.002678,0.000431,0.011165
31523000,0.0324,0.013523,0.002678,0.000431,0.008109
31524000,0.0324,0.013523,0.002678,0.000431,0.005054
31525000,0.0324,0.013523,0.002678,0.000431,0.003761
31526000,0.0324,0.013523,0.002678,0.000431,0.004349
31527000,0.0324,0.013523,0.002678,0.000431,0.004819
31528000,0.0324,0.013523,0.002678,0.000431,0.003996
31529000,0.0324,0.013523,0.002678,0.000431,0.003526
31530000,0.0324,0.013523,0.002678,0.000431,0.003291
31531000,0.0324,0.013523,0.002678,0.000431,0.003526
31532000,0.0324,0.013523,0.002678,0.000431,0.003526
31533000,0.0324,0.013523,0.002678,0.000431,0.004466
31534000,0.0324,0.013523,0.002678,0.000431,0.002586
31535000,0.0324,0.013523,0.002678,0.000431,0.002468
31536000,0.0324,0.013523,0.002678,0.000431,0.003996
31537000,0.0324,0.013523,0.002678,0.000431,0.001645
31538000,0.0324,0.013523,0.002678,0.000431,0.001528
31539000,0.0324,0.013523,0.002678,0.000431,0.001763
31540000,0.0324,0.013523,0.002678,0.000431,0.001763
31541000,0.0324,0.013523,0.002678,0.000431,0.001645
31542000,0.0324,0.013523,0.002678,0.000431,0.001763
31543000,0.0324,0.013523,0.002678,0.000431,0.001528
31544000,0.0324,0.013523,0.002678,0.000431,0.001763
31545000,0.0324,0.013523,0.002678,0.000431,0.001645
31546000,0.0324,0.013523,0.002678,0.000431,0.001645
31547000,0.0324,0.013523,0.002678,0.000431,0.003526
31548000,0.0324,0.013523,0.002678,0.000431,0.000940
31549000,0.0324,0.013523,0.002678,0.000431,0.000705
31550000,0.0324,0.013523,0.002678,0.000431,0.000940
31551000,0.0324,0.013523,0.002678,0.000431,0.000823
31552000,0.0324,0.013523,0.002678,0.000431,0.000823
31553000,0.0324,0.013523,0.002678,0.000431,0.000705
31554000,0.0324,0.013523,0.002678,0.000431,0.000940
31555000,0.0324,0.013523,0.002678,0.000431,0.000940
31556000,0.0324,0.013523,0.002678,0.000431,0.000705
31557000,0.0324,0.013523,0.002678,0.000431,0.000940
31558000,0.0324,0.013523,0.002678,0.000431,0.000705
31559000,0.0324,0.013523,0.002678,0.000431,0.000940
31560000,0.0324,0.013523,0.002678,0.000431,0.000823
31561000,0.0324,0.013523,0.002678,0.000431,0.000823
31562000,0.0324,0.013523,0.002678,0.000431,0.000940
31563000,0.0324,0.013523,0.002678,0.000431,0.000705
31564000,0.0324,0.013523,0.002678,0.000431,0.000940
31565000,0.0324,0.013523,0.002678,0.000431,0.000823
31566000,0.0324,0.013523,0.002678,0.000431,0.000823
31567000,0.0324,0.013523,0.002678,0.000431,0.000823
31568000,0.0324,0.013523,0.002678,0.000431,0.000823
31569000,0.0324,0.013523,0.002678,0.000431,0.000823
31570000,0.0324,0.013523,0.002678,0.000431,0.000823
31571000,0.0324,0.013523,0.002678,0.000431,0.000940
31572000,0.0324,0.013523,0.002678,0.000431,0.015161
31573000,0.0324,0.013523,0.002678,0.000431,0.506664
31574000,0.0324,0.013523,0.002678,0.000431,0.587053
31575000,0.0324,0.013523,0.002678,0.000431,0.134452
31576000,0.0324,0.013523,0.002678,0.000431,0.132102
31577000,0.0324,0.013523,0.002678,0.000431,0.487154
31578000,0.0324,0.013523,0.002678,0.000431,0.363632
31579000,0.0324,0.013523,0.002678,0.000431,0.256799
31580000,0.0324,0.013523,0.002678,0.000431,0.315093
31581000,0.0324,0.013523,0.002678,0.000431,0.137743
31582000,0.0324,0.013523,0.002678,0.000431,0.159603
31583000,0.0324,0.013523,0.002678,0.000431,0.098489
31584000,0.0324,0.013523,0.002678,0.000431,0.436382
31585000,0.0324,0.013523,0.002678,0.000431,0.186400
31586000,0.0324,0.013523,0.002678,0.000431,0.088616
31587000,0.0324,0.013523,0.002678,0.000431,0.084385
31588000,0.0324,0.013523,0.002678,0.000431,0.070634
31589000,0.0324,0.013523,0.002678,0.000431,0.074748
31590000,0.0324,0.013523,0.002678,0.000431,0.059939
31591000,0.0324,0.013523,0.002678,0.000431,0.054533
31592000,0.0324,0.013523,0.002678,0.000431,0.053945
31593000,0.0324,0.013523,0.002678,0.000431,0.048539
31594000,0.0324,0.013523,0.002678,0.000431,0.046894
31595000,0.0324,0.013523,0.002678,0.000431,0.039019
31596000,0.0324,0.013523,0.002678,0.000431,0.037256
31597000,0.0324,0.013523,0.002678,0.000431,0.032673
31598000,0.0324,0.013523,0.002678,0.000431,0.032438
31599000,0.0324,0.013523,0.002678,0.000431,0.026091
31600000,0.0324,0.013523,0.002678,0.000431,0.024446
31601000,0.0324,0.013523,0.002678,0.000431,0.024681
31602000,0.0324,0.013523,0.002678,0.000431,0.022095
31603000,0.0324,0.013523,0.002678,0.000431,0.019627
31604000,0.0324,0.013523,0.002678,0.000431,0.015396
31605000,0.0324,0.013523,0.002678,0.000431,0.015866
31606000,0.0324,0.013523,0.002678,0.000431,0.015749
31607000,0.0324,0.013523,0.002678,0.000431,0.011048
31608000,0.0324,0.013523,0.002678,0.000431,0.007522
31609000,0.0324,0.013523,0.002678,0.000431,0.007052
31610000,0.0324,0.013523,0.002678,0.000431,0.006817
31611000,0.0324,0.013523,0.002678,0.000431,0.007639
31612000,0.0324,0.013523,0.002678,0.000431,0.006934
31613000,0.0324,0.013523,0.002678,0.000431,0.008932
31614000,0.0324,0.013523,0.002678,0.000431,0.007052
31615000,0.0324,0.013523,0.002678,0.000431,0.005876
31616000,0.0324,0.013523,0.002678,0.000431,0.004936
31617000,0.0324,0.013523,0.002678,0.000431,0.006699
31618000,0.0324,0.013523,0.002678,0.000431,0.004349
31619000,0.0324,0.013523,0.002678,0.000431,0.004936
31620000,0.0324,0.013523,0.002678,0.000431,0.003056
31621000,0.0324,0.013523,0.002678,0.000431,0.003173
31622000,0.0324,0.013523,0.002678,0.000431,0.002468
31623000,0.0324,0.013523,0.002678,0.000431,0.003173
31624000,0.0324,0.013523,0.002678,0.000431,0.002821
31625000,0.0324,0.013523,0.002678,0.000431,0.002938
31626000,0.0324,0.013523,0.002678,0.000431,0.003056
31627000,0.0324,0.013523,0.002678,0.000431,0.002821
31628000,0.0324,0.013523,0.002678,0.000431,0.002938
31629000,0.0324,0.013523,0.002678,0.000431,0.003056
31630000,0.0324,0.013523,0.002678,0.000431,0.002938
31631000,0.0324,0.013523,0.002678,0.000431,0.002468
31632000,0.0324,0.013523,0.002678,0.000431,0.003173
31633000,0.0324,0.013523,0.002678,0.000431,0.002468
31634000,0.0324,0.013523,0.002678,0.000431,0.003173
31635000,0.0324,0.013523,0.002678,0.000431,0.002586
31636000,0.0324,0.013523,0.002678,0.000431,0.003056
31637000,0.0324,0.013523,0.002678,0.000431,0.002821
31638000,0.0324,0.013523,0.002678,0.000431,0.002586
31639000,0.0324,0.013523,0.002678,0.000431,0.002821
31640000,0.0324,0.013523,0.002678,0.000431,0.003056
31641000,0.0324,0.013523,0.002678,0.000431,0.002586
31642000,0.0324,0.013523,0.002678,0.000431,0.002821
31643000,0.0324,0.013523,0.002678,0.000431,0.003291
31644000,0.0324,0.013523,0.002678,0.000431,0.002821
31645000,0.0324,0.013523,0.002678,0.000431,0.002586
31646000,0.0324,0.013523,0.002678,0.000431,0.003526
31647000,0.0324,0.013523,0.002678,0.000431,0.002351
31648000,0.0324,0.013523,0.002678,0.000431,0.003056
31649000,0.0324,0.013523,0.002678,0.000431,0.002938
31650000,0.0324,0.013523,0.002678,0.000431,0.002116
31651000,0.0324,0.013523,0.002678,0.000431,0.002351
31652000,0.0324,0.013523,0.002678,0.000431,0.002351
31653000,0.0324,0.013523,0.002678,0.000431,0.001528
31654000,0.0324,0.013523,0.002678,0.000431,0.001763
31655000,0.0324,0.013523,0.002678,0.000431,0.001645
31656000,0.0324,0.013523,0.002678,0.000431,0.001645
31657000,0.0324,0.013523,0.002678,0.000431,0.001645
31658000,0.0324,0.013523,0.002678,0.000431,0.001763
31659000,0.0324,0.013523,0.002678,0.000431,0.001528
31660000,0.0324,0.013523,0.002678,0.000431,0.001645
31661000,0.0324,0.013523,0.002678,0.000431,0.001880
31662000,0.0324,0.013523,0.002678,0.000431,0.001645
31663000,0.0324,0.013523,0.002678,0.000431,0.001645
31664000,0.0324,0.013523,0.002678,0.000431,0.001645
31665000,0.0324,0.013523,0.002678,0.000431,0.001528
31666000,0.0324,0.013523,0.002678,0.000431,0.001763
31667000,0.0324,0.013523,0.002678,0.000431,0.001763
31668000,0.0324,0.013523,0.002678,0.000431,0.001645
31669000,0.0324,0.013523,0.002678,0.000431,0.001645
31670000,0.0324,0.013523,0.002678,0.000431,0.001645
31671000,0.0324,0.013523,0.002678,0.000431,0.001645
31672000,0.0324,0.013523,0.002678,0.000431,0.001880
31673000,0.0324,0.013523,0.002678,0.000431,0.001645
31674000,0.0324,0.013523,0.002678,0.000431,0.001645
31675000,0.0324,0.013523,0.002678,0.000431,0.001645
31676000,0.0324,0.013523,0.002678,0.000431,0.001645
31677000,0.0324,0.013523,0.002678,0.000431,0.001763
31678000,0.0324,0.013523,0.002678,0.000431,0.001645
31679000,0.0324,0.013523,0.002678,0.000431,0.001645
31680000,0.0324,0.013523,0.002678,0.000431,0.001763
31681000,0.0324,0.013523,0.002678,0.000431,0.001645
31682000,0.0324,0.013523,0.002678,0.000431,0.001645
31683000,0.0324,0.013523,0.002678,0.000431,0.001763
31684000,0.0324,0.013523,0.002678,0.000431,0.001645
31685000,0.0324,0.013523,0.002678,0.000431,0.001645
31686000,0.0324,0.013523,0.002678,0.000431,0.001645
31687000,0.0324,0.013523,0.002678,0.000431,0.001763
31688000,0.0324,0.013523,0.002678,0.000431,0.001645
31689000,0.0324,0.013523,0.002678,0.000431,0.001645
31690000,0.0324,0.013523,0.002678,0.000431,0.001763
31691000,0.0324,0.013523,0.002678,0.000431,0.001645
31692000,0.0324,0.013523,0.002678,0.000431,0.001645
31693000,0.0324,0.013523,0.002678,0.000431,0.001528
31694000,0.0324,0.013523,0.002678,0.000431,0.001763
31695000,0.0324,0.013523,0.002678,0.000431,0.001763
31696000,0.0324,0.013523,0.002678,0.000431,0.001528
31697000,0.0324,0.013523,0.002678,0.000431,0.001880
31698000,0.0324,0.013523,0.002678,0.000431,0.001528
31699000,0.0324,0.013523,0.002678,0.000431,0.001763
31700000,0.0324,0.013523,0.002678,0.000431,0.001645
31701000,0.0324,0.013523,0.002678,0.000431,0.001528
31702000,0.0324,0.013523,0.002678,0.000431,0.001880
31703000,0.0324,0.013523,0.002678,0.000431,0.001645
31704000,0.0324,0.013523,0.002678,0.000431,0.001645
31705000,0.0324,0.013523,0.002678,0.000431,0.001645
31706000,0.0324,0.013523,0.002678,0.000431,0.001645
31707000,0.0324,0.013523,0.002678,0.000431,0.001763
31708000,0.0324,0.013523,0.002678,0.000431,0.001763
31709000,0.0324,0.013523,0.002678,0.000431,0.001528
31710000,0.0324,0.013523,0.002678,0.000431,0.001763
31711000,0.0324,0.013523,0.002678,0.000431,0.001645
31712000,0.0324,0.013523,0.002678,0.000431,0.001645
31713000,0.0324,0.013523,0.002678,0.000431,0.001645
31714000,0.0324,0.013523,0.002678,0.000431,0.001645
31715000,0.0324,0.013523,0.002678,0.000431,0.001880
31716000,0.0324,0.013523,0.002678,0.000431,0.003291
31717000,0.0324,0.013523,0.002678,0.000431,0.000823
31718000,0.0324,0.013523,0.002678,0.000431,0.000705
31719000,0.0324,0.013523,0.002678,0.000431,0.000940
31720000,0.0324,0.013523,0.002678,0.000431,0.000940
31721000,0.0324,0.013523,0.002678,0.000431,0.000705
31722000,0.0324,0.013523,0.002678,0.000431,0.000940
31723000,0.0324,0.013523,0.002678,0.000431,0.198740
31724000,0.0324,0.013523,0.002678,0.000431,0.471758
31725000,0.0324,0.013523,0.002678,0.000431,0.521473
31726000,0.0324,0.013523,0.002678,0.000431,0.133982
31727000,0.0324,0.013523,0.002678,0.000431,0.133042
31728000,0.0324,0.013523,0.002678,0.000431,0.641939
31729000,0.0324,0.013523,0.002678,0.000431,0.238700
31730000,0.0324,0.013523,0.002678,0.000431,0.274311
31731000,0.0324,0.013523,0.002678,0.000431,0.262088
31732000,0.0324,0.013523,0.002678,0.000431,0.142327
31733000,0.0324,0.013523,0.002678,0.000431,0.151024
31734000,0.0324,0.013523,0.002678,0.000431,0.179113
31735000,0.0324,0.013523,0.002678,0.000431,0.420046
31736000,0.0324,0.013523,0.002678,0.000431,0.088734
31737000,0.0324,0.013523,0.002678,0.000431,0.062643
31738000,0.0324,0.013523,0.002678,0.000431,0.058059
31739000,0.0324,0.013523,0.002678,0.000431,0.053240
31740000,0.0324,0.013523,0.002678,0.000431,0.039842
31741000,0.0324,0.013523,0.002678,0.000431,0.033613
31742000,0.0324,0.013523,0.002678,0.000431,0.028794
31743000,0.0324,0.013523,0.002678,0.000431,0.025621
31744000,0.0324,0.013523,0.002678,0.000431,0.028207
31745000,0.0324,0.013523,0.002678,0.000431,0.028324
31746000,0.0324,0.013523,0.002678,0.000431,0.021155
31747000,0.0324,0.013523,0.002678,0.000431,0.022683
31748000,0.0324,0.013523,0.002678,0.000431,0.022448
31749000,0.0324,0.013523,0.002678,0.000431,0.016924
31750000,0.0324,0.013523,0.002678,0.000431,0.017277
31751000,0.0324,0.013523,0.002678,0.000431,0.015514
31752000,0.0324,0.013523,0.002678,0.000431,0.014926
31753000,0.0324,0.013523,0.002678,0.000431,0.013751
31754000,0.0324,0.013523,0.002678,0.000431,0.011048
31755000,0.0324,0.013523,0.002678,0.000431,0.010578
31756000,0.0324,0.013523,0.002678,0.000431,0.010695
31757000,0.0324,0.013523,0.002678,0.000431,0.011283
31758000,0.0324,0.013523,0.002678,0.000431,0.011400
31759000,0.0324,0.013523,0.002678,0.000431,0.011870
31760000,0.0324,0.013523,0.002678,0.000431,0.009285
31761000,0.0324,0.013523,0.002678,0.000431,0.010578
31762000,0.0324,0.013523,0.002678,0.000431,0.009990
31763000,0.0324,0.013523,0.002678,0.000431,0.009872
31764000,0.0324,0.013523,0.002678,0.000431,0.009990
31765000,0.0324,0.013523,0.002678,0.000431,0.010225
31766000,0.0324,0.013523,0.002678,0.000431,0.009990
31767000,0.0324,0.013523,0.002678,0.000431,0.010107
31768000,0.0324,0.013523,0.002678,0.000431,0.009755
31769000,0.0324,0.013523,0.002678,0.000431,0.011518
31770000,0.0324,0.013523,0.002678,0.000431,0.009402
31771000,0.0324,0.013523,0.002678,0.000431,0.009050
31772000,0.0324,0.013523,0.002678,0.000431,0.009285
31773000,0.0324,0.013523,0.002678,0.000431,0.009402
31774000,0.0324,0.013523,0.002678,0.000431,0.008932
31775000,0.0324,0.013523,0.002678,0.000431,0.008932
31776000,0.0324,0.013523,0.002678,0.000431,0.009402
31777000,0.0324,0.013523,0.002678,0.000431,0.009167
31778000,0.0324,0.013523,0.002678,0.000431,0.009050
31779000,0.0324,0.013523,0.002678,0.000431,0.009050
31780000,0.0324,0.013523,0.002678,0.000431,0.009637
31781000,0.0324,0.013523,0.002678,0.000431,0.008815
31782000,0.0324,0.013523,0.002678,0.000431,0.007639
31783000,0.0324,0.013523,0.002678,0.000431,0.006934
31784000,0.0324,0.013523,0.002678,0.000431,0.009872
31785000,0.0324,0.013523,0.002678,0.000431,0.006699
31786000,0.0324,0.013523,0.002678,0.000431,0.006582
31787000,0.0324,0.013523,0.002678,0.000431,0.006699
31788000,0.0324,0.013523,0.002678,0.000431,0.008227
31789000,0.0324,0.013523,0.002678,0.000431,0.006229
31790000,0.0324,0.013523,0.002678,0.000431,0.005759
31791000,0.0324,0.013523,0.002678,0.000431,0.005641
31792000,0.0324,0.013523,0.002678,0.000431,0.006111
31793000,0.0324,0.013523,0.002678,0.000431,0.005524
31794000,0.0324,0.013523,0.002678,0.000431,0.009050
31795000,0.0324,0.013523,0.002678,0.000431,0.006347
31796000,0.0324,0.013523,0.002678,0.000431,0.007287
31797000,0.0324,0.013523,0.002678,0.000431,0.002938
31798000,0.0324,0.013523,0.002678,0.000431,0.002116
31799000,0.0324,0.013523,0.002678,0.000431,0.002821
31800000,0.0324,0.013523,0.002678,0.000431,0.002586
31801000,0.0324,0.013523,0.002678,0.000431,0.002233
31802000,0.0324,0.013523,0.002678,0.000431,0.002938
31803000,0.0324,0.013523,0.002678,0.000431,0.002116
31804000,0.0324,0.013523,0.002678,0.000431,0.002821
31805000,0.0324,0.013523,0.002678,0.000431,0.002351
31806000,0.0324,0.013523,0.002678,0.000431,0.002468
31807000,0.0324,0.013523,0.002678,0.000431,0.002821
31808000,0.0324,0.013523,0.002678,0.000431,0.002351
31809000,0.0324,0.013523,0.002678,0.000431,0.002351
31810000,0.0324,0.013523,0.002678,0.000431,0.002821
31811000,0.0324,0.013523,0.002678,0.000431,0.002116
31812000,0.0324,0.013523,0.002678,0.000431,0.002821
31813000,0.0324,0.013523,0.002678,0.000431,0.002468
31814000,0.0324,0.013523,0.002678,0.000431,0.002233
31815000,0.0324,0.013523,0.002678,0.000431,0.003056
31816000,0.0324,0.013523,0.002678,0.000431,0.001998
31817000,0.0324,0.013523,0.002678,0.000431,0.002938
31818000,0.0324,0.013523,0.002678,0.000431,0.002468
31819000,0.0324,0.013523,0.002678,0.000431,0.002233
31820000,0.0324,0.013523,0.002678,0.000431,0.002821
31821000,0.0324,0.013523,0.002678,0.000431,0.002233
31822000,0.0324,0.013523,0.002678,0.000431,0.002938
31823000,0.0324,0.013523,0.002678,0.000431,0.002351
31824000,0.0324,0.013523,0.002678,0.000431,0.002468
31825000,0.0324,0.013523,0.002678,0.000431,0.002703
31826000,0.0324,0.013523,0.002678,0.000431,0.002351
31827000,0.0324,0.013523,0.002678,0.000431,0.002586
31828000,0.0324,0.013523,0.002678,0.000431,0.002586
31829000,0.0324,0.013523,0.002678,0.000431,0.002233
31830000,0.0324,0.013523,0.002678,0.000431,0.002703
31831000,0.0324,0.013523,0.002678,0.000431,0.002351
31832000,0.0324,0.013523,0.002678,0.000431,0.002586
31833000,0.0324,0.013523,0.002678,0.000431,0.002821
31834000,0.0324,0.013523,0.002678,0.000431,0.001998
31835000,0.0324,0.013523,0.002678,0.000431,0.002938
31836000,0.0324,0.013523,0.002678,0.000431,0.002233
31837000,0.0324,0.013523,0.002678,0.000431,0.002703
31838000,0.0324,0.013523,0.002678,0.000431,0.002586
31839000,0.0324,0.013523,0.002678,0.000431,0.002351
31840000,0.0324,0.013523,0.002678,0.000431,0.002821
31841000,0.0324,0.013523,0.002678,0.000431,0.002233
31842000,0.0324,0.013523,0.002678,0.000431,0.002703
31843000,0.0324,0.013523,0.002678,0.000431,0.002586
31844000,0.0324,0.013523,0.002678,0.000431,0.002351
31845000,0.0324,0.013523,0.002678,0.000431,0.002703
31846000,0.0324,0.013523,0.002678,0.000431,0.002351
31847000,0.0324,0.013523,0.002678,0.000431,0.002468
31848000,0.0324,0.013523,0.002678,0.000431,0.002586
31849000,0.0324,0.013523,0.002678,0.000431,0.002351
31850000,0.0324,0.013523,0.002678,0.000431,0.002703
31851000,0.0324,0.013523,0.002678,0.000431,0.002468
31852000,0.0324,0.013523,0.002678,0.000431,0.002351
31853000,0.0324,0.013523,0.002678,0.000431,0.002938
31854000,0.0324,0.013523,0.002678,0.000431,0.002233
31855000,0.0324,0.013523,0.002678,0.000431,0.002821
31856000,0.0324,0.013523,0.002678,0.000431,0.002233
31857000,0.0324,0.013523,0.002678,0.000431,0.002468
31858000,0.0324,0.013523,0.002678,0.000431,0.002703
31859000,0.0324,0.013523,0.002678,0.000431,0.002233
31860000,0.0324,0.013523,0.002678,0.000431,0.003056
31861000,0.0324,0.013523,0.002678,0.000431,0.002233
31862000,0.0324,0.013523,0.002678,0.000431,0.002468
31863000,0.0324,0.013523,0.002678,0.000431,0.002821
31864000,0.0324,0.013523,0.002678,0.000431,0.002116
31865000,0.0324,0.013523,0.002678,0.000431,0.002821
31866000,0.0324,0.013523,0.002678,0.000431,0.002468
31867000,0.0324,0.013523,0.002678,0.000431,0.002233
31868000,0.0324,0.013523,0.002678,0.000431,0.002821
31869000,0.0324,0.013523,0.002678,0.000431,0.002468
31870000,0.0324,0.013523,0.002678,0.000431,0.002351
31871000,0.0324,0.013523,0.002678,0.000431,0.002938
31872000,0.0324,0.013523,0.002678,0.000431,0.001880
31873000,0.0324,0.013523,0.002678,0.000431,0.003056
31874000,0.0324,0.013523,0.002678,0.000431,0.002116
31875000,0.0324,0.013523,0.002678,0.000431,0.002703
31876000,0.0324,0.013523,0.002678,0.000431,0.002938
31877000,0.0324,0.013523,0.002678,0.000431,0.001998
31878000,0.0324,0.013523,0.002678,0.000431,0.002938
31879000,0.0324,0.013523,0.002678,0.000431,0.002116
31880000,0.0324,0.013523,0.002678,0.000431,0.002703
31881000,0.0324,0.013523,0.002678,0.000431,0.002703
31882000,0.0324,0.013523,0.002678,0.000431,0.002233
31883000,0.0324,0.013523,0.002678,0.000431,0.002703
31884000,0.0324,0.013523,0.002678,0.000431,0.002468
31885000,0.0324,0.013523,0.002678,0.000431,0.002351
31886000,0.0324,0.013523,0.002678,0.000431,0.002703
31887000,0.0324,0.013523,0.002678,0.000431,0.002233
31888000,0.0324,0.013523,0.002678,0.000431,0.002703
31889000,0.0324,0.013523,0.002678,0.000431,0.002586
31890000,0.0324,0.013523,0.002678,0.000431,0.002233
31891000,0.0324,0.013523,0.002678,0.000431,0.002938
31892000,0.0324,0.013523,0.002678,0.000431,0.002351
31893000,0.0324,0.013523,0.002678,0.000431,0.002586
31894000,0.0324,0.013523,0.002678,0.000431,0.002468
31895000,0.0324,0.013523,0.002678,0.000431,0.002351
31896000,0.0324,0.013523,0.002678,0.000431,0.002938
31897000,0.0324,0.013523,0.002678,0.000431,0.002116
31898000,0.0324,0.013523,0.002678,0.000431,0.002938
31899000,0.0324,0.013523,0.002678,0.000431,0.002351
31900000,0.0324,0.013523,0.002678,0.000431,0.002468
31901000,0.0324,0.013523,0.002678,0.000431,0.002586
31902000,0.0324,0.013523,0.002678,0.000431,0.002351
31903000,0.0324,0.013523,0.002678,0.000431,0.002703
31904000,0.0324,0.013523,0.002678,0.000431,0.002468
31905000,0.0324,0.013523,0.002678,0.000431,0.002586
31906000,0.0324,0.013523,0.002678,0.000431,0.002468
31907000,0.0324,0.013523,0.002678,0.000431,0.002468
31908000,0.0324,0.013523,0.002678,0.000431,0.002351
31909000,0.0324,0.013523,0.002678,0.000431,0.002821
31910000,0.0324,0.013523,0.002678,0.000431,0.002351
31911000,0.0324,0.013523,0.002678,0.000431,0.002703
31912000,0.0324,0.013523,0.002678,0.000431,0.002116
31913000,0.0324,0.013523,0.002678,0.000431,0.002821
31914000,0.0324,0.013523,0.002678,0.000431,0.002821
31915000,0.0324,0.013523,0.002678,0.000431,0.001998
31916000,0.0324,0.013523,0.002678,0.000431,0.002351
31917000,0.0324,0.013523,0.002678,0.000431,0.001645
31918000,0.0324,0.013523,0.002678,0.000431,0.001998
31919000,0.0324,0.013523,0.002678,0.000431,0.001763
31920000,0.0324,0.013523,0.002678,0.000431,0.001645
31921000,0.0324,0.013523,0.002678,0.000431,0.001998
31922000,0.0324,0.013523,0.002678,0.000431,0.001528
31923000,0.0324,0.013523,0.002678,0.000431,0.001998
31924000,0.0324,0.013523,0.002678,0.000431,0.001763
31925000,0.0324,0.013523,0.002678,0.000431,0.001880
31926000,0.0324,0.013523,0.002678,0.000431,0.001763
31927000,0.0324,0.013523,0.002678,0.000431,0.001880
31928000,0.0324,0.013523,0.002678,0.000431,0.001645
31929000,0.0324,0.013523,0.002678,0.000431,0.002116
31930000,0.0324,0.013523,0.002678,0.000431,0.001528
31931000,0.0324,0.013523,0.002678,0.000431,0.001880
31932000,0.0324,0.013523,0.002678,0.000431,0.001880
31933000,0.0324,0.013523,0.002678,0.000431,0.001645
31934000,0.0324,0.013523,0.002678,0.000431,0.001998
31935000,0.0324,0.013523,0.002678,0.000431,0.001645
31936000,0.0324,0.013523,0.002678,0.000431,0.001880
31937000,0.0324,0.013523,0.002678,0.000431,0.001880
31938000,0.0324,0.013523,0.002678,0.000431,0.001763
31939000,0.0324,0.013523,0.002678,0.000431,0.001763
31940000,0.0324,0.013523,0.002678,0.000431,0.001998
31941000,0.0324,0.013523,0.002678,0.000431,0.001528
31942000,0.0324,0.013523,0.002678,0.000431,0.001998
31943000,0.0324,0.013523,0.002678,0.000431,0.001763
31944000,0.0324,0.013523,0.002678,0.000431,0.001645
31945000,0.0324,0.013523,0.002678,0.000431,0.002703
31946000,0.0324,0.013523,0.002678,0.000431,0.001645
31947000,0.0324,0.013523,0.002678,0.000431,0.001058
31948000,0.0324,0.013523,0.002678,0.000431,0.000823
31949000,0.0324,0.013523,0.002678,0.000431,0.001058
31950000,0.0324,0.013523,0.002678,0.000431,0.001058
31951000,0.0324,0.013523,0.002678,0.000431,0.000705
31952000,0.0324,0.013523,0.002678,0.000431,0.001175
31953000,0.0324,0.013523,0.002678,0.000431,0.000940
31954000,0.0324,0.013523,0.002678,0.000431,0.001058
31955000,0.0324,0.013523,0.002678,0.000431,0.000823
31956000,0.0324,0.013523,0.002678,0.000431,0.071105
31957000,0.0324,0.013523,0.002678,0.000431,0.528642
31958000,0.0324,0.013523,0.002678,0.000431,0.581412
31959000,0.0324,0.013523,0.002678,0.000431,0.132102
31960000,0.0324,0.013523,0.002678,0.000431,0.133042
31961000,0.0324,0.013523,0.002678,0.000431,0.556966
31962000,0.0324,0.013523,0.002678,0.000431,0.224009
31963000,0.0324,0.013523,0.002678,0.000431,0.250570
31964000,0.0324,0.013523,0.002678,0.000431,0.309334
31965000,0.0324,0.013523,0.002678,0.000431,0.141739
31966000,0.0324,0.013523,0.002678,0.000431,0.160779
31967000,0.0324,0.013523,0.002678,0.000431,0.125520
31968000,0.0324,0.013523,0.002678,0.000431,0.250335
31969000,0.0324,0.013523,0.002678,0.000431,0.374680
31970000,0.0324,0.013523,0.002678,0.000431,0.068049
31971000,0.0324,0.013523,0.002678,0.000431,0.064641
31972000,0.0324,0.013523,0.002678,0.000431,0.057589
31973000,0.0324,0.013523,0.002678,0.000431,0.051830
31974000,0.0324,0.013523,0.002678,0.000431,0.055943
31975000,0.0324,0.013523,0.002678,0.000431,0.036669
31976000,0.0324,0.013523,0.002678,0.000431,0.038079
31977000,0.0324,0.013523,0.002678,0.000431,0.036434
31978000,0.0324,0.013523,0.002678,0.000431,0.030792
31979000,0.0324,0.013523,0.002678,0.000431,0.034788
31980000,0.0324,0.013523,0.002678,0.000431,0.033496
31981000,0.0324,0.013523,0.002678,0.000431,0.029852
31982000,0.0324,0.013523,0.002678,0.000431,0.029265
31983000,0.0324,0.013523,0.002678,0.000431,0.024328
31984000,0.0324,0.013523,0.002678,0.000431,0.025504
31985000,0.0324,0.013523,0.002678,0.000431,0.024211
31986000,0.0324,0.013523,0.002678,0.000431,0.022683
31987000,0.0324,0.013523,0.002678,0.000431,0.023858
31988000,0.0324,0.013523,0.002678,0.000431,0.022330
31989000,0.0324,0.013523,0.002678,0.000431,0.022330
31990000,0.0324,0.013523,0.002678,0.000431,0.016689
31991000,0.0324,0.013523,0.002678,0.000431,0.016807
31992000,0.0324,0.013523,0.002678,0.000431,0.015161
31993000,0.0324,0.013523,0.002678,0.000431,0.012811
31994000,0.0324,0.013523,0.002678,0.000431,0.012576
31995000,0.0324,0.013523,0.002678,0.000431,0.010107
31996000,0.0324,0.013523,0.002678,0.000431,0.007639
31997000,0.0324,0.013523,0.002678,0.000431,0.006699
31998000,0.0324,0.013523,0.002678,0.000431,0.006347
31999000,0.0324,0.013523,0.002678,0.000431,0.004349
