Cycle,Area(mm^2),PeakDynamic(W),SubthresholdLeakage(W),GateLeakage(W),RunTimeDynamic(W)
10000000,0.0324,0.013523,0.002678,0.000431,0.001645
10001000,0.0324,0.013523,0.002678,0.000431,0.001645
10002000,0.0324,0.013523,0.002678,0.000431,0.001645
10003000,0.0324,0.013523,0.002678,0.000431,0.001645
10004000,0.0324,0.013523,0.002678,0.000431,0.001645
10005000,0.0324,0.013523,0.002678,0.000431,0.001645
10006000,0.0324,0.013523,0.002678,0.000431,0.002351
10007000,0.0324,0.013523,0.002678,0.000431,0.310157
10008000,0.0324,0.013523,0.002678,0.000431,0.654279
10009000,0.0324,0.013523,0.002678,0.000431,0.159133
10010000,0.0324,0.013523,0.002678,0.000431,0.133042
10011000,0.0324,0.013523,0.002678,0.000431,0.132102
10012000,0.0324,0.013523,0.002678,0.000431,0.595633
10013000,0.0324,0.013523,0.002678,0.000431,0.229180
10014000,0.0324,0.013523,0.002678,0.000431,0.245751
10015000,0.0324,0.013523,0.002678,0.000431,0.271373
10016000,0.0324,0.013523,0.002678,0.000431,0.138683
10017000,0.0324,0.013523,0.002678,0.000431,0.138566
10018000,0.0324,0.013523,0.002678,0.000431,0.142797
10019000,0.0324,0.013523,0.002678,0.000431,0.235644
10020000,0.0324,0.013523,0.002678,0.000431,0.351762
10021000,0.0324,0.013523,0.002678,0.000431,0.015631
10022000,0.0324,0.013523,0.002678,0.000431,0.015984
10023000,0.0324,0.013523,0.002678,0.000431,0.013163
10024000,0.0324,0.013523,0.002678,0.000431,0.011635
10025000,0.0324,0.013523,0.002678,0.000431,0.009285
10026000,0.0324,0.013523,0.002678,0.000431,0.008697
10027000,0.0324,0.013523,0.002678,0.000431,0.008227
10028000,0.0324,0.013523,0.002678,0.000431,0.007287
10029000,0.0324,0.013523,0.002678,0.000431,0.005406
10030000,0.0324,0.013523,0.002678,0.000431,0.005994
10031000,0.0324,0.013523,0.002678,0.000431,0.005171
10032000,0.0324,0.013523,0.002678,0.000431,0.005524
10033000,0.0324,0.013523,0.002678,0.000431,0.003643
10034000,0.0324,0.013523,0.002678,0.000431,0.003526
10035000,0.0324,0.013523,0.002678,0.000431,0.003408
10036000,0.0324,0.013523,0.002678,0.000431,0.003526
10037000,0.0324,0.013523,0.002678,0.000431,0.003526
10038000,0.0324,0.013523,0.002678,0.000431,0.003526
10039000,0.0324,0.013523,0.002678,0.000431,0.003643
10040000,0.0324,0.013523,0.002678,0.000431,0.003526
10041000,0.0324,0.013523,0.002678,0.000431,0.003408
10042000,0.0324,0.013523,0.002678,0.000431,0.003408
10043000,0.0324,0.013523,0.002678,0.000431,0.003643
10044000,0.0324,0.013523,0.002678,0.000431,0.003408
10045000,0.0324,0.013523,0.002678,0.000431,0.005289
10046000,0.0324,0.013523,0.002678,0.000431,0.002703
10047000,0.0324,0.013523,0.002678,0.000431,0.002586
10048000,0.0324,0.013523,0.002678,0.000431,0.002703
10049000,0.0324,0.013523,0.002678,0.000431,0.002586
10050000,0.0324,0.013523,0.002678,0.000431,0.002703
10051000,0.0324,0.013523,0.002678,0.000431,0.002586
10052000,0.0324,0.013523,0.002678,0.000431,0.002586
10053000,0.0324,0.013523,0.002678,0.000431,0.002703
10054000,0.0324,0.013523,0.002678,0.000431,0.002586
10055000,0.0324,0.013523,0.002678,0.000431,0.002703
10056000,0.0324,0.013523,0.002678,0.000431,0.002468
10057000,0.0324,0.013523,0.002678,0.000431,0.002821
10058000,0.0324,0.013523,0.002678,0.000431,0.002586
10059000,0.0324,0.013523,0.002678,0.000431,0.002586
10060000,0.0324,0.013523,0.002678,0.000431,0.002586
10061000,0.0324,0.013523,0.002678,0.000431,0.002703
10062000,0.0324,0.013523,0.002678,0.000431,0.002703
10063000,0.0324,0.013523,0.002678,0.000431,0.002586
10064000,0.0324,0.013523,0.002678,0.000431,0.002586
10065000,0.0324,0.013523,0.002678,0.000431,0.002703
10066000,0.0324,0.013523,0.002678,0.000431,0.002586
10067000,0.0324,0.013523,0.002678,0.000431,0.002703
10068000,0.0324,0.013523,0.002678,0.000431,0.002468
10069000,0.0324,0.013523,0.002678,0.000431,0.002703
10070000,0.0324,0.013523,0.002678,0.000431,0.002586
10071000,0.0324,0.013523,0.002678,0.000431,0.002703
10072000,0.0324,0.013523,0.002678,0.000431,0.002703
10073000,0.0324,0.013523,0.002678,0.000431,0.002586
10074000,0.0324,0.013523,0.002678,0.000431,0.002586
10075000,0.0324,0.013523,0.002678,0.000431,0.002586
10076000,0.0324,0.013523,0.002678,0.000431,0.002703
10077000,0.0324,0.013523,0.002678,0.000431,0.002703
10078000,0.0324,0.013523,0.002678,0.000431,0.002586
10079000,0.0324,0.013523,0.002678,0.000431,0.002586
10080000,0.0324,0.013523,0.002678,0.000431,0.002703
10081000,0.0324,0.013523,0.002678,0.000431,0.002703
10082000,0.0324,0.013523,0.002678,0.000431,0.002468
10083000,0.0324,0.013523,0.002678,0.000431,0.002586
10084000,0.0324,0.013523,0.002678,0.000431,0.002821
10085000,0.0324,0.013523,0.002678,0.000431,0.002468
10086000,0.0324,0.013523,0.002678,0.000431,0.002703
10087000,0.0324,0.013523,0.002678,0.000431,0.002586
10088000,0.0324,0.013523,0.002678,0.000431,0.002703
10089000,0.0324,0.013523,0.002678,0.000431,0.002586
10090000,0.0324,0.013523,0.002678,0.000431,0.002586
10091000,0.0324,0.013523,0.002678,0.000431,0.003526
10092000,0.0324,0.013523,0.002678,0.000431,0.004584
10093000,0.0324,0.013523,0.002678,0.000431,0.000940
10094000,0.0324,0.013523,0.002678,0.000431,0.000823
10095000,0.0324,0.013523,0.002678,0.000431,0.000940
10096000,0.0324,0.013523,0.002678,0.000431,0.000940
10097000,0.0324,0.013523,0.002678,0.000431,0.000705
10098000,0.0324,0.013523,0.002678,0.000431,0.000940
10099000,0.0324,0.013523,0.002678,0.000431,0.000940
10100000,0.0324,0.013523,0.002678,0.000431,0.000940
10101000,0.0324,0.013523,0.002678,0.000431,0.000823
10102000,0.0324,0.013523,0.002678,0.000431,0.000823
10103000,0.0324,0.013523,0.002678,0.000431,0.000940
10104000,0.0324,0.013523,0.002678,0.000431,0.000823
10105000,0.0324,0.013523,0.002678,0.000431,0.000940
10106000,0.0324,0.013523,0.002678,0.000431,0.000823
10107000,0.0324,0.013523,0.002678,0.000431,0.000940
10108000,0.0324,0.013523,0.002678,0.000431,0.000823
10109000,0.0324,0.013523,0.002678,0.000431,0.000823
10110000,0.0324,0.013523,0.002678,0.000431,0.000940
10111000,0.0324,0.013523,0.002678,0.000431,0.000940
10112000,0.0324,0.013523,0.002678,0.000431,0.000823
10113000,0.0324,0.013523,0.002678,0.000431,0.000823
10114000,0.0324,0.013523,0.002678,0.000431,0.000940
10115000,0.0324,0.013523,0.002678,0.000431,0.000940
10116000,0.0324,0.013523,0.002678,0.000431,0.000705
10117000,0.0324,0.013523,0.002678,0.000431,0.000940
10118000,0.0324,0.013523,0.002678,0.000431,0.000940
10119000,0.0324,0.013523,0.002678,0.000431,0.152552
10120000,0.0324,0.013523,0.002678,0.000431,0.418165
10121000,0.0324,0.013523,0.002678,0.000431,0.531110
10122000,0.0324,0.013523,0.002678,0.000431,0.134922
10123000,0.0324,0.013523,0.002678,0.000431,0.130691
10124000,0.0324,0.013523,0.002678,0.000431,0.573655
10125000,0.0324,0.013523,0.002678,0.000431,0.290295
10126000,0.0324,0.013523,0.002678,0.000431,0.222951
10127000,0.0324,0.013523,0.002678,0.000431,0.289354
10128000,0.0324,0.013523,0.002678,0.000431,0.137978
10129000,0.0324,0.013523,0.002678,0.000431,0.144207
10130000,0.0324,0.013523,0.002678,0.000431,0.120701
10131000,0.0324,0.013523,0.002678,0.000431,0.314976
10132000,0.0324,0.013523,0.002678,0.000431,0.259150
10133000,0.0324,0.013523,0.002678,0.000431,0.007757
10134000,0.0324,0.013523,0.002678,0.000431,0.006934
10135000,0.0324,0.013523,0.002678,0.000431,0.008815
10136000,0.0324,0.013523,0.002678,0.000431,0.007757
10137000,0.0324,0.013523,0.002678,0.000431,0.006229
10138000,0.0324,0.013523,0.002678,0.000431,0.009167
10139000,0.0324,0.013523,0.002678,0.000431,0.004936
10140000,0.0324,0.013523,0.002678,0.000431,0.005289
10141000,0.0324,0.013523,0.002678,0.000431,0.004936
10142000,0.0324,0.013523,0.002678,0.000431,0.004936
10143000,0.0324,0.013523,0.002678,0.000431,0.006464
10144000,0.0324,0.013523,0.002678,0.000431,0.004231
10145000,0.0324,0.013523,0.002678,0.000431,0.004113
10146000,0.0324,0.013523,0.002678,0.000431,0.003996
10147000,0.0324,0.013523,0.002678,0.000431,0.005406
10148000,0.0324,0.013523,0.002678,0.000431,0.002586
10149000,0.0324,0.013523,0.002678,0.000431,0.002468
10150000,0.0324,0.013523,0.002678,0.000431,0.002351
10151000,0.0324,0.013523,0.002678,0.000431,0.002468
10152000,0.0324,0.013523,0.002678,0.000431,0.002351
10153000,0.0324,0.013523,0.002678,0.000431,0.002586
10154000,0.0324,0.013523,0.002678,0.000431,0.002351
10155000,0.0324,0.013523,0.002678,0.000431,0.002468
10156000,0.0324,0.013523,0.002678,0.000431,0.002703
10157000,0.0324,0.013523,0.002678,0.000431,0.002116
10158000,0.0324,0.013523,0.002678,0.000431,0.002821
10159000,0.0324,0.013523,0.002678,0.000431,0.003173
10160000,0.0324,0.013523,0.002678,0.000431,0.002586
10161000,0.0324,0.013523,0.002678,0.000431,0.001763
10162000,0.0324,0.013523,0.002678,0.000431,0.001293
10163000,0.0324,0.013523,0.002678,0.000431,0.001880
10164000,0.0324,0.013523,0.002678,0.000431,0.001410
10165000,0.0324,0.013523,0.002678,0.000431,0.001645
10166000,0.0324,0.013523,0.002678,0.000431,0.001410
10167000,0.0324,0.013523,0.002678,0.000431,0.001645
10168000,0.0324,0.013523,0.002678,0.000431,0.001645
10169000,0.0324,0.013523,0.002678,0.000431,0.001645
10170000,0.0324,0.013523,0.002678,0.000431,0.001410
10171000,0.0324,0.013523,0.002678,0.000431,0.001645
10172000,0.0324,0.013523,0.002678,0.000431,0.001293
10173000,0.0324,0.013523,0.002678,0.000431,0.001763
10174000,0.0324,0.013523,0.002678,0.000431,0.001880
10175000,0.0324,0.013523,0.002678,0.000431,0.001175
10176000,0.0324,0.013523,0.002678,0.000431,0.001880
10177000,0.0324,0.013523,0.002678,0.000431,0.001293
10178000,0.0324,0.013523,0.002678,0.000431,0.001763
10179000,0.0324,0.013523,0.002678,0.000431,0.001645
10180000,0.0324,0.013523,0.002678,0.000431,0.001410
10181000,0.0324,0.013523,0.002678,0.000431,0.001645
10182000,0.0324,0.013523,0.002678,0.000431,0.001528
10183000,0.0324,0.013523,0.002678,0.000431,0.001763
10184000,0.0324,0.013523,0.002678,0.000431,0.001410
10185000,0.0324,0.013523,0.002678,0.000431,0.001645
10186000,0.0324,0.013523,0.002678,0.000431,0.001645
10187000,0.0324,0.013523,0.002678,0.000431,0.001410
10188000,0.0324,0.013523,0.002678,0.000431,0.001645
10189000,0.0324,0.013523,0.002678,0.000431,0.001645
10190000,0.0324,0.013523,0.002678,0.000431,0.001410
10191000,0.0324,0.013523,0.002678,0.000431,0.001645
10192000,0.0324,0.013523,0.002678,0.000431,0.001410
10193000,0.0324,0.013523,0.002678,0.000431,0.001645
10194000,0.0324,0.013523,0.002678,0.000431,0.001880
10195000,0.0324,0.013523,0.002678,0.000431,0.001175
10196000,0.0324,0.013523,0.002678,0.000431,0.001880
10197000,0.0324,0.013523,0.002678,0.000431,0.001410
10198000,0.0324,0.013523,0.002678,0.000431,0.001645
10199000,0.0324,0.013523,0.002678,0.000431,0.001645
10200000,0.0324,0.013523,0.002678,0.000431,0.001410
10201000,0.0324,0.013523,0.002678,0.000431,0.001880
10202000,0.0324,0.013523,0.002678,0.000431,0.001410
10203000,0.0324,0.013523,0.002678,0.000431,0.001645
10204000,0.0324,0.013523,0.002678,0.000431,0.001410
10205000,0.0324,0.013523,0.002678,0.000431,0.001645
10206000,0.0324,0.013523,0.002678,0.000431,0.001528
10207000,0.0324,0.013523,0.002678,0.000431,0.001763
10208000,0.0324,0.013523,0.002678,0.000431,0.001410
10209000,0.0324,0.013523,0.002678,0.000431,0.001645
10210000,0.0324,0.013523,0.002678,0.000431,0.001293
10211000,0.0324,0.013523,0.002678,0.000431,0.001763
10212000,0.0324,0.013523,0.002678,0.000431,0.001880
10213000,0.0324,0.013523,0.002678,0.000431,0.001645
10214000,0.0324,0.013523,0.002678,0.000431,0.001410
10215000,0.0324,0.013523,0.002678,0.000431,0.001645
10216000,0.0324,0.013523,0.002678,0.000431,0.001880
10217000,0.0324,0.013523,0.002678,0.000431,0.001410
10218000,0.0324,0.013523,0.002678,0.000431,0.001645
10219000,0.0324,0.013523,0.002678,0.000431,0.001880
10220000,0.0324,0.013523,0.002678,0.000431,0.001645
10221000,0.0324,0.013523,0.002678,0.000431,0.121054
10222000,0.0324,0.013523,0.002678,0.000431,0.429918
10223000,0.0324,0.013523,0.002678,0.000431,0.535693
10224000,0.0324,0.013523,0.002678,0.000431,0.134452
10225000,0.0324,0.013523,0.002678,0.000431,0.131279
10226000,0.0324,0.013523,0.002678,0.000431,0.562960
10227000,0.0324,0.013523,0.002678,0.000431,0.234116
10228000,0.0324,0.013523,0.002678,0.000431,0.237289
10229000,0.0324,0.013523,0.002678,0.000431,0.347061
10230000,0.0324,0.013523,0.002678,0.000431,0.137861
10231000,0.0324,0.013523,0.002678,0.000431,0.146323
10232000,0.0324,0.013523,0.002678,0.000431,0.119526
10233000,0.0324,0.013523,0.002678,0.000431,0.285476
10234000,0.0324,0.013523,0.002678,0.000431,0.285829
10235000,0.0324,0.013523,0.002678,0.000431,0.004936
10236000,0.0324,0.013523,0.002678,0.000431,0.005994
10237000,0.0324,0.013523,0.002678,0.000431,0.003291
10238000,0.0324,0.013523,0.002678,0.000431,0.003526
10239000,0.0324,0.013523,0.002678,0.000431,0.003761
10240000,0.0324,0.013523,0.002678,0.000431,0.003643
10241000,0.0324,0.013523,0.002678,0.000431,0.002938
10242000,0.0324,0.013523,0.002678,0.000431,0.003761
10243000,0.0324,0.013523,0.002678,0.000431,0.003761
10244000,0.0324,0.013523,0.002678,0.000431,0.004113
10245000,0.0324,0.013523,0.002678,0.000431,0.003291
10246000,0.0324,0.013523,0.002678,0.000431,0.004584
10247000,0.0324,0.013523,0.002678,0.000431,0.001880
10248000,0.0324,0.013523,0.002678,0.000431,0.001763
10249000,0.0324,0.013523,0.002678,0.000431,0.001645
10250000,0.0324,0.013523,0.002678,0.000431,0.001763
10251000,0.0324,0.013523,0.002678,0.000431,0.001763
10252000,0.0324,0.013523,0.002678,0.000431,0.001763
10253000,0.0324,0.013523,0.002678,0.000431,0.001645
10254000,0.0324,0.013523,0.002678,0.000431,0.001880
10255000,0.0324,0.013523,0.002678,0.000431,0.001880
10256000,0.0324,0.013523,0.002678,0.000431,0.001645
10257000,0.0324,0.013523,0.002678,0.000431,0.001763
10258000,0.0324,0.013523,0.002678,0.000431,0.001763
10259000,0.0324,0.013523,0.002678,0.000431,0.001763
10260000,0.0324,0.013523,0.002678,0.000431,0.001645
10261000,0.0324,0.013523,0.002678,0.000431,0.001880
10262000,0.0324,0.013523,0.002678,0.000431,0.001763
10263000,0.0324,0.013523,0.002678,0.000431,0.001763
10264000,0.0324,0.013523,0.002678,0.000431,0.001645
10265000,0.0324,0.013523,0.002678,0.000431,0.001763
10266000,0.0324,0.013523,0.002678,0.000431,0.001763
10267000,0.0324,0.013523,0.002678,0.000431,0.001880
10268000,0.0324,0.013523,0.002678,0.000431,0.001528
10269000,0.0324,0.013523,0.002678,0.000431,0.001880
10270000,0.0324,0.013523,0.002678,0.000431,0.003173
10271000,0.0324,0.013523,0.002678,0.000431,0.000940
10272000,0.0324,0.013523,0.002678,0.000431,0.000940
10273000,0.0324,0.013523,0.002678,0.000431,0.000940
10274000,0.0324,0.013523,0.002678,0.000431,0.000823
10275000,0.0324,0.013523,0.002678,0.000431,0.000823
10276000,0.0324,0.013523,0.002678,0.000431,0.000940
10277000,0.0324,0.013523,0.002678,0.000431,0.000940
10278000,0.0324,0.013523,0.002678,0.000431,0.000705
10279000,0.0324,0.013523,0.002678,0.000431,0.000940
10280000,0.0324,0.013523,0.002678,0.000431,0.000940
10281000,0.0324,0.013523,0.002678,0.000431,0.000940
10282000,0.0324,0.013523,0.002678,0.000431,0.000823
10283000,0.0324,0.013523,0.002678,0.000431,0.000823
10284000,0.0324,0.013523,0.002678,0.000431,0.000940
10285000,0.0324,0.013523,0.002678,0.000431,0.000823
10286000,0.0324,0.013523,0.002678,0.000431,0.000940
10287000,0.0324,0.013523,0.002678,0.000431,0.000823
10288000,0.0324,0.013523,0.002678,0.000431,0.000940
10289000,0.0324,0.013523,0.002678,0.000431,0.000823
10290000,0.0324,0.013523,0.002678,0.000431,0.000823
10291000,0.0324,0.013523,0.002678,0.000431,0.000940
10292000,0.0324,0.013523,0.002678,0.000431,0.000940
10293000,0.0324,0.013523,0.002678,0.000431,0.000705
10294000,0.0324,0.013523,0.002678,0.000431,0.000940
10295000,0.0324,0.013523,0.002678,0.000431,0.000940
10296000,0.0324,0.013523,0.002678,0.000431,0.000940
10297000,0.0324,0.013523,0.002678,0.000431,0.000705
10298000,0.0324,0.013523,0.002678,0.000431,0.000940
10299000,0.0324,0.013523,0.002678,0.000431,0.000940
10300000,0.0324,0.013523,0.002678,0.000431,0.000823
10301000,0.0324,0.013523,0.002678,0.000431,0.000823
10302000,0.0324,0.013523,0.002678,0.000431,0.000940
10303000,0.0324,0.013523,0.002678,0.000431,0.000940
10304000,0.0324,0.013523,0.002678,0.000431,0.000823
10305000,0.0324,0.013523,0.002678,0.000431,0.000823
10306000,0.0324,0.013523,0.002678,0.000431,0.000940
10307000,0.0324,0.013523,0.002678,0.000431,0.000823
10308000,0.0324,0.013523,0.002678,0.000431,0.000940
10309000,0.0324,0.013523,0.002678,0.000431,0.000823
10310000,0.0324,0.013523,0.002678,0.000431,0.000940
10311000,0.0324,0.013523,0.002678,0.000431,0.000823
10312000,0.0324,0.013523,0.002678,0.000431,0.000823
10313000,0.0324,0.013523,0.002678,0.000431,0.000940
10314000,0.0324,0.013523,0.002678,0.000431,0.000940
10315000,0.0324,0.013523,0.002678,0.000431,0.000940
10316000,0.0324,0.013523,0.002678,0.000431,0.000705
10317000,0.0324,0.013523,0.002678,0.000431,0.000940
10318000,0.0324,0.013523,0.002678,0.000431,0.000940
10319000,0.0324,0.013523,0.002678,0.000431,0.000823
10320000,0.0324,0.013523,0.002678,0.000431,0.000823
10321000,0.0324,0.013523,0.002678,0.000431,0.000940
10322000,0.0324,0.013523,0.002678,0.000431,0.000940
10323000,0.0324,0.013523,0.002678,0.000431,0.000823
10324000,0.0324,0.013523,0.002678,0.000431,0.000823
10325000,0.0324,0.013523,0.002678,0.000431,0.000940
10326000,0.0324,0.013523,0.002678,0.000431,0.000823
10327000,0.0324,0.013523,0.002678,0.000431,0.000940
10328000,0.0324,0.013523,0.002678,0.000431,0.000823
10329000,0.0324,0.013523,0.002678,0.000431,0.000940
10330000,0.0324,0.013523,0.002678,0.000431,0.000823
10331000,0.0324,0.013523,0.002678,0.000431,0.000823
10332000,0.0324,0.013523,0.002678,0.000431,0.000940
10333000,0.0324,0.013523,0.002678,0.000431,0.000940
10334000,0.0324,0.013523,0.002678,0.000431,0.000823
10335000,0.0324,0.013523,0.002678,0.000431,0.000823
10336000,0.0324,0.013523,0.002678,0.000431,0.000940
10337000,0.0324,0.013523,0.002678,0.000431,0.000940
10338000,0.0324,0.013523,0.002678,0.000431,0.000705
10339000,0.0324,0.013523,0.002678,0.000431,0.000940
10340000,0.0324,0.013523,0.002678,0.000431,0.000940
10341000,0.0324,0.013523,0.002678,0.000431,0.000823
10342000,0.0324,0.013523,0.002678,0.000431,0.000940
10343000,0.0324,0.013523,0.002678,0.000431,0.000823
10344000,0.0324,0.013523,0.002678,0.000431,0.000940
10345000,0.0324,0.013523,0.002678,0.000431,0.000823
10346000,0.0324,0.013523,0.002678,0.000431,0.000823
10347000,0.0324,0.013523,0.002678,0.000431,0.000940
10348000,0.0324,0.013523,0.002678,0.000431,0.000940
10349000,0.0324,0.013523,0.002678,0.000431,0.000823
10350000,0.0324,0.013523,0.002678,0.000431,0.000823
10351000,0.0324,0.013523,0.002678,0.000431,0.000940
10352000,0.0324,0.013523,0.002678,0.000431,0.000940
10353000,0.0324,0.013523,0.002678,0.000431,0.000705
10354000,0.0324,0.013523,0.002678,0.000431,0.000940
10355000,0.0324,0.013523,0.002678,0.000431,0.000940
10356000,0.0324,0.013523,0.002678,0.000431,0.000940
10357000,0.0324,0.013523,0.002678,0.000431,0.000705
10358000,0.0324,0.013523,0.002678,0.000431,0.000940
10359000,0.0324,0.013523,0.002678,0.000431,0.000940
10360000,0.0324,0.013523,0.002678,0.000431,0.000823
10361000,0.0324,0.013523,0.002678,0.000431,0.000823
10362000,0.0324,0.013523,0.002678,0.000431,0.000940
10363000,0.0324,0.013523,0.002678,0.000431,0.000940
10364000,0.0324,0.013523,0.002678,0.000431,0.000823
10365000,0.0324,0.013523,0.002678,0.000431,0.000823
10366000,0.0324,0.013523,0.002678,0.000431,0.000940
10367000,0.0324,0.013523,0.002678,0.000431,0.000823
10368000,0.0324,0.013523,0.002678,0.000431,0.000940
10369000,0.0324,0.013523,0.002678,0.000431,0.000823
10370000,0.0324,0.013523,0.002678,0.000431,0.000940
10371000,0.0324,0.013523,0.002678,0.000431,0.000823
10372000,0.0324,0.013523,0.002678,0.000431,0.000823
10373000,0.0324,0.013523,0.002678,0.000431,0.000940
10374000,0.0324,0.013523,0.002678,0.000431,0.000940
10375000,0.0324,0.013523,0.002678,0.000431,0.000940
10376000,0.0324,0.013523,0.002678,0.000431,0.000705
10377000,0.0324,0.013523,0.002678,0.000431,0.000940
10378000,0.0324,0.013523,0.002678,0.000431,0.000940
10379000,0.0324,0.013523,0.002678,0.000431,0.000823
10380000,0.0324,0.013523,0.002678,0.000431,0.000823
10381000,0.0324,0.013523,0.002678,0.000431,0.000940
10382000,0.0324,0.013523,0.002678,0.000431,0.000823
10383000,0.0324,0.013523,0.002678,0.000431,0.000940
10384000,0.0324,0.013523,0.002678,0.000431,0.000823
10385000,0.0324,0.013523,0.002678,0.000431,0.000940
10386000,0.0324,0.013523,0.002678,0.000431,0.000823
10387000,0.0324,0.013523,0.002678,0.000431,0.000823
10388000,0.0324,0.013523,0.002678,0.000431,0.000940
10389000,0.0324,0.013523,0.002678,0.000431,0.000940
10390000,0.0324,0.013523,0.002678,0.000431,0.001763
10391000,0.0324,0.013523,0.002678,0.000431,0.243636
10392000,0.0324,0.013523,0.002678,0.000431,0.575300
10393000,0.0324,0.013523,0.002678,0.000431,0.286064
10394000,0.0324,0.013523,0.002678,0.000431,0.131161
10395000,0.0324,0.013523,0.002678,0.000431,0.134570
10396000,0.0324,0.013523,0.002678,0.000431,0.670381
10397000,0.0324,0.013523,0.002678,0.000431,0.226947
10398000,0.0324,0.013523,0.002678,0.000431,0.283713
10399000,0.0324,0.013523,0.002678,0.000431,0.228240
10400000,0.0324,0.013523,0.002678,0.000431,0.137273
10401000,0.0324,0.013523,0.002678,0.000431,0.141269
10402000,0.0324,0.013523,0.002678,0.000431,0.105070
10403000,0.0324,0.013523,0.002678,0.000431,0.425099
10404000,0.0324,0.013523,0.002678,0.000431,0.193686
10405000,0.0324,0.013523,0.002678,0.000431,0.040782
10406000,0.0324,0.013523,0.002678,0.000431,0.039019
10407000,0.0324,0.013523,0.002678,0.000431,0.030557
10408000,0.0324,0.013523,0.002678,0.000431,0.025974
10409000,0.0324,0.013523,0.002678,0.000431,0.022330
10410000,0.0324,0.013523,0.002678,0.000431,0.017159
10411000,0.0324,0.013523,0.002678,0.000431,0.014456
10412000,0.0324,0.013523,0.002678,0.000431,0.013633
10413000,0.0324,0.013523,0.002678,0.000431,0.007052
10414000,0.0324,0.013523,0.002678,0.000431,0.009402
10415000,0.0324,0.013523,0.002678,0.000431,0.004349
10416000,0.0324,0.013523,0.002678,0.000431,0.004113
10417000,0.0324,0.013523,0.002678,0.000431,0.003878
10418000,0.0324,0.013523,0.002678,0.000431,0.004466
10419000,0.0324,0.013523,0.002678,0.000431,0.004231
10420000,0.0324,0.013523,0.002678,0.000431,0.004936
10421000,0.0324,0.013523,0.002678,0.000431,0.004349
10422000,0.0324,0.013523,0.002678,0.000431,0.003291
10423000,0.0324,0.013523,0.002678,0.000431,0.003526
10424000,0.0324,0.013523,0.002678,0.000431,0.003643
10425000,0.0324,0.013523,0.002678,0.000431,0.001763
10426000,0.0324,0.013523,0.002678,0.000431,0.001645
10427000,0.0324,0.013523,0.002678,0.000431,0.001645
10428000,0.0324,0.013523,0.002678,0.000431,0.001645
10429000,0.0324,0.013523,0.002678,0.000431,0.001645
10430000,0.0324,0.013523,0.002678,0.000431,0.001645
10431000,0.0324,0.013523,0.002678,0.000431,0.001645
10432000,0.0324,0.013523,0.002678,0.000431,0.001645
10433000,0.0324,0.013523,0.002678,0.000431,0.001880
10434000,0.0324,0.013523,0.002678,0.000431,0.001410
10435000,0.0324,0.013523,0.002678,0.000431,0.001645
10436000,0.0324,0.013523,0.002678,0.000431,0.001763
10437000,0.0324,0.013523,0.002678,0.000431,0.001763
10438000,0.0324,0.013523,0.002678,0.000431,0.001410
10439000,0.0324,0.013523,0.002678,0.000431,0.001645
10440000,0.0324,0.013523,0.002678,0.000431,0.001880
10441000,0.0324,0.013523,0.002678,0.000431,0.001410
10442000,0.0324,0.013523,0.002678,0.000431,0.001528
10443000,0.0324,0.013523,0.002678,0.000431,0.001763
10444000,0.0324,0.013523,0.002678,0.000431,0.001880
10445000,0.0324,0.013523,0.002678,0.000431,0.001410
10446000,0.0324,0.013523,0.002678,0.000431,0.001645
10447000,0.0324,0.013523,0.002678,0.000431,0.001645
10448000,0.0324,0.013523,0.002678,0.000431,0.001880
10449000,0.0324,0.013523,0.002678,0.000431,0.001410
10450000,0.0324,0.013523,0.002678,0.000431,0.001645
10451000,0.0324,0.013523,0.002678,0.000431,0.001880
10452000,0.0324,0.013523,0.002678,0.000431,0.001645
10453000,0.0324,0.013523,0.002678,0.000431,0.001410
10454000,0.0324,0.013523,0.002678,0.000431,0.001763
10455000,0.0324,0.013523,0.002678,0.000431,0.001763
10456000,0.0324,0.013523,0.002678,0.000431,0.001645
10457000,0.0324,0.013523,0.002678,0.000431,0.001410
10458000,0.0324,0.013523,0.002678,0.000431,0.001880
10459000,0.0324,0.013523,0.002678,0.000431,0.001645
10460000,0.0324,0.013523,0.002678,0.000431,0.001410
10461000,0.0324,0.013523,0.002678,0.000431,0.001880
10462000,0.0324,0.013523,0.002678,0.000431,0.001645
10463000,0.0324,0.013523,0.002678,0.000431,0.001645
10464000,0.0324,0.013523,0.002678,0.000431,0.001410
10465000,0.0324,0.013523,0.002678,0.000431,0.001880
10466000,0.0324,0.013523,0.002678,0.000431,0.001645
10467000,0.0324,0.013523,0.002678,0.000431,0.001645
10468000,0.0324,0.013523,0.002678,0.000431,0.001645
10469000,0.0324,0.013523,0.002678,0.000431,0.001645
10470000,0.0324,0.013523,0.002678,0.000431,0.001645
10471000,0.0324,0.013523,0.002678,0.000431,0.001528
10472000,0.0324,0.013523,0.002678,0.000431,0.001763
10473000,0.0324,0.013523,0.002678,0.000431,0.001645
10474000,0.0324,0.013523,0.002678,0.000431,0.001645
10475000,0.0324,0.013523,0.002678,0.000431,0.001645
10476000,0.0324,0.013523,0.002678,0.000431,0.001645
10477000,0.0324,0.013523,0.002678,0.000431,0.001645
10478000,0.0324,0.013523,0.002678,0.000431,0.001645
10479000,0.0324,0.013523,0.002678,0.000431,0.001645
10480000,0.0324,0.013523,0.002678,0.000431,0.001880
10481000,0.0324,0.013523,0.002678,0.000431,0.001410
10482000,0.0324,0.013523,0.002678,0.000431,0.001645
10483000,0.0324,0.013523,0.002678,0.000431,0.001763
10484000,0.0324,0.013523,0.002678,0.000431,0.001763
10485000,0.0324,0.013523,0.002678,0.000431,0.001410
10486000,0.0324,0.013523,0.002678,0.000431,0.001645
10487000,0.0324,0.013523,0.002678,0.000431,0.001880
10488000,0.0324,0.013523,0.002678,0.000431,0.001645
10489000,0.0324,0.013523,0.002678,0.000431,0.001410
10490000,0.0324,0.013523,0.002678,0.000431,0.001880
10491000,0.0324,0.013523,0.002678,0.000431,0.001645
10492000,0.0324,0.013523,0.002678,0.000431,0.001410
10493000,0.0324,0.013523,0.002678,0.000431,0.001645
10494000,0.0324,0.013523,0.002678,0.000431,0.001880
10495000,0.0324,0.013523,0.002678,0.000431,0.001645
10496000,0.0324,0.013523,0.002678,0.000431,0.001410
10497000,0.0324,0.013523,0.002678,0.000431,0.001880
10498000,0.0324,0.013523,0.002678,0.000431,0.001645
10499000,0.0324,0.013523,0.002678,0.000431,0.001645
10500000,0.0324,0.013523,0.002678,0.000431,0.001528
10501000,0.0324,0.013523,0.002678,0.000431,0.001763
10502000,0.0324,0.013523,0.002678,0.000431,0.001645
10503000,0.0324,0.013523,0.002678,0.000431,0.001645
10504000,0.0324,0.013523,0.002678,0.000431,0.001645
10505000,0.0324,0.013523,0.002678,0.000431,0.001645
10506000,0.0324,0.013523,0.002678,0.000431,0.001645
10507000,0.0324,0.013523,0.002678,0.000431,0.001645
10508000,0.0324,0.013523,0.002678,0.000431,0.001645
10509000,0.0324,0.013523,0.002678,0.000431,0.001645
10510000,0.0324,0.013523,0.002678,0.000431,0.082740
10511000,0.0324,0.013523,0.002678,0.000431,0.555203
10512000,0.0324,0.013523,0.002678,0.000431,0.524528
10513000,0.0324,0.013523,0.002678,0.000431,0.134452
10514000,0.0324,0.013523,0.002678,0.000431,0.132102
10515000,0.0324,0.013523,0.002678,0.000431,0.595985
10516000,0.0324,0.013523,0.002678,0.000431,0.261735
10517000,0.0324,0.013523,0.002678,0.000431,0.257034
10518000,0.0324,0.013523,0.002678,0.000431,0.240228
10519000,0.0324,0.013523,0.002678,0.000431,0.140211
10520000,0.0324,0.013523,0.002678,0.000431,0.175117
10521000,0.0324,0.013523,0.002678,0.000431,0.104365
10522000,0.0324,0.013523,0.002678,0.000431,0.446960
10523000,0.0324,0.013523,0.002678,0.000431,0.102250
10524000,0.0324,0.013523,0.002678,0.000431,0.031027
10525000,0.0324,0.013523,0.002678,0.000431,0.029147
10526000,0.0324,0.013523,0.002678,0.000431,0.024798
10527000,0.0324,0.013523,0.002678,0.000431,0.023976
10528000,0.0324,0.013523,0.002678,0.000431,0.023741
10529000,0.0324,0.013523,0.002678,0.000431,0.016571
10530000,0.0324,0.013523,0.002678,0.000431,0.012223
10531000,0.0324,0.013523,0.002678,0.000431,0.012928
10532000,0.0324,0.013523,0.002678,0.000431,0.010107
10533000,0.0324,0.013523,0.002678,0.000431,0.010578
10534000,0.0324,0.013523,0.002678,0.000431,0.009990
10535000,0.0324,0.013523,0.002678,0.000431,0.010342
10536000,0.0324,0.013523,0.002678,0.000431,0.007874
10537000,0.0324,0.013523,0.002678,0.000431,0.010342
10538000,0.0324,0.013523,0.002678,0.000431,0.005054
10539000,0.0324,0.013523,0.002678,0.000431,0.003408
10540000,0.0324,0.013523,0.002678,0.000431,0.005524
10541000,0.0324,0.013523,0.002678,0.000431,0.004113
10542000,0.0324,0.013523,0.002678,0.000431,0.003173
10543000,0.0324,0.013523,0.002678,0.000431,0.000823
10544000,0.0324,0.013523,0.002678,0.000431,0.000940
10545000,0.0324,0.013523,0.002678,0.000431,0.000823
10546000,0.0324,0.013523,0.002678,0.000431,0.000940
10547000,0.0324,0.013523,0.002678,0.000431,0.000823
10548000,0.0324,0.013523,0.002678,0.000431,0.000823
10549000,0.0324,0.013523,0.002678,0.000431,0.000940
10550000,0.0324,0.013523,0.002678,0.000431,0.000940
10551000,0.0324,0.013523,0.002678,0.000431,0.000823
10552000,0.0324,0.013523,0.002678,0.000431,0.000823
10553000,0.0324,0.013523,0.002678,0.000431,0.000940
10554000,0.0324,0.013523,0.002678,0.000431,0.000940
10555000,0.0324,0.013523,0.002678,0.000431,0.000705
10556000,0.0324,0.013523,0.002678,0.000431,0.000940
10557000,0.0324,0.013523,0.002678,0.000431,0.000940
10558000,0.0324,0.013523,0.002678,0.000431,0.000940
10559000,0.0324,0.013523,0.002678,0.000431,0.000823
10560000,0.0324,0.013523,0.002678,0.000431,0.000823
10561000,0.0324,0.013523,0.002678,0.000431,0.000940
10562000,0.0324,0.013523,0.002678,0.000431,0.000823
10563000,0.0324,0.013523,0.002678,0.000431,0.000940
10564000,0.0324,0.013523,0.002678,0.000431,0.000823
10565000,0.0324,0.013523,0.002678,0.000431,0.000940
10566000,0.0324,0.013523,0.002678,0.000431,0.000823
10567000,0.0324,0.013523,0.002678,0.000431,0.000823
10568000,0.0324,0.013523,0.002678,0.000431,0.000940
10569000,0.0324,0.013523,0.002678,0.000431,0.000940
10570000,0.0324,0.013523,0.002678,0.000431,0.000940
10571000,0.0324,0.013523,0.002678,0.000431,0.000823
10572000,0.0324,0.013523,0.002678,0.000431,0.000823
10573000,0.0324,0.013523,0.002678,0.000431,0.013633
10574000,0.0324,0.013523,0.002678,0.000431,0.477635
10575000,0.0324,0.013523,0.002678,0.000431,0.583175
10576000,0.0324,0.013523,0.002678,0.000431,0.134452
10577000,0.0324,0.013523,0.002678,0.000431,0.131632
10578000,0.0324,0.013523,0.002678,0.000431,0.391721
10579000,0.0324,0.013523,0.002678,0.000431,0.445197
10580000,0.0324,0.013523,0.002678,0.000431,0.233881
10581000,0.0324,0.013523,0.002678,0.000431,0.322145
10582000,0.0324,0.013523,0.002678,0.000431,0.150554
10583000,0.0324,0.013523,0.002678,0.000431,0.144442
10584000,0.0324,0.013523,0.002678,0.000431,0.119291
10585000,0.0324,0.013523,0.002678,0.000431,0.305573
10586000,0.0324,0.013523,0.002678,0.000431,0.303458
10587000,0.0324,0.013523,0.002678,0.000431,0.026444
10588000,0.0324,0.013523,0.002678,0.000431,0.020685
10589000,0.0324,0.013523,0.002678,0.000431,0.014926
10590000,0.0324,0.013523,0.002678,0.000431,0.013751
10591000,0.0324,0.013523,0.002678,0.000431,0.008815
10592000,0.0324,0.013523,0.002678,0.000431,0.004936
10593000,0.0324,0.013523,0.002678,0.000431,0.006817
10594000,0.0324,0.013523,0.002678,0.000431,0.004819
10595000,0.0324,0.013523,0.002678,0.000431,0.005406
10596000,0.0324,0.013523,0.002678,0.000431,0.004231
10597000,0.0324,0.013523,0.002678,0.000431,0.005406
10598000,0.0324,0.013523,0.002678,0.000431,0.003643
10599000,0.0324,0.013523,0.002678,0.000431,0.002821
10600000,0.0324,0.013523,0.002678,0.000431,0.001645
10601000,0.0324,0.013523,0.002678,0.000431,0.001880
10602000,0.0324,0.013523,0.002678,0.000431,0.001880
10603000,0.0324,0.013523,0.002678,0.000431,0.003056
10604000,0.0324,0.013523,0.002678,0.000431,0.000823
10605000,0.0324,0.013523,0.002678,0.000431,0.000940
10606000,0.0324,0.013523,0.002678,0.000431,0.000823
10607000,0.0324,0.013523,0.002678,0.000431,0.000940
10608000,0.0324,0.013523,0.002678,0.000431,0.000823
10609000,0.0324,0.013523,0.002678,0.000431,0.000940
10610000,0.0324,0.013523,0.002678,0.000431,0.000823
10611000,0.0324,0.013523,0.002678,0.000431,0.000823
10612000,0.0324,0.013523,0.002678,0.000431,0.000940
10613000,0.0324,0.013523,0.002678,0.000431,0.000940
10614000,0.0324,0.013523,0.002678,0.000431,0.000940
10615000,0.0324,0.013523,0.002678,0.000431,0.000705
10616000,0.0324,0.013523,0.002678,0.000431,0.000940
10617000,0.0324,0.013523,0.002678,0.000431,0.000940
10618000,0.0324,0.013523,0.002678,0.000431,0.000823
10619000,0.0324,0.013523,0.002678,0.000431,0.000823
10620000,0.0324,0.013523,0.002678,0.000431,0.000940
10621000,0.0324,0.013523,0.002678,0.000431,0.000940
10622000,0.0324,0.013523,0.002678,0.000431,0.000823
10623000,0.0324,0.013523,0.002678,0.000431,0.000823
10624000,0.0324,0.013523,0.002678,0.000431,0.000940
10625000,0.0324,0.013523,0.002678,0.000431,0.000940
10626000,0.0324,0.013523,0.002678,0.000431,0.000823
10627000,0.0324,0.013523,0.002678,0.000431,0.014338
10628000,0.0324,0.013523,0.002678,0.000431,0.497144
10629000,0.0324,0.013523,0.002678,0.000431,0.582822
10630000,0.0324,0.013523,0.002678,0.000431,0.133982
10631000,0.0324,0.013523,0.002678,0.000431,0.132572
10632000,0.0324,0.013523,0.002678,0.000431,0.435089
10633000,0.0324,0.013523,0.002678,0.000431,0.326493
10634000,0.0324,0.013523,0.002678,0.000431,0.224479
10635000,0.0324,0.013523,0.002678,0.000431,0.354935
10636000,0.0324,0.013523,0.002678,0.000431,0.174999
10637000,0.0324,0.013523,0.002678,0.000431,0.138683
10638000,0.0324,0.013523,0.002678,0.000431,0.123875
10639000,0.0324,0.013523,0.002678,0.000431,0.318501
10640000,0.0324,0.013523,0.002678,0.000431,0.269845
10641000,0.0324,0.013523,0.002678,0.000431,0.022800
10642000,0.0324,0.013523,0.002678,0.000431,0.020802
10643000,0.0324,0.013523,0.002678,0.000431,0.019040
10644000,0.0324,0.013523,0.002678,0.000431,0.017159
10645000,0.0324,0.013523,0.002678,0.000431,0.017629
10646000,0.0324,0.013523,0.002678,0.000431,0.016101
10647000,0.0324,0.013523,0.002678,0.000431,0.019040
10648000,0.0324,0.013523,0.002678,0.000431,0.012576
10649000,0.0324,0.013523,0.002678,0.000431,0.013281
10650000,0.0324,0.013523,0.002678,0.000431,0.013516
10651000,0.0324,0.013523,0.002678,0.000431,0.012105
10652000,0.0324,0.013523,0.002678,0.000431,0.016336
10653000,0.0324,0.013523,0.002678,0.000431,0.012340
10654000,0.0324,0.013523,0.002678,0.000431,0.010225
10655000,0.0324,0.013523,0.002678,0.000431,0.010460
10656000,0.0324,0.013523,0.002678,0.000431,0.010225
10657000,0.0324,0.013523,0.002678,0.000431,0.009872
10658000,0.0324,0.013523,0.002678,0.000431,0.008697
10659000,0.0324,0.013523,0.002678,0.000431,0.010107
10660000,0.0324,0.013523,0.002678,0.000431,0.008932
10661000,0.0324,0.013523,0.002678,0.000431,0.008227
10662000,0.0324,0.013523,0.002678,0.000431,0.008227
10663000,0.0324,0.013523,0.002678,0.000431,0.007287
10664000,0.0324,0.013523,0.002678,0.000431,0.005524
10665000,0.0324,0.013523,0.002678,0.000431,0.003761
10666000,0.0324,0.013523,0.002678,0.000431,0.004701
10667000,0.0324,0.013523,0.002678,0.000431,0.006817
10668000,0.0324,0.013523,0.002678,0.000431,0.004231
10669000,0.0324,0.013523,0.002678,0.000431,0.001058
10670000,0.0324,0.013523,0.002678,0.000431,0.071575
10671000,0.0324,0.013523,0.002678,0.000431,0.449663
10672000,0.0324,0.013523,0.002678,0.000431,0.566603
10673000,0.0324,0.013523,0.002678,0.000431,0.131161
10674000,0.0324,0.013523,0.002678,0.000431,0.134452
10675000,0.0324,0.013523,0.002678,0.000431,0.593870
10676000,0.0324,0.013523,0.002678,0.000431,0.250218
10677000,0.0324,0.013523,0.002678,0.000431,0.248337
10678000,0.0324,0.013523,0.002678,0.000431,0.304280
10679000,0.0324,0.013523,0.002678,0.000431,0.138096
10680000,0.0324,0.013523,0.002678,0.000431,0.152669
10681000,0.0324,0.013523,0.002678,0.000431,0.109654
10682000,0.0324,0.013523,0.002678,0.000431,0.307924
10683000,0.0324,0.013523,0.002678,0.000431,0.292058
10684000,0.0324,0.013523,0.002678,0.000431,0.022095
10685000,0.0324,0.013523,0.002678,0.000431,0.018805
10686000,0.0324,0.013523,0.002678,0.000431,0.014456
10687000,0.0324,0.013523,0.002678,0.000431,0.012576
10688000,0.0324,0.013523,0.002678,0.000431,0.011870
10689000,0.0324,0.013523,0.002678,0.000431,0.013986
10690000,0.0324,0.013523,0.002678,0.000431,0.012340
10691000,0.0324,0.013523,0.002678,0.000431,0.007169
10692000,0.0324,0.013523,0.002678,0.000431,0.005289
10693000,0.0324,0.013523,0.002678,0.000431,0.005759
10694000,0.0324,0.013523,0.002678,0.000431,0.005759
10695000,0.0324,0.013523,0.002678,0.000431,0.005289
10696000,0.0324,0.013523,0.002678,0.000431,0.005524
10697000,0.0324,0.013523,0.002678,0.000431,0.006699
10698000,0.0324,0.013523,0.002678,0.000431,0.006699
10699000,0.0324,0.013523,0.002678,0.000431,0.001880
10700000,0.0324,0.013523,0.002678,0.000431,0.002938
10701000,0.0324,0.013523,0.002678,0.000431,0.000940
10702000,0.0324,0.013523,0.002678,0.000431,0.000940
10703000,0.0324,0.013523,0.002678,0.000431,0.008109
10704000,0.0324,0.013523,0.002678,0.000431,0.441083
10705000,0.0324,0.013523,0.002678,0.000431,0.607386
10706000,0.0324,0.013523,0.002678,0.000431,0.133042
10707000,0.0324,0.013523,0.002678,0.000431,0.132572
10708000,0.0324,0.013523,0.002678,0.000431,0.234116
10709000,0.0324,0.013523,0.002678,0.000431,0.513481
10710000,0.0324,0.013523,0.002678,0.000431,0.247984
10711000,0.0324,0.013523,0.002678,0.000431,0.298404
10712000,0.0324,0.013523,0.002678,0.000431,0.218015
10713000,0.0324,0.013523,0.002678,0.000431,0.142444
10714000,0.0324,0.013523,0.002678,0.000431,0.161954
10715000,0.0324,0.013523,0.002678,0.000431,0.148556
10716000,0.0324,0.013523,0.002678,0.000431,0.437675
10717000,0.0324,0.013523,0.002678,0.000431,0.018334
10718000,0.0324,0.013523,0.002678,0.000431,0.016454
10719000,0.0324,0.013523,0.002678,0.000431,0.010695
10720000,0.0324,0.013523,0.002678,0.000431,0.010107
10721000,0.0324,0.013523,0.002678,0.000431,0.007522
10722000,0.0324,0.013523,0.002678,0.000431,0.007874
10723000,0.0324,0.013523,0.002678,0.000431,0.007287
10724000,0.0324,0.013523,0.002678,0.000431,0.008227
10725000,0.0324,0.013523,0.002678,0.000431,0.006111
10726000,0.0324,0.013523,0.002678,0.000431,0.006229
10727000,0.0324,0.013523,0.002678,0.000431,0.005994
10728000,0.0324,0.013523,0.002678,0.000431,0.006229
10729000,0.0324,0.013523,0.002678,0.000431,0.007874
10730000,0.0324,0.013523,0.002678,0.000431,0.006229
10731000,0.0324,0.013523,0.002678,0.000431,0.005171
10732000,0.0324,0.013523,0.002678,0.000431,0.004349
10733000,0.0324,0.013523,0.002678,0.000431,0.004584
10734000,0.0324,0.013523,0.002678,0.000431,0.005524
10735000,0.0324,0.013523,0.002678,0.000431,0.003291
10736000,0.0324,0.013523,0.002678,0.000431,0.003526
10737000,0.0324,0.013523,0.002678,0.000431,0.003761
10738000,0.0324,0.013523,0.002678,0.000431,0.003408
10739000,0.0324,0.013523,0.002678,0.000431,0.003526
10740000,0.0324,0.013523,0.002678,0.000431,0.003408
10741000,0.0324,0.013523,0.002678,0.000431,0.003643
10742000,0.0324,0.013523,0.002678,0.000431,0.003526
10743000,0.0324,0.013523,0.002678,0.000431,0.003291
10744000,0.0324,0.013523,0.002678,0.000431,0.003643
10745000,0.0324,0.013523,0.002678,0.000431,0.003526
10746000,0.0324,0.013523,0.002678,0.000431,0.004936
10747000,0.0324,0.013523,0.002678,0.000431,0.002586
10748000,0.0324,0.013523,0.002678,0.000431,0.002703
10749000,0.0324,0.013523,0.002678,0.000431,0.002821
10750000,0.0324,0.013523,0.002678,0.000431,0.002351
10751000,0.0324,0.013523,0.002678,0.000431,0.002703
10752000,0.0324,0.013523,0.002678,0.000431,0.002703
10753000,0.0324,0.013523,0.002678,0.000431,0.002821
10754000,0.0324,0.013523,0.002678,0.000431,0.002468
10755000,0.0324,0.013523,0.002678,0.000431,0.002468
10756000,0.0324,0.013523,0.002678,0.000431,0.002821
10757000,0.0324,0.013523,0.002678,0.000431,0.002703
10758000,0.0324,0.013523,0.002678,0.000431,0.002468
10759000,0.0324,0.013523,0.002678,0.000431,0.002586
10760000,0.0324,0.013523,0.002678,0.000431,0.002821
10761000,0.0324,0.013523,0.002678,0.000431,0.002703
10762000,0.0324,0.013523,0.002678,0.000431,0.002468
10763000,0.0324,0.013523,0.002678,0.000431,0.002586
10764000,0.0324,0.013523,0.002678,0.000431,0.003291
10765000,0.0324,0.013523,0.002678,0.000431,0.002586
10766000,0.0324,0.013523,0.002678,0.000431,0.001763
10767000,0.0324,0.013523,0.002678,0.000431,0.001645
10768000,0.0324,0.013523,0.002678,0.000431,0.001763
10769000,0.0324,0.013523,0.002678,0.000431,0.001763
10770000,0.0324,0.013523,0.002678,0.000431,0.001763
10771000,0.0324,0.013523,0.002678,0.000431,0.001763
10772000,0.0324,0.013523,0.002678,0.000431,0.001763
10773000,0.0324,0.013523,0.002678,0.000431,0.001763
10774000,0.0324,0.013523,0.002678,0.000431,0.001763
10775000,0.0324,0.013523,0.002678,0.000431,0.001763
10776000,0.0324,0.013523,0.002678,0.000431,0.001763
10777000,0.0324,0.013523,0.002678,0.000431,0.001645
10778000,0.0324,0.013523,0.002678,0.000431,0.001880
10779000,0.0324,0.013523,0.002678,0.000431,0.001645
10780000,0.0324,0.013523,0.002678,0.000431,0.001880
10781000,0.0324,0.013523,0.002678,0.000431,0.001763
10782000,0.0324,0.013523,0.002678,0.000431,0.001645
10783000,0.0324,0.013523,0.002678,0.000431,0.001763
10784000,0.0324,0.013523,0.002678,0.000431,0.003173
10785000,0.0324,0.013523,0.002678,0.000431,0.001058
10786000,0.0324,0.013523,0.002678,0.000431,0.000940
10787000,0.0324,0.013523,0.002678,0.000431,0.000823
10788000,0.0324,0.013523,0.002678,0.000431,0.000823
10789000,0.0324,0.013523,0.002678,0.000431,0.000940
10790000,0.0324,0.013523,0.002678,0.000431,0.000940
10791000,0.0324,0.013523,0.002678,0.000431,0.000705
10792000,0.0324,0.013523,0.002678,0.000431,0.000940
10793000,0.0324,0.013523,0.002678,0.000431,0.000940
10794000,0.0324,0.013523,0.002678,0.000431,0.000940
10795000,0.0324,0.013523,0.002678,0.000431,0.000705
10796000,0.0324,0.013523,0.002678,0.000431,0.000940
10797000,0.0324,0.013523,0.002678,0.000431,0.000940
10798000,0.0324,0.013523,0.002678,0.000431,0.000823
10799000,0.0324,0.013523,0.002678,0.000431,0.000940
10800000,0.0324,0.013523,0.002678,0.000431,0.000823
10801000,0.0324,0.013523,0.002678,0.000431,0.000940
10802000,0.0324,0.013523,0.002678,0.000431,0.000823
10803000,0.0324,0.013523,0.002678,0.000431,0.000823
10804000,0.0324,0.013523,0.002678,0.000431,0.000940
10805000,0.0324,0.013523,0.002678,0.000431,0.000823
10806000,0.0324,0.013523,0.002678,0.000431,0.000940
10807000,0.0324,0.013523,0.002678,0.000431,0.000823
10808000,0.0324,0.013523,0.002678,0.000431,0.000940
10809000,0.0324,0.013523,0.002678,0.000431,0.000940
10810000,0.0324,0.013523,0.002678,0.000431,0.000705
10811000,0.0324,0.013523,0.002678,0.000431,0.000940
10812000,0.0324,0.013523,0.002678,0.000431,0.000940
10813000,0.0324,0.013523,0.002678,0.000431,0.000940
10814000,0.0324,0.013523,0.002678,0.000431,0.000705
10815000,0.0324,0.013523,0.002678,0.000431,0.000940
10816000,0.0324,0.013523,0.002678,0.000431,0.000940
10817000,0.0324,0.013523,0.002678,0.000431,0.000823
10818000,0.0324,0.013523,0.002678,0.000431,0.000823
10819000,0.0324,0.013523,0.002678,0.000431,0.000940
10820000,0.0324,0.013523,0.002678,0.000431,0.000823
10821000,0.0324,0.013523,0.002678,0.000431,0.000940
10822000,0.0324,0.013523,0.002678,0.000431,0.000823
10823000,0.0324,0.013523,0.002678,0.000431,0.000940
10824000,0.0324,0.013523,0.002678,0.000431,0.000823
10825000,0.0324,0.013523,0.002678,0.000431,0.000823
10826000,0.0324,0.013523,0.002678,0.000431,0.000940
10827000,0.0324,0.013523,0.002678,0.000431,0.000940
10828000,0.0324,0.013523,0.002678,0.000431,0.000823
10829000,0.0324,0.013523,0.002678,0.000431,0.000823
10830000,0.0324,0.013523,0.002678,0.000431,0.000940
10831000,0.0324,0.013523,0.002678,0.000431,0.000940
10832000,0.0324,0.013523,0.002678,0.000431,0.000823
10833000,0.0324,0.013523,0.002678,0.000431,0.000823
10834000,0.0324,0.013523,0.002678,0.000431,0.000940
10835000,0.0324,0.013523,0.002678,0.000431,0.000940
10836000,0.0324,0.013523,0.002678,0.000431,0.000823
10837000,0.0324,0.013523,0.002678,0.000431,0.000823
10838000,0.0324,0.013523,0.002678,0.000431,0.000940
10839000,0.0324,0.013523,0.002678,0.000431,0.000823
10840000,0.0324,0.013523,0.002678,0.000431,0.000940
10841000,0.0324,0.013523,0.002678,0.000431,0.000823
10842000,0.0324,0.013523,0.002678,0.000431,0.000940
10843000,0.0324,0.013523,0.002678,0.000431,0.000823
10844000,0.0324,0.013523,0.002678,0.000431,0.000823
10845000,0.0324,0.013523,0.002678,0.000431,0.000940
10846000,0.0324,0.013523,0.002678,0.000431,0.000940
10847000,0.0324,0.013523,0.002678,0.000431,0.000823
10848000,0.0324,0.013523,0.002678,0.000431,0.000823
10849000,0.0324,0.013523,0.002678,0.000431,0.000940
10850000,0.0324,0.013523,0.002678,0.000431,0.000940
10851000,0.0324,0.013523,0.002678,0.000431,0.000705
10852000,0.0324,0.013523,0.002678,0.000431,0.000940
10853000,0.0324,0.013523,0.002678,0.000431,0.000940
10854000,0.0324,0.013523,0.002678,0.000431,0.000940
10855000,0.0324,0.013523,0.002678,0.000431,0.000705
10856000,0.0324,0.013523,0.002678,0.000431,0.000940
10857000,0.0324,0.013523,0.002678,0.000431,0.000940
10858000,0.0324,0.013523,0.002678,0.000431,0.000823
10859000,0.0324,0.013523,0.002678,0.000431,0.000940
10860000,0.0324,0.013523,0.002678,0.000431,0.000823
10861000,0.0324,0.013523,0.002678,0.000431,0.000940
10862000,0.0324,0.013523,0.002678,0.000431,0.000823
10863000,0.0324,0.013523,0.002678,0.000431,0.000823
10864000,0.0324,0.013523,0.002678,0.000431,0.000940
10865000,0.0324,0.013523,0.002678,0.000431,0.000940
10866000,0.0324,0.013523,0.002678,0.000431,0.000705
10867000,0.0324,0.013523,0.002678,0.000431,0.000940
10868000,0.0324,0.013523,0.002678,0.000431,0.000940
10869000,0.0324,0.013523,0.002678,0.000431,0.000940
10870000,0.0324,0.013523,0.002678,0.000431,0.000705
10871000,0.0324,0.013523,0.002678,0.000431,0.000940
10872000,0.0324,0.013523,0.002678,0.000431,0.000940
10873000,0.0324,0.013523,0.002678,0.000431,0.000823
10874000,0.0324,0.013523,0.002678,0.000431,0.000823
10875000,0.0324,0.013523,0.002678,0.000431,0.000940
10876000,0.0324,0.013523,0.002678,0.000431,0.000940
10877000,0.0324,0.013523,0.002678,0.000431,0.000823
10878000,0.0324,0.013523,0.002678,0.000431,0.000823
10879000,0.0324,0.013523,0.002678,0.000431,0.000940
10880000,0.0324,0.013523,0.002678,0.000431,0.000823
10881000,0.0324,0.013523,0.002678,0.000431,0.000940
10882000,0.0324,0.013523,0.002678,0.000431,0.000823
10883000,0.0324,0.013523,0.002678,0.000431,0.000940
10884000,0.0324,0.013523,0.002678,0.000431,0.000823
10885000,0.0324,0.013523,0.002678,0.000431,0.000823
10886000,0.0324,0.013523,0.002678,0.000431,0.000940
10887000,0.0324,0.013523,0.002678,0.000431,0.000940
10888000,0.0324,0.013523,0.002678,0.000431,0.000823
10889000,0.0324,0.013523,0.002678,0.000431,0.000823
10890000,0.0324,0.013523,0.002678,0.000431,0.000940
10891000,0.0324,0.013523,0.002678,0.000431,0.000940
10892000,0.0324,0.013523,0.002678,0.000431,0.000823
10893000,0.0324,0.013523,0.002678,0.000431,0.000823
10894000,0.0324,0.013523,0.002678,0.000431,0.000940
10895000,0.0324,0.013523,0.002678,0.000431,0.000940
10896000,0.0324,0.013523,0.002678,0.000431,0.000823
10897000,0.0324,0.013523,0.002678,0.000431,0.000823
10898000,0.0324,0.013523,0.002678,0.000431,0.000940
10899000,0.0324,0.013523,0.002678,0.000431,0.000823
10900000,0.0324,0.013523,0.002678,0.000431,0.000940
10901000,0.0324,0.013523,0.002678,0.000431,0.000823
10902000,0.0324,0.013523,0.002678,0.000431,0.000940
10903000,0.0324,0.013523,0.002678,0.000431,0.000823
10904000,0.0324,0.013523,0.002678,0.000431,0.000823
10905000,0.0324,0.013523,0.002678,0.000431,0.000940
10906000,0.0324,0.013523,0.002678,0.000431,0.000940
10907000,0.0324,0.013523,0.002678,0.000431,0.000823
10908000,0.0324,0.013523,0.002678,0.000431,0.000823
10909000,0.0324,0.013523,0.002678,0.000431,0.000940
10910000,0.0324,0.013523,0.002678,0.000431,0.000940
10911000,0.0324,0.013523,0.002678,0.000431,0.000705
10912000,0.0324,0.013523,0.002678,0.000431,0.000940
10913000,0.0324,0.013523,0.002678,0.000431,0.000940
10914000,0.0324,0.013523,0.002678,0.000431,0.002586
10915000,0.0324,0.013523,0.002678,0.000431,0.381614
10916000,0.0324,0.013523,0.002678,0.000431,0.653692
10917000,0.0324,0.013523,0.002678,0.000431,0.131161
10918000,0.0324,0.013523,0.002678,0.000431,0.133982
10919000,0.0324,0.013523,0.002678,0.000431,0.162541
10920000,0.0324,0.013523,0.002678,0.000431,0.637943
10921000,0.0324,0.013523,0.002678,0.000431,0.251393
10922000,0.0324,0.013523,0.002678,0.000431,0.235526
10923000,0.0324,0.013523,0.002678,0.000431,0.224479
10924000,0.0324,0.013523,0.002678,0.000431,0.144090
10925000,0.0324,0.013523,0.002678,0.000431,0.183344
10926000,0.0324,0.013523,0.002678,0.000431,0.084033
10927000,0.0324,0.013523,0.002678,0.000431,0.466704
10928000,0.0324,0.013523,0.002678,0.000431,0.045366
10929000,0.0324,0.013523,0.002678,0.000431,0.001528
10930000,0.0324,0.013523,0.002678,0.000431,0.000940
10931000,0.0324,0.013523,0.002678,0.000431,0.026209
10932000,0.0324,0.013523,0.002678,0.000431,0.422984
10933000,0.0324,0.013523,0.002678,0.000431,0.601157
10934000,0.0324,0.013523,0.002678,0.000431,0.131161
10935000,0.0324,0.013523,0.002678,0.000431,0.132102
10936000,0.0324,0.013523,0.002678,0.000431,0.428625
10937000,0.0324,0.013523,0.002678,0.000431,0.411819
10938000,0.0324,0.013523,0.002678,0.000431,0.226829
10939000,0.0324,0.013523,0.002678,0.000431,0.300637
10940000,0.0324,0.013523,0.002678,0.000431,0.174764
10941000,0.0324,0.013523,0.002678,0.000431,0.148791
10942000,0.0324,0.013523,0.002678,0.000431,0.134687
10943000,0.0324,0.013523,0.002678,0.000431,0.227535
10944000,0.0324,0.013523,0.002678,0.000431,0.346826
10945000,0.0324,0.013523,0.002678,0.000431,0.008697
10946000,0.0324,0.013523,0.002678,0.000431,0.006934
10947000,0.0324,0.013523,0.002678,0.000431,0.006229
10948000,0.0324,0.013523,0.002678,0.000431,0.005759
10949000,0.0324,0.013523,0.002678,0.000431,0.007169
10950000,0.0324,0.013523,0.002678,0.000431,0.007169
10951000,0.0324,0.013523,0.002678,0.000431,0.007169
10952000,0.0324,0.013523,0.002678,0.000431,0.004584
10953000,0.0324,0.013523,0.002678,0.000431,0.004701
10954000,0.0324,0.013523,0.002678,0.000431,0.005171
10955000,0.0324,0.013523,0.002678,0.000431,0.004231
10956000,0.0324,0.013523,0.002678,0.000431,0.004466
10957000,0.0324,0.013523,0.002678,0.000431,0.005054
10958000,0.0324,0.013523,0.002678,0.000431,0.004466
10959000,0.0324,0.013523,0.002678,0.000431,0.004819
10960000,0.0324,0.013523,0.002678,0.000431,0.004349
10961000,0.0324,0.013523,0.002678,0.000431,0.005289
10962000,0.0324,0.013523,0.002678,0.000431,0.005759
10963000,0.0324,0.013523,0.002678,0.000431,0.003408
10964000,0.0324,0.013523,0.002678,0.000431,0.004231
10965000,0.0324,0.013523,0.002678,0.000431,0.005876
10966000,0.0324,0.013523,0.002678,0.000431,0.002468
10967000,0.0324,0.013523,0.002678,0.000431,0.002586
10968000,0.0324,0.013523,0.002678,0.000431,0.002821
10969000,0.0324,0.013523,0.002678,0.000431,0.002821
10970000,0.0324,0.013523,0.002678,0.000431,0.002351
10971000,0.0324,0.013523,0.002678,0.000431,0.002586
10972000,0.0324,0.013523,0.002678,0.000431,0.002821
10973000,0.0324,0.013523,0.002678,0.000431,0.002468
10974000,0.0324,0.013523,0.002678,0.000431,0.002703
10975000,0.0324,0.013523,0.002678,0.000431,0.002586
10976000,0.0324,0.013523,0.002678,0.000431,0.002821
10977000,0.0324,0.013523,0.002678,0.000431,0.002468
10978000,0.0324,0.013523,0.002678,0.000431,0.002468
10979000,0.0324,0.013523,0.002678,0.000431,0.002821
10980000,0.0324,0.013523,0.002678,0.000431,0.002703
10981000,0.0324,0.013523,0.002678,0.000431,0.002586
10982000,0.0324,0.013523,0.002678,0.000431,0.003291
10983000,0.0324,0.013523,0.002678,0.000431,0.002821
10984000,0.0324,0.013523,0.002678,0.000431,0.001763
10985000,0.0324,0.013523,0.002678,0.000431,0.001528
10986000,0.0324,0.013523,0.002678,0.000431,0.001880
10987000,0.0324,0.013523,0.002678,0.000431,0.001880
10988000,0.0324,0.013523,0.002678,0.000431,0.001763
10989000,0.0324,0.013523,0.002678,0.000431,0.001528
10990000,0.0324,0.013523,0.002678,0.000431,0.001880
10991000,0.0324,0.013523,0.002678,0.000431,0.001880
10992000,0.0324,0.013523,0.002678,0.000431,0.001645
10993000,0.0324,0.013523,0.002678,0.000431,0.001763
10994000,0.0324,0.013523,0.002678,0.000431,0.001763
10995000,0.0324,0.013523,0.002678,0.000431,0.002938
10996000,0.0324,0.013523,0.002678,0.000431,0.000823
10997000,0.0324,0.013523,0.002678,0.000431,0.000823
10998000,0.0324,0.013523,0.002678,0.000431,0.000940
10999000,0.0324,0.013523,0.002678,0.000431,0.000823
