Cycle,Area(mm^2),PeakDynamic(W),SubthresholdLeakage(W),GateLeakage(W),RunTimeDynamic(W)
91000000,0.0324,0.013523,0.002678,0.000431,0.004584
91001000,0.0324,0.013523,0.002678,0.000431,0.004349
91002000,0.0324,0.013523,0.002678,0.000431,0.004819
91003000,0.0324,0.013523,0.002678,0.000431,0.004231
91004000,0.0324,0.013523,0.002678,0.000431,0.004819
91005000,0.0324,0.013523,0.002678,0.000431,0.004466
91006000,0.0324,0.013523,0.002678,0.000431,0.006464
91007000,0.0324,0.013523,0.002678,0.000431,0.003526
91008000,0.0324,0.013523,0.002678,0.000431,0.003526
91009000,0.0324,0.013523,0.002678,0.000431,0.004701
91010000,0.0324,0.013523,0.002678,0.000431,0.003878
91011000,0.0324,0.013523,0.002678,0.000431,0.002586
91012000,0.0324,0.013523,0.002678,0.000431,0.003408
91013000,0.0324,0.013523,0.002678,0.000431,0.002468
91014000,0.0324,0.013523,0.002678,0.000431,0.001763
91015000,0.0324,0.013523,0.002678,0.000431,0.001645
91016000,0.0324,0.013523,0.002678,0.000431,0.001645
91017000,0.0324,0.013523,0.002678,0.000431,0.001645
91018000,0.0324,0.013523,0.002678,0.000431,0.001645
91019000,0.0324,0.013523,0.002678,0.000431,0.001763
91020000,0.0324,0.013523,0.002678,0.000431,0.003056
91021000,0.0324,0.013523,0.002678,0.000431,0.001058
91022000,0.0324,0.013523,0.002678,0.000431,0.000705
91023000,0.0324,0.013523,0.002678,0.000431,0.000940
91024000,0.0324,0.013523,0.002678,0.000431,0.000823
91025000,0.0324,0.013523,0.002678,0.000431,0.000823
91026000,0.0324,0.013523,0.002678,0.000431,0.000940
91027000,0.0324,0.013523,0.002678,0.000431,0.000705
91028000,0.0324,0.013523,0.002678,0.000431,0.000940
91029000,0.0324,0.013523,0.002678,0.000431,0.000823
91030000,0.0324,0.013523,0.002678,0.000431,0.000823
91031000,0.0324,0.013523,0.002678,0.000431,0.000823
91032000,0.0324,0.013523,0.002678,0.000431,0.000823
91033000,0.0324,0.013523,0.002678,0.000431,0.000823
91034000,0.0324,0.013523,0.002678,0.000431,0.000823
91035000,0.0324,0.013523,0.002678,0.000431,0.000940
91036000,0.0324,0.013523,0.002678,0.000431,0.000823
91037000,0.0324,0.013523,0.002678,0.000431,0.000823
91038000,0.0324,0.013523,0.002678,0.000431,0.000823
91039000,0.0324,0.013523,0.002678,0.000431,0.000823
91040000,0.0324,0.013523,0.002678,0.000431,0.000705
91041000,0.0324,0.013523,0.002678,0.000431,0.000940
91042000,0.0324,0.013523,0.002678,0.000431,0.000940
91043000,0.0324,0.013523,0.002678,0.000431,0.000705
91044000,0.0324,0.013523,0.002678,0.000431,0.000940
91045000,0.0324,0.013523,0.002678,0.000431,0.000705
91046000,0.0324,0.013523,0.002678,0.000431,0.000940
91047000,0.0324,0.013523,0.002678,0.000431,0.000940
91048000,0.0324,0.013523,0.002678,0.000431,0.000705
91049000,0.0324,0.013523,0.002678,0.000431,0.000940
91050000,0.0324,0.013523,0.002678,0.000431,0.000705
91051000,0.0324,0.013523,0.002678,0.000431,0.000940
91052000,0.0324,0.013523,0.002678,0.000431,0.000823
91053000,0.0324,0.013523,0.002678,0.000431,0.000823
91054000,0.0324,0.013523,0.002678,0.000431,0.000823
91055000,0.0324,0.013523,0.002678,0.000431,0.000823
91056000,0.0324,0.013523,0.002678,0.000431,0.000940
91057000,0.0324,0.013523,0.002678,0.000431,0.000705
91058000,0.0324,0.013523,0.002678,0.000431,0.000940
91059000,0.0324,0.013523,0.002678,0.000431,0.000823
91060000,0.0324,0.013523,0.002678,0.000431,0.000705
91061000,0.0324,0.013523,0.002678,0.000431,0.000940
91062000,0.0324,0.013523,0.002678,0.000431,0.000823
91063000,0.0324,0.013523,0.002678,0.000431,0.000823
91064000,0.0324,0.013523,0.002678,0.000431,0.000823
91065000,0.0324,0.013523,0.002678,0.000431,0.000823
91066000,0.0324,0.013523,0.002678,0.000431,0.000823
91067000,0.0324,0.013523,0.002678,0.000431,0.000940
91068000,0.0324,0.013523,0.002678,0.000431,0.000823
91069000,0.0324,0.013523,0.002678,0.000431,0.000823
91070000,0.0324,0.013523,0.002678,0.000431,0.000705
91071000,0.0324,0.013523,0.002678,0.000431,0.000940
91072000,0.0324,0.013523,0.002678,0.000431,0.000823
91073000,0.0324,0.013523,0.002678,0.000431,0.000823
91074000,0.0324,0.013523,0.002678,0.000431,0.000823
91075000,0.0324,0.013523,0.002678,0.000431,0.000823
91076000,0.0324,0.013523,0.002678,0.000431,0.000705
91077000,0.0324,0.013523,0.002678,0.000431,0.000940
91078000,0.0324,0.013523,0.002678,0.000431,0.000823
91079000,0.0324,0.013523,0.002678,0.000431,0.000823
91080000,0.0324,0.013523,0.002678,0.000431,0.000940
91081000,0.0324,0.013523,0.002678,0.000431,0.000705
91082000,0.0324,0.013523,0.002678,0.000431,0.000823
91083000,0.0324,0.013523,0.002678,0.000431,0.000940
91084000,0.0324,0.013523,0.002678,0.000431,0.000823
91085000,0.0324,0.013523,0.002678,0.000431,0.000823
91086000,0.0324,0.013523,0.002678,0.000431,0.000823
91087000,0.0324,0.013523,0.002678,0.000431,0.000705
91088000,0.0324,0.013523,0.002678,0.000431,0.000940
91089000,0.0324,0.013523,0.002678,0.000431,0.000940
91090000,0.0324,0.013523,0.002678,0.000431,0.000705
91091000,0.0324,0.013523,0.002678,0.000431,0.000940
91092000,0.0324,0.013523,0.002678,0.000431,0.000705
91093000,0.0324,0.013523,0.002678,0.000431,0.000940
91094000,0.0324,0.013523,0.002678,0.000431,0.000940
91095000,0.0324,0.013523,0.002678,0.000431,0.000705
91096000,0.0324,0.013523,0.002678,0.000431,0.012105
91097000,0.0324,0.013523,0.002678,0.000431,0.546153
91098000,0.0324,0.013523,0.002678,0.000431,0.619844
91099000,0.0324,0.013523,0.002678,0.000431,0.134922
91100000,0.0324,0.013523,0.002678,0.000431,0.132572
91101000,0.0324,0.013523,0.002678,0.000431,0.523118
91102000,0.0324,0.013523,0.002678,0.000431,0.322732
91103000,0.0324,0.013523,0.002678,0.000431,0.275486
91104000,0.0324,0.013523,0.002678,0.000431,0.318619
91105000,0.0324,0.013523,0.002678,0.000431,0.139741
91106000,0.0324,0.013523,0.002678,0.000431,0.157840
91107000,0.0324,0.013523,0.002678,0.000431,0.164187
91108000,0.0324,0.013523,0.002678,0.000431,0.453776
91109000,0.0324,0.013523,0.002678,0.000431,0.112827
91110000,0.0324,0.013523,0.002678,0.000431,0.090027
91111000,0.0324,0.013523,0.002678,0.000431,0.086501
91112000,0.0324,0.013523,0.002678,0.000431,0.071457
91113000,0.0324,0.013523,0.002678,0.000431,0.048657
91114000,0.0324,0.013523,0.002678,0.000431,0.041958
91115000,0.0324,0.013523,0.002678,0.000431,0.039489
91116000,0.0324,0.013523,0.002678,0.000431,0.034788
91117000,0.0324,0.013523,0.002678,0.000431,0.026914
91118000,0.0324,0.013523,0.002678,0.000431,0.021155
91119000,0.0324,0.013523,0.002678,0.000431,0.020332
91120000,0.0324,0.013523,0.002678,0.000431,0.016101
91121000,0.0324,0.013523,0.002678,0.000431,0.026796
91122000,0.0324,0.013523,0.002678,0.000431,0.006229
91123000,0.0324,0.013523,0.002678,0.000431,0.006582
91124000,0.0324,0.013523,0.002678,0.000431,0.008580
91125000,0.0324,0.013523,0.002678,0.000431,0.005524
91126000,0.0324,0.013523,0.002678,0.000431,0.005876
91127000,0.0324,0.013523,0.002678,0.000431,0.005171
91128000,0.0324,0.013523,0.002678,0.000431,0.005524
91129000,0.0324,0.013523,0.002678,0.000431,0.005876
91130000,0.0324,0.013523,0.002678,0.000431,0.005289
91131000,0.0324,0.013523,0.002678,0.000431,0.005406
91132000,0.0324,0.013523,0.002678,0.000431,0.005876
91133000,0.0324,0.013523,0.002678,0.000431,0.005289
91134000,0.0324,0.013523,0.002678,0.000431,0.005876
91135000,0.0324,0.013523,0.002678,0.000431,0.005054
91136000,0.0324,0.013523,0.002678,0.000431,0.005994
91137000,0.0324,0.013523,0.002678,0.000431,0.005641
91138000,0.0324,0.013523,0.002678,0.000431,0.005171
91139000,0.0324,0.013523,0.002678,0.000431,0.005994
91140000,0.0324,0.013523,0.002678,0.000431,0.005289
91141000,0.0324,0.013523,0.002678,0.000431,0.005759
91142000,0.0324,0.013523,0.002678,0.000431,0.005289
91143000,0.0324,0.013523,0.002678,0.000431,0.005876
91144000,0.0324,0.013523,0.002678,0.000431,0.005641
91145000,0.0324,0.013523,0.002678,0.000431,0.005289
91146000,0.0324,0.013523,0.002678,0.000431,0.005759
91147000,0.0324,0.013523,0.002678,0.000431,0.005759
91148000,0.0324,0.013523,0.002678,0.000431,0.005054
91149000,0.0324,0.013523,0.002678,0.000431,0.005759
91150000,0.0324,0.013523,0.002678,0.000431,0.005759
91151000,0.0324,0.013523,0.002678,0.000431,0.005406
91152000,0.0324,0.013523,0.002678,0.000431,0.005876
91153000,0.0324,0.013523,0.002678,0.000431,0.005054
91154000,0.0324,0.013523,0.002678,0.000431,0.005994
91155000,0.0324,0.013523,0.002678,0.000431,0.005054
91156000,0.0324,0.013523,0.002678,0.000431,0.007757
91157000,0.0324,0.013523,0.002678,0.000431,0.006817
91158000,0.0324,0.013523,0.002678,0.000431,0.003761
91159000,0.0324,0.013523,0.002678,0.000431,0.004113
91160000,0.0324,0.013523,0.002678,0.000431,0.003643
91161000,0.0324,0.013523,0.002678,0.000431,0.004113
91162000,0.0324,0.013523,0.002678,0.000431,0.004231
91163000,0.0324,0.013523,0.002678,0.000431,0.003173
91164000,0.0324,0.013523,0.002678,0.000431,0.003408
91165000,0.0324,0.013523,0.002678,0.000431,0.005641
91166000,0.0324,0.013523,0.002678,0.000431,0.003291
91167000,0.0324,0.013523,0.002678,0.000431,0.000823
91168000,0.0324,0.013523,0.002678,0.000431,0.000823
91169000,0.0324,0.013523,0.002678,0.000431,0.000940
91170000,0.0324,0.013523,0.002678,0.000431,0.000940
91171000,0.0324,0.013523,0.002678,0.000431,0.000823
91172000,0.0324,0.013523,0.002678,0.000431,0.000823
91173000,0.0324,0.013523,0.002678,0.000431,0.000940
91174000,0.0324,0.013523,0.002678,0.000431,0.000940
91175000,0.0324,0.013523,0.002678,0.000431,0.000705
91176000,0.0324,0.013523,0.002678,0.000431,0.000940
91177000,0.0324,0.013523,0.002678,0.000431,0.000940
91178000,0.0324,0.013523,0.002678,0.000431,0.000940
91179000,0.0324,0.013523,0.002678,0.000431,0.000705
91180000,0.0324,0.013523,0.002678,0.000431,0.000940
91181000,0.0324,0.013523,0.002678,0.000431,0.000940
91182000,0.0324,0.013523,0.002678,0.000431,0.000823
91183000,0.0324,0.013523,0.002678,0.000431,0.000823
91184000,0.0324,0.013523,0.002678,0.000431,0.000940
91185000,0.0324,0.013523,0.002678,0.000431,0.000940
91186000,0.0324,0.013523,0.002678,0.000431,0.000823
91187000,0.0324,0.013523,0.002678,0.000431,0.000823
91188000,0.0324,0.013523,0.002678,0.000431,0.000940
91189000,0.0324,0.013523,0.002678,0.000431,0.000823
91190000,0.0324,0.013523,0.002678,0.000431,0.089321
91191000,0.0324,0.013523,0.002678,0.000431,0.577298
91192000,0.0324,0.013523,0.002678,0.000431,0.532873
91193000,0.0324,0.013523,0.002678,0.000431,0.134100
91194000,0.0324,0.013523,0.002678,0.000431,0.134217
91195000,0.0324,0.013523,0.002678,0.000431,0.572480
91196000,0.0324,0.013523,0.002678,0.000431,0.262440
91197000,0.0324,0.013523,0.002678,0.000431,0.288414
91198000,0.0324,0.013523,0.002678,0.000431,0.292293
91199000,0.0324,0.013523,0.002678,0.000431,0.154550
91200000,0.0324,0.013523,0.002678,0.000431,0.126460
91201000,0.0324,0.013523,0.002678,0.000431,0.241638
91202000,0.0324,0.013523,0.002678,0.000431,0.370801
91203000,0.0324,0.013523,0.002678,0.000431,0.083563
91204000,0.0324,0.013523,0.002678,0.000431,0.059117
91205000,0.0324,0.013523,0.002678,0.000431,0.052535
91206000,0.0324,0.013523,0.002678,0.000431,0.049714
91207000,0.0324,0.013523,0.002678,0.000431,0.029147
91208000,0.0324,0.013523,0.002678,0.000431,0.024798
91209000,0.0324,0.013523,0.002678,0.000431,0.031145
91210000,0.0324,0.013523,0.002678,0.000431,0.022213
91211000,0.0324,0.013523,0.002678,0.000431,0.019275
91212000,0.0324,0.013523,0.002678,0.000431,0.015631
91213000,0.0324,0.013523,0.002678,0.000431,0.013516
91214000,0.0324,0.013523,0.002678,0.000431,0.013398
91215000,0.0324,0.013523,0.002678,0.000431,0.013163
91216000,0.0324,0.013523,0.002678,0.000431,0.013633
91217000,0.0324,0.013523,0.002678,0.000431,0.012576
91218000,0.0324,0.013523,0.002678,0.000431,0.009755
91219000,0.0324,0.013523,0.002678,0.000431,0.008227
91220000,0.0324,0.013523,0.002678,0.000431,0.011518
91221000,0.0324,0.013523,0.002678,0.000431,0.007052
91222000,0.0324,0.013523,0.002678,0.000431,0.008109
91223000,0.0324,0.013523,0.002678,0.000431,0.007522
91224000,0.0324,0.013523,0.002678,0.000431,0.006111
91225000,0.0324,0.013523,0.002678,0.000431,0.005876
91226000,0.0324,0.013523,0.002678,0.000431,0.005876
91227000,0.0324,0.013523,0.002678,0.000431,0.007639
91228000,0.0324,0.013523,0.002678,0.000431,0.005406
91229000,0.0324,0.013523,0.002678,0.000431,0.005289
91230000,0.0324,0.013523,0.002678,0.000431,0.004701
91231000,0.0324,0.013523,0.002678,0.000431,0.005641
91232000,0.0324,0.013523,0.002678,0.000431,0.004819
91233000,0.0324,0.013523,0.002678,0.000431,0.006582
91234000,0.0324,0.013523,0.002678,0.000431,0.004231
91235000,0.0324,0.013523,0.002678,0.000431,0.004231
91236000,0.0324,0.013523,0.002678,0.000431,0.004936
91237000,0.0324,0.013523,0.002678,0.000431,0.002703
91238000,0.0324,0.013523,0.002678,0.000431,0.002468
91239000,0.0324,0.013523,0.002678,0.000431,0.002938
91240000,0.0324,0.013523,0.002678,0.000431,0.002586
91241000,0.0324,0.013523,0.002678,0.000431,0.002703
91242000,0.0324,0.013523,0.002678,0.000431,0.002586
91243000,0.0324,0.013523,0.002678,0.000431,0.002821
91244000,0.0324,0.013523,0.002678,0.000431,0.002821
91245000,0.0324,0.013523,0.002678,0.000431,0.002821
91246000,0.0324,0.013523,0.002678,0.000431,0.002821
91247000,0.0324,0.013523,0.002678,0.000431,0.002938
91248000,0.0324,0.013523,0.002678,0.000431,0.002468
91249000,0.0324,0.013523,0.002678,0.000431,0.002703
91250000,0.0324,0.013523,0.002678,0.000431,0.002703
91251000,0.0324,0.013523,0.002678,0.000431,0.002703
91252000,0.0324,0.013523,0.002678,0.000431,0.002586
91253000,0.0324,0.013523,0.002678,0.000431,0.002703
91254000,0.0324,0.013523,0.002678,0.000431,0.002821
91255000,0.0324,0.013523,0.002678,0.000431,0.002703
91256000,0.0324,0.013523,0.002678,0.000431,0.002586
91257000,0.0324,0.013523,0.002678,0.000431,0.002586
91258000,0.0324,0.013523,0.002678,0.000431,0.003996
91259000,0.0324,0.013523,0.002678,0.000431,0.001763
91260000,0.0324,0.013523,0.002678,0.000431,0.003291
91261000,0.0324,0.013523,0.002678,0.000431,0.000940
91262000,0.0324,0.013523,0.002678,0.000431,0.000940
91263000,0.0324,0.013523,0.002678,0.000431,0.000705
91264000,0.0324,0.013523,0.002678,0.000431,0.000940
91265000,0.0324,0.013523,0.002678,0.000431,0.000940
91266000,0.0324,0.013523,0.002678,0.000431,0.000940
91267000,0.0324,0.013523,0.002678,0.000431,0.000705
91268000,0.0324,0.013523,0.002678,0.000431,0.000940
91269000,0.0324,0.013523,0.002678,0.000431,0.000940
91270000,0.0324,0.013523,0.002678,0.000431,0.000823
91271000,0.0324,0.013523,0.002678,0.000431,0.000823
91272000,0.0324,0.013523,0.002678,0.000431,0.000940
91273000,0.0324,0.013523,0.002678,0.000431,0.000940
91274000,0.0324,0.013523,0.002678,0.000431,0.000823
91275000,0.0324,0.013523,0.002678,0.000431,0.000823
91276000,0.0324,0.013523,0.002678,0.000431,0.000940
91277000,0.0324,0.013523,0.002678,0.000431,0.000823
91278000,0.0324,0.013523,0.002678,0.000431,0.000823
91279000,0.0324,0.013523,0.002678,0.000431,0.000940
91280000,0.0324,0.013523,0.002678,0.000431,0.000940
91281000,0.0324,0.013523,0.002678,0.000431,0.000823
91282000,0.0324,0.013523,0.002678,0.000431,0.000823
91283000,0.0324,0.013523,0.002678,0.000431,0.000940
91284000,0.0324,0.013523,0.002678,0.000431,0.000940
91285000,0.0324,0.013523,0.002678,0.000431,0.000823
91286000,0.0324,0.013523,0.002678,0.000431,0.000823
91287000,0.0324,0.013523,0.002678,0.000431,0.000940
91288000,0.0324,0.013523,0.002678,0.000431,0.000940
91289000,0.0324,0.013523,0.002678,0.000431,0.000823
91290000,0.0324,0.013523,0.002678,0.000431,0.000823
91291000,0.0324,0.013523,0.002678,0.000431,0.000940
91292000,0.0324,0.013523,0.002678,0.000431,0.000823
91293000,0.0324,0.013523,0.002678,0.000431,0.000940
91294000,0.0324,0.013523,0.002678,0.000431,0.000823
91295000,0.0324,0.013523,0.002678,0.000431,0.000940
91296000,0.0324,0.013523,0.002678,0.000431,0.000823
91297000,0.0324,0.013523,0.002678,0.000431,0.000823
91298000,0.0324,0.013523,0.002678,0.000431,0.000940
91299000,0.0324,0.013523,0.002678,0.000431,0.000940
91300000,0.0324,0.013523,0.002678,0.000431,0.000823
91301000,0.0324,0.013523,0.002678,0.000431,0.000823
91302000,0.0324,0.013523,0.002678,0.000431,0.000940
91303000,0.0324,0.013523,0.002678,0.000431,0.000940
91304000,0.0324,0.013523,0.002678,0.000431,0.000705
91305000,0.0324,0.013523,0.002678,0.000431,0.000940
91306000,0.0324,0.013523,0.002678,0.000431,0.000940
91307000,0.0324,0.013523,0.002678,0.000431,0.000940
91308000,0.0324,0.013523,0.002678,0.000431,0.000823
91309000,0.0324,0.013523,0.002678,0.000431,0.000823
91310000,0.0324,0.013523,0.002678,0.000431,0.000940
91311000,0.0324,0.013523,0.002678,0.000431,0.000823
91312000,0.0324,0.013523,0.002678,0.000431,0.000940
91313000,0.0324,0.013523,0.002678,0.000431,0.000823
91314000,0.0324,0.013523,0.002678,0.000431,0.000940
91315000,0.0324,0.013523,0.002678,0.000431,0.000823
91316000,0.0324,0.013523,0.002678,0.000431,0.000823
91317000,0.0324,0.013523,0.002678,0.000431,0.000940
91318000,0.0324,0.013523,0.002678,0.000431,0.000940
91319000,0.0324,0.013523,0.002678,0.000431,0.000705
91320000,0.0324,0.013523,0.002678,0.000431,0.000940
91321000,0.0324,0.013523,0.002678,0.000431,0.000940
91322000,0.0324,0.013523,0.002678,0.000431,0.000940
91323000,0.0324,0.013523,0.002678,0.000431,0.000705
91324000,0.0324,0.013523,0.002678,0.000431,0.000940
91325000,0.0324,0.013523,0.002678,0.000431,0.000940
91326000,0.0324,0.013523,0.002678,0.000431,0.000823
91327000,0.0324,0.013523,0.002678,0.000431,0.000823
91328000,0.0324,0.013523,0.002678,0.000431,0.000940
91329000,0.0324,0.013523,0.002678,0.000431,0.000940
91330000,0.0324,0.013523,0.002678,0.000431,0.000823
91331000,0.0324,0.013523,0.002678,0.000431,0.000823
91332000,0.0324,0.013523,0.002678,0.000431,0.000940
91333000,0.0324,0.013523,0.002678,0.000431,0.005406
91334000,0.0324,0.013523,0.002678,0.000431,0.484804
91335000,0.0324,0.013523,0.002678,0.000431,0.633829
91336000,0.0324,0.013523,0.002678,0.000431,0.133982
91337000,0.0324,0.013523,0.002678,0.000431,0.132337
91338000,0.0324,0.013523,0.002678,0.000431,0.310980
91339000,0.0324,0.013523,0.002678,0.000431,0.437322
91340000,0.0324,0.013523,0.002678,0.000431,0.237995
91341000,0.0324,0.013523,0.002678,0.000431,0.339656
91342000,0.0324,0.013523,0.002678,0.000431,0.184402
91343000,0.0324,0.013523,0.002678,0.000431,0.144795
91344000,0.0324,0.013523,0.002678,0.000431,0.122229
91345000,0.0324,0.013523,0.002678,0.000431,0.297699
91346000,0.0324,0.013523,0.002678,0.000431,0.402064
91347000,0.0324,0.013523,0.002678,0.000431,0.069342
91348000,0.0324,0.013523,0.002678,0.000431,0.048422
91349000,0.0324,0.013523,0.002678,0.000431,0.040430
91350000,0.0324,0.013523,0.002678,0.000431,0.031262
91351000,0.0324,0.013523,0.002678,0.000431,0.030440
91352000,0.0324,0.013523,0.002678,0.000431,0.024563
91353000,0.0324,0.013523,0.002678,0.000431,0.014573
91354000,0.0324,0.013523,0.002678,0.000431,0.015161
91355000,0.0324,0.013523,0.002678,0.000431,0.014573
91356000,0.0324,0.013523,0.002678,0.000431,0.010578
91357000,0.0324,0.013523,0.002678,0.000431,0.010342
91358000,0.0324,0.013523,0.002678,0.000431,0.010578
91359000,0.0324,0.013523,0.002678,0.000431,0.007052
91360000,0.0324,0.013523,0.002678,0.000431,0.006582
91361000,0.0324,0.013523,0.002678,0.000431,0.007052
91362000,0.0324,0.013523,0.002678,0.000431,0.006464
91363000,0.0324,0.013523,0.002678,0.000431,0.006934
91364000,0.0324,0.013523,0.002678,0.000431,0.007522
91365000,0.0324,0.013523,0.002678,0.000431,0.006229
91366000,0.0324,0.013523,0.002678,0.000431,0.007052
91367000,0.0324,0.013523,0.002678,0.000431,0.008345
91368000,0.0324,0.013523,0.002678,0.000431,0.008345
91369000,0.0324,0.013523,0.002678,0.000431,0.004936
91370000,0.0324,0.013523,0.002678,0.000431,0.003643
91371000,0.0324,0.013523,0.002678,0.000431,0.003408
91372000,0.0324,0.013523,0.002678,0.000431,0.003526
91373000,0.0324,0.013523,0.002678,0.000431,0.002938
91374000,0.0324,0.013523,0.002678,0.000431,0.003408
91375000,0.0324,0.013523,0.002678,0.000431,0.003291
91376000,0.0324,0.013523,0.002678,0.000431,0.002938
91377000,0.0324,0.013523,0.002678,0.000431,0.003173
91378000,0.0324,0.013523,0.002678,0.000431,0.003056
91379000,0.0324,0.013523,0.002678,0.000431,0.003526
91380000,0.0324,0.013523,0.002678,0.000431,0.003408
91381000,0.0324,0.013523,0.002678,0.000431,0.002821
91382000,0.0324,0.013523,0.002678,0.000431,0.002468
91383000,0.0324,0.013523,0.002678,0.000431,0.002703
91384000,0.0324,0.013523,0.002678,0.000431,0.002586
91385000,0.0324,0.013523,0.002678,0.000431,0.004701
91386000,0.0324,0.013523,0.002678,0.000431,0.001763
91387000,0.0324,0.013523,0.002678,0.000431,0.001763
91388000,0.0324,0.013523,0.002678,0.000431,0.001645
91389000,0.0324,0.013523,0.002678,0.000431,0.001880
91390000,0.0324,0.013523,0.002678,0.000431,0.001528
91391000,0.0324,0.013523,0.002678,0.000431,0.001880
91392000,0.0324,0.013523,0.002678,0.000431,0.001645
91393000,0.0324,0.013523,0.002678,0.000431,0.002351
91394000,0.0324,0.013523,0.002678,0.000431,0.002703
91395000,0.0324,0.013523,0.002678,0.000431,0.000940
91396000,0.0324,0.013523,0.002678,0.000431,0.000705
91397000,0.0324,0.013523,0.002678,0.000431,0.000940
91398000,0.0324,0.013523,0.002678,0.000431,0.000940
91399000,0.0324,0.013523,0.002678,0.000431,0.000940
91400000,0.0324,0.013523,0.002678,0.000431,0.000705
91401000,0.0324,0.013523,0.002678,0.000431,0.000940
91402000,0.0324,0.013523,0.002678,0.000431,0.000940
91403000,0.0324,0.013523,0.002678,0.000431,0.000823
91404000,0.0324,0.013523,0.002678,0.000431,0.000823
91405000,0.0324,0.013523,0.002678,0.000431,0.000940
91406000,0.0324,0.013523,0.002678,0.000431,0.000940
91407000,0.0324,0.013523,0.002678,0.000431,0.000823
91408000,0.0324,0.013523,0.002678,0.000431,0.000823
91409000,0.0324,0.013523,0.002678,0.000431,0.000940
91410000,0.0324,0.013523,0.002678,0.000431,0.000823
91411000,0.0324,0.013523,0.002678,0.000431,0.000940
91412000,0.0324,0.013523,0.002678,0.000431,0.000823
91413000,0.0324,0.013523,0.002678,0.000431,0.000940
91414000,0.0324,0.013523,0.002678,0.000431,0.000823
91415000,0.0324,0.013523,0.002678,0.000431,0.000823
91416000,0.0324,0.013523,0.002678,0.000431,0.000940
91417000,0.0324,0.013523,0.002678,0.000431,0.000940
91418000,0.0324,0.013523,0.002678,0.000431,0.000823
91419000,0.0324,0.013523,0.002678,0.000431,0.000823
91420000,0.0324,0.013523,0.002678,0.000431,0.000940
91421000,0.0324,0.013523,0.002678,0.000431,0.000940
91422000,0.0324,0.013523,0.002678,0.000431,0.000823
91423000,0.0324,0.013523,0.002678,0.000431,0.000823
91424000,0.0324,0.013523,0.002678,0.000431,0.000940
91425000,0.0324,0.013523,0.002678,0.000431,0.000940
91426000,0.0324,0.013523,0.002678,0.000431,0.000823
91427000,0.0324,0.013523,0.002678,0.000431,0.000823
91428000,0.0324,0.013523,0.002678,0.000431,0.000940
91429000,0.0324,0.013523,0.002678,0.000431,0.000823
91430000,0.0324,0.013523,0.002678,0.000431,0.000940
91431000,0.0324,0.013523,0.002678,0.000431,0.000823
91432000,0.0324,0.013523,0.002678,0.000431,0.000940
91433000,0.0324,0.013523,0.002678,0.000431,0.000823
91434000,0.0324,0.013523,0.002678,0.000431,0.000823
91435000,0.0324,0.013523,0.002678,0.000431,0.000940
91436000,0.0324,0.013523,0.002678,0.000431,0.000940
91437000,0.0324,0.013523,0.002678,0.000431,0.000823
91438000,0.0324,0.013523,0.002678,0.000431,0.000823
91439000,0.0324,0.013523,0.002678,0.000431,0.000940
91440000,0.0324,0.013523,0.002678,0.000431,0.000940
91441000,0.0324,0.013523,0.002678,0.000431,0.000705
91442000,0.0324,0.013523,0.002678,0.000431,0.000940
91443000,0.0324,0.013523,0.002678,0.000431,0.000940
91444000,0.0324,0.013523,0.002678,0.000431,0.000823
91445000,0.0324,0.013523,0.002678,0.000431,0.000940
91446000,0.0324,0.013523,0.002678,0.000431,0.000823
91447000,0.0324,0.013523,0.002678,0.000431,0.000940
91448000,0.0324,0.013523,0.002678,0.000431,0.000823
91449000,0.0324,0.013523,0.002678,0.000431,0.000823
91450000,0.0324,0.013523,0.002678,0.000431,0.000940
91451000,0.0324,0.013523,0.002678,0.000431,0.000823
91452000,0.0324,0.013523,0.002678,0.000431,0.000940
91453000,0.0324,0.013523,0.002678,0.000431,0.000823
91454000,0.0324,0.013523,0.002678,0.000431,0.000940
91455000,0.0324,0.013523,0.002678,0.000431,0.000940
91456000,0.0324,0.013523,0.002678,0.000431,0.000705
91457000,0.0324,0.013523,0.002678,0.000431,0.000940
91458000,0.0324,0.013523,0.002678,0.000431,0.000940
91459000,0.0324,0.013523,0.002678,0.000431,0.000940
91460000,0.0324,0.013523,0.002678,0.000431,0.000705
91461000,0.0324,0.013523,0.002678,0.000431,0.000940
91462000,0.0324,0.013523,0.002678,0.000431,0.000940
91463000,0.0324,0.013523,0.002678,0.000431,0.000823
91464000,0.0324,0.013523,0.002678,0.000431,0.000823
91465000,0.0324,0.013523,0.002678,0.000431,0.000940
91466000,0.0324,0.013523,0.002678,0.000431,0.000940
91467000,0.0324,0.013523,0.002678,0.000431,0.000823
91468000,0.0324,0.013523,0.002678,0.000431,0.000823
91469000,0.0324,0.013523,0.002678,0.000431,0.000940
91470000,0.0324,0.013523,0.002678,0.000431,0.000823
91471000,0.0324,0.013523,0.002678,0.000431,0.000940
91472000,0.0324,0.013523,0.002678,0.000431,0.000823
91473000,0.0324,0.013523,0.002678,0.000431,0.000940
91474000,0.0324,0.013523,0.002678,0.000431,0.000823
91475000,0.0324,0.013523,0.002678,0.000431,0.000823
91476000,0.0324,0.013523,0.002678,0.000431,0.000940
91477000,0.0324,0.013523,0.002678,0.000431,0.000940
91478000,0.0324,0.013523,0.002678,0.000431,0.000823
91479000,0.0324,0.013523,0.002678,0.000431,0.000823
91480000,0.0324,0.013523,0.002678,0.000431,0.000940
91481000,0.0324,0.013523,0.002678,0.000431,0.000940
91482000,0.0324,0.013523,0.002678,0.000431,0.000823
91483000,0.0324,0.013523,0.002678,0.000431,0.000823
91484000,0.0324,0.013523,0.002678,0.000431,0.000940
91485000,0.0324,0.013523,0.002678,0.000431,0.000823
91486000,0.0324,0.013523,0.002678,0.000431,0.000940
91487000,0.0324,0.013523,0.002678,0.000431,0.000823
91488000,0.0324,0.013523,0.002678,0.000431,0.000940
91489000,0.0324,0.013523,0.002678,0.000431,0.000823
91490000,0.0324,0.013523,0.002678,0.000431,0.000823
91491000,0.0324,0.013523,0.002678,0.000431,0.000940
91492000,0.0324,0.013523,0.002678,0.000431,0.000940
91493000,0.0324,0.013523,0.002678,0.000431,0.000823
91494000,0.0324,0.013523,0.002678,0.000431,0.000823
91495000,0.0324,0.013523,0.002678,0.000431,0.000940
91496000,0.0324,0.013523,0.002678,0.000431,0.000940
91497000,0.0324,0.013523,0.002678,0.000431,0.000705
91498000,0.0324,0.013523,0.002678,0.000431,0.000940
91499000,0.0324,0.013523,0.002678,0.000431,0.000940
91500000,0.0324,0.013523,0.002678,0.000431,0.000940
91501000,0.0324,0.013523,0.002678,0.000431,0.000705
91502000,0.0324,0.013523,0.002678,0.000431,0.000940
91503000,0.0324,0.013523,0.002678,0.000431,0.000940
91504000,0.0324,0.013523,0.002678,0.000431,0.000823
91505000,0.0324,0.013523,0.002678,0.000431,0.000940
91506000,0.0324,0.013523,0.002678,0.000431,0.000823
91507000,0.0324,0.013523,0.002678,0.000431,0.000940
91508000,0.0324,0.013523,0.002678,0.000431,0.000823
91509000,0.0324,0.013523,0.002678,0.000431,0.000823
91510000,0.0324,0.013523,0.002678,0.000431,0.000940
91511000,0.0324,0.013523,0.002678,0.000431,0.000823
91512000,0.0324,0.013523,0.002678,0.000431,0.000940
91513000,0.0324,0.013523,0.002678,0.000431,0.000823
91514000,0.0324,0.013523,0.002678,0.000431,0.000940
91515000,0.0324,0.013523,0.002678,0.000431,0.000940
91516000,0.0324,0.013523,0.002678,0.000431,0.000705
91517000,0.0324,0.013523,0.002678,0.000431,0.000940
91518000,0.0324,0.013523,0.002678,0.000431,0.000940
91519000,0.0324,0.013523,0.002678,0.000431,0.000940
91520000,0.0324,0.013523,0.002678,0.000431,0.000705
91521000,0.0324,0.013523,0.002678,0.000431,0.000940
91522000,0.0324,0.013523,0.002678,0.000431,0.000940
91523000,0.0324,0.013523,0.002678,0.000431,0.000823
91524000,0.0324,0.013523,0.002678,0.000431,0.000823
91525000,0.0324,0.013523,0.002678,0.000431,0.000940
91526000,0.0324,0.013523,0.002678,0.000431,0.000823
91527000,0.0324,0.013523,0.002678,0.000431,0.000940
91528000,0.0324,0.013523,0.002678,0.000431,0.000823
91529000,0.0324,0.013523,0.002678,0.000431,0.000940
91530000,0.0324,0.013523,0.002678,0.000431,0.000823
91531000,0.0324,0.013523,0.002678,0.000431,0.000823
91532000,0.0324,0.013523,0.002678,0.000431,0.000940
91533000,0.0324,0.013523,0.002678,0.000431,0.000940
91534000,0.0324,0.013523,0.002678,0.000431,0.000823
91535000,0.0324,0.013523,0.002678,0.000431,0.000823
91536000,0.0324,0.013523,0.002678,0.000431,0.000940
91537000,0.0324,0.013523,0.002678,0.000431,0.000940
91538000,0.0324,0.013523,0.002678,0.000431,0.000823
91539000,0.0324,0.013523,0.002678,0.000431,0.000823
91540000,0.0324,0.013523,0.002678,0.000431,0.000940
91541000,0.0324,0.013523,0.002678,0.000431,0.000940
91542000,0.0324,0.013523,0.002678,0.000431,0.000823
91543000,0.0324,0.013523,0.002678,0.000431,0.000823
91544000,0.0324,0.013523,0.002678,0.000431,0.000940
91545000,0.0324,0.013523,0.002678,0.000431,0.000823
91546000,0.0324,0.013523,0.002678,0.000431,0.000940
91547000,0.0324,0.013523,0.002678,0.000431,0.000823
91548000,0.0324,0.013523,0.002678,0.000431,0.000940
91549000,0.0324,0.013523,0.002678,0.000431,0.000823
91550000,0.0324,0.013523,0.002678,0.000431,0.074630
91551000,0.0324,0.013523,0.002678,0.000431,0.634770
91552000,0.0324,0.013523,0.002678,0.000431,0.522530
91553000,0.0324,0.013523,0.002678,0.000431,0.135392
91554000,0.0324,0.013523,0.002678,0.000431,0.200738
91555000,0.0324,0.013523,0.002678,0.000431,0.593517
91556000,0.0324,0.013523,0.002678,0.000431,0.301107
91557000,0.0324,0.013523,0.002678,0.000431,0.298992
91558000,0.0324,0.013523,0.002678,0.000431,0.152787
91559000,0.0324,0.013523,0.002678,0.000431,0.139388
91560000,0.0324,0.013523,0.002678,0.000431,0.225184
91561000,0.0324,0.013523,0.002678,0.000431,0.379734
91562000,0.0324,0.013523,0.002678,0.000431,0.082387
91563000,0.0324,0.013523,0.002678,0.000431,0.069812
91564000,0.0324,0.013523,0.002678,0.000431,0.061937
91565000,0.0324,0.013523,0.002678,0.000431,0.051242
91566000,0.0324,0.013523,0.002678,0.000431,0.041840
91567000,0.0324,0.013523,0.002678,0.000431,0.031615
91568000,0.0324,0.013523,0.002678,0.000431,0.032438
91569000,0.0324,0.013523,0.002678,0.000431,0.024093
91570000,0.0324,0.013523,0.002678,0.000431,0.023506
91571000,0.0324,0.013523,0.002678,0.000431,0.021743
91572000,0.0324,0.013523,0.002678,0.000431,0.020332
91573000,0.0324,0.013523,0.002678,0.000431,0.019510
91574000,0.0324,0.013523,0.002678,0.000431,0.017629
91575000,0.0324,0.013523,0.002678,0.000431,0.014573
91576000,0.0324,0.013523,0.002678,0.000431,0.017394
91577000,0.0324,0.013523,0.002678,0.000431,0.016336
91578000,0.0324,0.013523,0.002678,0.000431,0.012693
91579000,0.0324,0.013523,0.002678,0.000431,0.008697
91580000,0.0324,0.013523,0.002678,0.000431,0.010695
91581000,0.0324,0.013523,0.002678,0.000431,0.007287
91582000,0.0324,0.013523,0.002678,0.000431,0.007287
91583000,0.0324,0.013523,0.002678,0.000431,0.008580
91584000,0.0324,0.013523,0.002678,0.000431,0.006464
91585000,0.0324,0.013523,0.002678,0.000431,0.007639
91586000,0.0324,0.013523,0.002678,0.000431,0.007287
91587000,0.0324,0.013523,0.002678,0.000431,0.004936
91588000,0.0324,0.013523,0.002678,0.000431,0.006464
91589000,0.0324,0.013523,0.002678,0.000431,0.005406
91590000,0.0324,0.013523,0.002678,0.000431,0.005406
91591000,0.0324,0.013523,0.002678,0.000431,0.005759
91592000,0.0324,0.013523,0.002678,0.000431,0.005289
91593000,0.0324,0.013523,0.002678,0.000431,0.006111
91594000,0.0324,0.013523,0.002678,0.000431,0.005054
91595000,0.0324,0.013523,0.002678,0.000431,0.005994
91596000,0.0324,0.013523,0.002678,0.000431,0.005406
91597000,0.0324,0.013523,0.002678,0.000431,0.005406
91598000,0.0324,0.013523,0.002678,0.000431,0.007757
91599000,0.0324,0.013523,0.002678,0.000431,0.004466
91600000,0.0324,0.013523,0.002678,0.000431,0.006464
91601000,0.0324,0.013523,0.002678,0.000431,0.003996
91602000,0.0324,0.013523,0.002678,0.000431,0.003643
91603000,0.0324,0.013523,0.002678,0.000431,0.004231
91604000,0.0324,0.013523,0.002678,0.000431,0.003643
91605000,0.0324,0.013523,0.002678,0.000431,0.003761
91606000,0.0324,0.013523,0.002678,0.000431,0.005406
91607000,0.0324,0.013523,0.002678,0.000431,0.002703
91608000,0.0324,0.013523,0.002678,0.000431,0.002938
91609000,0.0324,0.013523,0.002678,0.000431,0.003056
91610000,0.0324,0.013523,0.002678,0.000431,0.002821
91611000,0.0324,0.013523,0.002678,0.000431,0.003173
91612000,0.0324,0.013523,0.002678,0.000431,0.002938
91613000,0.0324,0.013523,0.002678,0.000431,0.003056
91614000,0.0324,0.013523,0.002678,0.000431,0.003173
91615000,0.0324,0.013523,0.002678,0.000431,0.002703
91616000,0.0324,0.013523,0.002678,0.000431,0.003291
91617000,0.0324,0.013523,0.002678,0.000431,0.002938
91618000,0.0324,0.013523,0.002678,0.000431,0.003408
91619000,0.0324,0.013523,0.002678,0.000431,0.004584
91620000,0.0324,0.013523,0.002678,0.000431,0.000940
91621000,0.0324,0.013523,0.002678,0.000431,0.000940
91622000,0.0324,0.013523,0.002678,0.000431,0.000940
91623000,0.0324,0.013523,0.002678,0.000431,0.000705
91624000,0.0324,0.013523,0.002678,0.000431,0.000940
91625000,0.0324,0.013523,0.002678,0.000431,0.000940
91626000,0.0324,0.013523,0.002678,0.000431,0.000940
91627000,0.0324,0.013523,0.002678,0.000431,0.000705
91628000,0.0324,0.013523,0.002678,0.000431,0.000940
91629000,0.0324,0.013523,0.002678,0.000431,0.000940
91630000,0.0324,0.013523,0.002678,0.000431,0.000823
91631000,0.0324,0.013523,0.002678,0.000431,0.000823
91632000,0.0324,0.013523,0.002678,0.000431,0.000940
91633000,0.0324,0.013523,0.002678,0.000431,0.000940
91634000,0.0324,0.013523,0.002678,0.000431,0.000823
91635000,0.0324,0.013523,0.002678,0.000431,0.000823
91636000,0.0324,0.013523,0.002678,0.000431,0.000940
91637000,0.0324,0.013523,0.002678,0.000431,0.000823
91638000,0.0324,0.013523,0.002678,0.000431,0.000940
91639000,0.0324,0.013523,0.002678,0.000431,0.000823
91640000,0.0324,0.013523,0.002678,0.000431,0.000940
91641000,0.0324,0.013523,0.002678,0.000431,0.000823
91642000,0.0324,0.013523,0.002678,0.000431,0.000823
91643000,0.0324,0.013523,0.002678,0.000431,0.203676
91644000,0.0324,0.013523,0.002678,0.000431,0.561315
91645000,0.0324,0.013523,0.002678,0.000431,0.435089
91646000,0.0324,0.013523,0.002678,0.000431,0.132102
91647000,0.0324,0.013523,0.002678,0.000431,0.133042
91648000,0.0324,0.013523,0.002678,0.000431,0.584233
91649000,0.0324,0.013523,0.002678,0.000431,0.238700
91650000,0.0324,0.013523,0.002678,0.000431,0.262675
91651000,0.0324,0.013523,0.002678,0.000431,0.260207
91652000,0.0324,0.013523,0.002678,0.000431,0.140094
91653000,0.0324,0.013523,0.002678,0.000431,0.178173
91654000,0.0324,0.013523,0.002678,0.000431,0.099194
91655000,0.0324,0.013523,0.002678,0.000431,0.482336
91656000,0.0324,0.013523,0.002678,0.000431,0.145265
91657000,0.0324,0.013523,0.002678,0.000431,0.100134
91658000,0.0324,0.013523,0.002678,0.000431,0.092612
91659000,0.0324,0.013523,0.002678,0.000431,0.076393
91660000,0.0324,0.013523,0.002678,0.000431,0.059352
91661000,0.0324,0.013523,0.002678,0.000431,0.049127
91662000,0.0324,0.013523,0.002678,0.000431,0.040195
91663000,0.0324,0.013523,0.002678,0.000431,0.033143
91664000,0.0324,0.013523,0.002678,0.000431,0.026326
91665000,0.0324,0.013523,0.002678,0.000431,0.018922
91666000,0.0324,0.013523,0.002678,0.000431,0.017512
91667000,0.0324,0.013523,0.002678,0.000431,0.023271
91668000,0.0324,0.013523,0.002678,0.000431,0.012223
91669000,0.0324,0.013523,0.002678,0.000431,0.009872
91670000,0.0324,0.013523,0.002678,0.000431,0.007052
91671000,0.0324,0.013523,0.002678,0.000431,0.008932
91672000,0.0324,0.013523,0.002678,0.000431,0.009167
91673000,0.0324,0.013523,0.002678,0.000431,0.004466
91674000,0.0324,0.013523,0.002678,0.000431,0.003996
91675000,0.0324,0.013523,0.002678,0.000431,0.002233
91676000,0.0324,0.013523,0.002678,0.000431,0.002703
91677000,0.0324,0.013523,0.002678,0.000431,0.002586
91678000,0.0324,0.013523,0.002678,0.000431,0.002468
91679000,0.0324,0.013523,0.002678,0.000431,0.002468
91680000,0.0324,0.013523,0.002678,0.000431,0.002468
91681000,0.0324,0.013523,0.002678,0.000431,0.002586
91682000,0.0324,0.013523,0.002678,0.000431,0.002351
91683000,0.0324,0.013523,0.002678,0.000431,0.002821
91684000,0.0324,0.013523,0.002678,0.000431,0.002351
91685000,0.0324,0.013523,0.002678,0.000431,0.002586
91686000,0.0324,0.013523,0.002678,0.000431,0.002351
91687000,0.0324,0.013523,0.002678,0.000431,0.002586
91688000,0.0324,0.013523,0.002678,0.000431,0.002821
91689000,0.0324,0.013523,0.002678,0.000431,0.002116
91690000,0.0324,0.013523,0.002678,0.000431,0.002586
91691000,0.0324,0.013523,0.002678,0.000431,0.002586
91692000,0.0324,0.013523,0.002678,0.000431,0.002586
91693000,0.0324,0.013523,0.002678,0.000431,0.002468
91694000,0.0324,0.013523,0.002678,0.000431,0.002468
91695000,0.0324,0.013523,0.002678,0.000431,0.002351
91696000,0.0324,0.013523,0.002678,0.000431,0.002586
91697000,0.0324,0.013523,0.002678,0.000431,0.002821
91698000,0.0324,0.013523,0.002678,0.000431,0.002233
91699000,0.0324,0.013523,0.002678,0.000431,0.002703
91700000,0.0324,0.013523,0.002678,0.000431,0.002233
91701000,0.0324,0.013523,0.002678,0.000431,0.002703
91702000,0.0324,0.013523,0.002678,0.000431,0.002821
91703000,0.0324,0.013523,0.002678,0.000431,0.002116
91704000,0.0324,0.013523,0.002678,0.000431,0.002821
91705000,0.0324,0.013523,0.002678,0.000431,0.002233
91706000,0.0324,0.013523,0.002678,0.000431,0.002703
91707000,0.0324,0.013523,0.002678,0.000431,0.002468
91708000,0.0324,0.013523,0.002678,0.000431,0.002468
91709000,0.0324,0.013523,0.002678,0.000431,0.002351
91710000,0.0324,0.013523,0.002678,0.000431,0.002586
91711000,0.0324,0.013523,0.002678,0.000431,0.002821
91712000,0.0324,0.013523,0.002678,0.000431,0.002351
91713000,0.0324,0.013523,0.002678,0.000431,0.002586
91714000,0.0324,0.013523,0.002678,0.000431,0.002351
91715000,0.0324,0.013523,0.002678,0.000431,0.002586
91716000,0.0324,0.013523,0.002678,0.000431,0.002586
91717000,0.0324,0.013523,0.002678,0.000431,0.002351
91718000,0.0324,0.013523,0.002678,0.000431,0.002821
91719000,0.0324,0.013523,0.002678,0.000431,0.002116
91720000,0.0324,0.013523,0.002678,0.000431,0.002821
91721000,0.0324,0.013523,0.002678,0.000431,0.002468
91722000,0.0324,0.013523,0.002678,0.000431,0.002468
91723000,0.0324,0.013523,0.002678,0.000431,0.002233
91724000,0.0324,0.013523,0.002678,0.000431,0.002703
91725000,0.0324,0.013523,0.002678,0.000431,0.002821
91726000,0.0324,0.013523,0.002678,0.000431,0.002116
91727000,0.0324,0.013523,0.002678,0.000431,0.002821
91728000,0.0324,0.013523,0.002678,0.000431,0.002233
91729000,0.0324,0.013523,0.002678,0.000431,0.002586
91730000,0.0324,0.013523,0.002678,0.000431,0.002586
91731000,0.0324,0.013523,0.002678,0.000431,0.002468
91732000,0.0324,0.013523,0.002678,0.000431,0.002703
91733000,0.0324,0.013523,0.002678,0.000431,0.002233
91734000,0.0324,0.013523,0.002678,0.000431,0.002703
91735000,0.0324,0.013523,0.002678,0.000431,0.002468
91736000,0.0324,0.013523,0.002678,0.000431,0.002586
91737000,0.0324,0.013523,0.002678,0.000431,0.002468
91738000,0.0324,0.013523,0.002678,0.000431,0.002468
91739000,0.0324,0.013523,0.002678,0.000431,0.002351
91740000,0.0324,0.013523,0.002678,0.000431,0.002586
91741000,0.0324,0.013523,0.002678,0.000431,0.002703
91742000,0.0324,0.013523,0.002678,0.000431,0.002351
91743000,0.0324,0.013523,0.002678,0.000431,0.002586
91744000,0.0324,0.013523,0.002678,0.000431,0.002468
91745000,0.0324,0.013523,0.002678,0.000431,0.002586
91746000,0.0324,0.013523,0.002678,0.000431,0.002468
91747000,0.0324,0.013523,0.002678,0.000431,0.002468
91748000,0.0324,0.013523,0.002678,0.000431,0.002468
91749000,0.0324,0.013523,0.002678,0.000431,0.002468
91750000,0.0324,0.013523,0.002678,0.000431,0.002703
91751000,0.0324,0.013523,0.002678,0.000431,0.002468
91752000,0.0324,0.013523,0.002678,0.000431,0.002586
91753000,0.0324,0.013523,0.002678,0.000431,0.002116
91754000,0.0324,0.013523,0.002678,0.000431,0.002821
91755000,0.0324,0.013523,0.002678,0.000431,0.002586
91756000,0.0324,0.013523,0.002678,0.000431,0.002351
91757000,0.0324,0.013523,0.002678,0.000431,0.002586
91758000,0.0324,0.013523,0.002678,0.000431,0.002351
91759000,0.0324,0.013523,0.002678,0.000431,0.002586
91760000,0.0324,0.013523,0.002678,0.000431,0.002586
91761000,0.0324,0.013523,0.002678,0.000431,0.002468
91762000,0.0324,0.013523,0.002678,0.000431,0.004466
91763000,0.0324,0.013523,0.002678,0.000431,0.001410
91764000,0.0324,0.013523,0.002678,0.000431,0.001880
91765000,0.0324,0.013523,0.002678,0.000431,0.001645
91766000,0.0324,0.013523,0.002678,0.000431,0.001645
91767000,0.0324,0.013523,0.002678,0.000431,0.001645
91768000,0.0324,0.013523,0.002678,0.000431,0.001645
91769000,0.0324,0.013523,0.002678,0.000431,0.001645
91770000,0.0324,0.013523,0.002678,0.000431,0.001645
91771000,0.0324,0.013523,0.002678,0.000431,0.001880
91772000,0.0324,0.013523,0.002678,0.000431,0.001410
91773000,0.0324,0.013523,0.002678,0.000431,0.001880
91774000,0.0324,0.013523,0.002678,0.000431,0.001645
91775000,0.0324,0.013523,0.002678,0.000431,0.001645
91776000,0.0324,0.013523,0.002678,0.000431,0.001410
91777000,0.0324,0.013523,0.002678,0.000431,0.001880
91778000,0.0324,0.013523,0.002678,0.000431,0.001880
91779000,0.0324,0.013523,0.002678,0.000431,0.001410
91780000,0.0324,0.013523,0.002678,0.000431,0.001880
91781000,0.0324,0.013523,0.002678,0.000431,0.001410
91782000,0.0324,0.013523,0.002678,0.000431,0.001880
91783000,0.0324,0.013523,0.002678,0.000431,0.001645
91784000,0.0324,0.013523,0.002678,0.000431,0.001645
91785000,0.0324,0.013523,0.002678,0.000431,0.001880
91786000,0.0324,0.013523,0.002678,0.000431,0.001410
91787000,0.0324,0.013523,0.002678,0.000431,0.001880
91788000,0.0324,0.013523,0.002678,0.000431,0.001645
91789000,0.0324,0.013523,0.002678,0.000431,0.001645
91790000,0.0324,0.013523,0.002678,0.000431,0.001645
91791000,0.0324,0.013523,0.002678,0.000431,0.001645
91792000,0.0324,0.013523,0.002678,0.000431,0.001645
91793000,0.0324,0.013523,0.002678,0.000431,0.001645
91794000,0.0324,0.013523,0.002678,0.000431,0.001880
91795000,0.0324,0.013523,0.002678,0.000431,0.001410
91796000,0.0324,0.013523,0.002678,0.000431,0.001645
91797000,0.0324,0.013523,0.002678,0.000431,0.001880
91798000,0.0324,0.013523,0.002678,0.000431,0.001645
91799000,0.0324,0.013523,0.002678,0.000431,0.001880
91800000,0.0324,0.013523,0.002678,0.000431,0.001410
91801000,0.0324,0.013523,0.002678,0.000431,0.004701
91802000,0.0324,0.013523,0.002678,0.000431,0.473051
91803000,0.0324,0.013523,0.002678,0.000431,0.686130
91804000,0.0324,0.013523,0.002678,0.000431,0.133042
91805000,0.0324,0.013523,0.002678,0.000431,0.133042
91806000,0.0324,0.013523,0.002678,0.000431,0.402064
91807000,0.0324,0.013523,0.002678,0.000431,0.410526
91808000,0.0324,0.013523,0.002678,0.000431,0.229885
91809000,0.0324,0.013523,0.002678,0.000431,0.348706
91810000,0.0324,0.013523,0.002678,0.000431,0.138448
91811000,0.0324,0.013523,0.002678,0.000431,0.161719
91812000,0.0324,0.013523,0.002678,0.000431,0.104835
91813000,0.0324,0.013523,0.002678,0.000431,0.473168
91814000,0.0324,0.013523,0.002678,0.000431,0.176057
91815000,0.0324,0.013523,0.002678,0.000431,0.108479
91816000,0.0324,0.013523,0.002678,0.000431,0.091554
91817000,0.0324,0.013523,0.002678,0.000431,0.077334
91818000,0.0324,0.013523,0.002678,0.000431,0.074043
91819000,0.0324,0.013523,0.002678,0.000431,0.064641
91820000,0.0324,0.013523,0.002678,0.000431,0.054886
91821000,0.0324,0.013523,0.002678,0.000431,0.037844
91822000,0.0324,0.013523,0.002678,0.000431,0.036081
91823000,0.0324,0.013523,0.002678,0.000431,0.037962
91824000,0.0324,0.013523,0.002678,0.000431,0.038784
91825000,0.0324,0.013523,0.002678,0.000431,0.028794
91826000,0.0324,0.013523,0.002678,0.000431,0.027149
91827000,0.0324,0.013523,0.002678,0.000431,0.025151
91828000,0.0324,0.013523,0.002678,0.000431,0.019392
91829000,0.0324,0.013523,0.002678,0.000431,0.015279
91830000,0.0324,0.013523,0.002678,0.000431,0.008932
91831000,0.0324,0.013523,0.002678,0.000431,0.009637
91832000,0.0324,0.013523,0.002678,0.000431,0.009167
91833000,0.0324,0.013523,0.002678,0.000431,0.008580
91834000,0.0324,0.013523,0.002678,0.000431,0.008580
91835000,0.0324,0.013523,0.002678,0.000431,0.008109
91836000,0.0324,0.013523,0.002678,0.000431,0.006111
91837000,0.0324,0.013523,0.002678,0.000431,0.006817
91838000,0.0324,0.013523,0.002678,0.000431,0.006817
91839000,0.0324,0.013523,0.002678,0.000431,0.009402
91840000,0.0324,0.013523,0.002678,0.000431,0.004231
91841000,0.0324,0.013523,0.002678,0.000431,0.003996
91842000,0.0324,0.013523,0.002678,0.000431,0.004466
91843000,0.0324,0.013523,0.002678,0.000431,0.004936
91844000,0.0324,0.013523,0.002678,0.000431,0.004349
91845000,0.0324,0.013523,0.002678,0.000431,0.003291
91846000,0.0324,0.013523,0.002678,0.000431,0.003291
91847000,0.0324,0.013523,0.002678,0.000431,0.003996
91848000,0.0324,0.013523,0.002678,0.000431,0.003173
91849000,0.0324,0.013523,0.002678,0.000431,0.002586
91850000,0.0324,0.013523,0.002678,0.000431,0.002351
91851000,0.0324,0.013523,0.002678,0.000431,0.002351
91852000,0.0324,0.013523,0.002678,0.000431,0.003643
91853000,0.0324,0.013523,0.002678,0.000431,0.000823
91854000,0.0324,0.013523,0.002678,0.000431,0.000823
91855000,0.0324,0.013523,0.002678,0.000431,0.000823
91856000,0.0324,0.013523,0.002678,0.000431,0.000940
91857000,0.0324,0.013523,0.002678,0.000431,0.000705
91858000,0.0324,0.013523,0.002678,0.000431,0.000940
91859000,0.0324,0.013523,0.002678,0.000431,0.000823
91860000,0.0324,0.013523,0.002678,0.000431,0.000823
91861000,0.0324,0.013523,0.002678,0.000431,0.000823
91862000,0.0324,0.013523,0.002678,0.000431,0.000823
91863000,0.0324,0.013523,0.002678,0.000431,0.000823
91864000,0.0324,0.013523,0.002678,0.000431,0.000823
91865000,0.0324,0.013523,0.002678,0.000431,0.000940
91866000,0.0324,0.013523,0.002678,0.000431,0.000705
91867000,0.0324,0.013523,0.002678,0.000431,0.000940
91868000,0.0324,0.013523,0.002678,0.000431,0.000705
91869000,0.0324,0.013523,0.002678,0.000431,0.000940
91870000,0.0324,0.013523,0.002678,0.000431,0.000940
91871000,0.0324,0.013523,0.002678,0.000431,0.000705
91872000,0.0324,0.013523,0.002678,0.000431,0.000940
91873000,0.0324,0.013523,0.002678,0.000431,0.000705
91874000,0.0324,0.013523,0.002678,0.000431,0.000940
91875000,0.0324,0.013523,0.002678,0.000431,0.000823
91876000,0.0324,0.013523,0.002678,0.000431,0.000823
91877000,0.0324,0.013523,0.002678,0.000431,0.000823
91878000,0.0324,0.013523,0.002678,0.000431,0.000823
91879000,0.0324,0.013523,0.002678,0.000431,0.000940
91880000,0.0324,0.013523,0.002678,0.000431,0.000705
91881000,0.0324,0.013523,0.002678,0.000431,0.000940
91882000,0.0324,0.013523,0.002678,0.000431,0.000823
91883000,0.0324,0.013523,0.002678,0.000431,0.000823
91884000,0.0324,0.013523,0.002678,0.000431,0.000823
91885000,0.0324,0.013523,0.002678,0.000431,0.000823
91886000,0.0324,0.013523,0.002678,0.000431,0.000823
91887000,0.0324,0.013523,0.002678,0.000431,0.000823
91888000,0.0324,0.013523,0.002678,0.000431,0.000823
91889000,0.0324,0.013523,0.002678,0.000431,0.000823
91890000,0.0324,0.013523,0.002678,0.000431,0.000940
91891000,0.0324,0.013523,0.002678,0.000431,0.000823
91892000,0.0324,0.013523,0.002678,0.000431,0.000823
91893000,0.0324,0.013523,0.002678,0.000431,0.000705
91894000,0.0324,0.013523,0.002678,0.000431,0.000940
91895000,0.0324,0.013523,0.002678,0.000431,0.000940
91896000,0.0324,0.013523,0.002678,0.000431,0.000705
91897000,0.0324,0.013523,0.002678,0.000431,0.000940
91898000,0.0324,0.013523,0.002678,0.000431,0.000705
91899000,0.0324,0.013523,0.002678,0.000431,0.000940
91900000,0.0324,0.013523,0.002678,0.000431,0.000823
91901000,0.0324,0.013523,0.002678,0.000431,0.000823
91902000,0.0324,0.013523,0.002678,0.000431,0.000940
91903000,0.0324,0.013523,0.002678,0.000431,0.000705
91904000,0.0324,0.013523,0.002678,0.000431,0.000940
91905000,0.0324,0.013523,0.002678,0.000431,0.000823
91906000,0.0324,0.013523,0.002678,0.000431,0.000823
91907000,0.0324,0.013523,0.002678,0.000431,0.000823
91908000,0.0324,0.013523,0.002678,0.000431,0.000823
91909000,0.0324,0.013523,0.002678,0.000431,0.000823
91910000,0.0324,0.013523,0.002678,0.000431,0.000823
91911000,0.0324,0.013523,0.002678,0.000431,0.000940
91912000,0.0324,0.013523,0.002678,0.000431,0.000705
91913000,0.0324,0.013523,0.002678,0.000431,0.000940
91914000,0.0324,0.013523,0.002678,0.000431,0.000823
91915000,0.0324,0.013523,0.002678,0.000431,0.000823
91916000,0.0324,0.013523,0.002678,0.000431,0.000705
91917000,0.0324,0.013523,0.002678,0.000431,0.000940
91918000,0.0324,0.013523,0.002678,0.000431,0.000940
91919000,0.0324,0.013523,0.002678,0.000431,0.000705
91920000,0.0324,0.013523,0.002678,0.000431,0.000940
91921000,0.0324,0.013523,0.002678,0.000431,0.000705
91922000,0.0324,0.013523,0.002678,0.000431,0.000940
91923000,0.0324,0.013523,0.002678,0.000431,0.000823
91924000,0.0324,0.013523,0.002678,0.000431,0.000823
91925000,0.0324,0.013523,0.002678,0.000431,0.000940
91926000,0.0324,0.013523,0.002678,0.000431,0.000705
91927000,0.0324,0.013523,0.002678,0.000431,0.000940
91928000,0.0324,0.013523,0.002678,0.000431,0.000823
91929000,0.0324,0.013523,0.002678,0.000431,0.000823
91930000,0.0324,0.013523,0.002678,0.000431,0.000823
91931000,0.0324,0.013523,0.002678,0.000431,0.000823
91932000,0.0324,0.013523,0.002678,0.000431,0.000940
91933000,0.0324,0.013523,0.002678,0.000431,0.000705
91934000,0.0324,0.013523,0.002678,0.000431,0.000940
91935000,0.0324,0.013523,0.002678,0.000431,0.000823
91936000,0.0324,0.013523,0.002678,0.000431,0.000705
91937000,0.0324,0.013523,0.002678,0.000431,0.000940
91938000,0.0324,0.013523,0.002678,0.000431,0.000823
91939000,0.0324,0.013523,0.002678,0.000431,0.000823
91940000,0.0324,0.013523,0.002678,0.000431,0.000823
91941000,0.0324,0.013523,0.002678,0.000431,0.000823
91942000,0.0324,0.013523,0.002678,0.000431,0.000823
91943000,0.0324,0.013523,0.002678,0.000431,0.000940
91944000,0.0324,0.013523,0.002678,0.000431,0.000823
91945000,0.0324,0.013523,0.002678,0.000431,0.000823
91946000,0.0324,0.013523,0.002678,0.000431,0.000705
91947000,0.0324,0.013523,0.002678,0.000431,0.000940
91948000,0.0324,0.013523,0.002678,0.000431,0.000940
91949000,0.0324,0.013523,0.002678,0.000431,0.000705
91950000,0.0324,0.013523,0.002678,0.000431,0.000940
91951000,0.0324,0.013523,0.002678,0.000431,0.000705
91952000,0.0324,0.013523,0.002678,0.000431,0.000940
91953000,0.0324,0.013523,0.002678,0.000431,0.000823
91954000,0.0324,0.013523,0.002678,0.000431,0.000823
91955000,0.0324,0.013523,0.002678,0.000431,0.000940
91956000,0.0324,0.013523,0.002678,0.000431,0.000705
91957000,0.0324,0.013523,0.002678,0.000431,0.000940
91958000,0.0324,0.013523,0.002678,0.000431,0.000705
91959000,0.0324,0.013523,0.002678,0.000431,0.000940
91960000,0.0324,0.013523,0.002678,0.000431,0.000823
91961000,0.0324,0.013523,0.002678,0.000431,0.000823
91962000,0.0324,0.013523,0.002678,0.000431,0.000823
91963000,0.0324,0.013523,0.002678,0.000431,0.000823
91964000,0.0324,0.013523,0.002678,0.000431,0.000940
91965000,0.0324,0.013523,0.002678,0.000431,0.000705
91966000,0.0324,0.013523,0.002678,0.000431,0.000940
91967000,0.0324,0.013523,0.002678,0.000431,0.000823
91968000,0.0324,0.013523,0.002678,0.000431,0.000823
91969000,0.0324,0.013523,0.002678,0.000431,0.000705
91970000,0.0324,0.013523,0.002678,0.000431,0.000940
91971000,0.0324,0.013523,0.002678,0.000431,0.000940
91972000,0.0324,0.013523,0.002678,0.000431,0.000705
91973000,0.0324,0.013523,0.002678,0.000431,0.000940
91974000,0.0324,0.013523,0.002678,0.000431,0.000705
91975000,0.0324,0.013523,0.002678,0.000431,0.000940
91976000,0.0324,0.013523,0.002678,0.000431,0.000823
91977000,0.0324,0.013523,0.002678,0.000431,0.000823
91978000,0.0324,0.013523,0.002678,0.000431,0.000823
91979000,0.0324,0.013523,0.002678,0.000431,0.000823
91980000,0.0324,0.013523,0.002678,0.000431,0.000940
91981000,0.0324,0.013523,0.002678,0.000431,0.000823
91982000,0.0324,0.013523,0.002678,0.000431,0.000823
91983000,0.0324,0.013523,0.002678,0.000431,0.000823
91984000,0.0324,0.013523,0.002678,0.000431,0.000823
91985000,0.0324,0.013523,0.002678,0.000431,0.000823
91986000,0.0324,0.013523,0.002678,0.000431,0.000823
91987000,0.0324,0.013523,0.002678,0.000431,0.000940
91988000,0.0324,0.013523,0.002678,0.000431,0.000705
91989000,0.0324,0.013523,0.002678,0.000431,0.000823
91990000,0.0324,0.013523,0.002678,0.000431,0.000940
91991000,0.0324,0.013523,0.002678,0.000431,0.000823
91992000,0.0324,0.013523,0.002678,0.000431,0.000823
91993000,0.0324,0.013523,0.002678,0.000431,0.000823
91994000,0.0324,0.013523,0.002678,0.000431,0.000823
91995000,0.0324,0.013523,0.002678,0.000431,0.000823
91996000,0.0324,0.013523,0.002678,0.000431,0.000940
91997000,0.0324,0.013523,0.002678,0.000431,0.000705
91998000,0.0324,0.013523,0.002678,0.000431,0.000940
91999000,0.0324,0.013523,0.002678,0.000431,0.000705
