Cycle,Area(mm^2),PeakDynamic(W),SubthresholdLeakage(W),GateLeakage(W),RunTimeDynamic(W)
121000000,0.0324,0.013523,0.002678,0.000431,0.002938
121001000,0.0324,0.013523,0.002678,0.000431,0.002703
121002000,0.0324,0.013523,0.002678,0.000431,0.002586
121003000,0.0324,0.013523,0.002678,0.000431,0.002938
121004000,0.0324,0.013523,0.002678,0.000431,0.002468
121005000,0.0324,0.013523,0.002678,0.000431,0.002938
121006000,0.0324,0.013523,0.002678,0.000431,0.003408
121007000,0.0324,0.013523,0.002678,0.000431,0.003056
121008000,0.0324,0.013523,0.002678,0.000431,0.001998
121009000,0.0324,0.013523,0.002678,0.000431,0.001645
121010000,0.0324,0.013523,0.002678,0.000431,0.001880
121011000,0.0324,0.013523,0.002678,0.000431,0.001998
121012000,0.0324,0.013523,0.002678,0.000431,0.001880
121013000,0.0324,0.013523,0.002678,0.000431,0.001763
121014000,0.0324,0.013523,0.002678,0.000431,0.001880
121015000,0.0324,0.013523,0.002678,0.000431,0.001880
121016000,0.0324,0.013523,0.002678,0.000431,0.001880
121017000,0.0324,0.013523,0.002678,0.000431,0.001763
121018000,0.0324,0.013523,0.002678,0.000431,0.001998
121019000,0.0324,0.013523,0.002678,0.000431,0.001763
121020000,0.0324,0.013523,0.002678,0.000431,0.001880
121021000,0.0324,0.013523,0.002678,0.000431,0.001998
121022000,0.0324,0.013523,0.002678,0.000431,0.001528
121023000,0.0324,0.013523,0.002678,0.000431,0.002233
121024000,0.0324,0.013523,0.002678,0.000431,0.001763
121025000,0.0324,0.013523,0.002678,0.000431,0.001763
121026000,0.0324,0.013523,0.002678,0.000431,0.001998
121027000,0.0324,0.013523,0.002678,0.000431,0.001528
121028000,0.0324,0.013523,0.002678,0.000431,0.002116
121029000,0.0324,0.013523,0.002678,0.000431,0.001763
121030000,0.0324,0.013523,0.002678,0.000431,0.001880
121031000,0.0324,0.013523,0.002678,0.000431,0.001880
121032000,0.0324,0.013523,0.002678,0.000431,0.001763
121033000,0.0324,0.013523,0.002678,0.000431,0.001998
121034000,0.0324,0.013523,0.002678,0.000431,0.001763
121035000,0.0324,0.013523,0.002678,0.000431,0.001880
121036000,0.0324,0.013523,0.002678,0.000431,0.001880
121037000,0.0324,0.013523,0.002678,0.000431,0.004113
121038000,0.0324,0.013523,0.002678,0.000431,0.001058
121039000,0.0324,0.013523,0.002678,0.000431,0.001058
121040000,0.0324,0.013523,0.002678,0.000431,0.000940
121041000,0.0324,0.013523,0.002678,0.000431,0.001175
121042000,0.0324,0.013523,0.002678,0.000431,0.000823
121043000,0.0324,0.013523,0.002678,0.000431,0.001175
121044000,0.0324,0.013523,0.002678,0.000431,0.000940
121045000,0.0324,0.013523,0.002678,0.000431,0.000940
121046000,0.0324,0.013523,0.002678,0.000431,0.001293
121047000,0.0324,0.013523,0.002678,0.000431,0.000823
121048000,0.0324,0.013523,0.002678,0.000431,0.001175
121049000,0.0324,0.013523,0.002678,0.000431,0.000940
121050000,0.0324,0.013523,0.002678,0.000431,0.000940
121051000,0.0324,0.013523,0.002678,0.000431,0.001175
121052000,0.0324,0.013523,0.002678,0.000431,0.000823
121053000,0.0324,0.013523,0.002678,0.000431,0.001175
121054000,0.0324,0.013523,0.002678,0.000431,0.000940
121055000,0.0324,0.013523,0.002678,0.000431,0.001058
121056000,0.0324,0.013523,0.002678,0.000431,0.001175
121057000,0.0324,0.013523,0.002678,0.000431,0.000823
121058000,0.0324,0.013523,0.002678,0.000431,0.000940
121059000,0.0324,0.013523,0.002678,0.000431,0.001175
121060000,0.0324,0.013523,0.002678,0.000431,0.001058
121061000,0.0324,0.013523,0.002678,0.000431,0.001058
121062000,0.0324,0.013523,0.002678,0.000431,0.000940
121063000,0.0324,0.013523,0.002678,0.000431,0.000940
121064000,0.0324,0.013523,0.002678,0.000431,0.001175
121065000,0.0324,0.013523,0.002678,0.000431,0.000823
121066000,0.0324,0.013523,0.002678,0.000431,0.001293
121067000,0.0324,0.013523,0.002678,0.000431,0.000823
121068000,0.0324,0.013523,0.002678,0.000431,0.001058
121069000,0.0324,0.013523,0.002678,0.000431,0.001175
121070000,0.0324,0.013523,0.002678,0.000431,0.000705
121071000,0.0324,0.013523,0.002678,0.000431,0.001410
121072000,0.0324,0.013523,0.002678,0.000431,0.000823
121073000,0.0324,0.013523,0.002678,0.000431,0.001058
121074000,0.0324,0.013523,0.002678,0.000431,0.001058
121075000,0.0324,0.013523,0.002678,0.000431,0.000823
121076000,0.0324,0.013523,0.002678,0.000431,0.001293
121077000,0.0324,0.013523,0.002678,0.000431,0.000823
121078000,0.0324,0.013523,0.002678,0.000431,0.001058
121079000,0.0324,0.013523,0.002678,0.000431,0.001058
121080000,0.0324,0.013523,0.002678,0.000431,0.000940
121081000,0.0324,0.013523,0.002678,0.000431,0.001293
121082000,0.0324,0.013523,0.002678,0.000431,0.000823
121083000,0.0324,0.013523,0.002678,0.000431,0.000940
121084000,0.0324,0.013523,0.002678,0.000431,0.001175
121085000,0.0324,0.013523,0.002678,0.000431,0.000940
121086000,0.0324,0.013523,0.002678,0.000431,0.001058
121087000,0.0324,0.013523,0.002678,0.000431,0.001058
121088000,0.0324,0.013523,0.002678,0.000431,0.000940
121089000,0.0324,0.013523,0.002678,0.000431,0.001175
121090000,0.0324,0.013523,0.002678,0.000431,0.000823
121091000,0.0324,0.013523,0.002678,0.000431,0.001175
121092000,0.0324,0.013523,0.002678,0.000431,0.001058
121093000,0.0324,0.013523,0.002678,0.000431,0.000823
121094000,0.0324,0.013523,0.002678,0.000431,0.001293
121095000,0.0324,0.013523,0.002678,0.000431,0.000823
121096000,0.0324,0.013523,0.002678,0.000431,0.001175
121097000,0.0324,0.013523,0.002678,0.000431,0.000940
121098000,0.0324,0.013523,0.002678,0.000431,0.000940
121099000,0.0324,0.013523,0.002678,0.000431,0.001175
121100000,0.0324,0.013523,0.002678,0.000431,0.000823
121101000,0.0324,0.013523,0.002678,0.000431,0.001293
121102000,0.0324,0.013523,0.002678,0.000431,0.000823
121103000,0.0324,0.013523,0.002678,0.000431,0.001058
121104000,0.0324,0.013523,0.002678,0.000431,0.001175
121105000,0.0324,0.013523,0.002678,0.000431,0.000823
121106000,0.0324,0.013523,0.002678,0.000431,0.000940
121107000,0.0324,0.013523,0.002678,0.000431,0.001175
121108000,0.0324,0.013523,0.002678,0.000431,0.001058
121109000,0.0324,0.013523,0.002678,0.000431,0.001058
121110000,0.0324,0.013523,0.002678,0.000431,0.000940
121111000,0.0324,0.013523,0.002678,0.000431,0.000940
121112000,0.0324,0.013523,0.002678,0.000431,0.001175
121113000,0.0324,0.013523,0.002678,0.000431,0.000823
121114000,0.0324,0.013523,0.002678,0.000431,0.001293
121115000,0.0324,0.013523,0.002678,0.000431,0.000823
121116000,0.0324,0.013523,0.002678,0.000431,0.001058
121117000,0.0324,0.013523,0.002678,0.000431,0.001175
121118000,0.0324,0.013523,0.002678,0.000431,0.000705
121119000,0.0324,0.013523,0.002678,0.000431,0.001410
121120000,0.0324,0.013523,0.002678,0.000431,0.000823
121121000,0.0324,0.013523,0.002678,0.000431,0.000940
121122000,0.0324,0.013523,0.002678,0.000431,0.001175
121123000,0.0324,0.013523,0.002678,0.000431,0.000823
121124000,0.0324,0.013523,0.002678,0.000431,0.001293
121125000,0.0324,0.013523,0.002678,0.000431,0.000823
121126000,0.0324,0.013523,0.002678,0.000431,0.001058
121127000,0.0324,0.013523,0.002678,0.000431,0.001058
121128000,0.0324,0.013523,0.002678,0.000431,0.000940
121129000,0.0324,0.013523,0.002678,0.000431,0.001058
121130000,0.0324,0.013523,0.002678,0.000431,0.001058
121131000,0.0324,0.013523,0.002678,0.000431,0.000940
121132000,0.0324,0.013523,0.002678,0.000431,0.001175
121133000,0.0324,0.013523,0.002678,0.000431,0.000940
121134000,0.0324,0.013523,0.002678,0.000431,0.001058
121135000,0.0324,0.013523,0.002678,0.000431,0.001058
121136000,0.0324,0.013523,0.002678,0.000431,0.000940
121137000,0.0324,0.013523,0.002678,0.000431,0.001175
121138000,0.0324,0.013523,0.002678,0.000431,0.000823
121139000,0.0324,0.013523,0.002678,0.000431,0.001293
121140000,0.0324,0.013523,0.002678,0.000431,0.001175
121141000,0.0324,0.013523,0.002678,0.000431,0.000940
121142000,0.0324,0.013523,0.002678,0.000431,0.001175
121143000,0.0324,0.013523,0.002678,0.000431,0.000823
121144000,0.0324,0.013523,0.002678,0.000431,0.001175
121145000,0.0324,0.013523,0.002678,0.000431,0.001058
121146000,0.0324,0.013523,0.002678,0.000431,0.000823
121147000,0.0324,0.013523,0.002678,0.000431,0.001293
121148000,0.0324,0.013523,0.002678,0.000431,0.000705
121149000,0.0324,0.013523,0.002678,0.000431,0.001293
121150000,0.0324,0.013523,0.002678,0.000431,0.000940
121151000,0.0324,0.013523,0.002678,0.000431,0.000940
121152000,0.0324,0.013523,0.002678,0.000431,0.001175
121153000,0.0324,0.013523,0.002678,0.000431,0.000823
121154000,0.0324,0.013523,0.002678,0.000431,0.001293
121155000,0.0324,0.013523,0.002678,0.000431,0.000823
121156000,0.0324,0.013523,0.002678,0.000431,0.001058
121157000,0.0324,0.013523,0.002678,0.000431,0.001058
121158000,0.0324,0.013523,0.002678,0.000431,0.000940
121159000,0.0324,0.013523,0.002678,0.000431,0.000940
121160000,0.0324,0.013523,0.002678,0.000431,0.001175
121161000,0.0324,0.013523,0.002678,0.000431,0.001058
121162000,0.0324,0.013523,0.002678,0.000431,0.001058
121163000,0.0324,0.013523,0.002678,0.000431,0.000940
121164000,0.0324,0.013523,0.002678,0.000431,0.000940
121165000,0.0324,0.013523,0.002678,0.000431,0.001175
121166000,0.0324,0.013523,0.002678,0.000431,0.000823
121167000,0.0324,0.013523,0.002678,0.000431,0.001293
121168000,0.0324,0.013523,0.002678,0.000431,0.000823
121169000,0.0324,0.013523,0.002678,0.000431,0.001058
121170000,0.0324,0.013523,0.002678,0.000431,0.001175
121171000,0.0324,0.013523,0.002678,0.000431,0.000705
121172000,0.0324,0.013523,0.002678,0.000431,0.001410
121173000,0.0324,0.013523,0.002678,0.000431,0.000823
121174000,0.0324,0.013523,0.002678,0.000431,0.001058
121175000,0.0324,0.013523,0.002678,0.000431,0.001058
121176000,0.0324,0.013523,0.002678,0.000431,0.000823
121177000,0.0324,0.013523,0.002678,0.000431,0.001293
121178000,0.0324,0.013523,0.002678,0.000431,0.000823
121179000,0.0324,0.013523,0.002678,0.000431,0.001058
121180000,0.0324,0.013523,0.002678,0.000431,0.001058
121181000,0.0324,0.013523,0.002678,0.000431,0.000940
121182000,0.0324,0.013523,0.002678,0.000431,0.001293
121183000,0.0324,0.013523,0.002678,0.000431,0.001058
121184000,0.0324,0.013523,0.002678,0.000431,0.002351
121185000,0.0324,0.013523,0.002678,0.000431,0.370801
121186000,0.0324,0.013523,0.002678,0.000431,0.680253
121187000,0.0324,0.013523,0.002678,0.000431,0.182169
121188000,0.0324,0.013523,0.002678,0.000431,0.133512
121189000,0.0324,0.013523,0.002678,0.000431,0.155842
121190000,0.0324,0.013523,0.002678,0.000431,0.587993
121191000,0.0324,0.013523,0.002678,0.000431,0.262088
121192000,0.0324,0.013523,0.002678,0.000431,0.302047
121193000,0.0324,0.013523,0.002678,0.000431,0.248455
121194000,0.0324,0.013523,0.002678,0.000431,0.137978
121195000,0.0324,0.013523,0.002678,0.000431,0.132337
121196000,0.0324,0.013523,0.002678,0.000431,0.239875
121197000,0.0324,0.013523,0.002678,0.000431,0.361047
121198000,0.0324,0.013523,0.002678,0.000431,0.072867
121199000,0.0324,0.013523,0.002678,0.000431,0.061232
121200000,0.0324,0.013523,0.002678,0.000431,0.055708
121201000,0.0324,0.013523,0.002678,0.000431,0.055826
121202000,0.0324,0.013523,0.002678,0.000431,0.048304
121203000,0.0324,0.013523,0.002678,0.000431,0.043956
121204000,0.0324,0.013523,0.002678,0.000431,0.041017
121205000,0.0324,0.013523,0.002678,0.000431,0.039254
121206000,0.0324,0.013523,0.002678,0.000431,0.036081
121207000,0.0324,0.013523,0.002678,0.000431,0.032320
121208000,0.0324,0.013523,0.002678,0.000431,0.034436
121209000,0.0324,0.013523,0.002678,0.000431,0.027149
121210000,0.0324,0.013523,0.002678,0.000431,0.026444
121211000,0.0324,0.013523,0.002678,0.000431,0.029852
121212000,0.0324,0.013523,0.002678,0.000431,0.024798
121213000,0.0324,0.013523,0.002678,0.000431,0.023506
121214000,0.0324,0.013523,0.002678,0.000431,0.021390
121215000,0.0324,0.013523,0.002678,0.000431,0.018217
121216000,0.0324,0.013523,0.002678,0.000431,0.018922
121217000,0.0324,0.013523,0.002678,0.000431,0.017629
121218000,0.0324,0.013523,0.002678,0.000431,0.012340
121219000,0.0324,0.013523,0.002678,0.000431,0.011518
121220000,0.0324,0.013523,0.002678,0.000431,0.012458
121221000,0.0324,0.013523,0.002678,0.000431,0.014221
121222000,0.0324,0.013523,0.002678,0.000431,0.009285
121223000,0.0324,0.013523,0.002678,0.000431,0.011518
121224000,0.0324,0.013523,0.002678,0.000431,0.010460
121225000,0.0324,0.013523,0.002678,0.000431,0.007874
121226000,0.0324,0.013523,0.002678,0.000431,0.008580
121227000,0.0324,0.013523,0.002678,0.000431,0.008580
121228000,0.0324,0.013523,0.002678,0.000431,0.007874
121229000,0.0324,0.013523,0.002678,0.000431,0.012105
121230000,0.0324,0.013523,0.002678,0.000431,0.005171
121231000,0.0324,0.013523,0.002678,0.000431,0.006699
121232000,0.0324,0.013523,0.002678,0.000431,0.004584
121233000,0.0324,0.013523,0.002678,0.000431,0.004231
121234000,0.0324,0.013523,0.002678,0.000431,0.004466
121235000,0.0324,0.013523,0.002678,0.000431,0.004701
121236000,0.0324,0.013523,0.002678,0.000431,0.003643
121237000,0.0324,0.013523,0.002678,0.000431,0.004819
121238000,0.0324,0.013523,0.002678,0.000431,0.004349
121239000,0.0324,0.013523,0.002678,0.000431,0.004701
121240000,0.0324,0.013523,0.002678,0.000431,0.004231
121241000,0.0324,0.013523,0.002678,0.000431,0.004584
121242000,0.0324,0.013523,0.002678,0.000431,0.004466
121243000,0.0324,0.013523,0.002678,0.000431,0.005524
121244000,0.0324,0.013523,0.002678,0.000431,0.003878
121245000,0.0324,0.013523,0.002678,0.000431,0.003526
121246000,0.0324,0.013523,0.002678,0.000431,0.003643
121247000,0.0324,0.013523,0.002678,0.000431,0.003408
121248000,0.0324,0.013523,0.002678,0.000431,0.003526
121249000,0.0324,0.013523,0.002678,0.000431,0.003643
121250000,0.0324,0.013523,0.002678,0.000431,0.003526
121251000,0.0324,0.013523,0.002678,0.000431,0.003878
121252000,0.0324,0.013523,0.002678,0.000431,0.003173
121253000,0.0324,0.013523,0.002678,0.000431,0.003878
121254000,0.0324,0.013523,0.002678,0.000431,0.003526
121255000,0.0324,0.013523,0.002678,0.000431,0.003526
121256000,0.0324,0.013523,0.002678,0.000431,0.003878
121257000,0.0324,0.013523,0.002678,0.000431,0.004819
121258000,0.0324,0.013523,0.002678,0.000431,0.002233
121259000,0.0324,0.013523,0.002678,0.000431,0.003173
121260000,0.0324,0.013523,0.002678,0.000431,0.002938
121261000,0.0324,0.013523,0.002678,0.000431,0.002468
121262000,0.0324,0.013523,0.002678,0.000431,0.002938
121263000,0.0324,0.013523,0.002678,0.000431,0.002351
121264000,0.0324,0.013523,0.002678,0.000431,0.003173
121265000,0.0324,0.013523,0.002678,0.000431,0.002468
121266000,0.0324,0.013523,0.002678,0.000431,0.002821
121267000,0.0324,0.013523,0.002678,0.000431,0.002703
121268000,0.0324,0.013523,0.002678,0.000431,0.002703
121269000,0.0324,0.013523,0.002678,0.000431,0.002938
121270000,0.0324,0.013523,0.002678,0.000431,0.002351
121271000,0.0324,0.013523,0.002678,0.000431,0.003173
121272000,0.0324,0.013523,0.002678,0.000431,0.002351
121273000,0.0324,0.013523,0.002678,0.000431,0.001763
121274000,0.0324,0.013523,0.002678,0.000431,0.002233
121275000,0.0324,0.013523,0.002678,0.000431,0.003643
121276000,0.0324,0.013523,0.002678,0.000431,0.000940
121277000,0.0324,0.013523,0.002678,0.000431,0.000705
121278000,0.0324,0.013523,0.002678,0.000431,0.000940
121279000,0.0324,0.013523,0.002678,0.000431,0.000940
121280000,0.0324,0.013523,0.002678,0.000431,0.000823
121281000,0.0324,0.013523,0.002678,0.000431,0.000823
121282000,0.0324,0.013523,0.002678,0.000431,0.000940
121283000,0.0324,0.013523,0.002678,0.000431,0.000940
121284000,0.0324,0.013523,0.002678,0.000431,0.000823
121285000,0.0324,0.013523,0.002678,0.000431,0.000823
121286000,0.0324,0.013523,0.002678,0.000431,0.000940
121287000,0.0324,0.013523,0.002678,0.000431,0.000823
121288000,0.0324,0.013523,0.002678,0.000431,0.000940
121289000,0.0324,0.013523,0.002678,0.000431,0.000823
121290000,0.0324,0.013523,0.002678,0.000431,0.000940
121291000,0.0324,0.013523,0.002678,0.000431,0.000823
121292000,0.0324,0.013523,0.002678,0.000431,0.000823
121293000,0.0324,0.013523,0.002678,0.000431,0.000940
121294000,0.0324,0.013523,0.002678,0.000431,0.000940
121295000,0.0324,0.013523,0.002678,0.000431,0.000940
121296000,0.0324,0.013523,0.002678,0.000431,0.000705
121297000,0.0324,0.013523,0.002678,0.000431,0.000940
121298000,0.0324,0.013523,0.002678,0.000431,0.000940
121299000,0.0324,0.013523,0.002678,0.000431,0.000823
121300000,0.0324,0.013523,0.002678,0.000431,0.000823
121301000,0.0324,0.013523,0.002678,0.000431,0.000940
121302000,0.0324,0.013523,0.002678,0.000431,0.000823
121303000,0.0324,0.013523,0.002678,0.000431,0.000940
121304000,0.0324,0.013523,0.002678,0.000431,0.072162
121305000,0.0324,0.013523,0.002678,0.000431,0.495734
121306000,0.0324,0.013523,0.002678,0.000431,0.588581
121307000,0.0324,0.013523,0.002678,0.000431,0.131632
121308000,0.0324,0.013523,0.002678,0.000431,0.133982
121309000,0.0324,0.013523,0.002678,0.000431,0.557436
121310000,0.0324,0.013523,0.002678,0.000431,0.227652
121311000,0.0324,0.013523,0.002678,0.000431,0.248455
121312000,0.0324,0.013523,0.002678,0.000431,0.307689
121313000,0.0324,0.013523,0.002678,0.000431,0.141504
121314000,0.0324,0.013523,0.002678,0.000431,0.150906
121315000,0.0324,0.013523,0.002678,0.000431,0.138213
121316000,0.0324,0.013523,0.002678,0.000431,0.240345
121317000,0.0324,0.013523,0.002678,0.000431,0.353290
121318000,0.0324,0.013523,0.002678,0.000431,0.049832
121319000,0.0324,0.013523,0.002678,0.000431,0.046189
121320000,0.0324,0.013523,0.002678,0.000431,0.046189
121321000,0.0324,0.013523,0.002678,0.000431,0.040665
121322000,0.0324,0.013523,0.002678,0.000431,0.033496
121323000,0.0324,0.013523,0.002678,0.000431,0.036551
121324000,0.0324,0.013523,0.002678,0.000431,0.030792
121325000,0.0324,0.013523,0.002678,0.000431,0.022213
121326000,0.0324,0.013523,0.002678,0.000431,0.017042
121327000,0.0324,0.013523,0.002678,0.000431,0.019275
121328000,0.0324,0.013523,0.002678,0.000431,0.017512
121329000,0.0324,0.013523,0.002678,0.000431,0.019275
121330000,0.0324,0.013523,0.002678,0.000431,0.014809
121331000,0.0324,0.013523,0.002678,0.000431,0.013281
121332000,0.0324,0.013523,0.002678,0.000431,0.014691
121333000,0.0324,0.013523,0.002678,0.000431,0.011283
121334000,0.0324,0.013523,0.002678,0.000431,0.011400
121335000,0.0324,0.013523,0.002678,0.000431,0.011870
121336000,0.0324,0.013523,0.002678,0.000431,0.012693
121337000,0.0324,0.013523,0.002678,0.000431,0.008580
121338000,0.0324,0.013523,0.002678,0.000431,0.009050
121339000,0.0324,0.013523,0.002678,0.000431,0.012576
121340000,0.0324,0.013523,0.002678,0.000431,0.006464
121341000,0.0324,0.013523,0.002678,0.000431,0.006934
121342000,0.0324,0.013523,0.002678,0.000431,0.006464
121343000,0.0324,0.013523,0.002678,0.000431,0.006699
121344000,0.0324,0.013523,0.002678,0.000431,0.007052
121345000,0.0324,0.013523,0.002678,0.000431,0.011635
121346000,0.0324,0.013523,0.002678,0.000431,0.004231
121347000,0.0324,0.013523,0.002678,0.000431,0.004231
121348000,0.0324,0.013523,0.002678,0.000431,0.004231
121349000,0.0324,0.013523,0.002678,0.000431,0.004584
121350000,0.0324,0.013523,0.002678,0.000431,0.003878
121351000,0.0324,0.013523,0.002678,0.000431,0.004349
121352000,0.0324,0.013523,0.002678,0.000431,0.003643
121353000,0.0324,0.013523,0.002678,0.000431,0.005289
121354000,0.0324,0.013523,0.002678,0.000431,0.003291
121355000,0.0324,0.013523,0.002678,0.000431,0.003173
121356000,0.0324,0.013523,0.002678,0.000431,0.003291
121357000,0.0324,0.013523,0.002678,0.000431,0.005641
121358000,0.0324,0.013523,0.002678,0.000431,0.001880
121359000,0.0324,0.013523,0.002678,0.000431,0.003291
121360000,0.0324,0.013523,0.002678,0.000431,0.000940
121361000,0.0324,0.013523,0.002678,0.000431,0.000823
121362000,0.0324,0.013523,0.002678,0.000431,0.000940
121363000,0.0324,0.013523,0.002678,0.000431,0.187810
121364000,0.0324,0.013523,0.002678,0.000431,0.447665
121365000,0.0324,0.013523,0.002678,0.000431,0.510190
121366000,0.0324,0.013523,0.002678,0.000431,0.134922
121367000,0.0324,0.013523,0.002678,0.000431,0.131161
121368000,0.0324,0.013523,0.002678,0.000431,0.550032
121369000,0.0324,0.013523,0.002678,0.000431,0.244106
121370000,0.0324,0.013523,0.002678,0.000431,0.235409
121371000,0.0324,0.013523,0.002678,0.000431,0.302165
121372000,0.0324,0.013523,0.002678,0.000431,0.136920
121373000,0.0324,0.013523,0.002678,0.000431,0.142092
121374000,0.0324,0.013523,0.002678,0.000431,0.152904
121375000,0.0324,0.013523,0.002678,0.000431,0.208260
121376000,0.0324,0.013523,0.002678,0.000431,0.365043
121377000,0.0324,0.013523,0.002678,0.000431,0.010813
121378000,0.0324,0.013523,0.002678,0.000431,0.010342
121379000,0.0324,0.013523,0.002678,0.000431,0.012105
121380000,0.0324,0.013523,0.002678,0.000431,0.011518
121381000,0.0324,0.013523,0.002678,0.000431,0.009050
121382000,0.0324,0.013523,0.002678,0.000431,0.007404
121383000,0.0324,0.013523,0.002678,0.000431,0.006934
121384000,0.0324,0.013523,0.002678,0.000431,0.005759
121385000,0.0324,0.013523,0.002678,0.000431,0.006934
121386000,0.0324,0.013523,0.002678,0.000431,0.005289
121387000,0.0324,0.013523,0.002678,0.000431,0.004701
121388000,0.0324,0.013523,0.002678,0.000431,0.004936
121389000,0.0324,0.013523,0.002678,0.000431,0.005054
121390000,0.0324,0.013523,0.002678,0.000431,0.005406
121391000,0.0324,0.013523,0.002678,0.000431,0.004466
121392000,0.0324,0.013523,0.002678,0.000431,0.004819
121393000,0.0324,0.013523,0.002678,0.000431,0.005171
121394000,0.0324,0.013523,0.002678,0.000431,0.007404
121395000,0.0324,0.013523,0.002678,0.000431,0.004113
121396000,0.0324,0.013523,0.002678,0.000431,0.004819
121397000,0.0324,0.013523,0.002678,0.000431,0.003878
121398000,0.0324,0.013523,0.002678,0.000431,0.004584
121399000,0.0324,0.013523,0.002678,0.000431,0.004113
121400000,0.0324,0.013523,0.002678,0.000431,0.004466
121401000,0.0324,0.013523,0.002678,0.000431,0.004466
121402000,0.0324,0.013523,0.002678,0.000431,0.003996
121403000,0.0324,0.013523,0.002678,0.000431,0.003761
121404000,0.0324,0.013523,0.002678,0.000431,0.003643
121405000,0.0324,0.013523,0.002678,0.000431,0.003878
121406000,0.0324,0.013523,0.002678,0.000431,0.003408
121407000,0.0324,0.013523,0.002678,0.000431,0.004113
121408000,0.0324,0.013523,0.002678,0.000431,0.003643
121409000,0.0324,0.013523,0.002678,0.000431,0.003643
121410000,0.0324,0.013523,0.002678,0.000431,0.003761
121411000,0.0324,0.013523,0.002678,0.000431,0.004113
121412000,0.0324,0.013523,0.002678,0.000431,0.003291
121413000,0.0324,0.013523,0.002678,0.000431,0.003761
121414000,0.0324,0.013523,0.002678,0.000431,0.003761
121415000,0.0324,0.013523,0.002678,0.000431,0.003408
121416000,0.0324,0.013523,0.002678,0.000431,0.003173
121417000,0.0324,0.013523,0.002678,0.000431,0.003291
121418000,0.0324,0.013523,0.002678,0.000431,0.003173
121419000,0.0324,0.013523,0.002678,0.000431,0.003173
121420000,0.0324,0.013523,0.002678,0.000431,0.003291
121421000,0.0324,0.013523,0.002678,0.000431,0.003056
121422000,0.0324,0.013523,0.002678,0.000431,0.003173
121423000,0.0324,0.013523,0.002678,0.000431,0.003408
121424000,0.0324,0.013523,0.002678,0.000431,0.002938
121425000,0.0324,0.013523,0.002678,0.000431,0.003291
121426000,0.0324,0.013523,0.002678,0.000431,0.003291
121427000,0.0324,0.013523,0.002678,0.000431,0.002938
121428000,0.0324,0.013523,0.002678,0.000431,0.003291
121429000,0.0324,0.013523,0.002678,0.000431,0.003173
121430000,0.0324,0.013523,0.002678,0.000431,0.003291
121431000,0.0324,0.013523,0.002678,0.000431,0.003526
121432000,0.0324,0.013523,0.002678,0.000431,0.002703
121433000,0.0324,0.013523,0.002678,0.000431,0.003408
121434000,0.0324,0.013523,0.002678,0.000431,0.003173
121435000,0.0324,0.013523,0.002678,0.000431,0.003056
121436000,0.0324,0.013523,0.002678,0.000431,0.003173
121437000,0.0324,0.013523,0.002678,0.000431,0.002703
121438000,0.0324,0.013523,0.002678,0.000431,0.002821
121439000,0.0324,0.013523,0.002678,0.000431,0.002468
121440000,0.0324,0.013523,0.002678,0.000431,0.002703
121441000,0.0324,0.013523,0.002678,0.000431,0.004231
121442000,0.0324,0.013523,0.002678,0.000431,0.001880
121443000,0.0324,0.013523,0.002678,0.000431,0.001763
121444000,0.0324,0.013523,0.002678,0.000431,0.001645
121445000,0.0324,0.013523,0.002678,0.000431,0.001763
121446000,0.0324,0.013523,0.002678,0.000431,0.001645
121447000,0.0324,0.013523,0.002678,0.000431,0.001763
121448000,0.0324,0.013523,0.002678,0.000431,0.001645
121449000,0.0324,0.013523,0.002678,0.000431,0.001880
121450000,0.0324,0.013523,0.002678,0.000431,0.001763
121451000,0.0324,0.013523,0.002678,0.000431,0.001528
121452000,0.0324,0.013523,0.002678,0.000431,0.001763
121453000,0.0324,0.013523,0.002678,0.000431,0.001763
121454000,0.0324,0.013523,0.002678,0.000431,0.001763
121455000,0.0324,0.013523,0.002678,0.000431,0.001528
121456000,0.0324,0.013523,0.002678,0.000431,0.003173
121457000,0.0324,0.013523,0.002678,0.000431,0.000940
121458000,0.0324,0.013523,0.002678,0.000431,0.000940
121459000,0.0324,0.013523,0.002678,0.000431,0.000823
121460000,0.0324,0.013523,0.002678,0.000431,0.000823
121461000,0.0324,0.013523,0.002678,0.000431,0.000705
121462000,0.0324,0.013523,0.002678,0.000431,0.000940
121463000,0.0324,0.013523,0.002678,0.000431,0.000940
121464000,0.0324,0.013523,0.002678,0.000431,0.000705
121465000,0.0324,0.013523,0.002678,0.000431,0.000940
121466000,0.0324,0.013523,0.002678,0.000431,0.000705
121467000,0.0324,0.013523,0.002678,0.000431,0.000940
121468000,0.0324,0.013523,0.002678,0.000431,0.000823
121469000,0.0324,0.013523,0.002678,0.000431,0.000823
121470000,0.0324,0.013523,0.002678,0.000431,0.000940
121471000,0.0324,0.013523,0.002678,0.000431,0.000705
121472000,0.0324,0.013523,0.002678,0.000431,0.000940
121473000,0.0324,0.013523,0.002678,0.000431,0.000823
121474000,0.0324,0.013523,0.002678,0.000431,0.000823
121475000,0.0324,0.013523,0.002678,0.000431,0.000823
121476000,0.0324,0.013523,0.002678,0.000431,0.000823
121477000,0.0324,0.013523,0.002678,0.000431,0.000823
121478000,0.0324,0.013523,0.002678,0.000431,0.000823
121479000,0.0324,0.013523,0.002678,0.000431,0.000940
121480000,0.0324,0.013523,0.002678,0.000431,0.000823
121481000,0.0324,0.013523,0.002678,0.000431,0.000823
121482000,0.0324,0.013523,0.002678,0.000431,0.000823
121483000,0.0324,0.013523,0.002678,0.000431,0.000823
121484000,0.0324,0.013523,0.002678,0.000431,0.000823
121485000,0.0324,0.013523,0.002678,0.000431,0.000823
121486000,0.0324,0.013523,0.002678,0.000431,0.000940
121487000,0.0324,0.013523,0.002678,0.000431,0.000705
121488000,0.0324,0.013523,0.002678,0.000431,0.000940
121489000,0.0324,0.013523,0.002678,0.000431,0.000705
121490000,0.0324,0.013523,0.002678,0.000431,0.000940
121491000,0.0324,0.013523,0.002678,0.000431,0.000823
121492000,0.0324,0.013523,0.002678,0.000431,0.000823
121493000,0.0324,0.013523,0.002678,0.000431,0.000940
121494000,0.0324,0.013523,0.002678,0.000431,0.000705
121495000,0.0324,0.013523,0.002678,0.000431,0.000940
121496000,0.0324,0.013523,0.002678,0.000431,0.000823
121497000,0.0324,0.013523,0.002678,0.000431,0.000823
121498000,0.0324,0.013523,0.002678,0.000431,0.000823
121499000,0.0324,0.013523,0.002678,0.000431,0.000823
121500000,0.0324,0.013523,0.002678,0.000431,0.000940
121501000,0.0324,0.013523,0.002678,0.000431,0.000705
121502000,0.0324,0.013523,0.002678,0.000431,0.000940
121503000,0.0324,0.013523,0.002678,0.000431,0.000823
121504000,0.0324,0.013523,0.002678,0.000431,0.000823
121505000,0.0324,0.013523,0.002678,0.000431,0.000823
121506000,0.0324,0.013523,0.002678,0.000431,0.000823
121507000,0.0324,0.013523,0.002678,0.000431,0.000823
121508000,0.0324,0.013523,0.002678,0.000431,0.000823
121509000,0.0324,0.013523,0.002678,0.000431,0.000823
121510000,0.0324,0.013523,0.002678,0.000431,0.000823
121511000,0.0324,0.013523,0.002678,0.000431,0.000940
121512000,0.0324,0.013523,0.002678,0.000431,0.000823
121513000,0.0324,0.013523,0.002678,0.000431,0.000823
121514000,0.0324,0.013523,0.002678,0.000431,0.000705
121515000,0.0324,0.013523,0.002678,0.000431,0.000940
121516000,0.0324,0.013523,0.002678,0.000431,0.000940
121517000,0.0324,0.013523,0.002678,0.000431,0.000705
121518000,0.0324,0.013523,0.002678,0.000431,0.000940
121519000,0.0324,0.013523,0.002678,0.000431,0.000705
121520000,0.0324,0.013523,0.002678,0.000431,0.000940
121521000,0.0324,0.013523,0.002678,0.000431,0.000823
121522000,0.0324,0.013523,0.002678,0.000431,0.000823
121523000,0.0324,0.013523,0.002678,0.000431,0.000940
121524000,0.0324,0.013523,0.002678,0.000431,0.000705
121525000,0.0324,0.013523,0.002678,0.000431,0.000940
121526000,0.0324,0.013523,0.002678,0.000431,0.000823
121527000,0.0324,0.013523,0.002678,0.000431,0.000823
121528000,0.0324,0.013523,0.002678,0.000431,0.000823
121529000,0.0324,0.013523,0.002678,0.000431,0.000823
121530000,0.0324,0.013523,0.002678,0.000431,0.000940
121531000,0.0324,0.013523,0.002678,0.000431,0.000823
121532000,0.0324,0.013523,0.002678,0.000431,0.081330
121533000,0.0324,0.013523,0.002678,0.000431,0.440378
121534000,0.0324,0.013523,0.002678,0.000431,0.549562
121535000,0.0324,0.013523,0.002678,0.000431,0.131749
121536000,0.0324,0.013523,0.002678,0.000431,0.133747
121537000,0.0324,0.013523,0.002678,0.000431,0.571892
121538000,0.0324,0.013523,0.002678,0.000431,0.224244
121539000,0.0324,0.013523,0.002678,0.000431,0.290765
121540000,0.0324,0.013523,0.002678,0.000431,0.266084
121541000,0.0324,0.013523,0.002678,0.000431,0.155372
121542000,0.0324,0.013523,0.002678,0.000431,0.147380
121543000,0.0324,0.013523,0.002678,0.000431,0.157605
121544000,0.0324,0.013523,0.002678,0.000431,0.116118
121545000,0.0324,0.013523,0.002678,0.000431,0.464471
121546000,0.0324,0.013523,0.002678,0.000431,0.052770
121547000,0.0324,0.013523,0.002678,0.000431,0.040665
121548000,0.0324,0.013523,0.002678,0.000431,0.037021
121549000,0.0324,0.013523,0.002678,0.000431,0.022448
121550000,0.0324,0.013523,0.002678,0.000431,0.024211
121551000,0.0324,0.013523,0.002678,0.000431,0.022800
121552000,0.0324,0.013523,0.002678,0.000431,0.012105
121553000,0.0324,0.013523,0.002678,0.000431,0.011048
121554000,0.0324,0.013523,0.002678,0.000431,0.011518
121555000,0.0324,0.013523,0.002678,0.000431,0.009050
121556000,0.0324,0.013523,0.002678,0.000431,0.010225
121557000,0.0324,0.013523,0.002678,0.000431,0.012340
121558000,0.0324,0.013523,0.002678,0.000431,0.008815
121559000,0.0324,0.013523,0.002678,0.000431,0.009872
121560000,0.0324,0.013523,0.002678,0.000431,0.011870
121561000,0.0324,0.013523,0.002678,0.000431,0.009402
121562000,0.0324,0.013523,0.002678,0.000431,0.007874
121563000,0.0324,0.013523,0.002678,0.000431,0.008227
121564000,0.0324,0.013523,0.002678,0.000431,0.007404
121565000,0.0324,0.013523,0.002678,0.000431,0.005876
121566000,0.0324,0.013523,0.002678,0.000431,0.007639
121567000,0.0324,0.013523,0.002678,0.000431,0.007052
121568000,0.0324,0.013523,0.002678,0.000431,0.006111
121569000,0.0324,0.013523,0.002678,0.000431,0.007757
121570000,0.0324,0.013523,0.002678,0.000431,0.006582
121571000,0.0324,0.013523,0.002678,0.000431,0.006934
121572000,0.0324,0.013523,0.002678,0.000431,0.007874
121573000,0.0324,0.013523,0.002678,0.000431,0.005994
121574000,0.0324,0.013523,0.002678,0.000431,0.007757
121575000,0.0324,0.013523,0.002678,0.000431,0.005641
121576000,0.0324,0.013523,0.002678,0.000431,0.007757
121577000,0.0324,0.013523,0.002678,0.000431,0.007992
121578000,0.0324,0.013523,0.002678,0.000431,0.006934
121579000,0.0324,0.013523,0.002678,0.000431,0.007874
121580000,0.0324,0.013523,0.002678,0.000431,0.004701
121581000,0.0324,0.013523,0.002678,0.000431,0.007052
121582000,0.0324,0.013523,0.002678,0.000431,0.006464
121583000,0.0324,0.013523,0.002678,0.000431,0.005759
121584000,0.0324,0.013523,0.002678,0.000431,0.006229
121585000,0.0324,0.013523,0.002678,0.000431,0.005054
121586000,0.0324,0.013523,0.002678,0.000431,0.006111
121587000,0.0324,0.013523,0.002678,0.000431,0.005759
121588000,0.0324,0.013523,0.002678,0.000431,0.004231
121589000,0.0324,0.013523,0.002678,0.000431,0.006817
121590000,0.0324,0.013523,0.002678,0.000431,0.004701
121591000,0.0324,0.013523,0.002678,0.000431,0.005289
121592000,0.0324,0.013523,0.002678,0.000431,0.005876
121593000,0.0324,0.013523,0.002678,0.000431,0.004113
121594000,0.0324,0.013523,0.002678,0.000431,0.006347
121595000,0.0324,0.013523,0.002678,0.000431,0.005171
121596000,0.0324,0.013523,0.002678,0.000431,0.005289
121597000,0.0324,0.013523,0.002678,0.000431,0.005054
121598000,0.0324,0.013523,0.002678,0.000431,0.004936
121599000,0.0324,0.013523,0.002678,0.000431,0.005994
121600000,0.0324,0.013523,0.002678,0.000431,0.005524
121601000,0.0324,0.013523,0.002678,0.000431,0.004349
121602000,0.0324,0.013523,0.002678,0.000431,0.005994
121603000,0.0324,0.013523,0.002678,0.000431,0.004936
121604000,0.0324,0.013523,0.002678,0.000431,0.005171
121605000,0.0324,0.013523,0.002678,0.000431,0.006347
121606000,0.0324,0.013523,0.002678,0.000431,0.003761
121607000,0.0324,0.013523,0.002678,0.000431,0.006582
121608000,0.0324,0.013523,0.002678,0.000431,0.003996
121609000,0.0324,0.013523,0.002678,0.000431,0.006111
121610000,0.0324,0.013523,0.002678,0.000431,0.005876
121611000,0.0324,0.013523,0.002678,0.000431,0.003996
121612000,0.0324,0.013523,0.002678,0.000431,0.006817
121613000,0.0324,0.013523,0.002678,0.000431,0.003996
121614000,0.0324,0.013523,0.002678,0.000431,0.006111
121615000,0.0324,0.013523,0.002678,0.000431,0.005524
121616000,0.0324,0.013523,0.002678,0.000431,0.004349
121617000,0.0324,0.013523,0.002678,0.000431,0.005994
121618000,0.0324,0.013523,0.002678,0.000431,0.004819
121619000,0.0324,0.013523,0.002678,0.000431,0.006111
121620000,0.0324,0.013523,0.002678,0.000431,0.004936
121621000,0.0324,0.013523,0.002678,0.000431,0.004936
121622000,0.0324,0.013523,0.002678,0.000431,0.005994
121623000,0.0324,0.013523,0.002678,0.000431,0.004819
121624000,0.0324,0.013523,0.002678,0.000431,0.005289
121625000,0.0324,0.013523,0.002678,0.000431,0.005641
121626000,0.0324,0.013523,0.002678,0.000431,0.004584
121627000,0.0324,0.013523,0.002678,0.000431,0.005641
121628000,0.0324,0.013523,0.002678,0.000431,0.005524
121629000,0.0324,0.013523,0.002678,0.000431,0.004819
121630000,0.0324,0.013523,0.002678,0.000431,0.007874
121631000,0.0324,0.013523,0.002678,0.000431,0.002468
121632000,0.0324,0.013523,0.002678,0.000431,0.002703
121633000,0.0324,0.013523,0.002678,0.000431,0.001645
121634000,0.0324,0.013523,0.002678,0.000431,0.001763
121635000,0.0324,0.013523,0.002678,0.000431,0.001998
121636000,0.0324,0.013523,0.002678,0.000431,0.001293
121637000,0.0324,0.013523,0.002678,0.000431,0.000940
121638000,0.0324,0.013523,0.002678,0.000431,0.000823
121639000,0.0324,0.013523,0.002678,0.000431,0.000823
121640000,0.0324,0.013523,0.002678,0.000431,0.000940
121641000,0.0324,0.013523,0.002678,0.000431,0.025269
121642000,0.0324,0.013523,0.002678,0.000431,0.475519
121643000,0.0324,0.013523,0.002678,0.000431,0.601744
121644000,0.0324,0.013523,0.002678,0.000431,0.131632
121645000,0.0324,0.013523,0.002678,0.000431,0.133512
121646000,0.0324,0.013523,0.002678,0.000431,0.469173
121647000,0.0324,0.013523,0.002678,0.000431,0.318619
121648000,0.0324,0.013523,0.002678,0.000431,0.260325
121649000,0.0324,0.013523,0.002678,0.000431,0.309452
121650000,0.0324,0.013523,0.002678,0.000431,0.178643
121651000,0.0324,0.013523,0.002678,0.000431,0.143149
121652000,0.0324,0.013523,0.002678,0.000431,0.129869
121653000,0.0324,0.013523,0.002678,0.000431,0.234469
121654000,0.0324,0.013523,0.002678,0.000431,0.336013
121655000,0.0324,0.013523,0.002678,0.000431,0.031145
121656000,0.0324,0.013523,0.002678,0.000431,0.024563
121657000,0.0324,0.013523,0.002678,0.000431,0.020802
121658000,0.0324,0.013523,0.002678,0.000431,0.016336
121659000,0.0324,0.013523,0.002678,0.000431,0.017159
121660000,0.0324,0.013523,0.002678,0.000431,0.016336
121661000,0.0324,0.013523,0.002678,0.000431,0.012693
121662000,0.0324,0.013523,0.002678,0.000431,0.012105
121663000,0.0324,0.013523,0.002678,0.000431,0.011870
121664000,0.0324,0.013523,0.002678,0.000431,0.011635
121665000,0.0324,0.013523,0.002678,0.000431,0.011048
121666000,0.0324,0.013523,0.002678,0.000431,0.010930
121667000,0.0324,0.013523,0.002678,0.000431,0.014456
121668000,0.0324,0.013523,0.002678,0.000431,0.008932
121669000,0.0324,0.013523,0.002678,0.000431,0.010107
121670000,0.0324,0.013523,0.002678,0.000431,0.009990
121671000,0.0324,0.013523,0.002678,0.000431,0.007287
121672000,0.0324,0.013523,0.002678,0.000431,0.007404
121673000,0.0324,0.013523,0.002678,0.000431,0.007522
121674000,0.0324,0.013523,0.002678,0.000431,0.007522
121675000,0.0324,0.013523,0.002678,0.000431,0.007639
121676000,0.0324,0.013523,0.002678,0.000431,0.009285
121677000,0.0324,0.013523,0.002678,0.000431,0.005994
121678000,0.0324,0.013523,0.002678,0.000431,0.005524
121679000,0.0324,0.013523,0.002678,0.000431,0.005876
121680000,0.0324,0.013523,0.002678,0.000431,0.005876
121681000,0.0324,0.013523,0.002678,0.000431,0.005994
121682000,0.0324,0.013523,0.002678,0.000431,0.005524
121683000,0.0324,0.013523,0.002678,0.000431,0.005876
121684000,0.0324,0.013523,0.002678,0.000431,0.005759
121685000,0.0324,0.013523,0.002678,0.000431,0.005994
121686000,0.0324,0.013523,0.002678,0.000431,0.005994
121687000,0.0324,0.013523,0.002678,0.000431,0.006582
121688000,0.0324,0.013523,0.002678,0.000431,0.005641
121689000,0.0324,0.013523,0.002678,0.000431,0.005171
121690000,0.0324,0.013523,0.002678,0.000431,0.004701
121691000,0.0324,0.013523,0.002678,0.000431,0.004701
121692000,0.0324,0.013523,0.002678,0.000431,0.005171
121693000,0.0324,0.013523,0.002678,0.000431,0.005054
121694000,0.0324,0.013523,0.002678,0.000431,0.004701
121695000,0.0324,0.013523,0.002678,0.000431,0.004936
121696000,0.0324,0.013523,0.002678,0.000431,0.004819
121697000,0.0324,0.013523,0.002678,0.000431,0.007874
121698000,0.0324,0.013523,0.002678,0.000431,0.003643
121699000,0.0324,0.013523,0.002678,0.000431,0.003056
121700000,0.0324,0.013523,0.002678,0.000431,0.004701
121701000,0.0324,0.013523,0.002678,0.000431,0.001763
121702000,0.0324,0.013523,0.002678,0.000431,0.001645
121703000,0.0324,0.013523,0.002678,0.000431,0.001880
121704000,0.0324,0.013523,0.002678,0.000431,0.001645
121705000,0.0324,0.013523,0.002678,0.000431,0.001763
121706000,0.0324,0.013523,0.002678,0.000431,0.001528
121707000,0.0324,0.013523,0.002678,0.000431,0.001880
121708000,0.0324,0.013523,0.002678,0.000431,0.001763
121709000,0.0324,0.013523,0.002678,0.000431,0.001645
121710000,0.0324,0.013523,0.002678,0.000431,0.001763
121711000,0.0324,0.013523,0.002678,0.000431,0.001645
121712000,0.0324,0.013523,0.002678,0.000431,0.001880
121713000,0.0324,0.013523,0.002678,0.000431,0.001763
121714000,0.0324,0.013523,0.002678,0.000431,0.001645
121715000,0.0324,0.013523,0.002678,0.000431,0.001645
121716000,0.0324,0.013523,0.002678,0.000431,0.001763
121717000,0.0324,0.013523,0.002678,0.000431,0.001763
121718000,0.0324,0.013523,0.002678,0.000431,0.001528
121719000,0.0324,0.013523,0.002678,0.000431,0.001880
121720000,0.0324,0.013523,0.002678,0.000431,0.001645
121721000,0.0324,0.013523,0.002678,0.000431,0.001880
121722000,0.0324,0.013523,0.002678,0.000431,0.001645
121723000,0.0324,0.013523,0.002678,0.000431,0.003878
121724000,0.0324,0.013523,0.002678,0.000431,0.000823
121725000,0.0324,0.013523,0.002678,0.000431,0.000823
121726000,0.0324,0.013523,0.002678,0.000431,0.000940
121727000,0.0324,0.013523,0.002678,0.000431,0.000705
121728000,0.0324,0.013523,0.002678,0.000431,0.000940
121729000,0.0324,0.013523,0.002678,0.000431,0.000705
121730000,0.0324,0.013523,0.002678,0.000431,0.000940
121731000,0.0324,0.013523,0.002678,0.000431,0.000940
121732000,0.0324,0.013523,0.002678,0.000431,0.000705
121733000,0.0324,0.013523,0.002678,0.000431,0.000940
121734000,0.0324,0.013523,0.002678,0.000431,0.000705
121735000,0.0324,0.013523,0.002678,0.000431,0.000940
121736000,0.0324,0.013523,0.002678,0.000431,0.000823
121737000,0.0324,0.013523,0.002678,0.000431,0.000823
121738000,0.0324,0.013523,0.002678,0.000431,0.000823
121739000,0.0324,0.013523,0.002678,0.000431,0.000823
121740000,0.0324,0.013523,0.002678,0.000431,0.000940
121741000,0.0324,0.013523,0.002678,0.000431,0.000705
121742000,0.0324,0.013523,0.002678,0.000431,0.000940
121743000,0.0324,0.013523,0.002678,0.000431,0.000940
121744000,0.0324,0.013523,0.002678,0.000431,0.000940
121745000,0.0324,0.013523,0.002678,0.000431,0.000705
121746000,0.0324,0.013523,0.002678,0.000431,0.000940
121747000,0.0324,0.013523,0.002678,0.000431,0.000823
121748000,0.0324,0.013523,0.002678,0.000431,0.000823
121749000,0.0324,0.013523,0.002678,0.000431,0.000823
121750000,0.0324,0.013523,0.002678,0.000431,0.000823
121751000,0.0324,0.013523,0.002678,0.000431,0.000823
121752000,0.0324,0.013523,0.002678,0.000431,0.000823
121753000,0.0324,0.013523,0.002678,0.000431,0.000940
121754000,0.0324,0.013523,0.002678,0.000431,0.000823
121755000,0.0324,0.013523,0.002678,0.000431,0.000823
121756000,0.0324,0.013523,0.002678,0.000431,0.000705
121757000,0.0324,0.013523,0.002678,0.000431,0.000940
121758000,0.0324,0.013523,0.002678,0.000431,0.000940
121759000,0.0324,0.013523,0.002678,0.000431,0.000705
121760000,0.0324,0.013523,0.002678,0.000431,0.000940
121761000,0.0324,0.013523,0.002678,0.000431,0.000705
121762000,0.0324,0.013523,0.002678,0.000431,0.000940
121763000,0.0324,0.013523,0.002678,0.000431,0.000823
121764000,0.0324,0.013523,0.002678,0.000431,0.000823
121765000,0.0324,0.013523,0.002678,0.000431,0.000823
121766000,0.0324,0.013523,0.002678,0.000431,0.000823
121767000,0.0324,0.013523,0.002678,0.000431,0.000940
121768000,0.0324,0.013523,0.002678,0.000431,0.000940
121769000,0.0324,0.013523,0.002678,0.000431,0.008580
121770000,0.0324,0.013523,0.002678,0.000431,0.405707
121771000,0.0324,0.013523,0.002678,0.000431,0.623369
121772000,0.0324,0.013523,0.002678,0.000431,0.132102
121773000,0.0324,0.013523,0.002678,0.000431,0.132572
121774000,0.0324,0.013523,0.002678,0.000431,0.140211
121775000,0.0324,0.013523,0.002678,0.000431,0.596926
121776000,0.0324,0.013523,0.002678,0.000431,0.245869
121777000,0.0324,0.013523,0.002678,0.000431,0.265849
121778000,0.0324,0.013523,0.002678,0.000431,0.231413
121779000,0.0324,0.013523,0.002678,0.000431,0.136098
121780000,0.0324,0.013523,0.002678,0.000431,0.145500
121781000,0.0324,0.013523,0.002678,0.000431,0.115295
121782000,0.0324,0.013523,0.002678,0.000431,0.340244
121783000,0.0324,0.013523,0.002678,0.000431,0.226829
121784000,0.0324,0.013523,0.002678,0.000431,0.006229
121785000,0.0324,0.013523,0.002678,0.000431,0.005641
121786000,0.0324,0.013523,0.002678,0.000431,0.006229
121787000,0.0324,0.013523,0.002678,0.000431,0.004819
121788000,0.0324,0.013523,0.002678,0.000431,0.005406
121789000,0.0324,0.013523,0.002678,0.000431,0.004819
121790000,0.0324,0.013523,0.002678,0.000431,0.004349
121791000,0.0324,0.013523,0.002678,0.000431,0.005524
121792000,0.0324,0.013523,0.002678,0.000431,0.004113
121793000,0.0324,0.013523,0.002678,0.000431,0.005054
121794000,0.0324,0.013523,0.002678,0.000431,0.004819
121795000,0.0324,0.013523,0.002678,0.000431,0.004819
121796000,0.0324,0.013523,0.002678,0.000431,0.004819
121797000,0.0324,0.013523,0.002678,0.000431,0.004584
121798000,0.0324,0.013523,0.002678,0.000431,0.004819
121799000,0.0324,0.013523,0.002678,0.000431,0.005054
121800000,0.0324,0.013523,0.002678,0.000431,0.004701
121801000,0.0324,0.013523,0.002678,0.000431,0.004466
121802000,0.0324,0.013523,0.002678,0.000431,0.005171
121803000,0.0324,0.013523,0.002678,0.000431,0.004819
121804000,0.0324,0.013523,0.002678,0.000431,0.004701
121805000,0.0324,0.013523,0.002678,0.000431,0.004819
121806000,0.0324,0.013523,0.002678,0.000431,0.004819
121807000,0.0324,0.013523,0.002678,0.000431,0.003761
121808000,0.0324,0.013523,0.002678,0.000431,0.004466
121809000,0.0324,0.013523,0.002678,0.000431,0.004113
121810000,0.0324,0.013523,0.002678,0.000431,0.003878
121811000,0.0324,0.013523,0.002678,0.000431,0.004349
121812000,0.0324,0.013523,0.002678,0.000431,0.003761
121813000,0.0324,0.013523,0.002678,0.000431,0.004349
121814000,0.0324,0.013523,0.002678,0.000431,0.004231
121815000,0.0324,0.013523,0.002678,0.000431,0.003878
121816000,0.0324,0.013523,0.002678,0.000431,0.004231
121817000,0.0324,0.013523,0.002678,0.000431,0.003878
121818000,0.0324,0.013523,0.002678,0.000431,0.004113
121819000,0.0324,0.013523,0.002678,0.000431,0.004466
121820000,0.0324,0.013523,0.002678,0.000431,0.005406
121821000,0.0324,0.013523,0.002678,0.000431,0.003408
121822000,0.0324,0.013523,0.002678,0.000431,0.003173
121823000,0.0324,0.013523,0.002678,0.000431,0.003173
121824000,0.0324,0.013523,0.002678,0.000431,0.003526
121825000,0.0324,0.013523,0.002678,0.000431,0.002821
121826000,0.0324,0.013523,0.002678,0.000431,0.003761
121827000,0.0324,0.013523,0.002678,0.000431,0.004349
121828000,0.0324,0.013523,0.002678,0.000431,0.002586
121829000,0.0324,0.013523,0.002678,0.000431,0.002468
121830000,0.0324,0.013523,0.002678,0.000431,0.002233
121831000,0.0324,0.013523,0.002678,0.000431,0.002703
121832000,0.0324,0.013523,0.002678,0.000431,0.002233
121833000,0.0324,0.013523,0.002678,0.000431,0.002586
121834000,0.0324,0.013523,0.002678,0.000431,0.002351
121835000,0.0324,0.013523,0.002678,0.000431,0.002351
121836000,0.0324,0.013523,0.002678,0.000431,0.002586
121837000,0.0324,0.013523,0.002678,0.000431,0.003526
121838000,0.0324,0.013523,0.002678,0.000431,0.001528
121839000,0.0324,0.013523,0.002678,0.000431,0.001410
121840000,0.0324,0.013523,0.002678,0.000431,0.001645
121841000,0.0324,0.013523,0.002678,0.000431,0.001645
121842000,0.0324,0.013523,0.002678,0.000431,0.001645
121843000,0.0324,0.013523,0.002678,0.000431,0.001410
121844000,0.0324,0.013523,0.002678,0.000431,0.001645
121845000,0.0324,0.013523,0.002678,0.000431,0.001410
121846000,0.0324,0.013523,0.002678,0.000431,0.001645
121847000,0.0324,0.013523,0.002678,0.000431,0.001880
121848000,0.0324,0.013523,0.002678,0.000431,0.001175
121849000,0.0324,0.013523,0.002678,0.000431,0.001880
121850000,0.0324,0.013523,0.002678,0.000431,0.001410
121851000,0.0324,0.013523,0.002678,0.000431,0.001645
121852000,0.0324,0.013523,0.002678,0.000431,0.001763
121853000,0.0324,0.013523,0.002678,0.000431,0.226124
121854000,0.0324,0.013523,0.002678,0.000431,0.569189
121855000,0.0324,0.013523,0.002678,0.000431,0.306866
121856000,0.0324,0.013523,0.002678,0.000431,0.130221
121857000,0.0324,0.013523,0.002678,0.000431,0.133982
121858000,0.0324,0.013523,0.002678,0.000431,0.560727
121859000,0.0324,0.013523,0.002678,0.000431,0.240580
121860000,0.0324,0.013523,0.002678,0.000431,0.224009
121861000,0.0324,0.013523,0.002678,0.000431,0.289589
121862000,0.0324,0.013523,0.002678,0.000431,0.141621
121863000,0.0324,0.013523,0.002678,0.000431,0.135510
121864000,0.0324,0.013523,0.002678,0.000431,0.174882
121865000,0.0324,0.013523,0.002678,0.000431,0.092025
121866000,0.0324,0.013523,0.002678,0.000431,0.459770
121867000,0.0324,0.013523,0.002678,0.000431,0.034788
121868000,0.0324,0.013523,0.002678,0.000431,0.005876
121869000,0.0324,0.013523,0.002678,0.000431,0.004349
121870000,0.0324,0.013523,0.002678,0.000431,0.004113
121871000,0.0324,0.013523,0.002678,0.000431,0.005289
121872000,0.0324,0.013523,0.002678,0.000431,0.004466
121873000,0.0324,0.013523,0.002678,0.000431,0.003526
121874000,0.0324,0.013523,0.002678,0.000431,0.003291
121875000,0.0324,0.013523,0.002678,0.000431,0.003643
121876000,0.0324,0.013523,0.002678,0.000431,0.003526
121877000,0.0324,0.013523,0.002678,0.000431,0.003408
121878000,0.0324,0.013523,0.002678,0.000431,0.003291
121879000,0.0324,0.013523,0.002678,0.000431,0.003643
121880000,0.0324,0.013523,0.002678,0.000431,0.003526
121881000,0.0324,0.013523,0.002678,0.000431,0.003408
121882000,0.0324,0.013523,0.002678,0.000431,0.003526
121883000,0.0324,0.013523,0.002678,0.000431,0.003408
121884000,0.0324,0.013523,0.002678,0.000431,0.003526
121885000,0.0324,0.013523,0.002678,0.000431,0.003291
121886000,0.0324,0.013523,0.002678,0.000431,0.003643
121887000,0.0324,0.013523,0.002678,0.000431,0.003643
121888000,0.0324,0.013523,0.002678,0.000431,0.003291
121889000,0.0324,0.013523,0.002678,0.000431,0.003408
121890000,0.0324,0.013523,0.002678,0.000431,0.003526
121891000,0.0324,0.013523,0.002678,0.000431,0.003526
121892000,0.0324,0.013523,0.002678,0.000431,0.003526
121893000,0.0324,0.013523,0.002678,0.000431,0.003291
121894000,0.0324,0.013523,0.002678,0.000431,0.003643
121895000,0.0324,0.013523,0.002678,0.000431,0.003408
121896000,0.0324,0.013523,0.002678,0.000431,0.003526
121897000,0.0324,0.013523,0.002678,0.000431,0.003291
121898000,0.0324,0.013523,0.002678,0.000431,0.003643
121899000,0.0324,0.013523,0.002678,0.000431,0.003408
121900000,0.0324,0.013523,0.002678,0.000431,0.003408
121901000,0.0324,0.013523,0.002678,0.000431,0.003526
121902000,0.0324,0.013523,0.002678,0.000431,0.003526
121903000,0.0324,0.013523,0.002678,0.000431,0.003408
121904000,0.0324,0.013523,0.002678,0.000431,0.003291
121905000,0.0324,0.013523,0.002678,0.000431,0.003643
121906000,0.0324,0.013523,0.002678,0.000431,0.004584
121907000,0.0324,0.013523,0.002678,0.000431,0.002586
121908000,0.0324,0.013523,0.002678,0.000431,0.002821
121909000,0.0324,0.013523,0.002678,0.000431,0.002351
121910000,0.0324,0.013523,0.002678,0.000431,0.002821
121911000,0.0324,0.013523,0.002678,0.000431,0.002586
121912000,0.0324,0.013523,0.002678,0.000431,0.002468
121913000,0.0324,0.013523,0.002678,0.000431,0.002586
121914000,0.0324,0.013523,0.002678,0.000431,0.002703
121915000,0.0324,0.013523,0.002678,0.000431,0.002586
121916000,0.0324,0.013523,0.002678,0.000431,0.002351
121917000,0.0324,0.013523,0.002678,0.000431,0.002703
121918000,0.0324,0.013523,0.002678,0.000431,0.002703
121919000,0.0324,0.013523,0.002678,0.000431,0.002703
121920000,0.0324,0.013523,0.002678,0.000431,0.002233
121921000,0.0324,0.013523,0.002678,0.000431,0.002703
121922000,0.0324,0.013523,0.002678,0.000431,0.002821
121923000,0.0324,0.013523,0.002678,0.000431,0.002468
121924000,0.0324,0.013523,0.002678,0.000431,0.003056
121925000,0.0324,0.013523,0.002678,0.000431,0.002586
121926000,0.0324,0.013523,0.002678,0.000431,0.001763
121927000,0.0324,0.013523,0.002678,0.000431,0.001645
121928000,0.0324,0.013523,0.002678,0.000431,0.001645
121929000,0.0324,0.013523,0.002678,0.000431,0.001880
121930000,0.0324,0.013523,0.002678,0.000431,0.001528
121931000,0.0324,0.013523,0.002678,0.000431,0.001880
121932000,0.0324,0.013523,0.002678,0.000431,0.001645
121933000,0.0324,0.013523,0.002678,0.000431,0.001763
121934000,0.0324,0.013523,0.002678,0.000431,0.001528
121935000,0.0324,0.013523,0.002678,0.000431,0.001763
121936000,0.0324,0.013523,0.002678,0.000431,0.001880
121937000,0.0324,0.013523,0.002678,0.000431,0.001645
121938000,0.0324,0.013523,0.002678,0.000431,0.001763
121939000,0.0324,0.013523,0.002678,0.000431,0.001528
121940000,0.0324,0.013523,0.002678,0.000431,0.001880
121941000,0.0324,0.013523,0.002678,0.000431,0.001763
121942000,0.0324,0.013523,0.002678,0.000431,0.001645
121943000,0.0324,0.013523,0.002678,0.000431,0.001763
121944000,0.0324,0.013523,0.002678,0.000431,0.001645
121945000,0.0324,0.013523,0.002678,0.000431,0.001880
121946000,0.0324,0.013523,0.002678,0.000431,0.001528
121947000,0.0324,0.013523,0.002678,0.000431,0.001763
121948000,0.0324,0.013523,0.002678,0.000431,0.001763
121949000,0.0324,0.013523,0.002678,0.000431,0.001645
121950000,0.0324,0.013523,0.002678,0.000431,0.001763
121951000,0.0324,0.013523,0.002678,0.000431,0.001645
121952000,0.0324,0.013523,0.002678,0.000431,0.001880
121953000,0.0324,0.013523,0.002678,0.000431,0.001528
121954000,0.0324,0.013523,0.002678,0.000431,0.001645
121955000,0.0324,0.013523,0.002678,0.000431,0.001763
121956000,0.0324,0.013523,0.002678,0.000431,0.001880
121957000,0.0324,0.013523,0.002678,0.000431,0.001528
121958000,0.0324,0.013523,0.002678,0.000431,0.001763
121959000,0.0324,0.013523,0.002678,0.000431,0.001645
121960000,0.0324,0.013523,0.002678,0.000431,0.001880
121961000,0.0324,0.013523,0.002678,0.000431,0.001645
121962000,0.0324,0.013523,0.002678,0.000431,0.001645
121963000,0.0324,0.013523,0.002678,0.000431,0.001880
121964000,0.0324,0.013523,0.002678,0.000431,0.001528
121965000,0.0324,0.013523,0.002678,0.000431,0.001763
121966000,0.0324,0.013523,0.002678,0.000431,0.001763
121967000,0.0324,0.013523,0.002678,0.000431,0.001763
121968000,0.0324,0.013523,0.002678,0.000431,0.001763
121969000,0.0324,0.013523,0.002678,0.000431,0.001528
121970000,0.0324,0.013523,0.002678,0.000431,0.001880
121971000,0.0324,0.013523,0.002678,0.000431,0.001645
121972000,0.0324,0.013523,0.002678,0.000431,0.001763
121973000,0.0324,0.013523,0.002678,0.000431,0.001645
121974000,0.0324,0.013523,0.002678,0.000431,0.001763
121975000,0.0324,0.013523,0.002678,0.000431,0.001645
121976000,0.0324,0.013523,0.002678,0.000431,0.001645
121977000,0.0324,0.013523,0.002678,0.000431,0.001880
121978000,0.0324,0.013523,0.002678,0.000431,0.001763
121979000,0.0324,0.013523,0.002678,0.000431,0.001763
121980000,0.0324,0.013523,0.002678,0.000431,0.001528
121981000,0.0324,0.013523,0.002678,0.000431,0.003056
121982000,0.0324,0.013523,0.002678,0.000431,0.000823
121983000,0.0324,0.013523,0.002678,0.000431,0.000823
121984000,0.0324,0.013523,0.002678,0.000431,0.000940
121985000,0.0324,0.013523,0.002678,0.000431,0.000705
121986000,0.0324,0.013523,0.002678,0.000431,0.000940
121987000,0.0324,0.013523,0.002678,0.000431,0.000705
121988000,0.0324,0.013523,0.002678,0.000431,0.000940
121989000,0.0324,0.013523,0.002678,0.000431,0.000823
121990000,0.0324,0.013523,0.002678,0.000431,0.000823
121991000,0.0324,0.013523,0.002678,0.000431,0.000940
121992000,0.0324,0.013523,0.002678,0.000431,0.000705
121993000,0.0324,0.013523,0.002678,0.000431,0.000940
121994000,0.0324,0.013523,0.002678,0.000431,0.000823
121995000,0.0324,0.013523,0.002678,0.000431,0.000823
121996000,0.0324,0.013523,0.002678,0.000431,0.000823
121997000,0.0324,0.013523,0.002678,0.000431,0.000823
121998000,0.0324,0.013523,0.002678,0.000431,0.000940
121999000,0.0324,0.013523,0.002678,0.000431,0.000705
