Cycle,Area(mm^2),PeakDynamic(W),SubthresholdLeakage(W),GateLeakage(W),RunTimeDynamic(W)
14000000,0.0324,0.013523,0.002678,0.000431,0.001880
14001000,0.0324,0.013523,0.002678,0.000431,0.001410
14002000,0.0324,0.013523,0.002678,0.000431,0.001058
14003000,0.0324,0.013523,0.002678,0.000431,0.000940
14004000,0.0324,0.013523,0.002678,0.000431,0.000940
14005000,0.0324,0.013523,0.002678,0.000431,0.000705
14006000,0.0324,0.013523,0.002678,0.000431,0.000940
14007000,0.0324,0.013523,0.002678,0.000431,0.000940
14008000,0.0324,0.013523,0.002678,0.000431,0.000823
14009000,0.0324,0.013523,0.002678,0.000431,0.000823
14010000,0.0324,0.013523,0.002678,0.000431,0.000940
14011000,0.0324,0.013523,0.002678,0.000431,0.000940
14012000,0.0324,0.013523,0.002678,0.000431,0.000940
14013000,0.0324,0.013523,0.002678,0.000431,0.000940
14014000,0.0324,0.013523,0.002678,0.000431,0.000705
14015000,0.0324,0.013523,0.002678,0.000431,0.000940
14016000,0.0324,0.013523,0.002678,0.000431,0.000940
14017000,0.0324,0.013523,0.002678,0.000431,0.000940
14018000,0.0324,0.013523,0.002678,0.000431,0.000705
14019000,0.0324,0.013523,0.002678,0.000431,0.000940
14020000,0.0324,0.013523,0.002678,0.000431,0.000940
14021000,0.0324,0.013523,0.002678,0.000431,0.000823
14022000,0.0324,0.013523,0.002678,0.000431,0.000823
14023000,0.0324,0.013523,0.002678,0.000431,0.208025
14024000,0.0324,0.013523,0.002678,0.000431,0.620666
14025000,0.0324,0.013523,0.002678,0.000431,0.368098
14026000,0.0324,0.013523,0.002678,0.000431,0.130691
14027000,0.0324,0.013523,0.002678,0.000431,0.133982
14028000,0.0324,0.013523,0.002678,0.000431,0.602449
14029000,0.0324,0.013523,0.002678,0.000431,0.230355
14030000,0.0324,0.013523,0.002678,0.000431,0.348471
14031000,0.0324,0.013523,0.002678,0.000431,0.222716
14032000,0.0324,0.013523,0.002678,0.000431,0.142914
14033000,0.0324,0.013523,0.002678,0.000431,0.153844
14034000,0.0324,0.013523,0.002678,0.000431,0.161014
14035000,0.0324,0.013523,0.002678,0.000431,0.434502
14036000,0.0324,0.013523,0.002678,0.000431,0.046776
14037000,0.0324,0.013523,0.002678,0.000431,0.040312
14038000,0.0324,0.013523,0.002678,0.000431,0.029029
14039000,0.0324,0.013523,0.002678,0.000431,0.020332
14040000,0.0324,0.013523,0.002678,0.000431,0.018922
14041000,0.0324,0.013523,0.002678,0.000431,0.011518
14042000,0.0324,0.013523,0.002678,0.000431,0.016101
14043000,0.0324,0.013523,0.002678,0.000431,0.011400
14044000,0.0324,0.013523,0.002678,0.000431,0.004701
14045000,0.0324,0.013523,0.002678,0.000431,0.005171
14046000,0.0324,0.013523,0.002678,0.000431,0.001880
14047000,0.0324,0.013523,0.002678,0.000431,0.001645
14048000,0.0324,0.013523,0.002678,0.000431,0.001645
14049000,0.0324,0.013523,0.002678,0.000431,0.001880
14050000,0.0324,0.013523,0.002678,0.000431,0.001880
14051000,0.0324,0.013523,0.002678,0.000431,0.001645
14052000,0.0324,0.013523,0.002678,0.000431,0.001645
14053000,0.0324,0.013523,0.002678,0.000431,0.001880
14054000,0.0324,0.013523,0.002678,0.000431,0.001763
14055000,0.0324,0.013523,0.002678,0.000431,0.003056
14056000,0.0324,0.013523,0.002678,0.000431,0.014573
14057000,0.0324,0.013523,0.002678,0.000431,0.471053
14058000,0.0324,0.013523,0.002678,0.000431,0.594693
14059000,0.0324,0.013523,0.002678,0.000431,0.133512
14060000,0.0324,0.013523,0.002678,0.000431,0.132102
14061000,0.0324,0.013523,0.002678,0.000431,0.272665
14062000,0.0324,0.013523,0.002678,0.000431,0.492326
14063000,0.0324,0.013523,0.002678,0.000431,0.272313
14064000,0.0324,0.013523,0.002678,0.000431,0.306396
14065000,0.0324,0.013523,0.002678,0.000431,0.185224
14066000,0.0324,0.013523,0.002678,0.000431,0.145147
14067000,0.0324,0.013523,0.002678,0.000431,0.131044
14068000,0.0324,0.013523,0.002678,0.000431,0.249277
14069000,0.0324,0.013523,0.002678,0.000431,0.321205
14070000,0.0324,0.013523,0.002678,0.000431,0.007992
14071000,0.0324,0.013523,0.002678,0.000431,0.001763
14072000,0.0324,0.013523,0.002678,0.000431,0.001645
14073000,0.0324,0.013523,0.002678,0.000431,0.003408
14074000,0.0324,0.013523,0.002678,0.000431,0.001058
14075000,0.0324,0.013523,0.002678,0.000431,0.000823
14076000,0.0324,0.013523,0.002678,0.000431,0.000940
14077000,0.0324,0.013523,0.002678,0.000431,0.000823
14078000,0.0324,0.013523,0.002678,0.000431,0.000940
14079000,0.0324,0.013523,0.002678,0.000431,0.000823
14080000,0.0324,0.013523,0.002678,0.000431,0.000823
14081000,0.0324,0.013523,0.002678,0.000431,0.000940
14082000,0.0324,0.013523,0.002678,0.000431,0.000940
14083000,0.0324,0.013523,0.002678,0.000431,0.000823
14084000,0.0324,0.013523,0.002678,0.000431,0.000823
14085000,0.0324,0.013523,0.002678,0.000431,0.000940
14086000,0.0324,0.013523,0.002678,0.000431,0.000940
14087000,0.0324,0.013523,0.002678,0.000431,0.000823
14088000,0.0324,0.013523,0.002678,0.000431,0.000823
14089000,0.0324,0.013523,0.002678,0.000431,0.000940
14090000,0.0324,0.013523,0.002678,0.000431,0.000823
14091000,0.0324,0.013523,0.002678,0.000431,0.000940
14092000,0.0324,0.013523,0.002678,0.000431,0.000823
14093000,0.0324,0.013523,0.002678,0.000431,0.000940
14094000,0.0324,0.013523,0.002678,0.000431,0.000823
14095000,0.0324,0.013523,0.002678,0.000431,0.000823
14096000,0.0324,0.013523,0.002678,0.000431,0.000940
14097000,0.0324,0.013523,0.002678,0.000431,0.000940
14098000,0.0324,0.013523,0.002678,0.000431,0.000823
14099000,0.0324,0.013523,0.002678,0.000431,0.000823
14100000,0.0324,0.013523,0.002678,0.000431,0.000940
14101000,0.0324,0.013523,0.002678,0.000431,0.000940
14102000,0.0324,0.013523,0.002678,0.000431,0.000705
14103000,0.0324,0.013523,0.002678,0.000431,0.000940
14104000,0.0324,0.013523,0.002678,0.000431,0.000940
14105000,0.0324,0.013523,0.002678,0.000431,0.000940
14106000,0.0324,0.013523,0.002678,0.000431,0.000705
14107000,0.0324,0.013523,0.002678,0.000431,0.000940
14108000,0.0324,0.013523,0.002678,0.000431,0.000940
14109000,0.0324,0.013523,0.002678,0.000431,0.000823
14110000,0.0324,0.013523,0.002678,0.000431,0.000940
14111000,0.0324,0.013523,0.002678,0.000431,0.000823
14112000,0.0324,0.013523,0.002678,0.000431,0.000940
14113000,0.0324,0.013523,0.002678,0.000431,0.000823
14114000,0.0324,0.013523,0.002678,0.000431,0.000823
14115000,0.0324,0.013523,0.002678,0.000431,0.000940
14116000,0.0324,0.013523,0.002678,0.000431,0.000940
14117000,0.0324,0.013523,0.002678,0.000431,0.000823
14118000,0.0324,0.013523,0.002678,0.000431,0.000823
14119000,0.0324,0.013523,0.002678,0.000431,0.000940
14120000,0.0324,0.013523,0.002678,0.000431,0.000940
14121000,0.0324,0.013523,0.002678,0.000431,0.000705
14122000,0.0324,0.013523,0.002678,0.000431,0.000940
14123000,0.0324,0.013523,0.002678,0.000431,0.000940
14124000,0.0324,0.013523,0.002678,0.000431,0.000940
14125000,0.0324,0.013523,0.002678,0.000431,0.000705
14126000,0.0324,0.013523,0.002678,0.000431,0.000940
14127000,0.0324,0.013523,0.002678,0.000431,0.000940
14128000,0.0324,0.013523,0.002678,0.000431,0.000823
14129000,0.0324,0.013523,0.002678,0.000431,0.000823
14130000,0.0324,0.013523,0.002678,0.000431,0.000940
14131000,0.0324,0.013523,0.002678,0.000431,0.000823
14132000,0.0324,0.013523,0.002678,0.000431,0.000940
14133000,0.0324,0.013523,0.002678,0.000431,0.000823
14134000,0.0324,0.013523,0.002678,0.000431,0.000940
14135000,0.0324,0.013523,0.002678,0.000431,0.054416
14136000,0.0324,0.013523,0.002678,0.000431,0.385845
14137000,0.0324,0.013523,0.002678,0.000431,0.609031
14138000,0.0324,0.013523,0.002678,0.000431,0.130691
14139000,0.0324,0.013523,0.002678,0.000431,0.133982
14140000,0.0324,0.013523,0.002678,0.000431,0.410761
14141000,0.0324,0.013523,0.002678,0.000431,0.368568
14142000,0.0324,0.013523,0.002678,0.000431,0.224479
14143000,0.0324,0.013523,0.002678,0.000431,0.316503
14144000,0.0324,0.013523,0.002678,0.000431,0.204852
14145000,0.0324,0.013523,0.002678,0.000431,0.141857
14146000,0.0324,0.013523,0.002678,0.000431,0.159016
14147000,0.0324,0.013523,0.002678,0.000431,0.128928
14148000,0.0324,0.013523,0.002678,0.000431,0.468115
14149000,0.0324,0.013523,0.002678,0.000431,0.038902
14150000,0.0324,0.013523,0.002678,0.000431,0.027972
14151000,0.0324,0.013523,0.002678,0.000431,0.020802
14152000,0.0324,0.013523,0.002678,0.000431,0.017747
14153000,0.0324,0.013523,0.002678,0.000431,0.016807
14154000,0.0324,0.013523,0.002678,0.000431,0.016336
14155000,0.0324,0.013523,0.002678,0.000431,0.013398
14156000,0.0324,0.013523,0.002678,0.000431,0.011635
14157000,0.0324,0.013523,0.002678,0.000431,0.009050
14158000,0.0324,0.013523,0.002678,0.000431,0.007052
14159000,0.0324,0.013523,0.002678,0.000431,0.008580
14160000,0.0324,0.013523,0.002678,0.000431,0.007522
14161000,0.0324,0.013523,0.002678,0.000431,0.004819
14162000,0.0324,0.013523,0.002678,0.000431,0.005641
14163000,0.0324,0.013523,0.002678,0.000431,0.004584
14164000,0.0324,0.013523,0.002678,0.000431,0.004466
14165000,0.0324,0.013523,0.002678,0.000431,0.004231
14166000,0.0324,0.013523,0.002678,0.000431,0.003878
14167000,0.0324,0.013523,0.002678,0.000431,0.004701
14168000,0.0324,0.013523,0.002678,0.000431,0.004349
14169000,0.0324,0.013523,0.002678,0.000431,0.003878
14170000,0.0324,0.013523,0.002678,0.000431,0.004466
14171000,0.0324,0.013523,0.002678,0.000431,0.005876
14172000,0.0324,0.013523,0.002678,0.000431,0.003643
14173000,0.0324,0.013523,0.002678,0.000431,0.004584
14174000,0.0324,0.013523,0.002678,0.000431,0.002821
14175000,0.0324,0.013523,0.002678,0.000431,0.002586
14176000,0.0324,0.013523,0.002678,0.000431,0.004231
14177000,0.0324,0.013523,0.002678,0.000431,0.215899
14178000,0.0324,0.013523,0.002678,0.000431,0.640764
14179000,0.0324,0.013523,0.002678,0.000431,0.312272
14180000,0.0324,0.013523,0.002678,0.000431,0.131161
14181000,0.0324,0.013523,0.002678,0.000431,0.147263
14182000,0.0324,0.013523,0.002678,0.000431,0.657688
14183000,0.0324,0.013523,0.002678,0.000431,0.225889
14184000,0.0324,0.013523,0.002678,0.000431,0.300049
14185000,0.0324,0.013523,0.002678,0.000431,0.238582
14186000,0.0324,0.013523,0.002678,0.000431,0.143149
14187000,0.0324,0.013523,0.002678,0.000431,0.139153
14188000,0.0324,0.013523,0.002678,0.000431,0.239640
14189000,0.0324,0.013523,0.002678,0.000431,0.375267
14190000,0.0324,0.013523,0.002678,0.000431,0.025269
14191000,0.0324,0.013523,0.002678,0.000431,0.021038
14192000,0.0324,0.013523,0.002678,0.000431,0.020097
14193000,0.0324,0.013523,0.002678,0.000431,0.016454
14194000,0.0324,0.013523,0.002678,0.000431,0.011400
14195000,0.0324,0.013523,0.002678,0.000431,0.011870
14196000,0.0324,0.013523,0.002678,0.000431,0.009167
14197000,0.0324,0.013523,0.002678,0.000431,0.010107
14198000,0.0324,0.013523,0.002678,0.000431,0.007757
14199000,0.0324,0.013523,0.002678,0.000431,0.009402
14200000,0.0324,0.013523,0.002678,0.000431,0.008345
14201000,0.0324,0.013523,0.002678,0.000431,0.005054
14202000,0.0324,0.013523,0.002678,0.000431,0.006229
14203000,0.0324,0.013523,0.002678,0.000431,0.005289
14204000,0.0324,0.013523,0.002678,0.000431,0.005641
14205000,0.0324,0.013523,0.002678,0.000431,0.004701
14206000,0.0324,0.013523,0.002678,0.000431,0.002703
14207000,0.0324,0.013523,0.002678,0.000431,0.002703
14208000,0.0324,0.013523,0.002678,0.000431,0.002468
14209000,0.0324,0.013523,0.002678,0.000431,0.002468
14210000,0.0324,0.013523,0.002678,0.000431,0.002703
14211000,0.0324,0.013523,0.002678,0.000431,0.002586
14212000,0.0324,0.013523,0.002678,0.000431,0.002703
14213000,0.0324,0.013523,0.002678,0.000431,0.002468
14214000,0.0324,0.013523,0.002678,0.000431,0.002586
14215000,0.0324,0.013523,0.002678,0.000431,0.002586
14216000,0.0324,0.013523,0.002678,0.000431,0.002586
14217000,0.0324,0.013523,0.002678,0.000431,0.002586
14218000,0.0324,0.013523,0.002678,0.000431,0.002703
14219000,0.0324,0.013523,0.002678,0.000431,0.003996
14220000,0.0324,0.013523,0.002678,0.000431,0.001763
14221000,0.0324,0.013523,0.002678,0.000431,0.001763
14222000,0.0324,0.013523,0.002678,0.000431,0.001880
14223000,0.0324,0.013523,0.002678,0.000431,0.001528
14224000,0.0324,0.013523,0.002678,0.000431,0.001763
14225000,0.0324,0.013523,0.002678,0.000431,0.001880
14226000,0.0324,0.013523,0.002678,0.000431,0.001880
14227000,0.0324,0.013523,0.002678,0.000431,0.001528
14228000,0.0324,0.013523,0.002678,0.000431,0.001763
14229000,0.0324,0.013523,0.002678,0.000431,0.001880
14230000,0.0324,0.013523,0.002678,0.000431,0.001763
14231000,0.0324,0.013523,0.002678,0.000431,0.001645
14232000,0.0324,0.013523,0.002678,0.000431,0.001763
14233000,0.0324,0.013523,0.002678,0.000431,0.001880
14234000,0.0324,0.013523,0.002678,0.000431,0.001763
14235000,0.0324,0.013523,0.002678,0.000431,0.001528
14236000,0.0324,0.013523,0.002678,0.000431,0.001880
14237000,0.0324,0.013523,0.002678,0.000431,0.001880
14238000,0.0324,0.013523,0.002678,0.000431,0.001528
14239000,0.0324,0.013523,0.002678,0.000431,0.001880
14240000,0.0324,0.013523,0.002678,0.000431,0.001763
14241000,0.0324,0.013523,0.002678,0.000431,0.001880
14242000,0.0324,0.013523,0.002678,0.000431,0.001528
14243000,0.0324,0.013523,0.002678,0.000431,0.003526
14244000,0.0324,0.013523,0.002678,0.000431,0.000940
14245000,0.0324,0.013523,0.002678,0.000431,0.000940
14246000,0.0324,0.013523,0.002678,0.000431,0.000823
14247000,0.0324,0.013523,0.002678,0.000431,0.000823
14248000,0.0324,0.013523,0.002678,0.000431,0.000940
14249000,0.0324,0.013523,0.002678,0.000431,0.000940
14250000,0.0324,0.013523,0.002678,0.000431,0.000705
14251000,0.0324,0.013523,0.002678,0.000431,0.000940
14252000,0.0324,0.013523,0.002678,0.000431,0.000940
14253000,0.0324,0.013523,0.002678,0.000431,0.000940
14254000,0.0324,0.013523,0.002678,0.000431,0.000705
14255000,0.0324,0.013523,0.002678,0.000431,0.000940
14256000,0.0324,0.013523,0.002678,0.000431,0.000940
14257000,0.0324,0.013523,0.002678,0.000431,0.000823
14258000,0.0324,0.013523,0.002678,0.000431,0.000823
14259000,0.0324,0.013523,0.002678,0.000431,0.000940
14260000,0.0324,0.013523,0.002678,0.000431,0.000823
14261000,0.0324,0.013523,0.002678,0.000431,0.000940
14262000,0.0324,0.013523,0.002678,0.000431,0.000823
14263000,0.0324,0.013523,0.002678,0.000431,0.000940
14264000,0.0324,0.013523,0.002678,0.000431,0.000823
14265000,0.0324,0.013523,0.002678,0.000431,0.000823
14266000,0.0324,0.013523,0.002678,0.000431,0.000940
14267000,0.0324,0.013523,0.002678,0.000431,0.000940
14268000,0.0324,0.013523,0.002678,0.000431,0.000823
14269000,0.0324,0.013523,0.002678,0.000431,0.000823
14270000,0.0324,0.013523,0.002678,0.000431,0.000940
14271000,0.0324,0.013523,0.002678,0.000431,0.000940
14272000,0.0324,0.013523,0.002678,0.000431,0.000823
14273000,0.0324,0.013523,0.002678,0.000431,0.000823
14274000,0.0324,0.013523,0.002678,0.000431,0.000940
14275000,0.0324,0.013523,0.002678,0.000431,0.000940
14276000,0.0324,0.013523,0.002678,0.000431,0.000823
14277000,0.0324,0.013523,0.002678,0.000431,0.000823
14278000,0.0324,0.013523,0.002678,0.000431,0.000940
14279000,0.0324,0.013523,0.002678,0.000431,0.000823
14280000,0.0324,0.013523,0.002678,0.000431,0.000940
14281000,0.0324,0.013523,0.002678,0.000431,0.000823
14282000,0.0324,0.013523,0.002678,0.000431,0.000940
14283000,0.0324,0.013523,0.002678,0.000431,0.000823
14284000,0.0324,0.013523,0.002678,0.000431,0.000823
14285000,0.0324,0.013523,0.002678,0.000431,0.000940
14286000,0.0324,0.013523,0.002678,0.000431,0.000940
14287000,0.0324,0.013523,0.002678,0.000431,0.000823
14288000,0.0324,0.013523,0.002678,0.000431,0.000823
14289000,0.0324,0.013523,0.002678,0.000431,0.000940
14290000,0.0324,0.013523,0.002678,0.000431,0.000940
14291000,0.0324,0.013523,0.002678,0.000431,0.000705
14292000,0.0324,0.013523,0.002678,0.000431,0.000940
14293000,0.0324,0.013523,0.002678,0.000431,0.000940
14294000,0.0324,0.013523,0.002678,0.000431,0.000940
14295000,0.0324,0.013523,0.002678,0.000431,0.000705
14296000,0.0324,0.013523,0.002678,0.000431,0.000940
14297000,0.0324,0.013523,0.002678,0.000431,0.000940
14298000,0.0324,0.013523,0.002678,0.000431,0.000823
14299000,0.0324,0.013523,0.002678,0.000431,0.000940
14300000,0.0324,0.013523,0.002678,0.000431,0.000823
14301000,0.0324,0.013523,0.002678,0.000431,0.000940
14302000,0.0324,0.013523,0.002678,0.000431,0.000823
14303000,0.0324,0.013523,0.002678,0.000431,0.000823
14304000,0.0324,0.013523,0.002678,0.000431,0.000940
14305000,0.0324,0.013523,0.002678,0.000431,0.000940
14306000,0.0324,0.013523,0.002678,0.000431,0.000705
14307000,0.0324,0.013523,0.002678,0.000431,0.000940
14308000,0.0324,0.013523,0.002678,0.000431,0.000940
14309000,0.0324,0.013523,0.002678,0.000431,0.000940
14310000,0.0324,0.013523,0.002678,0.000431,0.000705
14311000,0.0324,0.013523,0.002678,0.000431,0.000940
14312000,0.0324,0.013523,0.002678,0.000431,0.000940
14313000,0.0324,0.013523,0.002678,0.000431,0.000823
14314000,0.0324,0.013523,0.002678,0.000431,0.000823
14315000,0.0324,0.013523,0.002678,0.000431,0.000940
14316000,0.0324,0.013523,0.002678,0.000431,0.000940
14317000,0.0324,0.013523,0.002678,0.000431,0.000823
14318000,0.0324,0.013523,0.002678,0.000431,0.000823
14319000,0.0324,0.013523,0.002678,0.000431,0.000940
14320000,0.0324,0.013523,0.002678,0.000431,0.000823
14321000,0.0324,0.013523,0.002678,0.000431,0.000940
14322000,0.0324,0.013523,0.002678,0.000431,0.000823
14323000,0.0324,0.013523,0.002678,0.000431,0.000940
14324000,0.0324,0.013523,0.002678,0.000431,0.000823
14325000,0.0324,0.013523,0.002678,0.000431,0.000823
14326000,0.0324,0.013523,0.002678,0.000431,0.000940
14327000,0.0324,0.013523,0.002678,0.000431,0.000940
14328000,0.0324,0.013523,0.002678,0.000431,0.000823
14329000,0.0324,0.013523,0.002678,0.000431,0.000823
14330000,0.0324,0.013523,0.002678,0.000431,0.000940
14331000,0.0324,0.013523,0.002678,0.000431,0.000940
14332000,0.0324,0.013523,0.002678,0.000431,0.000823
14333000,0.0324,0.013523,0.002678,0.000431,0.000823
14334000,0.0324,0.013523,0.002678,0.000431,0.000940
14335000,0.0324,0.013523,0.002678,0.000431,0.000940
14336000,0.0324,0.013523,0.002678,0.000431,0.000823
14337000,0.0324,0.013523,0.002678,0.000431,0.000823
14338000,0.0324,0.013523,0.002678,0.000431,0.000940
14339000,0.0324,0.013523,0.002678,0.000431,0.000823
14340000,0.0324,0.013523,0.002678,0.000431,0.000940
14341000,0.0324,0.013523,0.002678,0.000431,0.000823
14342000,0.0324,0.013523,0.002678,0.000431,0.001880
14343000,0.0324,0.013523,0.002678,0.000431,0.303810
14344000,0.0324,0.013523,0.002678,0.000431,0.666032
14345000,0.0324,0.013523,0.002678,0.000431,0.210728
14346000,0.0324,0.013523,0.002678,0.000431,0.133394
14347000,0.0324,0.013523,0.002678,0.000431,0.139859
14348000,0.0324,0.013523,0.002678,0.000431,0.595750
14349000,0.0324,0.013523,0.002678,0.000431,0.232001
14350000,0.0324,0.013523,0.002678,0.000431,0.282420
14351000,0.0324,0.013523,0.002678,0.000431,0.228710
14352000,0.0324,0.013523,0.002678,0.000431,0.144795
14353000,0.0324,0.013523,0.002678,0.000431,0.180876
14354000,0.0324,0.013523,0.002678,0.000431,0.117998
14355000,0.0324,0.013523,0.002678,0.000431,0.475754
14356000,0.0324,0.013523,0.002678,0.000431,0.095080
14357000,0.0324,0.013523,0.002678,0.000431,0.075101
14358000,0.0324,0.013523,0.002678,0.000431,0.058882
14359000,0.0324,0.013523,0.002678,0.000431,0.045601
14360000,0.0324,0.013523,0.002678,0.000431,0.038197
14361000,0.0324,0.013523,0.002678,0.000431,0.026091
14362000,0.0324,0.013523,0.002678,0.000431,0.017277
14363000,0.0324,0.013523,0.002678,0.000431,0.018569
14364000,0.0324,0.013523,0.002678,0.000431,0.017277
14365000,0.0324,0.013523,0.002678,0.000431,0.014573
14366000,0.0324,0.013523,0.002678,0.000431,0.010107
14367000,0.0324,0.013523,0.002678,0.000431,0.011048
14368000,0.0324,0.013523,0.002678,0.000431,0.009755
14369000,0.0324,0.013523,0.002678,0.000431,0.007639
14370000,0.0324,0.013523,0.002678,0.000431,0.005054
14371000,0.0324,0.013523,0.002678,0.000431,0.005641
14372000,0.0324,0.013523,0.002678,0.000431,0.007287
14373000,0.0324,0.013523,0.002678,0.000431,0.003526
14374000,0.0324,0.013523,0.002678,0.000431,0.005289
14375000,0.0324,0.013523,0.002678,0.000431,0.002703
14376000,0.0324,0.013523,0.002678,0.000431,0.002586
14377000,0.0324,0.013523,0.002678,0.000431,0.002586
14378000,0.0324,0.013523,0.002678,0.000431,0.002703
14379000,0.0324,0.013523,0.002678,0.000431,0.002468
14380000,0.0324,0.013523,0.002678,0.000431,0.002586
14381000,0.0324,0.013523,0.002678,0.000431,0.004466
14382000,0.0324,0.013523,0.002678,0.000431,0.001645
14383000,0.0324,0.013523,0.002678,0.000431,0.004113
14384000,0.0324,0.013523,0.002678,0.000431,0.001058
14385000,0.0324,0.013523,0.002678,0.000431,0.002821
14386000,0.0324,0.013523,0.002678,0.000431,0.467645
14387000,0.0324,0.013523,0.002678,0.000431,0.652634
14388000,0.0324,0.013523,0.002678,0.000431,0.132572
14389000,0.0324,0.013523,0.002678,0.000431,0.132572
14390000,0.0324,0.013523,0.002678,0.000431,0.342947
14391000,0.0324,0.013523,0.002678,0.000431,0.475284
14392000,0.0324,0.013523,0.002678,0.000431,0.222363
14393000,0.0324,0.013523,0.002678,0.000431,0.347178
14394000,0.0324,0.013523,0.002678,0.000431,0.147263
14395000,0.0324,0.013523,0.002678,0.000431,0.154550
14396000,0.0324,0.013523,0.002678,0.000431,0.097431
14397000,0.0324,0.013523,0.002678,0.000431,0.389606
14398000,0.0324,0.013523,0.002678,0.000431,0.225419
14399000,0.0324,0.013523,0.002678,0.000431,0.058176
14400000,0.0324,0.013523,0.002678,0.000431,0.047951
14401000,0.0324,0.013523,0.002678,0.000431,0.040782
14402000,0.0324,0.013523,0.002678,0.000431,0.033966
14403000,0.0324,0.013523,0.002678,0.000431,0.030205
14404000,0.0324,0.013523,0.002678,0.000431,0.022800
14405000,0.0324,0.013523,0.002678,0.000431,0.019627
14406000,0.0324,0.013523,0.002678,0.000431,0.015984
14407000,0.0324,0.013523,0.002678,0.000431,0.011870
14408000,0.0324,0.013523,0.002678,0.000431,0.013516
14409000,0.0324,0.013523,0.002678,0.000431,0.009755
14410000,0.0324,0.013523,0.002678,0.000431,0.011048
14411000,0.0324,0.013523,0.002678,0.000431,0.006699
14412000,0.0324,0.013523,0.002678,0.000431,0.008109
14413000,0.0324,0.013523,0.002678,0.000431,0.005054
14414000,0.0324,0.013523,0.002678,0.000431,0.003643
14415000,0.0324,0.013523,0.002678,0.000431,0.004819
14416000,0.0324,0.013523,0.002678,0.000431,0.002586
14417000,0.0324,0.013523,0.002678,0.000431,0.004231
14418000,0.0324,0.013523,0.002678,0.000431,0.001880
14419000,0.0324,0.013523,0.002678,0.000431,0.001880
14420000,0.0324,0.013523,0.002678,0.000431,0.001410
14421000,0.0324,0.013523,0.002678,0.000431,0.001880
14422000,0.0324,0.013523,0.002678,0.000431,0.001645
14423000,0.0324,0.013523,0.002678,0.000431,0.001880
14424000,0.0324,0.013523,0.002678,0.000431,0.001763
14425000,0.0324,0.013523,0.002678,0.000431,0.001645
14426000,0.0324,0.013523,0.002678,0.000431,0.001763
14427000,0.0324,0.013523,0.002678,0.000431,0.001645
14428000,0.0324,0.013523,0.002678,0.000431,0.001763
14429000,0.0324,0.013523,0.002678,0.000431,0.001645
14430000,0.0324,0.013523,0.002678,0.000431,0.001763
14431000,0.0324,0.013523,0.002678,0.000431,0.001763
14432000,0.0324,0.013523,0.002678,0.000431,0.001763
14433000,0.0324,0.013523,0.002678,0.000431,0.001528
14434000,0.0324,0.013523,0.002678,0.000431,0.001763
14435000,0.0324,0.013523,0.002678,0.000431,0.001880
14436000,0.0324,0.013523,0.002678,0.000431,0.001528
14437000,0.0324,0.013523,0.002678,0.000431,0.001763
14438000,0.0324,0.013523,0.002678,0.000431,0.001763
14439000,0.0324,0.013523,0.002678,0.000431,0.001763
14440000,0.0324,0.013523,0.002678,0.000431,0.001645
14441000,0.0324,0.013523,0.002678,0.000431,0.001645
14442000,0.0324,0.013523,0.002678,0.000431,0.001880
14443000,0.0324,0.013523,0.002678,0.000431,0.001528
14444000,0.0324,0.013523,0.002678,0.000431,0.001880
14445000,0.0324,0.013523,0.002678,0.000431,0.001528
14446000,0.0324,0.013523,0.002678,0.000431,0.001880
14447000,0.0324,0.013523,0.002678,0.000431,0.003291
14448000,0.0324,0.013523,0.002678,0.000431,0.000823
14449000,0.0324,0.013523,0.002678,0.000431,0.000940
14450000,0.0324,0.013523,0.002678,0.000431,0.000705
14451000,0.0324,0.013523,0.002678,0.000431,0.000940
14452000,0.0324,0.013523,0.002678,0.000431,0.033025
14453000,0.0324,0.013523,0.002678,0.000431,0.510190
14454000,0.0324,0.013523,0.002678,0.000431,0.593047
14455000,0.0324,0.013523,0.002678,0.000431,0.131161
14456000,0.0324,0.013523,0.002678,0.000431,0.134452
14457000,0.0324,0.013523,0.002678,0.000431,0.544626
14458000,0.0324,0.013523,0.002678,0.000431,0.240463
14459000,0.0324,0.013523,0.002678,0.000431,0.276779
14460000,0.0324,0.013523,0.002678,0.000431,0.309569
14461000,0.0324,0.013523,0.002678,0.000431,0.139153
14462000,0.0324,0.013523,0.002678,0.000431,0.149143
14463000,0.0324,0.013523,0.002678,0.000431,0.116118
14464000,0.0324,0.013523,0.002678,0.000431,0.385140
14465000,0.0324,0.013523,0.002678,0.000431,0.204382
14466000,0.0324,0.013523,0.002678,0.000431,0.041958
14467000,0.0324,0.013523,0.002678,0.000431,0.034788
14468000,0.0324,0.013523,0.002678,0.000431,0.032790
14469000,0.0324,0.013523,0.002678,0.000431,0.029735
14470000,0.0324,0.013523,0.002678,0.000431,0.021273
14471000,0.0324,0.013523,0.002678,0.000431,0.019157
14472000,0.0324,0.013523,0.002678,0.000431,0.020567
14473000,0.0324,0.013523,0.002678,0.000431,0.014338
14474000,0.0324,0.013523,0.002678,0.000431,0.012928
14475000,0.0324,0.013523,0.002678,0.000431,0.008932
14476000,0.0324,0.013523,0.002678,0.000431,0.006817
14477000,0.0324,0.013523,0.002678,0.000431,0.006699
14478000,0.0324,0.013523,0.002678,0.000431,0.005524
14479000,0.0324,0.013523,0.002678,0.000431,0.006111
14480000,0.0324,0.013523,0.002678,0.000431,0.005994
14481000,0.0324,0.013523,0.002678,0.000431,0.005289
14482000,0.0324,0.013523,0.002678,0.000431,0.007522
14483000,0.0324,0.013523,0.002678,0.000431,0.004113
14484000,0.0324,0.013523,0.002678,0.000431,0.003526
14485000,0.0324,0.013523,0.002678,0.000431,0.007757
14486000,0.0324,0.013523,0.002678,0.000431,0.000940
14487000,0.0324,0.013523,0.002678,0.000431,0.000823
14488000,0.0324,0.013523,0.002678,0.000431,0.000940
14489000,0.0324,0.013523,0.002678,0.000431,0.000940
14490000,0.0324,0.013523,0.002678,0.000431,0.000823
14491000,0.0324,0.013523,0.002678,0.000431,0.000823
14492000,0.0324,0.013523,0.002678,0.000431,0.000940
14493000,0.0324,0.013523,0.002678,0.000431,0.000823
14494000,0.0324,0.013523,0.002678,0.000431,0.000940
14495000,0.0324,0.013523,0.002678,0.000431,0.000823
14496000,0.0324,0.013523,0.002678,0.000431,0.000940
14497000,0.0324,0.013523,0.002678,0.000431,0.000940
14498000,0.0324,0.013523,0.002678,0.000431,0.000705
14499000,0.0324,0.013523,0.002678,0.000431,0.000940
14500000,0.0324,0.013523,0.002678,0.000431,0.000940
14501000,0.0324,0.013523,0.002678,0.000431,0.000940
14502000,0.0324,0.013523,0.002678,0.000431,0.002351
14503000,0.0324,0.013523,0.002678,0.000431,0.364220
14504000,0.0324,0.013523,0.002678,0.000431,0.694709
14505000,0.0324,0.013523,0.002678,0.000431,0.134452
14506000,0.0324,0.013523,0.002678,0.000431,0.134452
14507000,0.0324,0.013523,0.002678,0.000431,0.143502
14508000,0.0324,0.013523,0.002678,0.000431,0.584468
14509000,0.0324,0.013523,0.002678,0.000431,0.244224
14510000,0.0324,0.013523,0.002678,0.000431,0.257269
14511000,0.0324,0.013523,0.002678,0.000431,0.259620
14512000,0.0324,0.013523,0.002678,0.000431,0.148673
14513000,0.0324,0.013523,0.002678,0.000431,0.160191
14514000,0.0324,0.013523,0.002678,0.000431,0.108008
14515000,0.0324,0.013523,0.002678,0.000431,0.461533
14516000,0.0324,0.013523,0.002678,0.000431,0.087676
14517000,0.0324,0.013523,0.002678,0.000431,0.025386
14518000,0.0324,0.013523,0.002678,0.000431,0.018452
14519000,0.0324,0.013523,0.002678,0.000431,0.018805
14520000,0.0324,0.013523,0.002678,0.000431,0.015396
14521000,0.0324,0.013523,0.002678,0.000431,0.017512
14522000,0.0324,0.013523,0.002678,0.000431,0.009520
14523000,0.0324,0.013523,0.002678,0.000431,0.009872
14524000,0.0324,0.013523,0.002678,0.000431,0.008345
14525000,0.0324,0.013523,0.002678,0.000431,0.007757
14526000,0.0324,0.013523,0.002678,0.000431,0.008697
14527000,0.0324,0.013523,0.002678,0.000431,0.012458
14528000,0.0324,0.013523,0.002678,0.000431,0.006464
14529000,0.0324,0.013523,0.002678,0.000431,0.006699
14530000,0.0324,0.013523,0.002678,0.000431,0.006934
14531000,0.0324,0.013523,0.002678,0.000431,0.006699
14532000,0.0324,0.013523,0.002678,0.000431,0.006582
14533000,0.0324,0.013523,0.002678,0.000431,0.006699
14534000,0.0324,0.013523,0.002678,0.000431,0.006934
14535000,0.0324,0.013523,0.002678,0.000431,0.006582
14536000,0.0324,0.013523,0.002678,0.000431,0.006934
14537000,0.0324,0.013523,0.002678,0.000431,0.006817
14538000,0.0324,0.013523,0.002678,0.000431,0.006111
14539000,0.0324,0.013523,0.002678,0.000431,0.005406
14540000,0.0324,0.013523,0.002678,0.000431,0.004819
14541000,0.0324,0.013523,0.002678,0.000431,0.005171
14542000,0.0324,0.013523,0.002678,0.000431,0.005289
14543000,0.0324,0.013523,0.002678,0.000431,0.005054
14544000,0.0324,0.013523,0.002678,0.000431,0.004819
14545000,0.0324,0.013523,0.002678,0.000431,0.005054
14546000,0.0324,0.013523,0.002678,0.000431,0.005289
14547000,0.0324,0.013523,0.002678,0.000431,0.005289
14548000,0.0324,0.013523,0.002678,0.000431,0.004819
14549000,0.0324,0.013523,0.002678,0.000431,0.005054
14550000,0.0324,0.013523,0.002678,0.000431,0.004936
14551000,0.0324,0.013523,0.002678,0.000431,0.005171
14552000,0.0324,0.013523,0.002678,0.000431,0.005054
14553000,0.0324,0.013523,0.002678,0.000431,0.005171
14554000,0.0324,0.013523,0.002678,0.000431,0.006229
14555000,0.0324,0.013523,0.002678,0.000431,0.004349
14556000,0.0324,0.013523,0.002678,0.000431,0.004231
14557000,0.0324,0.013523,0.002678,0.000431,0.005171
14558000,0.0324,0.013523,0.002678,0.000431,0.003408
14559000,0.0324,0.013523,0.002678,0.000431,0.003643
14560000,0.0324,0.013523,0.002678,0.000431,0.003408
14561000,0.0324,0.013523,0.002678,0.000431,0.002938
14562000,0.0324,0.013523,0.002678,0.000431,0.003643
14563000,0.0324,0.013523,0.002678,0.000431,0.003526
14564000,0.0324,0.013523,0.002678,0.000431,0.003173
14565000,0.0324,0.013523,0.002678,0.000431,0.003408
14566000,0.0324,0.013523,0.002678,0.000431,0.003408
14567000,0.0324,0.013523,0.002678,0.000431,0.003408
14568000,0.0324,0.013523,0.002678,0.000431,0.003173
14569000,0.0324,0.013523,0.002678,0.000431,0.003526
14570000,0.0324,0.013523,0.002678,0.000431,0.003408
14571000,0.0324,0.013523,0.002678,0.000431,0.003173
14572000,0.0324,0.013523,0.002678,0.000431,0.003526
14573000,0.0324,0.013523,0.002678,0.000431,0.003173
14574000,0.0324,0.013523,0.002678,0.000431,0.003761
14575000,0.0324,0.013523,0.002678,0.000431,0.003408
14576000,0.0324,0.013523,0.002678,0.000431,0.002938
14577000,0.0324,0.013523,0.002678,0.000431,0.003526
14578000,0.0324,0.013523,0.002678,0.000431,0.003526
14579000,0.0324,0.013523,0.002678,0.000431,0.003526
14580000,0.0324,0.013523,0.002678,0.000431,0.002938
14581000,0.0324,0.013523,0.002678,0.000431,0.003761
14582000,0.0324,0.013523,0.002678,0.000431,0.004936
14583000,0.0324,0.013523,0.002678,0.000431,0.002468
14584000,0.0324,0.013523,0.002678,0.000431,0.002233
14585000,0.0324,0.013523,0.002678,0.000431,0.002821
14586000,0.0324,0.013523,0.002678,0.000431,0.002703
14587000,0.0324,0.013523,0.002678,0.000431,0.002351
14588000,0.0324,0.013523,0.002678,0.000431,0.002468
14589000,0.0324,0.013523,0.002678,0.000431,0.002586
14590000,0.0324,0.013523,0.002678,0.000431,0.002468
14591000,0.0324,0.013523,0.002678,0.000431,0.002468
14592000,0.0324,0.013523,0.002678,0.000431,0.002586
14593000,0.0324,0.013523,0.002678,0.000431,0.002938
14594000,0.0324,0.013523,0.002678,0.000431,0.002116
14595000,0.0324,0.013523,0.002678,0.000431,0.002468
14596000,0.0324,0.013523,0.002678,0.000431,0.002586
14597000,0.0324,0.013523,0.002678,0.000431,0.002821
14598000,0.0324,0.013523,0.002678,0.000431,0.002351
14599000,0.0324,0.013523,0.002678,0.000431,0.002351
14600000,0.0324,0.013523,0.002678,0.000431,0.002821
14601000,0.0324,0.013523,0.002678,0.000431,0.002586
14602000,0.0324,0.013523,0.002678,0.000431,0.002468
14603000,0.0324,0.013523,0.002678,0.000431,0.002468
14604000,0.0324,0.013523,0.002678,0.000431,0.002586
14605000,0.0324,0.013523,0.002678,0.000431,0.002468
14606000,0.0324,0.013523,0.002678,0.000431,0.002586
14607000,0.0324,0.013523,0.002678,0.000431,0.002468
14608000,0.0324,0.013523,0.002678,0.000431,0.002586
14609000,0.0324,0.013523,0.002678,0.000431,0.002468
14610000,0.0324,0.013523,0.002678,0.000431,0.002586
14611000,0.0324,0.013523,0.002678,0.000431,0.002468
14612000,0.0324,0.013523,0.002678,0.000431,0.002821
14613000,0.0324,0.013523,0.002678,0.000431,0.002233
14614000,0.0324,0.013523,0.002678,0.000431,0.002468
14615000,0.0324,0.013523,0.002678,0.000431,0.002821
14616000,0.0324,0.013523,0.002678,0.000431,0.002586
14617000,0.0324,0.013523,0.002678,0.000431,0.002116
14618000,0.0324,0.013523,0.002678,0.000431,0.002586
14619000,0.0324,0.013523,0.002678,0.000431,0.002821
14620000,0.0324,0.013523,0.002678,0.000431,0.002586
14621000,0.0324,0.013523,0.002678,0.000431,0.002116
14622000,0.0324,0.013523,0.002678,0.000431,0.002938
14623000,0.0324,0.013523,0.002678,0.000431,0.002468
14624000,0.0324,0.013523,0.002678,0.000431,0.002468
14625000,0.0324,0.013523,0.002678,0.000431,0.002586
14626000,0.0324,0.013523,0.002678,0.000431,0.002468
14627000,0.0324,0.013523,0.002678,0.000431,0.002821
14628000,0.0324,0.013523,0.002678,0.000431,0.002233
14629000,0.0324,0.013523,0.002678,0.000431,0.002468
14630000,0.0324,0.013523,0.002678,0.000431,0.002586
14631000,0.0324,0.013523,0.002678,0.000431,0.002586
14632000,0.0324,0.013523,0.002678,0.000431,0.002351
14633000,0.0324,0.013523,0.002678,0.000431,0.002586
14634000,0.0324,0.013523,0.002678,0.000431,0.002938
14635000,0.0324,0.013523,0.002678,0.000431,0.002468
14636000,0.0324,0.013523,0.002678,0.000431,0.002116
14637000,0.0324,0.013523,0.002678,0.000431,0.002586
14638000,0.0324,0.013523,0.002678,0.000431,0.002821
14639000,0.0324,0.013523,0.002678,0.000431,0.002703
14640000,0.0324,0.013523,0.002678,0.000431,0.001998
14641000,0.0324,0.013523,0.002678,0.000431,0.003408
14642000,0.0324,0.013523,0.002678,0.000431,0.002233
14643000,0.0324,0.013523,0.002678,0.000431,0.000823
14644000,0.0324,0.013523,0.002678,0.000431,0.014338
14645000,0.0324,0.013523,0.002678,0.000431,0.480925
14646000,0.0324,0.013523,0.002678,0.000431,0.590462
14647000,0.0324,0.013523,0.002678,0.000431,0.134452
14648000,0.0324,0.013523,0.002678,0.000431,0.131632
14649000,0.0324,0.013523,0.002678,0.000431,0.404650
14650000,0.0324,0.013523,0.002678,0.000431,0.390899
14651000,0.0324,0.013523,0.002678,0.000431,0.261148
14652000,0.0324,0.013523,0.002678,0.000431,0.337541
14653000,0.0324,0.013523,0.002678,0.000431,0.162659
14654000,0.0324,0.013523,0.002678,0.000431,0.147733
14655000,0.0324,0.013523,0.002678,0.000431,0.102720
14656000,0.0324,0.013523,0.002678,0.000431,0.365395
14657000,0.0324,0.013523,0.002678,0.000431,0.208848
14658000,0.0324,0.013523,0.002678,0.000431,0.013751
14659000,0.0324,0.013523,0.002678,0.000431,0.012340
14660000,0.0324,0.013523,0.002678,0.000431,0.011165
14661000,0.0324,0.013523,0.002678,0.000431,0.011165
14662000,0.0324,0.013523,0.002678,0.000431,0.011048
14663000,0.0324,0.013523,0.002678,0.000431,0.008932
14664000,0.0324,0.013523,0.002678,0.000431,0.007287
14665000,0.0324,0.013523,0.002678,0.000431,0.009637
14666000,0.0324,0.013523,0.002678,0.000431,0.007052
14667000,0.0324,0.013523,0.002678,0.000431,0.006817
14668000,0.0324,0.013523,0.002678,0.000431,0.006934
14669000,0.0324,0.013523,0.002678,0.000431,0.006347
14670000,0.0324,0.013523,0.002678,0.000431,0.006699
14671000,0.0324,0.013523,0.002678,0.000431,0.008697
14672000,0.0324,0.013523,0.002678,0.000431,0.003996
14673000,0.0324,0.013523,0.002678,0.000431,0.004584
14674000,0.0324,0.013523,0.002678,0.000431,0.004584
14675000,0.0324,0.013523,0.002678,0.000431,0.005289
14676000,0.0324,0.013523,0.002678,0.000431,0.003526
14677000,0.0324,0.013523,0.002678,0.000431,0.003643
14678000,0.0324,0.013523,0.002678,0.000431,0.003643
14679000,0.0324,0.013523,0.002678,0.000431,0.003056
14680000,0.0324,0.013523,0.002678,0.000431,0.003643
14681000,0.0324,0.013523,0.002678,0.000431,0.003761
14682000,0.0324,0.013523,0.002678,0.000431,0.003408
14683000,0.0324,0.013523,0.002678,0.000431,0.003408
14684000,0.0324,0.013523,0.002678,0.000431,0.003526
14685000,0.0324,0.013523,0.002678,0.000431,0.003761
14686000,0.0324,0.013523,0.002678,0.000431,0.004936
14687000,0.0324,0.013523,0.002678,0.000431,0.002468
14688000,0.0324,0.013523,0.002678,0.000431,0.002586
14689000,0.0324,0.013523,0.002678,0.000431,0.002703
14690000,0.0324,0.013523,0.002678,0.000431,0.002821
14691000,0.0324,0.013523,0.002678,0.000431,0.002351
14692000,0.0324,0.013523,0.002678,0.000431,0.002703
14693000,0.0324,0.013523,0.002678,0.000431,0.002821
14694000,0.0324,0.013523,0.002678,0.000431,0.002586
14695000,0.0324,0.013523,0.002678,0.000431,0.004113
14696000,0.0324,0.013523,0.002678,0.000431,0.001880
14697000,0.0324,0.013523,0.002678,0.000431,0.001763
14698000,0.0324,0.013523,0.002678,0.000431,0.001880
14699000,0.0324,0.013523,0.002678,0.000431,0.002351
14700000,0.0324,0.013523,0.002678,0.000431,0.000940
14701000,0.0324,0.013523,0.002678,0.000431,0.000823
14702000,0.0324,0.013523,0.002678,0.000431,0.000823
14703000,0.0324,0.013523,0.002678,0.000431,0.000940
14704000,0.0324,0.013523,0.002678,0.000431,0.000940
14705000,0.0324,0.013523,0.002678,0.000431,0.000823
14706000,0.0324,0.013523,0.002678,0.000431,0.000823
14707000,0.0324,0.013523,0.002678,0.000431,0.000940
14708000,0.0324,0.013523,0.002678,0.000431,0.000940
14709000,0.0324,0.013523,0.002678,0.000431,0.000823
14710000,0.0324,0.013523,0.002678,0.000431,0.000823
14711000,0.0324,0.013523,0.002678,0.000431,0.000940
14712000,0.0324,0.013523,0.002678,0.000431,0.039137
14713000,0.0324,0.013523,0.002678,0.000431,0.421339
14714000,0.0324,0.013523,0.002678,0.000431,0.601392
14715000,0.0324,0.013523,0.002678,0.000431,0.130691
14716000,0.0324,0.013523,0.002678,0.000431,0.134452
14717000,0.0324,0.013523,0.002678,0.000431,0.418870
14718000,0.0324,0.013523,0.002678,0.000431,0.354818
14719000,0.0324,0.013523,0.002678,0.000431,0.230473
14720000,0.0324,0.013523,0.002678,0.000431,0.337188
14721000,0.0324,0.013523,0.002678,0.000431,0.189573
14722000,0.0324,0.013523,0.002678,0.000431,0.147968
14723000,0.0324,0.013523,0.002678,0.000431,0.137155
14724000,0.0324,0.013523,0.002678,0.000431,0.211786
14725000,0.0324,0.013523,0.002678,0.000431,0.362339
14726000,0.0324,0.013523,0.002678,0.000431,0.020802
14727000,0.0324,0.013523,0.002678,0.000431,0.014691
14728000,0.0324,0.013523,0.002678,0.000431,0.012458
14729000,0.0324,0.013523,0.002678,0.000431,0.011283
14730000,0.0324,0.013523,0.002678,0.000431,0.010930
14731000,0.0324,0.013523,0.002678,0.000431,0.008580
14732000,0.0324,0.013523,0.002678,0.000431,0.008109
14733000,0.0324,0.013523,0.002678,0.000431,0.005876
14734000,0.0324,0.013523,0.002678,0.000431,0.007052
14735000,0.0324,0.013523,0.002678,0.000431,0.006347
14736000,0.0324,0.013523,0.002678,0.000431,0.007169
14737000,0.0324,0.013523,0.002678,0.000431,0.003408
14738000,0.0324,0.013523,0.002678,0.000431,0.003643
14739000,0.0324,0.013523,0.002678,0.000431,0.003408
14740000,0.0324,0.013523,0.002678,0.000431,0.003408
14741000,0.0324,0.013523,0.002678,0.000431,0.003291
14742000,0.0324,0.013523,0.002678,0.000431,0.005289
14743000,0.0324,0.013523,0.002678,0.000431,0.004349
14744000,0.0324,0.013523,0.002678,0.000431,0.001763
14745000,0.0324,0.013523,0.002678,0.000431,0.001528
14746000,0.0324,0.013523,0.002678,0.000431,0.001763
14747000,0.0324,0.013523,0.002678,0.000431,0.001880
14748000,0.0324,0.013523,0.002678,0.000431,0.003291
14749000,0.0324,0.013523,0.002678,0.000431,0.001058
14750000,0.0324,0.013523,0.002678,0.000431,0.000705
14751000,0.0324,0.013523,0.002678,0.000431,0.000940
14752000,0.0324,0.013523,0.002678,0.000431,0.000823
14753000,0.0324,0.013523,0.002678,0.000431,0.000823
14754000,0.0324,0.013523,0.002678,0.000431,0.000940
14755000,0.0324,0.013523,0.002678,0.000431,0.000705
14756000,0.0324,0.013523,0.002678,0.000431,0.000940
14757000,0.0324,0.013523,0.002678,0.000431,0.000823
14758000,0.0324,0.013523,0.002678,0.000431,0.000823
14759000,0.0324,0.013523,0.002678,0.000431,0.000823
14760000,0.0324,0.013523,0.002678,0.000431,0.000823
14761000,0.0324,0.013523,0.002678,0.000431,0.000823
14762000,0.0324,0.013523,0.002678,0.000431,0.000823
14763000,0.0324,0.013523,0.002678,0.000431,0.000940
14764000,0.0324,0.013523,0.002678,0.000431,0.000705
14765000,0.0324,0.013523,0.002678,0.000431,0.013633
14766000,0.0324,0.013523,0.002678,0.000431,0.434972
14767000,0.0324,0.013523,0.002678,0.000431,0.595985
14768000,0.0324,0.013523,0.002678,0.000431,0.134452
14769000,0.0324,0.013523,0.002678,0.000431,0.131161
14770000,0.0324,0.013523,0.002678,0.000431,0.254566
14771000,0.0324,0.013523,0.002678,0.000431,0.525821
14772000,0.0324,0.013523,0.002678,0.000431,0.283831
14773000,0.0324,0.013523,0.002678,0.000431,0.294291
14774000,0.0324,0.013523,0.002678,0.000431,0.191924
14775000,0.0324,0.013523,0.002678,0.000431,0.142092
14776000,0.0324,0.013523,0.002678,0.000431,0.148556
14777000,0.0324,0.013523,0.002678,0.000431,0.185459
14778000,0.0324,0.013523,0.002678,0.000431,0.387373
14779000,0.0324,0.013523,0.002678,0.000431,0.018805
14780000,0.0324,0.013523,0.002678,0.000431,0.013868
14781000,0.0324,0.013523,0.002678,0.000431,0.013868
14782000,0.0324,0.013523,0.002678,0.000431,0.013281
14783000,0.0324,0.013523,0.002678,0.000431,0.010107
14784000,0.0324,0.013523,0.002678,0.000431,0.009050
14785000,0.0324,0.013523,0.002678,0.000431,0.008345
14786000,0.0324,0.013523,0.002678,0.000431,0.008345
14787000,0.0324,0.013523,0.002678,0.000431,0.011048
14788000,0.0324,0.013523,0.002678,0.000431,0.007874
14789000,0.0324,0.013523,0.002678,0.000431,0.007287
14790000,0.0324,0.013523,0.002678,0.000431,0.007522
14791000,0.0324,0.013523,0.002678,0.000431,0.007639
14792000,0.0324,0.013523,0.002678,0.000431,0.009285
14793000,0.0324,0.013523,0.002678,0.000431,0.006934
14794000,0.0324,0.013523,0.002678,0.000431,0.007757
14795000,0.0324,0.013523,0.002678,0.000431,0.004819
14796000,0.0324,0.013523,0.002678,0.000431,0.006582
14797000,0.0324,0.013523,0.002678,0.000431,0.004231
14798000,0.0324,0.013523,0.002678,0.000431,0.005524
14799000,0.0324,0.013523,0.002678,0.000431,0.003408
14800000,0.0324,0.013523,0.002678,0.000431,0.003408
14801000,0.0324,0.013523,0.002678,0.000431,0.003173
14802000,0.0324,0.013523,0.002678,0.000431,0.003408
14803000,0.0324,0.013523,0.002678,0.000431,0.003408
14804000,0.0324,0.013523,0.002678,0.000431,0.003408
14805000,0.0324,0.013523,0.002678,0.000431,0.003408
14806000,0.0324,0.013523,0.002678,0.000431,0.003291
14807000,0.0324,0.013523,0.002678,0.000431,0.003291
14808000,0.0324,0.013523,0.002678,0.000431,0.003408
14809000,0.0324,0.013523,0.002678,0.000431,0.003291
14810000,0.0324,0.013523,0.002678,0.000431,0.003408
14811000,0.0324,0.013523,0.002678,0.000431,0.003408
14812000,0.0324,0.013523,0.002678,0.000431,0.003056
14813000,0.0324,0.013523,0.002678,0.000431,0.004113
14814000,0.0324,0.013523,0.002678,0.000431,0.001998
14815000,0.0324,0.013523,0.002678,0.000431,0.001763
14816000,0.0324,0.013523,0.002678,0.000431,0.001645
14817000,0.0324,0.013523,0.002678,0.000431,0.001763
14818000,0.0324,0.013523,0.002678,0.000431,0.003408
14819000,0.0324,0.013523,0.002678,0.000431,0.000940
14820000,0.0324,0.013523,0.002678,0.000431,0.000823
14821000,0.0324,0.013523,0.002678,0.000431,0.000823
14822000,0.0324,0.013523,0.002678,0.000431,0.000940
14823000,0.0324,0.013523,0.002678,0.000431,0.000823
14824000,0.0324,0.013523,0.002678,0.000431,0.000823
14825000,0.0324,0.013523,0.002678,0.000431,0.000940
14826000,0.0324,0.013523,0.002678,0.000431,0.000940
14827000,0.0324,0.013523,0.002678,0.000431,0.000823
14828000,0.0324,0.013523,0.002678,0.000431,0.000823
14829000,0.0324,0.013523,0.002678,0.000431,0.000940
14830000,0.0324,0.013523,0.002678,0.000431,0.000940
14831000,0.0324,0.013523,0.002678,0.000431,0.000823
14832000,0.0324,0.013523,0.002678,0.000431,0.000823
14833000,0.0324,0.013523,0.002678,0.000431,0.000940
14834000,0.0324,0.013523,0.002678,0.000431,0.000940
14835000,0.0324,0.013523,0.002678,0.000431,0.157370
14836000,0.0324,0.013523,0.002678,0.000431,0.395952
14837000,0.0324,0.013523,0.002678,0.000431,0.540747
14838000,0.0324,0.013523,0.002678,0.000431,0.133982
14839000,0.0324,0.013523,0.002678,0.000431,0.131161
14840000,0.0324,0.013523,0.002678,0.000431,0.552500
14841000,0.0324,0.013523,0.002678,0.000431,0.232706
14842000,0.0324,0.013523,0.002678,0.000431,0.243989
14843000,0.0324,0.013523,0.002678,0.000431,0.306161
14844000,0.0324,0.013523,0.002678,0.000431,0.139741
14845000,0.0324,0.013523,0.002678,0.000431,0.144795
14846000,0.0324,0.013523,0.002678,0.000431,0.166067
14847000,0.0324,0.013523,0.002678,0.000431,0.129163
14848000,0.0324,0.013523,0.002678,0.000431,0.446255
14849000,0.0324,0.013523,0.002678,0.000431,0.042545
14850000,0.0324,0.013523,0.002678,0.000431,0.029147
14851000,0.0324,0.013523,0.002678,0.000431,0.025034
14852000,0.0324,0.013523,0.002678,0.000431,0.024211
14853000,0.0324,0.013523,0.002678,0.000431,0.019275
14854000,0.0324,0.013523,0.002678,0.000431,0.014691
14855000,0.0324,0.013523,0.002678,0.000431,0.014456
14856000,0.0324,0.013523,0.002678,0.000431,0.017629
14857000,0.0324,0.013523,0.002678,0.000431,0.012223
14858000,0.0324,0.013523,0.002678,0.000431,0.012340
14859000,0.0324,0.013523,0.002678,0.000431,0.014573
14860000,0.0324,0.013523,0.002678,0.000431,0.011283
14861000,0.0324,0.013523,0.002678,0.000431,0.010460
14862000,0.0324,0.013523,0.002678,0.000431,0.010578
14863000,0.0324,0.013523,0.002678,0.000431,0.008932
14864000,0.0324,0.013523,0.002678,0.000431,0.010930
14865000,0.0324,0.013523,0.002678,0.000431,0.007757
14866000,0.0324,0.013523,0.002678,0.000431,0.008345
14867000,0.0324,0.013523,0.002678,0.000431,0.007992
14868000,0.0324,0.013523,0.002678,0.000431,0.007404
14869000,0.0324,0.013523,0.002678,0.000431,0.006699
14870000,0.0324,0.013523,0.002678,0.000431,0.007639
14871000,0.0324,0.013523,0.002678,0.000431,0.006817
14872000,0.0324,0.013523,0.002678,0.000431,0.007404
14873000,0.0324,0.013523,0.002678,0.000431,0.007052
14874000,0.0324,0.013523,0.002678,0.000431,0.007052
14875000,0.0324,0.013523,0.002678,0.000431,0.007522
14876000,0.0324,0.013523,0.002678,0.000431,0.007052
14877000,0.0324,0.013523,0.002678,0.000431,0.007169
14878000,0.0324,0.013523,0.002678,0.000431,0.006934
14879000,0.0324,0.013523,0.002678,0.000431,0.006934
14880000,0.0324,0.013523,0.002678,0.000431,0.006582
14881000,0.0324,0.013523,0.002678,0.000431,0.006347
14882000,0.0324,0.013523,0.002678,0.000431,0.006934
14883000,0.0324,0.013523,0.002678,0.000431,0.006464
14884000,0.0324,0.013523,0.002678,0.000431,0.006582
14885000,0.0324,0.013523,0.002678,0.000431,0.006347
14886000,0.0324,0.013523,0.002678,0.000431,0.007052
14887000,0.0324,0.013523,0.002678,0.000431,0.006347
14888000,0.0324,0.013523,0.002678,0.000431,0.006699
14889000,0.0324,0.013523,0.002678,0.000431,0.006111
14890000,0.0324,0.013523,0.002678,0.000431,0.007169
14891000,0.0324,0.013523,0.002678,0.000431,0.006111
14892000,0.0324,0.013523,0.002678,0.000431,0.006699
14893000,0.0324,0.013523,0.002678,0.000431,0.006934
14894000,0.0324,0.013523,0.002678,0.000431,0.006229
14895000,0.0324,0.013523,0.002678,0.000431,0.006817
14896000,0.0324,0.013523,0.002678,0.000431,0.005994
14897000,0.0324,0.013523,0.002678,0.000431,0.007404
14898000,0.0324,0.013523,0.002678,0.000431,0.006229
14899000,0.0324,0.013523,0.002678,0.000431,0.006699
14900000,0.0324,0.013523,0.002678,0.000431,0.006699
14901000,0.0324,0.013523,0.002678,0.000431,0.006347
14902000,0.0324,0.013523,0.002678,0.000431,0.006934
14903000,0.0324,0.013523,0.002678,0.000431,0.006699
14904000,0.0324,0.013523,0.002678,0.000431,0.006582
14905000,0.0324,0.013523,0.002678,0.000431,0.006347
14906000,0.0324,0.013523,0.002678,0.000431,0.006464
14907000,0.0324,0.013523,0.002678,0.000431,0.006817
14908000,0.0324,0.013523,0.002678,0.000431,0.007169
14909000,0.0324,0.013523,0.002678,0.000431,0.005994
14910000,0.0324,0.013523,0.002678,0.000431,0.007757
14911000,0.0324,0.013523,0.002678,0.000431,0.005289
14912000,0.0324,0.013523,0.002678,0.000431,0.005994
14913000,0.0324,0.013523,0.002678,0.000431,0.005876
14914000,0.0324,0.013523,0.002678,0.000431,0.007639
14915000,0.0324,0.013523,0.002678,0.000431,0.002586
14916000,0.0324,0.013523,0.002678,0.000431,0.002468
14917000,0.0324,0.013523,0.002678,0.000431,0.002586
14918000,0.0324,0.013523,0.002678,0.000431,0.002821
14919000,0.0324,0.013523,0.002678,0.000431,0.002586
14920000,0.0324,0.013523,0.002678,0.000431,0.003761
14921000,0.0324,0.013523,0.002678,0.000431,0.001528
14922000,0.0324,0.013523,0.002678,0.000431,0.001880
14923000,0.0324,0.013523,0.002678,0.000431,0.001645
14924000,0.0324,0.013523,0.002678,0.000431,0.001763
14925000,0.0324,0.013523,0.002678,0.000431,0.001763
14926000,0.0324,0.013523,0.002678,0.000431,0.001645
14927000,0.0324,0.013523,0.002678,0.000431,0.001880
14928000,0.0324,0.013523,0.002678,0.000431,0.003056
14929000,0.0324,0.013523,0.002678,0.000431,0.000823
14930000,0.0324,0.013523,0.002678,0.000431,0.000823
14931000,0.0324,0.013523,0.002678,0.000431,0.000823
14932000,0.0324,0.013523,0.002678,0.000431,0.000823
14933000,0.0324,0.013523,0.002678,0.000431,0.000823
14934000,0.0324,0.013523,0.002678,0.000431,0.000940
14935000,0.0324,0.013523,0.002678,0.000431,0.000705
14936000,0.0324,0.013523,0.002678,0.000431,0.000940
14937000,0.0324,0.013523,0.002678,0.000431,0.000823
14938000,0.0324,0.013523,0.002678,0.000431,0.000823
14939000,0.0324,0.013523,0.002678,0.000431,0.000705
14940000,0.0324,0.013523,0.002678,0.000431,0.000940
14941000,0.0324,0.013523,0.002678,0.000431,0.000940
14942000,0.0324,0.013523,0.002678,0.000431,0.000705
14943000,0.0324,0.013523,0.002678,0.000431,0.000940
14944000,0.0324,0.013523,0.002678,0.000431,0.000705
14945000,0.0324,0.013523,0.002678,0.000431,0.000940
14946000,0.0324,0.013523,0.002678,0.000431,0.000823
14947000,0.0324,0.013523,0.002678,0.000431,0.000823
14948000,0.0324,0.013523,0.002678,0.000431,0.000940
14949000,0.0324,0.013523,0.002678,0.000431,0.000705
14950000,0.0324,0.013523,0.002678,0.000431,0.000940
14951000,0.0324,0.013523,0.002678,0.000431,0.002351
14952000,0.0324,0.013523,0.002678,0.000431,0.370684
14953000,0.0324,0.013523,0.002678,0.000431,0.669205
14954000,0.0324,0.013523,0.002678,0.000431,0.131632
14955000,0.0324,0.013523,0.002678,0.000431,0.134100
14956000,0.0324,0.013523,0.002678,0.000431,0.189103
14957000,0.0324,0.013523,0.002678,0.000431,0.632537
14958000,0.0324,0.013523,0.002678,0.000431,0.240463
14959000,0.0324,0.013523,0.002678,0.000431,0.296641
14960000,0.0324,0.013523,0.002678,0.000431,0.199798
14961000,0.0324,0.013523,0.002678,0.000431,0.137038
14962000,0.0324,0.013523,0.002678,0.000431,0.143619
14963000,0.0324,0.013523,0.002678,0.000431,0.212138
14964000,0.0324,0.013523,0.002678,0.000431,0.370449
14965000,0.0324,0.013523,0.002678,0.000431,0.023623
14966000,0.0324,0.013523,0.002678,0.000431,0.024211
14967000,0.0324,0.013523,0.002678,0.000431,0.017629
14968000,0.0324,0.013523,0.002678,0.000431,0.016924
14969000,0.0324,0.013523,0.002678,0.000431,0.014103
14970000,0.0324,0.013523,0.002678,0.000431,0.013163
14971000,0.0324,0.013523,0.002678,0.000431,0.009285
14972000,0.0324,0.013523,0.002678,0.000431,0.008462
14973000,0.0324,0.013523,0.002678,0.000431,0.009990
14974000,0.0324,0.013523,0.002678,0.000431,0.006699
14975000,0.0324,0.013523,0.002678,0.000431,0.006817
14976000,0.0324,0.013523,0.002678,0.000431,0.005876
14977000,0.0324,0.013523,0.002678,0.000431,0.004701
14978000,0.0324,0.013523,0.002678,0.000431,0.003291
14979000,0.0324,0.013523,0.002678,0.000431,0.003291
14980000,0.0324,0.013523,0.002678,0.000431,0.003291
14981000,0.0324,0.013523,0.002678,0.000431,0.003173
14982000,0.0324,0.013523,0.002678,0.000431,0.003408
14983000,0.0324,0.013523,0.002678,0.000431,0.003408
14984000,0.0324,0.013523,0.002678,0.000431,0.003173
14985000,0.0324,0.013523,0.002678,0.000431,0.003408
14986000,0.0324,0.013523,0.002678,0.000431,0.003173
14987000,0.0324,0.013523,0.002678,0.000431,0.003526
14988000,0.0324,0.013523,0.002678,0.000431,0.002938
14989000,0.0324,0.013523,0.002678,0.000431,0.003526
14990000,0.0324,0.013523,0.002678,0.000431,0.003408
14991000,0.0324,0.013523,0.002678,0.000431,0.003291
14992000,0.0324,0.013523,0.002678,0.000431,0.003056
14993000,0.0324,0.013523,0.002678,0.000431,0.003291
14994000,0.0324,0.013523,0.002678,0.000431,0.003408
14995000,0.0324,0.013523,0.002678,0.000431,0.003291
14996000,0.0324,0.013523,0.002678,0.000431,0.003408
14997000,0.0324,0.013523,0.002678,0.000431,0.003173
14998000,0.0324,0.013523,0.002678,0.000431,0.003408
14999000,0.0324,0.013523,0.002678,0.000431,0.003408
