Cycle,Area(mm^2),PeakDynamic(W),SubthresholdLeakage(W),GateLeakage(W),RunTimeDynamic(W)
74000000,0.0324,0.013523,0.002678,0.000431,0.008109
74001000,0.0324,0.013523,0.002678,0.000431,0.008462
74002000,0.0324,0.013523,0.002678,0.000431,0.007287
74003000,0.0324,0.013523,0.002678,0.000431,0.008932
74004000,0.0324,0.013523,0.002678,0.000431,0.007639
74005000,0.0324,0.013523,0.002678,0.000431,0.008227
74006000,0.0324,0.013523,0.002678,0.000431,0.007992
74007000,0.0324,0.013523,0.002678,0.000431,0.010225
74008000,0.0324,0.013523,0.002678,0.000431,0.006817
74009000,0.0324,0.013523,0.002678,0.000431,0.007404
74010000,0.0324,0.013523,0.002678,0.000431,0.005759
74011000,0.0324,0.013523,0.002678,0.000431,0.005524
74012000,0.0324,0.013523,0.002678,0.000431,0.005054
74013000,0.0324,0.013523,0.002678,0.000431,0.008109
74014000,0.0324,0.013523,0.002678,0.000431,0.004113
74015000,0.0324,0.013523,0.002678,0.000431,0.005524
74016000,0.0324,0.013523,0.002678,0.000431,0.003996
74017000,0.0324,0.013523,0.002678,0.000431,0.002586
74018000,0.0324,0.013523,0.002678,0.000431,0.001763
74019000,0.0324,0.013523,0.002678,0.000431,0.001645
74020000,0.0324,0.013523,0.002678,0.000431,0.001645
74021000,0.0324,0.013523,0.002678,0.000431,0.001763
74022000,0.0324,0.013523,0.002678,0.000431,0.002703
74023000,0.0324,0.013523,0.002678,0.000431,0.000940
74024000,0.0324,0.013523,0.002678,0.000431,0.000940
74025000,0.0324,0.013523,0.002678,0.000431,0.000705
74026000,0.0324,0.013523,0.002678,0.000431,0.000940
74027000,0.0324,0.013523,0.002678,0.000431,0.181464
74028000,0.0324,0.013523,0.002678,0.000431,0.403357
74029000,0.0324,0.013523,0.002678,0.000431,0.533460
74030000,0.0324,0.013523,0.002678,0.000431,0.134922
74031000,0.0324,0.013523,0.002678,0.000431,0.130691
74032000,0.0324,0.013523,0.002678,0.000431,0.580354
74033000,0.0324,0.013523,0.002678,0.000431,0.235526
74034000,0.0324,0.013523,0.002678,0.000431,0.301460
74035000,0.0324,0.013523,0.002678,0.000431,0.281598
74036000,0.0324,0.013523,0.002678,0.000431,0.142679
74037000,0.0324,0.013523,0.002678,0.000431,0.142092
74038000,0.0324,0.013523,0.002678,0.000431,0.110241
74039000,0.0324,0.013523,0.002678,0.000431,0.334603
74040000,0.0324,0.013523,0.002678,0.000431,0.312978
74041000,0.0324,0.013523,0.002678,0.000431,0.083915
74042000,0.0324,0.013523,0.002678,0.000431,0.073690
74043000,0.0324,0.013523,0.002678,0.000431,0.046424
74044000,0.0324,0.013523,0.002678,0.000431,0.047011
74045000,0.0324,0.013523,0.002678,0.000431,0.035023
74046000,0.0324,0.013523,0.002678,0.000431,0.029265
74047000,0.0324,0.013523,0.002678,0.000431,0.032908
74048000,0.0324,0.013523,0.002678,0.000431,0.019745
74049000,0.0324,0.013523,0.002678,0.000431,0.017864
74050000,0.0324,0.013523,0.002678,0.000431,0.018922
74051000,0.0324,0.013523,0.002678,0.000431,0.013046
74052000,0.0324,0.013523,0.002678,0.000431,0.013281
74053000,0.0324,0.013523,0.002678,0.000431,0.012811
74054000,0.0324,0.013523,0.002678,0.000431,0.011635
74055000,0.0324,0.013523,0.002678,0.000431,0.014338
74056000,0.0324,0.013523,0.002678,0.000431,0.009755
74057000,0.0324,0.013523,0.002678,0.000431,0.014338
74058000,0.0324,0.013523,0.002678,0.000431,0.006111
74059000,0.0324,0.013523,0.002678,0.000431,0.006347
74060000,0.0324,0.013523,0.002678,0.000431,0.005289
74061000,0.0324,0.013523,0.002678,0.000431,0.004231
74062000,0.0324,0.013523,0.002678,0.000431,0.003643
74063000,0.0324,0.013523,0.002678,0.000431,0.003996
74064000,0.0324,0.013523,0.002678,0.000431,0.003173
74065000,0.0324,0.013523,0.002678,0.000431,0.003761
74066000,0.0324,0.013523,0.002678,0.000431,0.003173
74067000,0.0324,0.013523,0.002678,0.000431,0.003173
74068000,0.0324,0.013523,0.002678,0.000431,0.003408
74069000,0.0324,0.013523,0.002678,0.000431,0.002938
74070000,0.0324,0.013523,0.002678,0.000431,0.003761
74071000,0.0324,0.013523,0.002678,0.000431,0.003173
74072000,0.0324,0.013523,0.002678,0.000431,0.003408
74073000,0.0324,0.013523,0.002678,0.000431,0.003173
74074000,0.0324,0.013523,0.002678,0.000431,0.002821
74075000,0.0324,0.013523,0.002678,0.000431,0.002703
74076000,0.0324,0.013523,0.002678,0.000431,0.002468
74077000,0.0324,0.013523,0.002678,0.000431,0.002586
74078000,0.0324,0.013523,0.002678,0.000431,0.002468
74079000,0.0324,0.013523,0.002678,0.000431,0.002703
74080000,0.0324,0.013523,0.002678,0.000431,0.002586
74081000,0.0324,0.013523,0.002678,0.000431,0.002351
74082000,0.0324,0.013523,0.002678,0.000431,0.002468
74083000,0.0324,0.013523,0.002678,0.000431,0.002703
74084000,0.0324,0.013523,0.002678,0.000431,0.003878
74085000,0.0324,0.013523,0.002678,0.000431,0.004819
74086000,0.0324,0.013523,0.002678,0.000431,0.000940
74087000,0.0324,0.013523,0.002678,0.000431,0.000823
74088000,0.0324,0.013523,0.002678,0.000431,0.000823
74089000,0.0324,0.013523,0.002678,0.000431,0.000705
74090000,0.0324,0.013523,0.002678,0.000431,0.000940
74091000,0.0324,0.013523,0.002678,0.000431,0.000940
74092000,0.0324,0.013523,0.002678,0.000431,0.000705
74093000,0.0324,0.013523,0.002678,0.000431,0.000940
74094000,0.0324,0.013523,0.002678,0.000431,0.000705
74095000,0.0324,0.013523,0.002678,0.000431,0.000940
74096000,0.0324,0.013523,0.002678,0.000431,0.000823
74097000,0.0324,0.013523,0.002678,0.000431,0.000823
74098000,0.0324,0.013523,0.002678,0.000431,0.000940
74099000,0.0324,0.013523,0.002678,0.000431,0.000705
74100000,0.0324,0.013523,0.002678,0.000431,0.000940
74101000,0.0324,0.013523,0.002678,0.000431,0.000823
74102000,0.0324,0.013523,0.002678,0.000431,0.000823
74103000,0.0324,0.013523,0.002678,0.000431,0.000823
74104000,0.0324,0.013523,0.002678,0.000431,0.000823
74105000,0.0324,0.013523,0.002678,0.000431,0.000823
74106000,0.0324,0.013523,0.002678,0.000431,0.000823
74107000,0.0324,0.013523,0.002678,0.000431,0.000940
74108000,0.0324,0.013523,0.002678,0.000431,0.000705
74109000,0.0324,0.013523,0.002678,0.000431,0.000823
74110000,0.0324,0.013523,0.002678,0.000431,0.000940
74111000,0.0324,0.013523,0.002678,0.000431,0.000823
74112000,0.0324,0.013523,0.002678,0.000431,0.000823
74113000,0.0324,0.013523,0.002678,0.000431,0.000823
74114000,0.0324,0.013523,0.002678,0.000431,0.000705
74115000,0.0324,0.013523,0.002678,0.000431,0.000940
74116000,0.0324,0.013523,0.002678,0.000431,0.000940
74117000,0.0324,0.013523,0.002678,0.000431,0.000705
74118000,0.0324,0.013523,0.002678,0.000431,0.000940
74119000,0.0324,0.013523,0.002678,0.000431,0.000705
74120000,0.0324,0.013523,0.002678,0.000431,0.000940
74121000,0.0324,0.013523,0.002678,0.000431,0.000940
74122000,0.0324,0.013523,0.002678,0.000431,0.000705
74123000,0.0324,0.013523,0.002678,0.000431,0.000940
74124000,0.0324,0.013523,0.002678,0.000431,0.000705
74125000,0.0324,0.013523,0.002678,0.000431,0.000940
74126000,0.0324,0.013523,0.002678,0.000431,0.000823
74127000,0.0324,0.013523,0.002678,0.000431,0.000823
74128000,0.0324,0.013523,0.002678,0.000431,0.000823
74129000,0.0324,0.013523,0.002678,0.000431,0.000823
74130000,0.0324,0.013523,0.002678,0.000431,0.000940
74131000,0.0324,0.013523,0.002678,0.000431,0.000705
74132000,0.0324,0.013523,0.002678,0.000431,0.000940
74133000,0.0324,0.013523,0.002678,0.000431,0.000823
74134000,0.0324,0.013523,0.002678,0.000431,0.000823
74135000,0.0324,0.013523,0.002678,0.000431,0.000823
74136000,0.0324,0.013523,0.002678,0.000431,0.000823
74137000,0.0324,0.013523,0.002678,0.000431,0.000823
74138000,0.0324,0.013523,0.002678,0.000431,0.000823
74139000,0.0324,0.013523,0.002678,0.000431,0.000940
74140000,0.0324,0.013523,0.002678,0.000431,0.000705
74141000,0.0324,0.013523,0.002678,0.000431,0.000940
74142000,0.0324,0.013523,0.002678,0.000431,0.000705
74143000,0.0324,0.013523,0.002678,0.000431,0.000940
74144000,0.0324,0.013523,0.002678,0.000431,0.000940
74145000,0.0324,0.013523,0.002678,0.000431,0.000705
74146000,0.0324,0.013523,0.002678,0.000431,0.000940
74147000,0.0324,0.013523,0.002678,0.000431,0.000705
74148000,0.0324,0.013523,0.002678,0.000431,0.000940
74149000,0.0324,0.013523,0.002678,0.000431,0.000823
74150000,0.0324,0.013523,0.002678,0.000431,0.000823
74151000,0.0324,0.013523,0.002678,0.000431,0.000823
74152000,0.0324,0.013523,0.002678,0.000431,0.000823
74153000,0.0324,0.013523,0.002678,0.000431,0.000940
74154000,0.0324,0.013523,0.002678,0.000431,0.000705
74155000,0.0324,0.013523,0.002678,0.000431,0.000940
74156000,0.0324,0.013523,0.002678,0.000431,0.000823
74157000,0.0324,0.013523,0.002678,0.000431,0.000823
74158000,0.0324,0.013523,0.002678,0.000431,0.000823
74159000,0.0324,0.013523,0.002678,0.000431,0.000823
74160000,0.0324,0.013523,0.002678,0.000431,0.000823
74161000,0.0324,0.013523,0.002678,0.000431,0.000823
74162000,0.0324,0.013523,0.002678,0.000431,0.000823
74163000,0.0324,0.013523,0.002678,0.000431,0.000940
74164000,0.0324,0.013523,0.002678,0.000431,0.000823
74165000,0.0324,0.013523,0.002678,0.000431,0.000823
74166000,0.0324,0.013523,0.002678,0.000431,0.000823
74167000,0.0324,0.013523,0.002678,0.000431,0.000705
74168000,0.0324,0.013523,0.002678,0.000431,0.000940
74169000,0.0324,0.013523,0.002678,0.000431,0.000940
74170000,0.0324,0.013523,0.002678,0.000431,0.000705
74171000,0.0324,0.013523,0.002678,0.000431,0.000940
74172000,0.0324,0.013523,0.002678,0.000431,0.000705
74173000,0.0324,0.013523,0.002678,0.000431,0.000940
74174000,0.0324,0.013523,0.002678,0.000431,0.000940
74175000,0.0324,0.013523,0.002678,0.000431,0.000705
74176000,0.0324,0.013523,0.002678,0.000431,0.000940
74177000,0.0324,0.013523,0.002678,0.000431,0.000705
74178000,0.0324,0.013523,0.002678,0.000431,0.000940
74179000,0.0324,0.013523,0.002678,0.000431,0.000823
74180000,0.0324,0.013523,0.002678,0.000431,0.000823
74181000,0.0324,0.013523,0.002678,0.000431,0.000823
74182000,0.0324,0.013523,0.002678,0.000431,0.000823
74183000,0.0324,0.013523,0.002678,0.000431,0.000940
74184000,0.0324,0.013523,0.002678,0.000431,0.000705
74185000,0.0324,0.013523,0.002678,0.000431,0.000940
74186000,0.0324,0.013523,0.002678,0.000431,0.000705
74187000,0.0324,0.013523,0.002678,0.000431,0.000940
74188000,0.0324,0.013523,0.002678,0.000431,0.000823
74189000,0.0324,0.013523,0.002678,0.000431,0.000823
74190000,0.0324,0.013523,0.002678,0.000431,0.000705
74191000,0.0324,0.013523,0.002678,0.000431,0.000940
74192000,0.0324,0.013523,0.002678,0.000431,0.000940
74193000,0.0324,0.013523,0.002678,0.000431,0.000705
74194000,0.0324,0.013523,0.002678,0.000431,0.000940
74195000,0.0324,0.013523,0.002678,0.000431,0.000705
74196000,0.0324,0.013523,0.002678,0.000431,0.000940
74197000,0.0324,0.013523,0.002678,0.000431,0.000823
74198000,0.0324,0.013523,0.002678,0.000431,0.000823
74199000,0.0324,0.013523,0.002678,0.000431,0.000940
74200000,0.0324,0.013523,0.002678,0.000431,0.000705
74201000,0.0324,0.013523,0.002678,0.000431,0.000940
74202000,0.0324,0.013523,0.002678,0.000431,0.000823
74203000,0.0324,0.013523,0.002678,0.000431,0.000823
74204000,0.0324,0.013523,0.002678,0.000431,0.000823
74205000,0.0324,0.013523,0.002678,0.000431,0.000823
74206000,0.0324,0.013523,0.002678,0.000431,0.000823
74207000,0.0324,0.013523,0.002678,0.000431,0.000823
74208000,0.0324,0.013523,0.002678,0.000431,0.000940
74209000,0.0324,0.013523,0.002678,0.000431,0.000823
74210000,0.0324,0.013523,0.002678,0.000431,0.000823
74211000,0.0324,0.013523,0.002678,0.000431,0.000823
74212000,0.0324,0.013523,0.002678,0.000431,0.000823
74213000,0.0324,0.013523,0.002678,0.000431,0.000823
74214000,0.0324,0.013523,0.002678,0.000431,0.000823
74215000,0.0324,0.013523,0.002678,0.000431,0.000823
74216000,0.0324,0.013523,0.002678,0.000431,0.000823
74217000,0.0324,0.013523,0.002678,0.000431,0.000940
74218000,0.0324,0.013523,0.002678,0.000431,0.000823
74219000,0.0324,0.013523,0.002678,0.000431,0.000823
74220000,0.0324,0.013523,0.002678,0.000431,0.000705
74221000,0.0324,0.013523,0.002678,0.000431,0.000940
74222000,0.0324,0.013523,0.002678,0.000431,0.000940
74223000,0.0324,0.013523,0.002678,0.000431,0.000705
74224000,0.0324,0.013523,0.002678,0.000431,0.000940
74225000,0.0324,0.013523,0.002678,0.000431,0.000705
74226000,0.0324,0.013523,0.002678,0.000431,0.000940
74227000,0.0324,0.013523,0.002678,0.000431,0.000823
74228000,0.0324,0.013523,0.002678,0.000431,0.000823
74229000,0.0324,0.013523,0.002678,0.000431,0.000940
74230000,0.0324,0.013523,0.002678,0.000431,0.000705
74231000,0.0324,0.013523,0.002678,0.000431,0.000940
74232000,0.0324,0.013523,0.002678,0.000431,0.000823
74233000,0.0324,0.013523,0.002678,0.000431,0.000823
74234000,0.0324,0.013523,0.002678,0.000431,0.000823
74235000,0.0324,0.013523,0.002678,0.000431,0.000823
74236000,0.0324,0.013523,0.002678,0.000431,0.000823
74237000,0.0324,0.013523,0.002678,0.000431,0.000823
74238000,0.0324,0.013523,0.002678,0.000431,0.000940
74239000,0.0324,0.013523,0.002678,0.000431,0.000705
74240000,0.0324,0.013523,0.002678,0.000431,0.000940
74241000,0.0324,0.013523,0.002678,0.000431,0.000823
74242000,0.0324,0.013523,0.002678,0.000431,0.000823
74243000,0.0324,0.013523,0.002678,0.000431,0.000705
74244000,0.0324,0.013523,0.002678,0.000431,0.000940
74245000,0.0324,0.013523,0.002678,0.000431,0.000940
74246000,0.0324,0.013523,0.002678,0.000431,0.000705
74247000,0.0324,0.013523,0.002678,0.000431,0.000940
74248000,0.0324,0.013523,0.002678,0.000431,0.000705
74249000,0.0324,0.013523,0.002678,0.000431,0.000940
74250000,0.0324,0.013523,0.002678,0.000431,0.000823
74251000,0.0324,0.013523,0.002678,0.000431,0.000823
74252000,0.0324,0.013523,0.002678,0.000431,0.000940
74253000,0.0324,0.013523,0.002678,0.000431,0.000705
74254000,0.0324,0.013523,0.002678,0.000431,0.000940
74255000,0.0324,0.013523,0.002678,0.000431,0.000823
74256000,0.0324,0.013523,0.002678,0.000431,0.000823
74257000,0.0324,0.013523,0.002678,0.000431,0.000823
74258000,0.0324,0.013523,0.002678,0.000431,0.000823
74259000,0.0324,0.013523,0.002678,0.000431,0.000823
74260000,0.0324,0.013523,0.002678,0.000431,0.000823
74261000,0.0324,0.013523,0.002678,0.000431,0.000823
74262000,0.0324,0.013523,0.002678,0.000431,0.000823
74263000,0.0324,0.013523,0.002678,0.000431,0.000823
74264000,0.0324,0.013523,0.002678,0.000431,0.000940
74265000,0.0324,0.013523,0.002678,0.000431,0.000823
74266000,0.0324,0.013523,0.002678,0.000431,0.000823
74267000,0.0324,0.013523,0.002678,0.000431,0.000823
74268000,0.0324,0.013523,0.002678,0.000431,0.000705
74269000,0.0324,0.013523,0.002678,0.000431,0.000940
74270000,0.0324,0.013523,0.002678,0.000431,0.000940
74271000,0.0324,0.013523,0.002678,0.000431,0.000705
74272000,0.0324,0.013523,0.002678,0.000431,0.000940
74273000,0.0324,0.013523,0.002678,0.000431,0.000823
74274000,0.0324,0.013523,0.002678,0.000431,0.000823
74275000,0.0324,0.013523,0.002678,0.000431,0.000823
74276000,0.0324,0.013523,0.002678,0.000431,0.000823
74277000,0.0324,0.013523,0.002678,0.000431,0.000823
74278000,0.0324,0.013523,0.002678,0.000431,0.000823
74279000,0.0324,0.013523,0.002678,0.000431,0.000940
74280000,0.0324,0.013523,0.002678,0.000431,0.000823
74281000,0.0324,0.013523,0.002678,0.000431,0.000823
74282000,0.0324,0.013523,0.002678,0.000431,0.000823
74283000,0.0324,0.013523,0.002678,0.000431,0.000823
74284000,0.0324,0.013523,0.002678,0.000431,0.000823
74285000,0.0324,0.013523,0.002678,0.000431,0.000823
74286000,0.0324,0.013523,0.002678,0.000431,0.000940
74287000,0.0324,0.013523,0.002678,0.000431,0.000705
74288000,0.0324,0.013523,0.002678,0.000431,0.000940
74289000,0.0324,0.013523,0.002678,0.000431,0.000705
74290000,0.0324,0.013523,0.002678,0.000431,0.000940
74291000,0.0324,0.013523,0.002678,0.000431,0.000940
74292000,0.0324,0.013523,0.002678,0.000431,0.000705
74293000,0.0324,0.013523,0.002678,0.000431,0.000940
74294000,0.0324,0.013523,0.002678,0.000431,0.000705
74295000,0.0324,0.013523,0.002678,0.000431,0.000940
74296000,0.0324,0.013523,0.002678,0.000431,0.000823
74297000,0.0324,0.013523,0.002678,0.000431,0.000823
74298000,0.0324,0.013523,0.002678,0.000431,0.000940
74299000,0.0324,0.013523,0.002678,0.000431,0.000705
74300000,0.0324,0.013523,0.002678,0.000431,0.000940
74301000,0.0324,0.013523,0.002678,0.000431,0.000823
74302000,0.0324,0.013523,0.002678,0.000431,0.000823
74303000,0.0324,0.013523,0.002678,0.000431,0.000823
74304000,0.0324,0.013523,0.002678,0.000431,0.000823
74305000,0.0324,0.013523,0.002678,0.000431,0.000940
74306000,0.0324,0.013523,0.002678,0.000431,0.000705
74307000,0.0324,0.013523,0.002678,0.000431,0.000940
74308000,0.0324,0.013523,0.002678,0.000431,0.000823
74309000,0.0324,0.013523,0.002678,0.000431,0.000823
74310000,0.0324,0.013523,0.002678,0.000431,0.000823
74311000,0.0324,0.013523,0.002678,0.000431,0.000823
74312000,0.0324,0.013523,0.002678,0.000431,0.000823
74313000,0.0324,0.013523,0.002678,0.000431,0.000823
74314000,0.0324,0.013523,0.002678,0.000431,0.000823
74315000,0.0324,0.013523,0.002678,0.000431,0.000823
74316000,0.0324,0.013523,0.002678,0.000431,0.000940
74317000,0.0324,0.013523,0.002678,0.000431,0.000823
74318000,0.0324,0.013523,0.002678,0.000431,0.000823
74319000,0.0324,0.013523,0.002678,0.000431,0.000705
74320000,0.0324,0.013523,0.002678,0.000431,0.000940
74321000,0.0324,0.013523,0.002678,0.000431,0.000940
74322000,0.0324,0.013523,0.002678,0.000431,0.000705
74323000,0.0324,0.013523,0.002678,0.000431,0.000940
74324000,0.0324,0.013523,0.002678,0.000431,0.000705
74325000,0.0324,0.013523,0.002678,0.000431,0.000940
74326000,0.0324,0.013523,0.002678,0.000431,0.000940
74327000,0.0324,0.013523,0.002678,0.000431,0.000705
74328000,0.0324,0.013523,0.002678,0.000431,0.000940
74329000,0.0324,0.013523,0.002678,0.000431,0.000705
74330000,0.0324,0.013523,0.002678,0.000431,0.000940
74331000,0.0324,0.013523,0.002678,0.000431,0.000823
74332000,0.0324,0.013523,0.002678,0.000431,0.000823
74333000,0.0324,0.013523,0.002678,0.000431,0.000940
74334000,0.0324,0.013523,0.002678,0.000431,0.000705
74335000,0.0324,0.013523,0.002678,0.000431,0.000940
74336000,0.0324,0.013523,0.002678,0.000431,0.000823
74337000,0.0324,0.013523,0.002678,0.000431,0.000823
74338000,0.0324,0.013523,0.002678,0.000431,0.000823
74339000,0.0324,0.013523,0.002678,0.000431,0.000823
74340000,0.0324,0.013523,0.002678,0.000431,0.000823
74341000,0.0324,0.013523,0.002678,0.000431,0.000823
74342000,0.0324,0.013523,0.002678,0.000431,0.000940
74343000,0.0324,0.013523,0.002678,0.000431,0.000823
74344000,0.0324,0.013523,0.002678,0.000431,0.000823
74345000,0.0324,0.013523,0.002678,0.000431,0.000823
74346000,0.0324,0.013523,0.002678,0.000431,0.000823
74347000,0.0324,0.013523,0.002678,0.000431,0.000823
74348000,0.0324,0.013523,0.002678,0.000431,0.000823
74349000,0.0324,0.013523,0.002678,0.000431,0.000940
74350000,0.0324,0.013523,0.002678,0.000431,0.000705
74351000,0.0324,0.013523,0.002678,0.000431,0.000940
74352000,0.0324,0.013523,0.002678,0.000431,0.000705
74353000,0.0324,0.013523,0.002678,0.000431,0.000940
74354000,0.0324,0.013523,0.002678,0.000431,0.000940
74355000,0.0324,0.013523,0.002678,0.000431,0.000705
74356000,0.0324,0.013523,0.002678,0.000431,0.000940
74357000,0.0324,0.013523,0.002678,0.000431,0.002821
74358000,0.0324,0.013523,0.002678,0.000431,0.452954
74359000,0.0324,0.013523,0.002678,0.000431,0.684484
74360000,0.0324,0.013523,0.002678,0.000431,0.139976
74361000,0.0324,0.013523,0.002678,0.000431,0.133277
74362000,0.0324,0.013523,0.002678,0.000431,0.303575
74363000,0.0324,0.013523,0.002678,0.000431,0.463179
74364000,0.0324,0.013523,0.002678,0.000431,0.250688
74365000,0.0324,0.013523,0.002678,0.000431,0.349764
74366000,0.0324,0.013523,0.002678,0.000431,0.177115
74367000,0.0324,0.013523,0.002678,0.000431,0.147028
74368000,0.0324,0.013523,0.002678,0.000431,0.099076
74369000,0.0324,0.013523,0.002678,0.000431,0.383142
74370000,0.0324,0.013523,0.002678,0.000431,0.221071
74371000,0.0324,0.013523,0.002678,0.000431,0.047716
74372000,0.0324,0.013523,0.002678,0.000431,0.044778
74373000,0.0324,0.013523,0.002678,0.000431,0.037609
74374000,0.0324,0.013523,0.002678,0.000431,0.032790
74375000,0.0324,0.013523,0.002678,0.000431,0.031380
74376000,0.0324,0.013523,0.002678,0.000431,0.028559
74377000,0.0324,0.013523,0.002678,0.000431,0.030557
74378000,0.0324,0.013523,0.002678,0.000431,0.025621
74379000,0.0324,0.013523,0.002678,0.000431,0.027267
74380000,0.0324,0.013523,0.002678,0.000431,0.024798
74381000,0.0324,0.013523,0.002678,0.000431,0.023153
74382000,0.0324,0.013523,0.002678,0.000431,0.025504
74383000,0.0324,0.013523,0.002678,0.000431,0.024681
74384000,0.0324,0.013523,0.002678,0.000431,0.023036
74385000,0.0324,0.013523,0.002678,0.000431,0.027619
74386000,0.0324,0.013523,0.002678,0.000431,0.024211
74387000,0.0324,0.013523,0.002678,0.000431,0.022448
74388000,0.0324,0.013523,0.002678,0.000431,0.019862
74389000,0.0324,0.013523,0.002678,0.000431,0.018922
74390000,0.0324,0.013523,0.002678,0.000431,0.019040
74391000,0.0324,0.013523,0.002678,0.000431,0.019510
74392000,0.0324,0.013523,0.002678,0.000431,0.019157
74393000,0.0324,0.013523,0.002678,0.000431,0.014809
74394000,0.0324,0.013523,0.002678,0.000431,0.012340
74395000,0.0324,0.013523,0.002678,0.000431,0.013633
74396000,0.0324,0.013523,0.002678,0.000431,0.011753
74397000,0.0324,0.013523,0.002678,0.000431,0.012223
74398000,0.0324,0.013523,0.002678,0.000431,0.013633
74399000,0.0324,0.013523,0.002678,0.000431,0.010342
74400000,0.0324,0.013523,0.002678,0.000431,0.010813
74401000,0.0324,0.013523,0.002678,0.000431,0.010225
74402000,0.0324,0.013523,0.002678,0.000431,0.009167
74403000,0.0324,0.013523,0.002678,0.000431,0.009050
74404000,0.0324,0.013523,0.002678,0.000431,0.011400
74405000,0.0324,0.013523,0.002678,0.000431,0.007639
74406000,0.0324,0.013523,0.002678,0.000431,0.008109
74407000,0.0324,0.013523,0.002678,0.000431,0.008462
74408000,0.0324,0.013523,0.002678,0.000431,0.007757
74409000,0.0324,0.013523,0.002678,0.000431,0.007992
74410000,0.0324,0.013523,0.002678,0.000431,0.008227
74411000,0.0324,0.013523,0.002678,0.000431,0.007874
74412000,0.0324,0.013523,0.002678,0.000431,0.009167
74413000,0.0324,0.013523,0.002678,0.000431,0.007522
74414000,0.0324,0.013523,0.002678,0.000431,0.007169
74415000,0.0324,0.013523,0.002678,0.000431,0.006934
74416000,0.0324,0.013523,0.002678,0.000431,0.007287
74417000,0.0324,0.013523,0.002678,0.000431,0.007522
74418000,0.0324,0.013523,0.002678,0.000431,0.007052
74419000,0.0324,0.013523,0.002678,0.000431,0.007169
74420000,0.0324,0.013523,0.002678,0.000431,0.007522
74421000,0.0324,0.013523,0.002678,0.000431,0.006934
74422000,0.0324,0.013523,0.002678,0.000431,0.007287
74423000,0.0324,0.013523,0.002678,0.000431,0.007404
74424000,0.0324,0.013523,0.002678,0.000431,0.007169
74425000,0.0324,0.013523,0.002678,0.000431,0.007052
74426000,0.0324,0.013523,0.002678,0.000431,0.007287
74427000,0.0324,0.013523,0.002678,0.000431,0.007287
74428000,0.0324,0.013523,0.002678,0.000431,0.007404
74429000,0.0324,0.013523,0.002678,0.000431,0.009167
74430000,0.0324,0.013523,0.002678,0.000431,0.006111
74431000,0.0324,0.013523,0.002678,0.000431,0.006817
74432000,0.0324,0.013523,0.002678,0.000431,0.006111
74433000,0.0324,0.013523,0.002678,0.000431,0.007169
74434000,0.0324,0.013523,0.002678,0.000431,0.005759
74435000,0.0324,0.013523,0.002678,0.000431,0.006934
74436000,0.0324,0.013523,0.002678,0.000431,0.006699
74437000,0.0324,0.013523,0.002678,0.000431,0.006111
74438000,0.0324,0.013523,0.002678,0.000431,0.007052
74439000,0.0324,0.013523,0.002678,0.000431,0.005759
74440000,0.0324,0.013523,0.002678,0.000431,0.006934
74441000,0.0324,0.013523,0.002678,0.000431,0.006347
74442000,0.0324,0.013523,0.002678,0.000431,0.006347
74443000,0.0324,0.013523,0.002678,0.000431,0.006699
74444000,0.0324,0.013523,0.002678,0.000431,0.006347
74445000,0.0324,0.013523,0.002678,0.000431,0.006699
74446000,0.0324,0.013523,0.002678,0.000431,0.006464
74447000,0.0324,0.013523,0.002678,0.000431,0.006699
74448000,0.0324,0.013523,0.002678,0.000431,0.007992
74449000,0.0324,0.013523,0.002678,0.000431,0.005171
74450000,0.0324,0.013523,0.002678,0.000431,0.005994
74451000,0.0324,0.013523,0.002678,0.000431,0.005876
74452000,0.0324,0.013523,0.002678,0.000431,0.005524
74453000,0.0324,0.013523,0.002678,0.000431,0.005759
74454000,0.0324,0.013523,0.002678,0.000431,0.005524
74455000,0.0324,0.013523,0.002678,0.000431,0.009285
74456000,0.0324,0.013523,0.002678,0.000431,0.004701
74457000,0.0324,0.013523,0.002678,0.000431,0.004936
74458000,0.0324,0.013523,0.002678,0.000431,0.004819
74459000,0.0324,0.013523,0.002678,0.000431,0.004819
74460000,0.0324,0.013523,0.002678,0.000431,0.004701
74461000,0.0324,0.013523,0.002678,0.000431,0.007404
74462000,0.0324,0.013523,0.002678,0.000431,0.003643
74463000,0.0324,0.013523,0.002678,0.000431,0.004113
74464000,0.0324,0.013523,0.002678,0.000431,0.003878
74465000,0.0324,0.013523,0.002678,0.000431,0.003878
74466000,0.0324,0.013523,0.002678,0.000431,0.004584
74467000,0.0324,0.013523,0.002678,0.000431,0.003173
74468000,0.0324,0.013523,0.002678,0.000431,0.004701
74469000,0.0324,0.013523,0.002678,0.000431,0.003526
74470000,0.0324,0.013523,0.002678,0.000431,0.004231
74471000,0.0324,0.013523,0.002678,0.000431,0.004231
74472000,0.0324,0.013523,0.002678,0.000431,0.003643
74473000,0.0324,0.013523,0.002678,0.000431,0.004113
74474000,0.0324,0.013523,0.002678,0.000431,0.003526
74475000,0.0324,0.013523,0.002678,0.000431,0.004349
74476000,0.0324,0.013523,0.002678,0.000431,0.003761
74477000,0.0324,0.013523,0.002678,0.000431,0.003996
74478000,0.0324,0.013523,0.002678,0.000431,0.004231
74479000,0.0324,0.013523,0.002678,0.000431,0.003291
74480000,0.0324,0.013523,0.002678,0.000431,0.003408
74481000,0.0324,0.013523,0.002678,0.000431,0.003408
74482000,0.0324,0.013523,0.002678,0.000431,0.003526
74483000,0.0324,0.013523,0.002678,0.000431,0.003408
74484000,0.0324,0.013523,0.002678,0.000431,0.003173
74485000,0.0324,0.013523,0.002678,0.000431,0.003526
74486000,0.0324,0.013523,0.002678,0.000431,0.003526
74487000,0.0324,0.013523,0.002678,0.000431,0.003291
74488000,0.0324,0.013523,0.002678,0.000431,0.003526
74489000,0.0324,0.013523,0.002678,0.000431,0.003173
74490000,0.0324,0.013523,0.002678,0.000431,0.003643
74491000,0.0324,0.013523,0.002678,0.000431,0.002821
74492000,0.0324,0.013523,0.002678,0.000431,0.002468
74493000,0.0324,0.013523,0.002678,0.000431,0.002586
74494000,0.0324,0.013523,0.002678,0.000431,0.002468
74495000,0.0324,0.013523,0.002678,0.000431,0.002703
74496000,0.0324,0.013523,0.002678,0.000431,0.002468
74497000,0.0324,0.013523,0.002678,0.000431,0.002586
74498000,0.0324,0.013523,0.002678,0.000431,0.002468
74499000,0.0324,0.013523,0.002678,0.000431,0.002586
74500000,0.0324,0.013523,0.002678,0.000431,0.002468
74501000,0.0324,0.013523,0.002678,0.000431,0.002586
74502000,0.0324,0.013523,0.002678,0.000431,0.002351
74503000,0.0324,0.013523,0.002678,0.000431,0.002703
74504000,0.0324,0.013523,0.002678,0.000431,0.002703
74505000,0.0324,0.013523,0.002678,0.000431,0.002351
74506000,0.0324,0.013523,0.002678,0.000431,0.002586
74507000,0.0324,0.013523,0.002678,0.000431,0.002468
74508000,0.0324,0.013523,0.002678,0.000431,0.002586
74509000,0.0324,0.013523,0.002678,0.000431,0.002586
74510000,0.0324,0.013523,0.002678,0.000431,0.002468
74511000,0.0324,0.013523,0.002678,0.000431,0.002703
74512000,0.0324,0.013523,0.002678,0.000431,0.002351
74513000,0.0324,0.013523,0.002678,0.000431,0.002703
74514000,0.0324,0.013523,0.002678,0.000431,0.002468
74515000,0.0324,0.013523,0.002678,0.000431,0.002586
74516000,0.0324,0.013523,0.002678,0.000431,0.002468
74517000,0.0324,0.013523,0.002678,0.000431,0.002586
74518000,0.0324,0.013523,0.002678,0.000431,0.002586
74519000,0.0324,0.013523,0.002678,0.000431,0.002468
74520000,0.0324,0.013523,0.002678,0.000431,0.002586
74521000,0.0324,0.013523,0.002678,0.000431,0.002586
74522000,0.0324,0.013523,0.002678,0.000431,0.003408
74523000,0.0324,0.013523,0.002678,0.000431,0.001880
74524000,0.0324,0.013523,0.002678,0.000431,0.001763
74525000,0.0324,0.013523,0.002678,0.000431,0.001763
74526000,0.0324,0.013523,0.002678,0.000431,0.001410
74527000,0.0324,0.013523,0.002678,0.000431,0.001880
74528000,0.0324,0.013523,0.002678,0.000431,0.001645
74529000,0.0324,0.013523,0.002678,0.000431,0.001645
74530000,0.0324,0.013523,0.002678,0.000431,0.001410
74531000,0.0324,0.013523,0.002678,0.000431,0.001880
74532000,0.0324,0.013523,0.002678,0.000431,0.001645
74533000,0.0324,0.013523,0.002678,0.000431,0.001645
74534000,0.0324,0.013523,0.002678,0.000431,0.001645
74535000,0.0324,0.013523,0.002678,0.000431,0.001645
74536000,0.0324,0.013523,0.002678,0.000431,0.001645
74537000,0.0324,0.013523,0.002678,0.000431,0.001528
74538000,0.0324,0.013523,0.002678,0.000431,0.001763
74539000,0.0324,0.013523,0.002678,0.000431,0.001880
74540000,0.0324,0.013523,0.002678,0.000431,0.001410
74541000,0.0324,0.013523,0.002678,0.000431,0.001645
74542000,0.0324,0.013523,0.002678,0.000431,0.001645
74543000,0.0324,0.013523,0.002678,0.000431,0.001880
74544000,0.0324,0.013523,0.002678,0.000431,0.001645
74545000,0.0324,0.013523,0.002678,0.000431,0.001410
74546000,0.0324,0.013523,0.002678,0.000431,0.001880
74547000,0.0324,0.013523,0.002678,0.000431,0.001645
74548000,0.0324,0.013523,0.002678,0.000431,0.001645
74549000,0.0324,0.013523,0.002678,0.000431,0.001528
74550000,0.0324,0.013523,0.002678,0.000431,0.001763
74551000,0.0324,0.013523,0.002678,0.000431,0.001645
74552000,0.0324,0.013523,0.002678,0.000431,0.001645
74553000,0.0324,0.013523,0.002678,0.000431,0.001645
74554000,0.0324,0.013523,0.002678,0.000431,0.001645
74555000,0.0324,0.013523,0.002678,0.000431,0.001645
74556000,0.0324,0.013523,0.002678,0.000431,0.001645
74557000,0.0324,0.013523,0.002678,0.000431,0.001645
74558000,0.0324,0.013523,0.002678,0.000431,0.001880
74559000,0.0324,0.013523,0.002678,0.000431,0.001410
74560000,0.0324,0.013523,0.002678,0.000431,0.001645
74561000,0.0324,0.013523,0.002678,0.000431,0.001763
74562000,0.0324,0.013523,0.002678,0.000431,0.001763
74563000,0.0324,0.013523,0.002678,0.000431,0.001410
74564000,0.0324,0.013523,0.002678,0.000431,0.001645
74565000,0.0324,0.013523,0.002678,0.000431,0.001880
74566000,0.0324,0.013523,0.002678,0.000431,0.001645
74567000,0.0324,0.013523,0.002678,0.000431,0.001410
74568000,0.0324,0.013523,0.002678,0.000431,0.001880
74569000,0.0324,0.013523,0.002678,0.000431,0.001645
74570000,0.0324,0.013523,0.002678,0.000431,0.001645
74571000,0.0324,0.013523,0.002678,0.000431,0.001645
74572000,0.0324,0.013523,0.002678,0.000431,0.001645
74573000,0.0324,0.013523,0.002678,0.000431,0.001410
74574000,0.0324,0.013523,0.002678,0.000431,0.001880
74575000,0.0324,0.013523,0.002678,0.000431,0.001645
74576000,0.0324,0.013523,0.002678,0.000431,0.001410
74577000,0.0324,0.013523,0.002678,0.000431,0.016571
74578000,0.0324,0.013523,0.002678,0.000431,0.473286
74579000,0.0324,0.013523,0.002678,0.000431,0.596456
74580000,0.0324,0.013523,0.002678,0.000431,0.133512
74581000,0.0324,0.013523,0.002678,0.000431,0.131632
74582000,0.0324,0.013523,0.002678,0.000431,0.273253
74583000,0.0324,0.013523,0.002678,0.000431,0.486919
74584000,0.0324,0.013523,0.002678,0.000431,0.274898
74585000,0.0324,0.013523,0.002678,0.000431,0.284888
74586000,0.0324,0.013523,0.002678,0.000431,0.199563
74587000,0.0324,0.013523,0.002678,0.000431,0.142914
74588000,0.0324,0.013523,0.002678,0.000431,0.154667
74589000,0.0324,0.013523,0.002678,0.000431,0.164304
74590000,0.0324,0.013523,0.002678,0.000431,0.413347
74591000,0.0324,0.013523,0.002678,0.000431,0.026796
74592000,0.0324,0.013523,0.002678,0.000431,0.021273
74593000,0.0324,0.013523,0.002678,0.000431,0.021155
74594000,0.0324,0.013523,0.002678,0.000431,0.021508
74595000,0.0324,0.013523,0.002678,0.000431,0.020215
74596000,0.0324,0.013523,0.002678,0.000431,0.019157
74597000,0.0324,0.013523,0.002678,0.000431,0.015514
74598000,0.0324,0.013523,0.002678,0.000431,0.018334
74599000,0.0324,0.013523,0.002678,0.000431,0.015044
74600000,0.0324,0.013523,0.002678,0.000431,0.015161
74601000,0.0324,0.013523,0.002678,0.000431,0.016454
74602000,0.0324,0.013523,0.002678,0.000431,0.013633
74603000,0.0324,0.013523,0.002678,0.000431,0.015514
74604000,0.0324,0.013523,0.002678,0.000431,0.013986
74605000,0.0324,0.013523,0.002678,0.000431,0.013398
74606000,0.0324,0.013523,0.002678,0.000431,0.012340
74607000,0.0324,0.013523,0.002678,0.000431,0.010225
74608000,0.0324,0.013523,0.002678,0.000431,0.009402
74609000,0.0324,0.013523,0.002678,0.000431,0.009990
74610000,0.0324,0.013523,0.002678,0.000431,0.007287
74611000,0.0324,0.013523,0.002678,0.000431,0.007757
74612000,0.0324,0.013523,0.002678,0.000431,0.008580
74613000,0.0324,0.013523,0.002678,0.000431,0.006934
74614000,0.0324,0.013523,0.002678,0.000431,0.006817
74615000,0.0324,0.013523,0.002678,0.000431,0.006347
74616000,0.0324,0.013523,0.002678,0.000431,0.006699
74617000,0.0324,0.013523,0.002678,0.000431,0.007874
74618000,0.0324,0.013523,0.002678,0.000431,0.005406
74619000,0.0324,0.013523,0.002678,0.000431,0.006582
74620000,0.0324,0.013523,0.002678,0.000431,0.004936
74621000,0.0324,0.013523,0.002678,0.000431,0.004701
74622000,0.0324,0.013523,0.002678,0.000431,0.005054
74623000,0.0324,0.013523,0.002678,0.000431,0.006347
74624000,0.0324,0.013523,0.002678,0.000431,0.004113
74625000,0.0324,0.013523,0.002678,0.000431,0.003878
74626000,0.0324,0.013523,0.002678,0.000431,0.004231
74627000,0.0324,0.013523,0.002678,0.000431,0.003996
74628000,0.0324,0.013523,0.002678,0.000431,0.004349
74629000,0.0324,0.013523,0.002678,0.000431,0.003996
74630000,0.0324,0.013523,0.002678,0.000431,0.003996
74631000,0.0324,0.013523,0.002678,0.000431,0.003878
74632000,0.0324,0.013523,0.002678,0.000431,0.004701
74633000,0.0324,0.013523,0.002678,0.000431,0.002586
74634000,0.0324,0.013523,0.002678,0.000431,0.002703
74635000,0.0324,0.013523,0.002678,0.000431,0.003878
74636000,0.0324,0.013523,0.002678,0.000431,0.001880
74637000,0.0324,0.013523,0.002678,0.000431,0.001528
74638000,0.0324,0.013523,0.002678,0.000431,0.001763
74639000,0.0324,0.013523,0.002678,0.000431,0.001763
74640000,0.0324,0.013523,0.002678,0.000431,0.001763
74641000,0.0324,0.013523,0.002678,0.000431,0.001528
74642000,0.0324,0.013523,0.002678,0.000431,0.002821
74643000,0.0324,0.013523,0.002678,0.000431,0.000940
74644000,0.0324,0.013523,0.002678,0.000431,0.000705
74645000,0.0324,0.013523,0.002678,0.000431,0.000823
74646000,0.0324,0.013523,0.002678,0.000431,0.000940
74647000,0.0324,0.013523,0.002678,0.000431,0.000823
74648000,0.0324,0.013523,0.002678,0.000431,0.000823
74649000,0.0324,0.013523,0.002678,0.000431,0.000823
74650000,0.0324,0.013523,0.002678,0.000431,0.000705
74651000,0.0324,0.013523,0.002678,0.000431,0.000940
74652000,0.0324,0.013523,0.002678,0.000431,0.000823
74653000,0.0324,0.013523,0.002678,0.000431,0.000823
74654000,0.0324,0.013523,0.002678,0.000431,0.000940
74655000,0.0324,0.013523,0.002678,0.000431,0.000823
74656000,0.0324,0.013523,0.002678,0.000431,0.000823
74657000,0.0324,0.013523,0.002678,0.000431,0.000705
74658000,0.0324,0.013523,0.002678,0.000431,0.000940
74659000,0.0324,0.013523,0.002678,0.000431,0.000940
74660000,0.0324,0.013523,0.002678,0.000431,0.000705
74661000,0.0324,0.013523,0.002678,0.000431,0.000940
74662000,0.0324,0.013523,0.002678,0.000431,0.000705
74663000,0.0324,0.013523,0.002678,0.000431,0.000940
74664000,0.0324,0.013523,0.002678,0.000431,0.000823
74665000,0.0324,0.013523,0.002678,0.000431,0.000823
74666000,0.0324,0.013523,0.002678,0.000431,0.000823
74667000,0.0324,0.013523,0.002678,0.000431,0.000823
74668000,0.0324,0.013523,0.002678,0.000431,0.000940
74669000,0.0324,0.013523,0.002678,0.000431,0.000705
74670000,0.0324,0.013523,0.002678,0.000431,0.000940
74671000,0.0324,0.013523,0.002678,0.000431,0.000823
74672000,0.0324,0.013523,0.002678,0.000431,0.000823
74673000,0.0324,0.013523,0.002678,0.000431,0.000823
74674000,0.0324,0.013523,0.002678,0.000431,0.000823
74675000,0.0324,0.013523,0.002678,0.000431,0.000940
74676000,0.0324,0.013523,0.002678,0.000431,0.000705
74677000,0.0324,0.013523,0.002678,0.000431,0.000823
74678000,0.0324,0.013523,0.002678,0.000431,0.000823
74679000,0.0324,0.013523,0.002678,0.000431,0.000940
74680000,0.0324,0.013523,0.002678,0.000431,0.000823
74681000,0.0324,0.013523,0.002678,0.000431,0.000823
74682000,0.0324,0.013523,0.002678,0.000431,0.000705
74683000,0.0324,0.013523,0.002678,0.000431,0.000940
74684000,0.0324,0.013523,0.002678,0.000431,0.000940
74685000,0.0324,0.013523,0.002678,0.000431,0.000705
74686000,0.0324,0.013523,0.002678,0.000431,0.000940
74687000,0.0324,0.013523,0.002678,0.000431,0.000705
74688000,0.0324,0.013523,0.002678,0.000431,0.000940
74689000,0.0324,0.013523,0.002678,0.000431,0.000823
74690000,0.0324,0.013523,0.002678,0.000431,0.000823
74691000,0.0324,0.013523,0.002678,0.000431,0.000940
74692000,0.0324,0.013523,0.002678,0.000431,0.000705
74693000,0.0324,0.013523,0.002678,0.000431,0.000940
74694000,0.0324,0.013523,0.002678,0.000431,0.000823
74695000,0.0324,0.013523,0.002678,0.000431,0.000823
74696000,0.0324,0.013523,0.002678,0.000431,0.000823
74697000,0.0324,0.013523,0.002678,0.000431,0.000823
74698000,0.0324,0.013523,0.002678,0.000431,0.000823
74699000,0.0324,0.013523,0.002678,0.000431,0.000823
74700000,0.0324,0.013523,0.002678,0.000431,0.000940
74701000,0.0324,0.013523,0.002678,0.000431,0.000705
74702000,0.0324,0.013523,0.002678,0.000431,0.000940
74703000,0.0324,0.013523,0.002678,0.000431,0.000823
74704000,0.0324,0.013523,0.002678,0.000431,0.000823
74705000,0.0324,0.013523,0.002678,0.000431,0.000823
74706000,0.0324,0.013523,0.002678,0.000431,0.000823
74707000,0.0324,0.013523,0.002678,0.000431,0.000940
74708000,0.0324,0.013523,0.002678,0.000431,0.000705
74709000,0.0324,0.013523,0.002678,0.000431,0.000940
74710000,0.0324,0.013523,0.002678,0.000431,0.000705
74711000,0.0324,0.013523,0.002678,0.000431,0.000940
74712000,0.0324,0.013523,0.002678,0.000431,0.000940
74713000,0.0324,0.013523,0.002678,0.000431,0.000705
74714000,0.0324,0.013523,0.002678,0.000431,0.000940
74715000,0.0324,0.013523,0.002678,0.000431,0.000940
74716000,0.0324,0.013523,0.002678,0.000431,0.102602
74717000,0.0324,0.013523,0.002678,0.000431,0.457302
74718000,0.0324,0.013523,0.002678,0.000431,0.544038
74719000,0.0324,0.013523,0.002678,0.000431,0.133042
74720000,0.0324,0.013523,0.002678,0.000431,0.136333
74721000,0.0324,0.013523,0.002678,0.000431,0.587053
74722000,0.0324,0.013523,0.002678,0.000431,0.233293
74723000,0.0324,0.013523,0.002678,0.000431,0.312390
74724000,0.0324,0.013523,0.002678,0.000431,0.264321
74725000,0.0324,0.013523,0.002678,0.000431,0.137743
74726000,0.0324,0.013523,0.002678,0.000431,0.146558
74727000,0.0324,0.013523,0.002678,0.000431,0.115413
74728000,0.0324,0.013523,0.002678,0.000431,0.316268
74729000,0.0324,0.013523,0.002678,0.000431,0.322262
74730000,0.0324,0.013523,0.002678,0.000431,0.082740
74731000,0.0324,0.013523,0.002678,0.000431,0.066403
74732000,0.0324,0.013523,0.002678,0.000431,0.049714
74733000,0.0324,0.013523,0.002678,0.000431,0.041487
74734000,0.0324,0.013523,0.002678,0.000431,0.036669
74735000,0.0324,0.013523,0.002678,0.000431,0.032085
74736000,0.0324,0.013523,0.002678,0.000431,0.031380
74737000,0.0324,0.013523,0.002678,0.000431,0.026679
74738000,0.0324,0.013523,0.002678,0.000431,0.028089
74739000,0.0324,0.013523,0.002678,0.000431,0.023271
74740000,0.0324,0.013523,0.002678,0.000431,0.020567
74741000,0.0324,0.013523,0.002678,0.000431,0.013868
74742000,0.0324,0.013523,0.002678,0.000431,0.014456
74743000,0.0324,0.013523,0.002678,0.000431,0.011988
74744000,0.0324,0.013523,0.002678,0.000431,0.012458
74745000,0.0324,0.013523,0.002678,0.000431,0.012693
74746000,0.0324,0.013523,0.002678,0.000431,0.013398
74747000,0.0324,0.013523,0.002678,0.000431,0.011635
74748000,0.0324,0.013523,0.002678,0.000431,0.011518
74749000,0.0324,0.013523,0.002678,0.000431,0.011400
74750000,0.0324,0.013523,0.002678,0.000431,0.011988
74751000,0.0324,0.013523,0.002678,0.000431,0.013163
74752000,0.0324,0.013523,0.002678,0.000431,0.010930
74753000,0.0324,0.013523,0.002678,0.000431,0.010930
74754000,0.0324,0.013523,0.002678,0.000431,0.010695
74755000,0.0324,0.013523,0.002678,0.000431,0.011753
74756000,0.0324,0.013523,0.002678,0.000431,0.012928
74757000,0.0324,0.013523,0.002678,0.000431,0.009167
74758000,0.0324,0.013523,0.002678,0.000431,0.009402
74759000,0.0324,0.013523,0.002678,0.000431,0.008932
74760000,0.0324,0.013523,0.002678,0.000431,0.009050
74761000,0.0324,0.013523,0.002678,0.000431,0.013163
74762000,0.0324,0.013523,0.002678,0.000431,0.008462
74763000,0.0324,0.013523,0.002678,0.000431,0.009167
74764000,0.0324,0.013523,0.002678,0.000431,0.006464
74765000,0.0324,0.013523,0.002678,0.000431,0.006699
74766000,0.0324,0.013523,0.002678,0.000431,0.007052
74767000,0.0324,0.013523,0.002678,0.000431,0.007639
74768000,0.0324,0.013523,0.002678,0.000431,0.006111
74769000,0.0324,0.013523,0.002678,0.000431,0.005406
74770000,0.0324,0.013523,0.002678,0.000431,0.005876
74771000,0.0324,0.013523,0.002678,0.000431,0.007757
74772000,0.0324,0.013523,0.002678,0.000431,0.006934
74773000,0.0324,0.013523,0.002678,0.000431,0.006229
74774000,0.0324,0.013523,0.002678,0.000431,0.003878
74775000,0.0324,0.013523,0.002678,0.000431,0.004231
74776000,0.0324,0.013523,0.002678,0.000431,0.004113
74777000,0.0324,0.013523,0.002678,0.000431,0.003878
74778000,0.0324,0.013523,0.002678,0.000431,0.005171
74779000,0.0324,0.013523,0.002678,0.000431,0.004349
74780000,0.0324,0.013523,0.002678,0.000431,0.003173
74781000,0.0324,0.013523,0.002678,0.000431,0.003291
74782000,0.0324,0.013523,0.002678,0.000431,0.003056
74783000,0.0324,0.013523,0.002678,0.000431,0.003408
74784000,0.0324,0.013523,0.002678,0.000431,0.003291
74785000,0.0324,0.013523,0.002678,0.000431,0.003056
74786000,0.0324,0.013523,0.002678,0.000431,0.003526
74787000,0.0324,0.013523,0.002678,0.000431,0.003173
74788000,0.0324,0.013523,0.002678,0.000431,0.003291
74789000,0.0324,0.013523,0.002678,0.000431,0.003056
74790000,0.0324,0.013523,0.002678,0.000431,0.003408
74791000,0.0324,0.013523,0.002678,0.000431,0.003526
74792000,0.0324,0.013523,0.002678,0.000431,0.002821
74793000,0.0324,0.013523,0.002678,0.000431,0.003526
74794000,0.0324,0.013523,0.002678,0.000431,0.003056
74795000,0.0324,0.013523,0.002678,0.000431,0.003291
74796000,0.0324,0.013523,0.002678,0.000431,0.003056
74797000,0.0324,0.013523,0.002678,0.000431,0.004819
74798000,0.0324,0.013523,0.002678,0.000431,0.002468
74799000,0.0324,0.013523,0.002678,0.000431,0.003878
74800000,0.0324,0.013523,0.002678,0.000431,0.000823
74801000,0.0324,0.013523,0.002678,0.000431,0.000705
74802000,0.0324,0.013523,0.002678,0.000431,0.000940
74803000,0.0324,0.013523,0.002678,0.000431,0.000940
74804000,0.0324,0.013523,0.002678,0.000431,0.000705
74805000,0.0324,0.013523,0.002678,0.000431,0.000940
74806000,0.0324,0.013523,0.002678,0.000431,0.000705
74807000,0.0324,0.013523,0.002678,0.000431,0.000940
74808000,0.0324,0.013523,0.002678,0.000431,0.000823
74809000,0.0324,0.013523,0.002678,0.000431,0.000823
74810000,0.0324,0.013523,0.002678,0.000431,0.000940
74811000,0.0324,0.013523,0.002678,0.000431,0.000705
74812000,0.0324,0.013523,0.002678,0.000431,0.000940
74813000,0.0324,0.013523,0.002678,0.000431,0.000823
74814000,0.0324,0.013523,0.002678,0.000431,0.000823
74815000,0.0324,0.013523,0.002678,0.000431,0.000823
74816000,0.0324,0.013523,0.002678,0.000431,0.000823
74817000,0.0324,0.013523,0.002678,0.000431,0.000823
74818000,0.0324,0.013523,0.002678,0.000431,0.000823
74819000,0.0324,0.013523,0.002678,0.000431,0.019627
74820000,0.0324,0.013523,0.002678,0.000431,0.545566
74821000,0.0324,0.013523,0.002678,0.000431,0.609501
74822000,0.0324,0.013523,0.002678,0.000431,0.132102
74823000,0.0324,0.013523,0.002678,0.000431,0.134452
74824000,0.0324,0.013523,0.002678,0.000431,0.481630
74825000,0.0324,0.013523,0.002678,0.000431,0.289824
74826000,0.0324,0.013523,0.002678,0.000431,0.274428
74827000,0.0324,0.013523,0.002678,0.000431,0.301812
74828000,0.0324,0.013523,0.002678,0.000431,0.159838
74829000,0.0324,0.013523,0.002678,0.000431,0.144795
74830000,0.0324,0.013523,0.002678,0.000431,0.138096
74831000,0.0324,0.013523,0.002678,0.000431,0.238817
74832000,0.0324,0.013523,0.002678,0.000431,0.405707
74833000,0.0324,0.013523,0.002678,0.000431,0.116470
74834000,0.0324,0.013523,0.002678,0.000431,0.092495
74835000,0.0324,0.013523,0.002678,0.000431,0.073338
74836000,0.0324,0.013523,0.002678,0.000431,0.062995
74837000,0.0324,0.013523,0.002678,0.000431,0.053475
74838000,0.0324,0.013523,0.002678,0.000431,0.047364
74839000,0.0324,0.013523,0.002678,0.000431,0.034318
74840000,0.0324,0.013523,0.002678,0.000431,0.042075
74841000,0.0324,0.013523,0.002678,0.000431,0.033025
74842000,0.0324,0.013523,0.002678,0.000431,0.029500
74843000,0.0324,0.013523,0.002678,0.000431,0.030675
74844000,0.0324,0.013523,0.002678,0.000431,0.033025
74845000,0.0324,0.013523,0.002678,0.000431,0.020920
74846000,0.0324,0.013523,0.002678,0.000431,0.021743
74847000,0.0324,0.013523,0.002678,0.000431,0.025621
74848000,0.0324,0.013523,0.002678,0.000431,0.016336
74849000,0.0324,0.013523,0.002678,0.000431,0.020450
74850000,0.0324,0.013523,0.002678,0.000431,0.016924
74851000,0.0324,0.013523,0.002678,0.000431,0.015396
74852000,0.0324,0.013523,0.002678,0.000431,0.014103
74853000,0.0324,0.013523,0.002678,0.000431,0.015984
74854000,0.0324,0.013523,0.002678,0.000431,0.015866
74855000,0.0324,0.013523,0.002678,0.000431,0.018569
74856000,0.0324,0.013523,0.002678,0.000431,0.013046
74857000,0.0324,0.013523,0.002678,0.000431,0.011518
74858000,0.0324,0.013523,0.002678,0.000431,0.011400
74859000,0.0324,0.013523,0.002678,0.000431,0.007874
74860000,0.0324,0.013523,0.002678,0.000431,0.010930
74861000,0.0324,0.013523,0.002678,0.000431,0.009520
74862000,0.0324,0.013523,0.002678,0.000431,0.006817
74863000,0.0324,0.013523,0.002678,0.000431,0.005876
74864000,0.0324,0.013523,0.002678,0.000431,0.006934
74865000,0.0324,0.013523,0.002678,0.000431,0.004466
74866000,0.0324,0.013523,0.002678,0.000431,0.005524
74867000,0.0324,0.013523,0.002678,0.000431,0.005524
74868000,0.0324,0.013523,0.002678,0.000431,0.003408
74869000,0.0324,0.013523,0.002678,0.000431,0.003173
74870000,0.0324,0.013523,0.002678,0.000431,0.003291
74871000,0.0324,0.013523,0.002678,0.000431,0.004231
74872000,0.0324,0.013523,0.002678,0.000431,0.003878
74873000,0.0324,0.013523,0.002678,0.000431,0.003526
74874000,0.0324,0.013523,0.002678,0.000431,0.000940
74875000,0.0324,0.013523,0.002678,0.000431,0.000823
74876000,0.0324,0.013523,0.002678,0.000431,0.000823
74877000,0.0324,0.013523,0.002678,0.000431,0.000823
74878000,0.0324,0.013523,0.002678,0.000431,0.000823
74879000,0.0324,0.013523,0.002678,0.000431,0.000823
74880000,0.0324,0.013523,0.002678,0.000431,0.000823
74881000,0.0324,0.013523,0.002678,0.000431,0.000940
74882000,0.0324,0.013523,0.002678,0.000431,0.000823
74883000,0.0324,0.013523,0.002678,0.000431,0.000823
74884000,0.0324,0.013523,0.002678,0.000431,0.000823
74885000,0.0324,0.013523,0.002678,0.000431,0.000823
74886000,0.0324,0.013523,0.002678,0.000431,0.000823
74887000,0.0324,0.013523,0.002678,0.000431,0.000823
74888000,0.0324,0.013523,0.002678,0.000431,0.000823
74889000,0.0324,0.013523,0.002678,0.000431,0.000823
74890000,0.0324,0.013523,0.002678,0.000431,0.216839
74891000,0.0324,0.013523,0.002678,0.000431,0.606798
74892000,0.0324,0.013523,0.002678,0.000431,0.436852
74893000,0.0324,0.013523,0.002678,0.000431,0.132102
74894000,0.0324,0.013523,0.002678,0.000431,0.137155
74895000,0.0324,0.013523,0.002678,0.000431,0.600922
74896000,0.0324,0.013523,0.002678,0.000431,0.224596
74897000,0.0324,0.013523,0.002678,0.000431,0.306749
74898000,0.0324,0.013523,0.002678,0.000431,0.258327
74899000,0.0324,0.013523,0.002678,0.000431,0.150671
74900000,0.0324,0.013523,0.002678,0.000431,0.156195
74901000,0.0324,0.013523,0.002678,0.000431,0.150319
74902000,0.0324,0.013523,0.002678,0.000431,0.452131
74903000,0.0324,0.013523,0.002678,0.000431,0.100839
74904000,0.0324,0.013523,0.002678,0.000431,0.067931
74905000,0.0324,0.013523,0.002678,0.000431,0.063935
74906000,0.0324,0.013523,0.002678,0.000431,0.046659
74907000,0.0324,0.013523,0.002678,0.000431,0.047599
74908000,0.0324,0.013523,0.002678,0.000431,0.038314
74909000,0.0324,0.013523,0.002678,0.000431,0.035964
74910000,0.0324,0.013523,0.002678,0.000431,0.029617
74911000,0.0324,0.013523,0.002678,0.000431,0.015984
74912000,0.0324,0.013523,0.002678,0.000431,0.014926
74913000,0.0324,0.013523,0.002678,0.000431,0.021625
74914000,0.0324,0.013523,0.002678,0.000431,0.013398
74915000,0.0324,0.013523,0.002678,0.000431,0.011518
74916000,0.0324,0.013523,0.002678,0.000431,0.010578
74917000,0.0324,0.013523,0.002678,0.000431,0.011165
74918000,0.0324,0.013523,0.002678,0.000431,0.011283
74919000,0.0324,0.013523,0.002678,0.000431,0.008345
74920000,0.0324,0.013523,0.002678,0.000431,0.007169
74921000,0.0324,0.013523,0.002678,0.000431,0.009050
74922000,0.0324,0.013523,0.002678,0.000431,0.004936
74923000,0.0324,0.013523,0.002678,0.000431,0.004819
74924000,0.0324,0.013523,0.002678,0.000431,0.005171
74925000,0.0324,0.013523,0.002678,0.000431,0.004584
74926000,0.0324,0.013523,0.002678,0.000431,0.006347
74927000,0.0324,0.013523,0.002678,0.000431,0.003408
74928000,0.0324,0.013523,0.002678,0.000431,0.003526
74929000,0.0324,0.013523,0.002678,0.000431,0.003173
74930000,0.0324,0.013523,0.002678,0.000431,0.005289
74931000,0.0324,0.013523,0.002678,0.000431,0.002586
74932000,0.0324,0.013523,0.002678,0.000431,0.002586
74933000,0.0324,0.013523,0.002678,0.000431,0.002468
74934000,0.0324,0.013523,0.002678,0.000431,0.002351
74935000,0.0324,0.013523,0.002678,0.000431,0.002586
74936000,0.0324,0.013523,0.002678,0.000431,0.002586
74937000,0.0324,0.013523,0.002678,0.000431,0.002468
74938000,0.0324,0.013523,0.002678,0.000431,0.002586
74939000,0.0324,0.013523,0.002678,0.000431,0.002351
74940000,0.0324,0.013523,0.002678,0.000431,0.002586
74941000,0.0324,0.013523,0.002678,0.000431,0.002586
74942000,0.0324,0.013523,0.002678,0.000431,0.002468
74943000,0.0324,0.013523,0.002678,0.000431,0.002468
74944000,0.0324,0.013523,0.002678,0.000431,0.002586
74945000,0.0324,0.013523,0.002678,0.000431,0.002586
74946000,0.0324,0.013523,0.002678,0.000431,0.002351
74947000,0.0324,0.013523,0.002678,0.000431,0.002468
74948000,0.0324,0.013523,0.002678,0.000431,0.002586
74949000,0.0324,0.013523,0.002678,0.000431,0.002586
74950000,0.0324,0.013523,0.002678,0.000431,0.002351
74951000,0.0324,0.013523,0.002678,0.000431,0.002703
74952000,0.0324,0.013523,0.002678,0.000431,0.002468
74953000,0.0324,0.013523,0.002678,0.000431,0.004466
74954000,0.0324,0.013523,0.002678,0.000431,0.001763
74955000,0.0324,0.013523,0.002678,0.000431,0.001528
74956000,0.0324,0.013523,0.002678,0.000431,0.001763
74957000,0.0324,0.013523,0.002678,0.000431,0.001763
74958000,0.0324,0.013523,0.002678,0.000431,0.001528
74959000,0.0324,0.013523,0.002678,0.000431,0.001763
74960000,0.0324,0.013523,0.002678,0.000431,0.001528
74961000,0.0324,0.013523,0.002678,0.000431,0.001880
74962000,0.0324,0.013523,0.002678,0.000431,0.001645
74963000,0.0324,0.013523,0.002678,0.000431,0.001528
74964000,0.0324,0.013523,0.002678,0.000431,0.001880
74965000,0.0324,0.013523,0.002678,0.000431,0.001528
74966000,0.0324,0.013523,0.002678,0.000431,0.001763
74967000,0.0324,0.013523,0.002678,0.000431,0.001645
74968000,0.0324,0.013523,0.002678,0.000431,0.001528
74969000,0.0324,0.013523,0.002678,0.000431,0.001763
74970000,0.0324,0.013523,0.002678,0.000431,0.003761
74971000,0.0324,0.013523,0.002678,0.000431,0.000940
74972000,0.0324,0.013523,0.002678,0.000431,0.000705
74973000,0.0324,0.013523,0.002678,0.000431,0.000940
74974000,0.0324,0.013523,0.002678,0.000431,0.000823
74975000,0.0324,0.013523,0.002678,0.000431,0.000823
74976000,0.0324,0.013523,0.002678,0.000431,0.000823
74977000,0.0324,0.013523,0.002678,0.000431,0.000823
74978000,0.0324,0.013523,0.002678,0.000431,0.000823
74979000,0.0324,0.013523,0.002678,0.000431,0.000823
74980000,0.0324,0.013523,0.002678,0.000431,0.000940
74981000,0.0324,0.013523,0.002678,0.000431,0.000705
74982000,0.0324,0.013523,0.002678,0.000431,0.000940
74983000,0.0324,0.013523,0.002678,0.000431,0.000705
74984000,0.0324,0.013523,0.002678,0.000431,0.000940
74985000,0.0324,0.013523,0.002678,0.000431,0.000940
74986000,0.0324,0.013523,0.002678,0.000431,0.000705
74987000,0.0324,0.013523,0.002678,0.000431,0.000940
74988000,0.0324,0.013523,0.002678,0.000431,0.000705
74989000,0.0324,0.013523,0.002678,0.000431,0.000940
74990000,0.0324,0.013523,0.002678,0.000431,0.000823
74991000,0.0324,0.013523,0.002678,0.000431,0.000823
74992000,0.0324,0.013523,0.002678,0.000431,0.000823
74993000,0.0324,0.013523,0.002678,0.000431,0.000823
74994000,0.0324,0.013523,0.002678,0.000431,0.000940
74995000,0.0324,0.013523,0.002678,0.000431,0.000705
74996000,0.0324,0.013523,0.002678,0.000431,0.000940
74997000,0.0324,0.013523,0.002678,0.000431,0.000823
74998000,0.0324,0.013523,0.002678,0.000431,0.000823
74999000,0.0324,0.013523,0.002678,0.000431,0.000823
