Cycle,Area(mm^2),PeakDynamic(W),SubthresholdLeakage(W),GateLeakage(W),RunTimeDynamic(W)
16000000,0.0324,0.013523,0.002678,0.000431,0.000823
16001000,0.0324,0.013523,0.002678,0.000431,0.000823
16002000,0.0324,0.013523,0.002678,0.000431,0.000823
16003000,0.0324,0.013523,0.002678,0.000431,0.000940
16004000,0.0324,0.013523,0.002678,0.000431,0.000823
16005000,0.0324,0.013523,0.002678,0.000431,0.000823
16006000,0.0324,0.013523,0.002678,0.000431,0.000705
16007000,0.0324,0.013523,0.002678,0.000431,0.000940
16008000,0.0324,0.013523,0.002678,0.000431,0.000940
16009000,0.0324,0.013523,0.002678,0.000431,0.000705
16010000,0.0324,0.013523,0.002678,0.000431,0.000940
16011000,0.0324,0.013523,0.002678,0.000431,0.000823
16012000,0.0324,0.013523,0.002678,0.000431,0.000940
16013000,0.0324,0.013523,0.002678,0.000431,0.000823
16014000,0.0324,0.013523,0.002678,0.000431,0.000940
16015000,0.0324,0.013523,0.002678,0.000431,0.000823
16016000,0.0324,0.013523,0.002678,0.000431,0.000823
16017000,0.0324,0.013523,0.002678,0.000431,0.000940
16018000,0.0324,0.013523,0.002678,0.000431,0.000940
16019000,0.0324,0.013523,0.002678,0.000431,0.000823
16020000,0.0324,0.013523,0.002678,0.000431,0.000823
16021000,0.0324,0.013523,0.002678,0.000431,0.000940
16022000,0.0324,0.013523,0.002678,0.000431,0.000940
16023000,0.0324,0.013523,0.002678,0.000431,0.000705
16024000,0.0324,0.013523,0.002678,0.000431,0.000940
16025000,0.0324,0.013523,0.002678,0.000431,0.000940
16026000,0.0324,0.013523,0.002678,0.000431,0.000940
16027000,0.0324,0.013523,0.002678,0.000431,0.000705
16028000,0.0324,0.013523,0.002678,0.000431,0.000940
16029000,0.0324,0.013523,0.002678,0.000431,0.000940
16030000,0.0324,0.013523,0.002678,0.000431,0.000823
16031000,0.0324,0.013523,0.002678,0.000431,0.000823
16032000,0.0324,0.013523,0.002678,0.000431,0.000940
16033000,0.0324,0.013523,0.002678,0.000431,0.000940
16034000,0.0324,0.013523,0.002678,0.000431,0.000823
16035000,0.0324,0.013523,0.002678,0.000431,0.000823
16036000,0.0324,0.013523,0.002678,0.000431,0.000940
16037000,0.0324,0.013523,0.002678,0.000431,0.000823
16038000,0.0324,0.013523,0.002678,0.000431,0.000940
16039000,0.0324,0.013523,0.002678,0.000431,0.000823
16040000,0.0324,0.013523,0.002678,0.000431,0.000940
16041000,0.0324,0.013523,0.002678,0.000431,0.000940
16042000,0.0324,0.013523,0.002678,0.000431,0.000705
16043000,0.0324,0.013523,0.002678,0.000431,0.000940
16044000,0.0324,0.013523,0.002678,0.000431,0.000940
16045000,0.0324,0.013523,0.002678,0.000431,0.000940
16046000,0.0324,0.013523,0.002678,0.000431,0.000705
16047000,0.0324,0.013523,0.002678,0.000431,0.000940
16048000,0.0324,0.013523,0.002678,0.000431,0.000940
16049000,0.0324,0.013523,0.002678,0.000431,0.000823
16050000,0.0324,0.013523,0.002678,0.000431,0.000823
16051000,0.0324,0.013523,0.002678,0.000431,0.000940
16052000,0.0324,0.013523,0.002678,0.000431,0.000823
16053000,0.0324,0.013523,0.002678,0.000431,0.000940
16054000,0.0324,0.013523,0.002678,0.000431,0.000823
16055000,0.0324,0.013523,0.002678,0.000431,0.000940
16056000,0.0324,0.013523,0.002678,0.000431,0.000823
16057000,0.0324,0.013523,0.002678,0.000431,0.000823
16058000,0.0324,0.013523,0.002678,0.000431,0.000940
16059000,0.0324,0.013523,0.002678,0.000431,0.000940
16060000,0.0324,0.013523,0.002678,0.000431,0.000823
16061000,0.0324,0.013523,0.002678,0.000431,0.000823
16062000,0.0324,0.013523,0.002678,0.000431,0.000940
16063000,0.0324,0.013523,0.002678,0.000431,0.000940
16064000,0.0324,0.013523,0.002678,0.000431,0.000705
16065000,0.0324,0.013523,0.002678,0.000431,0.000940
16066000,0.0324,0.013523,0.002678,0.000431,0.000940
16067000,0.0324,0.013523,0.002678,0.000431,0.000940
16068000,0.0324,0.013523,0.002678,0.000431,0.000823
16069000,0.0324,0.013523,0.002678,0.000431,0.000823
16070000,0.0324,0.013523,0.002678,0.000431,0.000940
16071000,0.0324,0.013523,0.002678,0.000431,0.000823
16072000,0.0324,0.013523,0.002678,0.000431,0.000940
16073000,0.0324,0.013523,0.002678,0.000431,0.000823
16074000,0.0324,0.013523,0.002678,0.000431,0.000940
16075000,0.0324,0.013523,0.002678,0.000431,0.000823
16076000,0.0324,0.013523,0.002678,0.000431,0.000823
16077000,0.0324,0.013523,0.002678,0.000431,0.000940
16078000,0.0324,0.013523,0.002678,0.000431,0.000940
16079000,0.0324,0.013523,0.002678,0.000431,0.000823
16080000,0.0324,0.013523,0.002678,0.000431,0.000823
16081000,0.0324,0.013523,0.002678,0.000431,0.000940
16082000,0.0324,0.013523,0.002678,0.000431,0.000940
16083000,0.0324,0.013523,0.002678,0.000431,0.000705
16084000,0.0324,0.013523,0.002678,0.000431,0.000940
16085000,0.0324,0.013523,0.002678,0.000431,0.000940
16086000,0.0324,0.013523,0.002678,0.000431,0.000940
16087000,0.0324,0.013523,0.002678,0.000431,0.000705
16088000,0.0324,0.013523,0.002678,0.000431,0.000940
16089000,0.0324,0.013523,0.002678,0.000431,0.000940
16090000,0.0324,0.013523,0.002678,0.000431,0.000823
16091000,0.0324,0.013523,0.002678,0.000431,0.000823
16092000,0.0324,0.013523,0.002678,0.000431,0.000940
16093000,0.0324,0.013523,0.002678,0.000431,0.000940
16094000,0.0324,0.013523,0.002678,0.000431,0.000823
16095000,0.0324,0.013523,0.002678,0.000431,0.000823
16096000,0.0324,0.013523,0.002678,0.000431,0.000940
16097000,0.0324,0.013523,0.002678,0.000431,0.000823
16098000,0.0324,0.013523,0.002678,0.000431,0.000823
16099000,0.0324,0.013523,0.002678,0.000431,0.000940
16100000,0.0324,0.013523,0.002678,0.000431,0.000940
16101000,0.0324,0.013523,0.002678,0.000431,0.000940
16102000,0.0324,0.013523,0.002678,0.000431,0.000705
16103000,0.0324,0.013523,0.002678,0.000431,0.000940
16104000,0.0324,0.013523,0.002678,0.000431,0.000940
16105000,0.0324,0.013523,0.002678,0.000431,0.000823
16106000,0.0324,0.013523,0.002678,0.000431,0.000823
16107000,0.0324,0.013523,0.002678,0.000431,0.000940
16108000,0.0324,0.013523,0.002678,0.000431,0.000940
16109000,0.0324,0.013523,0.002678,0.000431,0.000823
16110000,0.0324,0.013523,0.002678,0.000431,0.000823
16111000,0.0324,0.013523,0.002678,0.000431,0.000940
16112000,0.0324,0.013523,0.002678,0.000431,0.000823
16113000,0.0324,0.013523,0.002678,0.000431,0.000940
16114000,0.0324,0.013523,0.002678,0.000431,0.000823
16115000,0.0324,0.013523,0.002678,0.000431,0.000940
16116000,0.0324,0.013523,0.002678,0.000431,0.000823
16117000,0.0324,0.013523,0.002678,0.000431,0.000823
16118000,0.0324,0.013523,0.002678,0.000431,0.000940
16119000,0.0324,0.013523,0.002678,0.000431,0.000940
16120000,0.0324,0.013523,0.002678,0.000431,0.000823
16121000,0.0324,0.013523,0.002678,0.000431,0.000823
16122000,0.0324,0.013523,0.002678,0.000431,0.000940
16123000,0.0324,0.013523,0.002678,0.000431,0.000940
16124000,0.0324,0.013523,0.002678,0.000431,0.000823
16125000,0.0324,0.013523,0.002678,0.000431,0.000823
16126000,0.0324,0.013523,0.002678,0.000431,0.000940
16127000,0.0324,0.013523,0.002678,0.000431,0.000940
16128000,0.0324,0.013523,0.002678,0.000431,0.000823
16129000,0.0324,0.013523,0.002678,0.000431,0.000823
16130000,0.0324,0.013523,0.002678,0.000431,0.000940
16131000,0.0324,0.013523,0.002678,0.000431,0.000823
16132000,0.0324,0.013523,0.002678,0.000431,0.000940
16133000,0.0324,0.013523,0.002678,0.000431,0.000823
16134000,0.0324,0.013523,0.002678,0.000431,0.000940
16135000,0.0324,0.013523,0.002678,0.000431,0.000823
16136000,0.0324,0.013523,0.002678,0.000431,0.000823
16137000,0.0324,0.013523,0.002678,0.000431,0.000940
16138000,0.0324,0.013523,0.002678,0.000431,0.000940
16139000,0.0324,0.013523,0.002678,0.000431,0.000705
16140000,0.0324,0.013523,0.002678,0.000431,0.000940
16141000,0.0324,0.013523,0.002678,0.000431,0.000940
16142000,0.0324,0.013523,0.002678,0.000431,0.000940
16143000,0.0324,0.013523,0.002678,0.000431,0.000705
16144000,0.0324,0.013523,0.002678,0.000431,0.000940
16145000,0.0324,0.013523,0.002678,0.000431,0.000940
16146000,0.0324,0.013523,0.002678,0.000431,0.000823
16147000,0.0324,0.013523,0.002678,0.000431,0.000823
16148000,0.0324,0.013523,0.002678,0.000431,0.000940
16149000,0.0324,0.013523,0.002678,0.000431,0.000940
16150000,0.0324,0.013523,0.002678,0.000431,0.000823
16151000,0.0324,0.013523,0.002678,0.000431,0.000823
16152000,0.0324,0.013523,0.002678,0.000431,0.000940
16153000,0.0324,0.013523,0.002678,0.000431,0.000823
16154000,0.0324,0.013523,0.002678,0.000431,0.000940
16155000,0.0324,0.013523,0.002678,0.000431,0.000823
16156000,0.0324,0.013523,0.002678,0.000431,0.000823
16157000,0.0324,0.013523,0.002678,0.000431,0.000823
16158000,0.0324,0.013523,0.002678,0.000431,0.000940
16159000,0.0324,0.013523,0.002678,0.000431,0.000705
16160000,0.0324,0.013523,0.002678,0.000431,0.000940
16161000,0.0324,0.013523,0.002678,0.000431,0.000705
16162000,0.0324,0.013523,0.002678,0.000431,0.000940
16163000,0.0324,0.013523,0.002678,0.000431,0.000940
16164000,0.0324,0.013523,0.002678,0.000431,0.000705
16165000,0.0324,0.013523,0.002678,0.000431,0.000940
16166000,0.0324,0.013523,0.002678,0.000431,0.000705
16167000,0.0324,0.013523,0.002678,0.000431,0.000940
16168000,0.0324,0.013523,0.002678,0.000431,0.000823
16169000,0.0324,0.013523,0.002678,0.000431,0.000823
16170000,0.0324,0.013523,0.002678,0.000431,0.000823
16171000,0.0324,0.013523,0.002678,0.000431,0.000823
16172000,0.0324,0.013523,0.002678,0.000431,0.000940
16173000,0.0324,0.013523,0.002678,0.000431,0.000705
16174000,0.0324,0.013523,0.002678,0.000431,0.000940
16175000,0.0324,0.013523,0.002678,0.000431,0.000823
16176000,0.0324,0.013523,0.002678,0.000431,0.000823
16177000,0.0324,0.013523,0.002678,0.000431,0.000940
16178000,0.0324,0.013523,0.002678,0.000431,0.000823
16179000,0.0324,0.013523,0.002678,0.000431,0.000940
16180000,0.0324,0.013523,0.002678,0.000431,0.000823
16181000,0.0324,0.013523,0.002678,0.000431,0.000940
16182000,0.0324,0.013523,0.002678,0.000431,0.000823
16183000,0.0324,0.013523,0.002678,0.000431,0.000823
16184000,0.0324,0.013523,0.002678,0.000431,0.000940
16185000,0.0324,0.013523,0.002678,0.000431,0.000940
16186000,0.0324,0.013523,0.002678,0.000431,0.000705
16187000,0.0324,0.013523,0.002678,0.000431,0.000940
16188000,0.0324,0.013523,0.002678,0.000431,0.000705
16189000,0.0324,0.013523,0.002678,0.000431,0.000940
16190000,0.0324,0.013523,0.002678,0.000431,0.000823
16191000,0.0324,0.013523,0.002678,0.000431,0.000823
16192000,0.0324,0.013523,0.002678,0.000431,0.000940
16193000,0.0324,0.013523,0.002678,0.000431,0.000705
16194000,0.0324,0.013523,0.002678,0.000431,0.000940
16195000,0.0324,0.013523,0.002678,0.000431,0.000823
16196000,0.0324,0.013523,0.002678,0.000431,0.000940
16197000,0.0324,0.013523,0.002678,0.000431,0.000823
16198000,0.0324,0.013523,0.002678,0.000431,0.000940
16199000,0.0324,0.013523,0.002678,0.000431,0.000823
16200000,0.0324,0.013523,0.002678,0.000431,0.000823
16201000,0.0324,0.013523,0.002678,0.000431,0.000940
16202000,0.0324,0.013523,0.002678,0.000431,0.000823
16203000,0.0324,0.013523,0.002678,0.000431,0.000823
16204000,0.0324,0.013523,0.002678,0.000431,0.000940
16205000,0.0324,0.013523,0.002678,0.000431,0.000940
16206000,0.0324,0.013523,0.002678,0.000431,0.000705
16207000,0.0324,0.013523,0.002678,0.000431,0.000940
16208000,0.0324,0.013523,0.002678,0.000431,0.000705
16209000,0.0324,0.013523,0.002678,0.000431,0.000940
16210000,0.0324,0.013523,0.002678,0.000431,0.000823
16211000,0.0324,0.013523,0.002678,0.000431,0.000823
16212000,0.0324,0.013523,0.002678,0.000431,0.000940
16213000,0.0324,0.013523,0.002678,0.000431,0.000705
16214000,0.0324,0.013523,0.002678,0.000431,0.000940
16215000,0.0324,0.013523,0.002678,0.000431,0.000823
16216000,0.0324,0.013523,0.002678,0.000431,0.000940
16217000,0.0324,0.013523,0.002678,0.000431,0.000823
16218000,0.0324,0.013523,0.002678,0.000431,0.000940
16219000,0.0324,0.013523,0.002678,0.000431,0.000823
16220000,0.0324,0.013523,0.002678,0.000431,0.000823
16221000,0.0324,0.013523,0.002678,0.000431,0.000940
16222000,0.0324,0.013523,0.002678,0.000431,0.000823
16223000,0.0324,0.013523,0.002678,0.000431,0.000940
16224000,0.0324,0.013523,0.002678,0.000431,0.000823
16225000,0.0324,0.013523,0.002678,0.000431,0.000940
16226000,0.0324,0.013523,0.002678,0.000431,0.000940
16227000,0.0324,0.013523,0.002678,0.000431,0.000705
16228000,0.0324,0.013523,0.002678,0.000431,0.000940
16229000,0.0324,0.013523,0.002678,0.000431,0.000940
16230000,0.0324,0.013523,0.002678,0.000431,0.000940
16231000,0.0324,0.013523,0.002678,0.000431,0.000705
16232000,0.0324,0.013523,0.002678,0.000431,0.000940
16233000,0.0324,0.013523,0.002678,0.000431,0.000940
16234000,0.0324,0.013523,0.002678,0.000431,0.000823
16235000,0.0324,0.013523,0.002678,0.000431,0.000823
16236000,0.0324,0.013523,0.002678,0.000431,0.000823
16237000,0.0324,0.013523,0.002678,0.000431,0.000823
16238000,0.0324,0.013523,0.002678,0.000431,0.000940
16239000,0.0324,0.013523,0.002678,0.000431,0.000705
16240000,0.0324,0.013523,0.002678,0.000431,0.000940
16241000,0.0324,0.013523,0.002678,0.000431,0.000823
16242000,0.0324,0.013523,0.002678,0.000431,0.000823
16243000,0.0324,0.013523,0.002678,0.000431,0.000823
16244000,0.0324,0.013523,0.002678,0.000431,0.000823
16245000,0.0324,0.013523,0.002678,0.000431,0.000705
16246000,0.0324,0.013523,0.002678,0.000431,0.000940
16247000,0.0324,0.013523,0.002678,0.000431,0.000940
16248000,0.0324,0.013523,0.002678,0.000431,0.000705
16249000,0.0324,0.013523,0.002678,0.000431,0.000940
16250000,0.0324,0.013523,0.002678,0.000431,0.000705
16251000,0.0324,0.013523,0.002678,0.000431,0.000940
16252000,0.0324,0.013523,0.002678,0.000431,0.000940
16253000,0.0324,0.013523,0.002678,0.000431,0.000705
16254000,0.0324,0.013523,0.002678,0.000431,0.000940
16255000,0.0324,0.013523,0.002678,0.000431,0.000705
16256000,0.0324,0.013523,0.002678,0.000431,0.000940
16257000,0.0324,0.013523,0.002678,0.000431,0.000823
16258000,0.0324,0.013523,0.002678,0.000431,0.000823
16259000,0.0324,0.013523,0.002678,0.000431,0.000823
16260000,0.0324,0.013523,0.002678,0.000431,0.000823
16261000,0.0324,0.013523,0.002678,0.000431,0.000940
16262000,0.0324,0.013523,0.002678,0.000431,0.000823
16263000,0.0324,0.013523,0.002678,0.000431,0.000823
16264000,0.0324,0.013523,0.002678,0.000431,0.000823
16265000,0.0324,0.013523,0.002678,0.000431,0.000823
16266000,0.0324,0.013523,0.002678,0.000431,0.000940
16267000,0.0324,0.013523,0.002678,0.000431,0.000823
16268000,0.0324,0.013523,0.002678,0.000431,0.000940
16269000,0.0324,0.013523,0.002678,0.000431,0.000823
16270000,0.0324,0.013523,0.002678,0.000431,0.000940
16271000,0.0324,0.013523,0.002678,0.000431,0.000940
16272000,0.0324,0.013523,0.002678,0.000431,0.000705
16273000,0.0324,0.013523,0.002678,0.000431,0.000940
16274000,0.0324,0.013523,0.002678,0.000431,0.000940
16275000,0.0324,0.013523,0.002678,0.000431,0.000705
16276000,0.0324,0.013523,0.002678,0.000431,0.000940
16277000,0.0324,0.013523,0.002678,0.000431,0.000705
16278000,0.0324,0.013523,0.002678,0.000431,0.000940
16279000,0.0324,0.013523,0.002678,0.000431,0.000823
16280000,0.0324,0.013523,0.002678,0.000431,0.000823
16281000,0.0324,0.013523,0.002678,0.000431,0.000940
16282000,0.0324,0.013523,0.002678,0.000431,0.000705
16283000,0.0324,0.013523,0.002678,0.000431,0.000940
16284000,0.0324,0.013523,0.002678,0.000431,0.000823
16285000,0.0324,0.013523,0.002678,0.000431,0.000823
16286000,0.0324,0.013523,0.002678,0.000431,0.000823
16287000,0.0324,0.013523,0.002678,0.000431,0.000823
16288000,0.0324,0.013523,0.002678,0.000431,0.000823
16289000,0.0324,0.013523,0.002678,0.000431,0.000823
16290000,0.0324,0.013523,0.002678,0.000431,0.000940
16291000,0.0324,0.013523,0.002678,0.000431,0.000705
16292000,0.0324,0.013523,0.002678,0.000431,0.000940
16293000,0.0324,0.013523,0.002678,0.000431,0.000823
16294000,0.0324,0.013523,0.002678,0.000431,0.000823
16295000,0.0324,0.013523,0.002678,0.000431,0.000940
16296000,0.0324,0.013523,0.002678,0.000431,0.000823
16297000,0.0324,0.013523,0.002678,0.000431,0.000823
16298000,0.0324,0.013523,0.002678,0.000431,0.000940
16299000,0.0324,0.013523,0.002678,0.000431,0.000940
16300000,0.0324,0.013523,0.002678,0.000431,0.000823
16301000,0.0324,0.013523,0.002678,0.000431,0.000823
16302000,0.0324,0.013523,0.002678,0.000431,0.000940
16303000,0.0324,0.013523,0.002678,0.000431,0.000940
16304000,0.0324,0.013523,0.002678,0.000431,0.000705
16305000,0.0324,0.013523,0.002678,0.000431,0.000940
16306000,0.0324,0.013523,0.002678,0.000431,0.000940
16307000,0.0324,0.013523,0.002678,0.000431,0.000940
16308000,0.0324,0.013523,0.002678,0.000431,0.000823
16309000,0.0324,0.013523,0.002678,0.000431,0.000823
16310000,0.0324,0.013523,0.002678,0.000431,0.000940
16311000,0.0324,0.013523,0.002678,0.000431,0.000823
16312000,0.0324,0.013523,0.002678,0.000431,0.000940
16313000,0.0324,0.013523,0.002678,0.000431,0.000823
16314000,0.0324,0.013523,0.002678,0.000431,0.000940
16315000,0.0324,0.013523,0.002678,0.000431,0.000823
16316000,0.0324,0.013523,0.002678,0.000431,0.000823
16317000,0.0324,0.013523,0.002678,0.000431,0.000940
16318000,0.0324,0.013523,0.002678,0.000431,0.000940
16319000,0.0324,0.013523,0.002678,0.000431,0.000705
16320000,0.0324,0.013523,0.002678,0.000431,0.000940
16321000,0.0324,0.013523,0.002678,0.000431,0.000940
16322000,0.0324,0.013523,0.002678,0.000431,0.000940
16323000,0.0324,0.013523,0.002678,0.000431,0.000705
16324000,0.0324,0.013523,0.002678,0.000431,0.000940
16325000,0.0324,0.013523,0.002678,0.000431,0.000940
16326000,0.0324,0.013523,0.002678,0.000431,0.000823
16327000,0.0324,0.013523,0.002678,0.000431,0.000823
16328000,0.0324,0.013523,0.002678,0.000431,0.000940
16329000,0.0324,0.013523,0.002678,0.000431,0.000940
16330000,0.0324,0.013523,0.002678,0.000431,0.000823
16331000,0.0324,0.013523,0.002678,0.000431,0.000823
16332000,0.0324,0.013523,0.002678,0.000431,0.000940
16333000,0.0324,0.013523,0.002678,0.000431,0.000823
16334000,0.0324,0.013523,0.002678,0.000431,0.000940
16335000,0.0324,0.013523,0.002678,0.000431,0.000823
16336000,0.0324,0.013523,0.002678,0.000431,0.000940
16337000,0.0324,0.013523,0.002678,0.000431,0.000823
16338000,0.0324,0.013523,0.002678,0.000431,0.000823
16339000,0.0324,0.013523,0.002678,0.000431,0.000940
16340000,0.0324,0.013523,0.002678,0.000431,0.000940
16341000,0.0324,0.013523,0.002678,0.000431,0.000940
16342000,0.0324,0.013523,0.002678,0.000431,0.000705
16343000,0.0324,0.013523,0.002678,0.000431,0.000940
16344000,0.0324,0.013523,0.002678,0.000431,0.000940
16345000,0.0324,0.013523,0.002678,0.000431,0.000823
16346000,0.0324,0.013523,0.002678,0.000431,0.000823
16347000,0.0324,0.013523,0.002678,0.000431,0.000940
16348000,0.0324,0.013523,0.002678,0.000431,0.000940
16349000,0.0324,0.013523,0.002678,0.000431,0.000823
16350000,0.0324,0.013523,0.002678,0.000431,0.000823
16351000,0.0324,0.013523,0.002678,0.000431,0.000940
16352000,0.0324,0.013523,0.002678,0.000431,0.000823
16353000,0.0324,0.013523,0.002678,0.000431,0.000940
16354000,0.0324,0.013523,0.002678,0.000431,0.000823
16355000,0.0324,0.013523,0.002678,0.000431,0.000940
16356000,0.0324,0.013523,0.002678,0.000431,0.000823
16357000,0.0324,0.013523,0.002678,0.000431,0.000823
16358000,0.0324,0.013523,0.002678,0.000431,0.000940
16359000,0.0324,0.013523,0.002678,0.000431,0.000940
16360000,0.0324,0.013523,0.002678,0.000431,0.000823
16361000,0.0324,0.013523,0.002678,0.000431,0.000823
16362000,0.0324,0.013523,0.002678,0.000431,0.000940
16363000,0.0324,0.013523,0.002678,0.000431,0.000940
16364000,0.0324,0.013523,0.002678,0.000431,0.000705
16365000,0.0324,0.013523,0.002678,0.000431,0.000940
16366000,0.0324,0.013523,0.002678,0.000431,0.000940
16367000,0.0324,0.013523,0.002678,0.000431,0.000823
16368000,0.0324,0.013523,0.002678,0.000431,0.000940
16369000,0.0324,0.013523,0.002678,0.000431,0.000823
16370000,0.0324,0.013523,0.002678,0.000431,0.000940
16371000,0.0324,0.013523,0.002678,0.000431,0.000823
16372000,0.0324,0.013523,0.002678,0.000431,0.001645
16373000,0.0324,0.013523,0.002678,0.000431,0.371742
16374000,0.0324,0.013523,0.002678,0.000431,0.683426
16375000,0.0324,0.013523,0.002678,0.000431,0.140799
16376000,0.0324,0.013523,0.002678,0.000431,0.133512
16377000,0.0324,0.013523,0.002678,0.000431,0.219308
16378000,0.0324,0.013523,0.002678,0.000431,0.599041
16379000,0.0324,0.013523,0.002678,0.000431,0.275016
16380000,0.0324,0.013523,0.002678,0.000431,0.319912
16381000,0.0324,0.013523,0.002678,0.000431,0.178878
16382000,0.0324,0.013523,0.002678,0.000431,0.142562
16383000,0.0324,0.013523,0.002678,0.000431,0.111182
16384000,0.0324,0.013523,0.002678,0.000431,0.400536
16385000,0.0324,0.013523,0.002678,0.000431,0.179936
16386000,0.0324,0.013523,0.002678,0.000431,0.021273
16387000,0.0324,0.013523,0.002678,0.000431,0.018217
16388000,0.0324,0.013523,0.002678,0.000431,0.014573
16389000,0.0324,0.013523,0.002678,0.000431,0.008109
16390000,0.0324,0.013523,0.002678,0.000431,0.007757
16391000,0.0324,0.013523,0.002678,0.000431,0.010460
16392000,0.0324,0.013523,0.002678,0.000431,0.008697
16393000,0.0324,0.013523,0.002678,0.000431,0.007404
16394000,0.0324,0.013523,0.002678,0.000431,0.003878
16395000,0.0324,0.013523,0.002678,0.000431,0.002351
16396000,0.0324,0.013523,0.002678,0.000431,0.002468
16397000,0.0324,0.013523,0.002678,0.000431,0.002586
16398000,0.0324,0.013523,0.002678,0.000431,0.002703
16399000,0.0324,0.013523,0.002678,0.000431,0.002586
16400000,0.0324,0.013523,0.002678,0.000431,0.002703
16401000,0.0324,0.013523,0.002678,0.000431,0.002468
16402000,0.0324,0.013523,0.002678,0.000431,0.002821
16403000,0.0324,0.013523,0.002678,0.000431,0.002586
16404000,0.0324,0.013523,0.002678,0.000431,0.002468
16405000,0.0324,0.013523,0.002678,0.000431,0.002703
16406000,0.0324,0.013523,0.002678,0.000431,0.002821
16407000,0.0324,0.013523,0.002678,0.000431,0.002586
16408000,0.0324,0.013523,0.002678,0.000431,0.002351
16409000,0.0324,0.013523,0.002678,0.000431,0.002821
16410000,0.0324,0.013523,0.002678,0.000431,0.002586
16411000,0.0324,0.013523,0.002678,0.000431,0.002586
16412000,0.0324,0.013523,0.002678,0.000431,0.002586
16413000,0.0324,0.013523,0.002678,0.000431,0.002821
16414000,0.0324,0.013523,0.002678,0.000431,0.002586
16415000,0.0324,0.013523,0.002678,0.000431,0.002468
16416000,0.0324,0.013523,0.002678,0.000431,0.002821
16417000,0.0324,0.013523,0.002678,0.000431,0.002703
16418000,0.0324,0.013523,0.002678,0.000431,0.002351
16419000,0.0324,0.013523,0.002678,0.000431,0.002703
16420000,0.0324,0.013523,0.002678,0.000431,0.002703
16421000,0.0324,0.013523,0.002678,0.000431,0.002586
16422000,0.0324,0.013523,0.002678,0.000431,0.002586
16423000,0.0324,0.013523,0.002678,0.000431,0.002586
16424000,0.0324,0.013523,0.002678,0.000431,0.002821
16425000,0.0324,0.013523,0.002678,0.000431,0.002351
16426000,0.0324,0.013523,0.002678,0.000431,0.002821
16427000,0.0324,0.013523,0.002678,0.000431,0.002586
16428000,0.0324,0.013523,0.002678,0.000431,0.002586
16429000,0.0324,0.013523,0.002678,0.000431,0.003643
16430000,0.0324,0.013523,0.002678,0.000431,0.001880
16431000,0.0324,0.013523,0.002678,0.000431,0.001880
16432000,0.0324,0.013523,0.002678,0.000431,0.001645
16433000,0.0324,0.013523,0.002678,0.000431,0.001645
16434000,0.0324,0.013523,0.002678,0.000431,0.001880
16435000,0.0324,0.013523,0.002678,0.000431,0.001645
16436000,0.0324,0.013523,0.002678,0.000431,0.001880
16437000,0.0324,0.013523,0.002678,0.000431,0.000823
16438000,0.0324,0.013523,0.002678,0.000431,0.000940
16439000,0.0324,0.013523,0.002678,0.000431,0.002586
16440000,0.0324,0.013523,0.002678,0.000431,0.412877
16441000,0.0324,0.013523,0.002678,0.000431,0.649108
16442000,0.0324,0.013523,0.002678,0.000431,0.133512
16443000,0.0324,0.013523,0.002678,0.000431,0.132572
16444000,0.0324,0.013523,0.002678,0.000431,0.192276
16445000,0.0324,0.013523,0.002678,0.000431,0.601862
16446000,0.0324,0.013523,0.002678,0.000431,0.237877
16447000,0.0324,0.013523,0.002678,0.000431,0.243636
16448000,0.0324,0.013523,0.002678,0.000431,0.190396
16449000,0.0324,0.013523,0.002678,0.000431,0.141034
16450000,0.0324,0.013523,0.002678,0.000431,0.182639
16451000,0.0324,0.013523,0.002678,0.000431,0.097313
16452000,0.0324,0.013523,0.002678,0.000431,0.479045
16453000,0.0324,0.013523,0.002678,0.000431,0.081447
16454000,0.0324,0.013523,0.002678,0.000431,0.046894
16455000,0.0324,0.013523,0.002678,0.000431,0.044426
16456000,0.0324,0.013523,0.002678,0.000431,0.035258
16457000,0.0324,0.013523,0.002678,0.000431,0.027737
16458000,0.0324,0.013523,0.002678,0.000431,0.021625
16459000,0.0324,0.013523,0.002678,0.000431,0.023388
16460000,0.0324,0.013523,0.002678,0.000431,0.017042
16461000,0.0324,0.013523,0.002678,0.000431,0.011283
16462000,0.0324,0.013523,0.002678,0.000431,0.011753
16463000,0.0324,0.013523,0.002678,0.000431,0.008932
16464000,0.0324,0.013523,0.002678,0.000431,0.007404
16465000,0.0324,0.013523,0.002678,0.000431,0.006934
16466000,0.0324,0.013523,0.002678,0.000431,0.006817
16467000,0.0324,0.013523,0.002678,0.000431,0.007874
16468000,0.0324,0.013523,0.002678,0.000431,0.008815
16469000,0.0324,0.013523,0.002678,0.000431,0.004936
16470000,0.0324,0.013523,0.002678,0.000431,0.005289
16471000,0.0324,0.013523,0.002678,0.000431,0.005641
16472000,0.0324,0.013523,0.002678,0.000431,0.005524
16473000,0.0324,0.013523,0.002678,0.000431,0.005054
16474000,0.0324,0.013523,0.002678,0.000431,0.004936
16475000,0.0324,0.013523,0.002678,0.000431,0.007169
16476000,0.0324,0.013523,0.002678,0.000431,0.004466
16477000,0.0324,0.013523,0.002678,0.000431,0.004819
16478000,0.0324,0.013523,0.002678,0.000431,0.002586
16479000,0.0324,0.013523,0.002678,0.000431,0.004584
16480000,0.0324,0.013523,0.002678,0.000431,0.001998
16481000,0.0324,0.013523,0.002678,0.000431,0.001645
16482000,0.0324,0.013523,0.002678,0.000431,0.001763
16483000,0.0324,0.013523,0.002678,0.000431,0.001763
16484000,0.0324,0.013523,0.002678,0.000431,0.001763
16485000,0.0324,0.013523,0.002678,0.000431,0.001763
16486000,0.0324,0.013523,0.002678,0.000431,0.001645
16487000,0.0324,0.013523,0.002678,0.000431,0.001880
16488000,0.0324,0.013523,0.002678,0.000431,0.001763
16489000,0.0324,0.013523,0.002678,0.000431,0.001645
16490000,0.0324,0.013523,0.002678,0.000431,0.001763
16491000,0.0324,0.013523,0.002678,0.000431,0.002938
16492000,0.0324,0.013523,0.002678,0.000431,0.000940
16493000,0.0324,0.013523,0.002678,0.000431,0.000705
16494000,0.0324,0.013523,0.002678,0.000431,0.000940
16495000,0.0324,0.013523,0.002678,0.000431,0.000940
16496000,0.0324,0.013523,0.002678,0.000431,0.000940
16497000,0.0324,0.013523,0.002678,0.000431,0.000823
16498000,0.0324,0.013523,0.002678,0.000431,0.000823
16499000,0.0324,0.013523,0.002678,0.000431,0.000940
16500000,0.0324,0.013523,0.002678,0.000431,0.000823
16501000,0.0324,0.013523,0.002678,0.000431,0.000940
16502000,0.0324,0.013523,0.002678,0.000431,0.000823
16503000,0.0324,0.013523,0.002678,0.000431,0.056884
16504000,0.0324,0.013523,0.002678,0.000431,0.488682
16505000,0.0324,0.013523,0.002678,0.000431,0.595985
16506000,0.0324,0.013523,0.002678,0.000431,0.132102
16507000,0.0324,0.013523,0.002678,0.000431,0.134922
16508000,0.0324,0.013523,0.002678,0.000431,0.557554
16509000,0.0324,0.013523,0.002678,0.000431,0.264791
16510000,0.0324,0.013523,0.002678,0.000431,0.232001
16511000,0.0324,0.013523,0.002678,0.000431,0.280422
16512000,0.0324,0.013523,0.002678,0.000431,0.140799
16513000,0.0324,0.013523,0.002678,0.000431,0.148673
16514000,0.0324,0.013523,0.002678,0.000431,0.125755
16515000,0.0324,0.013523,0.002678,0.000431,0.270197
16516000,0.0324,0.013523,0.002678,0.000431,0.320734
16517000,0.0324,0.013523,0.002678,0.000431,0.022330
16518000,0.0324,0.013523,0.002678,0.000431,0.018805
16519000,0.0324,0.013523,0.002678,0.000431,0.011635
16520000,0.0324,0.013523,0.002678,0.000431,0.008345
16521000,0.0324,0.013523,0.002678,0.000431,0.006699
16522000,0.0324,0.013523,0.002678,0.000431,0.005759
16523000,0.0324,0.013523,0.002678,0.000431,0.005876
16524000,0.0324,0.013523,0.002678,0.000431,0.008580
16525000,0.0324,0.013523,0.002678,0.000431,0.004819
16526000,0.0324,0.013523,0.002678,0.000431,0.003408
16527000,0.0324,0.013523,0.002678,0.000431,0.003291
16528000,0.0324,0.013523,0.002678,0.000431,0.003173
16529000,0.0324,0.013523,0.002678,0.000431,0.003291
16530000,0.0324,0.013523,0.002678,0.000431,0.003408
16531000,0.0324,0.013523,0.002678,0.000431,0.003173
16532000,0.0324,0.013523,0.002678,0.000431,0.003056
16533000,0.0324,0.013523,0.002678,0.000431,0.003526
16534000,0.0324,0.013523,0.002678,0.000431,0.003291
16535000,0.0324,0.013523,0.002678,0.000431,0.003173
16536000,0.0324,0.013523,0.002678,0.000431,0.003056
16537000,0.0324,0.013523,0.002678,0.000431,0.003056
16538000,0.0324,0.013523,0.002678,0.000431,0.003408
16539000,0.0324,0.013523,0.002678,0.000431,0.002821
16540000,0.0324,0.013523,0.002678,0.000431,0.002586
16541000,0.0324,0.013523,0.002678,0.000431,0.002586
16542000,0.0324,0.013523,0.002678,0.000431,0.002586
16543000,0.0324,0.013523,0.002678,0.000431,0.002468
16544000,0.0324,0.013523,0.002678,0.000431,0.004349
16545000,0.0324,0.013523,0.002678,0.000431,0.003643
16546000,0.0324,0.013523,0.002678,0.000431,0.001645
16547000,0.0324,0.013523,0.002678,0.000431,0.001528
16548000,0.0324,0.013523,0.002678,0.000431,0.001880
16549000,0.0324,0.013523,0.002678,0.000431,0.001880
16550000,0.0324,0.013523,0.002678,0.000431,0.003056
16551000,0.0324,0.013523,0.002678,0.000431,0.001058
16552000,0.0324,0.013523,0.002678,0.000431,0.000940
16553000,0.0324,0.013523,0.002678,0.000431,0.000940
16554000,0.0324,0.013523,0.002678,0.000431,0.000705
16555000,0.0324,0.013523,0.002678,0.000431,0.000940
16556000,0.0324,0.013523,0.002678,0.000431,0.000940
16557000,0.0324,0.013523,0.002678,0.000431,0.000823
16558000,0.0324,0.013523,0.002678,0.000431,0.000823
16559000,0.0324,0.013523,0.002678,0.000431,0.000940
16560000,0.0324,0.013523,0.002678,0.000431,0.000940
16561000,0.0324,0.013523,0.002678,0.000431,0.000940
16562000,0.0324,0.013523,0.002678,0.000431,0.116941
16563000,0.0324,0.013523,0.002678,0.000431,0.462003
16564000,0.0324,0.013523,0.002678,0.000431,0.531227
16565000,0.0324,0.013523,0.002678,0.000431,0.134922
16566000,0.0324,0.013523,0.002678,0.000431,0.130691
16567000,0.0324,0.013523,0.002678,0.000431,0.559199
16568000,0.0324,0.013523,0.002678,0.000431,0.238347
16569000,0.0324,0.013523,0.002678,0.000431,0.269962
16570000,0.0324,0.013523,0.002678,0.000431,0.288062
16571000,0.0324,0.013523,0.002678,0.000431,0.144090
16572000,0.0324,0.013523,0.002678,0.000431,0.136215
16573000,0.0324,0.013523,0.002678,0.000431,0.144677
16574000,0.0324,0.013523,0.002678,0.000431,0.221658
16575000,0.0324,0.013523,0.002678,0.000431,0.369391
16576000,0.0324,0.013523,0.002678,0.000431,0.038902
16577000,0.0324,0.013523,0.002678,0.000431,0.032320
16578000,0.0324,0.013523,0.002678,0.000431,0.025034
16579000,0.0324,0.013523,0.002678,0.000431,0.026444
16580000,0.0324,0.013523,0.002678,0.000431,0.022918
16581000,0.0324,0.013523,0.002678,0.000431,0.019275
16582000,0.0324,0.013523,0.002678,0.000431,0.015279
16583000,0.0324,0.013523,0.002678,0.000431,0.015396
16584000,0.0324,0.013523,0.002678,0.000431,0.011870
16585000,0.0324,0.013523,0.002678,0.000431,0.012693
16586000,0.0324,0.013523,0.002678,0.000431,0.011400
16587000,0.0324,0.013523,0.002678,0.000431,0.008345
16588000,0.0324,0.013523,0.002678,0.000431,0.010107
16589000,0.0324,0.013523,0.002678,0.000431,0.007874
16590000,0.0324,0.013523,0.002678,0.000431,0.010342
16591000,0.0324,0.013523,0.002678,0.000431,0.005289
16592000,0.0324,0.013523,0.002678,0.000431,0.006817
16593000,0.0324,0.013523,0.002678,0.000431,0.004349
16594000,0.0324,0.013523,0.002678,0.000431,0.004231
16595000,0.0324,0.013523,0.002678,0.000431,0.004349
16596000,0.0324,0.013523,0.002678,0.000431,0.006347
16597000,0.0324,0.013523,0.002678,0.000431,0.003526
16598000,0.0324,0.013523,0.002678,0.000431,0.005524
16599000,0.0324,0.013523,0.002678,0.000431,0.002586
16600000,0.0324,0.013523,0.002678,0.000431,0.002468
16601000,0.0324,0.013523,0.002678,0.000431,0.002586
16602000,0.0324,0.013523,0.002678,0.000431,0.002703
16603000,0.0324,0.013523,0.002678,0.000431,0.002586
16604000,0.0324,0.013523,0.002678,0.000431,0.002703
16605000,0.0324,0.013523,0.002678,0.000431,0.002468
16606000,0.0324,0.013523,0.002678,0.000431,0.002586
16607000,0.0324,0.013523,0.002678,0.000431,0.002586
16608000,0.0324,0.013523,0.002678,0.000431,0.002586
16609000,0.0324,0.013523,0.002678,0.000431,0.002821
16610000,0.0324,0.013523,0.002678,0.000431,0.002468
16611000,0.0324,0.013523,0.002678,0.000431,0.002586
16612000,0.0324,0.013523,0.002678,0.000431,0.002586
16613000,0.0324,0.013523,0.002678,0.000431,0.002586
16614000,0.0324,0.013523,0.002678,0.000431,0.002586
16615000,0.0324,0.013523,0.002678,0.000431,0.002586
16616000,0.0324,0.013523,0.002678,0.000431,0.002703
16617000,0.0324,0.013523,0.002678,0.000431,0.002468
16618000,0.0324,0.013523,0.002678,0.000431,0.002703
16619000,0.0324,0.013523,0.002678,0.000431,0.004231
16620000,0.0324,0.013523,0.002678,0.000431,0.001645
16621000,0.0324,0.013523,0.002678,0.000431,0.001763
16622000,0.0324,0.013523,0.002678,0.000431,0.001763
16623000,0.0324,0.013523,0.002678,0.000431,0.001645
16624000,0.0324,0.013523,0.002678,0.000431,0.001645
16625000,0.0324,0.013523,0.002678,0.000431,0.001880
16626000,0.0324,0.013523,0.002678,0.000431,0.001645
16627000,0.0324,0.013523,0.002678,0.000431,0.003526
16628000,0.0324,0.013523,0.002678,0.000431,0.000823
16629000,0.0324,0.013523,0.002678,0.000431,0.000940
16630000,0.0324,0.013523,0.002678,0.000431,0.000940
16631000,0.0324,0.013523,0.002678,0.000431,0.000705
16632000,0.0324,0.013523,0.002678,0.000431,0.000940
16633000,0.0324,0.013523,0.002678,0.000431,0.000705
16634000,0.0324,0.013523,0.002678,0.000431,0.000940
16635000,0.0324,0.013523,0.002678,0.000431,0.000823
16636000,0.0324,0.013523,0.002678,0.000431,0.000823
16637000,0.0324,0.013523,0.002678,0.000431,0.000823
16638000,0.0324,0.013523,0.002678,0.000431,0.000823
16639000,0.0324,0.013523,0.002678,0.000431,0.000940
16640000,0.0324,0.013523,0.002678,0.000431,0.000705
16641000,0.0324,0.013523,0.002678,0.000431,0.000940
16642000,0.0324,0.013523,0.002678,0.000431,0.000823
16643000,0.0324,0.013523,0.002678,0.000431,0.000823
16644000,0.0324,0.013523,0.002678,0.000431,0.000823
16645000,0.0324,0.013523,0.002678,0.000431,0.000823
16646000,0.0324,0.013523,0.002678,0.000431,0.000940
16647000,0.0324,0.013523,0.002678,0.000431,0.000705
16648000,0.0324,0.013523,0.002678,0.000431,0.000823
16649000,0.0324,0.013523,0.002678,0.000431,0.000823
16650000,0.0324,0.013523,0.002678,0.000431,0.000940
16651000,0.0324,0.013523,0.002678,0.000431,0.000823
16652000,0.0324,0.013523,0.002678,0.000431,0.000823
16653000,0.0324,0.013523,0.002678,0.000431,0.000705
16654000,0.0324,0.013523,0.002678,0.000431,0.000940
16655000,0.0324,0.013523,0.002678,0.000431,0.000940
16656000,0.0324,0.013523,0.002678,0.000431,0.000705
16657000,0.0324,0.013523,0.002678,0.000431,0.000940
16658000,0.0324,0.013523,0.002678,0.000431,0.000705
16659000,0.0324,0.013523,0.002678,0.000431,0.000940
16660000,0.0324,0.013523,0.002678,0.000431,0.000823
16661000,0.0324,0.013523,0.002678,0.000431,0.000823
16662000,0.0324,0.013523,0.002678,0.000431,0.000940
16663000,0.0324,0.013523,0.002678,0.000431,0.000705
16664000,0.0324,0.013523,0.002678,0.000431,0.000940
16665000,0.0324,0.013523,0.002678,0.000431,0.000823
16666000,0.0324,0.013523,0.002678,0.000431,0.000823
16667000,0.0324,0.013523,0.002678,0.000431,0.000823
16668000,0.0324,0.013523,0.002678,0.000431,0.000823
16669000,0.0324,0.013523,0.002678,0.000431,0.000823
16670000,0.0324,0.013523,0.002678,0.000431,0.000823
16671000,0.0324,0.013523,0.002678,0.000431,0.000940
16672000,0.0324,0.013523,0.002678,0.000431,0.000705
16673000,0.0324,0.013523,0.002678,0.000431,0.000940
16674000,0.0324,0.013523,0.002678,0.000431,0.000823
16675000,0.0324,0.013523,0.002678,0.000431,0.000823
16676000,0.0324,0.013523,0.002678,0.000431,0.000823
16677000,0.0324,0.013523,0.002678,0.000431,0.000823
16678000,0.0324,0.013523,0.002678,0.000431,0.000940
16679000,0.0324,0.013523,0.002678,0.000431,0.000705
16680000,0.0324,0.013523,0.002678,0.000431,0.000940
16681000,0.0324,0.013523,0.002678,0.000431,0.000705
16682000,0.0324,0.013523,0.002678,0.000431,0.000940
16683000,0.0324,0.013523,0.002678,0.000431,0.000823
16684000,0.0324,0.013523,0.002678,0.000431,0.000823
16685000,0.0324,0.013523,0.002678,0.000431,0.000940
16686000,0.0324,0.013523,0.002678,0.000431,0.000705
16687000,0.0324,0.013523,0.002678,0.000431,0.000940
16688000,0.0324,0.013523,0.002678,0.000431,0.000823
16689000,0.0324,0.013523,0.002678,0.000431,0.000823
16690000,0.0324,0.013523,0.002678,0.000431,0.000823
16691000,0.0324,0.013523,0.002678,0.000431,0.000823
16692000,0.0324,0.013523,0.002678,0.000431,0.000940
16693000,0.0324,0.013523,0.002678,0.000431,0.000705
16694000,0.0324,0.013523,0.002678,0.000431,0.000940
16695000,0.0324,0.013523,0.002678,0.000431,0.000823
16696000,0.0324,0.013523,0.002678,0.000431,0.000823
16697000,0.0324,0.013523,0.002678,0.000431,0.000823
16698000,0.0324,0.013523,0.002678,0.000431,0.000823
16699000,0.0324,0.013523,0.002678,0.000431,0.000823
16700000,0.0324,0.013523,0.002678,0.000431,0.000823
16701000,0.0324,0.013523,0.002678,0.000431,0.000823
16702000,0.0324,0.013523,0.002678,0.000431,0.000823
16703000,0.0324,0.013523,0.002678,0.000431,0.000940
16704000,0.0324,0.013523,0.002678,0.000431,0.000823
16705000,0.0324,0.013523,0.002678,0.000431,0.000823
16706000,0.0324,0.013523,0.002678,0.000431,0.000705
16707000,0.0324,0.013523,0.002678,0.000431,0.000940
16708000,0.0324,0.013523,0.002678,0.000431,0.000940
16709000,0.0324,0.013523,0.002678,0.000431,0.000705
16710000,0.0324,0.013523,0.002678,0.000431,0.000940
16711000,0.0324,0.013523,0.002678,0.000431,0.000705
16712000,0.0324,0.013523,0.002678,0.000431,0.000940
16713000,0.0324,0.013523,0.002678,0.000431,0.000823
16714000,0.0324,0.013523,0.002678,0.000431,0.000823
16715000,0.0324,0.013523,0.002678,0.000431,0.000940
16716000,0.0324,0.013523,0.002678,0.000431,0.000705
16717000,0.0324,0.013523,0.002678,0.000431,0.000940
16718000,0.0324,0.013523,0.002678,0.000431,0.000823
16719000,0.0324,0.013523,0.002678,0.000431,0.000823
16720000,0.0324,0.013523,0.002678,0.000431,0.000823
16721000,0.0324,0.013523,0.002678,0.000431,0.000823
16722000,0.0324,0.013523,0.002678,0.000431,0.000940
16723000,0.0324,0.013523,0.002678,0.000431,0.000705
16724000,0.0324,0.013523,0.002678,0.000431,0.000940
16725000,0.0324,0.013523,0.002678,0.000431,0.001410
16726000,0.0324,0.013523,0.002678,0.000431,0.312390
16727000,0.0324,0.013523,0.002678,0.000431,0.650166
16728000,0.0324,0.013523,0.002678,0.000431,0.203089
16729000,0.0324,0.013523,0.002678,0.000431,0.133042
16730000,0.0324,0.013523,0.002678,0.000431,0.132572
16731000,0.0324,0.013523,0.002678,0.000431,0.601627
16732000,0.0324,0.013523,0.002678,0.000431,0.217427
16733000,0.0324,0.013523,0.002678,0.000431,0.292175
16734000,0.0324,0.013523,0.002678,0.000431,0.264909
16735000,0.0324,0.013523,0.002678,0.000431,0.149378
16736000,0.0324,0.013523,0.002678,0.000431,0.146793
16737000,0.0324,0.013523,0.002678,0.000431,0.098019
16738000,0.0324,0.013523,0.002678,0.000431,0.408175
16739000,0.0324,0.013523,0.002678,0.000431,0.143149
16740000,0.0324,0.013523,0.002678,0.000431,0.020685
16741000,0.0324,0.013523,0.002678,0.000431,0.014221
16742000,0.0324,0.013523,0.002678,0.000431,0.011988
16743000,0.0324,0.013523,0.002678,0.000431,0.008932
16744000,0.0324,0.013523,0.002678,0.000431,0.007404
16745000,0.0324,0.013523,0.002678,0.000431,0.007169
16746000,0.0324,0.013523,0.002678,0.000431,0.007404
16747000,0.0324,0.013523,0.002678,0.000431,0.009520
16748000,0.0324,0.013523,0.002678,0.000431,0.005524
16749000,0.0324,0.013523,0.002678,0.000431,0.006229
16750000,0.0324,0.013523,0.002678,0.000431,0.005524
16751000,0.0324,0.013523,0.002678,0.000431,0.006347
16752000,0.0324,0.013523,0.002678,0.000431,0.007287
16753000,0.0324,0.013523,0.002678,0.000431,0.004231
16754000,0.0324,0.013523,0.002678,0.000431,0.004349
16755000,0.0324,0.013523,0.002678,0.000431,0.004349
16756000,0.0324,0.013523,0.002678,0.000431,0.005171
16757000,0.0324,0.013523,0.002678,0.000431,0.003526
16758000,0.0324,0.013523,0.002678,0.000431,0.004231
16759000,0.0324,0.013523,0.002678,0.000431,0.002703
16760000,0.0324,0.013523,0.002678,0.000431,0.004231
16761000,0.0324,0.013523,0.002678,0.000431,0.001763
16762000,0.0324,0.013523,0.002678,0.000431,0.001880
16763000,0.0324,0.013523,0.002678,0.000431,0.001645
16764000,0.0324,0.013523,0.002678,0.000431,0.001763
16765000,0.0324,0.013523,0.002678,0.000431,0.001763
16766000,0.0324,0.013523,0.002678,0.000431,0.001763
16767000,0.0324,0.013523,0.002678,0.000431,0.001763
16768000,0.0324,0.013523,0.002678,0.000431,0.001763
16769000,0.0324,0.013523,0.002678,0.000431,0.002938
16770000,0.0324,0.013523,0.002678,0.000431,0.000823
16771000,0.0324,0.013523,0.002678,0.000431,0.000940
16772000,0.0324,0.013523,0.002678,0.000431,0.000823
16773000,0.0324,0.013523,0.002678,0.000431,0.000940
16774000,0.0324,0.013523,0.002678,0.000431,0.000940
16775000,0.0324,0.013523,0.002678,0.000431,0.000705
16776000,0.0324,0.013523,0.002678,0.000431,0.000940
16777000,0.0324,0.013523,0.002678,0.000431,0.000940
16778000,0.0324,0.013523,0.002678,0.000431,0.000940
16779000,0.0324,0.013523,0.002678,0.000431,0.000705
16780000,0.0324,0.013523,0.002678,0.000431,0.000940
16781000,0.0324,0.013523,0.002678,0.000431,0.000940
16782000,0.0324,0.013523,0.002678,0.000431,0.000823
16783000,0.0324,0.013523,0.002678,0.000431,0.000823
16784000,0.0324,0.013523,0.002678,0.000431,0.000940
16785000,0.0324,0.013523,0.002678,0.000431,0.000823
16786000,0.0324,0.013523,0.002678,0.000431,0.000940
16787000,0.0324,0.013523,0.002678,0.000431,0.000823
16788000,0.0324,0.013523,0.002678,0.000431,0.000940
16789000,0.0324,0.013523,0.002678,0.000431,0.000823
16790000,0.0324,0.013523,0.002678,0.000431,0.000823
16791000,0.0324,0.013523,0.002678,0.000431,0.000940
16792000,0.0324,0.013523,0.002678,0.000431,0.000940
16793000,0.0324,0.013523,0.002678,0.000431,0.000823
16794000,0.0324,0.013523,0.002678,0.000431,0.000823
16795000,0.0324,0.013523,0.002678,0.000431,0.000940
16796000,0.0324,0.013523,0.002678,0.000431,0.000940
16797000,0.0324,0.013523,0.002678,0.000431,0.000705
16798000,0.0324,0.013523,0.002678,0.000431,0.000940
16799000,0.0324,0.013523,0.002678,0.000431,0.000940
16800000,0.0324,0.013523,0.002678,0.000431,0.000940
16801000,0.0324,0.013523,0.002678,0.000431,0.000823
16802000,0.0324,0.013523,0.002678,0.000431,0.000823
16803000,0.0324,0.013523,0.002678,0.000431,0.000940
16804000,0.0324,0.013523,0.002678,0.000431,0.000823
16805000,0.0324,0.013523,0.002678,0.000431,0.000940
16806000,0.0324,0.013523,0.002678,0.000431,0.000823
16807000,0.0324,0.013523,0.002678,0.000431,0.000940
16808000,0.0324,0.013523,0.002678,0.000431,0.000823
16809000,0.0324,0.013523,0.002678,0.000431,0.000823
16810000,0.0324,0.013523,0.002678,0.000431,0.000940
16811000,0.0324,0.013523,0.002678,0.000431,0.000940
16812000,0.0324,0.013523,0.002678,0.000431,0.000823
16813000,0.0324,0.013523,0.002678,0.000431,0.000823
16814000,0.0324,0.013523,0.002678,0.000431,0.000940
16815000,0.0324,0.013523,0.002678,0.000431,0.000940
16816000,0.0324,0.013523,0.002678,0.000431,0.000705
16817000,0.0324,0.013523,0.002678,0.000431,0.000940
16818000,0.0324,0.013523,0.002678,0.000431,0.000940
16819000,0.0324,0.013523,0.002678,0.000431,0.000940
16820000,0.0324,0.013523,0.002678,0.000431,0.000705
16821000,0.0324,0.013523,0.002678,0.000431,0.000940
16822000,0.0324,0.013523,0.002678,0.000431,0.000940
16823000,0.0324,0.013523,0.002678,0.000431,0.000823
16824000,0.0324,0.013523,0.002678,0.000431,0.000823
16825000,0.0324,0.013523,0.002678,0.000431,0.000940
16826000,0.0324,0.013523,0.002678,0.000431,0.000940
16827000,0.0324,0.013523,0.002678,0.000431,0.000823
16828000,0.0324,0.013523,0.002678,0.000431,0.000823
16829000,0.0324,0.013523,0.002678,0.000431,0.000940
16830000,0.0324,0.013523,0.002678,0.000431,0.000823
16831000,0.0324,0.013523,0.002678,0.000431,0.000823
16832000,0.0324,0.013523,0.002678,0.000431,0.000940
16833000,0.0324,0.013523,0.002678,0.000431,0.000940
16834000,0.0324,0.013523,0.002678,0.000431,0.000940
16835000,0.0324,0.013523,0.002678,0.000431,0.000705
16836000,0.0324,0.013523,0.002678,0.000431,0.000940
16837000,0.0324,0.013523,0.002678,0.000431,0.000940
16838000,0.0324,0.013523,0.002678,0.000431,0.000823
16839000,0.0324,0.013523,0.002678,0.000431,0.000823
16840000,0.0324,0.013523,0.002678,0.000431,0.000940
16841000,0.0324,0.013523,0.002678,0.000431,0.000940
16842000,0.0324,0.013523,0.002678,0.000431,0.000823
16843000,0.0324,0.013523,0.002678,0.000431,0.000823
16844000,0.0324,0.013523,0.002678,0.000431,0.000940
16845000,0.0324,0.013523,0.002678,0.000431,0.000823
16846000,0.0324,0.013523,0.002678,0.000431,0.000940
16847000,0.0324,0.013523,0.002678,0.000431,0.000823
16848000,0.0324,0.013523,0.002678,0.000431,0.000940
16849000,0.0324,0.013523,0.002678,0.000431,0.000823
16850000,0.0324,0.013523,0.002678,0.000431,0.000823
16851000,0.0324,0.013523,0.002678,0.000431,0.000940
16852000,0.0324,0.013523,0.002678,0.000431,0.000940
16853000,0.0324,0.013523,0.002678,0.000431,0.000823
16854000,0.0324,0.013523,0.002678,0.000431,0.000823
16855000,0.0324,0.013523,0.002678,0.000431,0.014103
16856000,0.0324,0.013523,0.002678,0.000431,0.424277
16857000,0.0324,0.013523,0.002678,0.000431,0.598806
16858000,0.0324,0.013523,0.002678,0.000431,0.133630
16859000,0.0324,0.013523,0.002678,0.000431,0.131514
16860000,0.0324,0.013523,0.002678,0.000431,0.165010
16861000,0.0324,0.013523,0.002678,0.000431,0.581882
16862000,0.0324,0.013523,0.002678,0.000431,0.259972
16863000,0.0324,0.013523,0.002678,0.000431,0.261383
16864000,0.0324,0.013523,0.002678,0.000431,0.255036
16865000,0.0324,0.013523,0.002678,0.000431,0.140799
16866000,0.0324,0.013523,0.002678,0.000431,0.172061
16867000,0.0324,0.013523,0.002678,0.000431,0.092025
16868000,0.0324,0.013523,0.002678,0.000431,0.447900
16869000,0.0324,0.013523,0.002678,0.000431,0.072045
16870000,0.0324,0.013523,0.002678,0.000431,0.020332
16871000,0.0324,0.013523,0.002678,0.000431,0.014809
16872000,0.0324,0.013523,0.002678,0.000431,0.009872
16873000,0.0324,0.013523,0.002678,0.000431,0.009755
16874000,0.0324,0.013523,0.002678,0.000431,0.010342
16875000,0.0324,0.013523,0.002678,0.000431,0.005994
16876000,0.0324,0.013523,0.002678,0.000431,0.006582
16877000,0.0324,0.013523,0.002678,0.000431,0.004231
16878000,0.0324,0.013523,0.002678,0.000431,0.005641
16879000,0.0324,0.013523,0.002678,0.000431,0.006817
16880000,0.0324,0.013523,0.002678,0.000431,0.001763
16881000,0.0324,0.013523,0.002678,0.000431,0.001645
16882000,0.0324,0.013523,0.002678,0.000431,0.001880
16883000,0.0324,0.013523,0.002678,0.000431,0.001763
16884000,0.0324,0.013523,0.002678,0.000431,0.001528
16885000,0.0324,0.013523,0.002678,0.000431,0.001880
16886000,0.0324,0.013523,0.002678,0.000431,0.001880
16887000,0.0324,0.013523,0.002678,0.000431,0.001763
16888000,0.0324,0.013523,0.002678,0.000431,0.001645
16889000,0.0324,0.013523,0.002678,0.000431,0.001763
16890000,0.0324,0.013523,0.002678,0.000431,0.001880
16891000,0.0324,0.013523,0.002678,0.000431,0.001528
16892000,0.0324,0.013523,0.002678,0.000431,0.001880
16893000,0.0324,0.013523,0.002678,0.000431,0.001763
16894000,0.0324,0.013523,0.002678,0.000431,0.001880
16895000,0.0324,0.013523,0.002678,0.000431,0.001528
16896000,0.0324,0.013523,0.002678,0.000431,0.001763
16897000,0.0324,0.013523,0.002678,0.000431,0.001880
16898000,0.0324,0.013523,0.002678,0.000431,0.001763
16899000,0.0324,0.013523,0.002678,0.000431,0.001645
16900000,0.0324,0.013523,0.002678,0.000431,0.001763
16901000,0.0324,0.013523,0.002678,0.000431,0.001880
16902000,0.0324,0.013523,0.002678,0.000431,0.001763
16903000,0.0324,0.013523,0.002678,0.000431,0.001528
16904000,0.0324,0.013523,0.002678,0.000431,0.001880
16905000,0.0324,0.013523,0.002678,0.000431,0.002586
16906000,0.0324,0.013523,0.002678,0.000431,0.001880
16907000,0.0324,0.013523,0.002678,0.000431,0.000823
16908000,0.0324,0.013523,0.002678,0.000431,0.000940
16909000,0.0324,0.013523,0.002678,0.000431,0.000940
16910000,0.0324,0.013523,0.002678,0.000431,0.000705
16911000,0.0324,0.013523,0.002678,0.000431,0.000940
16912000,0.0324,0.013523,0.002678,0.000431,0.000940
16913000,0.0324,0.013523,0.002678,0.000431,0.000940
16914000,0.0324,0.013523,0.002678,0.000431,0.000823
16915000,0.0324,0.013523,0.002678,0.000431,0.000823
16916000,0.0324,0.013523,0.002678,0.000431,0.000940
16917000,0.0324,0.013523,0.002678,0.000431,0.000940
16918000,0.0324,0.013523,0.002678,0.000431,0.000823
16919000,0.0324,0.013523,0.002678,0.000431,0.000823
16920000,0.0324,0.013523,0.002678,0.000431,0.000940
16921000,0.0324,0.013523,0.002678,0.000431,0.000940
16922000,0.0324,0.013523,0.002678,0.000431,0.000705
16923000,0.0324,0.013523,0.002678,0.000431,0.000940
16924000,0.0324,0.013523,0.002678,0.000431,0.000940
16925000,0.0324,0.013523,0.002678,0.000431,0.000823
16926000,0.0324,0.013523,0.002678,0.000431,0.000940
16927000,0.0324,0.013523,0.002678,0.000431,0.000823
16928000,0.0324,0.013523,0.002678,0.000431,0.000940
16929000,0.0324,0.013523,0.002678,0.000431,0.000823
16930000,0.0324,0.013523,0.002678,0.000431,0.000823
16931000,0.0324,0.013523,0.002678,0.000431,0.000940
16932000,0.0324,0.013523,0.002678,0.000431,0.000940
16933000,0.0324,0.013523,0.002678,0.000431,0.000823
16934000,0.0324,0.013523,0.002678,0.000431,0.000823
16935000,0.0324,0.013523,0.002678,0.000431,0.071105
16936000,0.0324,0.013523,0.002678,0.000431,0.394660
16937000,0.0324,0.013523,0.002678,0.000431,0.597983
16938000,0.0324,0.013523,0.002678,0.000431,0.131279
16939000,0.0324,0.013523,0.002678,0.000431,0.134805
16940000,0.0324,0.013523,0.002678,0.000431,0.546976
16941000,0.0324,0.013523,0.002678,0.000431,0.301342
16942000,0.0324,0.013523,0.002678,0.000431,0.258209
16943000,0.0324,0.013523,0.002678,0.000431,0.293115
16944000,0.0324,0.013523,0.002678,0.000431,0.132454
16945000,0.0324,0.013523,0.002678,0.000431,0.141857
16946000,0.0324,0.013523,0.002678,0.000431,0.138331
16947000,0.0324,0.013523,0.002678,0.000431,0.228945
16948000,0.0324,0.013523,0.002678,0.000431,0.354700
16949000,0.0324,0.013523,0.002678,0.000431,0.015866
16950000,0.0324,0.013523,0.002678,0.000431,0.015396
16951000,0.0324,0.013523,0.002678,0.000431,0.012223
16952000,0.0324,0.013523,0.002678,0.000431,0.013516
16953000,0.0324,0.013523,0.002678,0.000431,0.012576
16954000,0.0324,0.013523,0.002678,0.000431,0.007639
16955000,0.0324,0.013523,0.002678,0.000431,0.007874
16956000,0.0324,0.013523,0.002678,0.000431,0.007404
16957000,0.0324,0.013523,0.002678,0.000431,0.008109
16958000,0.0324,0.013523,0.002678,0.000431,0.007757
16959000,0.0324,0.013523,0.002678,0.000431,0.009167
16960000,0.0324,0.013523,0.002678,0.000431,0.005994
16961000,0.0324,0.013523,0.002678,0.000431,0.009167
16962000,0.0324,0.013523,0.002678,0.000431,0.004466
16963000,0.0324,0.013523,0.002678,0.000431,0.004466
16964000,0.0324,0.013523,0.002678,0.000431,0.004231
16965000,0.0324,0.013523,0.002678,0.000431,0.006464
16966000,0.0324,0.013523,0.002678,0.000431,0.003761
16967000,0.0324,0.013523,0.002678,0.000431,0.005406
16968000,0.0324,0.013523,0.002678,0.000431,0.002703
16969000,0.0324,0.013523,0.002678,0.000431,0.002586
16970000,0.0324,0.013523,0.002678,0.000431,0.002821
16971000,0.0324,0.013523,0.002678,0.000431,0.002468
16972000,0.0324,0.013523,0.002678,0.000431,0.002703
16973000,0.0324,0.013523,0.002678,0.000431,0.002586
16974000,0.0324,0.013523,0.002678,0.000431,0.002703
16975000,0.0324,0.013523,0.002678,0.000431,0.002468
16976000,0.0324,0.013523,0.002678,0.000431,0.002703
16977000,0.0324,0.013523,0.002678,0.000431,0.002703
16978000,0.0324,0.013523,0.002678,0.000431,0.002586
16979000,0.0324,0.013523,0.002678,0.000431,0.002586
16980000,0.0324,0.013523,0.002678,0.000431,0.002586
16981000,0.0324,0.013523,0.002678,0.000431,0.002703
16982000,0.0324,0.013523,0.002678,0.000431,0.002703
16983000,0.0324,0.013523,0.002678,0.000431,0.002351
16984000,0.0324,0.013523,0.002678,0.000431,0.002821
16985000,0.0324,0.013523,0.002678,0.000431,0.002586
16986000,0.0324,0.013523,0.002678,0.000431,0.002586
16987000,0.0324,0.013523,0.002678,0.000431,0.002468
16988000,0.0324,0.013523,0.002678,0.000431,0.002703
16989000,0.0324,0.013523,0.002678,0.000431,0.004231
16990000,0.0324,0.013523,0.002678,0.000431,0.001763
16991000,0.0324,0.013523,0.002678,0.000431,0.001880
16992000,0.0324,0.013523,0.002678,0.000431,0.001763
16993000,0.0324,0.013523,0.002678,0.000431,0.004349
16994000,0.0324,0.013523,0.002678,0.000431,0.000823
16995000,0.0324,0.013523,0.002678,0.000431,0.000940
16996000,0.0324,0.013523,0.002678,0.000431,0.000823
16997000,0.0324,0.013523,0.002678,0.000431,0.000940
16998000,0.0324,0.013523,0.002678,0.000431,0.000823
16999000,0.0324,0.013523,0.002678,0.000431,0.000940
