Cycle,Area(mm^2),PeakDynamic(W),SubthresholdLeakage(W),GateLeakage(W),RunTimeDynamic(W)
106000000,0.0324,0.013523,0.002678,0.000431,0.000940
106001000,0.0324,0.013523,0.002678,0.000431,0.000823
106002000,0.0324,0.013523,0.002678,0.000431,0.000823
106003000,0.0324,0.013523,0.002678,0.000431,0.000940
106004000,0.0324,0.013523,0.002678,0.000431,0.004936
106005000,0.0324,0.013523,0.002678,0.000431,0.439790
106006000,0.0324,0.013523,0.002678,0.000431,0.636415
106007000,0.0324,0.013523,0.002678,0.000431,0.132572
106008000,0.0324,0.013523,0.002678,0.000431,0.133042
106009000,0.0324,0.013523,0.002678,0.000431,0.270197
106010000,0.0324,0.013523,0.002678,0.000431,0.553910
106011000,0.0324,0.013523,0.002678,0.000431,0.245869
106012000,0.0324,0.013523,0.002678,0.000431,0.355170
106013000,0.0324,0.013523,0.002678,0.000431,0.170768
106014000,0.0324,0.013523,0.002678,0.000431,0.145382
106015000,0.0324,0.013523,0.002678,0.000431,0.105070
106016000,0.0324,0.013523,0.002678,0.000431,0.399243
106017000,0.0324,0.013523,0.002678,0.000431,0.158546
106018000,0.0324,0.013523,0.002678,0.000431,0.026914
106019000,0.0324,0.013523,0.002678,0.000431,0.024916
106020000,0.0324,0.013523,0.002678,0.000431,0.018687
106021000,0.0324,0.013523,0.002678,0.000431,0.020685
106022000,0.0324,0.013523,0.002678,0.000431,0.016807
106023000,0.0324,0.013523,0.002678,0.000431,0.012928
106024000,0.0324,0.013523,0.002678,0.000431,0.015279
106025000,0.0324,0.013523,0.002678,0.000431,0.013751
106026000,0.0324,0.013523,0.002678,0.000431,0.008227
106027000,0.0324,0.013523,0.002678,0.000431,0.008227
106028000,0.0324,0.013523,0.002678,0.000431,0.007522
106029000,0.0324,0.013523,0.002678,0.000431,0.005641
106030000,0.0324,0.013523,0.002678,0.000431,0.005406
106031000,0.0324,0.013523,0.002678,0.000431,0.006347
106032000,0.0324,0.013523,0.002678,0.000431,0.004936
106033000,0.0324,0.013523,0.002678,0.000431,0.005641
106034000,0.0324,0.013523,0.002678,0.000431,0.005524
106035000,0.0324,0.013523,0.002678,0.000431,0.006347
106036000,0.0324,0.013523,0.002678,0.000431,0.003408
106037000,0.0324,0.013523,0.002678,0.000431,0.004113
106038000,0.0324,0.013523,0.002678,0.000431,0.006347
106039000,0.0324,0.013523,0.002678,0.000431,0.001880
106040000,0.0324,0.013523,0.002678,0.000431,0.002821
106041000,0.0324,0.013523,0.002678,0.000431,0.002116
106042000,0.0324,0.013523,0.002678,0.000431,0.002351
106043000,0.0324,0.013523,0.002678,0.000431,0.002233
106044000,0.0324,0.013523,0.002678,0.000431,0.002351
106045000,0.0324,0.013523,0.002678,0.000431,0.001528
106046000,0.0324,0.013523,0.002678,0.000431,0.001763
106047000,0.0324,0.013523,0.002678,0.000431,0.001763
106048000,0.0324,0.013523,0.002678,0.000431,0.001528
106049000,0.0324,0.013523,0.002678,0.000431,0.001763
106050000,0.0324,0.013523,0.002678,0.000431,0.001528
106051000,0.0324,0.013523,0.002678,0.000431,0.001880
106052000,0.0324,0.013523,0.002678,0.000431,0.001410
106053000,0.0324,0.013523,0.002678,0.000431,0.001880
106054000,0.0324,0.013523,0.002678,0.000431,0.001645
106055000,0.0324,0.013523,0.002678,0.000431,0.001645
106056000,0.0324,0.013523,0.002678,0.000431,0.001763
106057000,0.0324,0.013523,0.002678,0.000431,0.001528
106058000,0.0324,0.013523,0.002678,0.000431,0.001880
106059000,0.0324,0.013523,0.002678,0.000431,0.001528
106060000,0.0324,0.013523,0.002678,0.000431,0.001763
106061000,0.0324,0.013523,0.002678,0.000431,0.003173
106062000,0.0324,0.013523,0.002678,0.000431,0.000940
106063000,0.0324,0.013523,0.002678,0.000431,0.000823
106064000,0.0324,0.013523,0.002678,0.000431,0.000823
106065000,0.0324,0.013523,0.002678,0.000431,0.000940
106066000,0.0324,0.013523,0.002678,0.000431,0.000705
106067000,0.0324,0.013523,0.002678,0.000431,0.000940
106068000,0.0324,0.013523,0.002678,0.000431,0.000823
106069000,0.0324,0.013523,0.002678,0.000431,0.000823
106070000,0.0324,0.013523,0.002678,0.000431,0.000823
106071000,0.0324,0.013523,0.002678,0.000431,0.000823
106072000,0.0324,0.013523,0.002678,0.000431,0.000823
106073000,0.0324,0.013523,0.002678,0.000431,0.000823
106074000,0.0324,0.013523,0.002678,0.000431,0.000823
106075000,0.0324,0.013523,0.002678,0.000431,0.000823
106076000,0.0324,0.013523,0.002678,0.000431,0.000823
106077000,0.0324,0.013523,0.002678,0.000431,0.000823
106078000,0.0324,0.013523,0.002678,0.000431,0.000823
106079000,0.0324,0.013523,0.002678,0.000431,0.000823
106080000,0.0324,0.013523,0.002678,0.000431,0.000940
106081000,0.0324,0.013523,0.002678,0.000431,0.000823
106082000,0.0324,0.013523,0.002678,0.000431,0.000823
106083000,0.0324,0.013523,0.002678,0.000431,0.000705
106084000,0.0324,0.013523,0.002678,0.000431,0.000940
106085000,0.0324,0.013523,0.002678,0.000431,0.000940
106086000,0.0324,0.013523,0.002678,0.000431,0.000705
106087000,0.0324,0.013523,0.002678,0.000431,0.000940
106088000,0.0324,0.013523,0.002678,0.000431,0.000705
106089000,0.0324,0.013523,0.002678,0.000431,0.000940
106090000,0.0324,0.013523,0.002678,0.000431,0.000823
106091000,0.0324,0.013523,0.002678,0.000431,0.000823
106092000,0.0324,0.013523,0.002678,0.000431,0.000823
106093000,0.0324,0.013523,0.002678,0.000431,0.000823
106094000,0.0324,0.013523,0.002678,0.000431,0.000940
106095000,0.0324,0.013523,0.002678,0.000431,0.000705
106096000,0.0324,0.013523,0.002678,0.000431,0.000940
106097000,0.0324,0.013523,0.002678,0.000431,0.000823
106098000,0.0324,0.013523,0.002678,0.000431,0.000823
106099000,0.0324,0.013523,0.002678,0.000431,0.000823
106100000,0.0324,0.013523,0.002678,0.000431,0.000823
106101000,0.0324,0.013523,0.002678,0.000431,0.003526
106102000,0.0324,0.013523,0.002678,0.000431,0.389488
106103000,0.0324,0.013523,0.002678,0.000431,0.638413
106104000,0.0324,0.013523,0.002678,0.000431,0.131161
106105000,0.0324,0.013523,0.002678,0.000431,0.133982
106106000,0.0324,0.013523,0.002678,0.000431,0.138683
106107000,0.0324,0.013523,0.002678,0.000431,0.595750
106108000,0.0324,0.013523,0.002678,0.000431,0.231295
106109000,0.0324,0.013523,0.002678,0.000431,0.282068
106110000,0.0324,0.013523,0.002678,0.000431,0.273488
106111000,0.0324,0.013523,0.002678,0.000431,0.142092
106112000,0.0324,0.013523,0.002678,0.000431,0.155372
106113000,0.0324,0.013523,0.002678,0.000431,0.108596
106114000,0.0324,0.013523,0.002678,0.000431,0.466352
106115000,0.0324,0.013523,0.002678,0.000431,0.137978
106116000,0.0324,0.013523,0.002678,0.000431,0.079096
106117000,0.0324,0.013523,0.002678,0.000431,0.062643
106118000,0.0324,0.013523,0.002678,0.000431,0.060880
106119000,0.0324,0.013523,0.002678,0.000431,0.038784
106120000,0.0324,0.013523,0.002678,0.000431,0.032085
106121000,0.0324,0.013523,0.002678,0.000431,0.034201
106122000,0.0324,0.013523,0.002678,0.000431,0.026796
106123000,0.0324,0.013523,0.002678,0.000431,0.019040
106124000,0.0324,0.013523,0.002678,0.000431,0.016219
106125000,0.0324,0.013523,0.002678,0.000431,0.015866
106126000,0.0324,0.013523,0.002678,0.000431,0.013633
106127000,0.0324,0.013523,0.002678,0.000431,0.011048
106128000,0.0324,0.013523,0.002678,0.000431,0.005171
106129000,0.0324,0.013523,0.002678,0.000431,0.005406
106130000,0.0324,0.013523,0.002678,0.000431,0.004701
106131000,0.0324,0.013523,0.002678,0.000431,0.005289
106132000,0.0324,0.013523,0.002678,0.000431,0.005171
106133000,0.0324,0.013523,0.002678,0.000431,0.005171
106134000,0.0324,0.013523,0.002678,0.000431,0.005054
106135000,0.0324,0.013523,0.002678,0.000431,0.006699
106136000,0.0324,0.013523,0.002678,0.000431,0.005876
106137000,0.0324,0.013523,0.002678,0.000431,0.003526
106138000,0.0324,0.013523,0.002678,0.000431,0.003408
106139000,0.0324,0.013523,0.002678,0.000431,0.003173
106140000,0.0324,0.013523,0.002678,0.000431,0.003643
106141000,0.0324,0.013523,0.002678,0.000431,0.002938
106142000,0.0324,0.013523,0.002678,0.000431,0.003761
106143000,0.0324,0.013523,0.002678,0.000431,0.003291
106144000,0.0324,0.013523,0.002678,0.000431,0.003173
106145000,0.0324,0.013523,0.002678,0.000431,0.003643
106146000,0.0324,0.013523,0.002678,0.000431,0.003056
106147000,0.0324,0.013523,0.002678,0.000431,0.003643
106148000,0.0324,0.013523,0.002678,0.000431,0.003173
106149000,0.0324,0.013523,0.002678,0.000431,0.003291
106150000,0.0324,0.013523,0.002678,0.000431,0.003408
106151000,0.0324,0.013523,0.002678,0.000431,0.003408
106152000,0.0324,0.013523,0.002678,0.000431,0.003291
106153000,0.0324,0.013523,0.002678,0.000431,0.003291
106154000,0.0324,0.013523,0.002678,0.000431,0.003526
106155000,0.0324,0.013523,0.002678,0.000431,0.003173
106156000,0.0324,0.013523,0.002678,0.000431,0.003526
106157000,0.0324,0.013523,0.002678,0.000431,0.003291
106158000,0.0324,0.013523,0.002678,0.000431,0.003408
106159000,0.0324,0.013523,0.002678,0.000431,0.003173
106160000,0.0324,0.013523,0.002678,0.000431,0.005171
106161000,0.0324,0.013523,0.002678,0.000431,0.002468
106162000,0.0324,0.013523,0.002678,0.000431,0.002468
106163000,0.0324,0.013523,0.002678,0.000431,0.002586
106164000,0.0324,0.013523,0.002678,0.000431,0.002351
106165000,0.0324,0.013523,0.002678,0.000431,0.002703
106166000,0.0324,0.013523,0.002678,0.000431,0.002233
106167000,0.0324,0.013523,0.002678,0.000431,0.002703
106168000,0.0324,0.013523,0.002678,0.000431,0.002468
106169000,0.0324,0.013523,0.002678,0.000431,0.002586
106170000,0.0324,0.013523,0.002678,0.000431,0.002351
106171000,0.0324,0.013523,0.002678,0.000431,0.002586
106172000,0.0324,0.013523,0.002678,0.000431,0.002586
106173000,0.0324,0.013523,0.002678,0.000431,0.002351
106174000,0.0324,0.013523,0.002678,0.000431,0.002821
106175000,0.0324,0.013523,0.002678,0.000431,0.002233
106176000,0.0324,0.013523,0.002678,0.000431,0.002703
106177000,0.0324,0.013523,0.002678,0.000431,0.002233
106178000,0.0324,0.013523,0.002678,0.000431,0.002703
106179000,0.0324,0.013523,0.002678,0.000431,0.002703
106180000,0.0324,0.013523,0.002678,0.000431,0.002233
106181000,0.0324,0.013523,0.002678,0.000431,0.002821
106182000,0.0324,0.013523,0.002678,0.000431,0.002116
106183000,0.0324,0.013523,0.002678,0.000431,0.002821
106184000,0.0324,0.013523,0.002678,0.000431,0.002351
106185000,0.0324,0.013523,0.002678,0.000431,0.002468
106186000,0.0324,0.013523,0.002678,0.000431,0.002703
106187000,0.0324,0.013523,0.002678,0.000431,0.002351
106188000,0.0324,0.013523,0.002678,0.000431,0.002703
106189000,0.0324,0.013523,0.002678,0.000431,0.002351
106190000,0.0324,0.013523,0.002678,0.000431,0.002586
106191000,0.0324,0.013523,0.002678,0.000431,0.002468
106192000,0.0324,0.013523,0.002678,0.000431,0.002586
106193000,0.0324,0.013523,0.002678,0.000431,0.002468
106194000,0.0324,0.013523,0.002678,0.000431,0.002703
106195000,0.0324,0.013523,0.002678,0.000431,0.002468
106196000,0.0324,0.013523,0.002678,0.000431,0.003291
106197000,0.0324,0.013523,0.002678,0.000431,0.002468
106198000,0.0324,0.013523,0.002678,0.000431,0.001528
106199000,0.0324,0.013523,0.002678,0.000431,0.001880
106200000,0.0324,0.013523,0.002678,0.000431,0.001645
106201000,0.0324,0.013523,0.002678,0.000431,0.001645
106202000,0.0324,0.013523,0.002678,0.000431,0.001645
106203000,0.0324,0.013523,0.002678,0.000431,0.001645
106204000,0.0324,0.013523,0.002678,0.000431,0.001880
106205000,0.0324,0.013523,0.002678,0.000431,0.001528
106206000,0.0324,0.013523,0.002678,0.000431,0.001763
106207000,0.0324,0.013523,0.002678,0.000431,0.001528
106208000,0.0324,0.013523,0.002678,0.000431,0.001763
106209000,0.0324,0.013523,0.002678,0.000431,0.001763
106210000,0.0324,0.013523,0.002678,0.000431,0.001528
106211000,0.0324,0.013523,0.002678,0.000431,0.003173
106212000,0.0324,0.013523,0.002678,0.000431,0.000823
106213000,0.0324,0.013523,0.002678,0.000431,0.000705
106214000,0.0324,0.013523,0.002678,0.000431,0.000940
106215000,0.0324,0.013523,0.002678,0.000431,0.000823
106216000,0.0324,0.013523,0.002678,0.000431,0.000823
106217000,0.0324,0.013523,0.002678,0.000431,0.000823
106218000,0.0324,0.013523,0.002678,0.000431,0.000823
106219000,0.0324,0.013523,0.002678,0.000431,0.000823
106220000,0.0324,0.013523,0.002678,0.000431,0.000940
106221000,0.0324,0.013523,0.002678,0.000431,0.000823
106222000,0.0324,0.013523,0.002678,0.000431,0.000823
106223000,0.0324,0.013523,0.002678,0.000431,0.000705
106224000,0.0324,0.013523,0.002678,0.000431,0.000940
106225000,0.0324,0.013523,0.002678,0.000431,0.000940
106226000,0.0324,0.013523,0.002678,0.000431,0.000705
106227000,0.0324,0.013523,0.002678,0.000431,0.000940
106228000,0.0324,0.013523,0.002678,0.000431,0.000823
106229000,0.0324,0.013523,0.002678,0.000431,0.000940
106230000,0.0324,0.013523,0.002678,0.000431,0.220953
106231000,0.0324,0.013523,0.002678,0.000431,0.645112
106232000,0.0324,0.013523,0.002678,0.000431,0.358343
106233000,0.0324,0.013523,0.002678,0.000431,0.131632
106234000,0.0324,0.013523,0.002678,0.000431,0.141504
106235000,0.0324,0.013523,0.002678,0.000431,0.637238
106236000,0.0324,0.013523,0.002678,0.000431,0.229297
106237000,0.0324,0.013523,0.002678,0.000431,0.281833
106238000,0.0324,0.013523,0.002678,0.000431,0.231531
106239000,0.0324,0.013523,0.002678,0.000431,0.145147
106240000,0.0324,0.013523,0.002678,0.000431,0.161014
106241000,0.0324,0.013523,0.002678,0.000431,0.150789
106242000,0.0324,0.013523,0.002678,0.000431,0.443904
106243000,0.0324,0.013523,0.002678,0.000431,0.083680
106244000,0.0324,0.013523,0.002678,0.000431,0.058999
106245000,0.0324,0.013523,0.002678,0.000431,0.047599
106246000,0.0324,0.013523,0.002678,0.000431,0.032085
106247000,0.0324,0.013523,0.002678,0.000431,0.032908
106248000,0.0324,0.013523,0.002678,0.000431,0.023388
106249000,0.0324,0.013523,0.002678,0.000431,0.022683
106250000,0.0324,0.013523,0.002678,0.000431,0.016219
106251000,0.0324,0.013523,0.002678,0.000431,0.015514
106252000,0.0324,0.013523,0.002678,0.000431,0.016101
106253000,0.0324,0.013523,0.002678,0.000431,0.017982
106254000,0.0324,0.013523,0.002678,0.000431,0.011870
106255000,0.0324,0.013523,0.002678,0.000431,0.010695
106256000,0.0324,0.013523,0.002678,0.000431,0.010107
106257000,0.0324,0.013523,0.002678,0.000431,0.008462
106258000,0.0324,0.013523,0.002678,0.000431,0.011635
106259000,0.0324,0.013523,0.002678,0.000431,0.007522
106260000,0.0324,0.013523,0.002678,0.000431,0.008109
106261000,0.0324,0.013523,0.002678,0.000431,0.006464
106262000,0.0324,0.013523,0.002678,0.000431,0.009990
106263000,0.0324,0.013523,0.002678,0.000431,0.006111
106264000,0.0324,0.013523,0.002678,0.000431,0.006699
106265000,0.0324,0.013523,0.002678,0.000431,0.006699
106266000,0.0324,0.013523,0.002678,0.000431,0.006347
106267000,0.0324,0.013523,0.002678,0.000431,0.006582
106268000,0.0324,0.013523,0.002678,0.000431,0.006934
106269000,0.0324,0.013523,0.002678,0.000431,0.010460
106270000,0.0324,0.013523,0.002678,0.000431,0.005054
106271000,0.0324,0.013523,0.002678,0.000431,0.005171
106272000,0.0324,0.013523,0.002678,0.000431,0.004466
106273000,0.0324,0.013523,0.002678,0.000431,0.005289
106274000,0.0324,0.013523,0.002678,0.000431,0.004819
106275000,0.0324,0.013523,0.002678,0.000431,0.004584
106276000,0.0324,0.013523,0.002678,0.000431,0.005289
106277000,0.0324,0.013523,0.002678,0.000431,0.004819
106278000,0.0324,0.013523,0.002678,0.000431,0.005524
106279000,0.0324,0.013523,0.002678,0.000431,0.004231
106280000,0.0324,0.013523,0.002678,0.000431,0.004349
106281000,0.0324,0.013523,0.002678,0.000431,0.003761
106282000,0.0324,0.013523,0.002678,0.000431,0.004113
106283000,0.0324,0.013523,0.002678,0.000431,0.004113
106284000,0.0324,0.013523,0.002678,0.000431,0.003878
106285000,0.0324,0.013523,0.002678,0.000431,0.004349
106286000,0.0324,0.013523,0.002678,0.000431,0.003996
106287000,0.0324,0.013523,0.002678,0.000431,0.004113
106288000,0.0324,0.013523,0.002678,0.000431,0.004113
106289000,0.0324,0.013523,0.002678,0.000431,0.003761
106290000,0.0324,0.013523,0.002678,0.000431,0.004349
106291000,0.0324,0.013523,0.002678,0.000431,0.004349
106292000,0.0324,0.013523,0.002678,0.000431,0.004113
106293000,0.0324,0.013523,0.002678,0.000431,0.003996
106294000,0.0324,0.013523,0.002678,0.000431,0.004113
106295000,0.0324,0.013523,0.002678,0.000431,0.003878
106296000,0.0324,0.013523,0.002678,0.000431,0.004349
106297000,0.0324,0.013523,0.002678,0.000431,0.004231
106298000,0.0324,0.013523,0.002678,0.000431,0.003878
106299000,0.0324,0.013523,0.002678,0.000431,0.004466
106300000,0.0324,0.013523,0.002678,0.000431,0.003996
106301000,0.0324,0.013523,0.002678,0.000431,0.003878
106302000,0.0324,0.013523,0.002678,0.000431,0.004231
106303000,0.0324,0.013523,0.002678,0.000431,0.004349
106304000,0.0324,0.013523,0.002678,0.000431,0.003996
106305000,0.0324,0.013523,0.002678,0.000431,0.004349
106306000,0.0324,0.013523,0.002678,0.000431,0.003878
106307000,0.0324,0.013523,0.002678,0.000431,0.004231
106308000,0.0324,0.013523,0.002678,0.000431,0.004701
106309000,0.0324,0.013523,0.002678,0.000431,0.003291
106310000,0.0324,0.013523,0.002678,0.000431,0.003408
106311000,0.0324,0.013523,0.002678,0.000431,0.004466
106312000,0.0324,0.013523,0.002678,0.000431,0.003761
106313000,0.0324,0.013523,0.002678,0.000431,0.002468
106314000,0.0324,0.013523,0.002678,0.000431,0.002586
106315000,0.0324,0.013523,0.002678,0.000431,0.002703
106316000,0.0324,0.013523,0.002678,0.000431,0.002468
106317000,0.0324,0.013523,0.002678,0.000431,0.002703
106318000,0.0324,0.013523,0.002678,0.000431,0.002586
106319000,0.0324,0.013523,0.002678,0.000431,0.002703
106320000,0.0324,0.013523,0.002678,0.000431,0.002468
106321000,0.0324,0.013523,0.002678,0.000431,0.002468
106322000,0.0324,0.013523,0.002678,0.000431,0.002703
106323000,0.0324,0.013523,0.002678,0.000431,0.002703
106324000,0.0324,0.013523,0.002678,0.000431,0.002351
106325000,0.0324,0.013523,0.002678,0.000431,0.002586
106326000,0.0324,0.013523,0.002678,0.000431,0.002821
106327000,0.0324,0.013523,0.002678,0.000431,0.002703
106328000,0.0324,0.013523,0.002678,0.000431,0.004936
106329000,0.0324,0.013523,0.002678,0.000431,0.001645
106330000,0.0324,0.013523,0.002678,0.000431,0.001880
106331000,0.0324,0.013523,0.002678,0.000431,0.001763
106332000,0.0324,0.013523,0.002678,0.000431,0.001528
106333000,0.0324,0.013523,0.002678,0.000431,0.001880
106334000,0.0324,0.013523,0.002678,0.000431,0.003291
106335000,0.0324,0.013523,0.002678,0.000431,0.000940
106336000,0.0324,0.013523,0.002678,0.000431,0.000823
106337000,0.0324,0.013523,0.002678,0.000431,0.000940
106338000,0.0324,0.013523,0.002678,0.000431,0.000823
106339000,0.0324,0.013523,0.002678,0.000431,0.000823
106340000,0.0324,0.013523,0.002678,0.000431,0.001880
106341000,0.0324,0.013523,0.002678,0.000431,0.371154
106342000,0.0324,0.013523,0.002678,0.000431,0.714689
106343000,0.0324,0.013523,0.002678,0.000431,0.137743
106344000,0.0324,0.013523,0.002678,0.000431,0.133042
106345000,0.0324,0.013523,0.002678,0.000431,0.138566
106346000,0.0324,0.013523,0.002678,0.000431,0.589051
106347000,0.0324,0.013523,0.002678,0.000431,0.239640
106348000,0.0324,0.013523,0.002678,0.000431,0.276426
106349000,0.0324,0.013523,0.002678,0.000431,0.231883
106350000,0.0324,0.013523,0.002678,0.000431,0.144207
106351000,0.0324,0.013523,0.002678,0.000431,0.164304
106352000,0.0324,0.013523,0.002678,0.000431,0.096138
106353000,0.0324,0.013523,0.002678,0.000431,0.462003
106354000,0.0324,0.013523,0.002678,0.000431,0.143737
106355000,0.0324,0.013523,0.002678,0.000431,0.076276
106356000,0.0324,0.013523,0.002678,0.000431,0.061115
106357000,0.0324,0.013523,0.002678,0.000431,0.059822
106358000,0.0324,0.013523,0.002678,0.000431,0.045131
106359000,0.0324,0.013523,0.002678,0.000431,0.035376
106360000,0.0324,0.013523,0.002678,0.000431,0.033260
106361000,0.0324,0.013523,0.002678,0.000431,0.031498
106362000,0.0324,0.013523,0.002678,0.000431,0.024328
106363000,0.0324,0.013523,0.002678,0.000431,0.023153
106364000,0.0324,0.013523,0.002678,0.000431,0.018569
106365000,0.0324,0.013523,0.002678,0.000431,0.024328
106366000,0.0324,0.013523,0.002678,0.000431,0.018687
106367000,0.0324,0.013523,0.002678,0.000431,0.020097
106368000,0.0324,0.013523,0.002678,0.000431,0.016924
106369000,0.0324,0.013523,0.002678,0.000431,0.015044
106370000,0.0324,0.013523,0.002678,0.000431,0.012928
106371000,0.0324,0.013523,0.002678,0.000431,0.015514
106372000,0.0324,0.013523,0.002678,0.000431,0.012576
106373000,0.0324,0.013523,0.002678,0.000431,0.011988
106374000,0.0324,0.013523,0.002678,0.000431,0.010930
106375000,0.0324,0.013523,0.002678,0.000431,0.013633
106376000,0.0324,0.013523,0.002678,0.000431,0.013281
106377000,0.0324,0.013523,0.002678,0.000431,0.011753
106378000,0.0324,0.013523,0.002678,0.000431,0.010342
106379000,0.0324,0.013523,0.002678,0.000431,0.009285
106380000,0.0324,0.013523,0.002678,0.000431,0.012576
106381000,0.0324,0.013523,0.002678,0.000431,0.008697
106382000,0.0324,0.013523,0.002678,0.000431,0.008932
106383000,0.0324,0.013523,0.002678,0.000431,0.007992
106384000,0.0324,0.013523,0.002678,0.000431,0.010930
106385000,0.0324,0.013523,0.002678,0.000431,0.008109
106386000,0.0324,0.013523,0.002678,0.000431,0.007169
106387000,0.0324,0.013523,0.002678,0.000431,0.008109
106388000,0.0324,0.013523,0.002678,0.000431,0.007522
106389000,0.0324,0.013523,0.002678,0.000431,0.009872
106390000,0.0324,0.013523,0.002678,0.000431,0.006934
106391000,0.0324,0.013523,0.002678,0.000431,0.006464
106392000,0.0324,0.013523,0.002678,0.000431,0.007052
106393000,0.0324,0.013523,0.002678,0.000431,0.006699
106394000,0.0324,0.013523,0.002678,0.000431,0.006699
106395000,0.0324,0.013523,0.002678,0.000431,0.009755
106396000,0.0324,0.013523,0.002678,0.000431,0.006347
106397000,0.0324,0.013523,0.002678,0.000431,0.005524
106398000,0.0324,0.013523,0.002678,0.000431,0.004584
106399000,0.0324,0.013523,0.002678,0.000431,0.005641
106400000,0.0324,0.013523,0.002678,0.000431,0.005524
106401000,0.0324,0.013523,0.002678,0.000431,0.005054
106402000,0.0324,0.013523,0.002678,0.000431,0.005171
106403000,0.0324,0.013523,0.002678,0.000431,0.005524
106404000,0.0324,0.013523,0.002678,0.000431,0.005641
106405000,0.0324,0.013523,0.002678,0.000431,0.004701
106406000,0.0324,0.013523,0.002678,0.000431,0.007287
106407000,0.0324,0.013523,0.002678,0.000431,0.006817
106408000,0.0324,0.013523,0.002678,0.000431,0.003761
106409000,0.0324,0.013523,0.002678,0.000431,0.003291
106410000,0.0324,0.013523,0.002678,0.000431,0.003291
106411000,0.0324,0.013523,0.002678,0.000431,0.003761
106412000,0.0324,0.013523,0.002678,0.000431,0.003526
106413000,0.0324,0.013523,0.002678,0.000431,0.003173
106414000,0.0324,0.013523,0.002678,0.000431,0.003408
106415000,0.0324,0.013523,0.002678,0.000431,0.003643
106416000,0.0324,0.013523,0.002678,0.000431,0.003408
106417000,0.0324,0.013523,0.002678,0.000431,0.003408
106418000,0.0324,0.013523,0.002678,0.000431,0.003643
106419000,0.0324,0.013523,0.002678,0.000431,0.003526
106420000,0.0324,0.013523,0.002678,0.000431,0.003173
106421000,0.0324,0.013523,0.002678,0.000431,0.003526
106422000,0.0324,0.013523,0.002678,0.000431,0.003408
106423000,0.0324,0.013523,0.002678,0.000431,0.003761
106424000,0.0324,0.013523,0.002678,0.000431,0.003173
106425000,0.0324,0.013523,0.002678,0.000431,0.003526
106426000,0.0324,0.013523,0.002678,0.000431,0.003643
106427000,0.0324,0.013523,0.002678,0.000431,0.003291
106428000,0.0324,0.013523,0.002678,0.000431,0.003526
106429000,0.0324,0.013523,0.002678,0.000431,0.003408
106430000,0.0324,0.013523,0.002678,0.000431,0.003408
106431000,0.0324,0.013523,0.002678,0.000431,0.003526
106432000,0.0324,0.013523,0.002678,0.000431,0.003408
106433000,0.0324,0.013523,0.002678,0.000431,0.005406
106434000,0.0324,0.013523,0.002678,0.000431,0.002586
106435000,0.0324,0.013523,0.002678,0.000431,0.002468
106436000,0.0324,0.013523,0.002678,0.000431,0.002703
106437000,0.0324,0.013523,0.002678,0.000431,0.002351
106438000,0.0324,0.013523,0.002678,0.000431,0.002821
106439000,0.0324,0.013523,0.002678,0.000431,0.002468
106440000,0.0324,0.013523,0.002678,0.000431,0.002468
106441000,0.0324,0.013523,0.002678,0.000431,0.001645
106442000,0.0324,0.013523,0.002678,0.000431,0.002821
106443000,0.0324,0.013523,0.002678,0.000431,0.002233
106444000,0.0324,0.013523,0.002678,0.000431,0.000823
106445000,0.0324,0.013523,0.002678,0.000431,0.000940
106446000,0.0324,0.013523,0.002678,0.000431,0.000823
106447000,0.0324,0.013523,0.002678,0.000431,0.000823
106448000,0.0324,0.013523,0.002678,0.000431,0.000823
106449000,0.0324,0.013523,0.002678,0.000431,0.000823
106450000,0.0324,0.013523,0.002678,0.000431,0.000823
106451000,0.0324,0.013523,0.002678,0.000431,0.000823
106452000,0.0324,0.013523,0.002678,0.000431,0.000940
106453000,0.0324,0.013523,0.002678,0.000431,0.000705
106454000,0.0324,0.013523,0.002678,0.000431,0.000940
106455000,0.0324,0.013523,0.002678,0.000431,0.000705
106456000,0.0324,0.013523,0.002678,0.000431,0.000940
106457000,0.0324,0.013523,0.002678,0.000431,0.000823
106458000,0.0324,0.013523,0.002678,0.000431,0.000823
106459000,0.0324,0.013523,0.002678,0.000431,0.000940
106460000,0.0324,0.013523,0.002678,0.000431,0.000705
106461000,0.0324,0.013523,0.002678,0.000431,0.000940
106462000,0.0324,0.013523,0.002678,0.000431,0.000823
106463000,0.0324,0.013523,0.002678,0.000431,0.000823
106464000,0.0324,0.013523,0.002678,0.000431,0.000823
106465000,0.0324,0.013523,0.002678,0.000431,0.000823
106466000,0.0324,0.013523,0.002678,0.000431,0.000940
106467000,0.0324,0.013523,0.002678,0.000431,0.000705
106468000,0.0324,0.013523,0.002678,0.000431,0.000940
106469000,0.0324,0.013523,0.002678,0.000431,0.000823
106470000,0.0324,0.013523,0.002678,0.000431,0.000823
106471000,0.0324,0.013523,0.002678,0.000431,0.000823
106472000,0.0324,0.013523,0.002678,0.000431,0.000823
106473000,0.0324,0.013523,0.002678,0.000431,0.000823
106474000,0.0324,0.013523,0.002678,0.000431,0.000823
106475000,0.0324,0.013523,0.002678,0.000431,0.000823
106476000,0.0324,0.013523,0.002678,0.000431,0.000940
106477000,0.0324,0.013523,0.002678,0.000431,0.000823
106478000,0.0324,0.013523,0.002678,0.000431,0.000823
106479000,0.0324,0.013523,0.002678,0.000431,0.000823
106480000,0.0324,0.013523,0.002678,0.000431,0.000705
106481000,0.0324,0.013523,0.002678,0.000431,0.000940
106482000,0.0324,0.013523,0.002678,0.000431,0.000940
106483000,0.0324,0.013523,0.002678,0.000431,0.000705
106484000,0.0324,0.013523,0.002678,0.000431,0.000940
106485000,0.0324,0.013523,0.002678,0.000431,0.000705
106486000,0.0324,0.013523,0.002678,0.000431,0.000940
106487000,0.0324,0.013523,0.002678,0.000431,0.000823
106488000,0.0324,0.013523,0.002678,0.000431,0.000823
106489000,0.0324,0.013523,0.002678,0.000431,0.000940
106490000,0.0324,0.013523,0.002678,0.000431,0.000705
106491000,0.0324,0.013523,0.002678,0.000431,0.000940
106492000,0.0324,0.013523,0.002678,0.000431,0.000823
106493000,0.0324,0.013523,0.002678,0.000431,0.000823
106494000,0.0324,0.013523,0.002678,0.000431,0.000823
106495000,0.0324,0.013523,0.002678,0.000431,0.000823
106496000,0.0324,0.013523,0.002678,0.000431,0.000940
106497000,0.0324,0.013523,0.002678,0.000431,0.000705
106498000,0.0324,0.013523,0.002678,0.000431,0.000940
106499000,0.0324,0.013523,0.002678,0.000431,0.000823
106500000,0.0324,0.013523,0.002678,0.000431,0.000823
106501000,0.0324,0.013523,0.002678,0.000431,0.000823
106502000,0.0324,0.013523,0.002678,0.000431,0.000823
106503000,0.0324,0.013523,0.002678,0.000431,0.000705
106504000,0.0324,0.013523,0.002678,0.000431,0.000940
106505000,0.0324,0.013523,0.002678,0.000431,0.000940
106506000,0.0324,0.013523,0.002678,0.000431,0.000705
106507000,0.0324,0.013523,0.002678,0.000431,0.000940
106508000,0.0324,0.013523,0.002678,0.000431,0.000705
106509000,0.0324,0.013523,0.002678,0.000431,0.000940
106510000,0.0324,0.013523,0.002678,0.000431,0.000940
106511000,0.0324,0.013523,0.002678,0.000431,0.000705
106512000,0.0324,0.013523,0.002678,0.000431,0.000940
106513000,0.0324,0.013523,0.002678,0.000431,0.000705
106514000,0.0324,0.013523,0.002678,0.000431,0.000940
106515000,0.0324,0.013523,0.002678,0.000431,0.000823
106516000,0.0324,0.013523,0.002678,0.000431,0.000823
106517000,0.0324,0.013523,0.002678,0.000431,0.000823
106518000,0.0324,0.013523,0.002678,0.000431,0.000823
106519000,0.0324,0.013523,0.002678,0.000431,0.000940
106520000,0.0324,0.013523,0.002678,0.000431,0.000705
106521000,0.0324,0.013523,0.002678,0.000431,0.000940
106522000,0.0324,0.013523,0.002678,0.000431,0.000823
106523000,0.0324,0.013523,0.002678,0.000431,0.000705
106524000,0.0324,0.013523,0.002678,0.000431,0.000940
106525000,0.0324,0.013523,0.002678,0.000431,0.000823
106526000,0.0324,0.013523,0.002678,0.000431,0.000823
106527000,0.0324,0.013523,0.002678,0.000431,0.000823
106528000,0.0324,0.013523,0.002678,0.000431,0.000823
106529000,0.0324,0.013523,0.002678,0.000431,0.000823
106530000,0.0324,0.013523,0.002678,0.000431,0.000940
106531000,0.0324,0.013523,0.002678,0.000431,0.000823
106532000,0.0324,0.013523,0.002678,0.000431,0.000823
106533000,0.0324,0.013523,0.002678,0.000431,0.000705
106534000,0.0324,0.013523,0.002678,0.000431,0.000940
106535000,0.0324,0.013523,0.002678,0.000431,0.000940
106536000,0.0324,0.013523,0.002678,0.000431,0.000705
106537000,0.0324,0.013523,0.002678,0.000431,0.000940
106538000,0.0324,0.013523,0.002678,0.000431,0.000705
106539000,0.0324,0.013523,0.002678,0.000431,0.000940
106540000,0.0324,0.013523,0.002678,0.000431,0.000940
106541000,0.0324,0.013523,0.002678,0.000431,0.000705
106542000,0.0324,0.013523,0.002678,0.000431,0.000940
106543000,0.0324,0.013523,0.002678,0.000431,0.000705
106544000,0.0324,0.013523,0.002678,0.000431,0.000940
106545000,0.0324,0.013523,0.002678,0.000431,0.000823
106546000,0.0324,0.013523,0.002678,0.000431,0.000823
106547000,0.0324,0.013523,0.002678,0.000431,0.000823
106548000,0.0324,0.013523,0.002678,0.000431,0.000823
106549000,0.0324,0.013523,0.002678,0.000431,0.000940
106550000,0.0324,0.013523,0.002678,0.000431,0.000705
106551000,0.0324,0.013523,0.002678,0.000431,0.000940
106552000,0.0324,0.013523,0.002678,0.000431,0.000823
106553000,0.0324,0.013523,0.002678,0.000431,0.000823
106554000,0.0324,0.013523,0.002678,0.000431,0.000823
106555000,0.0324,0.013523,0.002678,0.000431,0.000823
106556000,0.0324,0.013523,0.002678,0.000431,0.000705
106557000,0.0324,0.013523,0.002678,0.000431,0.000940
106558000,0.0324,0.013523,0.002678,0.000431,0.000940
106559000,0.0324,0.013523,0.002678,0.000431,0.000705
106560000,0.0324,0.013523,0.002678,0.000431,0.000940
106561000,0.0324,0.013523,0.002678,0.000431,0.000705
106562000,0.0324,0.013523,0.002678,0.000431,0.000940
106563000,0.0324,0.013523,0.002678,0.000431,0.000823
106564000,0.0324,0.013523,0.002678,0.000431,0.000823
106565000,0.0324,0.013523,0.002678,0.000431,0.000940
106566000,0.0324,0.013523,0.002678,0.000431,0.000705
106567000,0.0324,0.013523,0.002678,0.000431,0.000940
106568000,0.0324,0.013523,0.002678,0.000431,0.000823
106569000,0.0324,0.013523,0.002678,0.000431,0.000823
106570000,0.0324,0.013523,0.002678,0.000431,0.000823
106571000,0.0324,0.013523,0.002678,0.000431,0.000823
106572000,0.0324,0.013523,0.002678,0.000431,0.000823
106573000,0.0324,0.013523,0.002678,0.000431,0.000823
106574000,0.0324,0.013523,0.002678,0.000431,0.000940
106575000,0.0324,0.013523,0.002678,0.000431,0.000705
106576000,0.0324,0.013523,0.002678,0.000431,0.000823
106577000,0.0324,0.013523,0.002678,0.000431,0.000940
106578000,0.0324,0.013523,0.002678,0.000431,0.000823
106579000,0.0324,0.013523,0.002678,0.000431,0.000823
106580000,0.0324,0.013523,0.002678,0.000431,0.000823
106581000,0.0324,0.013523,0.002678,0.000431,0.000823
106582000,0.0324,0.013523,0.002678,0.000431,0.000823
106583000,0.0324,0.013523,0.002678,0.000431,0.000940
106584000,0.0324,0.013523,0.002678,0.000431,0.000705
106585000,0.0324,0.013523,0.002678,0.000431,0.000940
106586000,0.0324,0.013523,0.002678,0.000431,0.000705
106587000,0.0324,0.013523,0.002678,0.000431,0.000940
106588000,0.0324,0.013523,0.002678,0.000431,0.000940
106589000,0.0324,0.013523,0.002678,0.000431,0.000705
106590000,0.0324,0.013523,0.002678,0.000431,0.000940
106591000,0.0324,0.013523,0.002678,0.000431,0.000705
106592000,0.0324,0.013523,0.002678,0.000431,0.000940
106593000,0.0324,0.013523,0.002678,0.000431,0.000823
106594000,0.0324,0.013523,0.002678,0.000431,0.000823
106595000,0.0324,0.013523,0.002678,0.000431,0.000940
106596000,0.0324,0.013523,0.002678,0.000431,0.000705
106597000,0.0324,0.013523,0.002678,0.000431,0.000940
106598000,0.0324,0.013523,0.002678,0.000431,0.000823
106599000,0.0324,0.013523,0.002678,0.000431,0.000823
106600000,0.0324,0.013523,0.002678,0.000431,0.000823
106601000,0.0324,0.013523,0.002678,0.000431,0.000823
106602000,0.0324,0.013523,0.002678,0.000431,0.000823
106603000,0.0324,0.013523,0.002678,0.000431,0.000823
106604000,0.0324,0.013523,0.002678,0.000431,0.000940
106605000,0.0324,0.013523,0.002678,0.000431,0.000823
106606000,0.0324,0.013523,0.002678,0.000431,0.000823
106607000,0.0324,0.013523,0.002678,0.000431,0.000823
106608000,0.0324,0.013523,0.002678,0.000431,0.000823
106609000,0.0324,0.013523,0.002678,0.000431,0.000823
106610000,0.0324,0.013523,0.002678,0.000431,0.000823
106611000,0.0324,0.013523,0.002678,0.000431,0.000940
106612000,0.0324,0.013523,0.002678,0.000431,0.000705
106613000,0.0324,0.013523,0.002678,0.000431,0.000940
106614000,0.0324,0.013523,0.002678,0.000431,0.000705
106615000,0.0324,0.013523,0.002678,0.000431,0.000940
106616000,0.0324,0.013523,0.002678,0.000431,0.000940
106617000,0.0324,0.013523,0.002678,0.000431,0.000705
106618000,0.0324,0.013523,0.002678,0.000431,0.000940
106619000,0.0324,0.013523,0.002678,0.000431,0.000705
106620000,0.0324,0.013523,0.002678,0.000431,0.000940
106621000,0.0324,0.013523,0.002678,0.000431,0.000823
106622000,0.0324,0.013523,0.002678,0.000431,0.000823
106623000,0.0324,0.013523,0.002678,0.000431,0.000940
106624000,0.0324,0.013523,0.002678,0.000431,0.000705
106625000,0.0324,0.013523,0.002678,0.000431,0.000940
106626000,0.0324,0.013523,0.002678,0.000431,0.000823
106627000,0.0324,0.013523,0.002678,0.000431,0.000823
106628000,0.0324,0.013523,0.002678,0.000431,0.000823
106629000,0.0324,0.013523,0.002678,0.000431,0.000823
106630000,0.0324,0.013523,0.002678,0.000431,0.000940
106631000,0.0324,0.013523,0.002678,0.000431,0.000705
106632000,0.0324,0.013523,0.002678,0.000431,0.000940
106633000,0.0324,0.013523,0.002678,0.000431,0.000823
106634000,0.0324,0.013523,0.002678,0.000431,0.000823
106635000,0.0324,0.013523,0.002678,0.000431,0.000823
106636000,0.0324,0.013523,0.002678,0.000431,0.000823
106637000,0.0324,0.013523,0.002678,0.000431,0.000823
106638000,0.0324,0.013523,0.002678,0.000431,0.000823
106639000,0.0324,0.013523,0.002678,0.000431,0.000823
106640000,0.0324,0.013523,0.002678,0.000431,0.000823
106641000,0.0324,0.013523,0.002678,0.000431,0.000940
106642000,0.0324,0.013523,0.002678,0.000431,0.000823
106643000,0.0324,0.013523,0.002678,0.000431,0.000823
106644000,0.0324,0.013523,0.002678,0.000431,0.000705
106645000,0.0324,0.013523,0.002678,0.000431,0.000940
106646000,0.0324,0.013523,0.002678,0.000431,0.000940
106647000,0.0324,0.013523,0.002678,0.000431,0.000705
106648000,0.0324,0.013523,0.002678,0.000431,0.000940
106649000,0.0324,0.013523,0.002678,0.000431,0.000705
106650000,0.0324,0.013523,0.002678,0.000431,0.000940
106651000,0.0324,0.013523,0.002678,0.000431,0.000823
106652000,0.0324,0.013523,0.002678,0.000431,0.000823
106653000,0.0324,0.013523,0.002678,0.000431,0.000940
106654000,0.0324,0.013523,0.002678,0.000431,0.000705
106655000,0.0324,0.013523,0.002678,0.000431,0.000940
106656000,0.0324,0.013523,0.002678,0.000431,0.000823
106657000,0.0324,0.013523,0.002678,0.000431,0.000823
106658000,0.0324,0.013523,0.002678,0.000431,0.000823
106659000,0.0324,0.013523,0.002678,0.000431,0.000823
106660000,0.0324,0.013523,0.002678,0.000431,0.000940
106661000,0.0324,0.013523,0.002678,0.000431,0.000705
106662000,0.0324,0.013523,0.002678,0.000431,0.000940
106663000,0.0324,0.013523,0.002678,0.000431,0.000823
106664000,0.0324,0.013523,0.002678,0.000431,0.000823
106665000,0.0324,0.013523,0.002678,0.000431,0.000823
106666000,0.0324,0.013523,0.002678,0.000431,0.000823
106667000,0.0324,0.013523,0.002678,0.000431,0.000940
106668000,0.0324,0.013523,0.002678,0.000431,0.000705
106669000,0.0324,0.013523,0.002678,0.000431,0.000940
106670000,0.0324,0.013523,0.002678,0.000431,0.000823
106671000,0.0324,0.013523,0.002678,0.000431,0.000823
106672000,0.0324,0.013523,0.002678,0.000431,0.000705
106673000,0.0324,0.013523,0.002678,0.000431,0.000940
106674000,0.0324,0.013523,0.002678,0.000431,0.000940
106675000,0.0324,0.013523,0.002678,0.000431,0.000705
106676000,0.0324,0.013523,0.002678,0.000431,0.000940
106677000,0.0324,0.013523,0.002678,0.000431,0.000705
106678000,0.0324,0.013523,0.002678,0.000431,0.000940
106679000,0.0324,0.013523,0.002678,0.000431,0.000940
106680000,0.0324,0.013523,0.002678,0.000431,0.000705
106681000,0.0324,0.013523,0.002678,0.000431,0.000940
106682000,0.0324,0.013523,0.002678,0.000431,0.000705
106683000,0.0324,0.013523,0.002678,0.000431,0.000940
106684000,0.0324,0.013523,0.002678,0.000431,0.000823
106685000,0.0324,0.013523,0.002678,0.000431,0.000823
106686000,0.0324,0.013523,0.002678,0.000431,0.000823
106687000,0.0324,0.013523,0.002678,0.000431,0.000823
106688000,0.0324,0.013523,0.002678,0.000431,0.000940
106689000,0.0324,0.013523,0.002678,0.000431,0.000705
106690000,0.0324,0.013523,0.002678,0.000431,0.000940
106691000,0.0324,0.013523,0.002678,0.000431,0.000823
106692000,0.0324,0.013523,0.002678,0.000431,0.000823
106693000,0.0324,0.013523,0.002678,0.000431,0.000823
106694000,0.0324,0.013523,0.002678,0.000431,0.000823
106695000,0.0324,0.013523,0.002678,0.000431,0.000823
106696000,0.0324,0.013523,0.002678,0.000431,0.000823
106697000,0.0324,0.013523,0.002678,0.000431,0.000823
106698000,0.0324,0.013523,0.002678,0.000431,0.000823
106699000,0.0324,0.013523,0.002678,0.000431,0.000940
106700000,0.0324,0.013523,0.002678,0.000431,0.000823
106701000,0.0324,0.013523,0.002678,0.000431,0.000823
106702000,0.0324,0.013523,0.002678,0.000431,0.000705
106703000,0.0324,0.013523,0.002678,0.000431,0.000940
106704000,0.0324,0.013523,0.002678,0.000431,0.000940
106705000,0.0324,0.013523,0.002678,0.000431,0.000705
106706000,0.0324,0.013523,0.002678,0.000431,0.000940
106707000,0.0324,0.013523,0.002678,0.000431,0.000705
106708000,0.0324,0.013523,0.002678,0.000431,0.000940
106709000,0.0324,0.013523,0.002678,0.000431,0.000823
106710000,0.0324,0.013523,0.002678,0.000431,0.000823
106711000,0.0324,0.013523,0.002678,0.000431,0.000940
106712000,0.0324,0.013523,0.002678,0.000431,0.000705
106713000,0.0324,0.013523,0.002678,0.000431,0.000940
106714000,0.0324,0.013523,0.002678,0.000431,0.000823
106715000,0.0324,0.013523,0.002678,0.000431,0.000823
106716000,0.0324,0.013523,0.002678,0.000431,0.000823
106717000,0.0324,0.013523,0.002678,0.000431,0.000823
106718000,0.0324,0.013523,0.002678,0.000431,0.000940
106719000,0.0324,0.013523,0.002678,0.000431,0.000705
106720000,0.0324,0.013523,0.002678,0.000431,0.000940
106721000,0.0324,0.013523,0.002678,0.000431,0.000823
106722000,0.0324,0.013523,0.002678,0.000431,0.000823
106723000,0.0324,0.013523,0.002678,0.000431,0.000823
106724000,0.0324,0.013523,0.002678,0.000431,0.000823
106725000,0.0324,0.013523,0.002678,0.000431,0.000940
106726000,0.0324,0.013523,0.002678,0.000431,0.000705
106727000,0.0324,0.013523,0.002678,0.000431,0.000940
106728000,0.0324,0.013523,0.002678,0.000431,0.000823
106729000,0.0324,0.013523,0.002678,0.000431,0.000823
106730000,0.0324,0.013523,0.002678,0.000431,0.000705
106731000,0.0324,0.013523,0.002678,0.000431,0.000940
106732000,0.0324,0.013523,0.002678,0.000431,0.000940
106733000,0.0324,0.013523,0.002678,0.000431,0.000705
106734000,0.0324,0.013523,0.002678,0.000431,0.000940
106735000,0.0324,0.013523,0.002678,0.000431,0.000705
106736000,0.0324,0.013523,0.002678,0.000431,0.000940
106737000,0.0324,0.013523,0.002678,0.000431,0.000940
106738000,0.0324,0.013523,0.002678,0.000431,0.000705
106739000,0.0324,0.013523,0.002678,0.000431,0.000940
106740000,0.0324,0.013523,0.002678,0.000431,0.000705
106741000,0.0324,0.013523,0.002678,0.000431,0.000940
106742000,0.0324,0.013523,0.002678,0.000431,0.000823
106743000,0.0324,0.013523,0.002678,0.000431,0.000823
106744000,0.0324,0.013523,0.002678,0.000431,0.000823
106745000,0.0324,0.013523,0.002678,0.000431,0.000823
106746000,0.0324,0.013523,0.002678,0.000431,0.000940
106747000,0.0324,0.013523,0.002678,0.000431,0.000823
106748000,0.0324,0.013523,0.002678,0.000431,0.000823
106749000,0.0324,0.013523,0.002678,0.000431,0.000823
106750000,0.0324,0.013523,0.002678,0.000431,0.000823
106751000,0.0324,0.013523,0.002678,0.000431,0.000823
106752000,0.0324,0.013523,0.002678,0.000431,0.000823
106753000,0.0324,0.013523,0.002678,0.000431,0.000940
106754000,0.0324,0.013523,0.002678,0.000431,0.000705
106755000,0.0324,0.013523,0.002678,0.000431,0.000823
106756000,0.0324,0.013523,0.002678,0.000431,0.000940
106757000,0.0324,0.013523,0.002678,0.000431,0.000823
106758000,0.0324,0.013523,0.002678,0.000431,0.000823
106759000,0.0324,0.013523,0.002678,0.000431,0.000823
106760000,0.0324,0.013523,0.002678,0.000431,0.000823
106761000,0.0324,0.013523,0.002678,0.000431,0.000823
106762000,0.0324,0.013523,0.002678,0.000431,0.000940
106763000,0.0324,0.013523,0.002678,0.000431,0.000823
106764000,0.0324,0.013523,0.002678,0.000431,0.000823
106765000,0.0324,0.013523,0.002678,0.000431,0.000705
106766000,0.0324,0.013523,0.002678,0.000431,0.000940
106767000,0.0324,0.013523,0.002678,0.000431,0.000940
106768000,0.0324,0.013523,0.002678,0.000431,0.000705
106769000,0.0324,0.013523,0.002678,0.000431,0.000940
106770000,0.0324,0.013523,0.002678,0.000431,0.000705
106771000,0.0324,0.013523,0.002678,0.000431,0.000940
106772000,0.0324,0.013523,0.002678,0.000431,0.000823
106773000,0.0324,0.013523,0.002678,0.000431,0.000823
106774000,0.0324,0.013523,0.002678,0.000431,0.000705
106775000,0.0324,0.013523,0.002678,0.000431,0.000940
106776000,0.0324,0.013523,0.002678,0.000431,0.000940
106777000,0.0324,0.013523,0.002678,0.000431,0.000705
106778000,0.0324,0.013523,0.002678,0.000431,0.000940
106779000,0.0324,0.013523,0.002678,0.000431,0.000705
106780000,0.0324,0.013523,0.002678,0.000431,0.000940
106781000,0.0324,0.013523,0.002678,0.000431,0.000940
106782000,0.0324,0.013523,0.002678,0.000431,0.000705
106783000,0.0324,0.013523,0.002678,0.000431,0.000940
106784000,0.0324,0.013523,0.002678,0.000431,0.000705
106785000,0.0324,0.013523,0.002678,0.000431,0.000940
106786000,0.0324,0.013523,0.002678,0.000431,0.000823
106787000,0.0324,0.013523,0.002678,0.000431,0.000823
106788000,0.0324,0.013523,0.002678,0.000431,0.000823
106789000,0.0324,0.013523,0.002678,0.000431,0.000823
106790000,0.0324,0.013523,0.002678,0.000431,0.000940
106791000,0.0324,0.013523,0.002678,0.000431,0.000823
106792000,0.0324,0.013523,0.002678,0.000431,0.000823
106793000,0.0324,0.013523,0.002678,0.000431,0.000823
106794000,0.0324,0.013523,0.002678,0.000431,0.000823
106795000,0.0324,0.013523,0.002678,0.000431,0.000823
106796000,0.0324,0.013523,0.002678,0.000431,0.000823
106797000,0.0324,0.013523,0.002678,0.000431,0.000940
106798000,0.0324,0.013523,0.002678,0.000431,0.000705
106799000,0.0324,0.013523,0.002678,0.000431,0.000823
106800000,0.0324,0.013523,0.002678,0.000431,0.000940
106801000,0.0324,0.013523,0.002678,0.000431,0.000823
106802000,0.0324,0.013523,0.002678,0.000431,0.000823
106803000,0.0324,0.013523,0.002678,0.000431,0.000823
106804000,0.0324,0.013523,0.002678,0.000431,0.000823
106805000,0.0324,0.013523,0.002678,0.000431,0.000823
106806000,0.0324,0.013523,0.002678,0.000431,0.000940
106807000,0.0324,0.013523,0.002678,0.000431,0.000823
106808000,0.0324,0.013523,0.002678,0.000431,0.000823
106809000,0.0324,0.013523,0.002678,0.000431,0.000705
106810000,0.0324,0.013523,0.002678,0.000431,0.000940
106811000,0.0324,0.013523,0.002678,0.000431,0.000940
106812000,0.0324,0.013523,0.002678,0.000431,0.000705
106813000,0.0324,0.013523,0.002678,0.000431,0.000940
106814000,0.0324,0.013523,0.002678,0.000431,0.000705
106815000,0.0324,0.013523,0.002678,0.000431,0.000940
106816000,0.0324,0.013523,0.002678,0.000431,0.000940
106817000,0.0324,0.013523,0.002678,0.000431,0.000705
106818000,0.0324,0.013523,0.002678,0.000431,0.000940
106819000,0.0324,0.013523,0.002678,0.000431,0.000705
106820000,0.0324,0.013523,0.002678,0.000431,0.000940
106821000,0.0324,0.013523,0.002678,0.000431,0.000823
106822000,0.0324,0.013523,0.002678,0.000431,0.000823
106823000,0.0324,0.013523,0.002678,0.000431,0.000823
106824000,0.0324,0.013523,0.002678,0.000431,0.000823
106825000,0.0324,0.013523,0.002678,0.000431,0.000940
106826000,0.0324,0.013523,0.002678,0.000431,0.000705
106827000,0.0324,0.013523,0.002678,0.000431,0.000940
106828000,0.0324,0.013523,0.002678,0.000431,0.000823
106829000,0.0324,0.013523,0.002678,0.000431,0.000823
106830000,0.0324,0.013523,0.002678,0.000431,0.000823
106831000,0.0324,0.013523,0.002678,0.000431,0.000823
106832000,0.0324,0.013523,0.002678,0.000431,0.000940
106833000,0.0324,0.013523,0.002678,0.000431,0.000705
106834000,0.0324,0.013523,0.002678,0.000431,0.000940
106835000,0.0324,0.013523,0.002678,0.000431,0.000823
106836000,0.0324,0.013523,0.002678,0.000431,0.000823
106837000,0.0324,0.013523,0.002678,0.000431,0.000705
106838000,0.0324,0.013523,0.002678,0.000431,0.000940
106839000,0.0324,0.013523,0.002678,0.000431,0.000940
106840000,0.0324,0.013523,0.002678,0.000431,0.000705
106841000,0.0324,0.013523,0.002678,0.000431,0.000940
106842000,0.0324,0.013523,0.002678,0.000431,0.000705
106843000,0.0324,0.013523,0.002678,0.000431,0.000940
106844000,0.0324,0.013523,0.002678,0.000431,0.000940
106845000,0.0324,0.013523,0.002678,0.000431,0.000705
106846000,0.0324,0.013523,0.002678,0.000431,0.000940
106847000,0.0324,0.013523,0.002678,0.000431,0.000705
106848000,0.0324,0.013523,0.002678,0.000431,0.000940
106849000,0.0324,0.013523,0.002678,0.000431,0.000823
106850000,0.0324,0.013523,0.002678,0.000431,0.000823
106851000,0.0324,0.013523,0.002678,0.000431,0.000823
106852000,0.0324,0.013523,0.002678,0.000431,0.000823
106853000,0.0324,0.013523,0.002678,0.000431,0.000940
106854000,0.0324,0.013523,0.002678,0.000431,0.000823
106855000,0.0324,0.013523,0.002678,0.000431,0.000823
106856000,0.0324,0.013523,0.002678,0.000431,0.000823
106857000,0.0324,0.013523,0.002678,0.000431,0.000823
106858000,0.0324,0.013523,0.002678,0.000431,0.000823
106859000,0.0324,0.013523,0.002678,0.000431,0.000823
106860000,0.0324,0.013523,0.002678,0.000431,0.000940
106861000,0.0324,0.013523,0.002678,0.000431,0.000705
106862000,0.0324,0.013523,0.002678,0.000431,0.000823
106863000,0.0324,0.013523,0.002678,0.000431,0.000940
106864000,0.0324,0.013523,0.002678,0.000431,0.000823
106865000,0.0324,0.013523,0.002678,0.000431,0.000823
106866000,0.0324,0.013523,0.002678,0.000431,0.000823
106867000,0.0324,0.013523,0.002678,0.000431,0.000823
106868000,0.0324,0.013523,0.002678,0.000431,0.000823
106869000,0.0324,0.013523,0.002678,0.000431,0.000940
106870000,0.0324,0.013523,0.002678,0.000431,0.000823
106871000,0.0324,0.013523,0.002678,0.000431,0.000823
106872000,0.0324,0.013523,0.002678,0.000431,0.000705
106873000,0.0324,0.013523,0.002678,0.000431,0.000940
106874000,0.0324,0.013523,0.002678,0.000431,0.000940
106875000,0.0324,0.013523,0.002678,0.000431,0.000705
106876000,0.0324,0.013523,0.002678,0.000431,0.000940
106877000,0.0324,0.013523,0.002678,0.000431,0.000705
106878000,0.0324,0.013523,0.002678,0.000431,0.000940
106879000,0.0324,0.013523,0.002678,0.000431,0.000940
106880000,0.0324,0.013523,0.002678,0.000431,0.000705
106881000,0.0324,0.013523,0.002678,0.000431,0.000940
106882000,0.0324,0.013523,0.002678,0.000431,0.000705
106883000,0.0324,0.013523,0.002678,0.000431,0.000940
106884000,0.0324,0.013523,0.002678,0.000431,0.000823
106885000,0.0324,0.013523,0.002678,0.000431,0.000823
106886000,0.0324,0.013523,0.002678,0.000431,0.000823
106887000,0.0324,0.013523,0.002678,0.000431,0.000823
106888000,0.0324,0.013523,0.002678,0.000431,0.000940
106889000,0.0324,0.013523,0.002678,0.000431,0.000705
106890000,0.0324,0.013523,0.002678,0.000431,0.000940
106891000,0.0324,0.013523,0.002678,0.000431,0.000823
106892000,0.0324,0.013523,0.002678,0.000431,0.000823
106893000,0.0324,0.013523,0.002678,0.000431,0.000823
106894000,0.0324,0.013523,0.002678,0.000431,0.000823
106895000,0.0324,0.013523,0.002678,0.000431,0.000940
106896000,0.0324,0.013523,0.002678,0.000431,0.000705
106897000,0.0324,0.013523,0.002678,0.000431,0.000940
106898000,0.0324,0.013523,0.002678,0.000431,0.000823
106899000,0.0324,0.013523,0.002678,0.000431,0.000823
106900000,0.0324,0.013523,0.002678,0.000431,0.000705
106901000,0.0324,0.013523,0.002678,0.000431,0.000940
106902000,0.0324,0.013523,0.002678,0.000431,0.000940
106903000,0.0324,0.013523,0.002678,0.000431,0.000705
106904000,0.0324,0.013523,0.002678,0.000431,0.000940
106905000,0.0324,0.013523,0.002678,0.000431,0.000705
106906000,0.0324,0.013523,0.002678,0.000431,0.000940
106907000,0.0324,0.013523,0.002678,0.000431,0.000823
106908000,0.0324,0.013523,0.002678,0.000431,0.000823
106909000,0.0324,0.013523,0.002678,0.000431,0.000940
106910000,0.0324,0.013523,0.002678,0.000431,0.000705
106911000,0.0324,0.013523,0.002678,0.000431,0.000940
106912000,0.0324,0.013523,0.002678,0.000431,0.000823
106913000,0.0324,0.013523,0.002678,0.000431,0.000823
106914000,0.0324,0.013523,0.002678,0.000431,0.000823
106915000,0.0324,0.013523,0.002678,0.000431,0.000823
106916000,0.0324,0.013523,0.002678,0.000431,0.000940
106917000,0.0324,0.013523,0.002678,0.000431,0.000705
106918000,0.0324,0.013523,0.002678,0.000431,0.000940
106919000,0.0324,0.013523,0.002678,0.000431,0.000823
106920000,0.0324,0.013523,0.002678,0.000431,0.000823
106921000,0.0324,0.013523,0.002678,0.000431,0.000823
106922000,0.0324,0.013523,0.002678,0.000431,0.000823
106923000,0.0324,0.013523,0.002678,0.000431,0.000940
106924000,0.0324,0.013523,0.002678,0.000431,0.000705
106925000,0.0324,0.013523,0.002678,0.000431,0.000823
106926000,0.0324,0.013523,0.002678,0.000431,0.000940
106927000,0.0324,0.013523,0.002678,0.000431,0.000823
106928000,0.0324,0.013523,0.002678,0.000431,0.000823
106929000,0.0324,0.013523,0.002678,0.000431,0.000823
106930000,0.0324,0.013523,0.002678,0.000431,0.000705
106931000,0.0324,0.013523,0.002678,0.000431,0.000940
106932000,0.0324,0.013523,0.002678,0.000431,0.000940
106933000,0.0324,0.013523,0.002678,0.000431,0.000705
106934000,0.0324,0.013523,0.002678,0.000431,0.000940
106935000,0.0324,0.013523,0.002678,0.000431,0.000705
106936000,0.0324,0.013523,0.002678,0.000431,0.000940
106937000,0.0324,0.013523,0.002678,0.000431,0.000940
106938000,0.0324,0.013523,0.002678,0.000431,0.000705
106939000,0.0324,0.013523,0.002678,0.000431,0.000940
106940000,0.0324,0.013523,0.002678,0.000431,0.000705
106941000,0.0324,0.013523,0.002678,0.000431,0.000940
106942000,0.0324,0.013523,0.002678,0.000431,0.000823
106943000,0.0324,0.013523,0.002678,0.000431,0.000823
106944000,0.0324,0.013523,0.002678,0.000431,0.000823
106945000,0.0324,0.013523,0.002678,0.000431,0.000823
106946000,0.0324,0.013523,0.002678,0.000431,0.000940
106947000,0.0324,0.013523,0.002678,0.000431,0.000705
106948000,0.0324,0.013523,0.002678,0.000431,0.000940
106949000,0.0324,0.013523,0.002678,0.000431,0.000823
106950000,0.0324,0.013523,0.002678,0.000431,0.000823
106951000,0.0324,0.013523,0.002678,0.000431,0.000823
106952000,0.0324,0.013523,0.002678,0.000431,0.000823
106953000,0.0324,0.013523,0.002678,0.000431,0.000940
106954000,0.0324,0.013523,0.002678,0.000431,0.000705
106955000,0.0324,0.013523,0.002678,0.000431,0.000940
106956000,0.0324,0.013523,0.002678,0.000431,0.000823
106957000,0.0324,0.013523,0.002678,0.000431,0.000823
106958000,0.0324,0.013523,0.002678,0.000431,0.000705
106959000,0.0324,0.013523,0.002678,0.000431,0.000940
106960000,0.0324,0.013523,0.002678,0.000431,0.000940
106961000,0.0324,0.013523,0.002678,0.000431,0.000705
106962000,0.0324,0.013523,0.002678,0.000431,0.000940
106963000,0.0324,0.013523,0.002678,0.000431,0.000705
106964000,0.0324,0.013523,0.002678,0.000431,0.000940
106965000,0.0324,0.013523,0.002678,0.000431,0.000823
106966000,0.0324,0.013523,0.002678,0.000431,0.000823
106967000,0.0324,0.013523,0.002678,0.000431,0.000940
106968000,0.0324,0.013523,0.002678,0.000431,0.000705
106969000,0.0324,0.013523,0.002678,0.000431,0.000940
106970000,0.0324,0.013523,0.002678,0.000431,0.000823
106971000,0.0324,0.013523,0.002678,0.000431,0.000823
106972000,0.0324,0.013523,0.002678,0.000431,0.000823
106973000,0.0324,0.013523,0.002678,0.000431,0.000823
106974000,0.0324,0.013523,0.002678,0.000431,0.000940
106975000,0.0324,0.013523,0.002678,0.000431,0.000705
106976000,0.0324,0.013523,0.002678,0.000431,0.000940
106977000,0.0324,0.013523,0.002678,0.000431,0.000823
106978000,0.0324,0.013523,0.002678,0.000431,0.000823
106979000,0.0324,0.013523,0.002678,0.000431,0.000823
106980000,0.0324,0.013523,0.002678,0.000431,0.000823
106981000,0.0324,0.013523,0.002678,0.000431,0.000940
106982000,0.0324,0.013523,0.002678,0.000431,0.000705
106983000,0.0324,0.013523,0.002678,0.000431,0.000823
106984000,0.0324,0.013523,0.002678,0.000431,0.000940
106985000,0.0324,0.013523,0.002678,0.000431,0.000823
106986000,0.0324,0.013523,0.002678,0.000431,0.000823
106987000,0.0324,0.013523,0.002678,0.000431,0.000823
106988000,0.0324,0.013523,0.002678,0.000431,0.000823
106989000,0.0324,0.013523,0.002678,0.000431,0.000823
106990000,0.0324,0.013523,0.002678,0.000431,0.000940
106991000,0.0324,0.013523,0.002678,0.000431,0.000823
106992000,0.0324,0.013523,0.002678,0.000431,0.000823
106993000,0.0324,0.013523,0.002678,0.000431,0.000705
106994000,0.0324,0.013523,0.002678,0.000431,0.000940
106995000,0.0324,0.013523,0.002678,0.000431,0.000940
106996000,0.0324,0.013523,0.002678,0.000431,0.000705
106997000,0.0324,0.013523,0.002678,0.000431,0.000940
106998000,0.0324,0.013523,0.002678,0.000431,0.000705
106999000,0.0324,0.013523,0.002678,0.000431,0.000940
