Cycle,Area(mm^2),PeakDynamic(W),SubthresholdLeakage(W),GateLeakage(W),RunTimeDynamic(W)
30000000,0.0324,0.013523,0.002678,0.000431,0.020802
30001000,0.0324,0.013523,0.002678,0.000431,0.020215
30002000,0.0324,0.013523,0.002678,0.000431,0.019392
30003000,0.0324,0.013523,0.002678,0.000431,0.015984
30004000,0.0324,0.013523,0.002678,0.000431,0.020097
30005000,0.0324,0.013523,0.002678,0.000431,0.015279
30006000,0.0324,0.013523,0.002678,0.000431,0.016101
30007000,0.0324,0.013523,0.002678,0.000431,0.015866
30008000,0.0324,0.013523,0.002678,0.000431,0.016336
30009000,0.0324,0.013523,0.002678,0.000431,0.013633
30010000,0.0324,0.013523,0.002678,0.000431,0.014691
30011000,0.0324,0.013523,0.002678,0.000431,0.012693
30012000,0.0324,0.013523,0.002678,0.000431,0.011048
30013000,0.0324,0.013523,0.002678,0.000431,0.012105
30014000,0.0324,0.013523,0.002678,0.000431,0.009637
30015000,0.0324,0.013523,0.002678,0.000431,0.010813
30016000,0.0324,0.013523,0.002678,0.000431,0.008580
30017000,0.0324,0.013523,0.002678,0.000431,0.007992
30018000,0.0324,0.013523,0.002678,0.000431,0.010342
30019000,0.0324,0.013523,0.002678,0.000431,0.007757
30020000,0.0324,0.013523,0.002678,0.000431,0.007287
30021000,0.0324,0.013523,0.002678,0.000431,0.009167
30022000,0.0324,0.013523,0.002678,0.000431,0.006582
30023000,0.0324,0.013523,0.002678,0.000431,0.008345
30024000,0.0324,0.013523,0.002678,0.000431,0.005641
30025000,0.0324,0.013523,0.002678,0.000431,0.005524
30026000,0.0324,0.013523,0.002678,0.000431,0.008580
30027000,0.0324,0.013523,0.002678,0.000431,0.004819
30028000,0.0324,0.013523,0.002678,0.000431,0.005054
30029000,0.0324,0.013523,0.002678,0.000431,0.005289
30030000,0.0324,0.013523,0.002678,0.000431,0.004584
30031000,0.0324,0.013523,0.002678,0.000431,0.005171
30032000,0.0324,0.013523,0.002678,0.000431,0.004819
30033000,0.0324,0.013523,0.002678,0.000431,0.005289
30034000,0.0324,0.013523,0.002678,0.000431,0.004936
30035000,0.0324,0.013523,0.002678,0.000431,0.004819
30036000,0.0324,0.013523,0.002678,0.000431,0.004936
30037000,0.0324,0.013523,0.002678,0.000431,0.005171
30038000,0.0324,0.013523,0.002678,0.000431,0.007052
30039000,0.0324,0.013523,0.002678,0.000431,0.003173
30040000,0.0324,0.013523,0.002678,0.000431,0.003408
30041000,0.0324,0.013523,0.002678,0.000431,0.005171
30042000,0.0324,0.013523,0.002678,0.000431,0.002586
30043000,0.0324,0.013523,0.002678,0.000431,0.002468
30044000,0.0324,0.013523,0.002678,0.000431,0.002468
30045000,0.0324,0.013523,0.002678,0.000431,0.002703
30046000,0.0324,0.013523,0.002678,0.000431,0.002351
30047000,0.0324,0.013523,0.002678,0.000431,0.002586
30048000,0.0324,0.013523,0.002678,0.000431,0.002351
30049000,0.0324,0.013523,0.002678,0.000431,0.002703
30050000,0.0324,0.013523,0.002678,0.000431,0.002468
30051000,0.0324,0.013523,0.002678,0.000431,0.002468
30052000,0.0324,0.013523,0.002678,0.000431,0.002468
30053000,0.0324,0.013523,0.002678,0.000431,0.003761
30054000,0.0324,0.013523,0.002678,0.000431,0.003408
30055000,0.0324,0.013523,0.002678,0.000431,0.001528
30056000,0.0324,0.013523,0.002678,0.000431,0.001763
30057000,0.0324,0.013523,0.002678,0.000431,0.001763
30058000,0.0324,0.013523,0.002678,0.000431,0.001763
30059000,0.0324,0.013523,0.002678,0.000431,0.001645
30060000,0.0324,0.013523,0.002678,0.000431,0.001763
30061000,0.0324,0.013523,0.002678,0.000431,0.001645
30062000,0.0324,0.013523,0.002678,0.000431,0.001763
30063000,0.0324,0.013523,0.002678,0.000431,0.001880
30064000,0.0324,0.013523,0.002678,0.000431,0.001645
30065000,0.0324,0.013523,0.002678,0.000431,0.001763
30066000,0.0324,0.013523,0.002678,0.000431,0.003173
30067000,0.0324,0.013523,0.002678,0.000431,0.000823
30068000,0.0324,0.013523,0.002678,0.000431,0.000940
30069000,0.0324,0.013523,0.002678,0.000431,0.000823
30070000,0.0324,0.013523,0.002678,0.000431,0.000823
30071000,0.0324,0.013523,0.002678,0.000431,0.000823
30072000,0.0324,0.013523,0.002678,0.000431,0.000823
30073000,0.0324,0.013523,0.002678,0.000431,0.000823
30074000,0.0324,0.013523,0.002678,0.000431,0.000940
30075000,0.0324,0.013523,0.002678,0.000431,0.000940
30076000,0.0324,0.013523,0.002678,0.000431,0.003526
30077000,0.0324,0.013523,0.002678,0.000431,0.387255
30078000,0.0324,0.013523,0.002678,0.000431,0.679430
30079000,0.0324,0.013523,0.002678,0.000431,0.133982
30080000,0.0324,0.013523,0.002678,0.000431,0.134687
30081000,0.0324,0.013523,0.002678,0.000431,0.225419
30082000,0.0324,0.013523,0.002678,0.000431,0.603860
30083000,0.0324,0.013523,0.002678,0.000431,0.244694
30084000,0.0324,0.013523,0.002678,0.000431,0.324965
30085000,0.0324,0.013523,0.002678,0.000431,0.189690
30086000,0.0324,0.013523,0.002678,0.000431,0.148086
30087000,0.0324,0.013523,0.002678,0.000431,0.116118
30088000,0.0324,0.013523,0.002678,0.000431,0.273371
30089000,0.0324,0.013523,0.002678,0.000431,0.346356
30090000,0.0324,0.013523,0.002678,0.000431,0.098606
30091000,0.0324,0.013523,0.002678,0.000431,0.067931
30092000,0.0324,0.013523,0.002678,0.000431,0.063230
30093000,0.0324,0.013523,0.002678,0.000431,0.055591
30094000,0.0324,0.013523,0.002678,0.000431,0.051947
30095000,0.0324,0.013523,0.002678,0.000431,0.044426
30096000,0.0324,0.013523,0.002678,0.000431,0.036434
30097000,0.0324,0.013523,0.002678,0.000431,0.035964
30098000,0.0324,0.013523,0.002678,0.000431,0.036669
30099000,0.0324,0.013523,0.002678,0.000431,0.031145
30100000,0.0324,0.013523,0.002678,0.000431,0.025739
30101000,0.0324,0.013523,0.002678,0.000431,0.024446
30102000,0.0324,0.013523,0.002678,0.000431,0.023858
30103000,0.0324,0.013523,0.002678,0.000431,0.021508
30104000,0.0324,0.013523,0.002678,0.000431,0.020567
30105000,0.0324,0.013523,0.002678,0.000431,0.023036
30106000,0.0324,0.013523,0.002678,0.000431,0.018217
30107000,0.0324,0.013523,0.002678,0.000431,0.020567
30108000,0.0324,0.013523,0.002678,0.000431,0.018334
30109000,0.0324,0.013523,0.002678,0.000431,0.011635
30110000,0.0324,0.013523,0.002678,0.000431,0.012223
30111000,0.0324,0.013523,0.002678,0.000431,0.012458
30112000,0.0324,0.013523,0.002678,0.000431,0.011400
30113000,0.0324,0.013523,0.002678,0.000431,0.015279
30114000,0.0324,0.013523,0.002678,0.000431,0.012576
30115000,0.0324,0.013523,0.002678,0.000431,0.008345
30116000,0.0324,0.013523,0.002678,0.000431,0.007992
30117000,0.0324,0.013523,0.002678,0.000431,0.008462
30118000,0.0324,0.013523,0.002678,0.000431,0.008815
30119000,0.0324,0.013523,0.002678,0.000431,0.008109
30120000,0.0324,0.013523,0.002678,0.000431,0.008109
30121000,0.0324,0.013523,0.002678,0.000431,0.008345
30122000,0.0324,0.013523,0.002678,0.000431,0.008580
30123000,0.0324,0.013523,0.002678,0.000431,0.008227
30124000,0.0324,0.013523,0.002678,0.000431,0.008462
30125000,0.0324,0.013523,0.002678,0.000431,0.007992
30126000,0.0324,0.013523,0.002678,0.000431,0.009520
30127000,0.0324,0.013523,0.002678,0.000431,0.008580
30128000,0.0324,0.013523,0.002678,0.000431,0.007757
30129000,0.0324,0.013523,0.002678,0.000431,0.006817
30130000,0.0324,0.013523,0.002678,0.000431,0.007404
30131000,0.0324,0.013523,0.002678,0.000431,0.006934
30132000,0.0324,0.013523,0.002678,0.000431,0.008345
30133000,0.0324,0.013523,0.002678,0.000431,0.004936
30134000,0.0324,0.013523,0.002678,0.000431,0.008227
30135000,0.0324,0.013523,0.002678,0.000431,0.003408
30136000,0.0324,0.013523,0.002678,0.000431,0.003408
30137000,0.0324,0.013523,0.002678,0.000431,0.003173
30138000,0.0324,0.013523,0.002678,0.000431,0.003408
30139000,0.0324,0.013523,0.002678,0.000431,0.003526
30140000,0.0324,0.013523,0.002678,0.000431,0.003056
30141000,0.0324,0.013523,0.002678,0.000431,0.003526
30142000,0.0324,0.013523,0.002678,0.000431,0.004466
30143000,0.0324,0.013523,0.002678,0.000431,0.002703
30144000,0.0324,0.013523,0.002678,0.000431,0.002468
30145000,0.0324,0.013523,0.002678,0.000431,0.002468
30146000,0.0324,0.013523,0.002678,0.000431,0.002586
30147000,0.0324,0.013523,0.002678,0.000431,0.002351
30148000,0.0324,0.013523,0.002678,0.000431,0.002821
30149000,0.0324,0.013523,0.002678,0.000431,0.002233
30150000,0.0324,0.013523,0.002678,0.000431,0.002703
30151000,0.0324,0.013523,0.002678,0.000431,0.003643
30152000,0.0324,0.013523,0.002678,0.000431,0.003291
30153000,0.0324,0.013523,0.002678,0.000431,0.001880
30154000,0.0324,0.013523,0.002678,0.000431,0.001410
30155000,0.0324,0.013523,0.002678,0.000431,0.001880
30156000,0.0324,0.013523,0.002678,0.000431,0.003291
30157000,0.0324,0.013523,0.002678,0.000431,0.001058
30158000,0.0324,0.013523,0.002678,0.000431,0.000823
30159000,0.0324,0.013523,0.002678,0.000431,0.000823
30160000,0.0324,0.013523,0.002678,0.000431,0.000823
30161000,0.0324,0.013523,0.002678,0.000431,0.000823
30162000,0.0324,0.013523,0.002678,0.000431,0.000940
30163000,0.0324,0.013523,0.002678,0.000431,0.000705
30164000,0.0324,0.013523,0.002678,0.000431,0.000940
30165000,0.0324,0.013523,0.002678,0.000431,0.000823
30166000,0.0324,0.013523,0.002678,0.000431,0.000823
30167000,0.0324,0.013523,0.002678,0.000431,0.000823
30168000,0.0324,0.013523,0.002678,0.000431,0.000823
30169000,0.0324,0.013523,0.002678,0.000431,0.000940
30170000,0.0324,0.013523,0.002678,0.000431,0.000705
30171000,0.0324,0.013523,0.002678,0.000431,0.000940
30172000,0.0324,0.013523,0.002678,0.000431,0.000705
30173000,0.0324,0.013523,0.002678,0.000431,0.000940
30174000,0.0324,0.013523,0.002678,0.000431,0.000705
30175000,0.0324,0.013523,0.002678,0.000431,0.000940
30176000,0.0324,0.013523,0.002678,0.000431,0.000823
30177000,0.0324,0.013523,0.002678,0.000431,0.000823
30178000,0.0324,0.013523,0.002678,0.000431,0.000940
30179000,0.0324,0.013523,0.002678,0.000431,0.000705
30180000,0.0324,0.013523,0.002678,0.000431,0.000940
30181000,0.0324,0.013523,0.002678,0.000431,0.000823
30182000,0.0324,0.013523,0.002678,0.000431,0.000823
30183000,0.0324,0.013523,0.002678,0.000431,0.000823
30184000,0.0324,0.013523,0.002678,0.000431,0.000823
30185000,0.0324,0.013523,0.002678,0.000431,0.000823
30186000,0.0324,0.013523,0.002678,0.000431,0.000823
30187000,0.0324,0.013523,0.002678,0.000431,0.000940
30188000,0.0324,0.013523,0.002678,0.000431,0.000705
30189000,0.0324,0.013523,0.002678,0.000431,0.000823
30190000,0.0324,0.013523,0.002678,0.000431,0.000940
30191000,0.0324,0.013523,0.002678,0.000431,0.000823
30192000,0.0324,0.013523,0.002678,0.000431,0.000823
30193000,0.0324,0.013523,0.002678,0.000431,0.000823
30194000,0.0324,0.013523,0.002678,0.000431,0.000823
30195000,0.0324,0.013523,0.002678,0.000431,0.000823
30196000,0.0324,0.013523,0.002678,0.000431,0.000940
30197000,0.0324,0.013523,0.002678,0.000431,0.000823
30198000,0.0324,0.013523,0.002678,0.000431,0.000823
30199000,0.0324,0.013523,0.002678,0.000431,0.000705
30200000,0.0324,0.013523,0.002678,0.000431,0.000940
30201000,0.0324,0.013523,0.002678,0.000431,0.000940
30202000,0.0324,0.013523,0.002678,0.000431,0.000705
30203000,0.0324,0.013523,0.002678,0.000431,0.000940
30204000,0.0324,0.013523,0.002678,0.000431,0.000705
30205000,0.0324,0.013523,0.002678,0.000431,0.000940
30206000,0.0324,0.013523,0.002678,0.000431,0.000823
30207000,0.0324,0.013523,0.002678,0.000431,0.000823
30208000,0.0324,0.013523,0.002678,0.000431,0.000940
30209000,0.0324,0.013523,0.002678,0.000431,0.000705
30210000,0.0324,0.013523,0.002678,0.000431,0.000940
30211000,0.0324,0.013523,0.002678,0.000431,0.000823
30212000,0.0324,0.013523,0.002678,0.000431,0.000823
30213000,0.0324,0.013523,0.002678,0.000431,0.000823
30214000,0.0324,0.013523,0.002678,0.000431,0.000823
30215000,0.0324,0.013523,0.002678,0.000431,0.000940
30216000,0.0324,0.013523,0.002678,0.000431,0.000705
30217000,0.0324,0.013523,0.002678,0.000431,0.000940
30218000,0.0324,0.013523,0.002678,0.000431,0.000823
30219000,0.0324,0.013523,0.002678,0.000431,0.000823
30220000,0.0324,0.013523,0.002678,0.000431,0.000823
30221000,0.0324,0.013523,0.002678,0.000431,0.000823
30222000,0.0324,0.013523,0.002678,0.000431,0.000940
30223000,0.0324,0.013523,0.002678,0.000431,0.000705
30224000,0.0324,0.013523,0.002678,0.000431,0.000940
30225000,0.0324,0.013523,0.002678,0.000431,0.000823
30226000,0.0324,0.013523,0.002678,0.000431,0.000823
30227000,0.0324,0.013523,0.002678,0.000431,0.000705
30228000,0.0324,0.013523,0.002678,0.000431,0.000940
30229000,0.0324,0.013523,0.002678,0.000431,0.000940
30230000,0.0324,0.013523,0.002678,0.000431,0.000705
30231000,0.0324,0.013523,0.002678,0.000431,0.000940
30232000,0.0324,0.013523,0.002678,0.000431,0.000705
30233000,0.0324,0.013523,0.002678,0.000431,0.000940
30234000,0.0324,0.013523,0.002678,0.000431,0.000823
30235000,0.0324,0.013523,0.002678,0.000431,0.000823
30236000,0.0324,0.013523,0.002678,0.000431,0.000940
30237000,0.0324,0.013523,0.002678,0.000431,0.000705
30238000,0.0324,0.013523,0.002678,0.000431,0.000940
30239000,0.0324,0.013523,0.002678,0.000431,0.000823
30240000,0.0324,0.013523,0.002678,0.000431,0.000823
30241000,0.0324,0.013523,0.002678,0.000431,0.000823
30242000,0.0324,0.013523,0.002678,0.000431,0.000823
30243000,0.0324,0.013523,0.002678,0.000431,0.000940
30244000,0.0324,0.013523,0.002678,0.000431,0.000705
30245000,0.0324,0.013523,0.002678,0.000431,0.000940
30246000,0.0324,0.013523,0.002678,0.000431,0.000823
30247000,0.0324,0.013523,0.002678,0.000431,0.000823
30248000,0.0324,0.013523,0.002678,0.000431,0.000823
30249000,0.0324,0.013523,0.002678,0.000431,0.000823
30250000,0.0324,0.013523,0.002678,0.000431,0.000940
30251000,0.0324,0.013523,0.002678,0.000431,0.000705
30252000,0.0324,0.013523,0.002678,0.000431,0.000823
30253000,0.0324,0.013523,0.002678,0.000431,0.000940
30254000,0.0324,0.013523,0.002678,0.000431,0.000823
30255000,0.0324,0.013523,0.002678,0.000431,0.000823
30256000,0.0324,0.013523,0.002678,0.000431,0.000823
30257000,0.0324,0.013523,0.002678,0.000431,0.000823
30258000,0.0324,0.013523,0.002678,0.000431,0.000823
30259000,0.0324,0.013523,0.002678,0.000431,0.000940
30260000,0.0324,0.013523,0.002678,0.000431,0.000823
30261000,0.0324,0.013523,0.002678,0.000431,0.000823
30262000,0.0324,0.013523,0.002678,0.000431,0.000705
30263000,0.0324,0.013523,0.002678,0.000431,0.000940
30264000,0.0324,0.013523,0.002678,0.000431,0.000940
30265000,0.0324,0.013523,0.002678,0.000431,0.000705
30266000,0.0324,0.013523,0.002678,0.000431,0.000940
30267000,0.0324,0.013523,0.002678,0.000431,0.000705
30268000,0.0324,0.013523,0.002678,0.000431,0.000940
30269000,0.0324,0.013523,0.002678,0.000431,0.000823
30270000,0.0324,0.013523,0.002678,0.000431,0.000823
30271000,0.0324,0.013523,0.002678,0.000431,0.000940
30272000,0.0324,0.013523,0.002678,0.000431,0.000705
30273000,0.0324,0.013523,0.002678,0.000431,0.000940
30274000,0.0324,0.013523,0.002678,0.000431,0.000823
30275000,0.0324,0.013523,0.002678,0.000431,0.000823
30276000,0.0324,0.013523,0.002678,0.000431,0.000823
30277000,0.0324,0.013523,0.002678,0.000431,0.000823
30278000,0.0324,0.013523,0.002678,0.000431,0.000940
30279000,0.0324,0.013523,0.002678,0.000431,0.000705
30280000,0.0324,0.013523,0.002678,0.000431,0.000940
30281000,0.0324,0.013523,0.002678,0.000431,0.000823
30282000,0.0324,0.013523,0.002678,0.000431,0.000823
30283000,0.0324,0.013523,0.002678,0.000431,0.000823
30284000,0.0324,0.013523,0.002678,0.000431,0.000823
30285000,0.0324,0.013523,0.002678,0.000431,0.000823
30286000,0.0324,0.013523,0.002678,0.000431,0.000823
30287000,0.0324,0.013523,0.002678,0.000431,0.000940
30288000,0.0324,0.013523,0.002678,0.000431,0.000705
30289000,0.0324,0.013523,0.002678,0.000431,0.000940
30290000,0.0324,0.013523,0.002678,0.000431,0.000705
30291000,0.0324,0.013523,0.002678,0.000431,0.000940
30292000,0.0324,0.013523,0.002678,0.000431,0.000940
30293000,0.0324,0.013523,0.002678,0.000431,0.000705
30294000,0.0324,0.013523,0.002678,0.000431,0.000940
30295000,0.0324,0.013523,0.002678,0.000431,0.000705
30296000,0.0324,0.013523,0.002678,0.000431,0.000940
30297000,0.0324,0.013523,0.002678,0.000431,0.000823
30298000,0.0324,0.013523,0.002678,0.000431,0.000823
30299000,0.0324,0.013523,0.002678,0.000431,0.000940
30300000,0.0324,0.013523,0.002678,0.000431,0.000705
30301000,0.0324,0.013523,0.002678,0.000431,0.000940
30302000,0.0324,0.013523,0.002678,0.000431,0.000823
30303000,0.0324,0.013523,0.002678,0.000431,0.000823
30304000,0.0324,0.013523,0.002678,0.000431,0.000823
30305000,0.0324,0.013523,0.002678,0.000431,0.000823
30306000,0.0324,0.013523,0.002678,0.000431,0.000940
30307000,0.0324,0.013523,0.002678,0.000431,0.000705
30308000,0.0324,0.013523,0.002678,0.000431,0.000940
30309000,0.0324,0.013523,0.002678,0.000431,0.000823
30310000,0.0324,0.013523,0.002678,0.000431,0.000823
30311000,0.0324,0.013523,0.002678,0.000431,0.000823
30312000,0.0324,0.013523,0.002678,0.000431,0.014103
30313000,0.0324,0.013523,0.002678,0.000431,0.568249
30314000,0.0324,0.013523,0.002678,0.000431,0.598218
30315000,0.0324,0.013523,0.002678,0.000431,0.133394
30316000,0.0324,0.013523,0.002678,0.000431,0.133512
30317000,0.0324,0.013523,0.002678,0.000431,0.522413
30318000,0.0324,0.013523,0.002678,0.000431,0.296406
30319000,0.0324,0.013523,0.002678,0.000431,0.244694
30320000,0.0324,0.013523,0.002678,0.000431,0.265849
30321000,0.0324,0.013523,0.002678,0.000431,0.138096
30322000,0.0324,0.013523,0.002678,0.000431,0.144677
30323000,0.0324,0.013523,0.002678,0.000431,0.150436
30324000,0.0324,0.013523,0.002678,0.000431,0.222716
30325000,0.0324,0.013523,0.002678,0.000431,0.382789
30326000,0.0324,0.013523,0.002678,0.000431,0.061820
30327000,0.0324,0.013523,0.002678,0.000431,0.046424
30328000,0.0324,0.013523,0.002678,0.000431,0.042780
30329000,0.0324,0.013523,0.002678,0.000431,0.039372
30330000,0.0324,0.013523,0.002678,0.000431,0.036904
30331000,0.0324,0.013523,0.002678,0.000431,0.028442
30332000,0.0324,0.013523,0.002678,0.000431,0.024093
30333000,0.0324,0.013523,0.002678,0.000431,0.017512
30334000,0.0324,0.013523,0.002678,0.000431,0.017982
30335000,0.0324,0.013523,0.002678,0.000431,0.018569
30336000,0.0324,0.013523,0.002678,0.000431,0.014221
30337000,0.0324,0.013523,0.002678,0.000431,0.015514
30338000,0.0324,0.013523,0.002678,0.000431,0.013046
30339000,0.0324,0.013523,0.002678,0.000431,0.010460
30340000,0.0324,0.013523,0.002678,0.000431,0.013516
30341000,0.0324,0.013523,0.002678,0.000431,0.009402
30342000,0.0324,0.013523,0.002678,0.000431,0.010107
30343000,0.0324,0.013523,0.002678,0.000431,0.010225
30344000,0.0324,0.013523,0.002678,0.000431,0.009167
30345000,0.0324,0.013523,0.002678,0.000431,0.006817
30346000,0.0324,0.013523,0.002678,0.000431,0.011753
30347000,0.0324,0.013523,0.002678,0.000431,0.007404
30348000,0.0324,0.013523,0.002678,0.000431,0.004466
30349000,0.0324,0.013523,0.002678,0.000431,0.007169
30350000,0.0324,0.013523,0.002678,0.000431,0.003526
30351000,0.0324,0.013523,0.002678,0.000431,0.003643
30352000,0.0324,0.013523,0.002678,0.000431,0.003408
30353000,0.0324,0.013523,0.002678,0.000431,0.003408
30354000,0.0324,0.013523,0.002678,0.000431,0.003408
30355000,0.0324,0.013523,0.002678,0.000431,0.003643
30356000,0.0324,0.013523,0.002678,0.000431,0.003291
30357000,0.0324,0.013523,0.002678,0.000431,0.003526
30358000,0.0324,0.013523,0.002678,0.000431,0.005406
30359000,0.0324,0.013523,0.002678,0.000431,0.002703
30360000,0.0324,0.013523,0.002678,0.000431,0.002821
30361000,0.0324,0.013523,0.002678,0.000431,0.002233
30362000,0.0324,0.013523,0.002678,0.000431,0.002703
30363000,0.0324,0.013523,0.002678,0.000431,0.002703
30364000,0.0324,0.013523,0.002678,0.000431,0.002703
30365000,0.0324,0.013523,0.002678,0.000431,0.002468
30366000,0.0324,0.013523,0.002678,0.000431,0.002468
30367000,0.0324,0.013523,0.002678,0.000431,0.002821
30368000,0.0324,0.013523,0.002678,0.000431,0.002703
30369000,0.0324,0.013523,0.002678,0.000431,0.003761
30370000,0.0324,0.013523,0.002678,0.000431,0.001763
30371000,0.0324,0.013523,0.002678,0.000431,0.001763
30372000,0.0324,0.013523,0.002678,0.000431,0.001645
30373000,0.0324,0.013523,0.002678,0.000431,0.002586
30374000,0.0324,0.013523,0.002678,0.000431,0.001763
30375000,0.0324,0.013523,0.002678,0.000431,0.000940
30376000,0.0324,0.013523,0.002678,0.000431,0.168183
30377000,0.0324,0.013523,0.002678,0.000431,0.464941
30378000,0.0324,0.013523,0.002678,0.000431,0.537809
30379000,0.0324,0.013523,0.002678,0.000431,0.134452
30380000,0.0324,0.013523,0.002678,0.000431,0.131161
30381000,0.0324,0.013523,0.002678,0.000431,0.568366
30382000,0.0324,0.013523,0.002678,0.000431,0.242108
30383000,0.0324,0.013523,0.002678,0.000431,0.262558
30384000,0.0324,0.013523,0.002678,0.000431,0.272900
30385000,0.0324,0.013523,0.002678,0.000431,0.140211
30386000,0.0324,0.013523,0.002678,0.000431,0.148321
30387000,0.0324,0.013523,0.002678,0.000431,0.127988
30388000,0.0324,0.013523,0.002678,0.000431,0.297229
30389000,0.0324,0.013523,0.002678,0.000431,0.290882
30390000,0.0324,0.013523,0.002678,0.000431,0.050067
30391000,0.0324,0.013523,0.002678,0.000431,0.032908
30392000,0.0324,0.013523,0.002678,0.000431,0.031145
30393000,0.0324,0.013523,0.002678,0.000431,0.021155
30394000,0.0324,0.013523,0.002678,0.000431,0.021625
30395000,0.0324,0.013523,0.002678,0.000431,0.020332
30396000,0.0324,0.013523,0.002678,0.000431,0.024916
30397000,0.0324,0.013523,0.002678,0.000431,0.018569
30398000,0.0324,0.013523,0.002678,0.000431,0.016689
30399000,0.0324,0.013523,0.002678,0.000431,0.016571
30400000,0.0324,0.013523,0.002678,0.000431,0.015866
30401000,0.0324,0.013523,0.002678,0.000431,0.014691
30402000,0.0324,0.013523,0.002678,0.000431,0.016336
30403000,0.0324,0.013523,0.002678,0.000431,0.013986
30404000,0.0324,0.013523,0.002678,0.000431,0.014809
30405000,0.0324,0.013523,0.002678,0.000431,0.014926
30406000,0.0324,0.013523,0.002678,0.000431,0.012340
30407000,0.0324,0.013523,0.002678,0.000431,0.011283
30408000,0.0324,0.013523,0.002678,0.000431,0.011870
30409000,0.0324,0.013523,0.002678,0.000431,0.012576
30410000,0.0324,0.013523,0.002678,0.000431,0.010930
30411000,0.0324,0.013523,0.002678,0.000431,0.011400
30412000,0.0324,0.013523,0.002678,0.000431,0.010342
30413000,0.0324,0.013523,0.002678,0.000431,0.010578
30414000,0.0324,0.013523,0.002678,0.000431,0.012576
30415000,0.0324,0.013523,0.002678,0.000431,0.008932
30416000,0.0324,0.013523,0.002678,0.000431,0.007639
30417000,0.0324,0.013523,0.002678,0.000431,0.007874
30418000,0.0324,0.013523,0.002678,0.000431,0.008109
30419000,0.0324,0.013523,0.002678,0.000431,0.007287
30420000,0.0324,0.013523,0.002678,0.000431,0.007992
30421000,0.0324,0.013523,0.002678,0.000431,0.007639
30422000,0.0324,0.013523,0.002678,0.000431,0.008227
30423000,0.0324,0.013523,0.002678,0.000431,0.007404
30424000,0.0324,0.013523,0.002678,0.000431,0.007874
30425000,0.0324,0.013523,0.002678,0.000431,0.008462
30426000,0.0324,0.013523,0.002678,0.000431,0.010107
30427000,0.0324,0.013523,0.002678,0.000431,0.006229
30428000,0.0324,0.013523,0.002678,0.000431,0.007522
30429000,0.0324,0.013523,0.002678,0.000431,0.006817
30430000,0.0324,0.013523,0.002678,0.000431,0.004113
30431000,0.0324,0.013523,0.002678,0.000431,0.004349
30432000,0.0324,0.013523,0.002678,0.000431,0.004349
30433000,0.0324,0.013523,0.002678,0.000431,0.004349
30434000,0.0324,0.013523,0.002678,0.000431,0.004466
30435000,0.0324,0.013523,0.002678,0.000431,0.007874
30436000,0.0324,0.013523,0.002678,0.000431,0.002821
30437000,0.0324,0.013523,0.002678,0.000431,0.002586
30438000,0.0324,0.013523,0.002678,0.000431,0.002468
30439000,0.0324,0.013523,0.002678,0.000431,0.002468
30440000,0.0324,0.013523,0.002678,0.000431,0.002703
30441000,0.0324,0.013523,0.002678,0.000431,0.002703
30442000,0.0324,0.013523,0.002678,0.000431,0.002233
30443000,0.0324,0.013523,0.002678,0.000431,0.002703
30444000,0.0324,0.013523,0.002678,0.000431,0.002586
30445000,0.0324,0.013523,0.002678,0.000431,0.002468
30446000,0.0324,0.013523,0.002678,0.000431,0.002586
30447000,0.0324,0.013523,0.002678,0.000431,0.003408
30448000,0.0324,0.013523,0.002678,0.000431,0.004701
30449000,0.0324,0.013523,0.002678,0.000431,0.001058
30450000,0.0324,0.013523,0.002678,0.000431,0.000823
30451000,0.0324,0.013523,0.002678,0.000431,0.000823
30452000,0.0324,0.013523,0.002678,0.000431,0.000823
30453000,0.0324,0.013523,0.002678,0.000431,0.000823
30454000,0.0324,0.013523,0.002678,0.000431,0.000823
30455000,0.0324,0.013523,0.002678,0.000431,0.002116
30456000,0.0324,0.013523,0.002678,0.000431,0.345063
30457000,0.0324,0.013523,0.002678,0.000431,0.707285
30458000,0.0324,0.013523,0.002678,0.000431,0.136685
30459000,0.0324,0.013523,0.002678,0.000431,0.133982
30460000,0.0324,0.013523,0.002678,0.000431,0.131161
30461000,0.0324,0.013523,0.002678,0.000431,0.594693
30462000,0.0324,0.013523,0.002678,0.000431,0.231531
30463000,0.0324,0.013523,0.002678,0.000431,0.257034
30464000,0.0324,0.013523,0.002678,0.000431,0.284888
30465000,0.0324,0.013523,0.002678,0.000431,0.146205
30466000,0.0324,0.013523,0.002678,0.000431,0.139859
30467000,0.0324,0.013523,0.002678,0.000431,0.109654
30468000,0.0324,0.013523,0.002678,0.000431,0.396423
30469000,0.0324,0.013523,0.002678,0.000431,0.170298
30470000,0.0324,0.013523,0.002678,0.000431,0.022683
30471000,0.0324,0.013523,0.002678,0.000431,0.011283
30472000,0.0324,0.013523,0.002678,0.000431,0.011988
30473000,0.0324,0.013523,0.002678,0.000431,0.008580
30474000,0.0324,0.013523,0.002678,0.000431,0.009520
30475000,0.0324,0.013523,0.002678,0.000431,0.007404
30476000,0.0324,0.013523,0.002678,0.000431,0.008932
30477000,0.0324,0.013523,0.002678,0.000431,0.007404
30478000,0.0324,0.013523,0.002678,0.000431,0.006934
30479000,0.0324,0.013523,0.002678,0.000431,0.005289
30480000,0.0324,0.013523,0.002678,0.000431,0.006229
30481000,0.0324,0.013523,0.002678,0.000431,0.005524
30482000,0.0324,0.013523,0.002678,0.000431,0.005876
30483000,0.0324,0.013523,0.002678,0.000431,0.005524
30484000,0.0324,0.013523,0.002678,0.000431,0.005759
30485000,0.0324,0.013523,0.002678,0.000431,0.005759
30486000,0.0324,0.013523,0.002678,0.000431,0.004819
30487000,0.0324,0.013523,0.002678,0.000431,0.005171
30488000,0.0324,0.013523,0.002678,0.000431,0.004936
30489000,0.0324,0.013523,0.002678,0.000431,0.005171
30490000,0.0324,0.013523,0.002678,0.000431,0.005054
30491000,0.0324,0.013523,0.002678,0.000431,0.004936
30492000,0.0324,0.013523,0.002678,0.000431,0.006699
30493000,0.0324,0.013523,0.002678,0.000431,0.004113
30494000,0.0324,0.013523,0.002678,0.000431,0.004349
30495000,0.0324,0.013523,0.002678,0.000431,0.004113
30496000,0.0324,0.013523,0.002678,0.000431,0.004231
30497000,0.0324,0.013523,0.002678,0.000431,0.004466
30498000,0.0324,0.013523,0.002678,0.000431,0.003996
30499000,0.0324,0.013523,0.002678,0.000431,0.004113
30500000,0.0324,0.013523,0.002678,0.000431,0.004584
30501000,0.0324,0.013523,0.002678,0.000431,0.004113
30502000,0.0324,0.013523,0.002678,0.000431,0.004113
30503000,0.0324,0.013523,0.002678,0.000431,0.004349
30504000,0.0324,0.013523,0.002678,0.000431,0.004113
30505000,0.0324,0.013523,0.002678,0.000431,0.004466
30506000,0.0324,0.013523,0.002678,0.000431,0.004231
30507000,0.0324,0.013523,0.002678,0.000431,0.004113
30508000,0.0324,0.013523,0.002678,0.000431,0.004349
30509000,0.0324,0.013523,0.002678,0.000431,0.004113
30510000,0.0324,0.013523,0.002678,0.000431,0.006111
30511000,0.0324,0.013523,0.002678,0.000431,0.003408
30512000,0.0324,0.013523,0.002678,0.000431,0.003291
30513000,0.0324,0.013523,0.002678,0.000431,0.003291
30514000,0.0324,0.013523,0.002678,0.000431,0.004936
30515000,0.0324,0.013523,0.002678,0.000431,0.004231
30516000,0.0324,0.013523,0.002678,0.000431,0.001880
30517000,0.0324,0.013523,0.002678,0.000431,0.001528
30518000,0.0324,0.013523,0.002678,0.000431,0.001763
30519000,0.0324,0.013523,0.002678,0.000431,0.001763
30520000,0.0324,0.013523,0.002678,0.000431,0.001763
30521000,0.0324,0.013523,0.002678,0.000431,0.001645
30522000,0.0324,0.013523,0.002678,0.000431,0.001645
30523000,0.0324,0.013523,0.002678,0.000431,0.001880
30524000,0.0324,0.013523,0.002678,0.000431,0.003056
30525000,0.0324,0.013523,0.002678,0.000431,0.000823
30526000,0.0324,0.013523,0.002678,0.000431,0.000823
30527000,0.0324,0.013523,0.002678,0.000431,0.000823
30528000,0.0324,0.013523,0.002678,0.000431,0.000823
30529000,0.0324,0.013523,0.002678,0.000431,0.000940
30530000,0.0324,0.013523,0.002678,0.000431,0.000823
30531000,0.0324,0.013523,0.002678,0.000431,0.000823
30532000,0.0324,0.013523,0.002678,0.000431,0.000705
30533000,0.0324,0.013523,0.002678,0.000431,0.000940
30534000,0.0324,0.013523,0.002678,0.000431,0.000940
30535000,0.0324,0.013523,0.002678,0.000431,0.000705
30536000,0.0324,0.013523,0.002678,0.000431,0.000940
30537000,0.0324,0.013523,0.002678,0.000431,0.000705
30538000,0.0324,0.013523,0.002678,0.000431,0.000940
30539000,0.0324,0.013523,0.002678,0.000431,0.000823
30540000,0.0324,0.013523,0.002678,0.000431,0.000823
30541000,0.0324,0.013523,0.002678,0.000431,0.000940
30542000,0.0324,0.013523,0.002678,0.000431,0.000705
30543000,0.0324,0.013523,0.002678,0.000431,0.000940
30544000,0.0324,0.013523,0.002678,0.000431,0.000705
30545000,0.0324,0.013523,0.002678,0.000431,0.000940
30546000,0.0324,0.013523,0.002678,0.000431,0.000823
30547000,0.0324,0.013523,0.002678,0.000431,0.000823
30548000,0.0324,0.013523,0.002678,0.000431,0.000823
30549000,0.0324,0.013523,0.002678,0.000431,0.000823
30550000,0.0324,0.013523,0.002678,0.000431,0.000940
30551000,0.0324,0.013523,0.002678,0.000431,0.000705
30552000,0.0324,0.013523,0.002678,0.000431,0.000940
30553000,0.0324,0.013523,0.002678,0.000431,0.000705
30554000,0.0324,0.013523,0.002678,0.000431,0.000940
30555000,0.0324,0.013523,0.002678,0.000431,0.000823
30556000,0.0324,0.013523,0.002678,0.000431,0.000823
30557000,0.0324,0.013523,0.002678,0.000431,0.000823
30558000,0.0324,0.013523,0.002678,0.000431,0.000823
30559000,0.0324,0.013523,0.002678,0.000431,0.000823
30560000,0.0324,0.013523,0.002678,0.000431,0.000823
30561000,0.0324,0.013523,0.002678,0.000431,0.000940
30562000,0.0324,0.013523,0.002678,0.000431,0.000823
30563000,0.0324,0.013523,0.002678,0.000431,0.000823
30564000,0.0324,0.013523,0.002678,0.000431,0.000823
30565000,0.0324,0.013523,0.002678,0.000431,0.000823
30566000,0.0324,0.013523,0.002678,0.000431,0.000823
30567000,0.0324,0.013523,0.002678,0.000431,0.000823
30568000,0.0324,0.013523,0.002678,0.000431,0.000940
30569000,0.0324,0.013523,0.002678,0.000431,0.000705
30570000,0.0324,0.013523,0.002678,0.000431,0.000940
30571000,0.0324,0.013523,0.002678,0.000431,0.000705
30572000,0.0324,0.013523,0.002678,0.000431,0.000940
30573000,0.0324,0.013523,0.002678,0.000431,0.000823
30574000,0.0324,0.013523,0.002678,0.000431,0.000823
30575000,0.0324,0.013523,0.002678,0.000431,0.000940
30576000,0.0324,0.013523,0.002678,0.000431,0.000705
30577000,0.0324,0.013523,0.002678,0.000431,0.000940
30578000,0.0324,0.013523,0.002678,0.000431,0.000823
30579000,0.0324,0.013523,0.002678,0.000431,0.000823
30580000,0.0324,0.013523,0.002678,0.000431,0.000823
30581000,0.0324,0.013523,0.002678,0.000431,0.000823
30582000,0.0324,0.013523,0.002678,0.000431,0.000940
30583000,0.0324,0.013523,0.002678,0.000431,0.000705
30584000,0.0324,0.013523,0.002678,0.000431,0.000940
30585000,0.0324,0.013523,0.002678,0.000431,0.000823
30586000,0.0324,0.013523,0.002678,0.000431,0.000823
30587000,0.0324,0.013523,0.002678,0.000431,0.000823
30588000,0.0324,0.013523,0.002678,0.000431,0.000823
30589000,0.0324,0.013523,0.002678,0.000431,0.000823
30590000,0.0324,0.013523,0.002678,0.000431,0.000823
30591000,0.0324,0.013523,0.002678,0.000431,0.000823
30592000,0.0324,0.013523,0.002678,0.000431,0.000823
30593000,0.0324,0.013523,0.002678,0.000431,0.000940
30594000,0.0324,0.013523,0.002678,0.000431,0.000823
30595000,0.0324,0.013523,0.002678,0.000431,0.000823
30596000,0.0324,0.013523,0.002678,0.000431,0.000705
30597000,0.0324,0.013523,0.002678,0.000431,0.000940
30598000,0.0324,0.013523,0.002678,0.000431,0.000940
30599000,0.0324,0.013523,0.002678,0.000431,0.000705
30600000,0.0324,0.013523,0.002678,0.000431,0.000940
30601000,0.0324,0.013523,0.002678,0.000431,0.000705
30602000,0.0324,0.013523,0.002678,0.000431,0.000940
30603000,0.0324,0.013523,0.002678,0.000431,0.000823
30604000,0.0324,0.013523,0.002678,0.000431,0.000823
30605000,0.0324,0.013523,0.002678,0.000431,0.000940
30606000,0.0324,0.013523,0.002678,0.000431,0.000705
30607000,0.0324,0.013523,0.002678,0.000431,0.000940
30608000,0.0324,0.013523,0.002678,0.000431,0.135040
30609000,0.0324,0.013523,0.002678,0.000431,0.433209
30610000,0.0324,0.013523,0.002678,0.000431,0.539689
30611000,0.0324,0.013523,0.002678,0.000431,0.134570
30612000,0.0324,0.013523,0.002678,0.000431,0.131044
30613000,0.0324,0.013523,0.002678,0.000431,0.577416
30614000,0.0324,0.013523,0.002678,0.000431,0.230355
30615000,0.0324,0.013523,0.002678,0.000431,0.280305
30616000,0.0324,0.013523,0.002678,0.000431,0.335190
30617000,0.0324,0.013523,0.002678,0.000431,0.137861
30618000,0.0324,0.013523,0.002678,0.000431,0.140799
30619000,0.0324,0.013523,0.002678,0.000431,0.112710
30620000,0.0324,0.013523,0.002678,0.000431,0.398538
30621000,0.0324,0.013523,0.002678,0.000431,0.168535
30622000,0.0324,0.013523,0.002678,0.000431,0.025269
30623000,0.0324,0.013523,0.002678,0.000431,0.023388
30624000,0.0324,0.013523,0.002678,0.000431,0.015631
30625000,0.0324,0.013523,0.002678,0.000431,0.011870
30626000,0.0324,0.013523,0.002678,0.000431,0.013516
30627000,0.0324,0.013523,0.002678,0.000431,0.008697
30628000,0.0324,0.013523,0.002678,0.000431,0.008932
30629000,0.0324,0.013523,0.002678,0.000431,0.009872
30630000,0.0324,0.013523,0.002678,0.000431,0.011400
30631000,0.0324,0.013523,0.002678,0.000431,0.006699
30632000,0.0324,0.013523,0.002678,0.000431,0.006464
30633000,0.0324,0.013523,0.002678,0.000431,0.006582
30634000,0.0324,0.013523,0.002678,0.000431,0.007404
30635000,0.0324,0.013523,0.002678,0.000431,0.007287
30636000,0.0324,0.013523,0.002678,0.000431,0.007052
30637000,0.0324,0.013523,0.002678,0.000431,0.005171
30638000,0.0324,0.013523,0.002678,0.000431,0.004701
30639000,0.0324,0.013523,0.002678,0.000431,0.005054
30640000,0.0324,0.013523,0.002678,0.000431,0.005171
30641000,0.0324,0.013523,0.002678,0.000431,0.004584
30642000,0.0324,0.013523,0.002678,0.000431,0.006229
30643000,0.0324,0.013523,0.002678,0.000431,0.005054
30644000,0.0324,0.013523,0.002678,0.000431,0.006464
30645000,0.0324,0.013523,0.002678,0.000431,0.002586
30646000,0.0324,0.013523,0.002678,0.000431,0.002468
30647000,0.0324,0.013523,0.002678,0.000431,0.002233
30648000,0.0324,0.013523,0.002678,0.000431,0.002468
30649000,0.0324,0.013523,0.002678,0.000431,0.001998
30650000,0.0324,0.013523,0.002678,0.000431,0.002821
30651000,0.0324,0.013523,0.002678,0.000431,0.002116
30652000,0.0324,0.013523,0.002678,0.000431,0.003643
30653000,0.0324,0.013523,0.002678,0.000431,0.000940
30654000,0.0324,0.013523,0.002678,0.000431,0.000823
30655000,0.0324,0.013523,0.002678,0.000431,0.000823
30656000,0.0324,0.013523,0.002678,0.000431,0.000823
30657000,0.0324,0.013523,0.002678,0.000431,0.000823
30658000,0.0324,0.013523,0.002678,0.000431,0.000823
30659000,0.0324,0.013523,0.002678,0.000431,0.000940
30660000,0.0324,0.013523,0.002678,0.000431,0.000705
30661000,0.0324,0.013523,0.002678,0.000431,0.000940
30662000,0.0324,0.013523,0.002678,0.000431,0.000705
30663000,0.0324,0.013523,0.002678,0.000431,0.000940
30664000,0.0324,0.013523,0.002678,0.000431,0.000940
30665000,0.0324,0.013523,0.002678,0.000431,0.000705
30666000,0.0324,0.013523,0.002678,0.000431,0.000940
30667000,0.0324,0.013523,0.002678,0.000431,0.000705
30668000,0.0324,0.013523,0.002678,0.000431,0.000940
30669000,0.0324,0.013523,0.002678,0.000431,0.000823
30670000,0.0324,0.013523,0.002678,0.000431,0.000823
30671000,0.0324,0.013523,0.002678,0.000431,0.000823
30672000,0.0324,0.013523,0.002678,0.000431,0.000823
30673000,0.0324,0.013523,0.002678,0.000431,0.000940
30674000,0.0324,0.013523,0.002678,0.000431,0.000705
30675000,0.0324,0.013523,0.002678,0.000431,0.000940
30676000,0.0324,0.013523,0.002678,0.000431,0.000823
30677000,0.0324,0.013523,0.002678,0.000431,0.000823
30678000,0.0324,0.013523,0.002678,0.000431,0.000823
30679000,0.0324,0.013523,0.002678,0.000431,0.000823
30680000,0.0324,0.013523,0.002678,0.000431,0.000823
30681000,0.0324,0.013523,0.002678,0.000431,0.000823
30682000,0.0324,0.013523,0.002678,0.000431,0.000823
30683000,0.0324,0.013523,0.002678,0.000431,0.000940
30684000,0.0324,0.013523,0.002678,0.000431,0.000823
30685000,0.0324,0.013523,0.002678,0.000431,0.000823
30686000,0.0324,0.013523,0.002678,0.000431,0.000823
30687000,0.0324,0.013523,0.002678,0.000431,0.000705
30688000,0.0324,0.013523,0.002678,0.000431,0.000940
30689000,0.0324,0.013523,0.002678,0.000431,0.000940
30690000,0.0324,0.013523,0.002678,0.000431,0.000705
30691000,0.0324,0.013523,0.002678,0.000431,0.000940
30692000,0.0324,0.013523,0.002678,0.000431,0.000705
30693000,0.0324,0.013523,0.002678,0.000431,0.000940
30694000,0.0324,0.013523,0.002678,0.000431,0.000823
30695000,0.0324,0.013523,0.002678,0.000431,0.014103
30696000,0.0324,0.013523,0.002678,0.000431,0.461768
30697000,0.0324,0.013523,0.002678,0.000431,0.600451
30698000,0.0324,0.013523,0.002678,0.000431,0.132689
30699000,0.0324,0.013523,0.002678,0.000431,0.132572
30700000,0.0324,0.013523,0.002678,0.000431,0.329784
30701000,0.0324,0.013523,0.002678,0.000431,0.426745
30702000,0.0324,0.013523,0.002678,0.000431,0.227064
30703000,0.0324,0.013523,0.002678,0.000431,0.239170
30704000,0.0324,0.013523,0.002678,0.000431,0.229650
30705000,0.0324,0.013523,0.002678,0.000431,0.145030
30706000,0.0324,0.013523,0.002678,0.000431,0.153727
30707000,0.0324,0.013523,0.002678,0.000431,0.109066
30708000,0.0324,0.013523,0.002678,0.000431,0.397128
30709000,0.0324,0.013523,0.002678,0.000431,0.183579
30710000,0.0324,0.013523,0.002678,0.000431,0.030792
30711000,0.0324,0.013523,0.002678,0.000431,0.023036
30712000,0.0324,0.013523,0.002678,0.000431,0.018217
30713000,0.0324,0.013523,0.002678,0.000431,0.018217
30714000,0.0324,0.013523,0.002678,0.000431,0.017512
30715000,0.0324,0.013523,0.002678,0.000431,0.017629
30716000,0.0324,0.013523,0.002678,0.000431,0.011988
30717000,0.0324,0.013523,0.002678,0.000431,0.010930
30718000,0.0324,0.013523,0.002678,0.000431,0.013633
30719000,0.0324,0.013523,0.002678,0.000431,0.012223
30720000,0.0324,0.013523,0.002678,0.000431,0.010342
30721000,0.0324,0.013523,0.002678,0.000431,0.007522
30722000,0.0324,0.013523,0.002678,0.000431,0.005876
30723000,0.0324,0.013523,0.002678,0.000431,0.007757
30724000,0.0324,0.013523,0.002678,0.000431,0.005524
30725000,0.0324,0.013523,0.002678,0.000431,0.005171
30726000,0.0324,0.013523,0.002678,0.000431,0.005171
30727000,0.0324,0.013523,0.002678,0.000431,0.005289
30728000,0.0324,0.013523,0.002678,0.000431,0.005171
30729000,0.0324,0.013523,0.002678,0.000431,0.005054
30730000,0.0324,0.013523,0.002678,0.000431,0.005054
30731000,0.0324,0.013523,0.002678,0.000431,0.005524
30732000,0.0324,0.013523,0.002678,0.000431,0.005054
30733000,0.0324,0.013523,0.002678,0.000431,0.005171
30734000,0.0324,0.013523,0.002678,0.000431,0.005054
30735000,0.0324,0.013523,0.002678,0.000431,0.005171
30736000,0.0324,0.013523,0.002678,0.000431,0.005289
30737000,0.0324,0.013523,0.002678,0.000431,0.005289
30738000,0.0324,0.013523,0.002678,0.000431,0.004819
30739000,0.0324,0.013523,0.002678,0.000431,0.005289
30740000,0.0324,0.013523,0.002678,0.000431,0.005406
30741000,0.0324,0.013523,0.002678,0.000431,0.005054
30742000,0.0324,0.013523,0.002678,0.000431,0.005171
30743000,0.0324,0.013523,0.002678,0.000431,0.005054
30744000,0.0324,0.013523,0.002678,0.000431,0.005524
30745000,0.0324,0.013523,0.002678,0.000431,0.005054
30746000,0.0324,0.013523,0.002678,0.000431,0.007404
30747000,0.0324,0.013523,0.002678,0.000431,0.005524
30748000,0.0324,0.013523,0.002678,0.000431,0.004231
30749000,0.0324,0.013523,0.002678,0.000431,0.005054
30750000,0.0324,0.013523,0.002678,0.000431,0.002468
30751000,0.0324,0.013523,0.002678,0.000431,0.002821
30752000,0.0324,0.013523,0.002678,0.000431,0.002468
30753000,0.0324,0.013523,0.002678,0.000431,0.002468
30754000,0.0324,0.013523,0.002678,0.000431,0.002703
30755000,0.0324,0.013523,0.002678,0.000431,0.002586
30756000,0.0324,0.013523,0.002678,0.000431,0.002703
30757000,0.0324,0.013523,0.002678,0.000431,0.002586
30758000,0.0324,0.013523,0.002678,0.000431,0.002703
30759000,0.0324,0.013523,0.002678,0.000431,0.002586
30760000,0.0324,0.013523,0.002678,0.000431,0.002586
30761000,0.0324,0.013523,0.002678,0.000431,0.002703
30762000,0.0324,0.013523,0.002678,0.000431,0.002703
30763000,0.0324,0.013523,0.002678,0.000431,0.002586
30764000,0.0324,0.013523,0.002678,0.000431,0.002586
30765000,0.0324,0.013523,0.002678,0.000431,0.002703
30766000,0.0324,0.013523,0.002678,0.000431,0.002703
30767000,0.0324,0.013523,0.002678,0.000431,0.002468
30768000,0.0324,0.013523,0.002678,0.000431,0.002703
30769000,0.0324,0.013523,0.002678,0.000431,0.002703
30770000,0.0324,0.013523,0.002678,0.000431,0.002586
30771000,0.0324,0.013523,0.002678,0.000431,0.002586
30772000,0.0324,0.013523,0.002678,0.000431,0.002586
30773000,0.0324,0.013523,0.002678,0.000431,0.002703
30774000,0.0324,0.013523,0.002678,0.000431,0.002703
30775000,0.0324,0.013523,0.002678,0.000431,0.002468
30776000,0.0324,0.013523,0.002678,0.000431,0.002703
30777000,0.0324,0.013523,0.002678,0.000431,0.002703
30778000,0.0324,0.013523,0.002678,0.000431,0.002586
30779000,0.0324,0.013523,0.002678,0.000431,0.002468
30780000,0.0324,0.013523,0.002678,0.000431,0.002821
30781000,0.0324,0.013523,0.002678,0.000431,0.002703
30782000,0.0324,0.013523,0.002678,0.000431,0.002468
30783000,0.0324,0.013523,0.002678,0.000431,0.002586
30784000,0.0324,0.013523,0.002678,0.000431,0.002821
30785000,0.0324,0.013523,0.002678,0.000431,0.002586
30786000,0.0324,0.013523,0.002678,0.000431,0.002468
30787000,0.0324,0.013523,0.002678,0.000431,0.002821
30788000,0.0324,0.013523,0.002678,0.000431,0.002703
30789000,0.0324,0.013523,0.002678,0.000431,0.002586
30790000,0.0324,0.013523,0.002678,0.000431,0.002468
30791000,0.0324,0.013523,0.002678,0.000431,0.002703
30792000,0.0324,0.013523,0.002678,0.000431,0.002703
30793000,0.0324,0.013523,0.002678,0.000431,0.002703
30794000,0.0324,0.013523,0.002678,0.000431,0.002351
30795000,0.0324,0.013523,0.002678,0.000431,0.002821
30796000,0.0324,0.013523,0.002678,0.000431,0.002586
30797000,0.0324,0.013523,0.002678,0.000431,0.002703
30798000,0.0324,0.013523,0.002678,0.000431,0.002468
30799000,0.0324,0.013523,0.002678,0.000431,0.003643
30800000,0.0324,0.013523,0.002678,0.000431,0.003056
30801000,0.0324,0.013523,0.002678,0.000431,0.001528
30802000,0.0324,0.013523,0.002678,0.000431,0.001763
30803000,0.0324,0.013523,0.002678,0.000431,0.001880
30804000,0.0324,0.013523,0.002678,0.000431,0.001880
30805000,0.0324,0.013523,0.002678,0.000431,0.001528
30806000,0.0324,0.013523,0.002678,0.000431,0.001763
30807000,0.0324,0.013523,0.002678,0.000431,0.001880
30808000,0.0324,0.013523,0.002678,0.000431,0.001645
30809000,0.0324,0.013523,0.002678,0.000431,0.001763
30810000,0.0324,0.013523,0.002678,0.000431,0.001763
30811000,0.0324,0.013523,0.002678,0.000431,0.003526
30812000,0.0324,0.013523,0.002678,0.000431,0.000940
30813000,0.0324,0.013523,0.002678,0.000431,0.000823
30814000,0.0324,0.013523,0.002678,0.000431,0.000940
30815000,0.0324,0.013523,0.002678,0.000431,0.000940
30816000,0.0324,0.013523,0.002678,0.000431,0.000823
30817000,0.0324,0.013523,0.002678,0.000431,0.000823
30818000,0.0324,0.013523,0.002678,0.000431,0.000940
30819000,0.0324,0.013523,0.002678,0.000431,0.000940
30820000,0.0324,0.013523,0.002678,0.000431,0.000823
30821000,0.0324,0.013523,0.002678,0.000431,0.000823
30822000,0.0324,0.013523,0.002678,0.000431,0.000940
30823000,0.0324,0.013523,0.002678,0.000431,0.175587
30824000,0.0324,0.013523,0.002678,0.000431,0.415110
30825000,0.0324,0.013523,0.002678,0.000431,0.532520
30826000,0.0324,0.013523,0.002678,0.000431,0.132689
30827000,0.0324,0.013523,0.002678,0.000431,0.132454
30828000,0.0324,0.013523,0.002678,0.000431,0.581177
30829000,0.0324,0.013523,0.002678,0.000431,0.238230
30830000,0.0324,0.013523,0.002678,0.000431,0.271490
30831000,0.0324,0.013523,0.002678,0.000431,0.328726
30832000,0.0324,0.013523,0.002678,0.000431,0.137626
30833000,0.0324,0.013523,0.002678,0.000431,0.143502
30834000,0.0324,0.013523,0.002678,0.000431,0.105775
30835000,0.0324,0.013523,0.002678,0.000431,0.433091
30836000,0.0324,0.013523,0.002678,0.000431,0.191806
30837000,0.0324,0.013523,0.002678,0.000431,0.060409
30838000,0.0324,0.013523,0.002678,0.000431,0.049362
30839000,0.0324,0.013523,0.002678,0.000431,0.047011
30840000,0.0324,0.013523,0.002678,0.000431,0.034671
30841000,0.0324,0.013523,0.002678,0.000431,0.034318
30842000,0.0324,0.013523,0.002678,0.000431,0.030675
30843000,0.0324,0.013523,0.002678,0.000431,0.023506
30844000,0.0324,0.013523,0.002678,0.000431,0.025504
30845000,0.0324,0.013523,0.002678,0.000431,0.022800
30846000,0.0324,0.013523,0.002678,0.000431,0.019862
30847000,0.0324,0.013523,0.002678,0.000431,0.016336
30848000,0.0324,0.013523,0.002678,0.000431,0.020802
30849000,0.0324,0.013523,0.002678,0.000431,0.014809
30850000,0.0324,0.013523,0.002678,0.000431,0.011048
30851000,0.0324,0.013523,0.002678,0.000431,0.010107
30852000,0.0324,0.013523,0.002678,0.000431,0.007404
30853000,0.0324,0.013523,0.002678,0.000431,0.006111
30854000,0.0324,0.013523,0.002678,0.000431,0.005289
30855000,0.0324,0.013523,0.002678,0.000431,0.005171
30856000,0.0324,0.013523,0.002678,0.000431,0.004936
30857000,0.0324,0.013523,0.002678,0.000431,0.005171
30858000,0.0324,0.013523,0.002678,0.000431,0.005994
30859000,0.0324,0.013523,0.002678,0.000431,0.004466
30860000,0.0324,0.013523,0.002678,0.000431,0.006111
30861000,0.0324,0.013523,0.002678,0.000431,0.003526
30862000,0.0324,0.013523,0.002678,0.000431,0.003643
30863000,0.0324,0.013523,0.002678,0.000431,0.003291
30864000,0.0324,0.013523,0.002678,0.000431,0.003643
30865000,0.0324,0.013523,0.002678,0.000431,0.003408
30866000,0.0324,0.013523,0.002678,0.000431,0.005289
30867000,0.0324,0.013523,0.002678,0.000431,0.002468
30868000,0.0324,0.013523,0.002678,0.000431,0.002703
30869000,0.0324,0.013523,0.002678,0.000431,0.004701
30870000,0.0324,0.013523,0.002678,0.000431,0.001528
30871000,0.0324,0.013523,0.002678,0.000431,0.001880
30872000,0.0324,0.013523,0.002678,0.000431,0.001528
30873000,0.0324,0.013523,0.002678,0.000431,0.001763
30874000,0.0324,0.013523,0.002678,0.000431,0.001528
30875000,0.0324,0.013523,0.002678,0.000431,0.001763
30876000,0.0324,0.013523,0.002678,0.000431,0.001763
30877000,0.0324,0.013523,0.002678,0.000431,0.001528
30878000,0.0324,0.013523,0.002678,0.000431,0.001880
30879000,0.0324,0.013523,0.002678,0.000431,0.001410
30880000,0.0324,0.013523,0.002678,0.000431,0.001880
30881000,0.0324,0.013523,0.002678,0.000431,0.001645
30882000,0.0324,0.013523,0.002678,0.000431,0.001645
30883000,0.0324,0.013523,0.002678,0.000431,0.001528
30884000,0.0324,0.013523,0.002678,0.000431,0.001763
30885000,0.0324,0.013523,0.002678,0.000431,0.001880
30886000,0.0324,0.013523,0.002678,0.000431,0.001528
30887000,0.0324,0.013523,0.002678,0.000431,0.001763
30888000,0.0324,0.013523,0.002678,0.000431,0.001763
30889000,0.0324,0.013523,0.002678,0.000431,0.001645
30890000,0.0324,0.013523,0.002678,0.000431,0.001645
30891000,0.0324,0.013523,0.002678,0.000431,0.001763
30892000,0.0324,0.013523,0.002678,0.000431,0.001880
30893000,0.0324,0.013523,0.002678,0.000431,0.001410
30894000,0.0324,0.013523,0.002678,0.000431,0.001880
30895000,0.0324,0.013523,0.002678,0.000431,0.001528
30896000,0.0324,0.013523,0.002678,0.000431,0.001763
30897000,0.0324,0.013523,0.002678,0.000431,0.001528
30898000,0.0324,0.013523,0.002678,0.000431,0.001763
30899000,0.0324,0.013523,0.002678,0.000431,0.001880
30900000,0.0324,0.013523,0.002678,0.000431,0.001410
30901000,0.0324,0.013523,0.002678,0.000431,0.001880
30902000,0.0324,0.013523,0.002678,0.000431,0.001528
30903000,0.0324,0.013523,0.002678,0.000431,0.001763
30904000,0.0324,0.013523,0.002678,0.000431,0.001880
30905000,0.0324,0.013523,0.002678,0.000431,0.001645
30906000,0.0324,0.013523,0.002678,0.000431,0.001763
30907000,0.0324,0.013523,0.002678,0.000431,0.001528
30908000,0.0324,0.013523,0.002678,0.000431,0.001880
30909000,0.0324,0.013523,0.002678,0.000431,0.003526
30910000,0.0324,0.013523,0.002678,0.000431,0.000823
30911000,0.0324,0.013523,0.002678,0.000431,0.000823
30912000,0.0324,0.013523,0.002678,0.000431,0.000823
30913000,0.0324,0.013523,0.002678,0.000431,0.000940
30914000,0.0324,0.013523,0.002678,0.000431,0.000705
30915000,0.0324,0.013523,0.002678,0.000431,0.000940
30916000,0.0324,0.013523,0.002678,0.000431,0.000823
30917000,0.0324,0.013523,0.002678,0.000431,0.000823
30918000,0.0324,0.013523,0.002678,0.000431,0.000823
30919000,0.0324,0.013523,0.002678,0.000431,0.000823
30920000,0.0324,0.013523,0.002678,0.000431,0.000940
30921000,0.0324,0.013523,0.002678,0.000431,0.000705
30922000,0.0324,0.013523,0.002678,0.000431,0.000823
30923000,0.0324,0.013523,0.002678,0.000431,0.000940
30924000,0.0324,0.013523,0.002678,0.000431,0.000823
30925000,0.0324,0.013523,0.002678,0.000431,0.000823
30926000,0.0324,0.013523,0.002678,0.000431,0.000823
30927000,0.0324,0.013523,0.002678,0.000431,0.000823
30928000,0.0324,0.013523,0.002678,0.000431,0.000823
30929000,0.0324,0.013523,0.002678,0.000431,0.000940
30930000,0.0324,0.013523,0.002678,0.000431,0.000705
30931000,0.0324,0.013523,0.002678,0.000431,0.000940
30932000,0.0324,0.013523,0.002678,0.000431,0.000705
30933000,0.0324,0.013523,0.002678,0.000431,0.000940
30934000,0.0324,0.013523,0.002678,0.000431,0.000940
30935000,0.0324,0.013523,0.002678,0.000431,0.000705
30936000,0.0324,0.013523,0.002678,0.000431,0.000940
30937000,0.0324,0.013523,0.002678,0.000431,0.000705
30938000,0.0324,0.013523,0.002678,0.000431,0.000940
30939000,0.0324,0.013523,0.002678,0.000431,0.000823
30940000,0.0324,0.013523,0.002678,0.000431,0.000823
30941000,0.0324,0.013523,0.002678,0.000431,0.000823
30942000,0.0324,0.013523,0.002678,0.000431,0.000823
30943000,0.0324,0.013523,0.002678,0.000431,0.000940
30944000,0.0324,0.013523,0.002678,0.000431,0.000705
30945000,0.0324,0.013523,0.002678,0.000431,0.000940
30946000,0.0324,0.013523,0.002678,0.000431,0.000823
30947000,0.0324,0.013523,0.002678,0.000431,0.000823
30948000,0.0324,0.013523,0.002678,0.000431,0.000823
30949000,0.0324,0.013523,0.002678,0.000431,0.000823
30950000,0.0324,0.013523,0.002678,0.000431,0.000823
30951000,0.0324,0.013523,0.002678,0.000431,0.000823
30952000,0.0324,0.013523,0.002678,0.000431,0.000940
30953000,0.0324,0.013523,0.002678,0.000431,0.000705
30954000,0.0324,0.013523,0.002678,0.000431,0.000940
30955000,0.0324,0.013523,0.002678,0.000431,0.000705
30956000,0.0324,0.013523,0.002678,0.000431,0.000940
30957000,0.0324,0.013523,0.002678,0.000431,0.000940
30958000,0.0324,0.013523,0.002678,0.000431,0.000705
30959000,0.0324,0.013523,0.002678,0.000431,0.000940
30960000,0.0324,0.013523,0.002678,0.000431,0.000705
30961000,0.0324,0.013523,0.002678,0.000431,0.000940
30962000,0.0324,0.013523,0.002678,0.000431,0.000823
30963000,0.0324,0.013523,0.002678,0.000431,0.000823
30964000,0.0324,0.013523,0.002678,0.000431,0.000823
30965000,0.0324,0.013523,0.002678,0.000431,0.000823
30966000,0.0324,0.013523,0.002678,0.000431,0.000940
30967000,0.0324,0.013523,0.002678,0.000431,0.000705
30968000,0.0324,0.013523,0.002678,0.000431,0.000940
30969000,0.0324,0.013523,0.002678,0.000431,0.000940
30970000,0.0324,0.013523,0.002678,0.000431,0.000940
30971000,0.0324,0.013523,0.002678,0.000431,0.000823
30972000,0.0324,0.013523,0.002678,0.000431,0.000823
30973000,0.0324,0.013523,0.002678,0.000431,0.000940
30974000,0.0324,0.013523,0.002678,0.000431,0.000940
30975000,0.0324,0.013523,0.002678,0.000431,0.000823
30976000,0.0324,0.013523,0.002678,0.000431,0.000823
30977000,0.0324,0.013523,0.002678,0.000431,0.000940
30978000,0.0324,0.013523,0.002678,0.000431,0.000823
30979000,0.0324,0.013523,0.002678,0.000431,0.000940
30980000,0.0324,0.013523,0.002678,0.000431,0.000823
30981000,0.0324,0.013523,0.002678,0.000431,0.000940
30982000,0.0324,0.013523,0.002678,0.000431,0.000823
30983000,0.0324,0.013523,0.002678,0.000431,0.000823
30984000,0.0324,0.013523,0.002678,0.000431,0.000940
30985000,0.0324,0.013523,0.002678,0.000431,0.000940
30986000,0.0324,0.013523,0.002678,0.000431,0.000823
30987000,0.0324,0.013523,0.002678,0.000431,0.000823
30988000,0.0324,0.013523,0.002678,0.000431,0.000940
30989000,0.0324,0.013523,0.002678,0.000431,0.000940
30990000,0.0324,0.013523,0.002678,0.000431,0.000705
30991000,0.0324,0.013523,0.002678,0.000431,0.000940
30992000,0.0324,0.013523,0.002678,0.000431,0.000940
30993000,0.0324,0.013523,0.002678,0.000431,0.000940
30994000,0.0324,0.013523,0.002678,0.000431,0.000705
30995000,0.0324,0.013523,0.002678,0.000431,0.000940
30996000,0.0324,0.013523,0.002678,0.000431,0.000940
30997000,0.0324,0.013523,0.002678,0.000431,0.000823
30998000,0.0324,0.013523,0.002678,0.000431,0.000823
30999000,0.0324,0.013523,0.002678,0.000431,0.000940
