Cycle,Area(mm^2),PeakDynamic(W),SubthresholdLeakage(W),GateLeakage(W),RunTimeDynamic(W)
20000000,0.0324,0.013523,0.002678,0.000431,0.000940
20001000,0.0324,0.013523,0.002678,0.000431,0.000940
20002000,0.0324,0.013523,0.002678,0.000431,0.000705
20003000,0.0324,0.013523,0.002678,0.000431,0.000940
20004000,0.0324,0.013523,0.002678,0.000431,0.000940
20005000,0.0324,0.013523,0.002678,0.000431,0.000940
20006000,0.0324,0.013523,0.002678,0.000431,0.000705
20007000,0.0324,0.013523,0.002678,0.000431,0.000940
20008000,0.0324,0.013523,0.002678,0.000431,0.000940
20009000,0.0324,0.013523,0.002678,0.000431,0.000823
20010000,0.0324,0.013523,0.002678,0.000431,0.000823
20011000,0.0324,0.013523,0.002678,0.000431,0.000940
20012000,0.0324,0.013523,0.002678,0.000431,0.000823
20013000,0.0324,0.013523,0.002678,0.000431,0.000940
20014000,0.0324,0.013523,0.002678,0.000431,0.000823
20015000,0.0324,0.013523,0.002678,0.000431,0.000940
20016000,0.0324,0.013523,0.002678,0.000431,0.000823
20017000,0.0324,0.013523,0.002678,0.000431,0.000823
20018000,0.0324,0.013523,0.002678,0.000431,0.000940
20019000,0.0324,0.013523,0.002678,0.000431,0.000940
20020000,0.0324,0.013523,0.002678,0.000431,0.000823
20021000,0.0324,0.013523,0.002678,0.000431,0.000823
20022000,0.0324,0.013523,0.002678,0.000431,0.000940
20023000,0.0324,0.013523,0.002678,0.000431,0.000940
20024000,0.0324,0.013523,0.002678,0.000431,0.000823
20025000,0.0324,0.013523,0.002678,0.000431,0.000823
20026000,0.0324,0.013523,0.002678,0.000431,0.000940
20027000,0.0324,0.013523,0.002678,0.000431,0.000940
20028000,0.0324,0.013523,0.002678,0.000431,0.000823
20029000,0.0324,0.013523,0.002678,0.000431,0.000823
20030000,0.0324,0.013523,0.002678,0.000431,0.000940
20031000,0.0324,0.013523,0.002678,0.000431,0.000823
20032000,0.0324,0.013523,0.002678,0.000431,0.000940
20033000,0.0324,0.013523,0.002678,0.000431,0.000823
20034000,0.0324,0.013523,0.002678,0.000431,0.000940
20035000,0.0324,0.013523,0.002678,0.000431,0.000823
20036000,0.0324,0.013523,0.002678,0.000431,0.000823
20037000,0.0324,0.013523,0.002678,0.000431,0.000940
20038000,0.0324,0.013523,0.002678,0.000431,0.000940
20039000,0.0324,0.013523,0.002678,0.000431,0.000823
20040000,0.0324,0.013523,0.002678,0.000431,0.001763
20041000,0.0324,0.013523,0.002678,0.000431,0.306278
20042000,0.0324,0.013523,0.002678,0.000431,0.671439
20043000,0.0324,0.013523,0.002678,0.000431,0.140446
20044000,0.0324,0.013523,0.002678,0.000431,0.133512
20045000,0.0324,0.013523,0.002678,0.000431,0.131632
20046000,0.0324,0.013523,0.002678,0.000431,0.610559
20047000,0.0324,0.013523,0.002678,0.000431,0.220718
20048000,0.0324,0.013523,0.002678,0.000431,0.289002
20049000,0.0324,0.013523,0.002678,0.000431,0.241873
20050000,0.0324,0.013523,0.002678,0.000431,0.134687
20051000,0.0324,0.013523,0.002678,0.000431,0.147498
20052000,0.0324,0.013523,0.002678,0.000431,0.119409
20053000,0.0324,0.013523,0.002678,0.000431,0.279835
20054000,0.0324,0.013523,0.002678,0.000431,0.287121
20055000,0.0324,0.013523,0.002678,0.000431,0.004819
20056000,0.0324,0.013523,0.002678,0.000431,0.003408
20057000,0.0324,0.013523,0.002678,0.000431,0.003526
20058000,0.0324,0.013523,0.002678,0.000431,0.003408
20059000,0.0324,0.013523,0.002678,0.000431,0.003408
20060000,0.0324,0.013523,0.002678,0.000431,0.003761
20061000,0.0324,0.013523,0.002678,0.000431,0.003408
20062000,0.0324,0.013523,0.002678,0.000431,0.003526
20063000,0.0324,0.013523,0.002678,0.000431,0.003408
20064000,0.0324,0.013523,0.002678,0.000431,0.003408
20065000,0.0324,0.013523,0.002678,0.000431,0.003761
20066000,0.0324,0.013523,0.002678,0.000431,0.003526
20067000,0.0324,0.013523,0.002678,0.000431,0.003291
20068000,0.0324,0.013523,0.002678,0.000431,0.003526
20069000,0.0324,0.013523,0.002678,0.000431,0.003643
20070000,0.0324,0.013523,0.002678,0.000431,0.003643
20071000,0.0324,0.013523,0.002678,0.000431,0.003173
20072000,0.0324,0.013523,0.002678,0.000431,0.003643
20073000,0.0324,0.013523,0.002678,0.000431,0.003526
20074000,0.0324,0.013523,0.002678,0.000431,0.003643
20075000,0.0324,0.013523,0.002678,0.000431,0.003291
20076000,0.0324,0.013523,0.002678,0.000431,0.003643
20077000,0.0324,0.013523,0.002678,0.000431,0.003526
20078000,0.0324,0.013523,0.002678,0.000431,0.003408
20079000,0.0324,0.013523,0.002678,0.000431,0.003526
20080000,0.0324,0.013523,0.002678,0.000431,0.003643
20081000,0.0324,0.013523,0.002678,0.000431,0.003408
20082000,0.0324,0.013523,0.002678,0.000431,0.003526
20083000,0.0324,0.013523,0.002678,0.000431,0.003408
20084000,0.0324,0.013523,0.002678,0.000431,0.003761
20085000,0.0324,0.013523,0.002678,0.000431,0.003291
20086000,0.0324,0.013523,0.002678,0.000431,0.003643
20087000,0.0324,0.013523,0.002678,0.000431,0.003526
20088000,0.0324,0.013523,0.002678,0.000431,0.003408
20089000,0.0324,0.013523,0.002678,0.000431,0.003643
20090000,0.0324,0.013523,0.002678,0.000431,0.003408
20091000,0.0324,0.013523,0.002678,0.000431,0.003643
20092000,0.0324,0.013523,0.002678,0.000431,0.003408
20093000,0.0324,0.013523,0.002678,0.000431,0.003526
20094000,0.0324,0.013523,0.002678,0.000431,0.003526
20095000,0.0324,0.013523,0.002678,0.000431,0.003408
20096000,0.0324,0.013523,0.002678,0.000431,0.003643
20097000,0.0324,0.013523,0.002678,0.000431,0.003526
20098000,0.0324,0.013523,0.002678,0.000431,0.003526
20099000,0.0324,0.013523,0.002678,0.000431,0.003408
20100000,0.0324,0.013523,0.002678,0.000431,0.003408
20101000,0.0324,0.013523,0.002678,0.000431,0.003761
20102000,0.0324,0.013523,0.002678,0.000431,0.004231
20103000,0.0324,0.013523,0.002678,0.000431,0.002821
20104000,0.0324,0.013523,0.002678,0.000431,0.002351
20105000,0.0324,0.013523,0.002678,0.000431,0.002821
20106000,0.0324,0.013523,0.002678,0.000431,0.002586
20107000,0.0324,0.013523,0.002678,0.000431,0.002586
20108000,0.0324,0.013523,0.002678,0.000431,0.002586
20109000,0.0324,0.013523,0.002678,0.000431,0.002703
20110000,0.0324,0.013523,0.002678,0.000431,0.002703
20111000,0.0324,0.013523,0.002678,0.000431,0.002586
20112000,0.0324,0.013523,0.002678,0.000431,0.002586
20113000,0.0324,0.013523,0.002678,0.000431,0.002703
20114000,0.0324,0.013523,0.002678,0.000431,0.002468
20115000,0.0324,0.013523,0.002678,0.000431,0.002703
20116000,0.0324,0.013523,0.002678,0.000431,0.002586
20117000,0.0324,0.013523,0.002678,0.000431,0.002821
20118000,0.0324,0.013523,0.002678,0.000431,0.002468
20119000,0.0324,0.013523,0.002678,0.000431,0.002586
20120000,0.0324,0.013523,0.002678,0.000431,0.002821
20121000,0.0324,0.013523,0.002678,0.000431,0.002586
20122000,0.0324,0.013523,0.002678,0.000431,0.002586
20123000,0.0324,0.013523,0.002678,0.000431,0.002586
20124000,0.0324,0.013523,0.002678,0.000431,0.002821
20125000,0.0324,0.013523,0.002678,0.000431,0.002586
20126000,0.0324,0.013523,0.002678,0.000431,0.002468
20127000,0.0324,0.013523,0.002678,0.000431,0.002703
20128000,0.0324,0.013523,0.002678,0.000431,0.002703
20129000,0.0324,0.013523,0.002678,0.000431,0.002468
20130000,0.0324,0.013523,0.002678,0.000431,0.002821
20131000,0.0324,0.013523,0.002678,0.000431,0.002468
20132000,0.0324,0.013523,0.002678,0.000431,0.002821
20133000,0.0324,0.013523,0.002678,0.000431,0.002468
20134000,0.0324,0.013523,0.002678,0.000431,0.002586
20135000,0.0324,0.013523,0.002678,0.000431,0.002703
20136000,0.0324,0.013523,0.002678,0.000431,0.002703
20137000,0.0324,0.013523,0.002678,0.000431,0.002586
20138000,0.0324,0.013523,0.002678,0.000431,0.004231
20139000,0.0324,0.013523,0.002678,0.000431,0.001998
20140000,0.0324,0.013523,0.002678,0.000431,0.001880
20141000,0.0324,0.013523,0.002678,0.000431,0.001410
20142000,0.0324,0.013523,0.002678,0.000431,0.001880
20143000,0.0324,0.013523,0.002678,0.000431,0.001880
20144000,0.0324,0.013523,0.002678,0.000431,0.001880
20145000,0.0324,0.013523,0.002678,0.000431,0.001410
20146000,0.0324,0.013523,0.002678,0.000431,0.001880
20147000,0.0324,0.013523,0.002678,0.000431,0.001880
20148000,0.0324,0.013523,0.002678,0.000431,0.001763
20149000,0.0324,0.013523,0.002678,0.000431,0.001645
20150000,0.0324,0.013523,0.002678,0.000431,0.001763
20151000,0.0324,0.013523,0.002678,0.000431,0.001880
20152000,0.0324,0.013523,0.002678,0.000431,0.001645
20153000,0.0324,0.013523,0.002678,0.000431,0.001645
20154000,0.0324,0.013523,0.002678,0.000431,0.001880
20155000,0.0324,0.013523,0.002678,0.000431,0.001880
20156000,0.0324,0.013523,0.002678,0.000431,0.001645
20157000,0.0324,0.013523,0.002678,0.000431,0.001645
20158000,0.0324,0.013523,0.002678,0.000431,0.001880
20159000,0.0324,0.013523,0.002678,0.000431,0.001763
20160000,0.0324,0.013523,0.002678,0.000431,0.001645
20161000,0.0324,0.013523,0.002678,0.000431,0.001763
20162000,0.0324,0.013523,0.002678,0.000431,0.001880
20163000,0.0324,0.013523,0.002678,0.000431,0.001880
20164000,0.0324,0.013523,0.002678,0.000431,0.001410
20165000,0.0324,0.013523,0.002678,0.000431,0.001880
20166000,0.0324,0.013523,0.002678,0.000431,0.001880
20167000,0.0324,0.013523,0.002678,0.000431,0.001763
20168000,0.0324,0.013523,0.002678,0.000431,0.001528
20169000,0.0324,0.013523,0.002678,0.000431,0.001880
20170000,0.0324,0.013523,0.002678,0.000431,0.001763
20171000,0.0324,0.013523,0.002678,0.000431,0.001763
20172000,0.0324,0.013523,0.002678,0.000431,0.002703
20173000,0.0324,0.013523,0.002678,0.000431,0.000940
20174000,0.0324,0.013523,0.002678,0.000431,0.000823
20175000,0.0324,0.013523,0.002678,0.000431,0.000823
20176000,0.0324,0.013523,0.002678,0.000431,0.000940
20177000,0.0324,0.013523,0.002678,0.000431,0.000940
20178000,0.0324,0.013523,0.002678,0.000431,0.000823
20179000,0.0324,0.013523,0.002678,0.000431,0.000823
20180000,0.0324,0.013523,0.002678,0.000431,0.000940
20181000,0.0324,0.013523,0.002678,0.000431,0.000940
20182000,0.0324,0.013523,0.002678,0.000431,0.000823
20183000,0.0324,0.013523,0.002678,0.000431,0.000823
20184000,0.0324,0.013523,0.002678,0.000431,0.000940
20185000,0.0324,0.013523,0.002678,0.000431,0.000940
20186000,0.0324,0.013523,0.002678,0.000431,0.000823
20187000,0.0324,0.013523,0.002678,0.000431,0.000823
20188000,0.0324,0.013523,0.002678,0.000431,0.000940
20189000,0.0324,0.013523,0.002678,0.000431,0.000823
20190000,0.0324,0.013523,0.002678,0.000431,0.000940
20191000,0.0324,0.013523,0.002678,0.000431,0.000823
20192000,0.0324,0.013523,0.002678,0.000431,0.000940
20193000,0.0324,0.013523,0.002678,0.000431,0.000823
20194000,0.0324,0.013523,0.002678,0.000431,0.000823
20195000,0.0324,0.013523,0.002678,0.000431,0.000940
20196000,0.0324,0.013523,0.002678,0.000431,0.000940
20197000,0.0324,0.013523,0.002678,0.000431,0.000823
20198000,0.0324,0.013523,0.002678,0.000431,0.000823
20199000,0.0324,0.013523,0.002678,0.000431,0.000940
20200000,0.0324,0.013523,0.002678,0.000431,0.000940
20201000,0.0324,0.013523,0.002678,0.000431,0.000705
20202000,0.0324,0.013523,0.002678,0.000431,0.000940
20203000,0.0324,0.013523,0.002678,0.000431,0.000940
20204000,0.0324,0.013523,0.002678,0.000431,0.000940
20205000,0.0324,0.013523,0.002678,0.000431,0.000705
20206000,0.0324,0.013523,0.002678,0.000431,0.000940
20207000,0.0324,0.013523,0.002678,0.000431,0.000940
20208000,0.0324,0.013523,0.002678,0.000431,0.000823
20209000,0.0324,0.013523,0.002678,0.000431,0.000940
20210000,0.0324,0.013523,0.002678,0.000431,0.000823
20211000,0.0324,0.013523,0.002678,0.000431,0.000940
20212000,0.0324,0.013523,0.002678,0.000431,0.000823
20213000,0.0324,0.013523,0.002678,0.000431,0.000823
20214000,0.0324,0.013523,0.002678,0.000431,0.000940
20215000,0.0324,0.013523,0.002678,0.000431,0.000940
20216000,0.0324,0.013523,0.002678,0.000431,0.000705
20217000,0.0324,0.013523,0.002678,0.000431,0.000940
20218000,0.0324,0.013523,0.002678,0.000431,0.000940
20219000,0.0324,0.013523,0.002678,0.000431,0.000940
20220000,0.0324,0.013523,0.002678,0.000431,0.000705
20221000,0.0324,0.013523,0.002678,0.000431,0.000940
20222000,0.0324,0.013523,0.002678,0.000431,0.000940
20223000,0.0324,0.013523,0.002678,0.000431,0.000823
20224000,0.0324,0.013523,0.002678,0.000431,0.000823
20225000,0.0324,0.013523,0.002678,0.000431,0.000940
20226000,0.0324,0.013523,0.002678,0.000431,0.000940
20227000,0.0324,0.013523,0.002678,0.000431,0.000823
20228000,0.0324,0.013523,0.002678,0.000431,0.000823
20229000,0.0324,0.013523,0.002678,0.000431,0.000940
20230000,0.0324,0.013523,0.002678,0.000431,0.000823
20231000,0.0324,0.013523,0.002678,0.000431,0.000940
20232000,0.0324,0.013523,0.002678,0.000431,0.000823
20233000,0.0324,0.013523,0.002678,0.000431,0.000940
20234000,0.0324,0.013523,0.002678,0.000431,0.000823
20235000,0.0324,0.013523,0.002678,0.000431,0.000823
20236000,0.0324,0.013523,0.002678,0.000431,0.000940
20237000,0.0324,0.013523,0.002678,0.000431,0.000940
20238000,0.0324,0.013523,0.002678,0.000431,0.000823
20239000,0.0324,0.013523,0.002678,0.000431,0.000823
20240000,0.0324,0.013523,0.002678,0.000431,0.000940
20241000,0.0324,0.013523,0.002678,0.000431,0.000940
20242000,0.0324,0.013523,0.002678,0.000431,0.000823
20243000,0.0324,0.013523,0.002678,0.000431,0.000823
20244000,0.0324,0.013523,0.002678,0.000431,0.000940
20245000,0.0324,0.013523,0.002678,0.000431,0.000940
20246000,0.0324,0.013523,0.002678,0.000431,0.000823
20247000,0.0324,0.013523,0.002678,0.000431,0.000823
20248000,0.0324,0.013523,0.002678,0.000431,0.000940
20249000,0.0324,0.013523,0.002678,0.000431,0.000823
20250000,0.0324,0.013523,0.002678,0.000431,0.000940
20251000,0.0324,0.013523,0.002678,0.000431,0.000823
20252000,0.0324,0.013523,0.002678,0.000431,0.000940
20253000,0.0324,0.013523,0.002678,0.000431,0.000823
20254000,0.0324,0.013523,0.002678,0.000431,0.000823
20255000,0.0324,0.013523,0.002678,0.000431,0.000940
20256000,0.0324,0.013523,0.002678,0.000431,0.000940
20257000,0.0324,0.013523,0.002678,0.000431,0.000823
20258000,0.0324,0.013523,0.002678,0.000431,0.000823
20259000,0.0324,0.013523,0.002678,0.000431,0.000940
20260000,0.0324,0.013523,0.002678,0.000431,0.000940
20261000,0.0324,0.013523,0.002678,0.000431,0.000705
20262000,0.0324,0.013523,0.002678,0.000431,0.000940
20263000,0.0324,0.013523,0.002678,0.000431,0.000940
20264000,0.0324,0.013523,0.002678,0.000431,0.000823
20265000,0.0324,0.013523,0.002678,0.000431,0.000940
20266000,0.0324,0.013523,0.002678,0.000431,0.000823
20267000,0.0324,0.013523,0.002678,0.000431,0.000940
20268000,0.0324,0.013523,0.002678,0.000431,0.000823
20269000,0.0324,0.013523,0.002678,0.000431,0.000823
20270000,0.0324,0.013523,0.002678,0.000431,0.000940
20271000,0.0324,0.013523,0.002678,0.000431,0.000823
20272000,0.0324,0.013523,0.002678,0.000431,0.000940
20273000,0.0324,0.013523,0.002678,0.000431,0.000823
20274000,0.0324,0.013523,0.002678,0.000431,0.000940
20275000,0.0324,0.013523,0.002678,0.000431,0.000940
20276000,0.0324,0.013523,0.002678,0.000431,0.000705
20277000,0.0324,0.013523,0.002678,0.000431,0.000940
20278000,0.0324,0.013523,0.002678,0.000431,0.000940
20279000,0.0324,0.013523,0.002678,0.000431,0.000940
20280000,0.0324,0.013523,0.002678,0.000431,0.000705
20281000,0.0324,0.013523,0.002678,0.000431,0.000940
20282000,0.0324,0.013523,0.002678,0.000431,0.000940
20283000,0.0324,0.013523,0.002678,0.000431,0.000823
20284000,0.0324,0.013523,0.002678,0.000431,0.000823
20285000,0.0324,0.013523,0.002678,0.000431,0.000940
20286000,0.0324,0.013523,0.002678,0.000431,0.000940
20287000,0.0324,0.013523,0.002678,0.000431,0.000823
20288000,0.0324,0.013523,0.002678,0.000431,0.000823
20289000,0.0324,0.013523,0.002678,0.000431,0.000940
20290000,0.0324,0.013523,0.002678,0.000431,0.000823
20291000,0.0324,0.013523,0.002678,0.000431,0.000940
20292000,0.0324,0.013523,0.002678,0.000431,0.000823
20293000,0.0324,0.013523,0.002678,0.000431,0.000940
20294000,0.0324,0.013523,0.002678,0.000431,0.000823
20295000,0.0324,0.013523,0.002678,0.000431,0.000823
20296000,0.0324,0.013523,0.002678,0.000431,0.000940
20297000,0.0324,0.013523,0.002678,0.000431,0.000940
20298000,0.0324,0.013523,0.002678,0.000431,0.000823
20299000,0.0324,0.013523,0.002678,0.000431,0.000823
20300000,0.0324,0.013523,0.002678,0.000431,0.000940
20301000,0.0324,0.013523,0.002678,0.000431,0.000940
20302000,0.0324,0.013523,0.002678,0.000431,0.000823
20303000,0.0324,0.013523,0.002678,0.000431,0.000823
20304000,0.0324,0.013523,0.002678,0.000431,0.000940
20305000,0.0324,0.013523,0.002678,0.000431,0.000823
20306000,0.0324,0.013523,0.002678,0.000431,0.000940
20307000,0.0324,0.013523,0.002678,0.000431,0.000823
20308000,0.0324,0.013523,0.002678,0.000431,0.000940
20309000,0.0324,0.013523,0.002678,0.000431,0.000823
20310000,0.0324,0.013523,0.002678,0.000431,0.000823
20311000,0.0324,0.013523,0.002678,0.000431,0.000940
20312000,0.0324,0.013523,0.002678,0.000431,0.000940
20313000,0.0324,0.013523,0.002678,0.000431,0.000823
20314000,0.0324,0.013523,0.002678,0.000431,0.000823
20315000,0.0324,0.013523,0.002678,0.000431,0.000940
20316000,0.0324,0.013523,0.002678,0.000431,0.000940
20317000,0.0324,0.013523,0.002678,0.000431,0.000705
20318000,0.0324,0.013523,0.002678,0.000431,0.000940
20319000,0.0324,0.013523,0.002678,0.000431,0.000940
20320000,0.0324,0.013523,0.002678,0.000431,0.000940
20321000,0.0324,0.013523,0.002678,0.000431,0.000705
20322000,0.0324,0.013523,0.002678,0.000431,0.000940
20323000,0.0324,0.013523,0.002678,0.000431,0.000940
20324000,0.0324,0.013523,0.002678,0.000431,0.000823
20325000,0.0324,0.013523,0.002678,0.000431,0.000940
20326000,0.0324,0.013523,0.002678,0.000431,0.000823
20327000,0.0324,0.013523,0.002678,0.000431,0.000940
20328000,0.0324,0.013523,0.002678,0.000431,0.000823
20329000,0.0324,0.013523,0.002678,0.000431,0.000940
20330000,0.0324,0.013523,0.002678,0.000431,0.000823
20331000,0.0324,0.013523,0.002678,0.000431,0.000940
20332000,0.0324,0.013523,0.002678,0.000431,0.000823
20333000,0.0324,0.013523,0.002678,0.000431,0.000823
20334000,0.0324,0.013523,0.002678,0.000431,0.000940
20335000,0.0324,0.013523,0.002678,0.000431,0.000940
20336000,0.0324,0.013523,0.002678,0.000431,0.000823
20337000,0.0324,0.013523,0.002678,0.000431,0.000823
20338000,0.0324,0.013523,0.002678,0.000431,0.000940
20339000,0.0324,0.013523,0.002678,0.000431,0.000940
20340000,0.0324,0.013523,0.002678,0.000431,0.000705
20341000,0.0324,0.013523,0.002678,0.000431,0.000940
20342000,0.0324,0.013523,0.002678,0.000431,0.000940
20343000,0.0324,0.013523,0.002678,0.000431,0.000940
20344000,0.0324,0.013523,0.002678,0.000431,0.000705
20345000,0.0324,0.013523,0.002678,0.000431,0.000940
20346000,0.0324,0.013523,0.002678,0.000431,0.000940
20347000,0.0324,0.013523,0.002678,0.000431,0.000823
20348000,0.0324,0.013523,0.002678,0.000431,0.000823
20349000,0.0324,0.013523,0.002678,0.000431,0.000940
20350000,0.0324,0.013523,0.002678,0.000431,0.000940
20351000,0.0324,0.013523,0.002678,0.000431,0.000823
20352000,0.0324,0.013523,0.002678,0.000431,0.000823
20353000,0.0324,0.013523,0.002678,0.000431,0.000940
20354000,0.0324,0.013523,0.002678,0.000431,0.000823
20355000,0.0324,0.013523,0.002678,0.000431,0.000823
20356000,0.0324,0.013523,0.002678,0.000431,0.000940
20357000,0.0324,0.013523,0.002678,0.000431,0.000940
20358000,0.0324,0.013523,0.002678,0.000431,0.000823
20359000,0.0324,0.013523,0.002678,0.000431,0.000823
20360000,0.0324,0.013523,0.002678,0.000431,0.000940
20361000,0.0324,0.013523,0.002678,0.000431,0.000940
20362000,0.0324,0.013523,0.002678,0.000431,0.000823
20363000,0.0324,0.013523,0.002678,0.000431,0.000823
20364000,0.0324,0.013523,0.002678,0.000431,0.000940
20365000,0.0324,0.013523,0.002678,0.000431,0.000940
20366000,0.0324,0.013523,0.002678,0.000431,0.000823
20367000,0.0324,0.013523,0.002678,0.000431,0.000823
20368000,0.0324,0.013523,0.002678,0.000431,0.000940
20369000,0.0324,0.013523,0.002678,0.000431,0.000823
20370000,0.0324,0.013523,0.002678,0.000431,0.000940
20371000,0.0324,0.013523,0.002678,0.000431,0.000823
20372000,0.0324,0.013523,0.002678,0.000431,0.000940
20373000,0.0324,0.013523,0.002678,0.000431,0.000823
20374000,0.0324,0.013523,0.002678,0.000431,0.000823
20375000,0.0324,0.013523,0.002678,0.000431,0.000940
20376000,0.0324,0.013523,0.002678,0.000431,0.000940
20377000,0.0324,0.013523,0.002678,0.000431,0.000823
20378000,0.0324,0.013523,0.002678,0.000431,0.000823
20379000,0.0324,0.013523,0.002678,0.000431,0.000940
20380000,0.0324,0.013523,0.002678,0.000431,0.000940
20381000,0.0324,0.013523,0.002678,0.000431,0.000705
20382000,0.0324,0.013523,0.002678,0.000431,0.000940
20383000,0.0324,0.013523,0.002678,0.000431,0.000940
20384000,0.0324,0.013523,0.002678,0.000431,0.000940
20385000,0.0324,0.013523,0.002678,0.000431,0.000823
20386000,0.0324,0.013523,0.002678,0.000431,0.000823
20387000,0.0324,0.013523,0.002678,0.000431,0.000940
20388000,0.0324,0.013523,0.002678,0.000431,0.000823
20389000,0.0324,0.013523,0.002678,0.000431,0.000940
20390000,0.0324,0.013523,0.002678,0.000431,0.000823
20391000,0.0324,0.013523,0.002678,0.000431,0.006111
20392000,0.0324,0.013523,0.002678,0.000431,0.383612
20393000,0.0324,0.013523,0.002678,0.000431,0.614437
20394000,0.0324,0.013523,0.002678,0.000431,0.131867
20395000,0.0324,0.013523,0.002678,0.000431,0.132807
20396000,0.0324,0.013523,0.002678,0.000431,0.138213
20397000,0.0324,0.013523,0.002678,0.000431,0.597748
20398000,0.0324,0.013523,0.002678,0.000431,0.240345
20399000,0.0324,0.013523,0.002678,0.000431,0.274546
20400000,0.0324,0.013523,0.002678,0.000431,0.260207
20401000,0.0324,0.013523,0.002678,0.000431,0.137390
20402000,0.0324,0.013523,0.002678,0.000431,0.141504
20403000,0.0324,0.013523,0.002678,0.000431,0.110594
20404000,0.0324,0.013523,0.002678,0.000431,0.376443
20405000,0.0324,0.013523,0.002678,0.000431,0.173001
20406000,0.0324,0.013523,0.002678,0.000431,0.002703
20407000,0.0324,0.013523,0.002678,0.000431,0.002586
20408000,0.0324,0.013523,0.002678,0.000431,0.002468
20409000,0.0324,0.013523,0.002678,0.000431,0.002821
20410000,0.0324,0.013523,0.002678,0.000431,0.002703
20411000,0.0324,0.013523,0.002678,0.000431,0.002468
20412000,0.0324,0.013523,0.002678,0.000431,0.002586
20413000,0.0324,0.013523,0.002678,0.000431,0.002703
20414000,0.0324,0.013523,0.002678,0.000431,0.002703
20415000,0.0324,0.013523,0.002678,0.000431,0.002586
20416000,0.0324,0.013523,0.002678,0.000431,0.002586
20417000,0.0324,0.013523,0.002678,0.000431,0.002703
20418000,0.0324,0.013523,0.002678,0.000431,0.002468
20419000,0.0324,0.013523,0.002678,0.000431,0.002703
20420000,0.0324,0.013523,0.002678,0.000431,0.002703
20421000,0.0324,0.013523,0.002678,0.000431,0.002703
20422000,0.0324,0.013523,0.002678,0.000431,0.002468
20423000,0.0324,0.013523,0.002678,0.000431,0.002586
20424000,0.0324,0.013523,0.002678,0.000431,0.002821
20425000,0.0324,0.013523,0.002678,0.000431,0.002703
20426000,0.0324,0.013523,0.002678,0.000431,0.002586
20427000,0.0324,0.013523,0.002678,0.000431,0.002468
20428000,0.0324,0.013523,0.002678,0.000431,0.002703
20429000,0.0324,0.013523,0.002678,0.000431,0.002703
20430000,0.0324,0.013523,0.002678,0.000431,0.002586
20431000,0.0324,0.013523,0.002678,0.000431,0.002586
20432000,0.0324,0.013523,0.002678,0.000431,0.002703
20433000,0.0324,0.013523,0.002678,0.000431,0.002468
20434000,0.0324,0.013523,0.002678,0.000431,0.002703
20435000,0.0324,0.013523,0.002678,0.000431,0.002703
20436000,0.0324,0.013523,0.002678,0.000431,0.004349
20437000,0.0324,0.013523,0.002678,0.000431,0.001763
20438000,0.0324,0.013523,0.002678,0.000431,0.001763
20439000,0.0324,0.013523,0.002678,0.000431,0.001880
20440000,0.0324,0.013523,0.002678,0.000431,0.001645
20441000,0.0324,0.013523,0.002678,0.000431,0.001763
20442000,0.0324,0.013523,0.002678,0.000431,0.001763
20443000,0.0324,0.013523,0.002678,0.000431,0.001880
20444000,0.0324,0.013523,0.002678,0.000431,0.001645
20445000,0.0324,0.013523,0.002678,0.000431,0.001645
20446000,0.0324,0.013523,0.002678,0.000431,0.001880
20447000,0.0324,0.013523,0.002678,0.000431,0.001763
20448000,0.0324,0.013523,0.002678,0.000431,0.001880
20449000,0.0324,0.013523,0.002678,0.000431,0.001645
20450000,0.0324,0.013523,0.002678,0.000431,0.001763
20451000,0.0324,0.013523,0.002678,0.000431,0.001763
20452000,0.0324,0.013523,0.002678,0.000431,0.001645
20453000,0.0324,0.013523,0.002678,0.000431,0.001880
20454000,0.0324,0.013523,0.002678,0.000431,0.001645
20455000,0.0324,0.013523,0.002678,0.000431,0.001880
20456000,0.0324,0.013523,0.002678,0.000431,0.001645
20457000,0.0324,0.013523,0.002678,0.000431,0.001763
20458000,0.0324,0.013523,0.002678,0.000431,0.001880
20459000,0.0324,0.013523,0.002678,0.000431,0.001645
20460000,0.0324,0.013523,0.002678,0.000431,0.001763
20461000,0.0324,0.013523,0.002678,0.000431,0.001763
20462000,0.0324,0.013523,0.002678,0.000431,0.001880
20463000,0.0324,0.013523,0.002678,0.000431,0.001645
20464000,0.0324,0.013523,0.002678,0.000431,0.001645
20465000,0.0324,0.013523,0.002678,0.000431,0.001880
20466000,0.0324,0.013523,0.002678,0.000431,0.001763
20467000,0.0324,0.013523,0.002678,0.000431,0.001763
20468000,0.0324,0.013523,0.002678,0.000431,0.001645
20469000,0.0324,0.013523,0.002678,0.000431,0.001763
20470000,0.0324,0.013523,0.002678,0.000431,0.001880
20471000,0.0324,0.013523,0.002678,0.000431,0.001645
20472000,0.0324,0.013523,0.002678,0.000431,0.001763
20473000,0.0324,0.013523,0.002678,0.000431,0.001763
20474000,0.0324,0.013523,0.002678,0.000431,0.001645
20475000,0.0324,0.013523,0.002678,0.000431,0.001880
20476000,0.0324,0.013523,0.002678,0.000431,0.001763
20477000,0.0324,0.013523,0.002678,0.000431,0.001763
20478000,0.0324,0.013523,0.002678,0.000431,0.001645
20479000,0.0324,0.013523,0.002678,0.000431,0.003173
20480000,0.0324,0.013523,0.002678,0.000431,0.001058
20481000,0.0324,0.013523,0.002678,0.000431,0.000940
20482000,0.0324,0.013523,0.002678,0.000431,0.000823
20483000,0.0324,0.013523,0.002678,0.000431,0.000823
20484000,0.0324,0.013523,0.002678,0.000431,0.000940
20485000,0.0324,0.013523,0.002678,0.000431,0.000940
20486000,0.0324,0.013523,0.002678,0.000431,0.000823
20487000,0.0324,0.013523,0.002678,0.000431,0.000823
20488000,0.0324,0.013523,0.002678,0.000431,0.000940
20489000,0.0324,0.013523,0.002678,0.000431,0.000940
20490000,0.0324,0.013523,0.002678,0.000431,0.000823
20491000,0.0324,0.013523,0.002678,0.000431,0.000823
20492000,0.0324,0.013523,0.002678,0.000431,0.000940
20493000,0.0324,0.013523,0.002678,0.000431,0.000823
20494000,0.0324,0.013523,0.002678,0.000431,0.000940
20495000,0.0324,0.013523,0.002678,0.000431,0.000823
20496000,0.0324,0.013523,0.002678,0.000431,0.000940
20497000,0.0324,0.013523,0.002678,0.000431,0.000823
20498000,0.0324,0.013523,0.002678,0.000431,0.000823
20499000,0.0324,0.013523,0.002678,0.000431,0.000940
20500000,0.0324,0.013523,0.002678,0.000431,0.000940
20501000,0.0324,0.013523,0.002678,0.000431,0.000823
20502000,0.0324,0.013523,0.002678,0.000431,0.000823
20503000,0.0324,0.013523,0.002678,0.000431,0.000940
20504000,0.0324,0.013523,0.002678,0.000431,0.000940
20505000,0.0324,0.013523,0.002678,0.000431,0.000705
20506000,0.0324,0.013523,0.002678,0.000431,0.000940
20507000,0.0324,0.013523,0.002678,0.000431,0.000940
20508000,0.0324,0.013523,0.002678,0.000431,0.000940
20509000,0.0324,0.013523,0.002678,0.000431,0.000823
20510000,0.0324,0.013523,0.002678,0.000431,0.000823
20511000,0.0324,0.013523,0.002678,0.000431,0.000940
20512000,0.0324,0.013523,0.002678,0.000431,0.000823
20513000,0.0324,0.013523,0.002678,0.000431,0.000940
20514000,0.0324,0.013523,0.002678,0.000431,0.000823
20515000,0.0324,0.013523,0.002678,0.000431,0.000940
20516000,0.0324,0.013523,0.002678,0.000431,0.000823
20517000,0.0324,0.013523,0.002678,0.000431,0.000823
20518000,0.0324,0.013523,0.002678,0.000431,0.000940
20519000,0.0324,0.013523,0.002678,0.000431,0.000940
20520000,0.0324,0.013523,0.002678,0.000431,0.000705
20521000,0.0324,0.013523,0.002678,0.000431,0.000940
20522000,0.0324,0.013523,0.002678,0.000431,0.000940
20523000,0.0324,0.013523,0.002678,0.000431,0.000940
20524000,0.0324,0.013523,0.002678,0.000431,0.000705
20525000,0.0324,0.013523,0.002678,0.000431,0.000940
20526000,0.0324,0.013523,0.002678,0.000431,0.000940
20527000,0.0324,0.013523,0.002678,0.000431,0.000823
20528000,0.0324,0.013523,0.002678,0.000431,0.000823
20529000,0.0324,0.013523,0.002678,0.000431,0.000940
20530000,0.0324,0.013523,0.002678,0.000431,0.000940
20531000,0.0324,0.013523,0.002678,0.000431,0.000823
20532000,0.0324,0.013523,0.002678,0.000431,0.000823
20533000,0.0324,0.013523,0.002678,0.000431,0.000940
20534000,0.0324,0.013523,0.002678,0.000431,0.000823
20535000,0.0324,0.013523,0.002678,0.000431,0.000940
20536000,0.0324,0.013523,0.002678,0.000431,0.000823
20537000,0.0324,0.013523,0.002678,0.000431,0.000940
20538000,0.0324,0.013523,0.002678,0.000431,0.000823
20539000,0.0324,0.013523,0.002678,0.000431,0.000823
20540000,0.0324,0.013523,0.002678,0.000431,0.000940
20541000,0.0324,0.013523,0.002678,0.000431,0.000940
20542000,0.0324,0.013523,0.002678,0.000431,0.000823
20543000,0.0324,0.013523,0.002678,0.000431,0.000823
20544000,0.0324,0.013523,0.002678,0.000431,0.000940
20545000,0.0324,0.013523,0.002678,0.000431,0.000940
20546000,0.0324,0.013523,0.002678,0.000431,0.000823
20547000,0.0324,0.013523,0.002678,0.000431,0.000823
20548000,0.0324,0.013523,0.002678,0.000431,0.000940
20549000,0.0324,0.013523,0.002678,0.000431,0.000940
20550000,0.0324,0.013523,0.002678,0.000431,0.000823
20551000,0.0324,0.013523,0.002678,0.000431,0.000823
20552000,0.0324,0.013523,0.002678,0.000431,0.000940
20553000,0.0324,0.013523,0.002678,0.000431,0.000823
20554000,0.0324,0.013523,0.002678,0.000431,0.000940
20555000,0.0324,0.013523,0.002678,0.000431,0.000823
20556000,0.0324,0.013523,0.002678,0.000431,0.000940
20557000,0.0324,0.013523,0.002678,0.000431,0.000823
20558000,0.0324,0.013523,0.002678,0.000431,0.000823
20559000,0.0324,0.013523,0.002678,0.000431,0.000940
20560000,0.0324,0.013523,0.002678,0.000431,0.000940
20561000,0.0324,0.013523,0.002678,0.000431,0.000823
20562000,0.0324,0.013523,0.002678,0.000431,0.000823
20563000,0.0324,0.013523,0.002678,0.000431,0.000940
20564000,0.0324,0.013523,0.002678,0.000431,0.000940
20565000,0.0324,0.013523,0.002678,0.000431,0.000705
20566000,0.0324,0.013523,0.002678,0.000431,0.000940
20567000,0.0324,0.013523,0.002678,0.000431,0.000940
20568000,0.0324,0.013523,0.002678,0.000431,0.000823
20569000,0.0324,0.013523,0.002678,0.000431,0.000940
20570000,0.0324,0.013523,0.002678,0.000431,0.000823
20571000,0.0324,0.013523,0.002678,0.000431,0.000940
20572000,0.0324,0.013523,0.002678,0.000431,0.000823
20573000,0.0324,0.013523,0.002678,0.000431,0.000823
20574000,0.0324,0.013523,0.002678,0.000431,0.000940
20575000,0.0324,0.013523,0.002678,0.000431,0.000823
20576000,0.0324,0.013523,0.002678,0.000431,0.000940
20577000,0.0324,0.013523,0.002678,0.000431,0.000823
20578000,0.0324,0.013523,0.002678,0.000431,0.000940
20579000,0.0324,0.013523,0.002678,0.000431,0.000940
20580000,0.0324,0.013523,0.002678,0.000431,0.000705
20581000,0.0324,0.013523,0.002678,0.000431,0.000940
20582000,0.0324,0.013523,0.002678,0.000431,0.000940
20583000,0.0324,0.013523,0.002678,0.000431,0.000940
20584000,0.0324,0.013523,0.002678,0.000431,0.000705
20585000,0.0324,0.013523,0.002678,0.000431,0.000940
20586000,0.0324,0.013523,0.002678,0.000431,0.000940
20587000,0.0324,0.013523,0.002678,0.000431,0.000823
20588000,0.0324,0.013523,0.002678,0.000431,0.000823
20589000,0.0324,0.013523,0.002678,0.000431,0.000940
20590000,0.0324,0.013523,0.002678,0.000431,0.000940
20591000,0.0324,0.013523,0.002678,0.000431,0.000823
20592000,0.0324,0.013523,0.002678,0.000431,0.000823
20593000,0.0324,0.013523,0.002678,0.000431,0.000940
20594000,0.0324,0.013523,0.002678,0.000431,0.000823
20595000,0.0324,0.013523,0.002678,0.000431,0.000940
20596000,0.0324,0.013523,0.002678,0.000431,0.000823
20597000,0.0324,0.013523,0.002678,0.000431,0.000940
20598000,0.0324,0.013523,0.002678,0.000431,0.000823
20599000,0.0324,0.013523,0.002678,0.000431,0.000823
20600000,0.0324,0.013523,0.002678,0.000431,0.000940
20601000,0.0324,0.013523,0.002678,0.000431,0.000940
20602000,0.0324,0.013523,0.002678,0.000431,0.000823
20603000,0.0324,0.013523,0.002678,0.000431,0.000823
20604000,0.0324,0.013523,0.002678,0.000431,0.000940
20605000,0.0324,0.013523,0.002678,0.000431,0.000940
20606000,0.0324,0.013523,0.002678,0.000431,0.000823
20607000,0.0324,0.013523,0.002678,0.000431,0.000823
20608000,0.0324,0.013523,0.002678,0.000431,0.000940
20609000,0.0324,0.013523,0.002678,0.000431,0.000823
20610000,0.0324,0.013523,0.002678,0.000431,0.000940
20611000,0.0324,0.013523,0.002678,0.000431,0.000823
20612000,0.0324,0.013523,0.002678,0.000431,0.000940
20613000,0.0324,0.013523,0.002678,0.000431,0.000823
20614000,0.0324,0.013523,0.002678,0.000431,0.000823
20615000,0.0324,0.013523,0.002678,0.000431,0.000940
20616000,0.0324,0.013523,0.002678,0.000431,0.000940
20617000,0.0324,0.013523,0.002678,0.000431,0.000823
20618000,0.0324,0.013523,0.002678,0.000431,0.000823
20619000,0.0324,0.013523,0.002678,0.000431,0.000940
20620000,0.0324,0.013523,0.002678,0.000431,0.000940
20621000,0.0324,0.013523,0.002678,0.000431,0.000705
20622000,0.0324,0.013523,0.002678,0.000431,0.000940
20623000,0.0324,0.013523,0.002678,0.000431,0.000940
20624000,0.0324,0.013523,0.002678,0.000431,0.000940
20625000,0.0324,0.013523,0.002678,0.000431,0.000705
20626000,0.0324,0.013523,0.002678,0.000431,0.000940
20627000,0.0324,0.013523,0.002678,0.000431,0.000940
20628000,0.0324,0.013523,0.002678,0.000431,0.000823
20629000,0.0324,0.013523,0.002678,0.000431,0.000940
20630000,0.0324,0.013523,0.002678,0.000431,0.000823
20631000,0.0324,0.013523,0.002678,0.000431,0.000940
20632000,0.0324,0.013523,0.002678,0.000431,0.000823
20633000,0.0324,0.013523,0.002678,0.000431,0.000823
20634000,0.0324,0.013523,0.002678,0.000431,0.000940
20635000,0.0324,0.013523,0.002678,0.000431,0.000940
20636000,0.0324,0.013523,0.002678,0.000431,0.000823
20637000,0.0324,0.013523,0.002678,0.000431,0.000823
20638000,0.0324,0.013523,0.002678,0.000431,0.000940
20639000,0.0324,0.013523,0.002678,0.000431,0.000940
20640000,0.0324,0.013523,0.002678,0.000431,0.000705
20641000,0.0324,0.013523,0.002678,0.000431,0.000940
20642000,0.0324,0.013523,0.002678,0.000431,0.000940
20643000,0.0324,0.013523,0.002678,0.000431,0.000940
20644000,0.0324,0.013523,0.002678,0.000431,0.000705
20645000,0.0324,0.013523,0.002678,0.000431,0.000940
20646000,0.0324,0.013523,0.002678,0.000431,0.000940
20647000,0.0324,0.013523,0.002678,0.000431,0.000823
20648000,0.0324,0.013523,0.002678,0.000431,0.000823
20649000,0.0324,0.013523,0.002678,0.000431,0.000940
20650000,0.0324,0.013523,0.002678,0.000431,0.000823
20651000,0.0324,0.013523,0.002678,0.000431,0.000940
20652000,0.0324,0.013523,0.002678,0.000431,0.000823
20653000,0.0324,0.013523,0.002678,0.000431,0.000940
20654000,0.0324,0.013523,0.002678,0.000431,0.000823
20655000,0.0324,0.013523,0.002678,0.000431,0.000823
20656000,0.0324,0.013523,0.002678,0.000431,0.000940
20657000,0.0324,0.013523,0.002678,0.000431,0.000940
20658000,0.0324,0.013523,0.002678,0.000431,0.000823
20659000,0.0324,0.013523,0.002678,0.000431,0.000823
20660000,0.0324,0.013523,0.002678,0.000431,0.000940
20661000,0.0324,0.013523,0.002678,0.000431,0.000940
20662000,0.0324,0.013523,0.002678,0.000431,0.000823
20663000,0.0324,0.013523,0.002678,0.000431,0.000823
20664000,0.0324,0.013523,0.002678,0.000431,0.000940
20665000,0.0324,0.013523,0.002678,0.000431,0.000940
20666000,0.0324,0.013523,0.002678,0.000431,0.000823
20667000,0.0324,0.013523,0.002678,0.000431,0.000823
20668000,0.0324,0.013523,0.002678,0.000431,0.000940
20669000,0.0324,0.013523,0.002678,0.000431,0.000823
20670000,0.0324,0.013523,0.002678,0.000431,0.000940
20671000,0.0324,0.013523,0.002678,0.000431,0.000823
20672000,0.0324,0.013523,0.002678,0.000431,0.000940
20673000,0.0324,0.013523,0.002678,0.000431,0.000823
20674000,0.0324,0.013523,0.002678,0.000431,0.001645
20675000,0.0324,0.013523,0.002678,0.000431,0.309452
20676000,0.0324,0.013523,0.002678,0.000431,0.671556
20677000,0.0324,0.013523,0.002678,0.000431,0.139623
20678000,0.0324,0.013523,0.002678,0.000431,0.134452
20679000,0.0324,0.013523,0.002678,0.000431,0.131161
20680000,0.0324,0.013523,0.002678,0.000431,0.612792
20681000,0.0324,0.013523,0.002678,0.000431,0.223656
20682000,0.0324,0.013523,0.002678,0.000431,0.286769
20683000,0.0324,0.013523,0.002678,0.000431,0.242226
20684000,0.0324,0.013523,0.002678,0.000431,0.139506
20685000,0.0324,0.013523,0.002678,0.000431,0.142444
20686000,0.0324,0.013523,0.002678,0.000431,0.118233
20687000,0.0324,0.013523,0.002678,0.000431,0.293233
20688000,0.0324,0.013523,0.002678,0.000431,0.271373
20689000,0.0324,0.013523,0.002678,0.000431,0.002703
20690000,0.0324,0.013523,0.002678,0.000431,0.002586
20691000,0.0324,0.013523,0.002678,0.000431,0.002586
20692000,0.0324,0.013523,0.002678,0.000431,0.002586
20693000,0.0324,0.013523,0.002678,0.000431,0.002468
20694000,0.0324,0.013523,0.002678,0.000431,0.004349
20695000,0.0324,0.013523,0.002678,0.000431,0.001763
20696000,0.0324,0.013523,0.002678,0.000431,0.001645
20697000,0.0324,0.013523,0.002678,0.000431,0.001763
20698000,0.0324,0.013523,0.002678,0.000431,0.001763
20699000,0.0324,0.013523,0.002678,0.000431,0.001763
20700000,0.0324,0.013523,0.002678,0.000431,0.001763
20701000,0.0324,0.013523,0.002678,0.000431,0.003173
20702000,0.0324,0.013523,0.002678,0.000431,0.000940
20703000,0.0324,0.013523,0.002678,0.000431,0.000823
20704000,0.0324,0.013523,0.002678,0.000431,0.000823
20705000,0.0324,0.013523,0.002678,0.000431,0.000940
20706000,0.0324,0.013523,0.002678,0.000431,0.000823
20707000,0.0324,0.013523,0.002678,0.000431,0.000940
20708000,0.0324,0.013523,0.002678,0.000431,0.000823
20709000,0.0324,0.013523,0.002678,0.000431,0.000940
20710000,0.0324,0.013523,0.002678,0.000431,0.000940
20711000,0.0324,0.013523,0.002678,0.000431,0.000705
20712000,0.0324,0.013523,0.002678,0.000431,0.000940
20713000,0.0324,0.013523,0.002678,0.000431,0.000940
20714000,0.0324,0.013523,0.002678,0.000431,0.000940
20715000,0.0324,0.013523,0.002678,0.000431,0.000705
20716000,0.0324,0.013523,0.002678,0.000431,0.000940
20717000,0.0324,0.013523,0.002678,0.000431,0.000940
20718000,0.0324,0.013523,0.002678,0.000431,0.000823
20719000,0.0324,0.013523,0.002678,0.000431,0.000823
20720000,0.0324,0.013523,0.002678,0.000431,0.000940
20721000,0.0324,0.013523,0.002678,0.000431,0.000823
20722000,0.0324,0.013523,0.002678,0.000431,0.000940
20723000,0.0324,0.013523,0.002678,0.000431,0.000823
20724000,0.0324,0.013523,0.002678,0.000431,0.000940
20725000,0.0324,0.013523,0.002678,0.000431,0.046541
20726000,0.0324,0.013523,0.002678,0.000431,0.384082
20727000,0.0324,0.013523,0.002678,0.000431,0.611029
20728000,0.0324,0.013523,0.002678,0.000431,0.130691
20729000,0.0324,0.013523,0.002678,0.000431,0.132689
20730000,0.0324,0.013523,0.002678,0.000431,0.452954
20731000,0.0324,0.013523,0.002678,0.000431,0.368686
20732000,0.0324,0.013523,0.002678,0.000431,0.242226
20733000,0.0324,0.013523,0.002678,0.000431,0.277954
20734000,0.0324,0.013523,0.002678,0.000431,0.192511
20735000,0.0324,0.013523,0.002678,0.000431,0.136685
20736000,0.0324,0.013523,0.002678,0.000431,0.161014
20737000,0.0324,0.013523,0.002678,0.000431,0.123875
20738000,0.0324,0.013523,0.002678,0.000431,0.462591
20739000,0.0324,0.013523,0.002678,0.000431,0.029852
20740000,0.0324,0.013523,0.002678,0.000431,0.014691
20741000,0.0324,0.013523,0.002678,0.000431,0.010813
20742000,0.0324,0.013523,0.002678,0.000431,0.007992
20743000,0.0324,0.013523,0.002678,0.000431,0.007287
20744000,0.0324,0.013523,0.002678,0.000431,0.008227
20745000,0.0324,0.013523,0.002678,0.000431,0.004701
20746000,0.0324,0.013523,0.002678,0.000431,0.004231
20747000,0.0324,0.013523,0.002678,0.000431,0.004349
20748000,0.0324,0.013523,0.002678,0.000431,0.004349
20749000,0.0324,0.013523,0.002678,0.000431,0.004466
20750000,0.0324,0.013523,0.002678,0.000431,0.004466
20751000,0.0324,0.013523,0.002678,0.000431,0.004231
20752000,0.0324,0.013523,0.002678,0.000431,0.004466
20753000,0.0324,0.013523,0.002678,0.000431,0.006817
20754000,0.0324,0.013523,0.002678,0.000431,0.003408
20755000,0.0324,0.013523,0.002678,0.000431,0.004819
20756000,0.0324,0.013523,0.002678,0.000431,0.002586
20757000,0.0324,0.013523,0.002678,0.000431,0.002821
20758000,0.0324,0.013523,0.002678,0.000431,0.002468
20759000,0.0324,0.013523,0.002678,0.000431,0.003643
20760000,0.0324,0.013523,0.002678,0.000431,0.001880
20761000,0.0324,0.013523,0.002678,0.000431,0.003526
20762000,0.0324,0.013523,0.002678,0.000431,0.000823
20763000,0.0324,0.013523,0.002678,0.000431,0.000940
20764000,0.0324,0.013523,0.002678,0.000431,0.000940
20765000,0.0324,0.013523,0.002678,0.000431,0.000940
20766000,0.0324,0.013523,0.002678,0.000431,0.000705
20767000,0.0324,0.013523,0.002678,0.000431,0.000940
20768000,0.0324,0.013523,0.002678,0.000431,0.000940
20769000,0.0324,0.013523,0.002678,0.000431,0.000823
20770000,0.0324,0.013523,0.002678,0.000431,0.000940
20771000,0.0324,0.013523,0.002678,0.000431,0.000823
20772000,0.0324,0.013523,0.002678,0.000431,0.000940
20773000,0.0324,0.013523,0.002678,0.000431,0.000823
20774000,0.0324,0.013523,0.002678,0.000431,0.000823
20775000,0.0324,0.013523,0.002678,0.000431,0.000940
20776000,0.0324,0.013523,0.002678,0.000431,0.000823
20777000,0.0324,0.013523,0.002678,0.000431,0.000940
20778000,0.0324,0.013523,0.002678,0.000431,0.000823
20779000,0.0324,0.013523,0.002678,0.000431,0.000940
20780000,0.0324,0.013523,0.002678,0.000431,0.000940
20781000,0.0324,0.013523,0.002678,0.000431,0.000705
20782000,0.0324,0.013523,0.002678,0.000431,0.000940
20783000,0.0324,0.013523,0.002678,0.000431,0.000940
20784000,0.0324,0.013523,0.002678,0.000431,0.000940
20785000,0.0324,0.013523,0.002678,0.000431,0.000705
20786000,0.0324,0.013523,0.002678,0.000431,0.000940
20787000,0.0324,0.013523,0.002678,0.000431,0.000940
20788000,0.0324,0.013523,0.002678,0.000431,0.000823
20789000,0.0324,0.013523,0.002678,0.000431,0.000823
20790000,0.0324,0.013523,0.002678,0.000431,0.000940
20791000,0.0324,0.013523,0.002678,0.000431,0.000823
20792000,0.0324,0.013523,0.002678,0.000431,0.000940
20793000,0.0324,0.013523,0.002678,0.000431,0.000823
20794000,0.0324,0.013523,0.002678,0.000431,0.000940
20795000,0.0324,0.013523,0.002678,0.000431,0.000823
20796000,0.0324,0.013523,0.002678,0.000431,0.000823
20797000,0.0324,0.013523,0.002678,0.000431,0.000940
20798000,0.0324,0.013523,0.002678,0.000431,0.001645
20799000,0.0324,0.013523,0.002678,0.000431,0.308394
20800000,0.0324,0.013523,0.002678,0.000431,0.619844
20801000,0.0324,0.013523,0.002678,0.000431,0.213666
20802000,0.0324,0.013523,0.002678,0.000431,0.131161
20803000,0.0324,0.013523,0.002678,0.000431,0.142914
20804000,0.0324,0.013523,0.002678,0.000431,0.651224
20805000,0.0324,0.013523,0.002678,0.000431,0.221541
20806000,0.0324,0.013523,0.002678,0.000431,0.257622
20807000,0.0324,0.013523,0.002678,0.000431,0.259855
20808000,0.0324,0.013523,0.002678,0.000431,0.141504
20809000,0.0324,0.013523,0.002678,0.000431,0.158663
20810000,0.0324,0.013523,0.002678,0.000431,0.107303
20811000,0.0324,0.013523,0.002678,0.000431,0.452248
20812000,0.0324,0.013523,0.002678,0.000431,0.059469
20813000,0.0324,0.013523,0.002678,0.000431,0.009520
20814000,0.0324,0.013523,0.002678,0.000431,0.010813
20815000,0.0324,0.013523,0.002678,0.000431,0.010225
20816000,0.0324,0.013523,0.002678,0.000431,0.008932
20817000,0.0324,0.013523,0.002678,0.000431,0.007874
20818000,0.0324,0.013523,0.002678,0.000431,0.007992
20819000,0.0324,0.013523,0.002678,0.000431,0.003761
20820000,0.0324,0.013523,0.002678,0.000431,0.003291
20821000,0.0324,0.013523,0.002678,0.000431,0.005054
20822000,0.0324,0.013523,0.002678,0.000431,0.002821
20823000,0.0324,0.013523,0.002678,0.000431,0.002468
20824000,0.0324,0.013523,0.002678,0.000431,0.003761
20825000,0.0324,0.013523,0.002678,0.000431,0.002938
20826000,0.0324,0.013523,0.002678,0.000431,0.001998
20827000,0.0324,0.013523,0.002678,0.000431,0.001763
20828000,0.0324,0.013523,0.002678,0.000431,0.001528
20829000,0.0324,0.013523,0.002678,0.000431,0.002116
20830000,0.0324,0.013523,0.002678,0.000431,0.002586
20831000,0.0324,0.013523,0.002678,0.000431,0.001998
20832000,0.0324,0.013523,0.002678,0.000431,0.000823
20833000,0.0324,0.013523,0.002678,0.000431,0.000823
20834000,0.0324,0.013523,0.002678,0.000431,0.000823
20835000,0.0324,0.013523,0.002678,0.000431,0.000823
20836000,0.0324,0.013523,0.002678,0.000431,0.000940
20837000,0.0324,0.013523,0.002678,0.000431,0.000705
20838000,0.0324,0.013523,0.002678,0.000431,0.000940
20839000,0.0324,0.013523,0.002678,0.000431,0.000940
20840000,0.0324,0.013523,0.002678,0.000431,0.000823
20841000,0.0324,0.013523,0.002678,0.000431,0.000940
20842000,0.0324,0.013523,0.002678,0.000431,0.000823
20843000,0.0324,0.013523,0.002678,0.000431,0.000940
20844000,0.0324,0.013523,0.002678,0.000431,0.011635
20845000,0.0324,0.013523,0.002678,0.000431,0.412289
20846000,0.0324,0.013523,0.002678,0.000431,0.605505
20847000,0.0324,0.013523,0.002678,0.000431,0.133512
20848000,0.0324,0.013523,0.002678,0.000431,0.131632
20849000,0.0324,0.013523,0.002678,0.000431,0.151846
20850000,0.0324,0.013523,0.002678,0.000431,0.582587
20851000,0.0324,0.013523,0.002678,0.000431,0.244341
20852000,0.0324,0.013523,0.002678,0.000431,0.249512
20853000,0.0324,0.013523,0.002678,0.000431,0.240110
20854000,0.0324,0.013523,0.002678,0.000431,0.136920
20855000,0.0324,0.013523,0.002678,0.000431,0.144207
20856000,0.0324,0.013523,0.002678,0.000431,0.118703
20857000,0.0324,0.013523,0.002678,0.000431,0.315681
20858000,0.0324,0.013523,0.002678,0.000431,0.252451
20859000,0.0324,0.013523,0.002678,0.000431,0.002468
20860000,0.0324,0.013523,0.002678,0.000431,0.000940
20861000,0.0324,0.013523,0.002678,0.000431,0.000940
20862000,0.0324,0.013523,0.002678,0.000431,0.000705
20863000,0.0324,0.013523,0.002678,0.000431,0.000940
20864000,0.0324,0.013523,0.002678,0.000431,0.000940
20865000,0.0324,0.013523,0.002678,0.000431,0.000940
20866000,0.0324,0.013523,0.002678,0.000431,0.000705
20867000,0.0324,0.013523,0.002678,0.000431,0.000940
20868000,0.0324,0.013523,0.002678,0.000431,0.000940
20869000,0.0324,0.013523,0.002678,0.000431,0.000823
20870000,0.0324,0.013523,0.002678,0.000431,0.000823
20871000,0.0324,0.013523,0.002678,0.000431,0.000940
20872000,0.0324,0.013523,0.002678,0.000431,0.000940
20873000,0.0324,0.013523,0.002678,0.000431,0.000823
20874000,0.0324,0.013523,0.002678,0.000431,0.000823
20875000,0.0324,0.013523,0.002678,0.000431,0.000940
20876000,0.0324,0.013523,0.002678,0.000431,0.000823
20877000,0.0324,0.013523,0.002678,0.000431,0.013868
20878000,0.0324,0.013523,0.002678,0.000431,0.419811
20879000,0.0324,0.013523,0.002678,0.000431,0.597278
20880000,0.0324,0.013523,0.002678,0.000431,0.133042
20881000,0.0324,0.013523,0.002678,0.000431,0.131632
20882000,0.0324,0.013523,0.002678,0.000431,0.235762
20883000,0.0324,0.013523,0.002678,0.000431,0.505136
20884000,0.0324,0.013523,0.002678,0.000431,0.235291
20885000,0.0324,0.013523,0.002678,0.000431,0.230708
20886000,0.0324,0.013523,0.002678,0.000431,0.235526
20887000,0.0324,0.013523,0.002678,0.000431,0.138801
20888000,0.0324,0.013523,0.002678,0.000431,0.144207
20889000,0.0324,0.013523,0.002678,0.000431,0.127753
20890000,0.0324,0.013523,0.002678,0.000431,0.271843
20891000,0.0324,0.013523,0.002678,0.000431,0.303458
20892000,0.0324,0.013523,0.002678,0.000431,0.013868
20893000,0.0324,0.013523,0.002678,0.000431,0.010578
20894000,0.0324,0.013523,0.002678,0.000431,0.014338
20895000,0.0324,0.013523,0.002678,0.000431,0.012693
20896000,0.0324,0.013523,0.002678,0.000431,0.005641
20897000,0.0324,0.013523,0.002678,0.000431,0.006699
20898000,0.0324,0.013523,0.002678,0.000431,0.004349
20899000,0.0324,0.013523,0.002678,0.000431,0.005759
20900000,0.0324,0.013523,0.002678,0.000431,0.003173
20901000,0.0324,0.013523,0.002678,0.000431,0.003408
20902000,0.0324,0.013523,0.002678,0.000431,0.003291
20903000,0.0324,0.013523,0.002678,0.000431,0.003526
20904000,0.0324,0.013523,0.002678,0.000431,0.003056
20905000,0.0324,0.013523,0.002678,0.000431,0.003526
20906000,0.0324,0.013523,0.002678,0.000431,0.003408
20907000,0.0324,0.013523,0.002678,0.000431,0.004819
20908000,0.0324,0.013523,0.002678,0.000431,0.002703
20909000,0.0324,0.013523,0.002678,0.000431,0.002351
20910000,0.0324,0.013523,0.002678,0.000431,0.002351
20911000,0.0324,0.013523,0.002678,0.000431,0.002703
20912000,0.0324,0.013523,0.002678,0.000431,0.002703
20913000,0.0324,0.013523,0.002678,0.000431,0.002116
20914000,0.0324,0.013523,0.002678,0.000431,0.003526
20915000,0.0324,0.013523,0.002678,0.000431,0.002468
20916000,0.0324,0.013523,0.002678,0.000431,0.001880
20917000,0.0324,0.013523,0.002678,0.000431,0.001645
20918000,0.0324,0.013523,0.002678,0.000431,0.001645
20919000,0.0324,0.013523,0.002678,0.000431,0.001880
20920000,0.0324,0.013523,0.002678,0.000431,0.001410
20921000,0.0324,0.013523,0.002678,0.000431,0.001880
20922000,0.0324,0.013523,0.002678,0.000431,0.001880
20923000,0.0324,0.013523,0.002678,0.000431,0.001645
20924000,0.0324,0.013523,0.002678,0.000431,0.001645
20925000,0.0324,0.013523,0.002678,0.000431,0.001880
20926000,0.0324,0.013523,0.002678,0.000431,0.001880
20927000,0.0324,0.013523,0.002678,0.000431,0.001410
20928000,0.0324,0.013523,0.002678,0.000431,0.001880
20929000,0.0324,0.013523,0.002678,0.000431,0.001880
20930000,0.0324,0.013523,0.002678,0.000431,0.001880
20931000,0.0324,0.013523,0.002678,0.000431,0.001410
20932000,0.0324,0.013523,0.002678,0.000431,0.001880
20933000,0.0324,0.013523,0.002678,0.000431,0.001880
20934000,0.0324,0.013523,0.002678,0.000431,0.001645
20935000,0.0324,0.013523,0.002678,0.000431,0.001645
20936000,0.0324,0.013523,0.002678,0.000431,0.001880
20937000,0.0324,0.013523,0.002678,0.000431,0.001880
20938000,0.0324,0.013523,0.002678,0.000431,0.001410
20939000,0.0324,0.013523,0.002678,0.000431,0.001645
20940000,0.0324,0.013523,0.002678,0.000431,0.001645
20941000,0.0324,0.013523,0.002678,0.000431,0.001880
20942000,0.0324,0.013523,0.002678,0.000431,0.001528
20943000,0.0324,0.013523,0.002678,0.000431,0.001528
20944000,0.0324,0.013523,0.002678,0.000431,0.001528
20945000,0.0324,0.013523,0.002678,0.000431,0.001528
20946000,0.0324,0.013523,0.002678,0.000431,0.001880
20947000,0.0324,0.013523,0.002678,0.000431,0.001645
20948000,0.0324,0.013523,0.002678,0.000431,0.001410
20949000,0.0324,0.013523,0.002678,0.000431,0.001645
20950000,0.0324,0.013523,0.002678,0.000431,0.001528
20951000,0.0324,0.013523,0.002678,0.000431,0.001763
20952000,0.0324,0.013523,0.002678,0.000431,0.001645
20953000,0.0324,0.013523,0.002678,0.000431,0.001645
20954000,0.0324,0.013523,0.002678,0.000431,0.001410
20955000,0.0324,0.013523,0.002678,0.000431,0.001645
20956000,0.0324,0.013523,0.002678,0.000431,0.001645
20957000,0.0324,0.013523,0.002678,0.000431,0.001763
20958000,0.0324,0.013523,0.002678,0.000431,0.001528
20959000,0.0324,0.013523,0.002678,0.000431,0.001645
20960000,0.0324,0.013523,0.002678,0.000431,0.001410
20961000,0.0324,0.013523,0.002678,0.000431,0.001645
20962000,0.0324,0.013523,0.002678,0.000431,0.001880
20963000,0.0324,0.013523,0.002678,0.000431,0.001528
20964000,0.0324,0.013523,0.002678,0.000431,0.001528
20965000,0.0324,0.013523,0.002678,0.000431,0.001528
20966000,0.0324,0.013523,0.002678,0.000431,0.001528
20967000,0.0324,0.013523,0.002678,0.000431,0.001880
20968000,0.0324,0.013523,0.002678,0.000431,0.001645
20969000,0.0324,0.013523,0.002678,0.000431,0.001645
20970000,0.0324,0.013523,0.002678,0.000431,0.001410
20971000,0.0324,0.013523,0.002678,0.000431,0.001528
20972000,0.0324,0.013523,0.002678,0.000431,0.001763
20973000,0.0324,0.013523,0.002678,0.000431,0.001645
20974000,0.0324,0.013523,0.002678,0.000431,0.001645
20975000,0.0324,0.013523,0.002678,0.000431,0.001645
20976000,0.0324,0.013523,0.002678,0.000431,0.001410
20977000,0.0324,0.013523,0.002678,0.000431,0.001528
20978000,0.0324,0.013523,0.002678,0.000431,0.000940
20979000,0.0324,0.013523,0.002678,0.000431,0.000940
20980000,0.0324,0.013523,0.002678,0.000431,0.000705
20981000,0.0324,0.013523,0.002678,0.000431,0.000940
20982000,0.0324,0.013523,0.002678,0.000431,0.000940
20983000,0.0324,0.013523,0.002678,0.000431,0.000823
20984000,0.0324,0.013523,0.002678,0.000431,0.000823
20985000,0.0324,0.013523,0.002678,0.000431,0.000940
20986000,0.0324,0.013523,0.002678,0.000431,0.000940
20987000,0.0324,0.013523,0.002678,0.000431,0.000823
20988000,0.0324,0.013523,0.002678,0.000431,0.000823
20989000,0.0324,0.013523,0.002678,0.000431,0.000940
20990000,0.0324,0.013523,0.002678,0.000431,0.000823
20991000,0.0324,0.013523,0.002678,0.000431,0.000940
20992000,0.0324,0.013523,0.002678,0.000431,0.000823
20993000,0.0324,0.013523,0.002678,0.000431,0.000940
20994000,0.0324,0.013523,0.002678,0.000431,0.000823
20995000,0.0324,0.013523,0.002678,0.000431,0.000823
20996000,0.0324,0.013523,0.002678,0.000431,0.000940
20997000,0.0324,0.013523,0.002678,0.000431,0.000940
20998000,0.0324,0.013523,0.002678,0.000431,0.000823
20999000,0.0324,0.013523,0.002678,0.000431,0.000823
