Cycle,Area(mm^2),PeakDynamic(W),SubthresholdLeakage(W),GateLeakage(W),RunTimeDynamic(W)
13000000,0.0324,0.013523,0.002678,0.000431,0.002586
13001000,0.0324,0.013523,0.002678,0.000431,0.002703
13002000,0.0324,0.013523,0.002678,0.000431,0.002586
13003000,0.0324,0.013523,0.002678,0.000431,0.002703
13004000,0.0324,0.013523,0.002678,0.000431,0.002586
13005000,0.0324,0.013523,0.002678,0.000431,0.002586
13006000,0.0324,0.013523,0.002678,0.000431,0.003878
13007000,0.0324,0.013523,0.002678,0.000431,0.001763
13008000,0.0324,0.013523,0.002678,0.000431,0.001763
13009000,0.0324,0.013523,0.002678,0.000431,0.001763
13010000,0.0324,0.013523,0.002678,0.000431,0.001645
13011000,0.0324,0.013523,0.002678,0.000431,0.003056
13012000,0.0324,0.013523,0.002678,0.000431,0.000705
13013000,0.0324,0.013523,0.002678,0.000431,0.000940
13014000,0.0324,0.013523,0.002678,0.000431,0.000940
13015000,0.0324,0.013523,0.002678,0.000431,0.000823
13016000,0.0324,0.013523,0.002678,0.000431,0.000940
13017000,0.0324,0.013523,0.002678,0.000431,0.000823
13018000,0.0324,0.013523,0.002678,0.000431,0.000940
13019000,0.0324,0.013523,0.002678,0.000431,0.000823
13020000,0.0324,0.013523,0.002678,0.000431,0.000823
13021000,0.0324,0.013523,0.002678,0.000431,0.000940
13022000,0.0324,0.013523,0.002678,0.000431,0.000823
13023000,0.0324,0.013523,0.002678,0.000431,0.000940
13024000,0.0324,0.013523,0.002678,0.000431,0.000823
13025000,0.0324,0.013523,0.002678,0.000431,0.000940
13026000,0.0324,0.013523,0.002678,0.000431,0.000940
13027000,0.0324,0.013523,0.002678,0.000431,0.000705
13028000,0.0324,0.013523,0.002678,0.000431,0.000940
13029000,0.0324,0.013523,0.002678,0.000431,0.000940
13030000,0.0324,0.013523,0.002678,0.000431,0.000940
13031000,0.0324,0.013523,0.002678,0.000431,0.000705
13032000,0.0324,0.013523,0.002678,0.000431,0.000940
13033000,0.0324,0.013523,0.002678,0.000431,0.000940
13034000,0.0324,0.013523,0.002678,0.000431,0.000940
13035000,0.0324,0.013523,0.002678,0.000431,0.000705
13036000,0.0324,0.013523,0.002678,0.000431,0.000940
13037000,0.0324,0.013523,0.002678,0.000431,0.000940
13038000,0.0324,0.013523,0.002678,0.000431,0.000823
13039000,0.0324,0.013523,0.002678,0.000431,0.000823
13040000,0.0324,0.013523,0.002678,0.000431,0.000940
13041000,0.0324,0.013523,0.002678,0.000431,0.000940
13042000,0.0324,0.013523,0.002678,0.000431,0.000823
13043000,0.0324,0.013523,0.002678,0.000431,0.000823
13044000,0.0324,0.013523,0.002678,0.000431,0.000940
13045000,0.0324,0.013523,0.002678,0.000431,0.000823
13046000,0.0324,0.013523,0.002678,0.000431,0.000823
13047000,0.0324,0.013523,0.002678,0.000431,0.000940
13048000,0.0324,0.013523,0.002678,0.000431,0.000940
13049000,0.0324,0.013523,0.002678,0.000431,0.000823
13050000,0.0324,0.013523,0.002678,0.000431,0.000823
13051000,0.0324,0.013523,0.002678,0.000431,0.000940
13052000,0.0324,0.013523,0.002678,0.000431,0.000940
13053000,0.0324,0.013523,0.002678,0.000431,0.000823
13054000,0.0324,0.013523,0.002678,0.000431,0.000823
13055000,0.0324,0.013523,0.002678,0.000431,0.000940
13056000,0.0324,0.013523,0.002678,0.000431,0.000940
13057000,0.0324,0.013523,0.002678,0.000431,0.000823
13058000,0.0324,0.013523,0.002678,0.000431,0.000823
13059000,0.0324,0.013523,0.002678,0.000431,0.000940
13060000,0.0324,0.013523,0.002678,0.000431,0.000823
13061000,0.0324,0.013523,0.002678,0.000431,0.000940
13062000,0.0324,0.013523,0.002678,0.000431,0.071692
13063000,0.0324,0.013523,0.002678,0.000431,0.444492
13064000,0.0324,0.013523,0.002678,0.000431,0.551912
13065000,0.0324,0.013523,0.002678,0.000431,0.132572
13066000,0.0324,0.013523,0.002678,0.000431,0.133042
13067000,0.0324,0.013523,0.002678,0.000431,0.531345
13068000,0.0324,0.013523,0.002678,0.000431,0.239875
13069000,0.0324,0.013523,0.002678,0.000431,0.231883
13070000,0.0324,0.013523,0.002678,0.000431,0.302282
13071000,0.0324,0.013523,0.002678,0.000431,0.183697
13072000,0.0324,0.013523,0.002678,0.000431,0.141739
13073000,0.0324,0.013523,0.002678,0.000431,0.172296
13074000,0.0324,0.013523,0.002678,0.000431,0.095198
13075000,0.0324,0.013523,0.002678,0.000431,0.465529
13076000,0.0324,0.013523,0.002678,0.000431,0.028677
13077000,0.0324,0.013523,0.002678,0.000431,0.000940
13078000,0.0324,0.013523,0.002678,0.000431,0.000940
13079000,0.0324,0.013523,0.002678,0.000431,0.000823
13080000,0.0324,0.013523,0.002678,0.000431,0.000940
13081000,0.0324,0.013523,0.002678,0.000431,0.000823
13082000,0.0324,0.013523,0.002678,0.000431,0.000940
13083000,0.0324,0.013523,0.002678,0.000431,0.000823
13084000,0.0324,0.013523,0.002678,0.000431,0.013633
13085000,0.0324,0.013523,0.002678,0.000431,0.420516
13086000,0.0324,0.013523,0.002678,0.000431,0.598218
13087000,0.0324,0.013523,0.002678,0.000431,0.133512
13088000,0.0324,0.013523,0.002678,0.000431,0.130691
13089000,0.0324,0.013523,0.002678,0.000431,0.225772
13090000,0.0324,0.013523,0.002678,0.000431,0.525233
13091000,0.0324,0.013523,0.002678,0.000431,0.234469
13092000,0.0324,0.013523,0.002678,0.000431,0.260325
13093000,0.0324,0.013523,0.002678,0.000431,0.247749
13094000,0.0324,0.013523,0.002678,0.000431,0.137390
13095000,0.0324,0.013523,0.002678,0.000431,0.137743
13096000,0.0324,0.013523,0.002678,0.000431,0.102955
13097000,0.0324,0.013523,0.002678,0.000431,0.403827
13098000,0.0324,0.013523,0.002678,0.000431,0.153022
13099000,0.0324,0.013523,0.002678,0.000431,0.000940
13100000,0.0324,0.013523,0.002678,0.000431,0.000823
13101000,0.0324,0.013523,0.002678,0.000431,0.000940
13102000,0.0324,0.013523,0.002678,0.000431,0.000823
13103000,0.0324,0.013523,0.002678,0.000431,0.000940
13104000,0.0324,0.013523,0.002678,0.000431,0.000823
13105000,0.0324,0.013523,0.002678,0.000431,0.000823
13106000,0.0324,0.013523,0.002678,0.000431,0.000940
13107000,0.0324,0.013523,0.002678,0.000431,0.000940
13108000,0.0324,0.013523,0.002678,0.000431,0.000823
13109000,0.0324,0.013523,0.002678,0.000431,0.000823
13110000,0.0324,0.013523,0.002678,0.000431,0.000940
13111000,0.0324,0.013523,0.002678,0.000431,0.000940
13112000,0.0324,0.013523,0.002678,0.000431,0.000705
13113000,0.0324,0.013523,0.002678,0.000431,0.000940
13114000,0.0324,0.013523,0.002678,0.000431,0.000940
13115000,0.0324,0.013523,0.002678,0.000431,0.000940
13116000,0.0324,0.013523,0.002678,0.000431,0.000705
13117000,0.0324,0.013523,0.002678,0.000431,0.000940
13118000,0.0324,0.013523,0.002678,0.000431,0.000940
13119000,0.0324,0.013523,0.002678,0.000431,0.000823
13120000,0.0324,0.013523,0.002678,0.000431,0.000823
13121000,0.0324,0.013523,0.002678,0.000431,0.000940
13122000,0.0324,0.013523,0.002678,0.000431,0.000940
13123000,0.0324,0.013523,0.002678,0.000431,0.000823
13124000,0.0324,0.013523,0.002678,0.000431,0.000823
13125000,0.0324,0.013523,0.002678,0.000431,0.000940
13126000,0.0324,0.013523,0.002678,0.000431,0.000823
13127000,0.0324,0.013523,0.002678,0.000431,0.000940
13128000,0.0324,0.013523,0.002678,0.000431,0.000823
13129000,0.0324,0.013523,0.002678,0.000431,0.000940
13130000,0.0324,0.013523,0.002678,0.000431,0.000823
13131000,0.0324,0.013523,0.002678,0.000431,0.000823
13132000,0.0324,0.013523,0.002678,0.000431,0.000940
13133000,0.0324,0.013523,0.002678,0.000431,0.000940
13134000,0.0324,0.013523,0.002678,0.000431,0.000940
13135000,0.0324,0.013523,0.002678,0.000431,0.000705
13136000,0.0324,0.013523,0.002678,0.000431,0.000940
13137000,0.0324,0.013523,0.002678,0.000431,0.000940
13138000,0.0324,0.013523,0.002678,0.000431,0.000823
13139000,0.0324,0.013523,0.002678,0.000431,0.000823
13140000,0.0324,0.013523,0.002678,0.000431,0.000940
13141000,0.0324,0.013523,0.002678,0.000431,0.000823
13142000,0.0324,0.013523,0.002678,0.000431,0.000940
13143000,0.0324,0.013523,0.002678,0.000431,0.000823
13144000,0.0324,0.013523,0.002678,0.000431,0.000940
13145000,0.0324,0.013523,0.002678,0.000431,0.000823
13146000,0.0324,0.013523,0.002678,0.000431,0.000823
13147000,0.0324,0.013523,0.002678,0.000431,0.000940
13148000,0.0324,0.013523,0.002678,0.000431,0.000940
13149000,0.0324,0.013523,0.002678,0.000431,0.000823
13150000,0.0324,0.013523,0.002678,0.000431,0.000823
13151000,0.0324,0.013523,0.002678,0.000431,0.000940
13152000,0.0324,0.013523,0.002678,0.000431,0.000940
13153000,0.0324,0.013523,0.002678,0.000431,0.000705
13154000,0.0324,0.013523,0.002678,0.000431,0.000940
13155000,0.0324,0.013523,0.002678,0.000431,0.000940
13156000,0.0324,0.013523,0.002678,0.000431,0.000940
13157000,0.0324,0.013523,0.002678,0.000431,0.000705
13158000,0.0324,0.013523,0.002678,0.000431,0.000940
13159000,0.0324,0.013523,0.002678,0.000431,0.000940
13160000,0.0324,0.013523,0.002678,0.000431,0.000823
13161000,0.0324,0.013523,0.002678,0.000431,0.000940
13162000,0.0324,0.013523,0.002678,0.000431,0.000823
13163000,0.0324,0.013523,0.002678,0.000431,0.000940
13164000,0.0324,0.013523,0.002678,0.000431,0.000823
13165000,0.0324,0.013523,0.002678,0.000431,0.000823
13166000,0.0324,0.013523,0.002678,0.000431,0.000940
13167000,0.0324,0.013523,0.002678,0.000431,0.000940
13168000,0.0324,0.013523,0.002678,0.000431,0.000823
13169000,0.0324,0.013523,0.002678,0.000431,0.000823
13170000,0.0324,0.013523,0.002678,0.000431,0.000940
13171000,0.0324,0.013523,0.002678,0.000431,0.000940
13172000,0.0324,0.013523,0.002678,0.000431,0.000705
13173000,0.0324,0.013523,0.002678,0.000431,0.000940
13174000,0.0324,0.013523,0.002678,0.000431,0.000940
13175000,0.0324,0.013523,0.002678,0.000431,0.000940
13176000,0.0324,0.013523,0.002678,0.000431,0.000705
13177000,0.0324,0.013523,0.002678,0.000431,0.000940
13178000,0.0324,0.013523,0.002678,0.000431,0.000940
13179000,0.0324,0.013523,0.002678,0.000431,0.000823
13180000,0.0324,0.013523,0.002678,0.000431,0.000823
13181000,0.0324,0.013523,0.002678,0.000431,0.000940
13182000,0.0324,0.013523,0.002678,0.000431,0.000823
13183000,0.0324,0.013523,0.002678,0.000431,0.000940
13184000,0.0324,0.013523,0.002678,0.000431,0.000823
13185000,0.0324,0.013523,0.002678,0.000431,0.000940
13186000,0.0324,0.013523,0.002678,0.000431,0.000823
13187000,0.0324,0.013523,0.002678,0.000431,0.000823
13188000,0.0324,0.013523,0.002678,0.000431,0.000940
13189000,0.0324,0.013523,0.002678,0.000431,0.000940
13190000,0.0324,0.013523,0.002678,0.000431,0.000823
13191000,0.0324,0.013523,0.002678,0.000431,0.000823
13192000,0.0324,0.013523,0.002678,0.000431,0.000940
13193000,0.0324,0.013523,0.002678,0.000431,0.000940
13194000,0.0324,0.013523,0.002678,0.000431,0.000823
13195000,0.0324,0.013523,0.002678,0.000431,0.000823
13196000,0.0324,0.013523,0.002678,0.000431,0.000940
13197000,0.0324,0.013523,0.002678,0.000431,0.000940
13198000,0.0324,0.013523,0.002678,0.000431,0.000823
13199000,0.0324,0.013523,0.002678,0.000431,0.000823
13200000,0.0324,0.013523,0.002678,0.000431,0.000940
13201000,0.0324,0.013523,0.002678,0.000431,0.000823
13202000,0.0324,0.013523,0.002678,0.000431,0.000940
13203000,0.0324,0.013523,0.002678,0.000431,0.000823
13204000,0.0324,0.013523,0.002678,0.000431,0.000940
13205000,0.0324,0.013523,0.002678,0.000431,0.000823
13206000,0.0324,0.013523,0.002678,0.000431,0.000823
13207000,0.0324,0.013523,0.002678,0.000431,0.000940
13208000,0.0324,0.013523,0.002678,0.000431,0.000940
13209000,0.0324,0.013523,0.002678,0.000431,0.000823
13210000,0.0324,0.013523,0.002678,0.000431,0.000823
13211000,0.0324,0.013523,0.002678,0.000431,0.000940
13212000,0.0324,0.013523,0.002678,0.000431,0.000940
13213000,0.0324,0.013523,0.002678,0.000431,0.000705
13214000,0.0324,0.013523,0.002678,0.000431,0.000940
13215000,0.0324,0.013523,0.002678,0.000431,0.000940
13216000,0.0324,0.013523,0.002678,0.000431,0.000940
13217000,0.0324,0.013523,0.002678,0.000431,0.000705
13218000,0.0324,0.013523,0.002678,0.000431,0.000940
13219000,0.0324,0.013523,0.002678,0.000431,0.000940
13220000,0.0324,0.013523,0.002678,0.000431,0.000823
13221000,0.0324,0.013523,0.002678,0.000431,0.000940
13222000,0.0324,0.013523,0.002678,0.000431,0.000823
13223000,0.0324,0.013523,0.002678,0.000431,0.000940
13224000,0.0324,0.013523,0.002678,0.000431,0.000823
13225000,0.0324,0.013523,0.002678,0.000431,0.000823
13226000,0.0324,0.013523,0.002678,0.000431,0.000940
13227000,0.0324,0.013523,0.002678,0.000431,0.000940
13228000,0.0324,0.013523,0.002678,0.000431,0.000705
13229000,0.0324,0.013523,0.002678,0.000431,0.000940
13230000,0.0324,0.013523,0.002678,0.000431,0.000940
13231000,0.0324,0.013523,0.002678,0.000431,0.000940
13232000,0.0324,0.013523,0.002678,0.000431,0.000705
13233000,0.0324,0.013523,0.002678,0.000431,0.000940
13234000,0.0324,0.013523,0.002678,0.000431,0.000940
13235000,0.0324,0.013523,0.002678,0.000431,0.000823
13236000,0.0324,0.013523,0.002678,0.000431,0.000823
13237000,0.0324,0.013523,0.002678,0.000431,0.000940
13238000,0.0324,0.013523,0.002678,0.000431,0.000940
13239000,0.0324,0.013523,0.002678,0.000431,0.000823
13240000,0.0324,0.013523,0.002678,0.000431,0.000823
13241000,0.0324,0.013523,0.002678,0.000431,0.000940
13242000,0.0324,0.013523,0.002678,0.000431,0.000823
13243000,0.0324,0.013523,0.002678,0.000431,0.000940
13244000,0.0324,0.013523,0.002678,0.000431,0.000823
13245000,0.0324,0.013523,0.002678,0.000431,0.000940
13246000,0.0324,0.013523,0.002678,0.000431,0.000823
13247000,0.0324,0.013523,0.002678,0.000431,0.000823
13248000,0.0324,0.013523,0.002678,0.000431,0.000940
13249000,0.0324,0.013523,0.002678,0.000431,0.000940
13250000,0.0324,0.013523,0.002678,0.000431,0.000823
13251000,0.0324,0.013523,0.002678,0.000431,0.000823
13252000,0.0324,0.013523,0.002678,0.000431,0.000940
13253000,0.0324,0.013523,0.002678,0.000431,0.000940
13254000,0.0324,0.013523,0.002678,0.000431,0.000823
13255000,0.0324,0.013523,0.002678,0.000431,0.000823
13256000,0.0324,0.013523,0.002678,0.000431,0.000940
13257000,0.0324,0.013523,0.002678,0.000431,0.000940
13258000,0.0324,0.013523,0.002678,0.000431,0.000823
13259000,0.0324,0.013523,0.002678,0.000431,0.000823
13260000,0.0324,0.013523,0.002678,0.000431,0.000940
13261000,0.0324,0.013523,0.002678,0.000431,0.000823
13262000,0.0324,0.013523,0.002678,0.000431,0.000940
13263000,0.0324,0.013523,0.002678,0.000431,0.000823
13264000,0.0324,0.013523,0.002678,0.000431,0.000940
13265000,0.0324,0.013523,0.002678,0.000431,0.000823
13266000,0.0324,0.013523,0.002678,0.000431,0.000823
13267000,0.0324,0.013523,0.002678,0.000431,0.000940
13268000,0.0324,0.013523,0.002678,0.000431,0.000940
13269000,0.0324,0.013523,0.002678,0.000431,0.000823
13270000,0.0324,0.013523,0.002678,0.000431,0.000823
13271000,0.0324,0.013523,0.002678,0.000431,0.000940
13272000,0.0324,0.013523,0.002678,0.000431,0.000940
13273000,0.0324,0.013523,0.002678,0.000431,0.000705
13274000,0.0324,0.013523,0.002678,0.000431,0.000940
13275000,0.0324,0.013523,0.002678,0.000431,0.000940
13276000,0.0324,0.013523,0.002678,0.000431,0.000823
13277000,0.0324,0.013523,0.002678,0.000431,0.000940
13278000,0.0324,0.013523,0.002678,0.000431,0.000823
13279000,0.0324,0.013523,0.002678,0.000431,0.000940
13280000,0.0324,0.013523,0.002678,0.000431,0.000823
13281000,0.0324,0.013523,0.002678,0.000431,0.000823
13282000,0.0324,0.013523,0.002678,0.000431,0.000940
13283000,0.0324,0.013523,0.002678,0.000431,0.000823
13284000,0.0324,0.013523,0.002678,0.000431,0.000940
13285000,0.0324,0.013523,0.002678,0.000431,0.000823
13286000,0.0324,0.013523,0.002678,0.000431,0.000940
13287000,0.0324,0.013523,0.002678,0.000431,0.000940
13288000,0.0324,0.013523,0.002678,0.000431,0.000705
13289000,0.0324,0.013523,0.002678,0.000431,0.000940
13290000,0.0324,0.013523,0.002678,0.000431,0.000940
13291000,0.0324,0.013523,0.002678,0.000431,0.000940
13292000,0.0324,0.013523,0.002678,0.000431,0.000705
13293000,0.0324,0.013523,0.002678,0.000431,0.000940
13294000,0.0324,0.013523,0.002678,0.000431,0.000940
13295000,0.0324,0.013523,0.002678,0.000431,0.000823
13296000,0.0324,0.013523,0.002678,0.000431,0.000823
13297000,0.0324,0.013523,0.002678,0.000431,0.000940
13298000,0.0324,0.013523,0.002678,0.000431,0.000940
13299000,0.0324,0.013523,0.002678,0.000431,0.000823
13300000,0.0324,0.013523,0.002678,0.000431,0.000823
13301000,0.0324,0.013523,0.002678,0.000431,0.000940
13302000,0.0324,0.013523,0.002678,0.000431,0.000823
13303000,0.0324,0.013523,0.002678,0.000431,0.000940
13304000,0.0324,0.013523,0.002678,0.000431,0.000823
13305000,0.0324,0.013523,0.002678,0.000431,0.000940
13306000,0.0324,0.013523,0.002678,0.000431,0.000823
13307000,0.0324,0.013523,0.002678,0.000431,0.000823
13308000,0.0324,0.013523,0.002678,0.000431,0.000940
13309000,0.0324,0.013523,0.002678,0.000431,0.000940
13310000,0.0324,0.013523,0.002678,0.000431,0.000823
13311000,0.0324,0.013523,0.002678,0.000431,0.000823
13312000,0.0324,0.013523,0.002678,0.000431,0.000940
13313000,0.0324,0.013523,0.002678,0.000431,0.000940
13314000,0.0324,0.013523,0.002678,0.000431,0.000823
13315000,0.0324,0.013523,0.002678,0.000431,0.000823
13316000,0.0324,0.013523,0.002678,0.000431,0.000940
13317000,0.0324,0.013523,0.002678,0.000431,0.000823
13318000,0.0324,0.013523,0.002678,0.000431,0.000940
13319000,0.0324,0.013523,0.002678,0.000431,0.000823
13320000,0.0324,0.013523,0.002678,0.000431,0.000940
13321000,0.0324,0.013523,0.002678,0.000431,0.000823
13322000,0.0324,0.013523,0.002678,0.000431,0.000823
13323000,0.0324,0.013523,0.002678,0.000431,0.000940
13324000,0.0324,0.013523,0.002678,0.000431,0.000940
13325000,0.0324,0.013523,0.002678,0.000431,0.000823
13326000,0.0324,0.013523,0.002678,0.000431,0.000823
13327000,0.0324,0.013523,0.002678,0.000431,0.000940
13328000,0.0324,0.013523,0.002678,0.000431,0.000940
13329000,0.0324,0.013523,0.002678,0.000431,0.000705
13330000,0.0324,0.013523,0.002678,0.000431,0.000940
13331000,0.0324,0.013523,0.002678,0.000431,0.000940
13332000,0.0324,0.013523,0.002678,0.000431,0.000940
13333000,0.0324,0.013523,0.002678,0.000431,0.000705
13334000,0.0324,0.013523,0.002678,0.000431,0.000940
13335000,0.0324,0.013523,0.002678,0.000431,0.000940
13336000,0.0324,0.013523,0.002678,0.000431,0.000823
13337000,0.0324,0.013523,0.002678,0.000431,0.000940
13338000,0.0324,0.013523,0.002678,0.000431,0.000823
13339000,0.0324,0.013523,0.002678,0.000431,0.000940
13340000,0.0324,0.013523,0.002678,0.000431,0.000823
13341000,0.0324,0.013523,0.002678,0.000431,0.000823
13342000,0.0324,0.013523,0.002678,0.000431,0.000940
13343000,0.0324,0.013523,0.002678,0.000431,0.000823
13344000,0.0324,0.013523,0.002678,0.000431,0.000940
13345000,0.0324,0.013523,0.002678,0.000431,0.000823
13346000,0.0324,0.013523,0.002678,0.000431,0.000940
13347000,0.0324,0.013523,0.002678,0.000431,0.000940
13348000,0.0324,0.013523,0.002678,0.000431,0.000705
13349000,0.0324,0.013523,0.002678,0.000431,0.000940
13350000,0.0324,0.013523,0.002678,0.000431,0.000940
13351000,0.0324,0.013523,0.002678,0.000431,0.000940
13352000,0.0324,0.013523,0.002678,0.000431,0.000705
13353000,0.0324,0.013523,0.002678,0.000431,0.000940
13354000,0.0324,0.013523,0.002678,0.000431,0.000940
13355000,0.0324,0.013523,0.002678,0.000431,0.000823
13356000,0.0324,0.013523,0.002678,0.000431,0.000823
13357000,0.0324,0.013523,0.002678,0.000431,0.000940
13358000,0.0324,0.013523,0.002678,0.000431,0.000823
13359000,0.0324,0.013523,0.002678,0.000431,0.000940
13360000,0.0324,0.013523,0.002678,0.000431,0.000823
13361000,0.0324,0.013523,0.002678,0.000431,0.000940
13362000,0.0324,0.013523,0.002678,0.000431,0.000823
13363000,0.0324,0.013523,0.002678,0.000431,0.000823
13364000,0.0324,0.013523,0.002678,0.000431,0.000940
13365000,0.0324,0.013523,0.002678,0.000431,0.000940
13366000,0.0324,0.013523,0.002678,0.000431,0.000823
13367000,0.0324,0.013523,0.002678,0.000431,0.000823
13368000,0.0324,0.013523,0.002678,0.000431,0.000940
13369000,0.0324,0.013523,0.002678,0.000431,0.000940
13370000,0.0324,0.013523,0.002678,0.000431,0.000823
13371000,0.0324,0.013523,0.002678,0.000431,0.000823
13372000,0.0324,0.013523,0.002678,0.000431,0.000940
13373000,0.0324,0.013523,0.002678,0.000431,0.000940
13374000,0.0324,0.013523,0.002678,0.000431,0.000823
13375000,0.0324,0.013523,0.002678,0.000431,0.000823
13376000,0.0324,0.013523,0.002678,0.000431,0.000940
13377000,0.0324,0.013523,0.002678,0.000431,0.000823
13378000,0.0324,0.013523,0.002678,0.000431,0.000940
13379000,0.0324,0.013523,0.002678,0.000431,0.000823
13380000,0.0324,0.013523,0.002678,0.000431,0.000940
13381000,0.0324,0.013523,0.002678,0.000431,0.000823
13382000,0.0324,0.013523,0.002678,0.000431,0.000823
13383000,0.0324,0.013523,0.002678,0.000431,0.000940
13384000,0.0324,0.013523,0.002678,0.000431,0.000940
13385000,0.0324,0.013523,0.002678,0.000431,0.000823
13386000,0.0324,0.013523,0.002678,0.000431,0.000823
13387000,0.0324,0.013523,0.002678,0.000431,0.000940
13388000,0.0324,0.013523,0.002678,0.000431,0.000940
13389000,0.0324,0.013523,0.002678,0.000431,0.000705
13390000,0.0324,0.013523,0.002678,0.000431,0.000940
13391000,0.0324,0.013523,0.002678,0.000431,0.000940
13392000,0.0324,0.013523,0.002678,0.000431,0.000940
13393000,0.0324,0.013523,0.002678,0.000431,0.000705
13394000,0.0324,0.013523,0.002678,0.000431,0.000940
13395000,0.0324,0.013523,0.002678,0.000431,0.000940
13396000,0.0324,0.013523,0.002678,0.000431,0.000823
13397000,0.0324,0.013523,0.002678,0.000431,0.000940
13398000,0.0324,0.013523,0.002678,0.000431,0.001528
13399000,0.0324,0.013523,0.002678,0.000431,0.309569
13400000,0.0324,0.013523,0.002678,0.000431,0.662624
13401000,0.0324,0.013523,0.002678,0.000431,0.143737
13402000,0.0324,0.013523,0.002678,0.000431,0.132337
13403000,0.0324,0.013523,0.002678,0.000431,0.132807
13404000,0.0324,0.013523,0.002678,0.000431,0.589521
13405000,0.0324,0.013523,0.002678,0.000431,0.217545
13406000,0.0324,0.013523,0.002678,0.000431,0.251158
13407000,0.0324,0.013523,0.002678,0.000431,0.278424
13408000,0.0324,0.013523,0.002678,0.000431,0.139623
13409000,0.0324,0.013523,0.002678,0.000431,0.139976
13410000,0.0324,0.013523,0.002678,0.000431,0.143737
13411000,0.0324,0.013523,0.002678,0.000431,0.235409
13412000,0.0324,0.013523,0.002678,0.000431,0.350822
13413000,0.0324,0.013523,0.002678,0.000431,0.024916
13414000,0.0324,0.013523,0.002678,0.000431,0.023388
13415000,0.0324,0.013523,0.002678,0.000431,0.021508
13416000,0.0324,0.013523,0.002678,0.000431,0.014456
13417000,0.0324,0.013523,0.002678,0.000431,0.014809
13418000,0.0324,0.013523,0.002678,0.000431,0.012928
13419000,0.0324,0.013523,0.002678,0.000431,0.015044
13420000,0.0324,0.013523,0.002678,0.000431,0.011988
13421000,0.0324,0.013523,0.002678,0.000431,0.012458
13422000,0.0324,0.013523,0.002678,0.000431,0.009167
13423000,0.0324,0.013523,0.002678,0.000431,0.006817
13424000,0.0324,0.013523,0.002678,0.000431,0.007169
13425000,0.0324,0.013523,0.002678,0.000431,0.007169
13426000,0.0324,0.013523,0.002678,0.000431,0.006817
13427000,0.0324,0.013523,0.002678,0.000431,0.008227
13428000,0.0324,0.013523,0.002678,0.000431,0.006229
13429000,0.0324,0.013523,0.002678,0.000431,0.005994
13430000,0.0324,0.013523,0.002678,0.000431,0.006111
13431000,0.0324,0.013523,0.002678,0.000431,0.006229
13432000,0.0324,0.013523,0.002678,0.000431,0.006111
13433000,0.0324,0.013523,0.002678,0.000431,0.006229
13434000,0.0324,0.013523,0.002678,0.000431,0.005759
13435000,0.0324,0.013523,0.002678,0.000431,0.006347
13436000,0.0324,0.013523,0.002678,0.000431,0.006111
13437000,0.0324,0.013523,0.002678,0.000431,0.005759
13438000,0.0324,0.013523,0.002678,0.000431,0.006229
13439000,0.0324,0.013523,0.002678,0.000431,0.006229
13440000,0.0324,0.013523,0.002678,0.000431,0.006111
13441000,0.0324,0.013523,0.002678,0.000431,0.006817
13442000,0.0324,0.013523,0.002678,0.000431,0.005406
13443000,0.0324,0.013523,0.002678,0.000431,0.005406
13444000,0.0324,0.013523,0.002678,0.000431,0.006229
13445000,0.0324,0.013523,0.002678,0.000431,0.004231
13446000,0.0324,0.013523,0.002678,0.000431,0.005876
13447000,0.0324,0.013523,0.002678,0.000431,0.003878
13448000,0.0324,0.013523,0.002678,0.000431,0.005641
13449000,0.0324,0.013523,0.002678,0.000431,0.002468
13450000,0.0324,0.013523,0.002678,0.000431,0.002586
13451000,0.0324,0.013523,0.002678,0.000431,0.002703
13452000,0.0324,0.013523,0.002678,0.000431,0.003408
13453000,0.0324,0.013523,0.002678,0.000431,0.002586
13454000,0.0324,0.013523,0.002678,0.000431,0.001763
13455000,0.0324,0.013523,0.002678,0.000431,0.001880
13456000,0.0324,0.013523,0.002678,0.000431,0.001645
13457000,0.0324,0.013523,0.002678,0.000431,0.001645
13458000,0.0324,0.013523,0.002678,0.000431,0.001880
13459000,0.0324,0.013523,0.002678,0.000431,0.001880
13460000,0.0324,0.013523,0.002678,0.000431,0.001645
13461000,0.0324,0.013523,0.002678,0.000431,0.001645
13462000,0.0324,0.013523,0.002678,0.000431,0.001880
13463000,0.0324,0.013523,0.002678,0.000431,0.001763
13464000,0.0324,0.013523,0.002678,0.000431,0.001645
13465000,0.0324,0.013523,0.002678,0.000431,0.001763
13466000,0.0324,0.013523,0.002678,0.000431,0.001880
13467000,0.0324,0.013523,0.002678,0.000431,0.001763
13468000,0.0324,0.013523,0.002678,0.000431,0.001528
13469000,0.0324,0.013523,0.002678,0.000431,0.001880
13470000,0.0324,0.013523,0.002678,0.000431,0.001880
13471000,0.0324,0.013523,0.002678,0.000431,0.001645
13472000,0.0324,0.013523,0.002678,0.000431,0.001763
13473000,0.0324,0.013523,0.002678,0.000431,0.001763
13474000,0.0324,0.013523,0.002678,0.000431,0.001880
13475000,0.0324,0.013523,0.002678,0.000431,0.001645
13476000,0.0324,0.013523,0.002678,0.000431,0.001645
13477000,0.0324,0.013523,0.002678,0.000431,0.001880
13478000,0.0324,0.013523,0.002678,0.000431,0.001645
13479000,0.0324,0.013523,0.002678,0.000431,0.001880
13480000,0.0324,0.013523,0.002678,0.000431,0.001645
13481000,0.0324,0.013523,0.002678,0.000431,0.001880
13482000,0.0324,0.013523,0.002678,0.000431,0.001763
13483000,0.0324,0.013523,0.002678,0.000431,0.001528
13484000,0.0324,0.013523,0.002678,0.000431,0.001880
13485000,0.0324,0.013523,0.002678,0.000431,0.001880
13486000,0.0324,0.013523,0.002678,0.000431,0.001763
13487000,0.0324,0.013523,0.002678,0.000431,0.001528
13488000,0.0324,0.013523,0.002678,0.000431,0.001880
13489000,0.0324,0.013523,0.002678,0.000431,0.001880
13490000,0.0324,0.013523,0.002678,0.000431,0.001528
13491000,0.0324,0.013523,0.002678,0.000431,0.001763
13492000,0.0324,0.013523,0.002678,0.000431,0.001880
13493000,0.0324,0.013523,0.002678,0.000431,0.001763
13494000,0.0324,0.013523,0.002678,0.000431,0.001645
13495000,0.0324,0.013523,0.002678,0.000431,0.001763
13496000,0.0324,0.013523,0.002678,0.000431,0.001880
13497000,0.0324,0.013523,0.002678,0.000431,0.001645
13498000,0.0324,0.013523,0.002678,0.000431,0.001763
13499000,0.0324,0.013523,0.002678,0.000431,0.001763
13500000,0.0324,0.013523,0.002678,0.000431,0.001880
13501000,0.0324,0.013523,0.002678,0.000431,0.001645
13502000,0.0324,0.013523,0.002678,0.000431,0.001645
13503000,0.0324,0.013523,0.002678,0.000431,0.002468
13504000,0.0324,0.013523,0.002678,0.000431,0.000940
13505000,0.0324,0.013523,0.002678,0.000431,0.000823
13506000,0.0324,0.013523,0.002678,0.000431,0.000940
13507000,0.0324,0.013523,0.002678,0.000431,0.000823
13508000,0.0324,0.013523,0.002678,0.000431,0.000940
13509000,0.0324,0.013523,0.002678,0.000431,0.000940
13510000,0.0324,0.013523,0.002678,0.000431,0.000705
13511000,0.0324,0.013523,0.002678,0.000431,0.000940
13512000,0.0324,0.013523,0.002678,0.000431,0.000940
13513000,0.0324,0.013523,0.002678,0.000431,0.000940
13514000,0.0324,0.013523,0.002678,0.000431,0.000705
13515000,0.0324,0.013523,0.002678,0.000431,0.000940
13516000,0.0324,0.013523,0.002678,0.000431,0.000940
13517000,0.0324,0.013523,0.002678,0.000431,0.000823
13518000,0.0324,0.013523,0.002678,0.000431,0.000823
13519000,0.0324,0.013523,0.002678,0.000431,0.000940
13520000,0.0324,0.013523,0.002678,0.000431,0.000940
13521000,0.0324,0.013523,0.002678,0.000431,0.000823
13522000,0.0324,0.013523,0.002678,0.000431,0.000823
13523000,0.0324,0.013523,0.002678,0.000431,0.000940
13524000,0.0324,0.013523,0.002678,0.000431,0.000823
13525000,0.0324,0.013523,0.002678,0.000431,0.000940
13526000,0.0324,0.013523,0.002678,0.000431,0.000823
13527000,0.0324,0.013523,0.002678,0.000431,0.000940
13528000,0.0324,0.013523,0.002678,0.000431,0.000823
13529000,0.0324,0.013523,0.002678,0.000431,0.000823
13530000,0.0324,0.013523,0.002678,0.000431,0.000940
13531000,0.0324,0.013523,0.002678,0.000431,0.000940
13532000,0.0324,0.013523,0.002678,0.000431,0.000823
13533000,0.0324,0.013523,0.002678,0.000431,0.000823
13534000,0.0324,0.013523,0.002678,0.000431,0.000940
13535000,0.0324,0.013523,0.002678,0.000431,0.000940
13536000,0.0324,0.013523,0.002678,0.000431,0.000823
13537000,0.0324,0.013523,0.002678,0.000431,0.000823
13538000,0.0324,0.013523,0.002678,0.000431,0.000940
13539000,0.0324,0.013523,0.002678,0.000431,0.000823
13540000,0.0324,0.013523,0.002678,0.000431,0.000940
13541000,0.0324,0.013523,0.002678,0.000431,0.000823
13542000,0.0324,0.013523,0.002678,0.000431,0.000940
13543000,0.0324,0.013523,0.002678,0.000431,0.000823
13544000,0.0324,0.013523,0.002678,0.000431,0.000823
13545000,0.0324,0.013523,0.002678,0.000431,0.000940
13546000,0.0324,0.013523,0.002678,0.000431,0.000940
13547000,0.0324,0.013523,0.002678,0.000431,0.000823
13548000,0.0324,0.013523,0.002678,0.000431,0.000823
13549000,0.0324,0.013523,0.002678,0.000431,0.000940
13550000,0.0324,0.013523,0.002678,0.000431,0.000940
13551000,0.0324,0.013523,0.002678,0.000431,0.000705
13552000,0.0324,0.013523,0.002678,0.000431,0.000940
13553000,0.0324,0.013523,0.002678,0.000431,0.000940
13554000,0.0324,0.013523,0.002678,0.000431,0.000940
13555000,0.0324,0.013523,0.002678,0.000431,0.000705
13556000,0.0324,0.013523,0.002678,0.000431,0.000940
13557000,0.0324,0.013523,0.002678,0.000431,0.000940
13558000,0.0324,0.013523,0.002678,0.000431,0.000823
13559000,0.0324,0.013523,0.002678,0.000431,0.000940
13560000,0.0324,0.013523,0.002678,0.000431,0.000823
13561000,0.0324,0.013523,0.002678,0.000431,0.000940
13562000,0.0324,0.013523,0.002678,0.000431,0.000823
13563000,0.0324,0.013523,0.002678,0.000431,0.000823
13564000,0.0324,0.013523,0.002678,0.000431,0.000940
13565000,0.0324,0.013523,0.002678,0.000431,0.000823
13566000,0.0324,0.013523,0.002678,0.000431,0.000940
13567000,0.0324,0.013523,0.002678,0.000431,0.000823
13568000,0.0324,0.013523,0.002678,0.000431,0.000940
13569000,0.0324,0.013523,0.002678,0.000431,0.000940
13570000,0.0324,0.013523,0.002678,0.000431,0.000705
13571000,0.0324,0.013523,0.002678,0.000431,0.000940
13572000,0.0324,0.013523,0.002678,0.000431,0.000940
13573000,0.0324,0.013523,0.002678,0.000431,0.000940
13574000,0.0324,0.013523,0.002678,0.000431,0.000705
13575000,0.0324,0.013523,0.002678,0.000431,0.000940
13576000,0.0324,0.013523,0.002678,0.000431,0.000940
13577000,0.0324,0.013523,0.002678,0.000431,0.000823
13578000,0.0324,0.013523,0.002678,0.000431,0.000823
13579000,0.0324,0.013523,0.002678,0.000431,0.000940
13580000,0.0324,0.013523,0.002678,0.000431,0.000823
13581000,0.0324,0.013523,0.002678,0.000431,0.000940
13582000,0.0324,0.013523,0.002678,0.000431,0.000823
13583000,0.0324,0.013523,0.002678,0.000431,0.000940
13584000,0.0324,0.013523,0.002678,0.000431,0.000823
13585000,0.0324,0.013523,0.002678,0.000431,0.000823
13586000,0.0324,0.013523,0.002678,0.000431,0.000940
13587000,0.0324,0.013523,0.002678,0.000431,0.000940
13588000,0.0324,0.013523,0.002678,0.000431,0.000823
13589000,0.0324,0.013523,0.002678,0.000431,0.000823
13590000,0.0324,0.013523,0.002678,0.000431,0.000940
13591000,0.0324,0.013523,0.002678,0.000431,0.000940
13592000,0.0324,0.013523,0.002678,0.000431,0.000823
13593000,0.0324,0.013523,0.002678,0.000431,0.000823
13594000,0.0324,0.013523,0.002678,0.000431,0.000940
13595000,0.0324,0.013523,0.002678,0.000431,0.000940
13596000,0.0324,0.013523,0.002678,0.000431,0.000823
13597000,0.0324,0.013523,0.002678,0.000431,0.000823
13598000,0.0324,0.013523,0.002678,0.000431,0.000940
13599000,0.0324,0.013523,0.002678,0.000431,0.000823
13600000,0.0324,0.013523,0.002678,0.000431,0.000940
13601000,0.0324,0.013523,0.002678,0.000431,0.000823
13602000,0.0324,0.013523,0.002678,0.000431,0.000940
13603000,0.0324,0.013523,0.002678,0.000431,0.000823
13604000,0.0324,0.013523,0.002678,0.000431,0.000823
13605000,0.0324,0.013523,0.002678,0.000431,0.000940
13606000,0.0324,0.013523,0.002678,0.000431,0.000940
13607000,0.0324,0.013523,0.002678,0.000431,0.000823
13608000,0.0324,0.013523,0.002678,0.000431,0.000823
13609000,0.0324,0.013523,0.002678,0.000431,0.000940
13610000,0.0324,0.013523,0.002678,0.000431,0.000940
13611000,0.0324,0.013523,0.002678,0.000431,0.000705
13612000,0.0324,0.013523,0.002678,0.000431,0.000940
13613000,0.0324,0.013523,0.002678,0.000431,0.000940
13614000,0.0324,0.013523,0.002678,0.000431,0.000940
13615000,0.0324,0.013523,0.002678,0.000431,0.000705
13616000,0.0324,0.013523,0.002678,0.000431,0.000940
13617000,0.0324,0.013523,0.002678,0.000431,0.000940
13618000,0.0324,0.013523,0.002678,0.000431,0.000823
13619000,0.0324,0.013523,0.002678,0.000431,0.000940
13620000,0.0324,0.013523,0.002678,0.000431,0.000823
13621000,0.0324,0.013523,0.002678,0.000431,0.000940
13622000,0.0324,0.013523,0.002678,0.000431,0.000823
13623000,0.0324,0.013523,0.002678,0.000431,0.000823
13624000,0.0324,0.013523,0.002678,0.000431,0.000940
13625000,0.0324,0.013523,0.002678,0.000431,0.000940
13626000,0.0324,0.013523,0.002678,0.000431,0.000705
13627000,0.0324,0.013523,0.002678,0.000431,0.000940
13628000,0.0324,0.013523,0.002678,0.000431,0.000940
13629000,0.0324,0.013523,0.002678,0.000431,0.000940
13630000,0.0324,0.013523,0.002678,0.000431,0.000705
13631000,0.0324,0.013523,0.002678,0.000431,0.000940
13632000,0.0324,0.013523,0.002678,0.000431,0.000940
13633000,0.0324,0.013523,0.002678,0.000431,0.000823
13634000,0.0324,0.013523,0.002678,0.000431,0.000823
13635000,0.0324,0.013523,0.002678,0.000431,0.001763
13636000,0.0324,0.013523,0.002678,0.000431,0.339656
13637000,0.0324,0.013523,0.002678,0.000431,0.670616
13638000,0.0324,0.013523,0.002678,0.000431,0.145852
13639000,0.0324,0.013523,0.002678,0.000431,0.133982
13640000,0.0324,0.013523,0.002678,0.000431,0.131632
13641000,0.0324,0.013523,0.002678,0.000431,0.607856
13642000,0.0324,0.013523,0.002678,0.000431,0.264791
13643000,0.0324,0.013523,0.002678,0.000431,0.242813
13644000,0.0324,0.013523,0.002678,0.000431,0.261030
13645000,0.0324,0.013523,0.002678,0.000431,0.138213
13646000,0.0324,0.013523,0.002678,0.000431,0.156548
13647000,0.0324,0.013523,0.002678,0.000431,0.097078
13648000,0.0324,0.013523,0.002678,0.000431,0.433914
13649000,0.0324,0.013523,0.002678,0.000431,0.120584
13650000,0.0324,0.013523,0.002678,0.000431,0.013398
13651000,0.0324,0.013523,0.002678,0.000431,0.011165
13652000,0.0324,0.013523,0.002678,0.000431,0.013633
13653000,0.0324,0.013523,0.002678,0.000431,0.008580
13654000,0.0324,0.013523,0.002678,0.000431,0.009872
13655000,0.0324,0.013523,0.002678,0.000431,0.004466
13656000,0.0324,0.013523,0.002678,0.000431,0.002821
13657000,0.0324,0.013523,0.002678,0.000431,0.002468
13658000,0.0324,0.013523,0.002678,0.000431,0.002703
13659000,0.0324,0.013523,0.002678,0.000431,0.002586
13660000,0.0324,0.013523,0.002678,0.000431,0.002703
13661000,0.0324,0.013523,0.002678,0.000431,0.002586
13662000,0.0324,0.013523,0.002678,0.000431,0.002586
13663000,0.0324,0.013523,0.002678,0.000431,0.004584
13664000,0.0324,0.013523,0.002678,0.000431,0.001998
13665000,0.0324,0.013523,0.002678,0.000431,0.001645
13666000,0.0324,0.013523,0.002678,0.000431,0.001763
13667000,0.0324,0.013523,0.002678,0.000431,0.001763
13668000,0.0324,0.013523,0.002678,0.000431,0.001880
13669000,0.0324,0.013523,0.002678,0.000431,0.001645
13670000,0.0324,0.013523,0.002678,0.000431,0.001645
13671000,0.0324,0.013523,0.002678,0.000431,0.001880
13672000,0.0324,0.013523,0.002678,0.000431,0.001880
13673000,0.0324,0.013523,0.002678,0.000431,0.001645
13674000,0.0324,0.013523,0.002678,0.000431,0.001645
13675000,0.0324,0.013523,0.002678,0.000431,0.001880
13676000,0.0324,0.013523,0.002678,0.000431,0.001763
13677000,0.0324,0.013523,0.002678,0.000431,0.003173
13678000,0.0324,0.013523,0.002678,0.000431,0.000823
13679000,0.0324,0.013523,0.002678,0.000431,0.000940
13680000,0.0324,0.013523,0.002678,0.000431,0.000823
13681000,0.0324,0.013523,0.002678,0.000431,0.000823
13682000,0.0324,0.013523,0.002678,0.000431,0.000940
13683000,0.0324,0.013523,0.002678,0.000431,0.000940
13684000,0.0324,0.013523,0.002678,0.000431,0.000823
13685000,0.0324,0.013523,0.002678,0.000431,0.000823
13686000,0.0324,0.013523,0.002678,0.000431,0.000940
13687000,0.0324,0.013523,0.002678,0.000431,0.000940
13688000,0.0324,0.013523,0.002678,0.000431,0.000705
13689000,0.0324,0.013523,0.002678,0.000431,0.000940
13690000,0.0324,0.013523,0.002678,0.000431,0.000940
13691000,0.0324,0.013523,0.002678,0.000431,0.000940
13692000,0.0324,0.013523,0.002678,0.000431,0.000705
13693000,0.0324,0.013523,0.002678,0.000431,0.000940
13694000,0.0324,0.013523,0.002678,0.000431,0.000940
13695000,0.0324,0.013523,0.002678,0.000431,0.000823
13696000,0.0324,0.013523,0.002678,0.000431,0.000940
13697000,0.0324,0.013523,0.002678,0.000431,0.000823
13698000,0.0324,0.013523,0.002678,0.000431,0.000940
13699000,0.0324,0.013523,0.002678,0.000431,0.000940
13700000,0.0324,0.013523,0.002678,0.000431,0.000823
13701000,0.0324,0.013523,0.002678,0.000431,0.000823
13702000,0.0324,0.013523,0.002678,0.000431,0.013633
13703000,0.0324,0.013523,0.002678,0.000431,0.433914
13704000,0.0324,0.013523,0.002678,0.000431,0.594340
13705000,0.0324,0.013523,0.002678,0.000431,0.134452
13706000,0.0324,0.013523,0.002678,0.000431,0.130691
13707000,0.0324,0.013523,0.002678,0.000431,0.161719
13708000,0.0324,0.013523,0.002678,0.000431,0.576946
13709000,0.0324,0.013523,0.002678,0.000431,0.246339
13710000,0.0324,0.013523,0.002678,0.000431,0.267729
13711000,0.0324,0.013523,0.002678,0.000431,0.229533
13712000,0.0324,0.013523,0.002678,0.000431,0.144560
13713000,0.0324,0.013523,0.002678,0.000431,0.142209
13714000,0.0324,0.013523,0.002678,0.000431,0.103425
13715000,0.0324,0.013523,0.002678,0.000431,0.414404
13716000,0.0324,0.013523,0.002678,0.000431,0.165245
13717000,0.0324,0.013523,0.002678,0.000431,0.027737
13718000,0.0324,0.013523,0.002678,0.000431,0.022330
13719000,0.0324,0.013523,0.002678,0.000431,0.021038
13720000,0.0324,0.013523,0.002678,0.000431,0.021743
13721000,0.0324,0.013523,0.002678,0.000431,0.017277
13722000,0.0324,0.013523,0.002678,0.000431,0.014809
13723000,0.0324,0.013523,0.002678,0.000431,0.012928
13724000,0.0324,0.013523,0.002678,0.000431,0.012105
13725000,0.0324,0.013523,0.002678,0.000431,0.012223
13726000,0.0324,0.013523,0.002678,0.000431,0.012811
13727000,0.0324,0.013523,0.002678,0.000431,0.011988
13728000,0.0324,0.013523,0.002678,0.000431,0.012223
13729000,0.0324,0.013523,0.002678,0.000431,0.012576
13730000,0.0324,0.013523,0.002678,0.000431,0.012576
13731000,0.0324,0.013523,0.002678,0.000431,0.012105
13732000,0.0324,0.013523,0.002678,0.000431,0.012223
13733000,0.0324,0.013523,0.002678,0.000431,0.011988
13734000,0.0324,0.013523,0.002678,0.000431,0.008227
13735000,0.0324,0.013523,0.002678,0.000431,0.007757
13736000,0.0324,0.013523,0.002678,0.000431,0.007757
13737000,0.0324,0.013523,0.002678,0.000431,0.007522
13738000,0.0324,0.013523,0.002678,0.000431,0.007639
13739000,0.0324,0.013523,0.002678,0.000431,0.008932
13740000,0.0324,0.013523,0.002678,0.000431,0.006347
13741000,0.0324,0.013523,0.002678,0.000431,0.006699
13742000,0.0324,0.013523,0.002678,0.000431,0.007169
13743000,0.0324,0.013523,0.002678,0.000431,0.006699
13744000,0.0324,0.013523,0.002678,0.000431,0.006699
13745000,0.0324,0.013523,0.002678,0.000431,0.006817
13746000,0.0324,0.013523,0.002678,0.000431,0.007404
13747000,0.0324,0.013523,0.002678,0.000431,0.004819
13748000,0.0324,0.013523,0.002678,0.000431,0.005289
13749000,0.0324,0.013523,0.002678,0.000431,0.007169
13750000,0.0324,0.013523,0.002678,0.000431,0.003878
13751000,0.0324,0.013523,0.002678,0.000431,0.004349
13752000,0.0324,0.013523,0.002678,0.000431,0.004466
13753000,0.0324,0.013523,0.002678,0.000431,0.003408
13754000,0.0324,0.013523,0.002678,0.000431,0.003526
13755000,0.0324,0.013523,0.002678,0.000431,0.003173
13756000,0.0324,0.013523,0.002678,0.000431,0.003643
13757000,0.0324,0.013523,0.002678,0.000431,0.003291
13758000,0.0324,0.013523,0.002678,0.000431,0.003408
13759000,0.0324,0.013523,0.002678,0.000431,0.003643
13760000,0.0324,0.013523,0.002678,0.000431,0.003291
13761000,0.0324,0.013523,0.002678,0.000431,0.003291
13762000,0.0324,0.013523,0.002678,0.000431,0.003408
13763000,0.0324,0.013523,0.002678,0.000431,0.003526
13764000,0.0324,0.013523,0.002678,0.000431,0.003408
13765000,0.0324,0.013523,0.002678,0.000431,0.003291
13766000,0.0324,0.013523,0.002678,0.000431,0.003526
13767000,0.0324,0.013523,0.002678,0.000431,0.003291
13768000,0.0324,0.013523,0.002678,0.000431,0.003526
13769000,0.0324,0.013523,0.002678,0.000431,0.003526
13770000,0.0324,0.013523,0.002678,0.000431,0.003173
13771000,0.0324,0.013523,0.002678,0.000431,0.003408
13772000,0.0324,0.013523,0.002678,0.000431,0.003291
13773000,0.0324,0.013523,0.002678,0.000431,0.003761
13774000,0.0324,0.013523,0.002678,0.000431,0.003056
13775000,0.0324,0.013523,0.002678,0.000431,0.003526
13776000,0.0324,0.013523,0.002678,0.000431,0.003526
13777000,0.0324,0.013523,0.002678,0.000431,0.003408
13778000,0.0324,0.013523,0.002678,0.000431,0.003173
13779000,0.0324,0.013523,0.002678,0.000431,0.003408
13780000,0.0324,0.013523,0.002678,0.000431,0.003643
13781000,0.0324,0.013523,0.002678,0.000431,0.003291
13782000,0.0324,0.013523,0.002678,0.000431,0.003408
13783000,0.0324,0.013523,0.002678,0.000431,0.003408
13784000,0.0324,0.013523,0.002678,0.000431,0.003408
13785000,0.0324,0.013523,0.002678,0.000431,0.003408
13786000,0.0324,0.013523,0.002678,0.000431,0.003291
13787000,0.0324,0.013523,0.002678,0.000431,0.003526
13788000,0.0324,0.013523,0.002678,0.000431,0.003643
13789000,0.0324,0.013523,0.002678,0.000431,0.003056
13790000,0.0324,0.013523,0.002678,0.000431,0.003408
13791000,0.0324,0.013523,0.002678,0.000431,0.003643
13792000,0.0324,0.013523,0.002678,0.000431,0.003643
13793000,0.0324,0.013523,0.002678,0.000431,0.003878
13794000,0.0324,0.013523,0.002678,0.000431,0.002586
13795000,0.0324,0.013523,0.002678,0.000431,0.002821
13796000,0.0324,0.013523,0.002678,0.000431,0.002586
13797000,0.0324,0.013523,0.002678,0.000431,0.002116
13798000,0.0324,0.013523,0.002678,0.000431,0.002821
13799000,0.0324,0.013523,0.002678,0.000431,0.002586
13800000,0.0324,0.013523,0.002678,0.000431,0.002468
13801000,0.0324,0.013523,0.002678,0.000431,0.002233
13802000,0.0324,0.013523,0.002678,0.000431,0.002821
13803000,0.0324,0.013523,0.002678,0.000431,0.002468
13804000,0.0324,0.013523,0.002678,0.000431,0.002351
13805000,0.0324,0.013523,0.002678,0.000431,0.002703
13806000,0.0324,0.013523,0.002678,0.000431,0.002586
13807000,0.0324,0.013523,0.002678,0.000431,0.002468
13808000,0.0324,0.013523,0.002678,0.000431,0.002351
13809000,0.0324,0.013523,0.002678,0.000431,0.002703
13810000,0.0324,0.013523,0.002678,0.000431,0.002586
13811000,0.0324,0.013523,0.002678,0.000431,0.003643
13812000,0.0324,0.013523,0.002678,0.000431,0.000823
13813000,0.0324,0.013523,0.002678,0.000431,0.000940
13814000,0.0324,0.013523,0.002678,0.000431,0.000940
13815000,0.0324,0.013523,0.002678,0.000431,0.000823
13816000,0.0324,0.013523,0.002678,0.000431,0.000823
13817000,0.0324,0.013523,0.002678,0.000431,0.000940
13818000,0.0324,0.013523,0.002678,0.000431,0.000940
13819000,0.0324,0.013523,0.002678,0.000431,0.000823
13820000,0.0324,0.013523,0.002678,0.000431,0.000823
13821000,0.0324,0.013523,0.002678,0.000431,0.000940
13822000,0.0324,0.013523,0.002678,0.000431,0.000823
13823000,0.0324,0.013523,0.002678,0.000431,0.000940
13824000,0.0324,0.013523,0.002678,0.000431,0.000823
13825000,0.0324,0.013523,0.002678,0.000431,0.000940
13826000,0.0324,0.013523,0.002678,0.000431,0.000823
13827000,0.0324,0.013523,0.002678,0.000431,0.000823
13828000,0.0324,0.013523,0.002678,0.000431,0.000940
13829000,0.0324,0.013523,0.002678,0.000431,0.000940
13830000,0.0324,0.013523,0.002678,0.000431,0.000823
13831000,0.0324,0.013523,0.002678,0.000431,0.000823
13832000,0.0324,0.013523,0.002678,0.000431,0.000940
13833000,0.0324,0.013523,0.002678,0.000431,0.000940
13834000,0.0324,0.013523,0.002678,0.000431,0.000705
13835000,0.0324,0.013523,0.002678,0.000431,0.000940
13836000,0.0324,0.013523,0.002678,0.000431,0.000940
13837000,0.0324,0.013523,0.002678,0.000431,0.000940
13838000,0.0324,0.013523,0.002678,0.000431,0.000705
13839000,0.0324,0.013523,0.002678,0.000431,0.000940
13840000,0.0324,0.013523,0.002678,0.000431,0.000940
13841000,0.0324,0.013523,0.002678,0.000431,0.000823
13842000,0.0324,0.013523,0.002678,0.000431,0.000940
13843000,0.0324,0.013523,0.002678,0.000431,0.000823
13844000,0.0324,0.013523,0.002678,0.000431,0.188750
13845000,0.0324,0.013523,0.002678,0.000431,0.424277
13846000,0.0324,0.013523,0.002678,0.000431,0.509602
13847000,0.0324,0.013523,0.002678,0.000431,0.134452
13848000,0.0324,0.013523,0.002678,0.000431,0.132102
13849000,0.0324,0.013523,0.002678,0.000431,0.569189
13850000,0.0324,0.013523,0.002678,0.000431,0.259620
13851000,0.0324,0.013523,0.002678,0.000431,0.244341
13852000,0.0324,0.013523,0.002678,0.000431,0.277131
13853000,0.0324,0.013523,0.002678,0.000431,0.138918
13854000,0.0324,0.013523,0.002678,0.000431,0.147028
13855000,0.0324,0.013523,0.002678,0.000431,0.128458
13856000,0.0324,0.013523,0.002678,0.000431,0.281833
13857000,0.0324,0.013523,0.002678,0.000431,0.317796
13858000,0.0324,0.013523,0.002678,0.000431,0.041487
13859000,0.0324,0.013523,0.002678,0.000431,0.034906
13860000,0.0324,0.013523,0.002678,0.000431,0.027972
13861000,0.0324,0.013523,0.002678,0.000431,0.022565
13862000,0.0324,0.013523,0.002678,0.000431,0.015866
13863000,0.0324,0.013523,0.002678,0.000431,0.017394
13864000,0.0324,0.013523,0.002678,0.000431,0.016571
13865000,0.0324,0.013523,0.002678,0.000431,0.016336
13866000,0.0324,0.013523,0.002678,0.000431,0.010930
13867000,0.0324,0.013523,0.002678,0.000431,0.012105
13868000,0.0324,0.013523,0.002678,0.000431,0.010225
13869000,0.0324,0.013523,0.002678,0.000431,0.010107
13870000,0.0324,0.013523,0.002678,0.000431,0.009872
13871000,0.0324,0.013523,0.002678,0.000431,0.012576
13872000,0.0324,0.013523,0.002678,0.000431,0.008697
13873000,0.0324,0.013523,0.002678,0.000431,0.010107
13874000,0.0324,0.013523,0.002678,0.000431,0.010107
13875000,0.0324,0.013523,0.002678,0.000431,0.008697
13876000,0.0324,0.013523,0.002678,0.000431,0.008462
13877000,0.0324,0.013523,0.002678,0.000431,0.007992
13878000,0.0324,0.013523,0.002678,0.000431,0.008932
13879000,0.0324,0.013523,0.002678,0.000431,0.007992
13880000,0.0324,0.013523,0.002678,0.000431,0.008345
13881000,0.0324,0.013523,0.002678,0.000431,0.008815
13882000,0.0324,0.013523,0.002678,0.000431,0.008462
13883000,0.0324,0.013523,0.002678,0.000431,0.008580
13884000,0.0324,0.013523,0.002678,0.000431,0.008462
13885000,0.0324,0.013523,0.002678,0.000431,0.011518
13886000,0.0324,0.013523,0.002678,0.000431,0.007404
13887000,0.0324,0.013523,0.002678,0.000431,0.008345
13888000,0.0324,0.013523,0.002678,0.000431,0.006582
13889000,0.0324,0.013523,0.002678,0.000431,0.005406
13890000,0.0324,0.013523,0.002678,0.000431,0.004113
13891000,0.0324,0.013523,0.002678,0.000431,0.003996
13892000,0.0324,0.013523,0.002678,0.000431,0.004231
13893000,0.0324,0.013523,0.002678,0.000431,0.004349
13894000,0.0324,0.013523,0.002678,0.000431,0.003996
13895000,0.0324,0.013523,0.002678,0.000431,0.004113
13896000,0.0324,0.013523,0.002678,0.000431,0.004701
13897000,0.0324,0.013523,0.002678,0.000431,0.002233
13898000,0.0324,0.013523,0.002678,0.000431,0.002468
13899000,0.0324,0.013523,0.002678,0.000431,0.003878
13900000,0.0324,0.013523,0.002678,0.000431,0.001880
13901000,0.0324,0.013523,0.002678,0.000431,0.001410
13902000,0.0324,0.013523,0.002678,0.000431,0.001645
13903000,0.0324,0.013523,0.002678,0.000431,0.001880
13904000,0.0324,0.013523,0.002678,0.000431,0.001645
13905000,0.0324,0.013523,0.002678,0.000431,0.001410
13906000,0.0324,0.013523,0.002678,0.000431,0.001763
13907000,0.0324,0.013523,0.002678,0.000431,0.001763
13908000,0.0324,0.013523,0.002678,0.000431,0.001645
13909000,0.0324,0.013523,0.002678,0.000431,0.001410
13910000,0.0324,0.013523,0.002678,0.000431,0.001880
13911000,0.0324,0.013523,0.002678,0.000431,0.001645
13912000,0.0324,0.013523,0.002678,0.000431,0.001645
13913000,0.0324,0.013523,0.002678,0.000431,0.001645
13914000,0.0324,0.013523,0.002678,0.000431,0.001645
13915000,0.0324,0.013523,0.002678,0.000431,0.035846
13916000,0.0324,0.013523,0.002678,0.000431,0.476224
13917000,0.0324,0.013523,0.002678,0.000431,0.593752
13918000,0.0324,0.013523,0.002678,0.000431,0.130221
13919000,0.0324,0.013523,0.002678,0.000431,0.134922
13920000,0.0324,0.013523,0.002678,0.000431,0.508074
13921000,0.0324,0.013523,0.002678,0.000431,0.248572
13922000,0.0324,0.013523,0.002678,0.000431,0.235291
13923000,0.0324,0.013523,0.002678,0.000431,0.319559
13924000,0.0324,0.013523,0.002678,0.000431,0.176645
13925000,0.0324,0.013523,0.002678,0.000431,0.144795
13926000,0.0324,0.013523,0.002678,0.000431,0.146088
13927000,0.0324,0.013523,0.002678,0.000431,0.225302
13928000,0.0324,0.013523,0.002678,0.000431,0.393484
13929000,0.0324,0.013523,0.002678,0.000431,0.072280
13930000,0.0324,0.013523,0.002678,0.000431,0.061585
13931000,0.0324,0.013523,0.002678,0.000431,0.050420
13932000,0.0324,0.013523,0.002678,0.000431,0.037844
13933000,0.0324,0.013523,0.002678,0.000431,0.029029
13934000,0.0324,0.013523,0.002678,0.000431,0.028324
13935000,0.0324,0.013523,0.002678,0.000431,0.023741
13936000,0.0324,0.013523,0.002678,0.000431,0.021978
13937000,0.0324,0.013523,0.002678,0.000431,0.018452
13938000,0.0324,0.013523,0.002678,0.000431,0.017394
13939000,0.0324,0.013523,0.002678,0.000431,0.018099
13940000,0.0324,0.013523,0.002678,0.000431,0.014926
13941000,0.0324,0.013523,0.002678,0.000431,0.014809
13942000,0.0324,0.013523,0.002678,0.000431,0.009167
13943000,0.0324,0.013523,0.002678,0.000431,0.003878
13944000,0.0324,0.013523,0.002678,0.000431,0.004231
13945000,0.0324,0.013523,0.002678,0.000431,0.005524
13946000,0.0324,0.013523,0.002678,0.000431,0.004701
13947000,0.0324,0.013523,0.002678,0.000431,0.003291
13948000,0.0324,0.013523,0.002678,0.000431,0.004584
13949000,0.0324,0.013523,0.002678,0.000431,0.003643
13950000,0.0324,0.013523,0.002678,0.000431,0.003761
13951000,0.0324,0.013523,0.002678,0.000431,0.001763
13952000,0.0324,0.013523,0.002678,0.000431,0.001528
13953000,0.0324,0.013523,0.002678,0.000431,0.001645
13954000,0.0324,0.013523,0.002678,0.000431,0.001410
13955000,0.0324,0.013523,0.002678,0.000431,0.001645
13956000,0.0324,0.013523,0.002678,0.000431,0.001880
13957000,0.0324,0.013523,0.002678,0.000431,0.001410
13958000,0.0324,0.013523,0.002678,0.000431,0.001645
13959000,0.0324,0.013523,0.002678,0.000431,0.001528
13960000,0.0324,0.013523,0.002678,0.000431,0.001528
13961000,0.0324,0.013523,0.002678,0.000431,0.001880
13962000,0.0324,0.013523,0.002678,0.000431,0.001528
13963000,0.0324,0.013523,0.002678,0.000431,0.001763
13964000,0.0324,0.013523,0.002678,0.000431,0.001410
13965000,0.0324,0.013523,0.002678,0.000431,0.001645
13966000,0.0324,0.013523,0.002678,0.000431,0.001645
13967000,0.0324,0.013523,0.002678,0.000431,0.001645
13968000,0.0324,0.013523,0.002678,0.000431,0.001645
13969000,0.0324,0.013523,0.002678,0.000431,0.001645
13970000,0.0324,0.013523,0.002678,0.000431,0.001293
13971000,0.0324,0.013523,0.002678,0.000431,0.001763
13972000,0.0324,0.013523,0.002678,0.000431,0.001763
13973000,0.0324,0.013523,0.002678,0.000431,0.001528
13974000,0.0324,0.013523,0.002678,0.000431,0.001645
13975000,0.0324,0.013523,0.002678,0.000431,0.001645
13976000,0.0324,0.013523,0.002678,0.000431,0.001410
13977000,0.0324,0.013523,0.002678,0.000431,0.001880
13978000,0.0324,0.013523,0.002678,0.000431,0.001410
13979000,0.0324,0.013523,0.002678,0.000431,0.001880
13980000,0.0324,0.013523,0.002678,0.000431,0.001293
13981000,0.0324,0.013523,0.002678,0.000431,0.001763
13982000,0.0324,0.013523,0.002678,0.000431,0.001645
13983000,0.0324,0.013523,0.002678,0.000431,0.001528
13984000,0.0324,0.013523,0.002678,0.000431,0.001763
13985000,0.0324,0.013523,0.002678,0.000431,0.001645
13986000,0.0324,0.013523,0.002678,0.000431,0.001410
13987000,0.0324,0.013523,0.002678,0.000431,0.001645
13988000,0.0324,0.013523,0.002678,0.000431,0.001645
13989000,0.0324,0.013523,0.002678,0.000431,0.001645
13990000,0.0324,0.013523,0.002678,0.000431,0.001645
13991000,0.0324,0.013523,0.002678,0.000431,0.001410
13992000,0.0324,0.013523,0.002678,0.000431,0.001645
13993000,0.0324,0.013523,0.002678,0.000431,0.001763
13994000,0.0324,0.013523,0.002678,0.000431,0.001528
13995000,0.0324,0.013523,0.002678,0.000431,0.001645
13996000,0.0324,0.013523,0.002678,0.000431,0.001645
13997000,0.0324,0.013523,0.002678,0.000431,0.001410
13998000,0.0324,0.013523,0.002678,0.000431,0.001880
13999000,0.0324,0.013523,0.002678,0.000431,0.001410
