Cycle,Area(mm^2),PeakDynamic(W),SubthresholdLeakage(W),GateLeakage(W),RunTimeDynamic(W)
27000000,0.0324,0.013523,0.002678,0.000431,0.000940
27001000,0.0324,0.013523,0.002678,0.000431,0.000705
27002000,0.0324,0.013523,0.002678,0.000431,0.000940
27003000,0.0324,0.013523,0.002678,0.000431,0.000705
27004000,0.0324,0.013523,0.002678,0.000431,0.000940
27005000,0.0324,0.013523,0.002678,0.000431,0.000823
27006000,0.0324,0.013523,0.002678,0.000431,0.000823
27007000,0.0324,0.013523,0.002678,0.000431,0.000940
27008000,0.0324,0.013523,0.002678,0.000431,0.000705
27009000,0.0324,0.013523,0.002678,0.000431,0.000940
27010000,0.0324,0.013523,0.002678,0.000431,0.000823
27011000,0.0324,0.013523,0.002678,0.000431,0.000823
27012000,0.0324,0.013523,0.002678,0.000431,0.000823
27013000,0.0324,0.013523,0.002678,0.000431,0.000823
27014000,0.0324,0.013523,0.002678,0.000431,0.000823
27015000,0.0324,0.013523,0.002678,0.000431,0.000823
27016000,0.0324,0.013523,0.002678,0.000431,0.000940
27017000,0.0324,0.013523,0.002678,0.000431,0.000705
27018000,0.0324,0.013523,0.002678,0.000431,0.000940
27019000,0.0324,0.013523,0.002678,0.000431,0.000823
27020000,0.0324,0.013523,0.002678,0.000431,0.000823
27021000,0.0324,0.013523,0.002678,0.000431,0.000823
27022000,0.0324,0.013523,0.002678,0.000431,0.000823
27023000,0.0324,0.013523,0.002678,0.000431,0.000940
27024000,0.0324,0.013523,0.002678,0.000431,0.000705
27025000,0.0324,0.013523,0.002678,0.000431,0.000940
27026000,0.0324,0.013523,0.002678,0.000431,0.000705
27027000,0.0324,0.013523,0.002678,0.000431,0.000940
27028000,0.0324,0.013523,0.002678,0.000431,0.000940
27029000,0.0324,0.013523,0.002678,0.000431,0.000705
27030000,0.0324,0.013523,0.002678,0.000431,0.000940
27031000,0.0324,0.013523,0.002678,0.000431,0.000705
27032000,0.0324,0.013523,0.002678,0.000431,0.000940
27033000,0.0324,0.013523,0.002678,0.000431,0.000823
27034000,0.0324,0.013523,0.002678,0.000431,0.000823
27035000,0.0324,0.013523,0.002678,0.000431,0.000940
27036000,0.0324,0.013523,0.002678,0.000431,0.000705
27037000,0.0324,0.013523,0.002678,0.000431,0.000940
27038000,0.0324,0.013523,0.002678,0.000431,0.000823
27039000,0.0324,0.013523,0.002678,0.000431,0.000823
27040000,0.0324,0.013523,0.002678,0.000431,0.000823
27041000,0.0324,0.013523,0.002678,0.000431,0.000823
27042000,0.0324,0.013523,0.002678,0.000431,0.000823
27043000,0.0324,0.013523,0.002678,0.000431,0.000823
27044000,0.0324,0.013523,0.002678,0.000431,0.000940
27045000,0.0324,0.013523,0.002678,0.000431,0.000823
27046000,0.0324,0.013523,0.002678,0.000431,0.000823
27047000,0.0324,0.013523,0.002678,0.000431,0.000823
27048000,0.0324,0.013523,0.002678,0.000431,0.000823
27049000,0.0324,0.013523,0.002678,0.000431,0.000823
27050000,0.0324,0.013523,0.002678,0.000431,0.000823
27051000,0.0324,0.013523,0.002678,0.000431,0.000823
27052000,0.0324,0.013523,0.002678,0.000431,0.000823
27053000,0.0324,0.013523,0.002678,0.000431,0.000940
27054000,0.0324,0.013523,0.002678,0.000431,0.000823
27055000,0.0324,0.013523,0.002678,0.000431,0.000823
27056000,0.0324,0.013523,0.002678,0.000431,0.000705
27057000,0.0324,0.013523,0.002678,0.000431,0.000940
27058000,0.0324,0.013523,0.002678,0.000431,0.000940
27059000,0.0324,0.013523,0.002678,0.000431,0.000705
27060000,0.0324,0.013523,0.002678,0.000431,0.000940
27061000,0.0324,0.013523,0.002678,0.000431,0.000705
27062000,0.0324,0.013523,0.002678,0.000431,0.000940
27063000,0.0324,0.013523,0.002678,0.000431,0.000823
27064000,0.0324,0.013523,0.002678,0.000431,0.000823
27065000,0.0324,0.013523,0.002678,0.000431,0.000940
27066000,0.0324,0.013523,0.002678,0.000431,0.000705
27067000,0.0324,0.013523,0.002678,0.000431,0.000940
27068000,0.0324,0.013523,0.002678,0.000431,0.000823
27069000,0.0324,0.013523,0.002678,0.000431,0.000823
27070000,0.0324,0.013523,0.002678,0.000431,0.000823
27071000,0.0324,0.013523,0.002678,0.000431,0.000823
27072000,0.0324,0.013523,0.002678,0.000431,0.000823
27073000,0.0324,0.013523,0.002678,0.000431,0.000823
27074000,0.0324,0.013523,0.002678,0.000431,0.000940
27075000,0.0324,0.013523,0.002678,0.000431,0.000823
27076000,0.0324,0.013523,0.002678,0.000431,0.000823
27077000,0.0324,0.013523,0.002678,0.000431,0.000823
27078000,0.0324,0.013523,0.002678,0.000431,0.000823
27079000,0.0324,0.013523,0.002678,0.000431,0.000823
27080000,0.0324,0.013523,0.002678,0.000431,0.000823
27081000,0.0324,0.013523,0.002678,0.000431,0.000940
27082000,0.0324,0.013523,0.002678,0.000431,0.000705
27083000,0.0324,0.013523,0.002678,0.000431,0.000940
27084000,0.0324,0.013523,0.002678,0.000431,0.000705
27085000,0.0324,0.013523,0.002678,0.000431,0.000940
27086000,0.0324,0.013523,0.002678,0.000431,0.000940
27087000,0.0324,0.013523,0.002678,0.000431,0.000705
27088000,0.0324,0.013523,0.002678,0.000431,0.000940
27089000,0.0324,0.013523,0.002678,0.000431,0.000705
27090000,0.0324,0.013523,0.002678,0.000431,0.000940
27091000,0.0324,0.013523,0.002678,0.000431,0.000823
27092000,0.0324,0.013523,0.002678,0.000431,0.000823
27093000,0.0324,0.013523,0.002678,0.000431,0.000940
27094000,0.0324,0.013523,0.002678,0.000431,0.000705
27095000,0.0324,0.013523,0.002678,0.000431,0.000940
27096000,0.0324,0.013523,0.002678,0.000431,0.000823
27097000,0.0324,0.013523,0.002678,0.000431,0.000823
27098000,0.0324,0.013523,0.002678,0.000431,0.000823
27099000,0.0324,0.013523,0.002678,0.000431,0.000823
27100000,0.0324,0.013523,0.002678,0.000431,0.000940
27101000,0.0324,0.013523,0.002678,0.000431,0.000705
27102000,0.0324,0.013523,0.002678,0.000431,0.000940
27103000,0.0324,0.013523,0.002678,0.000431,0.000823
27104000,0.0324,0.013523,0.002678,0.000431,0.000823
27105000,0.0324,0.013523,0.002678,0.000431,0.000823
27106000,0.0324,0.013523,0.002678,0.000431,0.000823
27107000,0.0324,0.013523,0.002678,0.000431,0.000823
27108000,0.0324,0.013523,0.002678,0.000431,0.000823
27109000,0.0324,0.013523,0.002678,0.000431,0.000823
27110000,0.0324,0.013523,0.002678,0.000431,0.000823
27111000,0.0324,0.013523,0.002678,0.000431,0.000940
27112000,0.0324,0.013523,0.002678,0.000431,0.000823
27113000,0.0324,0.013523,0.002678,0.000431,0.000823
27114000,0.0324,0.013523,0.002678,0.000431,0.000705
27115000,0.0324,0.013523,0.002678,0.000431,0.000940
27116000,0.0324,0.013523,0.002678,0.000431,0.000940
27117000,0.0324,0.013523,0.002678,0.000431,0.000705
27118000,0.0324,0.013523,0.002678,0.000431,0.000940
27119000,0.0324,0.013523,0.002678,0.000431,0.000705
27120000,0.0324,0.013523,0.002678,0.000431,0.000940
27121000,0.0324,0.013523,0.002678,0.000431,0.000823
27122000,0.0324,0.013523,0.002678,0.000431,0.000823
27123000,0.0324,0.013523,0.002678,0.000431,0.000940
27124000,0.0324,0.013523,0.002678,0.000431,0.000705
27125000,0.0324,0.013523,0.002678,0.000431,0.000940
27126000,0.0324,0.013523,0.002678,0.000431,0.000823
27127000,0.0324,0.013523,0.002678,0.000431,0.000823
27128000,0.0324,0.013523,0.002678,0.000431,0.000823
27129000,0.0324,0.013523,0.002678,0.000431,0.000823
27130000,0.0324,0.013523,0.002678,0.000431,0.000940
27131000,0.0324,0.013523,0.002678,0.000431,0.000705
27132000,0.0324,0.013523,0.002678,0.000431,0.000940
27133000,0.0324,0.013523,0.002678,0.000431,0.000823
27134000,0.0324,0.013523,0.002678,0.000431,0.000823
27135000,0.0324,0.013523,0.002678,0.000431,0.000823
27136000,0.0324,0.013523,0.002678,0.000431,0.000823
27137000,0.0324,0.013523,0.002678,0.000431,0.000940
27138000,0.0324,0.013523,0.002678,0.000431,0.000705
27139000,0.0324,0.013523,0.002678,0.000431,0.000940
27140000,0.0324,0.013523,0.002678,0.000431,0.000823
27141000,0.0324,0.013523,0.002678,0.000431,0.000823
27142000,0.0324,0.013523,0.002678,0.000431,0.000705
27143000,0.0324,0.013523,0.002678,0.000431,0.000940
27144000,0.0324,0.013523,0.002678,0.000431,0.000940
27145000,0.0324,0.013523,0.002678,0.000431,0.000705
27146000,0.0324,0.013523,0.002678,0.000431,0.000940
27147000,0.0324,0.013523,0.002678,0.000431,0.000705
27148000,0.0324,0.013523,0.002678,0.000431,0.000940
27149000,0.0324,0.013523,0.002678,0.000431,0.000823
27150000,0.0324,0.013523,0.002678,0.000431,0.000823
27151000,0.0324,0.013523,0.002678,0.000431,0.000940
27152000,0.0324,0.013523,0.002678,0.000431,0.000705
27153000,0.0324,0.013523,0.002678,0.000431,0.000940
27154000,0.0324,0.013523,0.002678,0.000431,0.000823
27155000,0.0324,0.013523,0.002678,0.000431,0.000823
27156000,0.0324,0.013523,0.002678,0.000431,0.000823
27157000,0.0324,0.013523,0.002678,0.000431,0.000823
27158000,0.0324,0.013523,0.002678,0.000431,0.000940
27159000,0.0324,0.013523,0.002678,0.000431,0.000705
27160000,0.0324,0.013523,0.002678,0.000431,0.000940
27161000,0.0324,0.013523,0.002678,0.000431,0.000823
27162000,0.0324,0.013523,0.002678,0.000431,0.000823
27163000,0.0324,0.013523,0.002678,0.000431,0.000823
27164000,0.0324,0.013523,0.002678,0.000431,0.000823
27165000,0.0324,0.013523,0.002678,0.000431,0.000940
27166000,0.0324,0.013523,0.002678,0.000431,0.000705
27167000,0.0324,0.013523,0.002678,0.000431,0.000823
27168000,0.0324,0.013523,0.002678,0.000431,0.000940
27169000,0.0324,0.013523,0.002678,0.000431,0.000823
27170000,0.0324,0.013523,0.002678,0.000431,0.000823
27171000,0.0324,0.013523,0.002678,0.000431,0.000823
27172000,0.0324,0.013523,0.002678,0.000431,0.000823
27173000,0.0324,0.013523,0.002678,0.000431,0.000823
27174000,0.0324,0.013523,0.002678,0.000431,0.000940
27175000,0.0324,0.013523,0.002678,0.000431,0.000823
27176000,0.0324,0.013523,0.002678,0.000431,0.000823
27177000,0.0324,0.013523,0.002678,0.000431,0.000705
27178000,0.0324,0.013523,0.002678,0.000431,0.000940
27179000,0.0324,0.013523,0.002678,0.000431,0.000940
27180000,0.0324,0.013523,0.002678,0.000431,0.000705
27181000,0.0324,0.013523,0.002678,0.000431,0.000940
27182000,0.0324,0.013523,0.002678,0.000431,0.000705
27183000,0.0324,0.013523,0.002678,0.000431,0.000940
27184000,0.0324,0.013523,0.002678,0.000431,0.000823
27185000,0.0324,0.013523,0.002678,0.000431,0.000823
27186000,0.0324,0.013523,0.002678,0.000431,0.000940
27187000,0.0324,0.013523,0.002678,0.000431,0.000705
27188000,0.0324,0.013523,0.002678,0.000431,0.000940
27189000,0.0324,0.013523,0.002678,0.000431,0.000823
27190000,0.0324,0.013523,0.002678,0.000431,0.000823
27191000,0.0324,0.013523,0.002678,0.000431,0.000823
27192000,0.0324,0.013523,0.002678,0.000431,0.000823
27193000,0.0324,0.013523,0.002678,0.000431,0.000940
27194000,0.0324,0.013523,0.002678,0.000431,0.000705
27195000,0.0324,0.013523,0.002678,0.000431,0.000940
27196000,0.0324,0.013523,0.002678,0.000431,0.000823
27197000,0.0324,0.013523,0.002678,0.000431,0.000823
27198000,0.0324,0.013523,0.002678,0.000431,0.000823
27199000,0.0324,0.013523,0.002678,0.000431,0.000823
27200000,0.0324,0.013523,0.002678,0.000431,0.000823
27201000,0.0324,0.013523,0.002678,0.000431,0.000823
27202000,0.0324,0.013523,0.002678,0.000431,0.000940
27203000,0.0324,0.013523,0.002678,0.000431,0.000705
27204000,0.0324,0.013523,0.002678,0.000431,0.000940
27205000,0.0324,0.013523,0.002678,0.000431,0.000705
27206000,0.0324,0.013523,0.002678,0.000431,0.000940
27207000,0.0324,0.013523,0.002678,0.000431,0.000940
27208000,0.0324,0.013523,0.002678,0.000431,0.000705
27209000,0.0324,0.013523,0.002678,0.000431,0.000940
27210000,0.0324,0.013523,0.002678,0.000431,0.000705
27211000,0.0324,0.013523,0.002678,0.000431,0.000940
27212000,0.0324,0.013523,0.002678,0.000431,0.000823
27213000,0.0324,0.013523,0.002678,0.000431,0.000823
27214000,0.0324,0.013523,0.002678,0.000431,0.000940
27215000,0.0324,0.013523,0.002678,0.000431,0.000705
27216000,0.0324,0.013523,0.002678,0.000431,0.000940
27217000,0.0324,0.013523,0.002678,0.000431,0.000823
27218000,0.0324,0.013523,0.002678,0.000431,0.000823
27219000,0.0324,0.013523,0.002678,0.000431,0.000823
27220000,0.0324,0.013523,0.002678,0.000431,0.000823
27221000,0.0324,0.013523,0.002678,0.000431,0.000940
27222000,0.0324,0.013523,0.002678,0.000431,0.000705
27223000,0.0324,0.013523,0.002678,0.000431,0.000940
27224000,0.0324,0.013523,0.002678,0.000431,0.000823
27225000,0.0324,0.013523,0.002678,0.000431,0.000823
27226000,0.0324,0.013523,0.002678,0.000431,0.000823
27227000,0.0324,0.013523,0.002678,0.000431,0.000823
27228000,0.0324,0.013523,0.002678,0.000431,0.000823
27229000,0.0324,0.013523,0.002678,0.000431,0.000823
27230000,0.0324,0.013523,0.002678,0.000431,0.000823
27231000,0.0324,0.013523,0.002678,0.000431,0.000823
27232000,0.0324,0.013523,0.002678,0.000431,0.000940
27233000,0.0324,0.013523,0.002678,0.000431,0.000823
27234000,0.0324,0.013523,0.002678,0.000431,0.000823
27235000,0.0324,0.013523,0.002678,0.000431,0.000705
27236000,0.0324,0.013523,0.002678,0.000431,0.000940
27237000,0.0324,0.013523,0.002678,0.000431,0.000940
27238000,0.0324,0.013523,0.002678,0.000431,0.000705
27239000,0.0324,0.013523,0.002678,0.000431,0.000940
27240000,0.0324,0.013523,0.002678,0.000431,0.000705
27241000,0.0324,0.013523,0.002678,0.000431,0.000940
27242000,0.0324,0.013523,0.002678,0.000431,0.000823
27243000,0.0324,0.013523,0.002678,0.000431,0.000823
27244000,0.0324,0.013523,0.002678,0.000431,0.000940
27245000,0.0324,0.013523,0.002678,0.000431,0.000705
27246000,0.0324,0.013523,0.002678,0.000431,0.000940
27247000,0.0324,0.013523,0.002678,0.000431,0.000823
27248000,0.0324,0.013523,0.002678,0.000431,0.000823
27249000,0.0324,0.013523,0.002678,0.000431,0.000823
27250000,0.0324,0.013523,0.002678,0.000431,0.000823
27251000,0.0324,0.013523,0.002678,0.000431,0.000940
27252000,0.0324,0.013523,0.002678,0.000431,0.000705
27253000,0.0324,0.013523,0.002678,0.000431,0.000940
27254000,0.0324,0.013523,0.002678,0.000431,0.000705
27255000,0.0324,0.013523,0.002678,0.000431,0.000940
27256000,0.0324,0.013523,0.002678,0.000431,0.000823
27257000,0.0324,0.013523,0.002678,0.000431,0.000823
27258000,0.0324,0.013523,0.002678,0.000431,0.000823
27259000,0.0324,0.013523,0.002678,0.000431,0.000823
27260000,0.0324,0.013523,0.002678,0.000431,0.000705
27261000,0.0324,0.013523,0.002678,0.000431,0.000940
27262000,0.0324,0.013523,0.002678,0.000431,0.000940
27263000,0.0324,0.013523,0.002678,0.000431,0.000705
27264000,0.0324,0.013523,0.002678,0.000431,0.000940
27265000,0.0324,0.013523,0.002678,0.000431,0.000705
27266000,0.0324,0.013523,0.002678,0.000431,0.000940
27267000,0.0324,0.013523,0.002678,0.000431,0.000823
27268000,0.0324,0.013523,0.002678,0.000431,0.000823
27269000,0.0324,0.013523,0.002678,0.000431,0.000940
27270000,0.0324,0.013523,0.002678,0.000431,0.000705
27271000,0.0324,0.013523,0.002678,0.000431,0.000940
27272000,0.0324,0.013523,0.002678,0.000431,0.000823
27273000,0.0324,0.013523,0.002678,0.000431,0.000823
27274000,0.0324,0.013523,0.002678,0.000431,0.000823
27275000,0.0324,0.013523,0.002678,0.000431,0.000823
27276000,0.0324,0.013523,0.002678,0.000431,0.000940
27277000,0.0324,0.013523,0.002678,0.000431,0.000705
27278000,0.0324,0.013523,0.002678,0.000431,0.000940
27279000,0.0324,0.013523,0.002678,0.000431,0.000823
27280000,0.0324,0.013523,0.002678,0.000431,0.000823
27281000,0.0324,0.013523,0.002678,0.000431,0.000823
27282000,0.0324,0.013523,0.002678,0.000431,0.000823
27283000,0.0324,0.013523,0.002678,0.000431,0.000823
27284000,0.0324,0.013523,0.002678,0.000431,0.000823
27285000,0.0324,0.013523,0.002678,0.000431,0.000823
27286000,0.0324,0.013523,0.002678,0.000431,0.000940
27287000,0.0324,0.013523,0.002678,0.000431,0.000823
27288000,0.0324,0.013523,0.002678,0.000431,0.000823
27289000,0.0324,0.013523,0.002678,0.000431,0.000823
27290000,0.0324,0.013523,0.002678,0.000431,0.000705
27291000,0.0324,0.013523,0.002678,0.000431,0.000940
27292000,0.0324,0.013523,0.002678,0.000431,0.000940
27293000,0.0324,0.013523,0.002678,0.000431,0.000705
27294000,0.0324,0.013523,0.002678,0.000431,0.000940
27295000,0.0324,0.013523,0.002678,0.000431,0.000705
27296000,0.0324,0.013523,0.002678,0.000431,0.000940
27297000,0.0324,0.013523,0.002678,0.000431,0.000705
27298000,0.0324,0.013523,0.002678,0.000431,0.000940
27299000,0.0324,0.013523,0.002678,0.000431,0.000823
27300000,0.0324,0.013523,0.002678,0.000431,0.000823
27301000,0.0324,0.013523,0.002678,0.000431,0.000940
27302000,0.0324,0.013523,0.002678,0.000431,0.000705
27303000,0.0324,0.013523,0.002678,0.000431,0.000940
27304000,0.0324,0.013523,0.002678,0.000431,0.000705
27305000,0.0324,0.013523,0.002678,0.000431,0.000940
27306000,0.0324,0.013523,0.002678,0.000431,0.000823
27307000,0.0324,0.013523,0.002678,0.000431,0.000823
27308000,0.0324,0.013523,0.002678,0.000431,0.000705
27309000,0.0324,0.013523,0.002678,0.000431,0.000940
27310000,0.0324,0.013523,0.002678,0.000431,0.000940
27311000,0.0324,0.013523,0.002678,0.000431,0.000705
27312000,0.0324,0.013523,0.002678,0.000431,0.000940
27313000,0.0324,0.013523,0.002678,0.000431,0.000705
27314000,0.0324,0.013523,0.002678,0.000431,0.000940
27315000,0.0324,0.013523,0.002678,0.000431,0.000940
27316000,0.0324,0.013523,0.002678,0.000431,0.000705
27317000,0.0324,0.013523,0.002678,0.000431,0.000940
27318000,0.0324,0.013523,0.002678,0.000431,0.000705
27319000,0.0324,0.013523,0.002678,0.000431,0.000940
27320000,0.0324,0.013523,0.002678,0.000431,0.000823
27321000,0.0324,0.013523,0.002678,0.000431,0.000823
27322000,0.0324,0.013523,0.002678,0.000431,0.000940
27323000,0.0324,0.013523,0.002678,0.000431,0.000705
27324000,0.0324,0.013523,0.002678,0.000431,0.000940
27325000,0.0324,0.013523,0.002678,0.000431,0.000823
27326000,0.0324,0.013523,0.002678,0.000431,0.000823
27327000,0.0324,0.013523,0.002678,0.000431,0.000823
27328000,0.0324,0.013523,0.002678,0.000431,0.000823
27329000,0.0324,0.013523,0.002678,0.000431,0.000823
27330000,0.0324,0.013523,0.002678,0.000431,0.000823
27331000,0.0324,0.013523,0.002678,0.000431,0.000940
27332000,0.0324,0.013523,0.002678,0.000431,0.000705
27333000,0.0324,0.013523,0.002678,0.000431,0.000823
27334000,0.0324,0.013523,0.002678,0.000431,0.000940
27335000,0.0324,0.013523,0.002678,0.000431,0.000823
27336000,0.0324,0.013523,0.002678,0.000431,0.000823
27337000,0.0324,0.013523,0.002678,0.000431,0.072750
27338000,0.0324,0.013523,0.002678,0.000431,0.489857
27339000,0.0324,0.013523,0.002678,0.000431,0.537691
27340000,0.0324,0.013523,0.002678,0.000431,0.133512
27341000,0.0324,0.013523,0.002678,0.000431,0.131161
27342000,0.0324,0.013523,0.002678,0.000431,0.576946
27343000,0.0324,0.013523,0.002678,0.000431,0.247397
27344000,0.0324,0.013523,0.002678,0.000431,0.259385
27345000,0.0324,0.013523,0.002678,0.000431,0.334955
27346000,0.0324,0.013523,0.002678,0.000431,0.135510
27347000,0.0324,0.013523,0.002678,0.000431,0.145030
27348000,0.0324,0.013523,0.002678,0.000431,0.105188
27349000,0.0324,0.013523,0.002678,0.000431,0.386903
27350000,0.0324,0.013523,0.002678,0.000431,0.214136
27351000,0.0324,0.013523,0.002678,0.000431,0.041958
27352000,0.0324,0.013523,0.002678,0.000431,0.034671
27353000,0.0324,0.013523,0.002678,0.000431,0.029029
27354000,0.0324,0.013523,0.002678,0.000431,0.020332
27355000,0.0324,0.013523,0.002678,0.000431,0.023976
27356000,0.0324,0.013523,0.002678,0.000431,0.015984
27357000,0.0324,0.013523,0.002678,0.000431,0.015984
27358000,0.0324,0.013523,0.002678,0.000431,0.011400
27359000,0.0324,0.013523,0.002678,0.000431,0.013046
27360000,0.0324,0.013523,0.002678,0.000431,0.010107
27361000,0.0324,0.013523,0.002678,0.000431,0.010107
27362000,0.0324,0.013523,0.002678,0.000431,0.012928
27363000,0.0324,0.013523,0.002678,0.000431,0.009167
27364000,0.0324,0.013523,0.002678,0.000431,0.010460
27365000,0.0324,0.013523,0.002678,0.000431,0.011518
27366000,0.0324,0.013523,0.002678,0.000431,0.005641
27367000,0.0324,0.013523,0.002678,0.000431,0.005876
27368000,0.0324,0.013523,0.002678,0.000431,0.005876
27369000,0.0324,0.013523,0.002678,0.000431,0.006347
27370000,0.0324,0.013523,0.002678,0.000431,0.007757
27371000,0.0324,0.013523,0.002678,0.000431,0.004936
27372000,0.0324,0.013523,0.002678,0.000431,0.004936
27373000,0.0324,0.013523,0.002678,0.000431,0.004349
27374000,0.0324,0.013523,0.002678,0.000431,0.002586
27375000,0.0324,0.013523,0.002678,0.000431,0.002116
27376000,0.0324,0.013523,0.002678,0.000431,0.002586
27377000,0.0324,0.013523,0.002678,0.000431,0.003643
27378000,0.0324,0.013523,0.002678,0.000431,0.001645
27379000,0.0324,0.013523,0.002678,0.000431,0.001410
27380000,0.0324,0.013523,0.002678,0.000431,0.001645
27381000,0.0324,0.013523,0.002678,0.000431,0.001175
27382000,0.0324,0.013523,0.002678,0.000431,0.001880
27383000,0.0324,0.013523,0.002678,0.000431,0.001175
27384000,0.0324,0.013523,0.002678,0.000431,0.001645
27385000,0.0324,0.013523,0.002678,0.000431,0.001410
27386000,0.0324,0.013523,0.002678,0.000431,0.001410
27387000,0.0324,0.013523,0.002678,0.000431,0.001410
27388000,0.0324,0.013523,0.002678,0.000431,0.001645
27389000,0.0324,0.013523,0.002678,0.000431,0.001293
27390000,0.0324,0.013523,0.002678,0.000431,0.001763
27391000,0.0324,0.013523,0.002678,0.000431,0.001293
27392000,0.0324,0.013523,0.002678,0.000431,0.001528
27393000,0.0324,0.013523,0.002678,0.000431,0.001645
27394000,0.0324,0.013523,0.002678,0.000431,0.001410
27395000,0.0324,0.013523,0.002678,0.000431,0.001175
27396000,0.0324,0.013523,0.002678,0.000431,0.001880
27397000,0.0324,0.013523,0.002678,0.000431,0.001175
27398000,0.0324,0.013523,0.002678,0.000431,0.001645
27399000,0.0324,0.013523,0.002678,0.000431,0.001410
27400000,0.0324,0.013523,0.002678,0.000431,0.001645
27401000,0.0324,0.013523,0.002678,0.000431,0.001175
27402000,0.0324,0.013523,0.002678,0.000431,0.001880
27403000,0.0324,0.013523,0.002678,0.000431,0.001175
27404000,0.0324,0.013523,0.002678,0.000431,0.001645
27405000,0.0324,0.013523,0.002678,0.000431,0.001528
27406000,0.0324,0.013523,0.002678,0.000431,0.001293
27407000,0.0324,0.013523,0.002678,0.000431,0.001410
27408000,0.0324,0.013523,0.002678,0.000431,0.001645
27409000,0.0324,0.013523,0.002678,0.000431,0.001293
27410000,0.0324,0.013523,0.002678,0.000431,0.001763
27411000,0.0324,0.013523,0.002678,0.000431,0.001293
27412000,0.0324,0.013523,0.002678,0.000431,0.001528
27413000,0.0324,0.013523,0.002678,0.000431,0.001645
27414000,0.0324,0.013523,0.002678,0.000431,0.001410
27415000,0.0324,0.013523,0.002678,0.000431,0.001175
27416000,0.0324,0.013523,0.002678,0.000431,0.001880
27417000,0.0324,0.013523,0.002678,0.000431,0.001175
27418000,0.0324,0.013523,0.002678,0.000431,0.001645
27419000,0.0324,0.013523,0.002678,0.000431,0.001410
27420000,0.0324,0.013523,0.002678,0.000431,0.001645
27421000,0.0324,0.013523,0.002678,0.000431,0.001175
27422000,0.0324,0.013523,0.002678,0.000431,0.001880
27423000,0.0324,0.013523,0.002678,0.000431,0.001175
27424000,0.0324,0.013523,0.002678,0.000431,0.001645
27425000,0.0324,0.013523,0.002678,0.000431,0.001528
27426000,0.0324,0.013523,0.002678,0.000431,0.001293
27427000,0.0324,0.013523,0.002678,0.000431,0.001645
27428000,0.0324,0.013523,0.002678,0.000431,0.001410
27429000,0.0324,0.013523,0.002678,0.000431,0.001293
27430000,0.0324,0.013523,0.002678,0.000431,0.001763
27431000,0.0324,0.013523,0.002678,0.000431,0.001293
27432000,0.0324,0.013523,0.002678,0.000431,0.001528
27433000,0.0324,0.013523,0.002678,0.000431,0.001410
27434000,0.0324,0.013523,0.002678,0.000431,0.001645
27435000,0.0324,0.013523,0.002678,0.000431,0.001175
27436000,0.0324,0.013523,0.002678,0.000431,0.001880
27437000,0.0324,0.013523,0.002678,0.000431,0.001175
27438000,0.0324,0.013523,0.002678,0.000431,0.001645
27439000,0.0324,0.013523,0.002678,0.000431,0.001645
27440000,0.0324,0.013523,0.002678,0.000431,0.001410
27441000,0.0324,0.013523,0.002678,0.000431,0.001175
27442000,0.0324,0.013523,0.002678,0.000431,0.001880
27443000,0.0324,0.013523,0.002678,0.000431,0.001175
27444000,0.0324,0.013523,0.002678,0.000431,0.001645
27445000,0.0324,0.013523,0.002678,0.000431,0.001410
27446000,0.0324,0.013523,0.002678,0.000431,0.001410
27447000,0.0324,0.013523,0.002678,0.000431,0.001410
27448000,0.0324,0.013523,0.002678,0.000431,0.001645
27449000,0.0324,0.013523,0.002678,0.000431,0.001293
27450000,0.0324,0.013523,0.002678,0.000431,0.001763
27451000,0.0324,0.013523,0.002678,0.000431,0.001293
27452000,0.0324,0.013523,0.002678,0.000431,0.001528
27453000,0.0324,0.013523,0.002678,0.000431,0.001410
27454000,0.0324,0.013523,0.002678,0.000431,0.001645
27455000,0.0324,0.013523,0.002678,0.000431,0.001175
27456000,0.0324,0.013523,0.002678,0.000431,0.001880
27457000,0.0324,0.013523,0.002678,0.000431,0.001175
27458000,0.0324,0.013523,0.002678,0.000431,0.001645
27459000,0.0324,0.013523,0.002678,0.000431,0.001645
27460000,0.0324,0.013523,0.002678,0.000431,0.001410
27461000,0.0324,0.013523,0.002678,0.000431,0.001175
27462000,0.0324,0.013523,0.002678,0.000431,0.001880
27463000,0.0324,0.013523,0.002678,0.000431,0.001175
27464000,0.0324,0.013523,0.002678,0.000431,0.001645
27465000,0.0324,0.013523,0.002678,0.000431,0.001410
27466000,0.0324,0.013523,0.002678,0.000431,0.001410
27467000,0.0324,0.013523,0.002678,0.000431,0.001410
27468000,0.0324,0.013523,0.002678,0.000431,0.001645
27469000,0.0324,0.013523,0.002678,0.000431,0.001293
27470000,0.0324,0.013523,0.002678,0.000431,0.001763
27471000,0.0324,0.013523,0.002678,0.000431,0.001293
27472000,0.0324,0.013523,0.002678,0.000431,0.001528
27473000,0.0324,0.013523,0.002678,0.000431,0.001645
27474000,0.0324,0.013523,0.002678,0.000431,0.001410
27475000,0.0324,0.013523,0.002678,0.000431,0.001175
27476000,0.0324,0.013523,0.002678,0.000431,0.001880
27477000,0.0324,0.013523,0.002678,0.000431,0.001175
27478000,0.0324,0.013523,0.002678,0.000431,0.001645
27479000,0.0324,0.013523,0.002678,0.000431,0.001645
27480000,0.0324,0.013523,0.002678,0.000431,0.001410
27481000,0.0324,0.013523,0.002678,0.000431,0.001410
27482000,0.0324,0.013523,0.002678,0.000431,0.001645
27483000,0.0324,0.013523,0.002678,0.000431,0.001293
27484000,0.0324,0.013523,0.002678,0.000431,0.001175
27485000,0.0324,0.013523,0.002678,0.000431,0.000705
27486000,0.0324,0.013523,0.002678,0.000431,0.000940
27487000,0.0324,0.013523,0.002678,0.000431,0.000823
27488000,0.0324,0.013523,0.002678,0.000431,0.000823
27489000,0.0324,0.013523,0.002678,0.000431,0.000940
27490000,0.0324,0.013523,0.002678,0.000431,0.000705
27491000,0.0324,0.013523,0.002678,0.000431,0.000940
27492000,0.0324,0.013523,0.002678,0.000431,0.000823
27493000,0.0324,0.013523,0.002678,0.000431,0.000823
27494000,0.0324,0.013523,0.002678,0.000431,0.000823
27495000,0.0324,0.013523,0.002678,0.000431,0.000823
27496000,0.0324,0.013523,0.002678,0.000431,0.000940
27497000,0.0324,0.013523,0.002678,0.000431,0.000705
27498000,0.0324,0.013523,0.002678,0.000431,0.000940
27499000,0.0324,0.013523,0.002678,0.000431,0.000823
27500000,0.0324,0.013523,0.002678,0.000431,0.000823
27501000,0.0324,0.013523,0.002678,0.000431,0.000823
27502000,0.0324,0.013523,0.002678,0.000431,0.000823
27503000,0.0324,0.013523,0.002678,0.000431,0.000823
27504000,0.0324,0.013523,0.002678,0.000431,0.000823
27505000,0.0324,0.013523,0.002678,0.000431,0.000940
27506000,0.0324,0.013523,0.002678,0.000431,0.000705
27507000,0.0324,0.013523,0.002678,0.000431,0.000940
27508000,0.0324,0.013523,0.002678,0.000431,0.000705
27509000,0.0324,0.013523,0.002678,0.000431,0.000940
27510000,0.0324,0.013523,0.002678,0.000431,0.000940
27511000,0.0324,0.013523,0.002678,0.000431,0.000705
27512000,0.0324,0.013523,0.002678,0.000431,0.000940
27513000,0.0324,0.013523,0.002678,0.000431,0.000705
27514000,0.0324,0.013523,0.002678,0.000431,0.000940
27515000,0.0324,0.013523,0.002678,0.000431,0.000823
27516000,0.0324,0.013523,0.002678,0.000431,0.000823
27517000,0.0324,0.013523,0.002678,0.000431,0.000823
27518000,0.0324,0.013523,0.002678,0.000431,0.000823
27519000,0.0324,0.013523,0.002678,0.000431,0.000940
27520000,0.0324,0.013523,0.002678,0.000431,0.000705
27521000,0.0324,0.013523,0.002678,0.000431,0.000940
27522000,0.0324,0.013523,0.002678,0.000431,0.000823
27523000,0.0324,0.013523,0.002678,0.000431,0.000823
27524000,0.0324,0.013523,0.002678,0.000431,0.000823
27525000,0.0324,0.013523,0.002678,0.000431,0.000823
27526000,0.0324,0.013523,0.002678,0.000431,0.000823
27527000,0.0324,0.013523,0.002678,0.000431,0.000823
27528000,0.0324,0.013523,0.002678,0.000431,0.000823
27529000,0.0324,0.013523,0.002678,0.000431,0.000823
27530000,0.0324,0.013523,0.002678,0.000431,0.000940
27531000,0.0324,0.013523,0.002678,0.000431,0.000823
27532000,0.0324,0.013523,0.002678,0.000431,0.000823
27533000,0.0324,0.013523,0.002678,0.000431,0.000705
27534000,0.0324,0.013523,0.002678,0.000431,0.000940
27535000,0.0324,0.013523,0.002678,0.000431,0.000940
27536000,0.0324,0.013523,0.002678,0.000431,0.000705
27537000,0.0324,0.013523,0.002678,0.000431,0.000940
27538000,0.0324,0.013523,0.002678,0.000431,0.000705
27539000,0.0324,0.013523,0.002678,0.000431,0.000940
27540000,0.0324,0.013523,0.002678,0.000431,0.000823
27541000,0.0324,0.013523,0.002678,0.000431,0.000823
27542000,0.0324,0.013523,0.002678,0.000431,0.000940
27543000,0.0324,0.013523,0.002678,0.000431,0.000705
27544000,0.0324,0.013523,0.002678,0.000431,0.000940
27545000,0.0324,0.013523,0.002678,0.000431,0.000823
27546000,0.0324,0.013523,0.002678,0.000431,0.000823
27547000,0.0324,0.013523,0.002678,0.000431,0.000823
27548000,0.0324,0.013523,0.002678,0.000431,0.000823
27549000,0.0324,0.013523,0.002678,0.000431,0.000823
27550000,0.0324,0.013523,0.002678,0.000431,0.000823
27551000,0.0324,0.013523,0.002678,0.000431,0.000940
27552000,0.0324,0.013523,0.002678,0.000431,0.000705
27553000,0.0324,0.013523,0.002678,0.000431,0.000940
27554000,0.0324,0.013523,0.002678,0.000431,0.000823
27555000,0.0324,0.013523,0.002678,0.000431,0.000823
27556000,0.0324,0.013523,0.002678,0.000431,0.000705
27557000,0.0324,0.013523,0.002678,0.000431,0.000940
27558000,0.0324,0.013523,0.002678,0.000431,0.000940
27559000,0.0324,0.013523,0.002678,0.000431,0.000705
27560000,0.0324,0.013523,0.002678,0.000431,0.000940
27561000,0.0324,0.013523,0.002678,0.000431,0.000705
27562000,0.0324,0.013523,0.002678,0.000431,0.000940
27563000,0.0324,0.013523,0.002678,0.000431,0.000823
27564000,0.0324,0.013523,0.002678,0.000431,0.000823
27565000,0.0324,0.013523,0.002678,0.000431,0.000940
27566000,0.0324,0.013523,0.002678,0.000431,0.000705
27567000,0.0324,0.013523,0.002678,0.000431,0.000940
27568000,0.0324,0.013523,0.002678,0.000431,0.000823
27569000,0.0324,0.013523,0.002678,0.000431,0.000823
27570000,0.0324,0.013523,0.002678,0.000431,0.000823
27571000,0.0324,0.013523,0.002678,0.000431,0.000823
27572000,0.0324,0.013523,0.002678,0.000431,0.000823
27573000,0.0324,0.013523,0.002678,0.000431,0.000823
27574000,0.0324,0.013523,0.002678,0.000431,0.000940
27575000,0.0324,0.013523,0.002678,0.000431,0.000823
27576000,0.0324,0.013523,0.002678,0.000431,0.000705
27577000,0.0324,0.013523,0.002678,0.000431,0.000940
27578000,0.0324,0.013523,0.002678,0.000431,0.000823
27579000,0.0324,0.013523,0.002678,0.000431,0.000823
27580000,0.0324,0.013523,0.002678,0.000431,0.000823
27581000,0.0324,0.013523,0.002678,0.000431,0.000823
27582000,0.0324,0.013523,0.002678,0.000431,0.000823
27583000,0.0324,0.013523,0.002678,0.000431,0.000940
27584000,0.0324,0.013523,0.002678,0.000431,0.000823
27585000,0.0324,0.013523,0.002678,0.000431,0.000823
27586000,0.0324,0.013523,0.002678,0.000431,0.000705
27587000,0.0324,0.013523,0.002678,0.000431,0.000940
27588000,0.0324,0.013523,0.002678,0.000431,0.000940
27589000,0.0324,0.013523,0.002678,0.000431,0.000705
27590000,0.0324,0.013523,0.002678,0.000431,0.000940
27591000,0.0324,0.013523,0.002678,0.000431,0.000705
27592000,0.0324,0.013523,0.002678,0.000431,0.000940
27593000,0.0324,0.013523,0.002678,0.000431,0.000823
27594000,0.0324,0.013523,0.002678,0.000431,0.000823
27595000,0.0324,0.013523,0.002678,0.000431,0.000940
27596000,0.0324,0.013523,0.002678,0.000431,0.000705
27597000,0.0324,0.013523,0.002678,0.000431,0.000940
27598000,0.0324,0.013523,0.002678,0.000431,0.000705
27599000,0.0324,0.013523,0.002678,0.000431,0.000940
27600000,0.0324,0.013523,0.002678,0.000431,0.000823
27601000,0.0324,0.013523,0.002678,0.000431,0.000823
27602000,0.0324,0.013523,0.002678,0.000431,0.000823
27603000,0.0324,0.013523,0.002678,0.000431,0.000823
27604000,0.0324,0.013523,0.002678,0.000431,0.000940
27605000,0.0324,0.013523,0.002678,0.000431,0.000705
27606000,0.0324,0.013523,0.002678,0.000431,0.000940
27607000,0.0324,0.013523,0.002678,0.000431,0.000823
27608000,0.0324,0.013523,0.002678,0.000431,0.000823
27609000,0.0324,0.013523,0.002678,0.000431,0.000705
27610000,0.0324,0.013523,0.002678,0.000431,0.000940
27611000,0.0324,0.013523,0.002678,0.000431,0.000940
27612000,0.0324,0.013523,0.002678,0.000431,0.000705
27613000,0.0324,0.013523,0.002678,0.000431,0.000940
27614000,0.0324,0.013523,0.002678,0.000431,0.000705
27615000,0.0324,0.013523,0.002678,0.000431,0.000940
27616000,0.0324,0.013523,0.002678,0.000431,0.000940
27617000,0.0324,0.013523,0.002678,0.000431,0.000705
27618000,0.0324,0.013523,0.002678,0.000431,0.000940
27619000,0.0324,0.013523,0.002678,0.000431,0.000705
27620000,0.0324,0.013523,0.002678,0.000431,0.000940
27621000,0.0324,0.013523,0.002678,0.000431,0.000823
27622000,0.0324,0.013523,0.002678,0.000431,0.000823
27623000,0.0324,0.013523,0.002678,0.000431,0.000823
27624000,0.0324,0.013523,0.002678,0.000431,0.000823
27625000,0.0324,0.013523,0.002678,0.000431,0.000940
27626000,0.0324,0.013523,0.002678,0.000431,0.000705
27627000,0.0324,0.013523,0.002678,0.000431,0.000940
27628000,0.0324,0.013523,0.002678,0.000431,0.000823
27629000,0.0324,0.013523,0.002678,0.000431,0.000823
27630000,0.0324,0.013523,0.002678,0.000431,0.000823
27631000,0.0324,0.013523,0.002678,0.000431,0.000823
27632000,0.0324,0.013523,0.002678,0.000431,0.000940
27633000,0.0324,0.013523,0.002678,0.000431,0.000705
27634000,0.0324,0.013523,0.002678,0.000431,0.000823
27635000,0.0324,0.013523,0.002678,0.000431,0.000940
27636000,0.0324,0.013523,0.002678,0.000431,0.000823
27637000,0.0324,0.013523,0.002678,0.000431,0.000823
27638000,0.0324,0.013523,0.002678,0.000431,0.000823
27639000,0.0324,0.013523,0.002678,0.000431,0.000823
27640000,0.0324,0.013523,0.002678,0.000431,0.000823
27641000,0.0324,0.013523,0.002678,0.000431,0.000940
27642000,0.0324,0.013523,0.002678,0.000431,0.000823
27643000,0.0324,0.013523,0.002678,0.000431,0.000823
27644000,0.0324,0.013523,0.002678,0.000431,0.000705
27645000,0.0324,0.013523,0.002678,0.000431,0.000940
27646000,0.0324,0.013523,0.002678,0.000431,0.000940
27647000,0.0324,0.013523,0.002678,0.000431,0.000705
27648000,0.0324,0.013523,0.002678,0.000431,0.000940
27649000,0.0324,0.013523,0.002678,0.000431,0.000705
27650000,0.0324,0.013523,0.002678,0.000431,0.000940
27651000,0.0324,0.013523,0.002678,0.000431,0.000823
27652000,0.0324,0.013523,0.002678,0.000431,0.000823
27653000,0.0324,0.013523,0.002678,0.000431,0.000940
27654000,0.0324,0.013523,0.002678,0.000431,0.000705
27655000,0.0324,0.013523,0.002678,0.000431,0.000940
27656000,0.0324,0.013523,0.002678,0.000431,0.000823
27657000,0.0324,0.013523,0.002678,0.000431,0.000823
27658000,0.0324,0.013523,0.002678,0.000431,0.000823
27659000,0.0324,0.013523,0.002678,0.000431,0.000823
27660000,0.0324,0.013523,0.002678,0.000431,0.000940
27661000,0.0324,0.013523,0.002678,0.000431,0.000705
27662000,0.0324,0.013523,0.002678,0.000431,0.000940
27663000,0.0324,0.013523,0.002678,0.000431,0.000823
27664000,0.0324,0.013523,0.002678,0.000431,0.000823
27665000,0.0324,0.013523,0.002678,0.000431,0.000823
27666000,0.0324,0.013523,0.002678,0.000431,0.000823
27667000,0.0324,0.013523,0.002678,0.000431,0.000940
27668000,0.0324,0.013523,0.002678,0.000431,0.000705
27669000,0.0324,0.013523,0.002678,0.000431,0.000940
27670000,0.0324,0.013523,0.002678,0.000431,0.000823
27671000,0.0324,0.013523,0.002678,0.000431,0.000823
27672000,0.0324,0.013523,0.002678,0.000431,0.000705
27673000,0.0324,0.013523,0.002678,0.000431,0.000940
27674000,0.0324,0.013523,0.002678,0.000431,0.000940
27675000,0.0324,0.013523,0.002678,0.000431,0.000705
27676000,0.0324,0.013523,0.002678,0.000431,0.000940
27677000,0.0324,0.013523,0.002678,0.000431,0.000705
27678000,0.0324,0.013523,0.002678,0.000431,0.000940
27679000,0.0324,0.013523,0.002678,0.000431,0.000940
27680000,0.0324,0.013523,0.002678,0.000431,0.000705
27681000,0.0324,0.013523,0.002678,0.000431,0.000940
27682000,0.0324,0.013523,0.002678,0.000431,0.000705
27683000,0.0324,0.013523,0.002678,0.000431,0.000940
27684000,0.0324,0.013523,0.002678,0.000431,0.000823
27685000,0.0324,0.013523,0.002678,0.000431,0.000823
27686000,0.0324,0.013523,0.002678,0.000431,0.000823
27687000,0.0324,0.013523,0.002678,0.000431,0.000823
27688000,0.0324,0.013523,0.002678,0.000431,0.000940
27689000,0.0324,0.013523,0.002678,0.000431,0.000705
27690000,0.0324,0.013523,0.002678,0.000431,0.000940
27691000,0.0324,0.013523,0.002678,0.000431,0.000823
27692000,0.0324,0.013523,0.002678,0.000431,0.000823
27693000,0.0324,0.013523,0.002678,0.000431,0.000823
27694000,0.0324,0.013523,0.002678,0.000431,0.000823
27695000,0.0324,0.013523,0.002678,0.000431,0.000940
27696000,0.0324,0.013523,0.002678,0.000431,0.000705
27697000,0.0324,0.013523,0.002678,0.000431,0.000823
27698000,0.0324,0.013523,0.002678,0.000431,0.000940
27699000,0.0324,0.013523,0.002678,0.000431,0.000823
27700000,0.0324,0.013523,0.002678,0.000431,0.000823
27701000,0.0324,0.013523,0.002678,0.000431,0.000823
27702000,0.0324,0.013523,0.002678,0.000431,0.000823
27703000,0.0324,0.013523,0.002678,0.000431,0.000823
27704000,0.0324,0.013523,0.002678,0.000431,0.000940
27705000,0.0324,0.013523,0.002678,0.000431,0.000823
27706000,0.0324,0.013523,0.002678,0.000431,0.000823
27707000,0.0324,0.013523,0.002678,0.000431,0.000705
27708000,0.0324,0.013523,0.002678,0.000431,0.000940
27709000,0.0324,0.013523,0.002678,0.000431,0.000940
27710000,0.0324,0.013523,0.002678,0.000431,0.000705
27711000,0.0324,0.013523,0.002678,0.000431,0.000940
27712000,0.0324,0.013523,0.002678,0.000431,0.000705
27713000,0.0324,0.013523,0.002678,0.000431,0.000940
27714000,0.0324,0.013523,0.002678,0.000431,0.000823
27715000,0.0324,0.013523,0.002678,0.000431,0.000823
27716000,0.0324,0.013523,0.002678,0.000431,0.000940
27717000,0.0324,0.013523,0.002678,0.000431,0.000705
27718000,0.0324,0.013523,0.002678,0.000431,0.000940
27719000,0.0324,0.013523,0.002678,0.000431,0.000823
27720000,0.0324,0.013523,0.002678,0.000431,0.000823
27721000,0.0324,0.013523,0.002678,0.000431,0.000823
27722000,0.0324,0.013523,0.002678,0.000431,0.000823
27723000,0.0324,0.013523,0.002678,0.000431,0.000940
27724000,0.0324,0.013523,0.002678,0.000431,0.000705
27725000,0.0324,0.013523,0.002678,0.000431,0.000940
27726000,0.0324,0.013523,0.002678,0.000431,0.000823
27727000,0.0324,0.013523,0.002678,0.000431,0.000823
27728000,0.0324,0.013523,0.002678,0.000431,0.000823
27729000,0.0324,0.013523,0.002678,0.000431,0.000823
27730000,0.0324,0.013523,0.002678,0.000431,0.000940
27731000,0.0324,0.013523,0.002678,0.000431,0.000705
27732000,0.0324,0.013523,0.002678,0.000431,0.000940
27733000,0.0324,0.013523,0.002678,0.000431,0.000823
27734000,0.0324,0.013523,0.002678,0.000431,0.000823
27735000,0.0324,0.013523,0.002678,0.000431,0.000705
27736000,0.0324,0.013523,0.002678,0.000431,0.000940
27737000,0.0324,0.013523,0.002678,0.000431,0.000940
27738000,0.0324,0.013523,0.002678,0.000431,0.000705
27739000,0.0324,0.013523,0.002678,0.000431,0.000940
27740000,0.0324,0.013523,0.002678,0.000431,0.000705
27741000,0.0324,0.013523,0.002678,0.000431,0.000940
27742000,0.0324,0.013523,0.002678,0.000431,0.000940
27743000,0.0324,0.013523,0.002678,0.000431,0.000705
27744000,0.0324,0.013523,0.002678,0.000431,0.000940
27745000,0.0324,0.013523,0.002678,0.000431,0.000705
27746000,0.0324,0.013523,0.002678,0.000431,0.000940
27747000,0.0324,0.013523,0.002678,0.000431,0.000823
27748000,0.0324,0.013523,0.002678,0.000431,0.000823
27749000,0.0324,0.013523,0.002678,0.000431,0.000823
27750000,0.0324,0.013523,0.002678,0.000431,0.000823
27751000,0.0324,0.013523,0.002678,0.000431,0.000940
27752000,0.0324,0.013523,0.002678,0.000431,0.000705
27753000,0.0324,0.013523,0.002678,0.000431,0.000940
27754000,0.0324,0.013523,0.002678,0.000431,0.000823
27755000,0.0324,0.013523,0.002678,0.000431,0.000823
27756000,0.0324,0.013523,0.002678,0.000431,0.000823
27757000,0.0324,0.013523,0.002678,0.000431,0.000823
27758000,0.0324,0.013523,0.002678,0.000431,0.000940
27759000,0.0324,0.013523,0.002678,0.000431,0.000705
27760000,0.0324,0.013523,0.002678,0.000431,0.000823
27761000,0.0324,0.013523,0.002678,0.000431,0.000940
27762000,0.0324,0.013523,0.002678,0.000431,0.000823
27763000,0.0324,0.013523,0.002678,0.000431,0.000823
27764000,0.0324,0.013523,0.002678,0.000431,0.000823
27765000,0.0324,0.013523,0.002678,0.000431,0.000823
27766000,0.0324,0.013523,0.002678,0.000431,0.000823
27767000,0.0324,0.013523,0.002678,0.000431,0.000940
27768000,0.0324,0.013523,0.002678,0.000431,0.000823
27769000,0.0324,0.013523,0.002678,0.000431,0.000823
27770000,0.0324,0.013523,0.002678,0.000431,0.000705
27771000,0.0324,0.013523,0.002678,0.000431,0.000940
27772000,0.0324,0.013523,0.002678,0.000431,0.000940
27773000,0.0324,0.013523,0.002678,0.000431,0.000705
27774000,0.0324,0.013523,0.002678,0.000431,0.000940
27775000,0.0324,0.013523,0.002678,0.000431,0.000705
27776000,0.0324,0.013523,0.002678,0.000431,0.000940
27777000,0.0324,0.013523,0.002678,0.000431,0.000823
27778000,0.0324,0.013523,0.002678,0.000431,0.000823
27779000,0.0324,0.013523,0.002678,0.000431,0.000940
27780000,0.0324,0.013523,0.002678,0.000431,0.000705
27781000,0.0324,0.013523,0.002678,0.000431,0.000940
27782000,0.0324,0.013523,0.002678,0.000431,0.000823
27783000,0.0324,0.013523,0.002678,0.000431,0.000823
27784000,0.0324,0.013523,0.002678,0.000431,0.000823
27785000,0.0324,0.013523,0.002678,0.000431,0.000823
27786000,0.0324,0.013523,0.002678,0.000431,0.000940
27787000,0.0324,0.013523,0.002678,0.000431,0.000705
27788000,0.0324,0.013523,0.002678,0.000431,0.000940
27789000,0.0324,0.013523,0.002678,0.000431,0.000823
27790000,0.0324,0.013523,0.002678,0.000431,0.000823
27791000,0.0324,0.013523,0.002678,0.000431,0.000823
27792000,0.0324,0.013523,0.002678,0.000431,0.000823
27793000,0.0324,0.013523,0.002678,0.000431,0.000940
27794000,0.0324,0.013523,0.002678,0.000431,0.000705
27795000,0.0324,0.013523,0.002678,0.000431,0.000940
27796000,0.0324,0.013523,0.002678,0.000431,0.000823
27797000,0.0324,0.013523,0.002678,0.000431,0.000823
27798000,0.0324,0.013523,0.002678,0.000431,0.000705
27799000,0.0324,0.013523,0.002678,0.000431,0.000940
27800000,0.0324,0.013523,0.002678,0.000431,0.000940
27801000,0.0324,0.013523,0.002678,0.000431,0.000705
27802000,0.0324,0.013523,0.002678,0.000431,0.000940
27803000,0.0324,0.013523,0.002678,0.000431,0.000705
27804000,0.0324,0.013523,0.002678,0.000431,0.000940
27805000,0.0324,0.013523,0.002678,0.000431,0.000940
27806000,0.0324,0.013523,0.002678,0.000431,0.000705
27807000,0.0324,0.013523,0.002678,0.000431,0.000940
27808000,0.0324,0.013523,0.002678,0.000431,0.000705
27809000,0.0324,0.013523,0.002678,0.000431,0.000940
27810000,0.0324,0.013523,0.002678,0.000431,0.000823
27811000,0.0324,0.013523,0.002678,0.000431,0.000823
27812000,0.0324,0.013523,0.002678,0.000431,0.000823
27813000,0.0324,0.013523,0.002678,0.000431,0.000823
27814000,0.0324,0.013523,0.002678,0.000431,0.000940
27815000,0.0324,0.013523,0.002678,0.000431,0.000705
27816000,0.0324,0.013523,0.002678,0.000431,0.000940
27817000,0.0324,0.013523,0.002678,0.000431,0.000823
27818000,0.0324,0.013523,0.002678,0.000431,0.000823
27819000,0.0324,0.013523,0.002678,0.000431,0.000823
27820000,0.0324,0.013523,0.002678,0.000431,0.000823
27821000,0.0324,0.013523,0.002678,0.000431,0.000940
27822000,0.0324,0.013523,0.002678,0.000431,0.000705
27823000,0.0324,0.013523,0.002678,0.000431,0.000823
27824000,0.0324,0.013523,0.002678,0.000431,0.000940
27825000,0.0324,0.013523,0.002678,0.000431,0.000823
27826000,0.0324,0.013523,0.002678,0.000431,0.000823
27827000,0.0324,0.013523,0.002678,0.000431,0.000823
27828000,0.0324,0.013523,0.002678,0.000431,0.000823
27829000,0.0324,0.013523,0.002678,0.000431,0.000823
27830000,0.0324,0.013523,0.002678,0.000431,0.000940
27831000,0.0324,0.013523,0.002678,0.000431,0.000823
27832000,0.0324,0.013523,0.002678,0.000431,0.000823
27833000,0.0324,0.013523,0.002678,0.000431,0.000705
27834000,0.0324,0.013523,0.002678,0.000431,0.000940
27835000,0.0324,0.013523,0.002678,0.000431,0.000940
27836000,0.0324,0.013523,0.002678,0.000431,0.000705
27837000,0.0324,0.013523,0.002678,0.000431,0.000940
27838000,0.0324,0.013523,0.002678,0.000431,0.000705
27839000,0.0324,0.013523,0.002678,0.000431,0.000940
27840000,0.0324,0.013523,0.002678,0.000431,0.000823
27841000,0.0324,0.013523,0.002678,0.000431,0.000823
27842000,0.0324,0.013523,0.002678,0.000431,0.000940
27843000,0.0324,0.013523,0.002678,0.000431,0.000705
27844000,0.0324,0.013523,0.002678,0.000431,0.000940
27845000,0.0324,0.013523,0.002678,0.000431,0.000823
27846000,0.0324,0.013523,0.002678,0.000431,0.000823
27847000,0.0324,0.013523,0.002678,0.000431,0.000823
27848000,0.0324,0.013523,0.002678,0.000431,0.000823
27849000,0.0324,0.013523,0.002678,0.000431,0.000940
27850000,0.0324,0.013523,0.002678,0.000431,0.000705
27851000,0.0324,0.013523,0.002678,0.000431,0.000940
27852000,0.0324,0.013523,0.002678,0.000431,0.000823
27853000,0.0324,0.013523,0.002678,0.000431,0.000823
27854000,0.0324,0.013523,0.002678,0.000431,0.000823
27855000,0.0324,0.013523,0.002678,0.000431,0.000823
27856000,0.0324,0.013523,0.002678,0.000431,0.000940
27857000,0.0324,0.013523,0.002678,0.000431,0.000705
27858000,0.0324,0.013523,0.002678,0.000431,0.000940
27859000,0.0324,0.013523,0.002678,0.000431,0.000823
27860000,0.0324,0.013523,0.002678,0.000431,0.000823
27861000,0.0324,0.013523,0.002678,0.000431,0.000705
27862000,0.0324,0.013523,0.002678,0.000431,0.000940
27863000,0.0324,0.013523,0.002678,0.000431,0.000940
27864000,0.0324,0.013523,0.002678,0.000431,0.000705
27865000,0.0324,0.013523,0.002678,0.000431,0.000940
27866000,0.0324,0.013523,0.002678,0.000431,0.000705
27867000,0.0324,0.013523,0.002678,0.000431,0.000940
27868000,0.0324,0.013523,0.002678,0.000431,0.000940
27869000,0.0324,0.013523,0.002678,0.000431,0.000705
27870000,0.0324,0.013523,0.002678,0.000431,0.000940
27871000,0.0324,0.013523,0.002678,0.000431,0.000705
27872000,0.0324,0.013523,0.002678,0.000431,0.000940
27873000,0.0324,0.013523,0.002678,0.000431,0.000823
27874000,0.0324,0.013523,0.002678,0.000431,0.000823
27875000,0.0324,0.013523,0.002678,0.000431,0.000823
27876000,0.0324,0.013523,0.002678,0.000431,0.000823
27877000,0.0324,0.013523,0.002678,0.000431,0.000940
27878000,0.0324,0.013523,0.002678,0.000431,0.000705
27879000,0.0324,0.013523,0.002678,0.000431,0.000940
27880000,0.0324,0.013523,0.002678,0.000431,0.000823
27881000,0.0324,0.013523,0.002678,0.000431,0.000823
27882000,0.0324,0.013523,0.002678,0.000431,0.000823
27883000,0.0324,0.013523,0.002678,0.000431,0.000823
27884000,0.0324,0.013523,0.002678,0.000431,0.000940
27885000,0.0324,0.013523,0.002678,0.000431,0.000705
27886000,0.0324,0.013523,0.002678,0.000431,0.000823
27887000,0.0324,0.013523,0.002678,0.000431,0.000940
27888000,0.0324,0.013523,0.002678,0.000431,0.000823
27889000,0.0324,0.013523,0.002678,0.000431,0.000823
27890000,0.0324,0.013523,0.002678,0.000431,0.000823
27891000,0.0324,0.013523,0.002678,0.000431,0.000823
27892000,0.0324,0.013523,0.002678,0.000431,0.000823
27893000,0.0324,0.013523,0.002678,0.000431,0.000940
27894000,0.0324,0.013523,0.002678,0.000431,0.000823
27895000,0.0324,0.013523,0.002678,0.000431,0.000823
27896000,0.0324,0.013523,0.002678,0.000431,0.000705
27897000,0.0324,0.013523,0.002678,0.000431,0.000940
27898000,0.0324,0.013523,0.002678,0.000431,0.000940
27899000,0.0324,0.013523,0.002678,0.000431,0.000705
27900000,0.0324,0.013523,0.002678,0.000431,0.000940
27901000,0.0324,0.013523,0.002678,0.000431,0.000705
27902000,0.0324,0.013523,0.002678,0.000431,0.000940
27903000,0.0324,0.013523,0.002678,0.000431,0.000823
27904000,0.0324,0.013523,0.002678,0.000431,0.000823
27905000,0.0324,0.013523,0.002678,0.000431,0.000940
27906000,0.0324,0.013523,0.002678,0.000431,0.000705
27907000,0.0324,0.013523,0.002678,0.000431,0.000940
27908000,0.0324,0.013523,0.002678,0.000431,0.000823
27909000,0.0324,0.013523,0.002678,0.000431,0.000823
27910000,0.0324,0.013523,0.002678,0.000431,0.000823
27911000,0.0324,0.013523,0.002678,0.000431,0.000823
27912000,0.0324,0.013523,0.002678,0.000431,0.000940
27913000,0.0324,0.013523,0.002678,0.000431,0.000705
27914000,0.0324,0.013523,0.002678,0.000431,0.000940
27915000,0.0324,0.013523,0.002678,0.000431,0.000823
27916000,0.0324,0.013523,0.002678,0.000431,0.000823
27917000,0.0324,0.013523,0.002678,0.000431,0.000823
27918000,0.0324,0.013523,0.002678,0.000431,0.000823
27919000,0.0324,0.013523,0.002678,0.000431,0.000940
27920000,0.0324,0.013523,0.002678,0.000431,0.000705
27921000,0.0324,0.013523,0.002678,0.000431,0.000940
27922000,0.0324,0.013523,0.002678,0.000431,0.000705
27923000,0.0324,0.013523,0.002678,0.000431,0.000940
27924000,0.0324,0.013523,0.002678,0.000431,0.000705
27925000,0.0324,0.013523,0.002678,0.000431,0.000940
27926000,0.0324,0.013523,0.002678,0.000431,0.000940
27927000,0.0324,0.013523,0.002678,0.000431,0.000705
27928000,0.0324,0.013523,0.002678,0.000431,0.000940
27929000,0.0324,0.013523,0.002678,0.000431,0.000705
27930000,0.0324,0.013523,0.002678,0.000431,0.000940
27931000,0.0324,0.013523,0.002678,0.000431,0.000823
27932000,0.0324,0.013523,0.002678,0.000431,0.000823
27933000,0.0324,0.013523,0.002678,0.000431,0.000940
27934000,0.0324,0.013523,0.002678,0.000431,0.000705
27935000,0.0324,0.013523,0.002678,0.000431,0.000940
27936000,0.0324,0.013523,0.002678,0.000431,0.000823
27937000,0.0324,0.013523,0.002678,0.000431,0.000823
27938000,0.0324,0.013523,0.002678,0.000431,0.000823
27939000,0.0324,0.013523,0.002678,0.000431,0.000823
27940000,0.0324,0.013523,0.002678,0.000431,0.000940
27941000,0.0324,0.013523,0.002678,0.000431,0.000705
27942000,0.0324,0.013523,0.002678,0.000431,0.000940
27943000,0.0324,0.013523,0.002678,0.000431,0.000823
27944000,0.0324,0.013523,0.002678,0.000431,0.000823
27945000,0.0324,0.013523,0.002678,0.000431,0.000823
27946000,0.0324,0.013523,0.002678,0.000431,0.000823
27947000,0.0324,0.013523,0.002678,0.000431,0.000823
27948000,0.0324,0.013523,0.002678,0.000431,0.000823
27949000,0.0324,0.013523,0.002678,0.000431,0.000823
27950000,0.0324,0.013523,0.002678,0.000431,0.000940
27951000,0.0324,0.013523,0.002678,0.000431,0.000823
27952000,0.0324,0.013523,0.002678,0.000431,0.000823
27953000,0.0324,0.013523,0.002678,0.000431,0.000823
27954000,0.0324,0.013523,0.002678,0.000431,0.000705
27955000,0.0324,0.013523,0.002678,0.000431,0.000940
27956000,0.0324,0.013523,0.002678,0.000431,0.000940
27957000,0.0324,0.013523,0.002678,0.000431,0.000705
27958000,0.0324,0.013523,0.002678,0.000431,0.000940
27959000,0.0324,0.013523,0.002678,0.000431,0.000705
27960000,0.0324,0.013523,0.002678,0.000431,0.000940
27961000,0.0324,0.013523,0.002678,0.000431,0.000823
27962000,0.0324,0.013523,0.002678,0.000431,0.000823
27963000,0.0324,0.013523,0.002678,0.000431,0.000940
27964000,0.0324,0.013523,0.002678,0.000431,0.000705
27965000,0.0324,0.013523,0.002678,0.000431,0.000940
27966000,0.0324,0.013523,0.002678,0.000431,0.000823
27967000,0.0324,0.013523,0.002678,0.000431,0.000823
27968000,0.0324,0.013523,0.002678,0.000431,0.000823
27969000,0.0324,0.013523,0.002678,0.000431,0.088264
27970000,0.0324,0.013523,0.002678,0.000431,0.520180
27971000,0.0324,0.013523,0.002678,0.000431,0.540630
27972000,0.0324,0.013523,0.002678,0.000431,0.134570
27973000,0.0324,0.013523,0.002678,0.000431,0.130574
27974000,0.0324,0.013523,0.002678,0.000431,0.542628
27975000,0.0324,0.013523,0.002678,0.000431,0.230473
27976000,0.0324,0.013523,0.002678,0.000431,0.242813
27977000,0.0324,0.013523,0.002678,0.000431,0.334250
27978000,0.0324,0.013523,0.002678,0.000431,0.140329
27979000,0.0324,0.013523,0.002678,0.000431,0.138213
27980000,0.0324,0.013523,0.002678,0.000431,0.149848
27981000,0.0324,0.013523,0.002678,0.000431,0.219778
27982000,0.0324,0.013523,0.002678,0.000431,0.357873
27983000,0.0324,0.013523,0.002678,0.000431,0.064758
27984000,0.0324,0.013523,0.002678,0.000431,0.049009
27985000,0.0324,0.013523,0.002678,0.000431,0.044896
27986000,0.0324,0.013523,0.002678,0.000431,0.045366
27987000,0.0324,0.013523,0.002678,0.000431,0.036081
27988000,0.0324,0.013523,0.002678,0.000431,0.034436
27989000,0.0324,0.013523,0.002678,0.000431,0.033731
27990000,0.0324,0.013523,0.002678,0.000431,0.035964
27991000,0.0324,0.013523,0.002678,0.000431,0.036081
27992000,0.0324,0.013523,0.002678,0.000431,0.029147
27993000,0.0324,0.013523,0.002678,0.000431,0.027972
27994000,0.0324,0.013523,0.002678,0.000431,0.027031
27995000,0.0324,0.013523,0.002678,0.000431,0.027854
27996000,0.0324,0.013523,0.002678,0.000431,0.028677
27997000,0.0324,0.013523,0.002678,0.000431,0.027854
27998000,0.0324,0.013523,0.002678,0.000431,0.025269
27999000,0.0324,0.013523,0.002678,0.000431,0.027502
