Cycle,Area(mm^2),PeakDynamic(W),SubthresholdLeakage(W),GateLeakage(W),RunTimeDynamic(W)
25000000,0.0324,0.013523,0.002678,0.000431,0.308982
25001000,0.0324,0.013523,0.002678,0.000431,0.274193
25002000,0.0324,0.013523,0.002678,0.000431,0.331547
25003000,0.0324,0.013523,0.002678,0.000431,0.144677
25004000,0.0324,0.013523,0.002678,0.000431,0.147263
25005000,0.0324,0.013523,0.002678,0.000431,0.108126
25006000,0.0324,0.013523,0.002678,0.000431,0.390899
25007000,0.0324,0.013523,0.002678,0.000431,0.206379
25008000,0.0324,0.013523,0.002678,0.000431,0.050302
25009000,0.0324,0.013523,0.002678,0.000431,0.040782
25010000,0.0324,0.013523,0.002678,0.000431,0.038197
25011000,0.0324,0.013523,0.002678,0.000431,0.031145
25012000,0.0324,0.013523,0.002678,0.000431,0.029382
25013000,0.0324,0.013523,0.002678,0.000431,0.019627
25014000,0.0324,0.013523,0.002678,0.000431,0.014221
25015000,0.0324,0.013523,0.002678,0.000431,0.013633
25016000,0.0324,0.013523,0.002678,0.000431,0.012340
25017000,0.0324,0.013523,0.002678,0.000431,0.010695
25018000,0.0324,0.013523,0.002678,0.000431,0.013163
25019000,0.0324,0.013523,0.002678,0.000431,0.015514
25020000,0.0324,0.013523,0.002678,0.000431,0.008345
25021000,0.0324,0.013523,0.002678,0.000431,0.009402
25022000,0.0324,0.013523,0.002678,0.000431,0.004819
25023000,0.0324,0.013523,0.002678,0.000431,0.005406
25024000,0.0324,0.013523,0.002678,0.000431,0.008227
25025000,0.0324,0.013523,0.002678,0.000431,0.004113
25026000,0.0324,0.013523,0.002678,0.000431,0.003643
25027000,0.0324,0.013523,0.002678,0.000431,0.003761
25028000,0.0324,0.013523,0.002678,0.000431,0.001880
25029000,0.0324,0.013523,0.002678,0.000431,0.001645
25030000,0.0324,0.013523,0.002678,0.000431,0.001645
25031000,0.0324,0.013523,0.002678,0.000431,0.001880
25032000,0.0324,0.013523,0.002678,0.000431,0.001410
25033000,0.0324,0.013523,0.002678,0.000431,0.001880
25034000,0.0324,0.013523,0.002678,0.000431,0.001410
25035000,0.0324,0.013523,0.002678,0.000431,0.001880
25036000,0.0324,0.013523,0.002678,0.000431,0.001645
25037000,0.0324,0.013523,0.002678,0.000431,0.001645
25038000,0.0324,0.013523,0.002678,0.000431,0.001645
25039000,0.0324,0.013523,0.002678,0.000431,0.001645
25040000,0.0324,0.013523,0.002678,0.000431,0.001880
25041000,0.0324,0.013523,0.002678,0.000431,0.001410
25042000,0.0324,0.013523,0.002678,0.000431,0.001880
25043000,0.0324,0.013523,0.002678,0.000431,0.001410
25044000,0.0324,0.013523,0.002678,0.000431,0.001880
25045000,0.0324,0.013523,0.002678,0.000431,0.001410
25046000,0.0324,0.013523,0.002678,0.000431,0.001880
25047000,0.0324,0.013523,0.002678,0.000431,0.001880
25048000,0.0324,0.013523,0.002678,0.000431,0.001410
25049000,0.0324,0.013523,0.002678,0.000431,0.001880
25050000,0.0324,0.013523,0.002678,0.000431,0.001410
25051000,0.0324,0.013523,0.002678,0.000431,0.001880
25052000,0.0324,0.013523,0.002678,0.000431,0.001645
25053000,0.0324,0.013523,0.002678,0.000431,0.001645
25054000,0.0324,0.013523,0.002678,0.000431,0.001645
25055000,0.0324,0.013523,0.002678,0.000431,0.001645
25056000,0.0324,0.013523,0.002678,0.000431,0.001880
25057000,0.0324,0.013523,0.002678,0.000431,0.001410
25058000,0.0324,0.013523,0.002678,0.000431,0.001880
25059000,0.0324,0.013523,0.002678,0.000431,0.001645
25060000,0.0324,0.013523,0.002678,0.000431,0.001645
25061000,0.0324,0.013523,0.002678,0.000431,0.001645
25062000,0.0324,0.013523,0.002678,0.000431,0.001645
25063000,0.0324,0.013523,0.002678,0.000431,0.001763
25064000,0.0324,0.013523,0.002678,0.000431,0.001528
25065000,0.0324,0.013523,0.002678,0.000431,0.001645
25066000,0.0324,0.013523,0.002678,0.000431,0.001880
25067000,0.0324,0.013523,0.002678,0.000431,0.001645
25068000,0.0324,0.013523,0.002678,0.000431,0.001645
25069000,0.0324,0.013523,0.002678,0.000431,0.001645
25070000,0.0324,0.013523,0.002678,0.000431,0.001410
25071000,0.0324,0.013523,0.002678,0.000431,0.001880
25072000,0.0324,0.013523,0.002678,0.000431,0.001880
25073000,0.0324,0.013523,0.002678,0.000431,0.001410
25074000,0.0324,0.013523,0.002678,0.000431,0.001880
25075000,0.0324,0.013523,0.002678,0.000431,0.001410
25076000,0.0324,0.013523,0.002678,0.000431,0.001880
25077000,0.0324,0.013523,0.002678,0.000431,0.001880
25078000,0.0324,0.013523,0.002678,0.000431,0.001410
25079000,0.0324,0.013523,0.002678,0.000431,0.001880
25080000,0.0324,0.013523,0.002678,0.000431,0.001410
25081000,0.0324,0.013523,0.002678,0.000431,0.001880
25082000,0.0324,0.013523,0.002678,0.000431,0.001645
25083000,0.0324,0.013523,0.002678,0.000431,0.001645
25084000,0.0324,0.013523,0.002678,0.000431,0.001645
25085000,0.0324,0.013523,0.002678,0.000431,0.001645
25086000,0.0324,0.013523,0.002678,0.000431,0.001880
25087000,0.0324,0.013523,0.002678,0.000431,0.001410
25088000,0.0324,0.013523,0.002678,0.000431,0.001880
25089000,0.0324,0.013523,0.002678,0.000431,0.001645
25090000,0.0324,0.013523,0.002678,0.000431,0.001645
25091000,0.0324,0.013523,0.002678,0.000431,0.001645
25092000,0.0324,0.013523,0.002678,0.000431,0.001645
25093000,0.0324,0.013523,0.002678,0.000431,0.001763
25094000,0.0324,0.013523,0.002678,0.000431,0.001528
25095000,0.0324,0.013523,0.002678,0.000431,0.001880
25096000,0.0324,0.013523,0.002678,0.000431,0.001645
25097000,0.0324,0.013523,0.002678,0.000431,0.001645
25098000,0.0324,0.013523,0.002678,0.000431,0.001410
25099000,0.0324,0.013523,0.002678,0.000431,0.001880
25100000,0.0324,0.013523,0.002678,0.000431,0.001880
25101000,0.0324,0.013523,0.002678,0.000431,0.001410
25102000,0.0324,0.013523,0.002678,0.000431,0.001880
25103000,0.0324,0.013523,0.002678,0.000431,0.001410
25104000,0.0324,0.013523,0.002678,0.000431,0.001880
25105000,0.0324,0.013523,0.002678,0.000431,0.001645
25106000,0.0324,0.013523,0.002678,0.000431,0.001645
25107000,0.0324,0.013523,0.002678,0.000431,0.001880
25108000,0.0324,0.013523,0.002678,0.000431,0.001410
25109000,0.0324,0.013523,0.002678,0.000431,0.001880
25110000,0.0324,0.013523,0.002678,0.000431,0.001645
25111000,0.0324,0.013523,0.002678,0.000431,0.001645
25112000,0.0324,0.013523,0.002678,0.000431,0.001645
25113000,0.0324,0.013523,0.002678,0.000431,0.001645
25114000,0.0324,0.013523,0.002678,0.000431,0.070752
25115000,0.0324,0.013523,0.002678,0.000431,0.492208
25116000,0.0324,0.013523,0.002678,0.000431,0.584468
25117000,0.0324,0.013523,0.002678,0.000431,0.131161
25118000,0.0324,0.013523,0.002678,0.000431,0.133982
25119000,0.0324,0.013523,0.002678,0.000431,0.636533
25120000,0.0324,0.013523,0.002678,0.000431,0.248337
25121000,0.0324,0.013523,0.002678,0.000431,0.271138
25122000,0.0324,0.013523,0.002678,0.000431,0.277131
25123000,0.0324,0.013523,0.002678,0.000431,0.138801
25124000,0.0324,0.013523,0.002678,0.000431,0.164069
25125000,0.0324,0.013523,0.002678,0.000431,0.102720
25126000,0.0324,0.013523,0.002678,0.000431,0.459770
25127000,0.0324,0.013523,0.002678,0.000431,0.083915
25128000,0.0324,0.013523,0.002678,0.000431,0.027972
25129000,0.0324,0.013523,0.002678,0.000431,0.028324
25130000,0.0324,0.013523,0.002678,0.000431,0.027149
25131000,0.0324,0.013523,0.002678,0.000431,0.027854
25132000,0.0324,0.013523,0.002678,0.000431,0.015514
25133000,0.0324,0.013523,0.002678,0.000431,0.013398
25134000,0.0324,0.013523,0.002678,0.000431,0.011400
25135000,0.0324,0.013523,0.002678,0.000431,0.010695
25136000,0.0324,0.013523,0.002678,0.000431,0.008109
25137000,0.0324,0.013523,0.002678,0.000431,0.006464
25138000,0.0324,0.013523,0.002678,0.000431,0.007639
25139000,0.0324,0.013523,0.002678,0.000431,0.006817
25140000,0.0324,0.013523,0.002678,0.000431,0.005994
25141000,0.0324,0.013523,0.002678,0.000431,0.006347
25142000,0.0324,0.013523,0.002678,0.000431,0.007052
25143000,0.0324,0.013523,0.002678,0.000431,0.005406
25144000,0.0324,0.013523,0.002678,0.000431,0.005054
25145000,0.0324,0.013523,0.002678,0.000431,0.005406
25146000,0.0324,0.013523,0.002678,0.000431,0.005054
25147000,0.0324,0.013523,0.002678,0.000431,0.005406
25148000,0.0324,0.013523,0.002678,0.000431,0.005054
25149000,0.0324,0.013523,0.002678,0.000431,0.005171
25150000,0.0324,0.013523,0.002678,0.000431,0.006699
25151000,0.0324,0.013523,0.002678,0.000431,0.004113
25152000,0.0324,0.013523,0.002678,0.000431,0.004466
25153000,0.0324,0.013523,0.002678,0.000431,0.004113
25154000,0.0324,0.013523,0.002678,0.000431,0.004349
25155000,0.0324,0.013523,0.002678,0.000431,0.004231
25156000,0.0324,0.013523,0.002678,0.000431,0.004349
25157000,0.0324,0.013523,0.002678,0.000431,0.004113
25158000,0.0324,0.013523,0.002678,0.000431,0.004231
25159000,0.0324,0.013523,0.002678,0.000431,0.007992
25160000,0.0324,0.013523,0.002678,0.000431,0.002351
25161000,0.0324,0.013523,0.002678,0.000431,0.002703
25162000,0.0324,0.013523,0.002678,0.000431,0.002351
25163000,0.0324,0.013523,0.002678,0.000431,0.002586
25164000,0.0324,0.013523,0.002678,0.000431,0.002586
25165000,0.0324,0.013523,0.002678,0.000431,0.002351
25166000,0.0324,0.013523,0.002678,0.000431,0.002586
25167000,0.0324,0.013523,0.002678,0.000431,0.002351
25168000,0.0324,0.013523,0.002678,0.000431,0.002821
25169000,0.0324,0.013523,0.002678,0.000431,0.002351
25170000,0.0324,0.013523,0.002678,0.000431,0.002468
25171000,0.0324,0.013523,0.002678,0.000431,0.002468
25172000,0.0324,0.013523,0.002678,0.000431,0.002586
25173000,0.0324,0.013523,0.002678,0.000431,0.002703
25174000,0.0324,0.013523,0.002678,0.000431,0.002233
25175000,0.0324,0.013523,0.002678,0.000431,0.002586
25176000,0.0324,0.013523,0.002678,0.000431,0.002468
25177000,0.0324,0.013523,0.002678,0.000431,0.002703
25178000,0.0324,0.013523,0.002678,0.000431,0.002351
25179000,0.0324,0.013523,0.002678,0.000431,0.002586
25180000,0.0324,0.013523,0.002678,0.000431,0.002351
25181000,0.0324,0.013523,0.002678,0.000431,0.002586
25182000,0.0324,0.013523,0.002678,0.000431,0.004349
25183000,0.0324,0.013523,0.002678,0.000431,0.001645
25184000,0.0324,0.013523,0.002678,0.000431,0.001880
25185000,0.0324,0.013523,0.002678,0.000431,0.001528
25186000,0.0324,0.013523,0.002678,0.000431,0.001763
25187000,0.0324,0.013523,0.002678,0.000431,0.001528
25188000,0.0324,0.013523,0.002678,0.000431,0.001763
25189000,0.0324,0.013523,0.002678,0.000431,0.001763
25190000,0.0324,0.013523,0.002678,0.000431,0.001528
25191000,0.0324,0.013523,0.002678,0.000431,0.001880
25192000,0.0324,0.013523,0.002678,0.000431,0.001410
25193000,0.0324,0.013523,0.002678,0.000431,0.001880
25194000,0.0324,0.013523,0.002678,0.000431,0.001763
25195000,0.0324,0.013523,0.002678,0.000431,0.001528
25196000,0.0324,0.013523,0.002678,0.000431,0.001763
25197000,0.0324,0.013523,0.002678,0.000431,0.001528
25198000,0.0324,0.013523,0.002678,0.000431,0.001645
25199000,0.0324,0.013523,0.002678,0.000431,0.001763
25200000,0.0324,0.013523,0.002678,0.000431,0.001763
25201000,0.0324,0.013523,0.002678,0.000431,0.001528
25202000,0.0324,0.013523,0.002678,0.000431,0.001763
25203000,0.0324,0.013523,0.002678,0.000431,0.001645
25204000,0.0324,0.013523,0.002678,0.000431,0.001645
25205000,0.0324,0.013523,0.002678,0.000431,0.001880
25206000,0.0324,0.013523,0.002678,0.000431,0.001528
25207000,0.0324,0.013523,0.002678,0.000431,0.001763
25208000,0.0324,0.013523,0.002678,0.000431,0.001528
25209000,0.0324,0.013523,0.002678,0.000431,0.001763
25210000,0.0324,0.013523,0.002678,0.000431,0.001645
25211000,0.0324,0.013523,0.002678,0.000431,0.001645
25212000,0.0324,0.013523,0.002678,0.000431,0.001763
25213000,0.0324,0.013523,0.002678,0.000431,0.001528
25214000,0.0324,0.013523,0.002678,0.000431,0.001763
25215000,0.0324,0.013523,0.002678,0.000431,0.001528
25216000,0.0324,0.013523,0.002678,0.000431,0.001880
25217000,0.0324,0.013523,0.002678,0.000431,0.001528
25218000,0.0324,0.013523,0.002678,0.000431,0.001645
25219000,0.0324,0.013523,0.002678,0.000431,0.001880
25220000,0.0324,0.013523,0.002678,0.000431,0.001528
25221000,0.0324,0.013523,0.002678,0.000431,0.001763
25222000,0.0324,0.013523,0.002678,0.000431,0.001645
25223000,0.0324,0.013523,0.002678,0.000431,0.001528
25224000,0.0324,0.013523,0.002678,0.000431,0.001763
25225000,0.0324,0.013523,0.002678,0.000431,0.001763
25226000,0.0324,0.013523,0.002678,0.000431,0.001645
25227000,0.0324,0.013523,0.002678,0.000431,0.001645
25228000,0.0324,0.013523,0.002678,0.000431,0.001645
25229000,0.0324,0.013523,0.002678,0.000431,0.001763
25230000,0.0324,0.013523,0.002678,0.000431,0.001645
25231000,0.0324,0.013523,0.002678,0.000431,0.001645
25232000,0.0324,0.013523,0.002678,0.000431,0.001763
25233000,0.0324,0.013523,0.002678,0.000431,0.001528
25234000,0.0324,0.013523,0.002678,0.000431,0.001763
25235000,0.0324,0.013523,0.002678,0.000431,0.001645
25236000,0.0324,0.013523,0.002678,0.000431,0.001645
25237000,0.0324,0.013523,0.002678,0.000431,0.003408
25238000,0.0324,0.013523,0.002678,0.000431,0.002821
25239000,0.0324,0.013523,0.002678,0.000431,0.000823
25240000,0.0324,0.013523,0.002678,0.000431,0.000823
25241000,0.0324,0.013523,0.002678,0.000431,0.000940
25242000,0.0324,0.013523,0.002678,0.000431,0.000705
25243000,0.0324,0.013523,0.002678,0.000431,0.000940
25244000,0.0324,0.013523,0.002678,0.000431,0.000823
25245000,0.0324,0.013523,0.002678,0.000431,0.000823
25246000,0.0324,0.013523,0.002678,0.000431,0.000705
25247000,0.0324,0.013523,0.002678,0.000431,0.000940
25248000,0.0324,0.013523,0.002678,0.000431,0.000940
25249000,0.0324,0.013523,0.002678,0.000431,0.000705
25250000,0.0324,0.013523,0.002678,0.000431,0.000940
25251000,0.0324,0.013523,0.002678,0.000431,0.000705
25252000,0.0324,0.013523,0.002678,0.000431,0.000940
25253000,0.0324,0.013523,0.002678,0.000431,0.000823
25254000,0.0324,0.013523,0.002678,0.000431,0.000823
25255000,0.0324,0.013523,0.002678,0.000431,0.000940
25256000,0.0324,0.013523,0.002678,0.000431,0.000705
25257000,0.0324,0.013523,0.002678,0.000431,0.000940
25258000,0.0324,0.013523,0.002678,0.000431,0.000705
25259000,0.0324,0.013523,0.002678,0.000431,0.000823
25260000,0.0324,0.013523,0.002678,0.000431,0.000823
25261000,0.0324,0.013523,0.002678,0.000431,0.000940
25262000,0.0324,0.013523,0.002678,0.000431,0.000705
25263000,0.0324,0.013523,0.002678,0.000431,0.000940
25264000,0.0324,0.013523,0.002678,0.000431,0.000823
25265000,0.0324,0.013523,0.002678,0.000431,0.000823
25266000,0.0324,0.013523,0.002678,0.000431,0.000823
25267000,0.0324,0.013523,0.002678,0.000431,0.000823
25268000,0.0324,0.013523,0.002678,0.000431,0.000823
25269000,0.0324,0.013523,0.002678,0.000431,0.000823
25270000,0.0324,0.013523,0.002678,0.000431,0.000940
25271000,0.0324,0.013523,0.002678,0.000431,0.000705
25272000,0.0324,0.013523,0.002678,0.000431,0.000823
25273000,0.0324,0.013523,0.002678,0.000431,0.000940
25274000,0.0324,0.013523,0.002678,0.000431,0.000823
25275000,0.0324,0.013523,0.002678,0.000431,0.000823
25276000,0.0324,0.013523,0.002678,0.000431,0.000823
25277000,0.0324,0.013523,0.002678,0.000431,0.000705
25278000,0.0324,0.013523,0.002678,0.000431,0.000940
25279000,0.0324,0.013523,0.002678,0.000431,0.000940
25280000,0.0324,0.013523,0.002678,0.000431,0.000705
25281000,0.0324,0.013523,0.002678,0.000431,0.000940
25282000,0.0324,0.013523,0.002678,0.000431,0.000705
25283000,0.0324,0.013523,0.002678,0.000431,0.000940
25284000,0.0324,0.013523,0.002678,0.000431,0.000940
25285000,0.0324,0.013523,0.002678,0.000431,0.000705
25286000,0.0324,0.013523,0.002678,0.000431,0.000940
25287000,0.0324,0.013523,0.002678,0.000431,0.000705
25288000,0.0324,0.013523,0.002678,0.000431,0.000940
25289000,0.0324,0.013523,0.002678,0.000431,0.000823
25290000,0.0324,0.013523,0.002678,0.000431,0.011753
25291000,0.0324,0.013523,0.002678,0.000431,0.449545
25292000,0.0324,0.013523,0.002678,0.000431,0.604800
25293000,0.0324,0.013523,0.002678,0.000431,0.133982
25294000,0.0324,0.013523,0.002678,0.000431,0.131632
25295000,0.0324,0.013523,0.002678,0.000431,0.205792
25296000,0.0324,0.013523,0.002678,0.000431,0.546741
25297000,0.0324,0.013523,0.002678,0.000431,0.245281
25298000,0.0324,0.013523,0.002678,0.000431,0.281245
25299000,0.0324,0.013523,0.002678,0.000431,0.231060
25300000,0.0324,0.013523,0.002678,0.000431,0.137273
25301000,0.0324,0.013523,0.002678,0.000431,0.174999
25302000,0.0324,0.013523,0.002678,0.000431,0.104718
25303000,0.0324,0.013523,0.002678,0.000431,0.469878
25304000,0.0324,0.013523,0.002678,0.000431,0.075453
25305000,0.0324,0.013523,0.002678,0.000431,0.039254
25306000,0.0324,0.013523,0.002678,0.000431,0.036551
25307000,0.0324,0.013523,0.002678,0.000431,0.034318
25308000,0.0324,0.013523,0.002678,0.000431,0.034553
25309000,0.0324,0.013523,0.002678,0.000431,0.025151
25310000,0.0324,0.013523,0.002678,0.000431,0.025856
25311000,0.0324,0.013523,0.002678,0.000431,0.023858
25312000,0.0324,0.013523,0.002678,0.000431,0.018922
25313000,0.0324,0.013523,0.002678,0.000431,0.019980
25314000,0.0324,0.013523,0.002678,0.000431,0.015984
25315000,0.0324,0.013523,0.002678,0.000431,0.013398
25316000,0.0324,0.013523,0.002678,0.000431,0.010813
25317000,0.0324,0.013523,0.002678,0.000431,0.009755
25318000,0.0324,0.013523,0.002678,0.000431,0.012223
25319000,0.0324,0.013523,0.002678,0.000431,0.009050
25320000,0.0324,0.013523,0.002678,0.000431,0.009990
25321000,0.0324,0.013523,0.002678,0.000431,0.008932
25322000,0.0324,0.013523,0.002678,0.000431,0.013398
25323000,0.0324,0.013523,0.002678,0.000431,0.009990
25324000,0.0324,0.013523,0.002678,0.000431,0.008815
25325000,0.0324,0.013523,0.002678,0.000431,0.005524
25326000,0.0324,0.013523,0.002678,0.000431,0.004936
25327000,0.0324,0.013523,0.002678,0.000431,0.005054
25328000,0.0324,0.013523,0.002678,0.000431,0.008109
25329000,0.0324,0.013523,0.002678,0.000431,0.001763
25330000,0.0324,0.013523,0.002678,0.000431,0.002351
25331000,0.0324,0.013523,0.002678,0.000431,0.001645
25332000,0.0324,0.013523,0.002678,0.000431,0.001998
25333000,0.0324,0.013523,0.002678,0.000431,0.002116
25334000,0.0324,0.013523,0.002678,0.000431,0.001880
25335000,0.0324,0.013523,0.002678,0.000431,0.002116
25336000,0.0324,0.013523,0.002678,0.000431,0.001998
25337000,0.0324,0.013523,0.002678,0.000431,0.001645
25338000,0.0324,0.013523,0.002678,0.000431,0.002351
25339000,0.0324,0.013523,0.002678,0.000431,0.001998
25340000,0.0324,0.013523,0.002678,0.000431,0.002116
25341000,0.0324,0.013523,0.002678,0.000431,0.001763
25342000,0.0324,0.013523,0.002678,0.000431,0.001880
25343000,0.0324,0.013523,0.002678,0.000431,0.002351
25344000,0.0324,0.013523,0.002678,0.000431,0.001645
25345000,0.0324,0.013523,0.002678,0.000431,0.002233
25346000,0.0324,0.013523,0.002678,0.000431,0.001880
25347000,0.0324,0.013523,0.002678,0.000431,0.001998
25348000,0.0324,0.013523,0.002678,0.000431,0.002233
25349000,0.0324,0.013523,0.002678,0.000431,0.001528
25350000,0.0324,0.013523,0.002678,0.000431,0.002468
25351000,0.0324,0.013523,0.002678,0.000431,0.001763
25352000,0.0324,0.013523,0.002678,0.000431,0.001998
25353000,0.0324,0.013523,0.002678,0.000431,0.003878
25354000,0.0324,0.013523,0.002678,0.000431,0.000823
25355000,0.0324,0.013523,0.002678,0.000431,0.001293
25356000,0.0324,0.013523,0.002678,0.000431,0.001058
25357000,0.0324,0.013523,0.002678,0.000431,0.001058
25358000,0.0324,0.013523,0.002678,0.000431,0.001293
25359000,0.0324,0.013523,0.002678,0.000431,0.000940
25360000,0.0324,0.013523,0.002678,0.000431,0.001058
25361000,0.0324,0.013523,0.002678,0.000431,0.001293
25362000,0.0324,0.013523,0.002678,0.000431,0.000940
25363000,0.0324,0.013523,0.002678,0.000431,0.001410
25364000,0.0324,0.013523,0.002678,0.000431,0.000940
25365000,0.0324,0.013523,0.002678,0.000431,0.001058
25366000,0.0324,0.013523,0.002678,0.000431,0.001410
25367000,0.0324,0.013523,0.002678,0.000431,0.001058
25368000,0.0324,0.013523,0.002678,0.000431,0.001528
25369000,0.0324,0.013523,0.002678,0.000431,0.000823
25370000,0.0324,0.013523,0.002678,0.000431,0.001058
25371000,0.0324,0.013523,0.002678,0.000431,0.001410
25372000,0.0324,0.013523,0.002678,0.000431,0.000823
25373000,0.0324,0.013523,0.002678,0.000431,0.055356
25374000,0.0324,0.013523,0.002678,0.000431,0.471641
25375000,0.0324,0.013523,0.002678,0.000431,0.605153
25376000,0.0324,0.013523,0.002678,0.000431,0.132572
25377000,0.0324,0.013523,0.002678,0.000431,0.133512
25378000,0.0324,0.013523,0.002678,0.000431,0.528994
25379000,0.0324,0.013523,0.002678,0.000431,0.241403
25380000,0.0324,0.013523,0.002678,0.000431,0.239522
25381000,0.0324,0.013523,0.002678,0.000431,0.317679
25382000,0.0324,0.013523,0.002678,0.000431,0.152081
25383000,0.0324,0.013523,0.002678,0.000431,0.145147
25384000,0.0324,0.013523,0.002678,0.000431,0.160779
25385000,0.0324,0.013523,0.002678,0.000431,0.166420
25386000,0.0324,0.013523,0.002678,0.000431,0.418283
25387000,0.0324,0.013523,0.002678,0.000431,0.059704
25388000,0.0324,0.013523,0.002678,0.000431,0.042075
25389000,0.0324,0.013523,0.002678,0.000431,0.038902
25390000,0.0324,0.013523,0.002678,0.000431,0.030675
25391000,0.0324,0.013523,0.002678,0.000431,0.027854
25392000,0.0324,0.013523,0.002678,0.000431,0.021038
25393000,0.0324,0.013523,0.002678,0.000431,0.018922
25394000,0.0324,0.013523,0.002678,0.000431,0.014573
25395000,0.0324,0.013523,0.002678,0.000431,0.016454
25396000,0.0324,0.013523,0.002678,0.000431,0.010460
25397000,0.0324,0.013523,0.002678,0.000431,0.011988
25398000,0.0324,0.013523,0.002678,0.000431,0.008109
25399000,0.0324,0.013523,0.002678,0.000431,0.006229
25400000,0.0324,0.013523,0.002678,0.000431,0.006817
25401000,0.0324,0.013523,0.002678,0.000431,0.005876
25402000,0.0324,0.013523,0.002678,0.000431,0.007992
25403000,0.0324,0.013523,0.002678,0.000431,0.006464
25404000,0.0324,0.013523,0.002678,0.000431,0.004113
25405000,0.0324,0.013523,0.002678,0.000431,0.004466
25406000,0.0324,0.013523,0.002678,0.000431,0.004466
25407000,0.0324,0.013523,0.002678,0.000431,0.003996
25408000,0.0324,0.013523,0.002678,0.000431,0.004231
25409000,0.0324,0.013523,0.002678,0.000431,0.004231
25410000,0.0324,0.013523,0.002678,0.000431,0.004466
25411000,0.0324,0.013523,0.002678,0.000431,0.003996
25412000,0.0324,0.013523,0.002678,0.000431,0.004584
25413000,0.0324,0.013523,0.002678,0.000431,0.004113
25414000,0.0324,0.013523,0.002678,0.000431,0.004349
25415000,0.0324,0.013523,0.002678,0.000431,0.004231
25416000,0.0324,0.013523,0.002678,0.000431,0.004231
25417000,0.0324,0.013523,0.002678,0.000431,0.004349
25418000,0.0324,0.013523,0.002678,0.000431,0.004113
25419000,0.0324,0.013523,0.002678,0.000431,0.004466
25420000,0.0324,0.013523,0.002678,0.000431,0.004936
25421000,0.0324,0.013523,0.002678,0.000431,0.004113
25422000,0.0324,0.013523,0.002678,0.000431,0.003408
25423000,0.0324,0.013523,0.002678,0.000431,0.003408
25424000,0.0324,0.013523,0.002678,0.000431,0.003408
25425000,0.0324,0.013523,0.002678,0.000431,0.003408
25426000,0.0324,0.013523,0.002678,0.000431,0.003526
25427000,0.0324,0.013523,0.002678,0.000431,0.003173
25428000,0.0324,0.013523,0.002678,0.000431,0.003526
25429000,0.0324,0.013523,0.002678,0.000431,0.003291
25430000,0.0324,0.013523,0.002678,0.000431,0.003408
25431000,0.0324,0.013523,0.002678,0.000431,0.003408
25432000,0.0324,0.013523,0.002678,0.000431,0.003291
25433000,0.0324,0.013523,0.002678,0.000431,0.003643
25434000,0.0324,0.013523,0.002678,0.000431,0.003173
25435000,0.0324,0.013523,0.002678,0.000431,0.003526
25436000,0.0324,0.013523,0.002678,0.000431,0.003291
25437000,0.0324,0.013523,0.002678,0.000431,0.003408
25438000,0.0324,0.013523,0.002678,0.000431,0.003643
25439000,0.0324,0.013523,0.002678,0.000431,0.003291
25440000,0.0324,0.013523,0.002678,0.000431,0.003408
25441000,0.0324,0.013523,0.002678,0.000431,0.003173
25442000,0.0324,0.013523,0.002678,0.000431,0.003643
25443000,0.0324,0.013523,0.002678,0.000431,0.003291
25444000,0.0324,0.013523,0.002678,0.000431,0.003291
25445000,0.0324,0.013523,0.002678,0.000431,0.003526
25446000,0.0324,0.013523,0.002678,0.000431,0.003173
25447000,0.0324,0.013523,0.002678,0.000431,0.003643
25448000,0.0324,0.013523,0.002678,0.000431,0.003173
25449000,0.0324,0.013523,0.002678,0.000431,0.003643
25450000,0.0324,0.013523,0.002678,0.000431,0.003056
25451000,0.0324,0.013523,0.002678,0.000431,0.003408
25452000,0.0324,0.013523,0.002678,0.000431,0.003526
25453000,0.0324,0.013523,0.002678,0.000431,0.003408
25454000,0.0324,0.013523,0.002678,0.000431,0.003526
25455000,0.0324,0.013523,0.002678,0.000431,0.003056
25456000,0.0324,0.013523,0.002678,0.000431,0.003526
25457000,0.0324,0.013523,0.002678,0.000431,0.003408
25458000,0.0324,0.013523,0.002678,0.000431,0.003408
25459000,0.0324,0.013523,0.002678,0.000431,0.003408
25460000,0.0324,0.013523,0.002678,0.000431,0.006229
25461000,0.0324,0.013523,0.002678,0.000431,0.002821
25462000,0.0324,0.013523,0.002678,0.000431,0.001410
25463000,0.0324,0.013523,0.002678,0.000431,0.001880
25464000,0.0324,0.013523,0.002678,0.000431,0.001763
25465000,0.0324,0.013523,0.002678,0.000431,0.001645
25466000,0.0324,0.013523,0.002678,0.000431,0.001763
25467000,0.0324,0.013523,0.002678,0.000431,0.001645
25468000,0.0324,0.013523,0.002678,0.000431,0.001763
25469000,0.0324,0.013523,0.002678,0.000431,0.001645
25470000,0.0324,0.013523,0.002678,0.000431,0.001763
25471000,0.0324,0.013523,0.002678,0.000431,0.001645
25472000,0.0324,0.013523,0.002678,0.000431,0.001763
25473000,0.0324,0.013523,0.002678,0.000431,0.001763
25474000,0.0324,0.013523,0.002678,0.000431,0.001645
25475000,0.0324,0.013523,0.002678,0.000431,0.001763
25476000,0.0324,0.013523,0.002678,0.000431,0.001763
25477000,0.0324,0.013523,0.002678,0.000431,0.001528
25478000,0.0324,0.013523,0.002678,0.000431,0.001763
25479000,0.0324,0.013523,0.002678,0.000431,0.001880
25480000,0.0324,0.013523,0.002678,0.000431,0.001645
25481000,0.0324,0.013523,0.002678,0.000431,0.001645
25482000,0.0324,0.013523,0.002678,0.000431,0.001645
25483000,0.0324,0.013523,0.002678,0.000431,0.001880
25484000,0.0324,0.013523,0.002678,0.000431,0.001763
25485000,0.0324,0.013523,0.002678,0.000431,0.001528
25486000,0.0324,0.013523,0.002678,0.000431,0.001880
25487000,0.0324,0.013523,0.002678,0.000431,0.001528
25488000,0.0324,0.013523,0.002678,0.000431,0.001880
25489000,0.0324,0.013523,0.002678,0.000431,0.001645
25490000,0.0324,0.013523,0.002678,0.000431,0.001763
25491000,0.0324,0.013523,0.002678,0.000431,0.001645
25492000,0.0324,0.013523,0.002678,0.000431,0.001645
25493000,0.0324,0.013523,0.002678,0.000431,0.001880
25494000,0.0324,0.013523,0.002678,0.000431,0.001763
25495000,0.0324,0.013523,0.002678,0.000431,0.001645
25496000,0.0324,0.013523,0.002678,0.000431,0.001645
25497000,0.0324,0.013523,0.002678,0.000431,0.001763
25498000,0.0324,0.013523,0.002678,0.000431,0.001763
25499000,0.0324,0.013523,0.002678,0.000431,0.001645
25500000,0.0324,0.013523,0.002678,0.000431,0.001763
25501000,0.0324,0.013523,0.002678,0.000431,0.001645
25502000,0.0324,0.013523,0.002678,0.000431,0.001880
25503000,0.0324,0.013523,0.002678,0.000431,0.001645
25504000,0.0324,0.013523,0.002678,0.000431,0.001645
25505000,0.0324,0.013523,0.002678,0.000431,0.001645
25506000,0.0324,0.013523,0.002678,0.000431,0.001763
25507000,0.0324,0.013523,0.002678,0.000431,0.001880
25508000,0.0324,0.013523,0.002678,0.000431,0.001528
25509000,0.0324,0.013523,0.002678,0.000431,0.001880
25510000,0.0324,0.013523,0.002678,0.000431,0.001528
25511000,0.0324,0.013523,0.002678,0.000431,0.001645
25512000,0.0324,0.013523,0.002678,0.000431,0.001880
25513000,0.0324,0.013523,0.002678,0.000431,0.001763
25514000,0.0324,0.013523,0.002678,0.000431,0.001645
25515000,0.0324,0.013523,0.002678,0.000431,0.001645
25516000,0.0324,0.013523,0.002678,0.000431,0.001763
25517000,0.0324,0.013523,0.002678,0.000431,0.001763
25518000,0.0324,0.013523,0.002678,0.000431,0.001645
25519000,0.0324,0.013523,0.002678,0.000431,0.001645
25520000,0.0324,0.013523,0.002678,0.000431,0.001880
25521000,0.0324,0.013523,0.002678,0.000431,0.001645
25522000,0.0324,0.013523,0.002678,0.000431,0.001645
25523000,0.0324,0.013523,0.002678,0.000431,0.001763
25524000,0.0324,0.013523,0.002678,0.000431,0.001763
25525000,0.0324,0.013523,0.002678,0.000431,0.001763
25526000,0.0324,0.013523,0.002678,0.000431,0.001645
25527000,0.0324,0.013523,0.002678,0.000431,0.001763
25528000,0.0324,0.013523,0.002678,0.000431,0.001763
25529000,0.0324,0.013523,0.002678,0.000431,0.001645
25530000,0.0324,0.013523,0.002678,0.000431,0.001645
25531000,0.0324,0.013523,0.002678,0.000431,0.001763
25532000,0.0324,0.013523,0.002678,0.000431,0.001763
25533000,0.0324,0.013523,0.002678,0.000431,0.001528
25534000,0.0324,0.013523,0.002678,0.000431,0.001880
25535000,0.0324,0.013523,0.002678,0.000431,0.001763
25536000,0.0324,0.013523,0.002678,0.000431,0.001763
25537000,0.0324,0.013523,0.002678,0.000431,0.001528
25538000,0.0324,0.013523,0.002678,0.000431,0.001763
25539000,0.0324,0.013523,0.002678,0.000431,0.001645
25540000,0.0324,0.013523,0.002678,0.000431,0.001763
25541000,0.0324,0.013523,0.002678,0.000431,0.003643
25542000,0.0324,0.013523,0.002678,0.000431,0.000823
25543000,0.0324,0.013523,0.002678,0.000431,0.000940
25544000,0.0324,0.013523,0.002678,0.000431,0.000705
25545000,0.0324,0.013523,0.002678,0.000431,0.000940
25546000,0.0324,0.013523,0.002678,0.000431,0.000823
25547000,0.0324,0.013523,0.002678,0.000431,0.000823
25548000,0.0324,0.013523,0.002678,0.000431,0.000940
25549000,0.0324,0.013523,0.002678,0.000431,0.000705
25550000,0.0324,0.013523,0.002678,0.000431,0.000940
25551000,0.0324,0.013523,0.002678,0.000431,0.000705
25552000,0.0324,0.013523,0.002678,0.000431,0.000940
25553000,0.0324,0.013523,0.002678,0.000431,0.000823
25554000,0.0324,0.013523,0.002678,0.000431,0.000823
25555000,0.0324,0.013523,0.002678,0.000431,0.000823
25556000,0.0324,0.013523,0.002678,0.000431,0.000823
25557000,0.0324,0.013523,0.002678,0.000431,0.000940
25558000,0.0324,0.013523,0.002678,0.000431,0.000705
25559000,0.0324,0.013523,0.002678,0.000431,0.197565
25560000,0.0324,0.013523,0.002678,0.000431,0.565193
25561000,0.0324,0.013523,0.002678,0.000431,0.405590
25562000,0.0324,0.013523,0.002678,0.000431,0.131632
25563000,0.0324,0.013523,0.002678,0.000431,0.134452
25564000,0.0324,0.013523,0.002678,0.000431,0.627483
25565000,0.0324,0.013523,0.002678,0.000431,0.245399
25566000,0.0324,0.013523,0.002678,0.000431,0.247514
25567000,0.0324,0.013523,0.002678,0.000431,0.270315
25568000,0.0324,0.013523,0.002678,0.000431,0.144795
25569000,0.0324,0.013523,0.002678,0.000431,0.155960
25570000,0.0324,0.013523,0.002678,0.000431,0.100252
25571000,0.0324,0.013523,0.002678,0.000431,0.446019
25572000,0.0324,0.013523,0.002678,0.000431,0.118821
25573000,0.0324,0.013523,0.002678,0.000431,0.047246
25574000,0.0324,0.013523,0.002678,0.000431,0.041370
25575000,0.0324,0.013523,0.002678,0.000431,0.029852
25576000,0.0324,0.013523,0.002678,0.000431,0.022095
25577000,0.0324,0.013523,0.002678,0.000431,0.019745
25578000,0.0324,0.013523,0.002678,0.000431,0.019980
25579000,0.0324,0.013523,0.002678,0.000431,0.015866
25580000,0.0324,0.013523,0.002678,0.000431,0.013046
25581000,0.0324,0.013523,0.002678,0.000431,0.011400
25582000,0.0324,0.013523,0.002678,0.000431,0.014573
25583000,0.0324,0.013523,0.002678,0.000431,0.009755
25584000,0.0324,0.013523,0.002678,0.000431,0.010813
25585000,0.0324,0.013523,0.002678,0.000431,0.008932
25586000,0.0324,0.013523,0.002678,0.000431,0.008227
25587000,0.0324,0.013523,0.002678,0.000431,0.008462
25588000,0.0324,0.013523,0.002678,0.000431,0.008227
25589000,0.0324,0.013523,0.002678,0.000431,0.008815
25590000,0.0324,0.013523,0.002678,0.000431,0.008227
25591000,0.0324,0.013523,0.002678,0.000431,0.008580
25592000,0.0324,0.013523,0.002678,0.000431,0.013046
25593000,0.0324,0.013523,0.002678,0.000431,0.010107
25594000,0.0324,0.013523,0.002678,0.000431,0.007404
25595000,0.0324,0.013523,0.002678,0.000431,0.004936
25596000,0.0324,0.013523,0.002678,0.000431,0.005171
25597000,0.0324,0.013523,0.002678,0.000431,0.005406
25598000,0.0324,0.013523,0.002678,0.000431,0.004819
25599000,0.0324,0.013523,0.002678,0.000431,0.004936
25600000,0.0324,0.013523,0.002678,0.000431,0.005406
25601000,0.0324,0.013523,0.002678,0.000431,0.005171
25602000,0.0324,0.013523,0.002678,0.000431,0.005054
25603000,0.0324,0.013523,0.002678,0.000431,0.006464
25604000,0.0324,0.013523,0.002678,0.000431,0.004231
25605000,0.0324,0.013523,0.002678,0.000431,0.004231
25606000,0.0324,0.013523,0.002678,0.000431,0.004349
25607000,0.0324,0.013523,0.002678,0.000431,0.004113
25608000,0.0324,0.013523,0.002678,0.000431,0.004349
25609000,0.0324,0.013523,0.002678,0.000431,0.006464
25610000,0.0324,0.013523,0.002678,0.000431,0.003291
25611000,0.0324,0.013523,0.002678,0.000431,0.003526
25612000,0.0324,0.013523,0.002678,0.000431,0.003408
25613000,0.0324,0.013523,0.002678,0.000431,0.003173
25614000,0.0324,0.013523,0.002678,0.000431,0.003408
25615000,0.0324,0.013523,0.002678,0.000431,0.003291
25616000,0.0324,0.013523,0.002678,0.000431,0.003291
25617000,0.0324,0.013523,0.002678,0.000431,0.003526
25618000,0.0324,0.013523,0.002678,0.000431,0.003291
25619000,0.0324,0.013523,0.002678,0.000431,0.003291
25620000,0.0324,0.013523,0.002678,0.000431,0.003291
25621000,0.0324,0.013523,0.002678,0.000431,0.003408
25622000,0.0324,0.013523,0.002678,0.000431,0.003408
25623000,0.0324,0.013523,0.002678,0.000431,0.003408
25624000,0.0324,0.013523,0.002678,0.000431,0.003291
25625000,0.0324,0.013523,0.002678,0.000431,0.005524
25626000,0.0324,0.013523,0.002678,0.000431,0.002586
25627000,0.0324,0.013523,0.002678,0.000431,0.002468
25628000,0.0324,0.013523,0.002678,0.000431,0.002586
25629000,0.0324,0.013523,0.002678,0.000431,0.002468
25630000,0.0324,0.013523,0.002678,0.000431,0.002468
25631000,0.0324,0.013523,0.002678,0.000431,0.002703
25632000,0.0324,0.013523,0.002678,0.000431,0.002468
25633000,0.0324,0.013523,0.002678,0.000431,0.002468
25634000,0.0324,0.013523,0.002678,0.000431,0.002468
25635000,0.0324,0.013523,0.002678,0.000431,0.002586
25636000,0.0324,0.013523,0.002678,0.000431,0.002468
25637000,0.0324,0.013523,0.002678,0.000431,0.002468
25638000,0.0324,0.013523,0.002678,0.000431,0.002586
25639000,0.0324,0.013523,0.002678,0.000431,0.002351
25640000,0.0324,0.013523,0.002678,0.000431,0.002703
25641000,0.0324,0.013523,0.002678,0.000431,0.002351
25642000,0.0324,0.013523,0.002678,0.000431,0.002586
25643000,0.0324,0.013523,0.002678,0.000431,0.004349
25644000,0.0324,0.013523,0.002678,0.000431,0.001763
25645000,0.0324,0.013523,0.002678,0.000431,0.001645
25646000,0.0324,0.013523,0.002678,0.000431,0.001528
25647000,0.0324,0.013523,0.002678,0.000431,0.001645
25648000,0.0324,0.013523,0.002678,0.000431,0.001880
25649000,0.0324,0.013523,0.002678,0.000431,0.001645
25650000,0.0324,0.013523,0.002678,0.000431,0.001645
25651000,0.0324,0.013523,0.002678,0.000431,0.001645
25652000,0.0324,0.013523,0.002678,0.000431,0.001645
25653000,0.0324,0.013523,0.002678,0.000431,0.001763
25654000,0.0324,0.013523,0.002678,0.000431,0.001645
25655000,0.0324,0.013523,0.002678,0.000431,0.001763
25656000,0.0324,0.013523,0.002678,0.000431,0.001645
25657000,0.0324,0.013523,0.002678,0.000431,0.001645
25658000,0.0324,0.013523,0.002678,0.000431,0.001645
25659000,0.0324,0.013523,0.002678,0.000431,0.001763
25660000,0.0324,0.013523,0.002678,0.000431,0.001645
25661000,0.0324,0.013523,0.002678,0.000431,0.001645
25662000,0.0324,0.013523,0.002678,0.000431,0.001528
25663000,0.0324,0.013523,0.002678,0.000431,0.001763
25664000,0.0324,0.013523,0.002678,0.000431,0.001645
25665000,0.0324,0.013523,0.002678,0.000431,0.003291
25666000,0.0324,0.013523,0.002678,0.000431,0.000705
25667000,0.0324,0.013523,0.002678,0.000431,0.000823
25668000,0.0324,0.013523,0.002678,0.000431,0.000940
25669000,0.0324,0.013523,0.002678,0.000431,0.000823
25670000,0.0324,0.013523,0.002678,0.000431,0.000823
25671000,0.0324,0.013523,0.002678,0.000431,0.000823
25672000,0.0324,0.013523,0.002678,0.000431,0.000823
25673000,0.0324,0.013523,0.002678,0.000431,0.000823
25674000,0.0324,0.013523,0.002678,0.000431,0.000940
25675000,0.0324,0.013523,0.002678,0.000431,0.000823
25676000,0.0324,0.013523,0.002678,0.000431,0.000823
25677000,0.0324,0.013523,0.002678,0.000431,0.000705
25678000,0.0324,0.013523,0.002678,0.000431,0.000940
25679000,0.0324,0.013523,0.002678,0.000431,0.000940
25680000,0.0324,0.013523,0.002678,0.000431,0.000705
25681000,0.0324,0.013523,0.002678,0.000431,0.000940
25682000,0.0324,0.013523,0.002678,0.000431,0.000705
25683000,0.0324,0.013523,0.002678,0.000431,0.000940
25684000,0.0324,0.013523,0.002678,0.000431,0.000823
25685000,0.0324,0.013523,0.002678,0.000431,0.000823
25686000,0.0324,0.013523,0.002678,0.000431,0.000823
25687000,0.0324,0.013523,0.002678,0.000431,0.000823
25688000,0.0324,0.013523,0.002678,0.000431,0.000823
25689000,0.0324,0.013523,0.002678,0.000431,0.000823
25690000,0.0324,0.013523,0.002678,0.000431,0.000940
25691000,0.0324,0.013523,0.002678,0.000431,0.000823
25692000,0.0324,0.013523,0.002678,0.000431,0.000823
25693000,0.0324,0.013523,0.002678,0.000431,0.000823
25694000,0.0324,0.013523,0.002678,0.000431,0.000823
25695000,0.0324,0.013523,0.002678,0.000431,0.000823
25696000,0.0324,0.013523,0.002678,0.000431,0.000823
25697000,0.0324,0.013523,0.002678,0.000431,0.000940
25698000,0.0324,0.013523,0.002678,0.000431,0.000705
25699000,0.0324,0.013523,0.002678,0.000431,0.000940
25700000,0.0324,0.013523,0.002678,0.000431,0.000705
25701000,0.0324,0.013523,0.002678,0.000431,0.000940
25702000,0.0324,0.013523,0.002678,0.000431,0.000823
25703000,0.0324,0.013523,0.002678,0.000431,0.000823
25704000,0.0324,0.013523,0.002678,0.000431,0.000940
25705000,0.0324,0.013523,0.002678,0.000431,0.000705
25706000,0.0324,0.013523,0.002678,0.000431,0.000940
25707000,0.0324,0.013523,0.002678,0.000431,0.000823
25708000,0.0324,0.013523,0.002678,0.000431,0.000823
25709000,0.0324,0.013523,0.002678,0.000431,0.000823
25710000,0.0324,0.013523,0.002678,0.000431,0.000823
25711000,0.0324,0.013523,0.002678,0.000431,0.000940
25712000,0.0324,0.013523,0.002678,0.000431,0.000705
25713000,0.0324,0.013523,0.002678,0.000431,0.000940
25714000,0.0324,0.013523,0.002678,0.000431,0.000823
25715000,0.0324,0.013523,0.002678,0.000431,0.000823
25716000,0.0324,0.013523,0.002678,0.000431,0.000823
25717000,0.0324,0.013523,0.002678,0.000431,0.000823
25718000,0.0324,0.013523,0.002678,0.000431,0.000823
25719000,0.0324,0.013523,0.002678,0.000431,0.000823
25720000,0.0324,0.013523,0.002678,0.000431,0.000823
25721000,0.0324,0.013523,0.002678,0.000431,0.000823
25722000,0.0324,0.013523,0.002678,0.000431,0.000940
25723000,0.0324,0.013523,0.002678,0.000431,0.000823
25724000,0.0324,0.013523,0.002678,0.000431,0.000823
25725000,0.0324,0.013523,0.002678,0.000431,0.000705
25726000,0.0324,0.013523,0.002678,0.000431,0.000940
25727000,0.0324,0.013523,0.002678,0.000431,0.000940
25728000,0.0324,0.013523,0.002678,0.000431,0.000705
25729000,0.0324,0.013523,0.002678,0.000431,0.000940
25730000,0.0324,0.013523,0.002678,0.000431,0.000705
25731000,0.0324,0.013523,0.002678,0.000431,0.000940
25732000,0.0324,0.013523,0.002678,0.000431,0.000823
25733000,0.0324,0.013523,0.002678,0.000431,0.000823
25734000,0.0324,0.013523,0.002678,0.000431,0.000823
25735000,0.0324,0.013523,0.002678,0.000431,0.000823
25736000,0.0324,0.013523,0.002678,0.000431,0.000940
25737000,0.0324,0.013523,0.002678,0.000431,0.000705
25738000,0.0324,0.013523,0.002678,0.000431,0.000940
25739000,0.0324,0.013523,0.002678,0.000431,0.000823
25740000,0.0324,0.013523,0.002678,0.000431,0.000823
25741000,0.0324,0.013523,0.002678,0.000431,0.000823
25742000,0.0324,0.013523,0.002678,0.000431,0.000823
25743000,0.0324,0.013523,0.002678,0.000431,0.000823
25744000,0.0324,0.013523,0.002678,0.000431,0.000823
25745000,0.0324,0.013523,0.002678,0.000431,0.000940
25746000,0.0324,0.013523,0.002678,0.000431,0.000823
25747000,0.0324,0.013523,0.002678,0.000431,0.000823
25748000,0.0324,0.013523,0.002678,0.000431,0.000705
25749000,0.0324,0.013523,0.002678,0.000431,0.000940
25750000,0.0324,0.013523,0.002678,0.000431,0.000940
25751000,0.0324,0.013523,0.002678,0.000431,0.000705
25752000,0.0324,0.013523,0.002678,0.000431,0.000940
25753000,0.0324,0.013523,0.002678,0.000431,0.000705
25754000,0.0324,0.013523,0.002678,0.000431,0.000940
25755000,0.0324,0.013523,0.002678,0.000431,0.000823
25756000,0.0324,0.013523,0.002678,0.000431,0.000823
25757000,0.0324,0.013523,0.002678,0.000431,0.000940
25758000,0.0324,0.013523,0.002678,0.000431,0.000705
25759000,0.0324,0.013523,0.002678,0.000431,0.000940
25760000,0.0324,0.013523,0.002678,0.000431,0.000705
25761000,0.0324,0.013523,0.002678,0.000431,0.000940
25762000,0.0324,0.013523,0.002678,0.000431,0.000823
25763000,0.0324,0.013523,0.002678,0.000431,0.000823
25764000,0.0324,0.013523,0.002678,0.000431,0.000823
25765000,0.0324,0.013523,0.002678,0.000431,0.000823
25766000,0.0324,0.013523,0.002678,0.000431,0.000940
25767000,0.0324,0.013523,0.002678,0.000431,0.000705
25768000,0.0324,0.013523,0.002678,0.000431,0.000823
25769000,0.0324,0.013523,0.002678,0.000431,0.000823
25770000,0.0324,0.013523,0.002678,0.000431,0.000940
25771000,0.0324,0.013523,0.002678,0.000431,0.000823
25772000,0.0324,0.013523,0.002678,0.000431,0.000823
25773000,0.0324,0.013523,0.002678,0.000431,0.000705
25774000,0.0324,0.013523,0.002678,0.000431,0.000940
25775000,0.0324,0.013523,0.002678,0.000431,0.000940
25776000,0.0324,0.013523,0.002678,0.000431,0.000705
25777000,0.0324,0.013523,0.002678,0.000431,0.000940
25778000,0.0324,0.013523,0.002678,0.000431,0.000705
25779000,0.0324,0.013523,0.002678,0.000431,0.000940
25780000,0.0324,0.013523,0.002678,0.000431,0.000823
25781000,0.0324,0.013523,0.002678,0.000431,0.000823
25782000,0.0324,0.013523,0.002678,0.000431,0.000940
25783000,0.0324,0.013523,0.002678,0.000431,0.000705
25784000,0.0324,0.013523,0.002678,0.000431,0.000940
25785000,0.0324,0.013523,0.002678,0.000431,0.000823
25786000,0.0324,0.013523,0.002678,0.000431,0.000823
25787000,0.0324,0.013523,0.002678,0.000431,0.000823
25788000,0.0324,0.013523,0.002678,0.000431,0.000823
25789000,0.0324,0.013523,0.002678,0.000431,0.000823
25790000,0.0324,0.013523,0.002678,0.000431,0.000823
25791000,0.0324,0.013523,0.002678,0.000431,0.000940
25792000,0.0324,0.013523,0.002678,0.000431,0.000705
25793000,0.0324,0.013523,0.002678,0.000431,0.000940
25794000,0.0324,0.013523,0.002678,0.000431,0.000823
25795000,0.0324,0.013523,0.002678,0.000431,0.000823
25796000,0.0324,0.013523,0.002678,0.000431,0.000705
25797000,0.0324,0.013523,0.002678,0.000431,0.000940
25798000,0.0324,0.013523,0.002678,0.000431,0.000940
25799000,0.0324,0.013523,0.002678,0.000431,0.000705
25800000,0.0324,0.013523,0.002678,0.000431,0.000940
25801000,0.0324,0.013523,0.002678,0.000431,0.000705
25802000,0.0324,0.013523,0.002678,0.000431,0.000940
25803000,0.0324,0.013523,0.002678,0.000431,0.000823
25804000,0.0324,0.013523,0.002678,0.000431,0.000823
25805000,0.0324,0.013523,0.002678,0.000431,0.000940
25806000,0.0324,0.013523,0.002678,0.000431,0.000705
25807000,0.0324,0.013523,0.002678,0.000431,0.000940
25808000,0.0324,0.013523,0.002678,0.000431,0.000823
25809000,0.0324,0.013523,0.002678,0.000431,0.000823
25810000,0.0324,0.013523,0.002678,0.000431,0.000823
25811000,0.0324,0.013523,0.002678,0.000431,0.000823
25812000,0.0324,0.013523,0.002678,0.000431,0.000823
25813000,0.0324,0.013523,0.002678,0.000431,0.000823
25814000,0.0324,0.013523,0.002678,0.000431,0.000940
25815000,0.0324,0.013523,0.002678,0.000431,0.000705
25816000,0.0324,0.013523,0.002678,0.000431,0.000823
25817000,0.0324,0.013523,0.002678,0.000431,0.000940
25818000,0.0324,0.013523,0.002678,0.000431,0.000823
25819000,0.0324,0.013523,0.002678,0.000431,0.000823
25820000,0.0324,0.013523,0.002678,0.000431,0.000823
25821000,0.0324,0.013523,0.002678,0.000431,0.000705
25822000,0.0324,0.013523,0.002678,0.000431,0.000940
25823000,0.0324,0.013523,0.002678,0.000431,0.000940
25824000,0.0324,0.013523,0.002678,0.000431,0.000705
25825000,0.0324,0.013523,0.002678,0.000431,0.000940
25826000,0.0324,0.013523,0.002678,0.000431,0.000705
25827000,0.0324,0.013523,0.002678,0.000431,0.000940
25828000,0.0324,0.013523,0.002678,0.000431,0.000940
25829000,0.0324,0.013523,0.002678,0.000431,0.000705
25830000,0.0324,0.013523,0.002678,0.000431,0.000940
25831000,0.0324,0.013523,0.002678,0.000431,0.000705
25832000,0.0324,0.013523,0.002678,0.000431,0.000940
25833000,0.0324,0.013523,0.002678,0.000431,0.000823
25834000,0.0324,0.013523,0.002678,0.000431,0.000823
25835000,0.0324,0.013523,0.002678,0.000431,0.000823
25836000,0.0324,0.013523,0.002678,0.000431,0.000823
25837000,0.0324,0.013523,0.002678,0.000431,0.000940
25838000,0.0324,0.013523,0.002678,0.000431,0.000705
25839000,0.0324,0.013523,0.002678,0.000431,0.000940
25840000,0.0324,0.013523,0.002678,0.000431,0.000823
25841000,0.0324,0.013523,0.002678,0.000431,0.000823
25842000,0.0324,0.013523,0.002678,0.000431,0.000823
25843000,0.0324,0.013523,0.002678,0.000431,0.000823
25844000,0.0324,0.013523,0.002678,0.000431,0.000823
25845000,0.0324,0.013523,0.002678,0.000431,0.000823
25846000,0.0324,0.013523,0.002678,0.000431,0.000940
25847000,0.0324,0.013523,0.002678,0.000431,0.000705
25848000,0.0324,0.013523,0.002678,0.000431,0.000940
25849000,0.0324,0.013523,0.002678,0.000431,0.000705
25850000,0.0324,0.013523,0.002678,0.000431,0.000940
25851000,0.0324,0.013523,0.002678,0.000431,0.000940
25852000,0.0324,0.013523,0.002678,0.000431,0.000705
25853000,0.0324,0.013523,0.002678,0.000431,0.000940
25854000,0.0324,0.013523,0.002678,0.000431,0.000705
25855000,0.0324,0.013523,0.002678,0.000431,0.000940
25856000,0.0324,0.013523,0.002678,0.000431,0.000823
25857000,0.0324,0.013523,0.002678,0.000431,0.000823
25858000,0.0324,0.013523,0.002678,0.000431,0.000823
25859000,0.0324,0.013523,0.002678,0.000431,0.000823
25860000,0.0324,0.013523,0.002678,0.000431,0.000940
25861000,0.0324,0.013523,0.002678,0.000431,0.000705
25862000,0.0324,0.013523,0.002678,0.000431,0.000940
25863000,0.0324,0.013523,0.002678,0.000431,0.000823
25864000,0.0324,0.013523,0.002678,0.000431,0.000823
25865000,0.0324,0.013523,0.002678,0.000431,0.000823
25866000,0.0324,0.013523,0.002678,0.000431,0.000823
25867000,0.0324,0.013523,0.002678,0.000431,0.000940
25868000,0.0324,0.013523,0.002678,0.000431,0.000705
25869000,0.0324,0.013523,0.002678,0.000431,0.000823
25870000,0.0324,0.013523,0.002678,0.000431,0.000823
25871000,0.0324,0.013523,0.002678,0.000431,0.000940
25872000,0.0324,0.013523,0.002678,0.000431,0.000823
25873000,0.0324,0.013523,0.002678,0.000431,0.000823
25874000,0.0324,0.013523,0.002678,0.000431,0.000705
25875000,0.0324,0.013523,0.002678,0.000431,0.000940
25876000,0.0324,0.013523,0.002678,0.000431,0.000940
25877000,0.0324,0.013523,0.002678,0.000431,0.000705
25878000,0.0324,0.013523,0.002678,0.000431,0.000940
25879000,0.0324,0.013523,0.002678,0.000431,0.000705
25880000,0.0324,0.013523,0.002678,0.000431,0.000940
25881000,0.0324,0.013523,0.002678,0.000431,0.000823
25882000,0.0324,0.013523,0.002678,0.000431,0.000823
25883000,0.0324,0.013523,0.002678,0.000431,0.000940
25884000,0.0324,0.013523,0.002678,0.000431,0.000705
25885000,0.0324,0.013523,0.002678,0.000431,0.000940
25886000,0.0324,0.013523,0.002678,0.000431,0.000823
25887000,0.0324,0.013523,0.002678,0.000431,0.000823
25888000,0.0324,0.013523,0.002678,0.000431,0.000823
25889000,0.0324,0.013523,0.002678,0.000431,0.000823
25890000,0.0324,0.013523,0.002678,0.000431,0.000823
25891000,0.0324,0.013523,0.002678,0.000431,0.000823
25892000,0.0324,0.013523,0.002678,0.000431,0.000940
25893000,0.0324,0.013523,0.002678,0.000431,0.000705
25894000,0.0324,0.013523,0.002678,0.000431,0.000940
25895000,0.0324,0.013523,0.002678,0.000431,0.000823
25896000,0.0324,0.013523,0.002678,0.000431,0.000823
25897000,0.0324,0.013523,0.002678,0.000431,0.000705
25898000,0.0324,0.013523,0.002678,0.000431,0.000940
25899000,0.0324,0.013523,0.002678,0.000431,0.000940
25900000,0.0324,0.013523,0.002678,0.000431,0.000705
25901000,0.0324,0.013523,0.002678,0.000431,0.000940
25902000,0.0324,0.013523,0.002678,0.000431,0.000705
25903000,0.0324,0.013523,0.002678,0.000431,0.000940
25904000,0.0324,0.013523,0.002678,0.000431,0.000823
25905000,0.0324,0.013523,0.002678,0.000431,0.000823
25906000,0.0324,0.013523,0.002678,0.000431,0.000940
25907000,0.0324,0.013523,0.002678,0.000431,0.000705
25908000,0.0324,0.013523,0.002678,0.000431,0.000940
25909000,0.0324,0.013523,0.002678,0.000431,0.000705
25910000,0.0324,0.013523,0.002678,0.000431,0.000940
25911000,0.0324,0.013523,0.002678,0.000431,0.000823
25912000,0.0324,0.013523,0.002678,0.000431,0.000823
25913000,0.0324,0.013523,0.002678,0.000431,0.000823
25914000,0.0324,0.013523,0.002678,0.000431,0.000823
25915000,0.0324,0.013523,0.002678,0.000431,0.000823
25916000,0.0324,0.013523,0.002678,0.000431,0.000823
25917000,0.0324,0.013523,0.002678,0.000431,0.000823
25918000,0.0324,0.013523,0.002678,0.000431,0.000823
25919000,0.0324,0.013523,0.002678,0.000431,0.000940
25920000,0.0324,0.013523,0.002678,0.000431,0.000823
25921000,0.0324,0.013523,0.002678,0.000431,0.000823
25922000,0.0324,0.013523,0.002678,0.000431,0.000705
25923000,0.0324,0.013523,0.002678,0.000431,0.000940
25924000,0.0324,0.013523,0.002678,0.000431,0.000940
25925000,0.0324,0.013523,0.002678,0.000431,0.000705
25926000,0.0324,0.013523,0.002678,0.000431,0.000940
25927000,0.0324,0.013523,0.002678,0.000431,0.000705
25928000,0.0324,0.013523,0.002678,0.000431,0.000940
25929000,0.0324,0.013523,0.002678,0.000431,0.000823
25930000,0.0324,0.013523,0.002678,0.000431,0.000823
25931000,0.0324,0.013523,0.002678,0.000431,0.000940
25932000,0.0324,0.013523,0.002678,0.000431,0.000705
25933000,0.0324,0.013523,0.002678,0.000431,0.000940
25934000,0.0324,0.013523,0.002678,0.000431,0.000823
25935000,0.0324,0.013523,0.002678,0.000431,0.000823
25936000,0.0324,0.013523,0.002678,0.000431,0.000823
25937000,0.0324,0.013523,0.002678,0.000431,0.000823
25938000,0.0324,0.013523,0.002678,0.000431,0.000823
25939000,0.0324,0.013523,0.002678,0.000431,0.000823
25940000,0.0324,0.013523,0.002678,0.000431,0.000940
25941000,0.0324,0.013523,0.002678,0.000431,0.000705
25942000,0.0324,0.013523,0.002678,0.000431,0.000940
25943000,0.0324,0.013523,0.002678,0.000431,0.000823
25944000,0.0324,0.013523,0.002678,0.000431,0.000823
25945000,0.0324,0.013523,0.002678,0.000431,0.000705
25946000,0.0324,0.013523,0.002678,0.000431,0.000940
25947000,0.0324,0.013523,0.002678,0.000431,0.000940
25948000,0.0324,0.013523,0.002678,0.000431,0.000705
25949000,0.0324,0.013523,0.002678,0.000431,0.000940
25950000,0.0324,0.013523,0.002678,0.000431,0.000705
25951000,0.0324,0.013523,0.002678,0.000431,0.000940
25952000,0.0324,0.013523,0.002678,0.000431,0.000823
25953000,0.0324,0.013523,0.002678,0.000431,0.000823
25954000,0.0324,0.013523,0.002678,0.000431,0.000940
25955000,0.0324,0.013523,0.002678,0.000431,0.000705
25956000,0.0324,0.013523,0.002678,0.000431,0.000940
25957000,0.0324,0.013523,0.002678,0.000431,0.000823
25958000,0.0324,0.013523,0.002678,0.000431,0.000823
25959000,0.0324,0.013523,0.002678,0.000431,0.000823
25960000,0.0324,0.013523,0.002678,0.000431,0.000823
25961000,0.0324,0.013523,0.002678,0.000431,0.000823
25962000,0.0324,0.013523,0.002678,0.000431,0.000823
25963000,0.0324,0.013523,0.002678,0.000431,0.000940
25964000,0.0324,0.013523,0.002678,0.000431,0.000705
25965000,0.0324,0.013523,0.002678,0.000431,0.000823
25966000,0.0324,0.013523,0.002678,0.000431,0.000940
25967000,0.0324,0.013523,0.002678,0.000431,0.000823
25968000,0.0324,0.013523,0.002678,0.000431,0.000823
25969000,0.0324,0.013523,0.002678,0.000431,0.000823
25970000,0.0324,0.013523,0.002678,0.000431,0.000823
25971000,0.0324,0.013523,0.002678,0.000431,0.000823
25972000,0.0324,0.013523,0.002678,0.000431,0.000940
25973000,0.0324,0.013523,0.002678,0.000431,0.000823
25974000,0.0324,0.013523,0.002678,0.000431,0.000823
25975000,0.0324,0.013523,0.002678,0.000431,0.000705
25976000,0.0324,0.013523,0.002678,0.000431,0.000940
25977000,0.0324,0.013523,0.002678,0.000431,0.000940
25978000,0.0324,0.013523,0.002678,0.000431,0.000705
25979000,0.0324,0.013523,0.002678,0.000431,0.000940
25980000,0.0324,0.013523,0.002678,0.000431,0.000705
25981000,0.0324,0.013523,0.002678,0.000431,0.000940
25982000,0.0324,0.013523,0.002678,0.000431,0.000823
25983000,0.0324,0.013523,0.002678,0.000431,0.000823
25984000,0.0324,0.013523,0.002678,0.000431,0.000823
25985000,0.0324,0.013523,0.002678,0.000431,0.000823
25986000,0.0324,0.013523,0.002678,0.000431,0.000940
25987000,0.0324,0.013523,0.002678,0.000431,0.000823
25988000,0.0324,0.013523,0.002678,0.000431,0.000823
25989000,0.0324,0.013523,0.002678,0.000431,0.000823
25990000,0.0324,0.013523,0.002678,0.000431,0.000823
25991000,0.0324,0.013523,0.002678,0.000431,0.000823
25992000,0.0324,0.013523,0.002678,0.000431,0.000823
25993000,0.0324,0.013523,0.002678,0.000431,0.000940
25994000,0.0324,0.013523,0.002678,0.000431,0.000705
25995000,0.0324,0.013523,0.002678,0.000431,0.000940
25996000,0.0324,0.013523,0.002678,0.000431,0.000823
25997000,0.0324,0.013523,0.002678,0.000431,0.000823
25998000,0.0324,0.013523,0.002678,0.000431,0.000705
25999000,0.0324,0.013523,0.002678,0.000431,0.000940
