Cycle,Area(mm^2),PeakDynamic(W),SubthresholdLeakage(W),GateLeakage(W),RunTimeDynamic(W)
103000000,0.0324,0.013523,0.002678,0.000431,0.004701
103001000,0.0324,0.013523,0.002678,0.000431,0.004701
103002000,0.0324,0.013523,0.002678,0.000431,0.005171
103003000,0.0324,0.013523,0.002678,0.000431,0.004349
103004000,0.0324,0.013523,0.002678,0.000431,0.005289
103005000,0.0324,0.013523,0.002678,0.000431,0.004466
103006000,0.0324,0.013523,0.002678,0.000431,0.005054
103007000,0.0324,0.013523,0.002678,0.000431,0.004701
103008000,0.0324,0.013523,0.002678,0.000431,0.005171
103009000,0.0324,0.013523,0.002678,0.000431,0.004819
103010000,0.0324,0.013523,0.002678,0.000431,0.004584
103011000,0.0324,0.013523,0.002678,0.000431,0.005406
103012000,0.0324,0.013523,0.002678,0.000431,0.005759
103013000,0.0324,0.013523,0.002678,0.000431,0.005406
103014000,0.0324,0.013523,0.002678,0.000431,0.004113
103015000,0.0324,0.013523,0.002678,0.000431,0.003878
103016000,0.0324,0.013523,0.002678,0.000431,0.003996
103017000,0.0324,0.013523,0.002678,0.000431,0.003878
103018000,0.0324,0.013523,0.002678,0.000431,0.004231
103019000,0.0324,0.013523,0.002678,0.000431,0.003761
103020000,0.0324,0.013523,0.002678,0.000431,0.004113
103021000,0.0324,0.013523,0.002678,0.000431,0.003761
103022000,0.0324,0.013523,0.002678,0.000431,0.003996
103023000,0.0324,0.013523,0.002678,0.000431,0.003996
103024000,0.0324,0.013523,0.002678,0.000431,0.004113
103025000,0.0324,0.013523,0.002678,0.000431,0.003878
103026000,0.0324,0.013523,0.002678,0.000431,0.003408
103027000,0.0324,0.013523,0.002678,0.000431,0.003526
103028000,0.0324,0.013523,0.002678,0.000431,0.003291
103029000,0.0324,0.013523,0.002678,0.000431,0.003408
103030000,0.0324,0.013523,0.002678,0.000431,0.003408
103031000,0.0324,0.013523,0.002678,0.000431,0.003173
103032000,0.0324,0.013523,0.002678,0.000431,0.003643
103033000,0.0324,0.013523,0.002678,0.000431,0.003173
103034000,0.0324,0.013523,0.002678,0.000431,0.003408
103035000,0.0324,0.013523,0.002678,0.000431,0.003291
103036000,0.0324,0.013523,0.002678,0.000431,0.003291
103037000,0.0324,0.013523,0.002678,0.000431,0.003408
103038000,0.0324,0.013523,0.002678,0.000431,0.003291
103039000,0.0324,0.013523,0.002678,0.000431,0.003408
103040000,0.0324,0.013523,0.002678,0.000431,0.003408
103041000,0.0324,0.013523,0.002678,0.000431,0.003408
103042000,0.0324,0.013523,0.002678,0.000431,0.003056
103043000,0.0324,0.013523,0.002678,0.000431,0.003526
103044000,0.0324,0.013523,0.002678,0.000431,0.003526
103045000,0.0324,0.013523,0.002678,0.000431,0.004584
103046000,0.0324,0.013523,0.002678,0.000431,0.002586
103047000,0.0324,0.013523,0.002678,0.000431,0.002351
103048000,0.0324,0.013523,0.002678,0.000431,0.002468
103049000,0.0324,0.013523,0.002678,0.000431,0.002586
103050000,0.0324,0.013523,0.002678,0.000431,0.004231
103051000,0.0324,0.013523,0.002678,0.000431,0.001645
103052000,0.0324,0.013523,0.002678,0.000431,0.001880
103053000,0.0324,0.013523,0.002678,0.000431,0.001410
103054000,0.0324,0.013523,0.002678,0.000431,0.001763
103055000,0.0324,0.013523,0.002678,0.000431,0.001880
103056000,0.0324,0.013523,0.002678,0.000431,0.001528
103057000,0.0324,0.013523,0.002678,0.000431,0.001763
103058000,0.0324,0.013523,0.002678,0.000431,0.001528
103059000,0.0324,0.013523,0.002678,0.000431,0.001763
103060000,0.0324,0.013523,0.002678,0.000431,0.001645
103061000,0.0324,0.013523,0.002678,0.000431,0.001763
103062000,0.0324,0.013523,0.002678,0.000431,0.001528
103063000,0.0324,0.013523,0.002678,0.000431,0.001763
103064000,0.0324,0.013523,0.002678,0.000431,0.001645
103065000,0.0324,0.013523,0.002678,0.000431,0.001645
103066000,0.0324,0.013523,0.002678,0.000431,0.001880
103067000,0.0324,0.013523,0.002678,0.000431,0.001528
103068000,0.0324,0.013523,0.002678,0.000431,0.001763
103069000,0.0324,0.013523,0.002678,0.000431,0.001528
103070000,0.0324,0.013523,0.002678,0.000431,0.001763
103071000,0.0324,0.013523,0.002678,0.000431,0.001645
103072000,0.0324,0.013523,0.002678,0.000431,0.001645
103073000,0.0324,0.013523,0.002678,0.000431,0.001763
103074000,0.0324,0.013523,0.002678,0.000431,0.001528
103075000,0.0324,0.013523,0.002678,0.000431,0.001763
103076000,0.0324,0.013523,0.002678,0.000431,0.001528
103077000,0.0324,0.013523,0.002678,0.000431,0.001880
103078000,0.0324,0.013523,0.002678,0.000431,0.001528
103079000,0.0324,0.013523,0.002678,0.000431,0.001763
103080000,0.0324,0.013523,0.002678,0.000431,0.001763
103081000,0.0324,0.013523,0.002678,0.000431,0.001528
103082000,0.0324,0.013523,0.002678,0.000431,0.001645
103083000,0.0324,0.013523,0.002678,0.000431,0.001763
103084000,0.0324,0.013523,0.002678,0.000431,0.002821
103085000,0.0324,0.013523,0.002678,0.000431,0.002703
103086000,0.0324,0.013523,0.002678,0.000431,0.000823
103087000,0.0324,0.013523,0.002678,0.000431,0.000823
103088000,0.0324,0.013523,0.002678,0.000431,0.000823
103089000,0.0324,0.013523,0.002678,0.000431,0.000940
103090000,0.0324,0.013523,0.002678,0.000431,0.000705
103091000,0.0324,0.013523,0.002678,0.000431,0.000823
103092000,0.0324,0.013523,0.002678,0.000431,0.000940
103093000,0.0324,0.013523,0.002678,0.000431,0.000823
103094000,0.0324,0.013523,0.002678,0.000431,0.000823
103095000,0.0324,0.013523,0.002678,0.000431,0.000823
103096000,0.0324,0.013523,0.002678,0.000431,0.000823
103097000,0.0324,0.013523,0.002678,0.000431,0.000823
103098000,0.0324,0.013523,0.002678,0.000431,0.000940
103099000,0.0324,0.013523,0.002678,0.000431,0.000823
103100000,0.0324,0.013523,0.002678,0.000431,0.000823
103101000,0.0324,0.013523,0.002678,0.000431,0.000823
103102000,0.0324,0.013523,0.002678,0.000431,0.000705
103103000,0.0324,0.013523,0.002678,0.000431,0.000940
103104000,0.0324,0.013523,0.002678,0.000431,0.000823
103105000,0.0324,0.013523,0.002678,0.000431,0.000823
103106000,0.0324,0.013523,0.002678,0.000431,0.000823
103107000,0.0324,0.013523,0.002678,0.000431,0.000823
103108000,0.0324,0.013523,0.002678,0.000431,0.000823
103109000,0.0324,0.013523,0.002678,0.000431,0.000940
103110000,0.0324,0.013523,0.002678,0.000431,0.000823
103111000,0.0324,0.013523,0.002678,0.000431,0.000823
103112000,0.0324,0.013523,0.002678,0.000431,0.002586
103113000,0.0324,0.013523,0.002678,0.000431,0.453071
103114000,0.0324,0.013523,0.002678,0.000431,0.646993
103115000,0.0324,0.013523,0.002678,0.000431,0.133159
103116000,0.0324,0.013523,0.002678,0.000431,0.132924
103117000,0.0324,0.013523,0.002678,0.000431,0.191101
103118000,0.0324,0.013523,0.002678,0.000431,0.558729
103119000,0.0324,0.013523,0.002678,0.000431,0.247279
103120000,0.0324,0.013523,0.002678,0.000431,0.313565
103121000,0.0324,0.013523,0.002678,0.000431,0.230590
103122000,0.0324,0.013523,0.002678,0.000431,0.137273
103123000,0.0324,0.013523,0.002678,0.000431,0.146910
103124000,0.0324,0.013523,0.002678,0.000431,0.224949
103125000,0.0324,0.013523,0.002678,0.000431,0.383494
103126000,0.0324,0.013523,0.002678,0.000431,0.074395
103127000,0.0324,0.013523,0.002678,0.000431,0.074278
103128000,0.0324,0.013523,0.002678,0.000431,0.049479
103129000,0.0324,0.013523,0.002678,0.000431,0.045131
103130000,0.0324,0.013523,0.002678,0.000431,0.034436
103131000,0.0324,0.013523,0.002678,0.000431,0.028559
103132000,0.0324,0.013523,0.002678,0.000431,0.027972
103133000,0.0324,0.013523,0.002678,0.000431,0.019510
103134000,0.0324,0.013523,0.002678,0.000431,0.023858
103135000,0.0324,0.013523,0.002678,0.000431,0.020567
103136000,0.0324,0.013523,0.002678,0.000431,0.019627
103137000,0.0324,0.013523,0.002678,0.000431,0.020802
103138000,0.0324,0.013523,0.002678,0.000431,0.015631
103139000,0.0324,0.013523,0.002678,0.000431,0.014103
103140000,0.0324,0.013523,0.002678,0.000431,0.013398
103141000,0.0324,0.013523,0.002678,0.000431,0.011870
103142000,0.0324,0.013523,0.002678,0.000431,0.011870
103143000,0.0324,0.013523,0.002678,0.000431,0.013751
103144000,0.0324,0.013523,0.002678,0.000431,0.011870
103145000,0.0324,0.013523,0.002678,0.000431,0.011283
103146000,0.0324,0.013523,0.002678,0.000431,0.013516
103147000,0.0324,0.013523,0.002678,0.000431,0.009755
103148000,0.0324,0.013523,0.002678,0.000431,0.009872
103149000,0.0324,0.013523,0.002678,0.000431,0.011635
103150000,0.0324,0.013523,0.002678,0.000431,0.009520
103151000,0.0324,0.013523,0.002678,0.000431,0.010930
103152000,0.0324,0.013523,0.002678,0.000431,0.010342
103153000,0.0324,0.013523,0.002678,0.000431,0.008109
103154000,0.0324,0.013523,0.002678,0.000431,0.008109
103155000,0.0324,0.013523,0.002678,0.000431,0.007404
103156000,0.0324,0.013523,0.002678,0.000431,0.007522
103157000,0.0324,0.013523,0.002678,0.000431,0.008932
103158000,0.0324,0.013523,0.002678,0.000431,0.006111
103159000,0.0324,0.013523,0.002678,0.000431,0.008109
103160000,0.0324,0.013523,0.002678,0.000431,0.005171
103161000,0.0324,0.013523,0.002678,0.000431,0.005759
103162000,0.0324,0.013523,0.002678,0.000431,0.006934
103163000,0.0324,0.013523,0.002678,0.000431,0.006229
103164000,0.0324,0.013523,0.002678,0.000431,0.003173
103165000,0.0324,0.013523,0.002678,0.000431,0.003408
103166000,0.0324,0.013523,0.002678,0.000431,0.003408
103167000,0.0324,0.013523,0.002678,0.000431,0.003526
103168000,0.0324,0.013523,0.002678,0.000431,0.003056
103169000,0.0324,0.013523,0.002678,0.000431,0.003761
103170000,0.0324,0.013523,0.002678,0.000431,0.003291
103171000,0.0324,0.013523,0.002678,0.000431,0.003291
103172000,0.0324,0.013523,0.002678,0.000431,0.003761
103173000,0.0324,0.013523,0.002678,0.000431,0.003056
103174000,0.0324,0.013523,0.002678,0.000431,0.003643
103175000,0.0324,0.013523,0.002678,0.000431,0.003291
103176000,0.0324,0.013523,0.002678,0.000431,0.003408
103177000,0.0324,0.013523,0.002678,0.000431,0.003526
103178000,0.0324,0.013523,0.002678,0.000431,0.002351
103179000,0.0324,0.013523,0.002678,0.000431,0.002703
103180000,0.0324,0.013523,0.002678,0.000431,0.002586
103181000,0.0324,0.013523,0.002678,0.000431,0.002468
103182000,0.0324,0.013523,0.002678,0.000431,0.002703
103183000,0.0324,0.013523,0.002678,0.000431,0.002586
103184000,0.0324,0.013523,0.002678,0.000431,0.002586
103185000,0.0324,0.013523,0.002678,0.000431,0.002468
103186000,0.0324,0.013523,0.002678,0.000431,0.002468
103187000,0.0324,0.013523,0.002678,0.000431,0.002821
103188000,0.0324,0.013523,0.002678,0.000431,0.002586
103189000,0.0324,0.013523,0.002678,0.000431,0.002468
103190000,0.0324,0.013523,0.002678,0.000431,0.002703
103191000,0.0324,0.013523,0.002678,0.000431,0.002351
103192000,0.0324,0.013523,0.002678,0.000431,0.002703
103193000,0.0324,0.013523,0.002678,0.000431,0.002586
103194000,0.0324,0.013523,0.002678,0.000431,0.002468
103195000,0.0324,0.013523,0.002678,0.000431,0.002821
103196000,0.0324,0.013523,0.002678,0.000431,0.002233
103197000,0.0324,0.013523,0.002678,0.000431,0.002703
103198000,0.0324,0.013523,0.002678,0.000431,0.002586
103199000,0.0324,0.013523,0.002678,0.000431,0.002586
103200000,0.0324,0.013523,0.002678,0.000431,0.002703
103201000,0.0324,0.013523,0.002678,0.000431,0.002468
103202000,0.0324,0.013523,0.002678,0.000431,0.004584
103203000,0.0324,0.013523,0.002678,0.000431,0.001058
103204000,0.0324,0.013523,0.002678,0.000431,0.000705
103205000,0.0324,0.013523,0.002678,0.000431,0.000940
103206000,0.0324,0.013523,0.002678,0.000431,0.000940
103207000,0.0324,0.013523,0.002678,0.000431,0.000940
103208000,0.0324,0.013523,0.002678,0.000431,0.000705
103209000,0.0324,0.013523,0.002678,0.000431,0.000940
103210000,0.0324,0.013523,0.002678,0.000431,0.000940
103211000,0.0324,0.013523,0.002678,0.000431,0.000823
103212000,0.0324,0.013523,0.002678,0.000431,0.000940
103213000,0.0324,0.013523,0.002678,0.000431,0.000823
103214000,0.0324,0.013523,0.002678,0.000431,0.000940
103215000,0.0324,0.013523,0.002678,0.000431,0.000823
103216000,0.0324,0.013523,0.002678,0.000431,0.000823
103217000,0.0324,0.013523,0.002678,0.000431,0.000940
103218000,0.0324,0.013523,0.002678,0.000431,0.000940
103219000,0.0324,0.013523,0.002678,0.000431,0.000823
103220000,0.0324,0.013523,0.002678,0.000431,0.000823
103221000,0.0324,0.013523,0.002678,0.000431,0.000940
103222000,0.0324,0.013523,0.002678,0.000431,0.000940
103223000,0.0324,0.013523,0.002678,0.000431,0.000705
103224000,0.0324,0.013523,0.002678,0.000431,0.000940
103225000,0.0324,0.013523,0.002678,0.000431,0.000940
103226000,0.0324,0.013523,0.002678,0.000431,0.000940
103227000,0.0324,0.013523,0.002678,0.000431,0.000705
103228000,0.0324,0.013523,0.002678,0.000431,0.000940
103229000,0.0324,0.013523,0.002678,0.000431,0.000940
103230000,0.0324,0.013523,0.002678,0.000431,0.000823
103231000,0.0324,0.013523,0.002678,0.000431,0.000823
103232000,0.0324,0.013523,0.002678,0.000431,0.000940
103233000,0.0324,0.013523,0.002678,0.000431,0.000823
103234000,0.0324,0.013523,0.002678,0.000431,0.000940
103235000,0.0324,0.013523,0.002678,0.000431,0.000823
103236000,0.0324,0.013523,0.002678,0.000431,0.000940
103237000,0.0324,0.013523,0.002678,0.000431,0.000823
103238000,0.0324,0.013523,0.002678,0.000431,0.078979
103239000,0.0324,0.013523,0.002678,0.000431,0.552030
103240000,0.0324,0.013523,0.002678,0.000431,0.547329
103241000,0.0324,0.013523,0.002678,0.000431,0.134452
103242000,0.0324,0.013523,0.002678,0.000431,0.132102
103243000,0.0324,0.013523,0.002678,0.000431,0.619726
103244000,0.0324,0.013523,0.002678,0.000431,0.277954
103245000,0.0324,0.013523,0.002678,0.000431,0.293233
103246000,0.0324,0.013523,0.002678,0.000431,0.261970
103247000,0.0324,0.013523,0.002678,0.000431,0.145382
103248000,0.0324,0.013523,0.002678,0.000431,0.133747
103249000,0.0324,0.013523,0.002678,0.000431,0.208495
103250000,0.0324,0.013523,0.002678,0.000431,0.393719
103251000,0.0324,0.013523,0.002678,0.000431,0.052183
103252000,0.0324,0.013523,0.002678,0.000431,0.056414
103253000,0.0324,0.013523,0.002678,0.000431,0.042780
103254000,0.0324,0.013523,0.002678,0.000431,0.043133
103255000,0.0324,0.013523,0.002678,0.000431,0.028442
103256000,0.0324,0.013523,0.002678,0.000431,0.027384
103257000,0.0324,0.013523,0.002678,0.000431,0.021508
103258000,0.0324,0.013523,0.002678,0.000431,0.022213
103259000,0.0324,0.013523,0.002678,0.000431,0.016101
103260000,0.0324,0.013523,0.002678,0.000431,0.011283
103261000,0.0324,0.013523,0.002678,0.000431,0.013868
103262000,0.0324,0.013523,0.002678,0.000431,0.006464
103263000,0.0324,0.013523,0.002678,0.000431,0.008815
103264000,0.0324,0.013523,0.002678,0.000431,0.006111
103265000,0.0324,0.013523,0.002678,0.000431,0.006934
103266000,0.0324,0.013523,0.002678,0.000431,0.005289
103267000,0.0324,0.013523,0.002678,0.000431,0.005054
103268000,0.0324,0.013523,0.002678,0.000431,0.004819
103269000,0.0324,0.013523,0.002678,0.000431,0.005054
103270000,0.0324,0.013523,0.002678,0.000431,0.004936
103271000,0.0324,0.013523,0.002678,0.000431,0.004819
103272000,0.0324,0.013523,0.002678,0.000431,0.005289
103273000,0.0324,0.013523,0.002678,0.000431,0.004466
103274000,0.0324,0.013523,0.002678,0.000431,0.005289
103275000,0.0324,0.013523,0.002678,0.000431,0.005054
103276000,0.0324,0.013523,0.002678,0.000431,0.006934
103277000,0.0324,0.013523,0.002678,0.000431,0.004113
103278000,0.0324,0.013523,0.002678,0.000431,0.003761
103279000,0.0324,0.013523,0.002678,0.000431,0.004231
103280000,0.0324,0.013523,0.002678,0.000431,0.004349
103281000,0.0324,0.013523,0.002678,0.000431,0.004113
103282000,0.0324,0.013523,0.002678,0.000431,0.003996
103283000,0.0324,0.013523,0.002678,0.000431,0.003996
103284000,0.0324,0.013523,0.002678,0.000431,0.004231
103285000,0.0324,0.013523,0.002678,0.000431,0.004231
103286000,0.0324,0.013523,0.002678,0.000431,0.003878
103287000,0.0324,0.013523,0.002678,0.000431,0.004113
103288000,0.0324,0.013523,0.002678,0.000431,0.003761
103289000,0.0324,0.013523,0.002678,0.000431,0.004349
103290000,0.0324,0.013523,0.002678,0.000431,0.004466
103291000,0.0324,0.013523,0.002678,0.000431,0.003643
103292000,0.0324,0.013523,0.002678,0.000431,0.004349
103293000,0.0324,0.013523,0.002678,0.000431,0.003878
103294000,0.0324,0.013523,0.002678,0.000431,0.004231
103295000,0.0324,0.013523,0.002678,0.000431,0.004113
103296000,0.0324,0.013523,0.002678,0.000431,0.003996
103297000,0.0324,0.013523,0.002678,0.000431,0.004349
103298000,0.0324,0.013523,0.002678,0.000431,0.003761
103299000,0.0324,0.013523,0.002678,0.000431,0.005641
103300000,0.0324,0.013523,0.002678,0.000431,0.003291
103301000,0.0324,0.013523,0.002678,0.000431,0.003173
103302000,0.0324,0.013523,0.002678,0.000431,0.003291
103303000,0.0324,0.013523,0.002678,0.000431,0.003291
103304000,0.0324,0.013523,0.002678,0.000431,0.003056
103305000,0.0324,0.013523,0.002678,0.000431,0.003408
103306000,0.0324,0.013523,0.002678,0.000431,0.003056
103307000,0.0324,0.013523,0.002678,0.000431,0.003173
103308000,0.0324,0.013523,0.002678,0.000431,0.003173
103309000,0.0324,0.013523,0.002678,0.000431,0.003408
103310000,0.0324,0.013523,0.002678,0.000431,0.003526
103311000,0.0324,0.013523,0.002678,0.000431,0.002821
103312000,0.0324,0.013523,0.002678,0.000431,0.003526
103313000,0.0324,0.013523,0.002678,0.000431,0.003173
103314000,0.0324,0.013523,0.002678,0.000431,0.003408
103315000,0.0324,0.013523,0.002678,0.000431,0.003408
103316000,0.0324,0.013523,0.002678,0.000431,0.003173
103317000,0.0324,0.013523,0.002678,0.000431,0.003291
103318000,0.0324,0.013523,0.002678,0.000431,0.002938
103319000,0.0324,0.013523,0.002678,0.000431,0.002703
103320000,0.0324,0.013523,0.002678,0.000431,0.002351
103321000,0.0324,0.013523,0.002678,0.000431,0.004584
103322000,0.0324,0.013523,0.002678,0.000431,0.001998
103323000,0.0324,0.013523,0.002678,0.000431,0.000823
103324000,0.0324,0.013523,0.002678,0.000431,0.000823
103325000,0.0324,0.013523,0.002678,0.000431,0.000823
103326000,0.0324,0.013523,0.002678,0.000431,0.000940
103327000,0.0324,0.013523,0.002678,0.000431,0.000823
103328000,0.0324,0.013523,0.002678,0.000431,0.000823
103329000,0.0324,0.013523,0.002678,0.000431,0.000823
103330000,0.0324,0.013523,0.002678,0.000431,0.000823
103331000,0.0324,0.013523,0.002678,0.000431,0.000823
103332000,0.0324,0.013523,0.002678,0.000431,0.000823
103333000,0.0324,0.013523,0.002678,0.000431,0.000940
103334000,0.0324,0.013523,0.002678,0.000431,0.000705
103335000,0.0324,0.013523,0.002678,0.000431,0.000940
103336000,0.0324,0.013523,0.002678,0.000431,0.000705
103337000,0.0324,0.013523,0.002678,0.000431,0.000940
103338000,0.0324,0.013523,0.002678,0.000431,0.000823
103339000,0.0324,0.013523,0.002678,0.000431,0.000823
103340000,0.0324,0.013523,0.002678,0.000431,0.000823
103341000,0.0324,0.013523,0.002678,0.000431,0.000823
103342000,0.0324,0.013523,0.002678,0.000431,0.000823
103343000,0.0324,0.013523,0.002678,0.000431,0.000823
103344000,0.0324,0.013523,0.002678,0.000431,0.000940
103345000,0.0324,0.013523,0.002678,0.000431,0.000705
103346000,0.0324,0.013523,0.002678,0.000431,0.000823
103347000,0.0324,0.013523,0.002678,0.000431,0.000940
103348000,0.0324,0.013523,0.002678,0.000431,0.000823
103349000,0.0324,0.013523,0.002678,0.000431,0.195449
103350000,0.0324,0.013523,0.002678,0.000431,0.459418
103351000,0.0324,0.013523,0.002678,0.000431,0.500788
103352000,0.0324,0.013523,0.002678,0.000431,0.133982
103353000,0.0324,0.013523,0.002678,0.000431,0.132572
103354000,0.0324,0.013523,0.002678,0.000431,0.595515
103355000,0.0324,0.013523,0.002678,0.000431,0.252686
103356000,0.0324,0.013523,0.002678,0.000431,0.256329
103357000,0.0324,0.013523,0.002678,0.000431,0.287827
103358000,0.0324,0.013523,0.002678,0.000431,0.152904
103359000,0.0324,0.013523,0.002678,0.000431,0.174882
103360000,0.0324,0.013523,0.002678,0.000431,0.086618
103361000,0.0324,0.013523,0.002678,0.000431,0.488447
103362000,0.0324,0.013523,0.002678,0.000431,0.127283
103363000,0.0324,0.013523,0.002678,0.000431,0.101074
103364000,0.0324,0.013523,0.002678,0.000431,0.085208
103365000,0.0324,0.013523,0.002678,0.000431,0.065463
103366000,0.0324,0.013523,0.002678,0.000431,0.065816
103367000,0.0324,0.013523,0.002678,0.000431,0.045601
103368000,0.0324,0.013523,0.002678,0.000431,0.041370
103369000,0.0324,0.013523,0.002678,0.000431,0.045366
103370000,0.0324,0.013523,0.002678,0.000431,0.043485
103371000,0.0324,0.013523,0.002678,0.000431,0.035141
103372000,0.0324,0.013523,0.002678,0.000431,0.030557
103373000,0.0324,0.013523,0.002678,0.000431,0.031027
103374000,0.0324,0.013523,0.002678,0.000431,0.026091
103375000,0.0324,0.013523,0.002678,0.000431,0.026444
103376000,0.0324,0.013523,0.002678,0.000431,0.022565
103377000,0.0324,0.013523,0.002678,0.000431,0.026326
103378000,0.0324,0.013523,0.002678,0.000431,0.021273
103379000,0.0324,0.013523,0.002678,0.000431,0.022448
103380000,0.0324,0.013523,0.002678,0.000431,0.021625
103381000,0.0324,0.013523,0.002678,0.000431,0.022095
103382000,0.0324,0.013523,0.002678,0.000431,0.019157
103383000,0.0324,0.013523,0.002678,0.000431,0.018687
103384000,0.0324,0.013523,0.002678,0.000431,0.020332
103385000,0.0324,0.013523,0.002678,0.000431,0.011753
103386000,0.0324,0.013523,0.002678,0.000431,0.012105
103387000,0.0324,0.013523,0.002678,0.000431,0.011165
103388000,0.0324,0.013523,0.002678,0.000431,0.010460
103389000,0.0324,0.013523,0.002678,0.000431,0.005876
103390000,0.0324,0.013523,0.002678,0.000431,0.005994
103391000,0.0324,0.013523,0.002678,0.000431,0.007522
103392000,0.0324,0.013523,0.002678,0.000431,0.004231
103393000,0.0324,0.013523,0.002678,0.000431,0.008227
103394000,0.0324,0.013523,0.002678,0.000431,0.001763
103395000,0.0324,0.013523,0.002678,0.000431,0.001645
103396000,0.0324,0.013523,0.002678,0.000431,0.001880
103397000,0.0324,0.013523,0.002678,0.000431,0.001763
103398000,0.0324,0.013523,0.002678,0.000431,0.001528
103399000,0.0324,0.013523,0.002678,0.000431,0.004231
103400000,0.0324,0.013523,0.002678,0.000431,0.000823
103401000,0.0324,0.013523,0.002678,0.000431,0.000940
103402000,0.0324,0.013523,0.002678,0.000431,0.000823
103403000,0.0324,0.013523,0.002678,0.000431,0.000823
103404000,0.0324,0.013523,0.002678,0.000431,0.000823
103405000,0.0324,0.013523,0.002678,0.000431,0.000823
103406000,0.0324,0.013523,0.002678,0.000431,0.000940
103407000,0.0324,0.013523,0.002678,0.000431,0.000705
103408000,0.0324,0.013523,0.002678,0.000431,0.000940
103409000,0.0324,0.013523,0.002678,0.000431,0.000823
103410000,0.0324,0.013523,0.002678,0.000431,0.000823
103411000,0.0324,0.013523,0.002678,0.000431,0.000823
103412000,0.0324,0.013523,0.002678,0.000431,0.000823
103413000,0.0324,0.013523,0.002678,0.000431,0.000823
103414000,0.0324,0.013523,0.002678,0.000431,0.000823
103415000,0.0324,0.013523,0.002678,0.000431,0.000823
103416000,0.0324,0.013523,0.002678,0.000431,0.000940
103417000,0.0324,0.013523,0.002678,0.000431,0.000823
103418000,0.0324,0.013523,0.002678,0.000431,0.000823
103419000,0.0324,0.013523,0.002678,0.000431,0.000823
103420000,0.0324,0.013523,0.002678,0.000431,0.000705
103421000,0.0324,0.013523,0.002678,0.000431,0.000940
103422000,0.0324,0.013523,0.002678,0.000431,0.000940
103423000,0.0324,0.013523,0.002678,0.000431,0.000705
103424000,0.0324,0.013523,0.002678,0.000431,0.000940
103425000,0.0324,0.013523,0.002678,0.000431,0.000705
103426000,0.0324,0.013523,0.002678,0.000431,0.000940
103427000,0.0324,0.013523,0.002678,0.000431,0.000823
103428000,0.0324,0.013523,0.002678,0.000431,0.000823
103429000,0.0324,0.013523,0.002678,0.000431,0.000940
103430000,0.0324,0.013523,0.002678,0.000431,0.000705
103431000,0.0324,0.013523,0.002678,0.000431,0.000940
103432000,0.0324,0.013523,0.002678,0.000431,0.000823
103433000,0.0324,0.013523,0.002678,0.000431,0.000823
103434000,0.0324,0.013523,0.002678,0.000431,0.000823
103435000,0.0324,0.013523,0.002678,0.000431,0.000823
103436000,0.0324,0.013523,0.002678,0.000431,0.000823
103437000,0.0324,0.013523,0.002678,0.000431,0.000823
103438000,0.0324,0.013523,0.002678,0.000431,0.000940
103439000,0.0324,0.013523,0.002678,0.000431,0.000705
103440000,0.0324,0.013523,0.002678,0.000431,0.000940
103441000,0.0324,0.013523,0.002678,0.000431,0.000823
103442000,0.0324,0.013523,0.002678,0.000431,0.000823
103443000,0.0324,0.013523,0.002678,0.000431,0.000705
103444000,0.0324,0.013523,0.002678,0.000431,0.000940
103445000,0.0324,0.013523,0.002678,0.000431,0.000940
103446000,0.0324,0.013523,0.002678,0.000431,0.000705
103447000,0.0324,0.013523,0.002678,0.000431,0.000940
103448000,0.0324,0.013523,0.002678,0.000431,0.000705
103449000,0.0324,0.013523,0.002678,0.000431,0.000940
103450000,0.0324,0.013523,0.002678,0.000431,0.000823
103451000,0.0324,0.013523,0.002678,0.000431,0.000823
103452000,0.0324,0.013523,0.002678,0.000431,0.000940
103453000,0.0324,0.013523,0.002678,0.000431,0.000705
103454000,0.0324,0.013523,0.002678,0.000431,0.000940
103455000,0.0324,0.013523,0.002678,0.000431,0.000823
103456000,0.0324,0.013523,0.002678,0.000431,0.000823
103457000,0.0324,0.013523,0.002678,0.000431,0.000823
103458000,0.0324,0.013523,0.002678,0.000431,0.000823
103459000,0.0324,0.013523,0.002678,0.000431,0.000823
103460000,0.0324,0.013523,0.002678,0.000431,0.000823
103461000,0.0324,0.013523,0.002678,0.000431,0.000940
103462000,0.0324,0.013523,0.002678,0.000431,0.000705
103463000,0.0324,0.013523,0.002678,0.000431,0.000823
103464000,0.0324,0.013523,0.002678,0.000431,0.000940
103465000,0.0324,0.013523,0.002678,0.000431,0.000823
103466000,0.0324,0.013523,0.002678,0.000431,0.000823
103467000,0.0324,0.013523,0.002678,0.000431,0.000823
103468000,0.0324,0.013523,0.002678,0.000431,0.000823
103469000,0.0324,0.013523,0.002678,0.000431,0.000823
103470000,0.0324,0.013523,0.002678,0.000431,0.000940
103471000,0.0324,0.013523,0.002678,0.000431,0.000705
103472000,0.0324,0.013523,0.002678,0.000431,0.000940
103473000,0.0324,0.013523,0.002678,0.000431,0.000705
103474000,0.0324,0.013523,0.002678,0.000431,0.000940
103475000,0.0324,0.013523,0.002678,0.000431,0.000940
103476000,0.0324,0.013523,0.002678,0.000431,0.000705
103477000,0.0324,0.013523,0.002678,0.000431,0.000940
103478000,0.0324,0.013523,0.002678,0.000431,0.000705
103479000,0.0324,0.013523,0.002678,0.000431,0.000940
103480000,0.0324,0.013523,0.002678,0.000431,0.000823
103481000,0.0324,0.013523,0.002678,0.000431,0.000823
103482000,0.0324,0.013523,0.002678,0.000431,0.000823
103483000,0.0324,0.013523,0.002678,0.000431,0.000823
103484000,0.0324,0.013523,0.002678,0.000431,0.000940
103485000,0.0324,0.013523,0.002678,0.000431,0.000705
103486000,0.0324,0.013523,0.002678,0.000431,0.000940
103487000,0.0324,0.013523,0.002678,0.000431,0.000823
103488000,0.0324,0.013523,0.002678,0.000431,0.000823
103489000,0.0324,0.013523,0.002678,0.000431,0.000823
103490000,0.0324,0.013523,0.002678,0.000431,0.000823
103491000,0.0324,0.013523,0.002678,0.000431,0.000823
103492000,0.0324,0.013523,0.002678,0.000431,0.000823
103493000,0.0324,0.013523,0.002678,0.000431,0.000940
103494000,0.0324,0.013523,0.002678,0.000431,0.000705
103495000,0.0324,0.013523,0.002678,0.000431,0.000940
103496000,0.0324,0.013523,0.002678,0.000431,0.000705
103497000,0.0324,0.013523,0.002678,0.000431,0.000940
103498000,0.0324,0.013523,0.002678,0.000431,0.000940
103499000,0.0324,0.013523,0.002678,0.000431,0.000705
103500000,0.0324,0.013523,0.002678,0.000431,0.000940
103501000,0.0324,0.013523,0.002678,0.000431,0.000705
103502000,0.0324,0.013523,0.002678,0.000431,0.000940
103503000,0.0324,0.013523,0.002678,0.000431,0.000823
103504000,0.0324,0.013523,0.002678,0.000431,0.000823
103505000,0.0324,0.013523,0.002678,0.000431,0.000823
103506000,0.0324,0.013523,0.002678,0.000431,0.000823
103507000,0.0324,0.013523,0.002678,0.000431,0.000940
103508000,0.0324,0.013523,0.002678,0.000431,0.000705
103509000,0.0324,0.013523,0.002678,0.000431,0.000940
103510000,0.0324,0.013523,0.002678,0.000431,0.000823
103511000,0.0324,0.013523,0.002678,0.000431,0.000823
103512000,0.0324,0.013523,0.002678,0.000431,0.000823
103513000,0.0324,0.013523,0.002678,0.000431,0.000823
103514000,0.0324,0.013523,0.002678,0.000431,0.000823
103515000,0.0324,0.013523,0.002678,0.000431,0.000823
103516000,0.0324,0.013523,0.002678,0.000431,0.000823
103517000,0.0324,0.013523,0.002678,0.000431,0.000940
103518000,0.0324,0.013523,0.002678,0.000431,0.000823
103519000,0.0324,0.013523,0.002678,0.000431,0.000823
103520000,0.0324,0.013523,0.002678,0.000431,0.000823
103521000,0.0324,0.013523,0.002678,0.000431,0.000705
103522000,0.0324,0.013523,0.002678,0.000431,0.000940
103523000,0.0324,0.013523,0.002678,0.000431,0.000940
103524000,0.0324,0.013523,0.002678,0.000431,0.000705
103525000,0.0324,0.013523,0.002678,0.000431,0.000940
103526000,0.0324,0.013523,0.002678,0.000431,0.000705
103527000,0.0324,0.013523,0.002678,0.000431,0.000940
103528000,0.0324,0.013523,0.002678,0.000431,0.000823
103529000,0.0324,0.013523,0.002678,0.000431,0.000823
103530000,0.0324,0.013523,0.002678,0.000431,0.000940
103531000,0.0324,0.013523,0.002678,0.000431,0.000705
103532000,0.0324,0.013523,0.002678,0.000431,0.000940
103533000,0.0324,0.013523,0.002678,0.000431,0.000823
103534000,0.0324,0.013523,0.002678,0.000431,0.000823
103535000,0.0324,0.013523,0.002678,0.000431,0.000823
103536000,0.0324,0.013523,0.002678,0.000431,0.000823
103537000,0.0324,0.013523,0.002678,0.000431,0.000940
103538000,0.0324,0.013523,0.002678,0.000431,0.000705
103539000,0.0324,0.013523,0.002678,0.000431,0.000940
103540000,0.0324,0.013523,0.002678,0.000431,0.000823
103541000,0.0324,0.013523,0.002678,0.000431,0.000823
103542000,0.0324,0.013523,0.002678,0.000431,0.000823
103543000,0.0324,0.013523,0.002678,0.000431,0.000823
103544000,0.0324,0.013523,0.002678,0.000431,0.000705
103545000,0.0324,0.013523,0.002678,0.000431,0.000940
103546000,0.0324,0.013523,0.002678,0.000431,0.000940
103547000,0.0324,0.013523,0.002678,0.000431,0.000705
103548000,0.0324,0.013523,0.002678,0.000431,0.000940
103549000,0.0324,0.013523,0.002678,0.000431,0.000705
103550000,0.0324,0.013523,0.002678,0.000431,0.000940
103551000,0.0324,0.013523,0.002678,0.000431,0.000823
103552000,0.0324,0.013523,0.002678,0.000431,0.000823
103553000,0.0324,0.013523,0.002678,0.000431,0.000940
103554000,0.0324,0.013523,0.002678,0.000431,0.000705
103555000,0.0324,0.013523,0.002678,0.000431,0.000940
103556000,0.0324,0.013523,0.002678,0.000431,0.000823
103557000,0.0324,0.013523,0.002678,0.000431,0.000823
103558000,0.0324,0.013523,0.002678,0.000431,0.000823
103559000,0.0324,0.013523,0.002678,0.000431,0.000823
103560000,0.0324,0.013523,0.002678,0.000431,0.000823
103561000,0.0324,0.013523,0.002678,0.000431,0.000823
103562000,0.0324,0.013523,0.002678,0.000431,0.000940
103563000,0.0324,0.013523,0.002678,0.000431,0.000705
103564000,0.0324,0.013523,0.002678,0.000431,0.000940
103565000,0.0324,0.013523,0.002678,0.000431,0.000823
103566000,0.0324,0.013523,0.002678,0.000431,0.000823
103567000,0.0324,0.013523,0.002678,0.000431,0.000823
103568000,0.0324,0.013523,0.002678,0.000431,0.000823
103569000,0.0324,0.013523,0.002678,0.000431,0.000940
103570000,0.0324,0.013523,0.002678,0.000431,0.000705
103571000,0.0324,0.013523,0.002678,0.000431,0.000940
103572000,0.0324,0.013523,0.002678,0.000431,0.000705
103573000,0.0324,0.013523,0.002678,0.000431,0.000940
103574000,0.0324,0.013523,0.002678,0.000431,0.000940
103575000,0.0324,0.013523,0.002678,0.000431,0.000705
103576000,0.0324,0.013523,0.002678,0.000431,0.000940
103577000,0.0324,0.013523,0.002678,0.000431,0.000705
103578000,0.0324,0.013523,0.002678,0.000431,0.000940
103579000,0.0324,0.013523,0.002678,0.000431,0.000823
103580000,0.0324,0.013523,0.002678,0.000431,0.000823
103581000,0.0324,0.013523,0.002678,0.000431,0.000940
103582000,0.0324,0.013523,0.002678,0.000431,0.000705
103583000,0.0324,0.013523,0.002678,0.000431,0.000940
103584000,0.0324,0.013523,0.002678,0.000431,0.000823
103585000,0.0324,0.013523,0.002678,0.000431,0.000823
103586000,0.0324,0.013523,0.002678,0.000431,0.000823
103587000,0.0324,0.013523,0.002678,0.000431,0.074043
103588000,0.0324,0.013523,0.002678,0.000431,0.588464
103589000,0.0324,0.013523,0.002678,0.000431,0.554498
103590000,0.0324,0.013523,0.002678,0.000431,0.132219
103591000,0.0324,0.013523,0.002678,0.000431,0.134335
103592000,0.0324,0.013523,0.002678,0.000431,0.551442
103593000,0.0324,0.013523,0.002678,0.000431,0.244106
103594000,0.0324,0.013523,0.002678,0.000431,0.249747
103595000,0.0324,0.013523,0.002678,0.000431,0.287591
103596000,0.0324,0.013523,0.002678,0.000431,0.144560
103597000,0.0324,0.013523,0.002678,0.000431,0.165715
103598000,0.0324,0.013523,0.002678,0.000431,0.109889
103599000,0.0324,0.013523,0.002678,0.000431,0.461768
103600000,0.0324,0.013523,0.002678,0.000431,0.170416
103601000,0.0324,0.013523,0.002678,0.000431,0.103895
103602000,0.0324,0.013523,0.002678,0.000431,0.077451
103603000,0.0324,0.013523,0.002678,0.000431,0.065111
103604000,0.0324,0.013523,0.002678,0.000431,0.054533
103605000,0.0324,0.013523,0.002678,0.000431,0.055473
103606000,0.0324,0.013523,0.002678,0.000431,0.044073
103607000,0.0324,0.013523,0.002678,0.000431,0.037374
103608000,0.0324,0.013523,0.002678,0.000431,0.032203
103609000,0.0324,0.013523,0.002678,0.000431,0.024798
103610000,0.0324,0.013523,0.002678,0.000431,0.024798
103611000,0.0324,0.013523,0.002678,0.000431,0.025151
103612000,0.0324,0.013523,0.002678,0.000431,0.021155
103613000,0.0324,0.013523,0.002678,0.000431,0.014691
103614000,0.0324,0.013523,0.002678,0.000431,0.012928
103615000,0.0324,0.013523,0.002678,0.000431,0.011165
103616000,0.0324,0.013523,0.002678,0.000431,0.012340
103617000,0.0324,0.013523,0.002678,0.000431,0.007052
103618000,0.0324,0.013523,0.002678,0.000431,0.006464
103619000,0.0324,0.013523,0.002678,0.000431,0.009050
103620000,0.0324,0.013523,0.002678,0.000431,0.006699
103621000,0.0324,0.013523,0.002678,0.000431,0.006111
103622000,0.0324,0.013523,0.002678,0.000431,0.005524
103623000,0.0324,0.013523,0.002678,0.000431,0.007287
103624000,0.0324,0.013523,0.002678,0.000431,0.004584
103625000,0.0324,0.013523,0.002678,0.000431,0.003878
103626000,0.0324,0.013523,0.002678,0.000431,0.004584
103627000,0.0324,0.013523,0.002678,0.000431,0.005641
103628000,0.0324,0.013523,0.002678,0.000431,0.003526
103629000,0.0324,0.013523,0.002678,0.000431,0.003173
103630000,0.0324,0.013523,0.002678,0.000431,0.003408
103631000,0.0324,0.013523,0.002678,0.000431,0.005876
103632000,0.0324,0.013523,0.002678,0.000431,0.002351
103633000,0.0324,0.013523,0.002678,0.000431,0.002703
103634000,0.0324,0.013523,0.002678,0.000431,0.002586
103635000,0.0324,0.013523,0.002678,0.000431,0.002468
103636000,0.0324,0.013523,0.002678,0.000431,0.003526
103637000,0.0324,0.013523,0.002678,0.000431,0.002821
103638000,0.0324,0.013523,0.002678,0.000431,0.001645
103639000,0.0324,0.013523,0.002678,0.000431,0.001645
103640000,0.0324,0.013523,0.002678,0.000431,0.001763
103641000,0.0324,0.013523,0.002678,0.000431,0.001528
103642000,0.0324,0.013523,0.002678,0.000431,0.001880
103643000,0.0324,0.013523,0.002678,0.000431,0.001410
103644000,0.0324,0.013523,0.002678,0.000431,0.003526
103645000,0.0324,0.013523,0.002678,0.000431,0.000823
103646000,0.0324,0.013523,0.002678,0.000431,0.000940
103647000,0.0324,0.013523,0.002678,0.000431,0.000940
103648000,0.0324,0.013523,0.002678,0.000431,0.000823
103649000,0.0324,0.013523,0.002678,0.000431,0.000823
103650000,0.0324,0.013523,0.002678,0.000431,0.000823
103651000,0.0324,0.013523,0.002678,0.000431,0.000823
103652000,0.0324,0.013523,0.002678,0.000431,0.000823
103653000,0.0324,0.013523,0.002678,0.000431,0.000823
103654000,0.0324,0.013523,0.002678,0.000431,0.000940
103655000,0.0324,0.013523,0.002678,0.000431,0.000705
103656000,0.0324,0.013523,0.002678,0.000431,0.000940
103657000,0.0324,0.013523,0.002678,0.000431,0.064170
103658000,0.0324,0.013523,0.002678,0.000431,0.530875
103659000,0.0324,0.013523,0.002678,0.000431,0.597513
103660000,0.0324,0.013523,0.002678,0.000431,0.133042
103661000,0.0324,0.013523,0.002678,0.000431,0.133042
103662000,0.0324,0.013523,0.002678,0.000431,0.555791
103663000,0.0324,0.013523,0.002678,0.000431,0.233058
103664000,0.0324,0.013523,0.002678,0.000431,0.267377
103665000,0.0324,0.013523,0.002678,0.000431,0.328139
103666000,0.0324,0.013523,0.002678,0.000431,0.146910
103667000,0.0324,0.013523,0.002678,0.000431,0.183226
103668000,0.0324,0.013523,0.002678,0.000431,0.082975
103669000,0.0324,0.013523,0.002678,0.000431,0.471523
103670000,0.0324,0.013523,0.002678,0.000431,0.124227
103671000,0.0324,0.013523,0.002678,0.000431,0.077451
103672000,0.0324,0.013523,0.002678,0.000431,0.073455
103673000,0.0324,0.013523,0.002678,0.000431,0.069342
103674000,0.0324,0.013523,0.002678,0.000431,0.066638
103675000,0.0324,0.013523,0.002678,0.000431,0.043720
103676000,0.0324,0.013523,0.002678,0.000431,0.040782
103677000,0.0324,0.013523,0.002678,0.000431,0.042075
103678000,0.0324,0.013523,0.002678,0.000431,0.025739
103679000,0.0324,0.013523,0.002678,0.000431,0.019275
103680000,0.0324,0.013523,0.002678,0.000431,0.019745
103681000,0.0324,0.013523,0.002678,0.000431,0.018569
103682000,0.0324,0.013523,0.002678,0.000431,0.015161
103683000,0.0324,0.013523,0.002678,0.000431,0.016336
103684000,0.0324,0.013523,0.002678,0.000431,0.015631
103685000,0.0324,0.013523,0.002678,0.000431,0.016219
103686000,0.0324,0.013523,0.002678,0.000431,0.014221
103687000,0.0324,0.013523,0.002678,0.000431,0.015161
103688000,0.0324,0.013523,0.002678,0.000431,0.012458
103689000,0.0324,0.013523,0.002678,0.000431,0.016101
103690000,0.0324,0.013523,0.002678,0.000431,0.010695
103691000,0.0324,0.013523,0.002678,0.000431,0.009637
103692000,0.0324,0.013523,0.002678,0.000431,0.007522
103693000,0.0324,0.013523,0.002678,0.000431,0.008580
103694000,0.0324,0.013523,0.002678,0.000431,0.006817
103695000,0.0324,0.013523,0.002678,0.000431,0.009520
103696000,0.0324,0.013523,0.002678,0.000431,0.006347
103697000,0.0324,0.013523,0.002678,0.000431,0.005759
103698000,0.0324,0.013523,0.002678,0.000431,0.005641
103699000,0.0324,0.013523,0.002678,0.000431,0.005994
103700000,0.0324,0.013523,0.002678,0.000431,0.005641
103701000,0.0324,0.013523,0.002678,0.000431,0.005759
103702000,0.0324,0.013523,0.002678,0.000431,0.005994
103703000,0.0324,0.013523,0.002678,0.000431,0.006111
103704000,0.0324,0.013523,0.002678,0.000431,0.005406
103705000,0.0324,0.013523,0.002678,0.000431,0.009520
103706000,0.0324,0.013523,0.002678,0.000431,0.004113
103707000,0.0324,0.013523,0.002678,0.000431,0.004466
103708000,0.0324,0.013523,0.002678,0.000431,0.003761
103709000,0.0324,0.013523,0.002678,0.000431,0.004466
103710000,0.0324,0.013523,0.002678,0.000431,0.004466
103711000,0.0324,0.013523,0.002678,0.000431,0.003761
103712000,0.0324,0.013523,0.002678,0.000431,0.004349
103713000,0.0324,0.013523,0.002678,0.000431,0.003996
103714000,0.0324,0.013523,0.002678,0.000431,0.004349
103715000,0.0324,0.013523,0.002678,0.000431,0.003996
103716000,0.0324,0.013523,0.002678,0.000431,0.004231
103717000,0.0324,0.013523,0.002678,0.000431,0.005876
103718000,0.0324,0.013523,0.002678,0.000431,0.003056
103719000,0.0324,0.013523,0.002678,0.000431,0.003291
103720000,0.0324,0.013523,0.002678,0.000431,0.003291
103721000,0.0324,0.013523,0.002678,0.000431,0.003526
103722000,0.0324,0.013523,0.002678,0.000431,0.002938
103723000,0.0324,0.013523,0.002678,0.000431,0.004349
103724000,0.0324,0.013523,0.002678,0.000431,0.002586
103725000,0.0324,0.013523,0.002678,0.000431,0.003408
103726000,0.0324,0.013523,0.002678,0.000431,0.000940
103727000,0.0324,0.013523,0.002678,0.000431,0.000823
103728000,0.0324,0.013523,0.002678,0.000431,0.000705
103729000,0.0324,0.013523,0.002678,0.000431,0.000940
103730000,0.0324,0.013523,0.002678,0.000431,0.000940
103731000,0.0324,0.013523,0.002678,0.000431,0.000705
103732000,0.0324,0.013523,0.002678,0.000431,0.000940
103733000,0.0324,0.013523,0.002678,0.000431,0.000705
103734000,0.0324,0.013523,0.002678,0.000431,0.026796
103735000,0.0324,0.013523,0.002678,0.000431,0.527466
103736000,0.0324,0.013523,0.002678,0.000431,0.599041
103737000,0.0324,0.013523,0.002678,0.000431,0.131632
103738000,0.0324,0.013523,0.002678,0.000431,0.133982
103739000,0.0324,0.013523,0.002678,0.000431,0.515596
103740000,0.0324,0.013523,0.002678,0.000431,0.245869
103741000,0.0324,0.013523,0.002678,0.000431,0.249630
103742000,0.0324,0.013523,0.002678,0.000431,0.337776
103743000,0.0324,0.013523,0.002678,0.000431,0.155842
103744000,0.0324,0.013523,0.002678,0.000431,0.140094
103745000,0.0324,0.013523,0.002678,0.000431,0.130104
103746000,0.0324,0.013523,0.002678,0.000431,0.262440
103747000,0.0324,0.013523,0.002678,0.000431,0.334250
103748000,0.0324,0.013523,0.002678,0.000431,0.050302
103749000,0.0324,0.013523,0.002678,0.000431,0.049244
103750000,0.0324,0.013523,0.002678,0.000431,0.040665
103751000,0.0324,0.013523,0.002678,0.000431,0.043838
103752000,0.0324,0.013523,0.002678,0.000431,0.037727
103753000,0.0324,0.013523,0.002678,0.000431,0.040312
103754000,0.0324,0.013523,0.002678,0.000431,0.032790
103755000,0.0324,0.013523,0.002678,0.000431,0.029382
103756000,0.0324,0.013523,0.002678,0.000431,0.027502
103757000,0.0324,0.013523,0.002678,0.000431,0.021508
103758000,0.0324,0.013523,0.002678,0.000431,0.021273
103759000,0.0324,0.013523,0.002678,0.000431,0.020215
103760000,0.0324,0.013523,0.002678,0.000431,0.018687
103761000,0.0324,0.013523,0.002678,0.000431,0.015631
103762000,0.0324,0.013523,0.002678,0.000431,0.012811
103763000,0.0324,0.013523,0.002678,0.000431,0.010695
103764000,0.0324,0.013523,0.002678,0.000431,0.012105
103765000,0.0324,0.013523,0.002678,0.000431,0.014103
103766000,0.0324,0.013523,0.002678,0.000431,0.008109
103767000,0.0324,0.013523,0.002678,0.000431,0.008345
103768000,0.0324,0.013523,0.002678,0.000431,0.009520
103769000,0.0324,0.013523,0.002678,0.000431,0.006817
103770000,0.0324,0.013523,0.002678,0.000431,0.006582
103771000,0.0324,0.013523,0.002678,0.000431,0.006582
103772000,0.0324,0.013523,0.002678,0.000431,0.008345
103773000,0.0324,0.013523,0.002678,0.000431,0.007992
103774000,0.0324,0.013523,0.002678,0.000431,0.005171
103775000,0.0324,0.013523,0.002678,0.000431,0.006347
103776000,0.0324,0.013523,0.002678,0.000431,0.007169
103777000,0.0324,0.013523,0.002678,0.000431,0.005054
103778000,0.0324,0.013523,0.002678,0.000431,0.005171
103779000,0.0324,0.013523,0.002678,0.000431,0.004819
103780000,0.0324,0.013523,0.002678,0.000431,0.005524
103781000,0.0324,0.013523,0.002678,0.000431,0.004819
103782000,0.0324,0.013523,0.002678,0.000431,0.005054
103783000,0.0324,0.013523,0.002678,0.000431,0.005289
103784000,0.0324,0.013523,0.002678,0.000431,0.004819
103785000,0.0324,0.013523,0.002678,0.000431,0.006699
103786000,0.0324,0.013523,0.002678,0.000431,0.004231
103787000,0.0324,0.013523,0.002678,0.000431,0.003996
103788000,0.0324,0.013523,0.002678,0.000431,0.004349
103789000,0.0324,0.013523,0.002678,0.000431,0.003526
103790000,0.0324,0.013523,0.002678,0.000431,0.003408
103791000,0.0324,0.013523,0.002678,0.000431,0.003408
103792000,0.0324,0.013523,0.002678,0.000431,0.005171
103793000,0.0324,0.013523,0.002678,0.000431,0.002586
103794000,0.0324,0.013523,0.002678,0.000431,0.002821
103795000,0.0324,0.013523,0.002678,0.000431,0.002586
103796000,0.0324,0.013523,0.002678,0.000431,0.003878
103797000,0.0324,0.013523,0.002678,0.000431,0.001645
103798000,0.0324,0.013523,0.002678,0.000431,0.001880
103799000,0.0324,0.013523,0.002678,0.000431,0.001645
103800000,0.0324,0.013523,0.002678,0.000431,0.001645
103801000,0.0324,0.013523,0.002678,0.000431,0.001880
103802000,0.0324,0.013523,0.002678,0.000431,0.001645
103803000,0.0324,0.013523,0.002678,0.000431,0.001645
103804000,0.0324,0.013523,0.002678,0.000431,0.001763
103805000,0.0324,0.013523,0.002678,0.000431,0.001763
103806000,0.0324,0.013523,0.002678,0.000431,0.001645
103807000,0.0324,0.013523,0.002678,0.000431,0.001645
103808000,0.0324,0.013523,0.002678,0.000431,0.001880
103809000,0.0324,0.013523,0.002678,0.000431,0.001645
103810000,0.0324,0.013523,0.002678,0.000431,0.001763
103811000,0.0324,0.013523,0.002678,0.000431,0.001645
103812000,0.0324,0.013523,0.002678,0.000431,0.001763
103813000,0.0324,0.013523,0.002678,0.000431,0.001645
103814000,0.0324,0.013523,0.002678,0.000431,0.001763
103815000,0.0324,0.013523,0.002678,0.000431,0.001645
103816000,0.0324,0.013523,0.002678,0.000431,0.001763
103817000,0.0324,0.013523,0.002678,0.000431,0.001763
103818000,0.0324,0.013523,0.002678,0.000431,0.001528
103819000,0.0324,0.013523,0.002678,0.000431,0.001880
103820000,0.0324,0.013523,0.002678,0.000431,0.001763
103821000,0.0324,0.013523,0.002678,0.000431,0.001763
103822000,0.0324,0.013523,0.002678,0.000431,0.001410
103823000,0.0324,0.013523,0.002678,0.000431,0.001880
103824000,0.0324,0.013523,0.002678,0.000431,0.001880
103825000,0.0324,0.013523,0.002678,0.000431,0.001528
103826000,0.0324,0.013523,0.002678,0.000431,0.001763
103827000,0.0324,0.013523,0.002678,0.000431,0.001645
103828000,0.0324,0.013523,0.002678,0.000431,0.003996
103829000,0.0324,0.013523,0.002678,0.000431,0.000940
103830000,0.0324,0.013523,0.002678,0.000431,0.000823
103831000,0.0324,0.013523,0.002678,0.000431,0.000940
103832000,0.0324,0.013523,0.002678,0.000431,0.000823
103833000,0.0324,0.013523,0.002678,0.000431,0.000823
103834000,0.0324,0.013523,0.002678,0.000431,0.000940
103835000,0.0324,0.013523,0.002678,0.000431,0.000940
103836000,0.0324,0.013523,0.002678,0.000431,0.000823
103837000,0.0324,0.013523,0.002678,0.000431,0.000823
103838000,0.0324,0.013523,0.002678,0.000431,0.071105
103839000,0.0324,0.013523,0.002678,0.000431,0.450721
103840000,0.0324,0.013523,0.002678,0.000431,0.594810
103841000,0.0324,0.013523,0.002678,0.000431,0.131632
103842000,0.0324,0.013523,0.002678,0.000431,0.133982
103843000,0.0324,0.013523,0.002678,0.000431,0.540982
103844000,0.0324,0.013523,0.002678,0.000431,0.223774
103845000,0.0324,0.013523,0.002678,0.000431,0.247632
103846000,0.0324,0.013523,0.002678,0.000431,0.338011
103847000,0.0324,0.013523,0.002678,0.000431,0.153492
103848000,0.0324,0.013523,0.002678,0.000431,0.143032
103849000,0.0324,0.013523,0.002678,0.000431,0.138918
103850000,0.0324,0.013523,0.002678,0.000431,0.234469
103851000,0.0324,0.013523,0.002678,0.000431,0.361987
103852000,0.0324,0.013523,0.002678,0.000431,0.075571
103853000,0.0324,0.013523,0.002678,0.000431,0.079214
103854000,0.0324,0.013523,0.002678,0.000431,0.066168
103855000,0.0324,0.013523,0.002678,0.000431,0.053475
103856000,0.0324,0.013523,0.002678,0.000431,0.053358
103857000,0.0324,0.013523,0.002678,0.000431,0.043485
103858000,0.0324,0.013523,0.002678,0.000431,0.043015
103859000,0.0324,0.013523,0.002678,0.000431,0.036786
103860000,0.0324,0.013523,0.002678,0.000431,0.038314
103861000,0.0324,0.013523,0.002678,0.000431,0.030675
103862000,0.0324,0.013523,0.002678,0.000431,0.028677
103863000,0.0324,0.013523,0.002678,0.000431,0.026914
103864000,0.0324,0.013523,0.002678,0.000431,0.030675
103865000,0.0324,0.013523,0.002678,0.000431,0.025269
103866000,0.0324,0.013523,0.002678,0.000431,0.021273
103867000,0.0324,0.013523,0.002678,0.000431,0.023271
103868000,0.0324,0.013523,0.002678,0.000431,0.019392
103869000,0.0324,0.013523,0.002678,0.000431,0.019392
103870000,0.0324,0.013523,0.002678,0.000431,0.020685
103871000,0.0324,0.013523,0.002678,0.000431,0.017159
103872000,0.0324,0.013523,0.002678,0.000431,0.013751
103873000,0.0324,0.013523,0.002678,0.000431,0.014809
103874000,0.0324,0.013523,0.002678,0.000431,0.012340
103875000,0.0324,0.013523,0.002678,0.000431,0.016454
103876000,0.0324,0.013523,0.002678,0.000431,0.013163
103877000,0.0324,0.013523,0.002678,0.000431,0.012928
103878000,0.0324,0.013523,0.002678,0.000431,0.013163
103879000,0.0324,0.013523,0.002678,0.000431,0.012693
103880000,0.0324,0.013523,0.002678,0.000431,0.013281
103881000,0.0324,0.013523,0.002678,0.000431,0.012576
103882000,0.0324,0.013523,0.002678,0.000431,0.013633
103883000,0.0324,0.013523,0.002678,0.000431,0.017394
103884000,0.0324,0.013523,0.002678,0.000431,0.011283
103885000,0.0324,0.013523,0.002678,0.000431,0.010813
103886000,0.0324,0.013523,0.002678,0.000431,0.010225
103887000,0.0324,0.013523,0.002678,0.000431,0.010695
103888000,0.0324,0.013523,0.002678,0.000431,0.012576
103889000,0.0324,0.013523,0.002678,0.000431,0.009050
103890000,0.0324,0.013523,0.002678,0.000431,0.009872
103891000,0.0324,0.013523,0.002678,0.000431,0.010225
103892000,0.0324,0.013523,0.002678,0.000431,0.009402
103893000,0.0324,0.013523,0.002678,0.000431,0.009637
103894000,0.0324,0.013523,0.002678,0.000431,0.009050
103895000,0.0324,0.013523,0.002678,0.000431,0.009285
103896000,0.0324,0.013523,0.002678,0.000431,0.009050
103897000,0.0324,0.013523,0.002678,0.000431,0.009402
103898000,0.0324,0.013523,0.002678,0.000431,0.010460
103899000,0.0324,0.013523,0.002678,0.000431,0.008815
103900000,0.0324,0.013523,0.002678,0.000431,0.010225
103901000,0.0324,0.013523,0.002678,0.000431,0.009402
103902000,0.0324,0.013523,0.002678,0.000431,0.010342
103903000,0.0324,0.013523,0.002678,0.000431,0.009402
103904000,0.0324,0.013523,0.002678,0.000431,0.008109
103905000,0.0324,0.013523,0.002678,0.000431,0.008580
103906000,0.0324,0.013523,0.002678,0.000431,0.008462
103907000,0.0324,0.013523,0.002678,0.000431,0.008697
103908000,0.0324,0.013523,0.002678,0.000431,0.006699
103909000,0.0324,0.013523,0.002678,0.000431,0.006464
103910000,0.0324,0.013523,0.002678,0.000431,0.006817
103911000,0.0324,0.013523,0.002678,0.000431,0.008580
103912000,0.0324,0.013523,0.002678,0.000431,0.005406
103913000,0.0324,0.013523,0.002678,0.000431,0.005876
103914000,0.0324,0.013523,0.002678,0.000431,0.005289
103915000,0.0324,0.013523,0.002678,0.000431,0.006111
103916000,0.0324,0.013523,0.002678,0.000431,0.005641
103917000,0.0324,0.013523,0.002678,0.000431,0.005524
103918000,0.0324,0.013523,0.002678,0.000431,0.006582
103919000,0.0324,0.013523,0.002678,0.000431,0.005759
103920000,0.0324,0.013523,0.002678,0.000431,0.005289
103921000,0.0324,0.013523,0.002678,0.000431,0.004349
103922000,0.0324,0.013523,0.002678,0.000431,0.005054
103923000,0.0324,0.013523,0.002678,0.000431,0.004701
103924000,0.0324,0.013523,0.002678,0.000431,0.005054
103925000,0.0324,0.013523,0.002678,0.000431,0.004936
103926000,0.0324,0.013523,0.002678,0.000431,0.004701
103927000,0.0324,0.013523,0.002678,0.000431,0.005054
103928000,0.0324,0.013523,0.002678,0.000431,0.005876
103929000,0.0324,0.013523,0.002678,0.000431,0.004231
103930000,0.0324,0.013523,0.002678,0.000431,0.003996
103931000,0.0324,0.013523,0.002678,0.000431,0.004113
103932000,0.0324,0.013523,0.002678,0.000431,0.003996
103933000,0.0324,0.013523,0.002678,0.000431,0.003996
103934000,0.0324,0.013523,0.002678,0.000431,0.003878
103935000,0.0324,0.013523,0.002678,0.000431,0.005406
103936000,0.0324,0.013523,0.002678,0.000431,0.002351
103937000,0.0324,0.013523,0.002678,0.000431,0.003761
103938000,0.0324,0.013523,0.002678,0.000431,0.000940
103939000,0.0324,0.013523,0.002678,0.000431,0.000940
103940000,0.0324,0.013523,0.002678,0.000431,0.000705
103941000,0.0324,0.013523,0.002678,0.000431,0.000940
103942000,0.0324,0.013523,0.002678,0.000431,0.000940
103943000,0.0324,0.013523,0.002678,0.000431,0.000823
103944000,0.0324,0.013523,0.002678,0.000431,0.000823
103945000,0.0324,0.013523,0.002678,0.000431,0.000940
103946000,0.0324,0.013523,0.002678,0.000431,0.000823
103947000,0.0324,0.013523,0.002678,0.000431,0.000940
103948000,0.0324,0.013523,0.002678,0.000431,0.000823
103949000,0.0324,0.013523,0.002678,0.000431,0.000940
103950000,0.0324,0.013523,0.002678,0.000431,0.000823
103951000,0.0324,0.013523,0.002678,0.000431,0.000823
103952000,0.0324,0.013523,0.002678,0.000431,0.000940
103953000,0.0324,0.013523,0.002678,0.000431,0.000940
103954000,0.0324,0.013523,0.002678,0.000431,0.000823
103955000,0.0324,0.013523,0.002678,0.000431,0.000823
103956000,0.0324,0.013523,0.002678,0.000431,0.000940
103957000,0.0324,0.013523,0.002678,0.000431,0.000940
103958000,0.0324,0.013523,0.002678,0.000431,0.000705
103959000,0.0324,0.013523,0.002678,0.000431,0.000940
103960000,0.0324,0.013523,0.002678,0.000431,0.000940
103961000,0.0324,0.013523,0.002678,0.000431,0.000940
103962000,0.0324,0.013523,0.002678,0.000431,0.000823
103963000,0.0324,0.013523,0.002678,0.000431,0.000823
103964000,0.0324,0.013523,0.002678,0.000431,0.000940
103965000,0.0324,0.013523,0.002678,0.000431,0.000823
103966000,0.0324,0.013523,0.002678,0.000431,0.000940
103967000,0.0324,0.013523,0.002678,0.000431,0.000823
103968000,0.0324,0.013523,0.002678,0.000431,0.000940
103969000,0.0324,0.013523,0.002678,0.000431,0.000823
103970000,0.0324,0.013523,0.002678,0.000431,0.000823
103971000,0.0324,0.013523,0.002678,0.000431,0.000940
103972000,0.0324,0.013523,0.002678,0.000431,0.000940
103973000,0.0324,0.013523,0.002678,0.000431,0.000823
103974000,0.0324,0.013523,0.002678,0.000431,0.000823
103975000,0.0324,0.013523,0.002678,0.000431,0.000940
103976000,0.0324,0.013523,0.002678,0.000431,0.000940
103977000,0.0324,0.013523,0.002678,0.000431,0.000823
103978000,0.0324,0.013523,0.002678,0.000431,0.000823
103979000,0.0324,0.013523,0.002678,0.000431,0.000940
103980000,0.0324,0.013523,0.002678,0.000431,0.000940
103981000,0.0324,0.013523,0.002678,0.000431,0.000705
103982000,0.0324,0.013523,0.002678,0.000431,0.000940
103983000,0.0324,0.013523,0.002678,0.000431,0.000940
103984000,0.0324,0.013523,0.002678,0.000431,0.000940
103985000,0.0324,0.013523,0.002678,0.000431,0.000705
103986000,0.0324,0.013523,0.002678,0.000431,0.000940
103987000,0.0324,0.013523,0.002678,0.000431,0.000940
103988000,0.0324,0.013523,0.002678,0.000431,0.000823
103989000,0.0324,0.013523,0.002678,0.000431,0.000940
103990000,0.0324,0.013523,0.002678,0.000431,0.000823
103991000,0.0324,0.013523,0.002678,0.000431,0.000940
103992000,0.0324,0.013523,0.002678,0.000431,0.000823
103993000,0.0324,0.013523,0.002678,0.000431,0.000823
103994000,0.0324,0.013523,0.002678,0.000431,0.000940
103995000,0.0324,0.013523,0.002678,0.000431,0.000823
103996000,0.0324,0.013523,0.002678,0.000431,0.000823
103997000,0.0324,0.013523,0.002678,0.000431,0.000940
103998000,0.0324,0.013523,0.002678,0.000431,0.000940
103999000,0.0324,0.013523,0.002678,0.000431,0.000940
