Cycle,Area(mm^2),PeakDynamic(W),SubthresholdLeakage(W),GateLeakage(W),RunTimeDynamic(W)
107000000,0.0324,0.013523,0.002678,0.000431,0.000823
107001000,0.0324,0.013523,0.002678,0.000431,0.000823
107002000,0.0324,0.013523,0.002678,0.000431,0.000940
107003000,0.0324,0.013523,0.002678,0.000431,0.000705
107004000,0.0324,0.013523,0.002678,0.000431,0.000940
107005000,0.0324,0.013523,0.002678,0.000431,0.000823
107006000,0.0324,0.013523,0.002678,0.000431,0.000823
107007000,0.0324,0.013523,0.002678,0.000431,0.000823
107008000,0.0324,0.013523,0.002678,0.000431,0.000823
107009000,0.0324,0.013523,0.002678,0.000431,0.000940
107010000,0.0324,0.013523,0.002678,0.000431,0.000705
107011000,0.0324,0.013523,0.002678,0.000431,0.000940
107012000,0.0324,0.013523,0.002678,0.000431,0.000823
107013000,0.0324,0.013523,0.002678,0.000431,0.000823
107014000,0.0324,0.013523,0.002678,0.000431,0.000705
107015000,0.0324,0.013523,0.002678,0.000431,0.000940
107016000,0.0324,0.013523,0.002678,0.000431,0.000940
107017000,0.0324,0.013523,0.002678,0.000431,0.000823
107018000,0.0324,0.013523,0.002678,0.000431,0.000823
107019000,0.0324,0.013523,0.002678,0.000431,0.000940
107020000,0.0324,0.013523,0.002678,0.000431,0.000823
107021000,0.0324,0.013523,0.002678,0.000431,0.000940
107022000,0.0324,0.013523,0.002678,0.000431,0.000823
107023000,0.0324,0.013523,0.002678,0.000431,0.000940
107024000,0.0324,0.013523,0.002678,0.000431,0.000823
107025000,0.0324,0.013523,0.002678,0.000431,0.000823
107026000,0.0324,0.013523,0.002678,0.000431,0.000940
107027000,0.0324,0.013523,0.002678,0.000431,0.000705
107028000,0.0324,0.013523,0.002678,0.000431,0.000940
107029000,0.0324,0.013523,0.002678,0.000431,0.000705
107030000,0.0324,0.013523,0.002678,0.000431,0.000940
107031000,0.0324,0.013523,0.002678,0.000431,0.000823
107032000,0.0324,0.013523,0.002678,0.000431,0.000823
107033000,0.0324,0.013523,0.002678,0.000431,0.000823
107034000,0.0324,0.013523,0.002678,0.000431,0.000823
107035000,0.0324,0.013523,0.002678,0.000431,0.000940
107036000,0.0324,0.013523,0.002678,0.000431,0.000940
107037000,0.0324,0.013523,0.002678,0.000431,0.000705
107038000,0.0324,0.013523,0.002678,0.000431,0.000940
107039000,0.0324,0.013523,0.002678,0.000431,0.000940
107040000,0.0324,0.013523,0.002678,0.000431,0.000823
107041000,0.0324,0.013523,0.002678,0.000431,0.000823
107042000,0.0324,0.013523,0.002678,0.000431,0.000940
107043000,0.0324,0.013523,0.002678,0.000431,0.000940
107044000,0.0324,0.013523,0.002678,0.000431,0.000823
107045000,0.0324,0.013523,0.002678,0.000431,0.000823
107046000,0.0324,0.013523,0.002678,0.000431,0.000823
107047000,0.0324,0.013523,0.002678,0.000431,0.000823
107048000,0.0324,0.013523,0.002678,0.000431,0.000940
107049000,0.0324,0.013523,0.002678,0.000431,0.000705
107050000,0.0324,0.013523,0.002678,0.000431,0.000823
107051000,0.0324,0.013523,0.002678,0.000431,0.000940
107052000,0.0324,0.013523,0.002678,0.000431,0.000823
107053000,0.0324,0.013523,0.002678,0.000431,0.000823
107054000,0.0324,0.013523,0.002678,0.000431,0.000823
107055000,0.0324,0.013523,0.002678,0.000431,0.000705
107056000,0.0324,0.013523,0.002678,0.000431,0.000940
107057000,0.0324,0.013523,0.002678,0.000431,0.000940
107058000,0.0324,0.013523,0.002678,0.000431,0.000705
107059000,0.0324,0.013523,0.002678,0.000431,0.000940
107060000,0.0324,0.013523,0.002678,0.000431,0.000705
107061000,0.0324,0.013523,0.002678,0.000431,0.000940
107062000,0.0324,0.013523,0.002678,0.000431,0.000940
107063000,0.0324,0.013523,0.002678,0.000431,0.000705
107064000,0.0324,0.013523,0.002678,0.000431,0.000940
107065000,0.0324,0.013523,0.002678,0.000431,0.000823
107066000,0.0324,0.013523,0.002678,0.000431,0.000823
107067000,0.0324,0.013523,0.002678,0.000431,0.000940
107068000,0.0324,0.013523,0.002678,0.000431,0.000940
107069000,0.0324,0.013523,0.002678,0.000431,0.000823
107070000,0.0324,0.013523,0.002678,0.000431,0.000823
107071000,0.0324,0.013523,0.002678,0.000431,0.000940
107072000,0.0324,0.013523,0.002678,0.000431,0.000823
107073000,0.0324,0.013523,0.002678,0.000431,0.000940
107074000,0.0324,0.013523,0.002678,0.000431,0.000823
107075000,0.0324,0.013523,0.002678,0.000431,0.000940
107076000,0.0324,0.013523,0.002678,0.000431,0.000823
107077000,0.0324,0.013523,0.002678,0.000431,0.000823
107078000,0.0324,0.013523,0.002678,0.000431,0.000940
107079000,0.0324,0.013523,0.002678,0.000431,0.000940
107080000,0.0324,0.013523,0.002678,0.000431,0.000823
107081000,0.0324,0.013523,0.002678,0.000431,0.000823
107082000,0.0324,0.013523,0.002678,0.000431,0.000940
107083000,0.0324,0.013523,0.002678,0.000431,0.000940
107084000,0.0324,0.013523,0.002678,0.000431,0.000705
107085000,0.0324,0.013523,0.002678,0.000431,0.000940
107086000,0.0324,0.013523,0.002678,0.000431,0.000940
107087000,0.0324,0.013523,0.002678,0.000431,0.000940
107088000,0.0324,0.013523,0.002678,0.000431,0.000823
107089000,0.0324,0.013523,0.002678,0.000431,0.000823
107090000,0.0324,0.013523,0.002678,0.000431,0.000940
107091000,0.0324,0.013523,0.002678,0.000431,0.000823
107092000,0.0324,0.013523,0.002678,0.000431,0.000940
107093000,0.0324,0.013523,0.002678,0.000431,0.000823
107094000,0.0324,0.013523,0.002678,0.000431,0.000940
107095000,0.0324,0.013523,0.002678,0.000431,0.000823
107096000,0.0324,0.013523,0.002678,0.000431,0.000823
107097000,0.0324,0.013523,0.002678,0.000431,0.000940
107098000,0.0324,0.013523,0.002678,0.000431,0.000940
107099000,0.0324,0.013523,0.002678,0.000431,0.000705
107100000,0.0324,0.013523,0.002678,0.000431,0.000940
107101000,0.0324,0.013523,0.002678,0.000431,0.000940
107102000,0.0324,0.013523,0.002678,0.000431,0.000940
107103000,0.0324,0.013523,0.002678,0.000431,0.000705
107104000,0.0324,0.013523,0.002678,0.000431,0.000940
107105000,0.0324,0.013523,0.002678,0.000431,0.000823
107106000,0.0324,0.013523,0.002678,0.000431,0.000823
107107000,0.0324,0.013523,0.002678,0.000431,0.000823
107108000,0.0324,0.013523,0.002678,0.000431,0.000823
107109000,0.0324,0.013523,0.002678,0.000431,0.000940
107110000,0.0324,0.013523,0.002678,0.000431,0.000705
107111000,0.0324,0.013523,0.002678,0.000431,0.000940
107112000,0.0324,0.013523,0.002678,0.000431,0.000823
107113000,0.0324,0.013523,0.002678,0.000431,0.000823
107114000,0.0324,0.013523,0.002678,0.000431,0.000705
107115000,0.0324,0.013523,0.002678,0.000431,0.000940
107116000,0.0324,0.013523,0.002678,0.000431,0.000940
107117000,0.0324,0.013523,0.002678,0.000431,0.000705
107118000,0.0324,0.013523,0.002678,0.000431,0.000940
107119000,0.0324,0.013523,0.002678,0.000431,0.000705
107120000,0.0324,0.013523,0.002678,0.000431,0.000940
107121000,0.0324,0.013523,0.002678,0.000431,0.000823
107122000,0.0324,0.013523,0.002678,0.000431,0.000823
107123000,0.0324,0.013523,0.002678,0.000431,0.000940
107124000,0.0324,0.013523,0.002678,0.000431,0.000705
107125000,0.0324,0.013523,0.002678,0.000431,0.000940
107126000,0.0324,0.013523,0.002678,0.000431,0.000940
107127000,0.0324,0.013523,0.002678,0.000431,0.000940
107128000,0.0324,0.013523,0.002678,0.000431,0.000705
107129000,0.0324,0.013523,0.002678,0.000431,0.000940
107130000,0.0324,0.013523,0.002678,0.000431,0.000940
107131000,0.0324,0.013523,0.002678,0.000431,0.000823
107132000,0.0324,0.013523,0.002678,0.000431,0.000823
107133000,0.0324,0.013523,0.002678,0.000431,0.000940
107134000,0.0324,0.013523,0.002678,0.000431,0.000823
107135000,0.0324,0.013523,0.002678,0.000431,0.000823
107136000,0.0324,0.013523,0.002678,0.000431,0.000705
107137000,0.0324,0.013523,0.002678,0.000431,0.000940
107138000,0.0324,0.013523,0.002678,0.000431,0.000940
107139000,0.0324,0.013523,0.002678,0.000431,0.000705
107140000,0.0324,0.013523,0.002678,0.000431,0.000940
107141000,0.0324,0.013523,0.002678,0.000431,0.000705
107142000,0.0324,0.013523,0.002678,0.000431,0.000940
107143000,0.0324,0.013523,0.002678,0.000431,0.000823
107144000,0.0324,0.013523,0.002678,0.000431,0.000823
107145000,0.0324,0.013523,0.002678,0.000431,0.000940
107146000,0.0324,0.013523,0.002678,0.000431,0.000705
107147000,0.0324,0.013523,0.002678,0.000431,0.000940
107148000,0.0324,0.013523,0.002678,0.000431,0.000823
107149000,0.0324,0.013523,0.002678,0.000431,0.000823
107150000,0.0324,0.013523,0.002678,0.000431,0.000823
107151000,0.0324,0.013523,0.002678,0.000431,0.000823
107152000,0.0324,0.013523,0.002678,0.000431,0.000823
107153000,0.0324,0.013523,0.002678,0.000431,0.000823
107154000,0.0324,0.013523,0.002678,0.000431,0.000940
107155000,0.0324,0.013523,0.002678,0.000431,0.000940
107156000,0.0324,0.013523,0.002678,0.000431,0.000823
107157000,0.0324,0.013523,0.002678,0.000431,0.000823
107158000,0.0324,0.013523,0.002678,0.000431,0.000940
107159000,0.0324,0.013523,0.002678,0.000431,0.000940
107160000,0.0324,0.013523,0.002678,0.000431,0.000823
107161000,0.0324,0.013523,0.002678,0.000431,0.000823
107162000,0.0324,0.013523,0.002678,0.000431,0.000940
107163000,0.0324,0.013523,0.002678,0.000431,0.000823
107164000,0.0324,0.013523,0.002678,0.000431,0.000940
107165000,0.0324,0.013523,0.002678,0.000431,0.000823
107166000,0.0324,0.013523,0.002678,0.000431,0.000940
107167000,0.0324,0.013523,0.002678,0.000431,0.000823
107168000,0.0324,0.013523,0.002678,0.000431,0.000823
107169000,0.0324,0.013523,0.002678,0.000431,0.000940
107170000,0.0324,0.013523,0.002678,0.000431,0.000940
107171000,0.0324,0.013523,0.002678,0.000431,0.000823
107172000,0.0324,0.013523,0.002678,0.000431,0.000823
107173000,0.0324,0.013523,0.002678,0.000431,0.000940
107174000,0.0324,0.013523,0.002678,0.000431,0.000940
107175000,0.0324,0.013523,0.002678,0.000431,0.000705
107176000,0.0324,0.013523,0.002678,0.000431,0.000940
107177000,0.0324,0.013523,0.002678,0.000431,0.000940
107178000,0.0324,0.013523,0.002678,0.000431,0.000940
107179000,0.0324,0.013523,0.002678,0.000431,0.000705
107180000,0.0324,0.013523,0.002678,0.000431,0.000940
107181000,0.0324,0.013523,0.002678,0.000431,0.000940
107182000,0.0324,0.013523,0.002678,0.000431,0.000823
107183000,0.0324,0.013523,0.002678,0.000431,0.000940
107184000,0.0324,0.013523,0.002678,0.000431,0.000823
107185000,0.0324,0.013523,0.002678,0.000431,0.000940
107186000,0.0324,0.013523,0.002678,0.000431,0.000823
107187000,0.0324,0.013523,0.002678,0.000431,0.000823
107188000,0.0324,0.013523,0.002678,0.000431,0.000940
107189000,0.0324,0.013523,0.002678,0.000431,0.000940
107190000,0.0324,0.013523,0.002678,0.000431,0.000705
107191000,0.0324,0.013523,0.002678,0.000431,0.000940
107192000,0.0324,0.013523,0.002678,0.000431,0.000940
107193000,0.0324,0.013523,0.002678,0.000431,0.000940
107194000,0.0324,0.013523,0.002678,0.000431,0.000705
107195000,0.0324,0.013523,0.002678,0.000431,0.000940
107196000,0.0324,0.013523,0.002678,0.000431,0.000940
107197000,0.0324,0.013523,0.002678,0.000431,0.000823
107198000,0.0324,0.013523,0.002678,0.000431,0.000823
107199000,0.0324,0.013523,0.002678,0.000431,0.000940
107200000,0.0324,0.013523,0.002678,0.000431,0.000940
107201000,0.0324,0.013523,0.002678,0.000431,0.000823
107202000,0.0324,0.013523,0.002678,0.000431,0.000823
107203000,0.0324,0.013523,0.002678,0.000431,0.000940
107204000,0.0324,0.013523,0.002678,0.000431,0.000823
107205000,0.0324,0.013523,0.002678,0.000431,0.000940
107206000,0.0324,0.013523,0.002678,0.000431,0.000823
107207000,0.0324,0.013523,0.002678,0.000431,0.000940
107208000,0.0324,0.013523,0.002678,0.000431,0.000823
107209000,0.0324,0.013523,0.002678,0.000431,0.000823
107210000,0.0324,0.013523,0.002678,0.000431,0.000940
107211000,0.0324,0.013523,0.002678,0.000431,0.000940
107212000,0.0324,0.013523,0.002678,0.000431,0.000823
107213000,0.0324,0.013523,0.002678,0.000431,0.000823
107214000,0.0324,0.013523,0.002678,0.000431,0.000940
107215000,0.0324,0.013523,0.002678,0.000431,0.000940
107216000,0.0324,0.013523,0.002678,0.000431,0.000823
107217000,0.0324,0.013523,0.002678,0.000431,0.000823
107218000,0.0324,0.013523,0.002678,0.000431,0.000940
107219000,0.0324,0.013523,0.002678,0.000431,0.000940
107220000,0.0324,0.013523,0.002678,0.000431,0.000823
107221000,0.0324,0.013523,0.002678,0.000431,0.000823
107222000,0.0324,0.013523,0.002678,0.000431,0.000940
107223000,0.0324,0.013523,0.002678,0.000431,0.000823
107224000,0.0324,0.013523,0.002678,0.000431,0.000940
107225000,0.0324,0.013523,0.002678,0.000431,0.000823
107226000,0.0324,0.013523,0.002678,0.000431,0.000940
107227000,0.0324,0.013523,0.002678,0.000431,0.000823
107228000,0.0324,0.013523,0.002678,0.000431,0.000823
107229000,0.0324,0.013523,0.002678,0.000431,0.000940
107230000,0.0324,0.013523,0.002678,0.000431,0.000940
107231000,0.0324,0.013523,0.002678,0.000431,0.000823
107232000,0.0324,0.013523,0.002678,0.000431,0.000823
107233000,0.0324,0.013523,0.002678,0.000431,0.000940
107234000,0.0324,0.013523,0.002678,0.000431,0.000940
107235000,0.0324,0.013523,0.002678,0.000431,0.000705
107236000,0.0324,0.013523,0.002678,0.000431,0.000940
107237000,0.0324,0.013523,0.002678,0.000431,0.000940
107238000,0.0324,0.013523,0.002678,0.000431,0.000823
107239000,0.0324,0.013523,0.002678,0.000431,0.000823
107240000,0.0324,0.013523,0.002678,0.000431,0.000940
107241000,0.0324,0.013523,0.002678,0.000431,0.000940
107242000,0.0324,0.013523,0.002678,0.000431,0.000823
107243000,0.0324,0.013523,0.002678,0.000431,0.000823
107244000,0.0324,0.013523,0.002678,0.000431,0.000940
107245000,0.0324,0.013523,0.002678,0.000431,0.000823
107246000,0.0324,0.013523,0.002678,0.000431,0.000940
107247000,0.0324,0.013523,0.002678,0.000431,0.000823
107248000,0.0324,0.013523,0.002678,0.000431,0.000940
107249000,0.0324,0.013523,0.002678,0.000431,0.000940
107250000,0.0324,0.013523,0.002678,0.000431,0.000705
107251000,0.0324,0.013523,0.002678,0.000431,0.000940
107252000,0.0324,0.013523,0.002678,0.000431,0.000705
107253000,0.0324,0.013523,0.002678,0.000431,0.000940
107254000,0.0324,0.013523,0.002678,0.000431,0.000823
107255000,0.0324,0.013523,0.002678,0.000431,0.000823
107256000,0.0324,0.013523,0.002678,0.000431,0.000823
107257000,0.0324,0.013523,0.002678,0.000431,0.000823
107258000,0.0324,0.013523,0.002678,0.000431,0.000940
107259000,0.0324,0.013523,0.002678,0.000431,0.000705
107260000,0.0324,0.013523,0.002678,0.000431,0.000940
107261000,0.0324,0.013523,0.002678,0.000431,0.000940
107262000,0.0324,0.013523,0.002678,0.000431,0.000823
107263000,0.0324,0.013523,0.002678,0.000431,0.000823
107264000,0.0324,0.013523,0.002678,0.000431,0.000940
107265000,0.0324,0.013523,0.002678,0.000431,0.000823
107266000,0.0324,0.013523,0.002678,0.000431,0.000940
107267000,0.0324,0.013523,0.002678,0.000431,0.000823
107268000,0.0324,0.013523,0.002678,0.000431,0.000940
107269000,0.0324,0.013523,0.002678,0.000431,0.000823
107270000,0.0324,0.013523,0.002678,0.000431,0.000823
107271000,0.0324,0.013523,0.002678,0.000431,0.000940
107272000,0.0324,0.013523,0.002678,0.000431,0.000940
107273000,0.0324,0.013523,0.002678,0.000431,0.000823
107274000,0.0324,0.013523,0.002678,0.000431,0.000823
107275000,0.0324,0.013523,0.002678,0.000431,0.000940
107276000,0.0324,0.013523,0.002678,0.000431,0.000940
107277000,0.0324,0.013523,0.002678,0.000431,0.000705
107278000,0.0324,0.013523,0.002678,0.000431,0.000940
107279000,0.0324,0.013523,0.002678,0.000431,0.000940
107280000,0.0324,0.013523,0.002678,0.000431,0.000823
107281000,0.0324,0.013523,0.002678,0.000431,0.000823
107282000,0.0324,0.013523,0.002678,0.000431,0.000705
107283000,0.0324,0.013523,0.002678,0.000431,0.000940
107284000,0.0324,0.013523,0.002678,0.000431,0.000940
107285000,0.0324,0.013523,0.002678,0.000431,0.000705
107286000,0.0324,0.013523,0.002678,0.000431,0.000940
107287000,0.0324,0.013523,0.002678,0.000431,0.000705
107288000,0.0324,0.013523,0.002678,0.000431,0.000940
107289000,0.0324,0.013523,0.002678,0.000431,0.000823
107290000,0.0324,0.013523,0.002678,0.000431,0.000823
107291000,0.0324,0.013523,0.002678,0.000431,0.000823
107292000,0.0324,0.013523,0.002678,0.000431,0.000823
107293000,0.0324,0.013523,0.002678,0.000431,0.000940
107294000,0.0324,0.013523,0.002678,0.000431,0.000823
107295000,0.0324,0.013523,0.002678,0.000431,0.000823
107296000,0.0324,0.013523,0.002678,0.000431,0.000823
107297000,0.0324,0.013523,0.002678,0.000431,0.000823
107298000,0.0324,0.013523,0.002678,0.000431,0.000823
107299000,0.0324,0.013523,0.002678,0.000431,0.000823
107300000,0.0324,0.013523,0.002678,0.000431,0.000940
107301000,0.0324,0.013523,0.002678,0.000431,0.000940
107302000,0.0324,0.013523,0.002678,0.000431,0.000705
107303000,0.0324,0.013523,0.002678,0.000431,0.000940
107304000,0.0324,0.013523,0.002678,0.000431,0.000940
107305000,0.0324,0.013523,0.002678,0.000431,0.000940
107306000,0.0324,0.013523,0.002678,0.000431,0.000823
107307000,0.0324,0.013523,0.002678,0.000431,0.000823
107308000,0.0324,0.013523,0.002678,0.000431,0.000940
107309000,0.0324,0.013523,0.002678,0.000431,0.000823
107310000,0.0324,0.013523,0.002678,0.000431,0.000940
107311000,0.0324,0.013523,0.002678,0.000431,0.000823
107312000,0.0324,0.013523,0.002678,0.000431,0.000940
107313000,0.0324,0.013523,0.002678,0.000431,0.000823
107314000,0.0324,0.013523,0.002678,0.000431,0.000823
107315000,0.0324,0.013523,0.002678,0.000431,0.000940
107316000,0.0324,0.013523,0.002678,0.000431,0.000940
107317000,0.0324,0.013523,0.002678,0.000431,0.000823
107318000,0.0324,0.013523,0.002678,0.000431,0.000823
107319000,0.0324,0.013523,0.002678,0.000431,0.000823
107320000,0.0324,0.013523,0.002678,0.000431,0.000823
107321000,0.0324,0.013523,0.002678,0.000431,0.000940
107322000,0.0324,0.013523,0.002678,0.000431,0.000823
107323000,0.0324,0.013523,0.002678,0.000431,0.000823
107324000,0.0324,0.013523,0.002678,0.000431,0.000705
107325000,0.0324,0.013523,0.002678,0.000431,0.000940
107326000,0.0324,0.013523,0.002678,0.000431,0.000940
107327000,0.0324,0.013523,0.002678,0.000431,0.000705
107328000,0.0324,0.013523,0.002678,0.000431,0.000940
107329000,0.0324,0.013523,0.002678,0.000431,0.000823
107330000,0.0324,0.013523,0.002678,0.000431,0.000940
107331000,0.0324,0.013523,0.002678,0.000431,0.000823
107332000,0.0324,0.013523,0.002678,0.000431,0.000940
107333000,0.0324,0.013523,0.002678,0.000431,0.000823
107334000,0.0324,0.013523,0.002678,0.000431,0.000823
107335000,0.0324,0.013523,0.002678,0.000431,0.000940
107336000,0.0324,0.013523,0.002678,0.000431,0.000940
107337000,0.0324,0.013523,0.002678,0.000431,0.000823
107338000,0.0324,0.013523,0.002678,0.000431,0.000823
107339000,0.0324,0.013523,0.002678,0.000431,0.000940
107340000,0.0324,0.013523,0.002678,0.000431,0.000705
107341000,0.0324,0.013523,0.002678,0.000431,0.000940
107342000,0.0324,0.013523,0.002678,0.000431,0.000705
107343000,0.0324,0.013523,0.002678,0.000431,0.000940
107344000,0.0324,0.013523,0.002678,0.000431,0.000705
107345000,0.0324,0.013523,0.002678,0.000431,0.000940
107346000,0.0324,0.013523,0.002678,0.000431,0.000940
107347000,0.0324,0.013523,0.002678,0.000431,0.000705
107348000,0.0324,0.013523,0.002678,0.000431,0.000940
107349000,0.0324,0.013523,0.002678,0.000431,0.000940
107350000,0.0324,0.013523,0.002678,0.000431,0.000705
107351000,0.0324,0.013523,0.002678,0.000431,0.000940
107352000,0.0324,0.013523,0.002678,0.000431,0.000940
107353000,0.0324,0.013523,0.002678,0.000431,0.000823
107354000,0.0324,0.013523,0.002678,0.000431,0.000823
107355000,0.0324,0.013523,0.002678,0.000431,0.000940
107356000,0.0324,0.013523,0.002678,0.000431,0.000940
107357000,0.0324,0.013523,0.002678,0.000431,0.000823
107358000,0.0324,0.013523,0.002678,0.000431,0.000823
107359000,0.0324,0.013523,0.002678,0.000431,0.000940
107360000,0.0324,0.013523,0.002678,0.000431,0.000823
107361000,0.0324,0.013523,0.002678,0.000431,0.000823
107362000,0.0324,0.013523,0.002678,0.000431,0.000940
107363000,0.0324,0.013523,0.002678,0.000431,0.000940
107364000,0.0324,0.013523,0.002678,0.000431,0.000940
107365000,0.0324,0.013523,0.002678,0.000431,0.000705
107366000,0.0324,0.013523,0.002678,0.000431,0.000940
107367000,0.0324,0.013523,0.002678,0.000431,0.000940
107368000,0.0324,0.013523,0.002678,0.000431,0.000823
107369000,0.0324,0.013523,0.002678,0.000431,0.000823
107370000,0.0324,0.013523,0.002678,0.000431,0.000940
107371000,0.0324,0.013523,0.002678,0.000431,0.000940
107372000,0.0324,0.013523,0.002678,0.000431,0.000823
107373000,0.0324,0.013523,0.002678,0.000431,0.000823
107374000,0.0324,0.013523,0.002678,0.000431,0.000940
107375000,0.0324,0.013523,0.002678,0.000431,0.000823
107376000,0.0324,0.013523,0.002678,0.000431,0.000940
107377000,0.0324,0.013523,0.002678,0.000431,0.000823
107378000,0.0324,0.013523,0.002678,0.000431,0.000940
107379000,0.0324,0.013523,0.002678,0.000431,0.000823
107380000,0.0324,0.013523,0.002678,0.000431,0.000823
107381000,0.0324,0.013523,0.002678,0.000431,0.000940
107382000,0.0324,0.013523,0.002678,0.000431,0.000940
107383000,0.0324,0.013523,0.002678,0.000431,0.000823
107384000,0.0324,0.013523,0.002678,0.000431,0.000823
107385000,0.0324,0.013523,0.002678,0.000431,0.000940
107386000,0.0324,0.013523,0.002678,0.000431,0.000940
107387000,0.0324,0.013523,0.002678,0.000431,0.000823
107388000,0.0324,0.013523,0.002678,0.000431,0.000823
107389000,0.0324,0.013523,0.002678,0.000431,0.000940
107390000,0.0324,0.013523,0.002678,0.000431,0.000940
107391000,0.0324,0.013523,0.002678,0.000431,0.000823
107392000,0.0324,0.013523,0.002678,0.000431,0.000823
107393000,0.0324,0.013523,0.002678,0.000431,0.000940
107394000,0.0324,0.013523,0.002678,0.000431,0.000823
107395000,0.0324,0.013523,0.002678,0.000431,0.000940
107396000,0.0324,0.013523,0.002678,0.000431,0.000823
107397000,0.0324,0.013523,0.002678,0.000431,0.000940
107398000,0.0324,0.013523,0.002678,0.000431,0.000823
107399000,0.0324,0.013523,0.002678,0.000431,0.000823
107400000,0.0324,0.013523,0.002678,0.000431,0.000940
107401000,0.0324,0.013523,0.002678,0.000431,0.000940
107402000,0.0324,0.013523,0.002678,0.000431,0.000705
107403000,0.0324,0.013523,0.002678,0.000431,0.000940
107404000,0.0324,0.013523,0.002678,0.000431,0.000940
107405000,0.0324,0.013523,0.002678,0.000431,0.000940
107406000,0.0324,0.013523,0.002678,0.000431,0.000705
107407000,0.0324,0.013523,0.002678,0.000431,0.000940
107408000,0.0324,0.013523,0.002678,0.000431,0.000940
107409000,0.0324,0.013523,0.002678,0.000431,0.000823
107410000,0.0324,0.013523,0.002678,0.000431,0.000823
107411000,0.0324,0.013523,0.002678,0.000431,0.000940
107412000,0.0324,0.013523,0.002678,0.000431,0.000940
107413000,0.0324,0.013523,0.002678,0.000431,0.000823
107414000,0.0324,0.013523,0.002678,0.000431,0.000823
107415000,0.0324,0.013523,0.002678,0.000431,0.000940
107416000,0.0324,0.013523,0.002678,0.000431,0.000823
107417000,0.0324,0.013523,0.002678,0.000431,0.000940
107418000,0.0324,0.013523,0.002678,0.000431,0.000823
107419000,0.0324,0.013523,0.002678,0.000431,0.000940
107420000,0.0324,0.013523,0.002678,0.000431,0.000823
107421000,0.0324,0.013523,0.002678,0.000431,0.000823
107422000,0.0324,0.013523,0.002678,0.000431,0.000940
107423000,0.0324,0.013523,0.002678,0.000431,0.000940
107424000,0.0324,0.013523,0.002678,0.000431,0.000940
107425000,0.0324,0.013523,0.002678,0.000431,0.000705
107426000,0.0324,0.013523,0.002678,0.000431,0.000823
107427000,0.0324,0.013523,0.002678,0.000431,0.000823
107428000,0.0324,0.013523,0.002678,0.000431,0.000940
107429000,0.0324,0.013523,0.002678,0.000431,0.000823
107430000,0.0324,0.013523,0.002678,0.000431,0.000823
107431000,0.0324,0.013523,0.002678,0.000431,0.000705
107432000,0.0324,0.013523,0.002678,0.000431,0.000940
107433000,0.0324,0.013523,0.002678,0.000431,0.000940
107434000,0.0324,0.013523,0.002678,0.000431,0.000705
107435000,0.0324,0.013523,0.002678,0.000431,0.000940
107436000,0.0324,0.013523,0.002678,0.000431,0.000705
107437000,0.0324,0.013523,0.002678,0.000431,0.000940
107438000,0.0324,0.013523,0.002678,0.000431,0.000823
107439000,0.0324,0.013523,0.002678,0.000431,0.000823
107440000,0.0324,0.013523,0.002678,0.000431,0.000940
107441000,0.0324,0.013523,0.002678,0.000431,0.000705
107442000,0.0324,0.013523,0.002678,0.000431,0.000940
107443000,0.0324,0.013523,0.002678,0.000431,0.000823
107444000,0.0324,0.013523,0.002678,0.000431,0.000823
107445000,0.0324,0.013523,0.002678,0.000431,0.000823
107446000,0.0324,0.013523,0.002678,0.000431,0.000823
107447000,0.0324,0.013523,0.002678,0.000431,0.000940
107448000,0.0324,0.013523,0.002678,0.000431,0.000940
107449000,0.0324,0.013523,0.002678,0.000431,0.000823
107450000,0.0324,0.013523,0.002678,0.000431,0.000823
107451000,0.0324,0.013523,0.002678,0.000431,0.000940
107452000,0.0324,0.013523,0.002678,0.000431,0.000940
107453000,0.0324,0.013523,0.002678,0.000431,0.000705
107454000,0.0324,0.013523,0.002678,0.000431,0.000940
107455000,0.0324,0.013523,0.002678,0.000431,0.000940
107456000,0.0324,0.013523,0.002678,0.000431,0.000705
107457000,0.0324,0.013523,0.002678,0.000431,0.000940
107458000,0.0324,0.013523,0.002678,0.000431,0.000823
107459000,0.0324,0.013523,0.002678,0.000431,0.000823
107460000,0.0324,0.013523,0.002678,0.000431,0.000940
107461000,0.0324,0.013523,0.002678,0.000431,0.000705
107462000,0.0324,0.013523,0.002678,0.000431,0.000940
107463000,0.0324,0.013523,0.002678,0.000431,0.000823
107464000,0.0324,0.013523,0.002678,0.000431,0.000823
107465000,0.0324,0.013523,0.002678,0.000431,0.000823
107466000,0.0324,0.013523,0.002678,0.000431,0.000823
107467000,0.0324,0.013523,0.002678,0.000431,0.000940
107468000,0.0324,0.013523,0.002678,0.000431,0.000940
107469000,0.0324,0.013523,0.002678,0.000431,0.000823
107470000,0.0324,0.013523,0.002678,0.000431,0.000823
107471000,0.0324,0.013523,0.002678,0.000431,0.000940
107472000,0.0324,0.013523,0.002678,0.000431,0.000940
107473000,0.0324,0.013523,0.002678,0.000431,0.000705
107474000,0.0324,0.013523,0.002678,0.000431,0.000940
107475000,0.0324,0.013523,0.002678,0.000431,0.000940
107476000,0.0324,0.013523,0.002678,0.000431,0.000940
107477000,0.0324,0.013523,0.002678,0.000431,0.000823
107478000,0.0324,0.013523,0.002678,0.000431,0.000823
107479000,0.0324,0.013523,0.002678,0.000431,0.000940
107480000,0.0324,0.013523,0.002678,0.000431,0.000823
107481000,0.0324,0.013523,0.002678,0.000431,0.000940
107482000,0.0324,0.013523,0.002678,0.000431,0.000823
107483000,0.0324,0.013523,0.002678,0.000431,0.000940
107484000,0.0324,0.013523,0.002678,0.000431,0.000823
107485000,0.0324,0.013523,0.002678,0.000431,0.000823
107486000,0.0324,0.013523,0.002678,0.000431,0.000823
107487000,0.0324,0.013523,0.002678,0.000431,0.000823
107488000,0.0324,0.013523,0.002678,0.000431,0.000940
107489000,0.0324,0.013523,0.002678,0.000431,0.000823
107490000,0.0324,0.013523,0.002678,0.000431,0.000823
107491000,0.0324,0.013523,0.002678,0.000431,0.000823
107492000,0.0324,0.013523,0.002678,0.000431,0.000823
107493000,0.0324,0.013523,0.002678,0.000431,0.000823
107494000,0.0324,0.013523,0.002678,0.000431,0.000823
107495000,0.0324,0.013523,0.002678,0.000431,0.000940
107496000,0.0324,0.013523,0.002678,0.000431,0.000940
107497000,0.0324,0.013523,0.002678,0.000431,0.000823
107498000,0.0324,0.013523,0.002678,0.000431,0.000823
107499000,0.0324,0.013523,0.002678,0.000431,0.000940
107500000,0.0324,0.013523,0.002678,0.000431,0.000823
107501000,0.0324,0.013523,0.002678,0.000431,0.000940
107502000,0.0324,0.013523,0.002678,0.000431,0.000823
107503000,0.0324,0.013523,0.002678,0.000431,0.000940
107504000,0.0324,0.013523,0.002678,0.000431,0.000823
107505000,0.0324,0.013523,0.002678,0.000431,0.000823
107506000,0.0324,0.013523,0.002678,0.000431,0.000823
107507000,0.0324,0.013523,0.002678,0.000431,0.000823
107508000,0.0324,0.013523,0.002678,0.000431,0.000823
107509000,0.0324,0.013523,0.002678,0.000431,0.000823
107510000,0.0324,0.013523,0.002678,0.000431,0.000823
107511000,0.0324,0.013523,0.002678,0.000431,0.000823
107512000,0.0324,0.013523,0.002678,0.000431,0.000940
107513000,0.0324,0.013523,0.002678,0.000431,0.000823
107514000,0.0324,0.013523,0.002678,0.000431,0.000823
107515000,0.0324,0.013523,0.002678,0.000431,0.000940
107516000,0.0324,0.013523,0.002678,0.000431,0.000823
107517000,0.0324,0.013523,0.002678,0.000431,0.000823
107518000,0.0324,0.013523,0.002678,0.000431,0.000940
107519000,0.0324,0.013523,0.002678,0.000431,0.000940
107520000,0.0324,0.013523,0.002678,0.000431,0.000823
107521000,0.0324,0.013523,0.002678,0.000431,0.000823
107522000,0.0324,0.013523,0.002678,0.000431,0.000940
107523000,0.0324,0.013523,0.002678,0.000431,0.000940
107524000,0.0324,0.013523,0.002678,0.000431,0.000823
107525000,0.0324,0.013523,0.002678,0.000431,0.000823
107526000,0.0324,0.013523,0.002678,0.000431,0.000823
107527000,0.0324,0.013523,0.002678,0.000431,0.000823
107528000,0.0324,0.013523,0.002678,0.000431,0.000823
107529000,0.0324,0.013523,0.002678,0.000431,0.000823
107530000,0.0324,0.013523,0.002678,0.000431,0.000940
107531000,0.0324,0.013523,0.002678,0.000431,0.135392
107532000,0.0324,0.013523,0.002678,0.000431,0.510307
107533000,0.0324,0.013523,0.002678,0.000431,0.533931
107534000,0.0324,0.013523,0.002678,0.000431,0.134452
107535000,0.0324,0.013523,0.002678,0.000431,0.133042
107536000,0.0324,0.013523,0.002678,0.000431,0.559552
107537000,0.0324,0.013523,0.002678,0.000431,0.239287
107538000,0.0324,0.013523,0.002678,0.000431,0.231060
107539000,0.0324,0.013523,0.002678,0.000431,0.338716
107540000,0.0324,0.013523,0.002678,0.000431,0.138096
107541000,0.0324,0.013523,0.002678,0.000431,0.159721
107542000,0.0324,0.013523,0.002678,0.000431,0.113767
107543000,0.0324,0.013523,0.002678,0.000431,0.402299
107544000,0.0324,0.013523,0.002678,0.000431,0.171121
107545000,0.0324,0.013523,0.002678,0.000431,0.044308
107546000,0.0324,0.013523,0.002678,0.000431,0.031615
107547000,0.0324,0.013523,0.002678,0.000431,0.030675
107548000,0.0324,0.013523,0.002678,0.000431,0.021625
107549000,0.0324,0.013523,0.002678,0.000431,0.020332
107550000,0.0324,0.013523,0.002678,0.000431,0.010460
107551000,0.0324,0.013523,0.002678,0.000431,0.005994
107552000,0.0324,0.013523,0.002678,0.000431,0.007874
107553000,0.0324,0.013523,0.002678,0.000431,0.004936
107554000,0.0324,0.013523,0.002678,0.000431,0.008109
107555000,0.0324,0.013523,0.002678,0.000431,0.004113
107556000,0.0324,0.013523,0.002678,0.000431,0.004231
107557000,0.0324,0.013523,0.002678,0.000431,0.004231
107558000,0.0324,0.013523,0.002678,0.000431,0.003878
107559000,0.0324,0.013523,0.002678,0.000431,0.004466
107560000,0.0324,0.013523,0.002678,0.000431,0.003996
107561000,0.0324,0.013523,0.002678,0.000431,0.004231
107562000,0.0324,0.013523,0.002678,0.000431,0.004349
107563000,0.0324,0.013523,0.002678,0.000431,0.004113
107564000,0.0324,0.013523,0.002678,0.000431,0.004113
107565000,0.0324,0.013523,0.002678,0.000431,0.003996
107566000,0.0324,0.013523,0.002678,0.000431,0.004466
107567000,0.0324,0.013523,0.002678,0.000431,0.003996
107568000,0.0324,0.013523,0.002678,0.000431,0.004113
107569000,0.0324,0.013523,0.002678,0.000431,0.004466
107570000,0.0324,0.013523,0.002678,0.000431,0.004113
107571000,0.0324,0.013523,0.002678,0.000431,0.004231
107572000,0.0324,0.013523,0.002678,0.000431,0.004231
107573000,0.0324,0.013523,0.002678,0.000431,0.003878
107574000,0.0324,0.013523,0.002678,0.000431,0.004349
107575000,0.0324,0.013523,0.002678,0.000431,0.004231
107576000,0.0324,0.013523,0.002678,0.000431,0.003996
107577000,0.0324,0.013523,0.002678,0.000431,0.004349
107578000,0.0324,0.013523,0.002678,0.000431,0.003996
107579000,0.0324,0.013523,0.002678,0.000431,0.004349
107580000,0.0324,0.013523,0.002678,0.000431,0.004113
107581000,0.0324,0.013523,0.002678,0.000431,0.004113
107582000,0.0324,0.013523,0.002678,0.000431,0.006347
107583000,0.0324,0.013523,0.002678,0.000431,0.002938
107584000,0.0324,0.013523,0.002678,0.000431,0.003643
107585000,0.0324,0.013523,0.002678,0.000431,0.003526
107586000,0.0324,0.013523,0.002678,0.000431,0.003173
107587000,0.0324,0.013523,0.002678,0.000431,0.003408
107588000,0.0324,0.013523,0.002678,0.000431,0.003173
107589000,0.0324,0.013523,0.002678,0.000431,0.003408
107590000,0.0324,0.013523,0.002678,0.000431,0.003408
107591000,0.0324,0.013523,0.002678,0.000431,0.004466
107592000,0.0324,0.013523,0.002678,0.000431,0.002468
107593000,0.0324,0.013523,0.002678,0.000431,0.002468
107594000,0.0324,0.013523,0.002678,0.000431,0.002586
107595000,0.0324,0.013523,0.002678,0.000431,0.002468
107596000,0.0324,0.013523,0.002678,0.000431,0.002351
107597000,0.0324,0.013523,0.002678,0.000431,0.002586
107598000,0.0324,0.013523,0.002678,0.000431,0.002586
107599000,0.0324,0.013523,0.002678,0.000431,0.002351
107600000,0.0324,0.013523,0.002678,0.000431,0.002821
107601000,0.0324,0.013523,0.002678,0.000431,0.002351
107602000,0.0324,0.013523,0.002678,0.000431,0.002586
107603000,0.0324,0.013523,0.002678,0.000431,0.002233
107604000,0.0324,0.013523,0.002678,0.000431,0.002703
107605000,0.0324,0.013523,0.002678,0.000431,0.002821
107606000,0.0324,0.013523,0.002678,0.000431,0.001998
107607000,0.0324,0.013523,0.002678,0.000431,0.002938
107608000,0.0324,0.013523,0.002678,0.000431,0.002233
107609000,0.0324,0.013523,0.002678,0.000431,0.002703
107610000,0.0324,0.013523,0.002678,0.000431,0.002468
107611000,0.0324,0.013523,0.002678,0.000431,0.002351
107612000,0.0324,0.013523,0.002678,0.000431,0.002586
107613000,0.0324,0.013523,0.002678,0.000431,0.002468
107614000,0.0324,0.013523,0.002678,0.000431,0.002703
107615000,0.0324,0.013523,0.002678,0.000431,0.002233
107616000,0.0324,0.013523,0.002678,0.000431,0.002703
107617000,0.0324,0.013523,0.002678,0.000431,0.002351
107618000,0.0324,0.013523,0.002678,0.000431,0.002703
107619000,0.0324,0.013523,0.002678,0.000431,0.002116
107620000,0.0324,0.013523,0.002678,0.000431,0.002821
107621000,0.0324,0.013523,0.002678,0.000431,0.002351
107622000,0.0324,0.013523,0.002678,0.000431,0.002586
107623000,0.0324,0.013523,0.002678,0.000431,0.002586
107624000,0.0324,0.013523,0.002678,0.000431,0.002351
107625000,0.0324,0.013523,0.002678,0.000431,0.002821
107626000,0.0324,0.013523,0.002678,0.000431,0.002116
107627000,0.0324,0.013523,0.002678,0.000431,0.002821
107628000,0.0324,0.013523,0.002678,0.000431,0.002351
107629000,0.0324,0.013523,0.002678,0.000431,0.002586
107630000,0.0324,0.013523,0.002678,0.000431,0.002586
107631000,0.0324,0.013523,0.002678,0.000431,0.002233
107632000,0.0324,0.013523,0.002678,0.000431,0.002703
107633000,0.0324,0.013523,0.002678,0.000431,0.002468
107634000,0.0324,0.013523,0.002678,0.000431,0.002468
107635000,0.0324,0.013523,0.002678,0.000431,0.002468
107636000,0.0324,0.013523,0.002678,0.000431,0.002468
107637000,0.0324,0.013523,0.002678,0.000431,0.002586
107638000,0.0324,0.013523,0.002678,0.000431,0.002586
107639000,0.0324,0.013523,0.002678,0.000431,0.002468
107640000,0.0324,0.013523,0.002678,0.000431,0.002586
107641000,0.0324,0.013523,0.002678,0.000431,0.002233
107642000,0.0324,0.013523,0.002678,0.000431,0.002703
107643000,0.0324,0.013523,0.002678,0.000431,0.002703
107644000,0.0324,0.013523,0.002678,0.000431,0.002116
107645000,0.0324,0.013523,0.002678,0.000431,0.002821
107646000,0.0324,0.013523,0.002678,0.000431,0.002351
107647000,0.0324,0.013523,0.002678,0.000431,0.002586
107648000,0.0324,0.013523,0.002678,0.000431,0.002586
107649000,0.0324,0.013523,0.002678,0.000431,0.002351
107650000,0.0324,0.013523,0.002678,0.000431,0.002586
107651000,0.0324,0.013523,0.002678,0.000431,0.002586
107652000,0.0324,0.013523,0.002678,0.000431,0.002351
107653000,0.0324,0.013523,0.002678,0.000431,0.002586
107654000,0.0324,0.013523,0.002678,0.000431,0.002586
107655000,0.0324,0.013523,0.002678,0.000431,0.002351
107656000,0.0324,0.013523,0.002678,0.000431,0.004701
107657000,0.0324,0.013523,0.002678,0.000431,0.001293
107658000,0.0324,0.013523,0.002678,0.000431,0.001880
107659000,0.0324,0.013523,0.002678,0.000431,0.001293
107660000,0.0324,0.013523,0.002678,0.000431,0.001763
107661000,0.0324,0.013523,0.002678,0.000431,0.001880
107662000,0.0324,0.013523,0.002678,0.000431,0.001175
107663000,0.0324,0.013523,0.002678,0.000431,0.001880
107664000,0.0324,0.013523,0.002678,0.000431,0.001293
107665000,0.0324,0.013523,0.002678,0.000431,0.001763
107666000,0.0324,0.013523,0.002678,0.000431,0.001645
107667000,0.0324,0.013523,0.002678,0.000431,0.001410
107668000,0.0324,0.013523,0.002678,0.000431,0.001645
107669000,0.0324,0.013523,0.002678,0.000431,0.001528
107670000,0.0324,0.013523,0.002678,0.000431,0.001528
107671000,0.0324,0.013523,0.002678,0.000431,0.001645
107672000,0.0324,0.013523,0.002678,0.000431,0.001645
107673000,0.0324,0.013523,0.002678,0.000431,0.001410
107674000,0.0324,0.013523,0.002678,0.000431,0.001645
107675000,0.0324,0.013523,0.002678,0.000431,0.001645
107676000,0.0324,0.013523,0.002678,0.000431,0.001645
107677000,0.0324,0.013523,0.002678,0.000431,0.001410
107678000,0.0324,0.013523,0.002678,0.000431,0.001645
107679000,0.0324,0.013523,0.002678,0.000431,0.001410
107680000,0.0324,0.013523,0.002678,0.000431,0.001645
107681000,0.0324,0.013523,0.002678,0.000431,0.001880
107682000,0.0324,0.013523,0.002678,0.000431,0.001175
107683000,0.0324,0.013523,0.002678,0.000431,0.001880
107684000,0.0324,0.013523,0.002678,0.000431,0.001410
107685000,0.0324,0.013523,0.002678,0.000431,0.001645
107686000,0.0324,0.013523,0.002678,0.000431,0.001645
107687000,0.0324,0.013523,0.002678,0.000431,0.001410
107688000,0.0324,0.013523,0.002678,0.000431,0.001645
107689000,0.0324,0.013523,0.002678,0.000431,0.001645
107690000,0.0324,0.013523,0.002678,0.000431,0.001410
107691000,0.0324,0.013523,0.002678,0.000431,0.001645
107692000,0.0324,0.013523,0.002678,0.000431,0.001645
107693000,0.0324,0.013523,0.002678,0.000431,0.001410
107694000,0.0324,0.013523,0.002678,0.000431,0.001880
107695000,0.0324,0.013523,0.002678,0.000431,0.001410
107696000,0.0324,0.013523,0.002678,0.000431,0.001645
107697000,0.0324,0.013523,0.002678,0.000431,0.001293
107698000,0.0324,0.013523,0.002678,0.000431,0.001763
107699000,0.0324,0.013523,0.002678,0.000431,0.001880
107700000,0.0324,0.013523,0.002678,0.000431,0.001175
107701000,0.0324,0.013523,0.002678,0.000431,0.001880
107702000,0.0324,0.013523,0.002678,0.000431,0.001293
107703000,0.0324,0.013523,0.002678,0.000431,0.001763
107704000,0.0324,0.013523,0.002678,0.000431,0.001645
107705000,0.0324,0.013523,0.002678,0.000431,0.001410
107706000,0.0324,0.013523,0.002678,0.000431,0.001645
107707000,0.0324,0.013523,0.002678,0.000431,0.001528
107708000,0.0324,0.013523,0.002678,0.000431,0.001528
107709000,0.0324,0.013523,0.002678,0.000431,0.001645
107710000,0.0324,0.013523,0.002678,0.000431,0.001645
107711000,0.0324,0.013523,0.002678,0.000431,0.001410
107712000,0.0324,0.013523,0.002678,0.000431,0.001645
107713000,0.0324,0.013523,0.002678,0.000431,0.001645
107714000,0.0324,0.013523,0.002678,0.000431,0.001645
107715000,0.0324,0.013523,0.002678,0.000431,0.001410
107716000,0.0324,0.013523,0.002678,0.000431,0.001645
107717000,0.0324,0.013523,0.002678,0.000431,0.001410
107718000,0.0324,0.013523,0.002678,0.000431,0.001645
107719000,0.0324,0.013523,0.002678,0.000431,0.001880
107720000,0.0324,0.013523,0.002678,0.000431,0.001175
107721000,0.0324,0.013523,0.002678,0.000431,0.001880
107722000,0.0324,0.013523,0.002678,0.000431,0.001410
107723000,0.0324,0.013523,0.002678,0.000431,0.001645
107724000,0.0324,0.013523,0.002678,0.000431,0.001645
107725000,0.0324,0.013523,0.002678,0.000431,0.001410
107726000,0.0324,0.013523,0.002678,0.000431,0.001645
107727000,0.0324,0.013523,0.002678,0.000431,0.001645
107728000,0.0324,0.013523,0.002678,0.000431,0.001645
107729000,0.0324,0.013523,0.002678,0.000431,0.001410
107730000,0.0324,0.013523,0.002678,0.000431,0.001645
107731000,0.0324,0.013523,0.002678,0.000431,0.001410
107732000,0.0324,0.013523,0.002678,0.000431,0.001880
107733000,0.0324,0.013523,0.002678,0.000431,0.001410
107734000,0.0324,0.013523,0.002678,0.000431,0.001645
107735000,0.0324,0.013523,0.002678,0.000431,0.001293
107736000,0.0324,0.013523,0.002678,0.000431,0.001763
107737000,0.0324,0.013523,0.002678,0.000431,0.001880
107738000,0.0324,0.013523,0.002678,0.000431,0.001175
107739000,0.0324,0.013523,0.002678,0.000431,0.001880
107740000,0.0324,0.013523,0.002678,0.000431,0.001293
107741000,0.0324,0.013523,0.002678,0.000431,0.001763
107742000,0.0324,0.013523,0.002678,0.000431,0.001645
107743000,0.0324,0.013523,0.002678,0.000431,0.001410
107744000,0.0324,0.013523,0.002678,0.000431,0.001645
107745000,0.0324,0.013523,0.002678,0.000431,0.001528
107746000,0.0324,0.013523,0.002678,0.000431,0.001528
107747000,0.0324,0.013523,0.002678,0.000431,0.001645
107748000,0.0324,0.013523,0.002678,0.000431,0.001645
107749000,0.0324,0.013523,0.002678,0.000431,0.001410
107750000,0.0324,0.013523,0.002678,0.000431,0.001645
107751000,0.0324,0.013523,0.002678,0.000431,0.001410
107752000,0.0324,0.013523,0.002678,0.000431,0.001880
107753000,0.0324,0.013523,0.002678,0.000431,0.001410
107754000,0.0324,0.013523,0.002678,0.000431,0.001645
107755000,0.0324,0.013523,0.002678,0.000431,0.001410
107756000,0.0324,0.013523,0.002678,0.000431,0.001645
107757000,0.0324,0.013523,0.002678,0.000431,0.001880
107758000,0.0324,0.013523,0.002678,0.000431,0.001175
107759000,0.0324,0.013523,0.002678,0.000431,0.001880
107760000,0.0324,0.013523,0.002678,0.000431,0.001410
107761000,0.0324,0.013523,0.002678,0.000431,0.001645
107762000,0.0324,0.013523,0.002678,0.000431,0.001645
107763000,0.0324,0.013523,0.002678,0.000431,0.001410
107764000,0.0324,0.013523,0.002678,0.000431,0.001645
107765000,0.0324,0.013523,0.002678,0.000431,0.001645
107766000,0.0324,0.013523,0.002678,0.000431,0.001645
107767000,0.0324,0.013523,0.002678,0.000431,0.001410
107768000,0.0324,0.013523,0.002678,0.000431,0.001645
107769000,0.0324,0.013523,0.002678,0.000431,0.001410
107770000,0.0324,0.013523,0.002678,0.000431,0.001880
107771000,0.0324,0.013523,0.002678,0.000431,0.001410
107772000,0.0324,0.013523,0.002678,0.000431,0.001645
107773000,0.0324,0.013523,0.002678,0.000431,0.001293
107774000,0.0324,0.013523,0.002678,0.000431,0.001763
107775000,0.0324,0.013523,0.002678,0.000431,0.001880
107776000,0.0324,0.013523,0.002678,0.000431,0.001175
107777000,0.0324,0.013523,0.002678,0.000431,0.001880
107778000,0.0324,0.013523,0.002678,0.000431,0.001293
107779000,0.0324,0.013523,0.002678,0.000431,0.001763
107780000,0.0324,0.013523,0.002678,0.000431,0.001645
107781000,0.0324,0.013523,0.002678,0.000431,0.001410
107782000,0.0324,0.013523,0.002678,0.000431,0.001645
107783000,0.0324,0.013523,0.002678,0.000431,0.001528
107784000,0.0324,0.013523,0.002678,0.000431,0.001763
107785000,0.0324,0.013523,0.002678,0.000431,0.001410
107786000,0.0324,0.013523,0.002678,0.000431,0.001645
107787000,0.0324,0.013523,0.002678,0.000431,0.001410
107788000,0.0324,0.013523,0.002678,0.000431,0.001645
107789000,0.0324,0.013523,0.002678,0.000431,0.001645
107790000,0.0324,0.013523,0.002678,0.000431,0.001645
107791000,0.0324,0.013523,0.002678,0.000431,0.001410
107792000,0.0324,0.013523,0.002678,0.000431,0.001645
107793000,0.0324,0.013523,0.002678,0.000431,0.001645
107794000,0.0324,0.013523,0.002678,0.000431,0.001410
107795000,0.0324,0.013523,0.002678,0.000431,0.001880
107796000,0.0324,0.013523,0.002678,0.000431,0.001175
107797000,0.0324,0.013523,0.002678,0.000431,0.001880
107798000,0.0324,0.013523,0.002678,0.000431,0.001410
107799000,0.0324,0.013523,0.002678,0.000431,0.001645
107800000,0.0324,0.013523,0.002678,0.000431,0.001880
107801000,0.0324,0.013523,0.002678,0.000431,0.001175
107802000,0.0324,0.013523,0.002678,0.000431,0.001880
107803000,0.0324,0.013523,0.002678,0.000431,0.001410
107804000,0.0324,0.013523,0.002678,0.000431,0.001645
107805000,0.0324,0.013523,0.002678,0.000431,0.001645
107806000,0.0324,0.013523,0.002678,0.000431,0.001410
107807000,0.0324,0.013523,0.002678,0.000431,0.001645
107808000,0.0324,0.013523,0.002678,0.000431,0.001645
107809000,0.0324,0.013523,0.002678,0.000431,0.001410
107810000,0.0324,0.013523,0.002678,0.000431,0.001645
107811000,0.0324,0.013523,0.002678,0.000431,0.001645
107812000,0.0324,0.013523,0.002678,0.000431,0.001410
107813000,0.0324,0.013523,0.002678,0.000431,0.001880
107814000,0.0324,0.013523,0.002678,0.000431,0.001410
107815000,0.0324,0.013523,0.002678,0.000431,0.001645
107816000,0.0324,0.013523,0.002678,0.000431,0.001293
107817000,0.0324,0.013523,0.002678,0.000431,0.001763
107818000,0.0324,0.013523,0.002678,0.000431,0.001880
107819000,0.0324,0.013523,0.002678,0.000431,0.001175
107820000,0.0324,0.013523,0.002678,0.000431,0.001880
107821000,0.0324,0.013523,0.002678,0.000431,0.001293
107822000,0.0324,0.013523,0.002678,0.000431,0.001763
107823000,0.0324,0.013523,0.002678,0.000431,0.001645
107824000,0.0324,0.013523,0.002678,0.000431,0.001410
107825000,0.0324,0.013523,0.002678,0.000431,0.001645
107826000,0.0324,0.013523,0.002678,0.000431,0.001528
107827000,0.0324,0.013523,0.002678,0.000431,0.001763
107828000,0.0324,0.013523,0.002678,0.000431,0.001410
107829000,0.0324,0.013523,0.002678,0.000431,0.001645
107830000,0.0324,0.013523,0.002678,0.000431,0.001645
107831000,0.0324,0.013523,0.002678,0.000431,0.001528
107832000,0.0324,0.013523,0.002678,0.000431,0.001528
107833000,0.0324,0.013523,0.002678,0.000431,0.001645
107834000,0.0324,0.013523,0.002678,0.000431,0.001410
107835000,0.0324,0.013523,0.002678,0.000431,0.001645
107836000,0.0324,0.013523,0.002678,0.000431,0.001645
107837000,0.0324,0.013523,0.002678,0.000431,0.001410
107838000,0.0324,0.013523,0.002678,0.000431,0.001880
107839000,0.0324,0.013523,0.002678,0.000431,0.001410
107840000,0.0324,0.013523,0.002678,0.000431,0.001645
107841000,0.0324,0.013523,0.002678,0.000431,0.001410
107842000,0.0324,0.013523,0.002678,0.000431,0.001645
107843000,0.0324,0.013523,0.002678,0.000431,0.001880
107844000,0.0324,0.013523,0.002678,0.000431,0.001175
107845000,0.0324,0.013523,0.002678,0.000431,0.001880
107846000,0.0324,0.013523,0.002678,0.000431,0.001410
107847000,0.0324,0.013523,0.002678,0.000431,0.001645
107848000,0.0324,0.013523,0.002678,0.000431,0.001645
107849000,0.0324,0.013523,0.002678,0.000431,0.001410
107850000,0.0324,0.013523,0.002678,0.000431,0.001645
107851000,0.0324,0.013523,0.002678,0.000431,0.001645
107852000,0.0324,0.013523,0.002678,0.000431,0.001645
107853000,0.0324,0.013523,0.002678,0.000431,0.001410
107854000,0.0324,0.013523,0.002678,0.000431,0.001645
107855000,0.0324,0.013523,0.002678,0.000431,0.001410
107856000,0.0324,0.013523,0.002678,0.000431,0.001880
107857000,0.0324,0.013523,0.002678,0.000431,0.001410
107858000,0.0324,0.013523,0.002678,0.000431,0.001645
107859000,0.0324,0.013523,0.002678,0.000431,0.001293
107860000,0.0324,0.013523,0.002678,0.000431,0.001763
107861000,0.0324,0.013523,0.002678,0.000431,0.001880
107862000,0.0324,0.013523,0.002678,0.000431,0.001175
107863000,0.0324,0.013523,0.002678,0.000431,0.001880
107864000,0.0324,0.013523,0.002678,0.000431,0.001293
107865000,0.0324,0.013523,0.002678,0.000431,0.001763
107866000,0.0324,0.013523,0.002678,0.000431,0.001645
107867000,0.0324,0.013523,0.002678,0.000431,0.001410
107868000,0.0324,0.013523,0.002678,0.000431,0.001880
107869000,0.0324,0.013523,0.002678,0.000431,0.001293
107870000,0.0324,0.013523,0.002678,0.000431,0.001763
107871000,0.0324,0.013523,0.002678,0.000431,0.001528
107872000,0.0324,0.013523,0.002678,0.000431,0.001528
107873000,0.0324,0.013523,0.002678,0.000431,0.001645
107874000,0.0324,0.013523,0.002678,0.000431,0.001528
107875000,0.0324,0.013523,0.002678,0.000431,0.001528
107876000,0.0324,0.013523,0.002678,0.000431,0.001645
107877000,0.0324,0.013523,0.002678,0.000431,0.001528
107878000,0.0324,0.013523,0.002678,0.000431,0.001528
107879000,0.0324,0.013523,0.002678,0.000431,0.001645
107880000,0.0324,0.013523,0.002678,0.000431,0.001410
107881000,0.0324,0.013523,0.002678,0.000431,0.001880
107882000,0.0324,0.013523,0.002678,0.000431,0.001410
107883000,0.0324,0.013523,0.002678,0.000431,0.001645
107884000,0.0324,0.013523,0.002678,0.000431,0.001410
107885000,0.0324,0.013523,0.002678,0.000431,0.001645
107886000,0.0324,0.013523,0.002678,0.000431,0.001880
107887000,0.0324,0.013523,0.002678,0.000431,0.001175
107888000,0.0324,0.013523,0.002678,0.000431,0.001880
107889000,0.0324,0.013523,0.002678,0.000431,0.001410
107890000,0.0324,0.013523,0.002678,0.000431,0.001645
107891000,0.0324,0.013523,0.002678,0.000431,0.001645
107892000,0.0324,0.013523,0.002678,0.000431,0.001410
107893000,0.0324,0.013523,0.002678,0.000431,0.001645
107894000,0.0324,0.013523,0.002678,0.000431,0.001645
107895000,0.0324,0.013523,0.002678,0.000431,0.001645
107896000,0.0324,0.013523,0.002678,0.000431,0.001410
107897000,0.0324,0.013523,0.002678,0.000431,0.001645
107898000,0.0324,0.013523,0.002678,0.000431,0.001645
107899000,0.0324,0.013523,0.002678,0.000431,0.001645
107900000,0.0324,0.013523,0.002678,0.000431,0.001410
107901000,0.0324,0.013523,0.002678,0.000431,0.001645
107902000,0.0324,0.013523,0.002678,0.000431,0.001293
107903000,0.0324,0.013523,0.002678,0.000431,0.001763
107904000,0.0324,0.013523,0.002678,0.000431,0.001880
107905000,0.0324,0.013523,0.002678,0.000431,0.001175
107906000,0.0324,0.013523,0.002678,0.000431,0.001880
107907000,0.0324,0.013523,0.002678,0.000431,0.001293
107908000,0.0324,0.013523,0.002678,0.000431,0.001763
107909000,0.0324,0.013523,0.002678,0.000431,0.001645
107910000,0.0324,0.013523,0.002678,0.000431,0.001410
107911000,0.0324,0.013523,0.002678,0.000431,0.001880
107912000,0.0324,0.013523,0.002678,0.000431,0.001293
107913000,0.0324,0.013523,0.002678,0.000431,0.001763
107914000,0.0324,0.013523,0.002678,0.000431,0.001645
107915000,0.0324,0.013523,0.002678,0.000431,0.001410
107916000,0.0324,0.013523,0.002678,0.000431,0.001645
107917000,0.0324,0.013523,0.002678,0.000431,0.001528
107918000,0.0324,0.013523,0.002678,0.000431,0.001528
107919000,0.0324,0.013523,0.002678,0.000431,0.001645
107920000,0.0324,0.013523,0.002678,0.000431,0.001645
107921000,0.0324,0.013523,0.002678,0.000431,0.001410
107922000,0.0324,0.013523,0.002678,0.000431,0.001645
107923000,0.0324,0.013523,0.002678,0.000431,0.001645
107924000,0.0324,0.013523,0.002678,0.000431,0.001645
107925000,0.0324,0.013523,0.002678,0.000431,0.001410
107926000,0.0324,0.013523,0.002678,0.000431,0.001645
107927000,0.0324,0.013523,0.002678,0.000431,0.001410
107928000,0.0324,0.013523,0.002678,0.000431,0.001645
107929000,0.0324,0.013523,0.002678,0.000431,0.001880
107930000,0.0324,0.013523,0.002678,0.000431,0.001175
107931000,0.0324,0.013523,0.002678,0.000431,0.001880
107932000,0.0324,0.013523,0.002678,0.000431,0.001410
107933000,0.0324,0.013523,0.002678,0.000431,0.001645
107934000,0.0324,0.013523,0.002678,0.000431,0.001645
107935000,0.0324,0.013523,0.002678,0.000431,0.001410
107936000,0.0324,0.013523,0.002678,0.000431,0.001880
107937000,0.0324,0.013523,0.002678,0.000431,0.001410
107938000,0.0324,0.013523,0.002678,0.000431,0.001645
107939000,0.0324,0.013523,0.002678,0.000431,0.001645
107940000,0.0324,0.013523,0.002678,0.000431,0.001410
107941000,0.0324,0.013523,0.002678,0.000431,0.001645
107942000,0.0324,0.013523,0.002678,0.000431,0.001645
107943000,0.0324,0.013523,0.002678,0.000431,0.001410
107944000,0.0324,0.013523,0.002678,0.000431,0.001645
107945000,0.0324,0.013523,0.002678,0.000431,0.001645
107946000,0.0324,0.013523,0.002678,0.000431,0.001410
107947000,0.0324,0.013523,0.002678,0.000431,0.001880
107948000,0.0324,0.013523,0.002678,0.000431,0.001175
107949000,0.0324,0.013523,0.002678,0.000431,0.001880
107950000,0.0324,0.013523,0.002678,0.000431,0.001293
107951000,0.0324,0.013523,0.002678,0.000431,0.001763
107952000,0.0324,0.013523,0.002678,0.000431,0.001880
107953000,0.0324,0.013523,0.002678,0.000431,0.001175
107954000,0.0324,0.013523,0.002678,0.000431,0.001880
107955000,0.0324,0.013523,0.002678,0.000431,0.001293
107956000,0.0324,0.013523,0.002678,0.000431,0.001763
107957000,0.0324,0.013523,0.002678,0.000431,0.001645
107958000,0.0324,0.013523,0.002678,0.000431,0.001410
107959000,0.0324,0.013523,0.002678,0.000431,0.001645
107960000,0.0324,0.013523,0.002678,0.000431,0.001528
107961000,0.0324,0.013523,0.002678,0.000431,0.001528
107962000,0.0324,0.013523,0.002678,0.000431,0.001645
107963000,0.0324,0.013523,0.002678,0.000431,0.001410
107964000,0.0324,0.013523,0.002678,0.000431,0.001645
107965000,0.0324,0.013523,0.002678,0.000431,0.001645
107966000,0.0324,0.013523,0.002678,0.000431,0.001410
107967000,0.0324,0.013523,0.002678,0.000431,0.001880
107968000,0.0324,0.013523,0.002678,0.000431,0.001410
107969000,0.0324,0.013523,0.002678,0.000431,0.001645
107970000,0.0324,0.013523,0.002678,0.000431,0.001410
107971000,0.0324,0.013523,0.002678,0.000431,0.001645
107972000,0.0324,0.013523,0.002678,0.000431,0.001880
107973000,0.0324,0.013523,0.002678,0.000431,0.001175
107974000,0.0324,0.013523,0.002678,0.000431,0.001880
107975000,0.0324,0.013523,0.002678,0.000431,0.001410
107976000,0.0324,0.013523,0.002678,0.000431,0.001645
107977000,0.0324,0.013523,0.002678,0.000431,0.001645
107978000,0.0324,0.013523,0.002678,0.000431,0.001410
107979000,0.0324,0.013523,0.002678,0.000431,0.001645
107980000,0.0324,0.013523,0.002678,0.000431,0.001645
107981000,0.0324,0.013523,0.002678,0.000431,0.001645
107982000,0.0324,0.013523,0.002678,0.000431,0.001410
107983000,0.0324,0.013523,0.002678,0.000431,0.001645
107984000,0.0324,0.013523,0.002678,0.000431,0.001645
107985000,0.0324,0.013523,0.002678,0.000431,0.001645
107986000,0.0324,0.013523,0.002678,0.000431,0.001410
107987000,0.0324,0.013523,0.002678,0.000431,0.001645
107988000,0.0324,0.013523,0.002678,0.000431,0.001410
107989000,0.0324,0.013523,0.002678,0.000431,0.001645
107990000,0.0324,0.013523,0.002678,0.000431,0.001880
107991000,0.0324,0.013523,0.002678,0.000431,0.001175
107992000,0.0324,0.013523,0.002678,0.000431,0.001880
107993000,0.0324,0.013523,0.002678,0.000431,0.001293
107994000,0.0324,0.013523,0.002678,0.000431,0.001763
107995000,0.0324,0.013523,0.002678,0.000431,0.001645
107996000,0.0324,0.013523,0.002678,0.000431,0.001410
107997000,0.0324,0.013523,0.002678,0.000431,0.001880
107998000,0.0324,0.013523,0.002678,0.000431,0.001293
107999000,0.0324,0.013523,0.002678,0.000431,0.001763
