Cycle,Area(mm^2),PeakDynamic(W),SubthresholdLeakage(W),GateLeakage(W),RunTimeDynamic(W)
82000000,0.0324,0.013523,0.002678,0.000431,0.000940
82001000,0.0324,0.013523,0.002678,0.000431,0.000705
82002000,0.0324,0.013523,0.002678,0.000431,0.000940
82003000,0.0324,0.013523,0.002678,0.000431,0.000705
82004000,0.0324,0.013523,0.002678,0.000431,0.000940
82005000,0.0324,0.013523,0.002678,0.000431,0.000823
82006000,0.0324,0.013523,0.002678,0.000431,0.000823
82007000,0.0324,0.013523,0.002678,0.000431,0.000940
82008000,0.0324,0.013523,0.002678,0.000431,0.000705
82009000,0.0324,0.013523,0.002678,0.000431,0.000940
82010000,0.0324,0.013523,0.002678,0.000431,0.000823
82011000,0.0324,0.013523,0.002678,0.000431,0.000823
82012000,0.0324,0.013523,0.002678,0.000431,0.000823
82013000,0.0324,0.013523,0.002678,0.000431,0.000823
82014000,0.0324,0.013523,0.002678,0.000431,0.000823
82015000,0.0324,0.013523,0.002678,0.000431,0.000823
82016000,0.0324,0.013523,0.002678,0.000431,0.000940
82017000,0.0324,0.013523,0.002678,0.000431,0.000705
82018000,0.0324,0.013523,0.002678,0.000431,0.013868
82019000,0.0324,0.013523,0.002678,0.000431,0.522883
82020000,0.0324,0.013523,0.002678,0.000431,0.587876
82021000,0.0324,0.013523,0.002678,0.000431,0.142444
82022000,0.0324,0.013523,0.002678,0.000431,0.131044
82023000,0.0324,0.013523,0.002678,0.000431,0.316503
82024000,0.0324,0.013523,0.002678,0.000431,0.512540
82025000,0.0324,0.013523,0.002678,0.000431,0.236114
82026000,0.0324,0.013523,0.002678,0.000431,0.320382
82027000,0.0324,0.013523,0.002678,0.000431,0.167008
82028000,0.0324,0.013523,0.002678,0.000431,0.137978
82029000,0.0324,0.013523,0.002678,0.000431,0.127988
82030000,0.0324,0.013523,0.002678,0.000431,0.296524
82031000,0.0324,0.013523,0.002678,0.000431,0.330607
82032000,0.0324,0.013523,0.002678,0.000431,0.088851
82033000,0.0324,0.013523,0.002678,0.000431,0.059822
82034000,0.0324,0.013523,0.002678,0.000431,0.060527
82035000,0.0324,0.013523,0.002678,0.000431,0.044778
82036000,0.0324,0.013523,0.002678,0.000431,0.039019
82037000,0.0324,0.013523,0.002678,0.000431,0.035964
82038000,0.0324,0.013523,0.002678,0.000431,0.037491
82039000,0.0324,0.013523,0.002678,0.000431,0.023741
82040000,0.0324,0.013523,0.002678,0.000431,0.022448
82041000,0.0324,0.013523,0.002678,0.000431,0.021155
82042000,0.0324,0.013523,0.002678,0.000431,0.019745
82043000,0.0324,0.013523,0.002678,0.000431,0.018217
82044000,0.0324,0.013523,0.002678,0.000431,0.022448
82045000,0.0324,0.013523,0.002678,0.000431,0.015984
82046000,0.0324,0.013523,0.002678,0.000431,0.017042
82047000,0.0324,0.013523,0.002678,0.000431,0.013868
82048000,0.0324,0.013523,0.002678,0.000431,0.014809
82049000,0.0324,0.013523,0.002678,0.000431,0.014338
82050000,0.0324,0.013523,0.002678,0.000431,0.012693
82051000,0.0324,0.013523,0.002678,0.000431,0.012928
82052000,0.0324,0.013523,0.002678,0.000431,0.007757
82053000,0.0324,0.013523,0.002678,0.000431,0.006347
82054000,0.0324,0.013523,0.002678,0.000431,0.006817
82055000,0.0324,0.013523,0.002678,0.000431,0.006699
82056000,0.0324,0.013523,0.002678,0.000431,0.006582
82057000,0.0324,0.013523,0.002678,0.000431,0.007757
82058000,0.0324,0.013523,0.002678,0.000431,0.004936
82059000,0.0324,0.013523,0.002678,0.000431,0.005054
82060000,0.0324,0.013523,0.002678,0.000431,0.007404
82061000,0.0324,0.013523,0.002678,0.000431,0.003996
82062000,0.0324,0.013523,0.002678,0.000431,0.004349
82063000,0.0324,0.013523,0.002678,0.000431,0.004466
82064000,0.0324,0.013523,0.002678,0.000431,0.005524
82065000,0.0324,0.013523,0.002678,0.000431,0.003408
82066000,0.0324,0.013523,0.002678,0.000431,0.003291
82067000,0.0324,0.013523,0.002678,0.000431,0.003526
82068000,0.0324,0.013523,0.002678,0.000431,0.003408
82069000,0.0324,0.013523,0.002678,0.000431,0.003408
82070000,0.0324,0.013523,0.002678,0.000431,0.003173
82071000,0.0324,0.013523,0.002678,0.000431,0.003526
82072000,0.0324,0.013523,0.002678,0.000431,0.003408
82073000,0.0324,0.013523,0.002678,0.000431,0.003056
82074000,0.0324,0.013523,0.002678,0.000431,0.003643
82075000,0.0324,0.013523,0.002678,0.000431,0.003526
82076000,0.0324,0.013523,0.002678,0.000431,0.003291
82077000,0.0324,0.013523,0.002678,0.000431,0.003291
82078000,0.0324,0.013523,0.002678,0.000431,0.003291
82079000,0.0324,0.013523,0.002678,0.000431,0.003526
82080000,0.0324,0.013523,0.002678,0.000431,0.003526
82081000,0.0324,0.013523,0.002678,0.000431,0.003173
82082000,0.0324,0.013523,0.002678,0.000431,0.003643
82083000,0.0324,0.013523,0.002678,0.000431,0.003173
82084000,0.0324,0.013523,0.002678,0.000431,0.003526
82085000,0.0324,0.013523,0.002678,0.000431,0.003173
82086000,0.0324,0.013523,0.002678,0.000431,0.003291
82087000,0.0324,0.013523,0.002678,0.000431,0.003408
82088000,0.0324,0.013523,0.002678,0.000431,0.003408
82089000,0.0324,0.013523,0.002678,0.000431,0.003173
82090000,0.0324,0.013523,0.002678,0.000431,0.003526
82091000,0.0324,0.013523,0.002678,0.000431,0.003173
82092000,0.0324,0.013523,0.002678,0.000431,0.005289
82093000,0.0324,0.013523,0.002678,0.000431,0.002468
82094000,0.0324,0.013523,0.002678,0.000431,0.002586
82095000,0.0324,0.013523,0.002678,0.000431,0.002703
82096000,0.0324,0.013523,0.002678,0.000431,0.002351
82097000,0.0324,0.013523,0.002678,0.000431,0.002586
82098000,0.0324,0.013523,0.002678,0.000431,0.002586
82099000,0.0324,0.013523,0.002678,0.000431,0.002586
82100000,0.0324,0.013523,0.002678,0.000431,0.002468
82101000,0.0324,0.013523,0.002678,0.000431,0.002586
82102000,0.0324,0.013523,0.002678,0.000431,0.002586
82103000,0.0324,0.013523,0.002678,0.000431,0.002586
82104000,0.0324,0.013523,0.002678,0.000431,0.002468
82105000,0.0324,0.013523,0.002678,0.000431,0.002586
82106000,0.0324,0.013523,0.002678,0.000431,0.002468
82107000,0.0324,0.013523,0.002678,0.000431,0.002586
82108000,0.0324,0.013523,0.002678,0.000431,0.002703
82109000,0.0324,0.013523,0.002678,0.000431,0.002233
82110000,0.0324,0.013523,0.002678,0.000431,0.002821
82111000,0.0324,0.013523,0.002678,0.000431,0.002468
82112000,0.0324,0.013523,0.002678,0.000431,0.002468
82113000,0.0324,0.013523,0.002678,0.000431,0.002703
82114000,0.0324,0.013523,0.002678,0.000431,0.002468
82115000,0.0324,0.013523,0.002678,0.000431,0.002703
82116000,0.0324,0.013523,0.002678,0.000431,0.002468
82117000,0.0324,0.013523,0.002678,0.000431,0.002586
82118000,0.0324,0.013523,0.002678,0.000431,0.002703
82119000,0.0324,0.013523,0.002678,0.000431,0.004466
82120000,0.0324,0.013523,0.002678,0.000431,0.001763
82121000,0.0324,0.013523,0.002678,0.000431,0.003643
82122000,0.0324,0.013523,0.002678,0.000431,0.000823
82123000,0.0324,0.013523,0.002678,0.000431,0.000823
82124000,0.0324,0.013523,0.002678,0.000431,0.000823
82125000,0.0324,0.013523,0.002678,0.000431,0.000940
82126000,0.0324,0.013523,0.002678,0.000431,0.000705
82127000,0.0324,0.013523,0.002678,0.000431,0.000940
82128000,0.0324,0.013523,0.002678,0.000431,0.000823
82129000,0.0324,0.013523,0.002678,0.000431,0.000705
82130000,0.0324,0.013523,0.002678,0.000431,0.000940
82131000,0.0324,0.013523,0.002678,0.000431,0.000823
82132000,0.0324,0.013523,0.002678,0.000431,0.000823
82133000,0.0324,0.013523,0.002678,0.000431,0.000823
82134000,0.0324,0.013523,0.002678,0.000431,0.000823
82135000,0.0324,0.013523,0.002678,0.000431,0.000823
82136000,0.0324,0.013523,0.002678,0.000431,0.000940
82137000,0.0324,0.013523,0.002678,0.000431,0.000823
82138000,0.0324,0.013523,0.002678,0.000431,0.000823
82139000,0.0324,0.013523,0.002678,0.000431,0.000705
82140000,0.0324,0.013523,0.002678,0.000431,0.000940
82141000,0.0324,0.013523,0.002678,0.000431,0.000823
82142000,0.0324,0.013523,0.002678,0.000431,0.000823
82143000,0.0324,0.013523,0.002678,0.000431,0.000940
82144000,0.0324,0.013523,0.002678,0.000431,0.000705
82145000,0.0324,0.013523,0.002678,0.000431,0.000940
82146000,0.0324,0.013523,0.002678,0.000431,0.000823
82147000,0.0324,0.013523,0.002678,0.000431,0.000823
82148000,0.0324,0.013523,0.002678,0.000431,0.002586
82149000,0.0324,0.013523,0.002678,0.000431,0.441553
82150000,0.0324,0.013523,0.002678,0.000431,0.685777
82151000,0.0324,0.013523,0.002678,0.000431,0.135980
82152000,0.0324,0.013523,0.002678,0.000431,0.133512
82153000,0.0324,0.013523,0.002678,0.000431,0.212256
82154000,0.0324,0.013523,0.002678,0.000431,0.535811
82155000,0.0324,0.013523,0.002678,0.000431,0.250218
82156000,0.0324,0.013523,0.002678,0.000431,0.295583
82157000,0.0324,0.013523,0.002678,0.000431,0.213196
82158000,0.0324,0.013523,0.002678,0.000431,0.138448
82159000,0.0324,0.013523,0.002678,0.000431,0.162541
82160000,0.0324,0.013523,0.002678,0.000431,0.165245
82161000,0.0324,0.013523,0.002678,0.000431,0.447900
82162000,0.0324,0.013523,0.002678,0.000431,0.078861
82163000,0.0324,0.013523,0.002678,0.000431,0.066051
82164000,0.0324,0.013523,0.002678,0.000431,0.051595
82165000,0.0324,0.013523,0.002678,0.000431,0.043603
82166000,0.0324,0.013523,0.002678,0.000431,0.053240
82167000,0.0324,0.013523,0.002678,0.000431,0.034553
82168000,0.0324,0.013523,0.002678,0.000431,0.025034
82169000,0.0324,0.013523,0.002678,0.000431,0.017864
82170000,0.0324,0.013523,0.002678,0.000431,0.015749
82171000,0.0324,0.013523,0.002678,0.000431,0.015631
82172000,0.0324,0.013523,0.002678,0.000431,0.017159
82173000,0.0324,0.013523,0.002678,0.000431,0.018687
82174000,0.0324,0.013523,0.002678,0.000431,0.012223
82175000,0.0324,0.013523,0.002678,0.000431,0.011283
82176000,0.0324,0.013523,0.002678,0.000431,0.011635
82177000,0.0324,0.013523,0.002678,0.000431,0.011988
82178000,0.0324,0.013523,0.002678,0.000431,0.009050
82179000,0.0324,0.013523,0.002678,0.000431,0.011400
82180000,0.0324,0.013523,0.002678,0.000431,0.009872
82181000,0.0324,0.013523,0.002678,0.000431,0.007052
82182000,0.0324,0.013523,0.002678,0.000431,0.006229
82183000,0.0324,0.013523,0.002678,0.000431,0.006699
82184000,0.0324,0.013523,0.002678,0.000431,0.006582
82185000,0.0324,0.013523,0.002678,0.000431,0.009637
82186000,0.0324,0.013523,0.002678,0.000431,0.005994
82187000,0.0324,0.013523,0.002678,0.000431,0.005641
82188000,0.0324,0.013523,0.002678,0.000431,0.005876
82189000,0.0324,0.013523,0.002678,0.000431,0.005994
82190000,0.0324,0.013523,0.002678,0.000431,0.007287
82191000,0.0324,0.013523,0.002678,0.000431,0.004701
82192000,0.0324,0.013523,0.002678,0.000431,0.004819
82193000,0.0324,0.013523,0.002678,0.000431,0.004701
82194000,0.0324,0.013523,0.002678,0.000431,0.005994
82195000,0.0324,0.013523,0.002678,0.000431,0.005524
82196000,0.0324,0.013523,0.002678,0.000431,0.003643
82197000,0.0324,0.013523,0.002678,0.000431,0.004584
82198000,0.0324,0.013523,0.002678,0.000431,0.003408
82199000,0.0324,0.013523,0.002678,0.000431,0.004349
82200000,0.0324,0.013523,0.002678,0.000431,0.004113
82201000,0.0324,0.013523,0.002678,0.000431,0.004113
82202000,0.0324,0.013523,0.002678,0.000431,0.003996
82203000,0.0324,0.013523,0.002678,0.000431,0.003996
82204000,0.0324,0.013523,0.002678,0.000431,0.003878
82205000,0.0324,0.013523,0.002678,0.000431,0.004349
82206000,0.0324,0.013523,0.002678,0.000431,0.004113
82207000,0.0324,0.013523,0.002678,0.000431,0.003996
82208000,0.0324,0.013523,0.002678,0.000431,0.004349
82209000,0.0324,0.013523,0.002678,0.000431,0.003878
82210000,0.0324,0.013523,0.002678,0.000431,0.004466
82211000,0.0324,0.013523,0.002678,0.000431,0.004349
82212000,0.0324,0.013523,0.002678,0.000431,0.004113
82213000,0.0324,0.013523,0.002678,0.000431,0.005641
82214000,0.0324,0.013523,0.002678,0.000431,0.003173
82215000,0.0324,0.013523,0.002678,0.000431,0.003761
82216000,0.0324,0.013523,0.002678,0.000431,0.003056
82217000,0.0324,0.013523,0.002678,0.000431,0.002938
82218000,0.0324,0.013523,0.002678,0.000431,0.002468
82219000,0.0324,0.013523,0.002678,0.000431,0.002586
82220000,0.0324,0.013523,0.002678,0.000431,0.002586
82221000,0.0324,0.013523,0.002678,0.000431,0.002468
82222000,0.0324,0.013523,0.002678,0.000431,0.002468
82223000,0.0324,0.013523,0.002678,0.000431,0.002703
82224000,0.0324,0.013523,0.002678,0.000431,0.002703
82225000,0.0324,0.013523,0.002678,0.000431,0.003291
82226000,0.0324,0.013523,0.002678,0.000431,0.002821
82227000,0.0324,0.013523,0.002678,0.000431,0.001763
82228000,0.0324,0.013523,0.002678,0.000431,0.001763
82229000,0.0324,0.013523,0.002678,0.000431,0.001645
82230000,0.0324,0.013523,0.002678,0.000431,0.001645
82231000,0.0324,0.013523,0.002678,0.000431,0.001763
82232000,0.0324,0.013523,0.002678,0.000431,0.001763
82233000,0.0324,0.013523,0.002678,0.000431,0.001763
82234000,0.0324,0.013523,0.002678,0.000431,0.001528
82235000,0.0324,0.013523,0.002678,0.000431,0.001880
82236000,0.0324,0.013523,0.002678,0.000431,0.001528
82237000,0.0324,0.013523,0.002678,0.000431,0.001880
82238000,0.0324,0.013523,0.002678,0.000431,0.001645
82239000,0.0324,0.013523,0.002678,0.000431,0.001763
82240000,0.0324,0.013523,0.002678,0.000431,0.001763
82241000,0.0324,0.013523,0.002678,0.000431,0.001528
82242000,0.0324,0.013523,0.002678,0.000431,0.001880
82243000,0.0324,0.013523,0.002678,0.000431,0.001763
82244000,0.0324,0.013523,0.002678,0.000431,0.001645
82245000,0.0324,0.013523,0.002678,0.000431,0.001645
82246000,0.0324,0.013523,0.002678,0.000431,0.001763
82247000,0.0324,0.013523,0.002678,0.000431,0.001880
82248000,0.0324,0.013523,0.002678,0.000431,0.001410
82249000,0.0324,0.013523,0.002678,0.000431,0.001880
82250000,0.0324,0.013523,0.002678,0.000431,0.001763
82251000,0.0324,0.013523,0.002678,0.000431,0.001763
82252000,0.0324,0.013523,0.002678,0.000431,0.001645
82253000,0.0324,0.013523,0.002678,0.000431,0.003408
82254000,0.0324,0.013523,0.002678,0.000431,0.000823
82255000,0.0324,0.013523,0.002678,0.000431,0.000823
82256000,0.0324,0.013523,0.002678,0.000431,0.000823
82257000,0.0324,0.013523,0.002678,0.000431,0.000823
82258000,0.0324,0.013523,0.002678,0.000431,0.000940
82259000,0.0324,0.013523,0.002678,0.000431,0.000823
82260000,0.0324,0.013523,0.002678,0.000431,0.000823
82261000,0.0324,0.013523,0.002678,0.000431,0.000705
82262000,0.0324,0.013523,0.002678,0.000431,0.000940
82263000,0.0324,0.013523,0.002678,0.000431,0.000940
82264000,0.0324,0.013523,0.002678,0.000431,0.000705
82265000,0.0324,0.013523,0.002678,0.000431,0.000940
82266000,0.0324,0.013523,0.002678,0.000431,0.000705
82267000,0.0324,0.013523,0.002678,0.000431,0.000940
82268000,0.0324,0.013523,0.002678,0.000431,0.000823
82269000,0.0324,0.013523,0.002678,0.000431,0.000823
82270000,0.0324,0.013523,0.002678,0.000431,0.000940
82271000,0.0324,0.013523,0.002678,0.000431,0.000705
82272000,0.0324,0.013523,0.002678,0.000431,0.000940
82273000,0.0324,0.013523,0.002678,0.000431,0.000823
82274000,0.0324,0.013523,0.002678,0.000431,0.000823
82275000,0.0324,0.013523,0.002678,0.000431,0.000823
82276000,0.0324,0.013523,0.002678,0.000431,0.000823
82277000,0.0324,0.013523,0.002678,0.000431,0.000823
82278000,0.0324,0.013523,0.002678,0.000431,0.000823
82279000,0.0324,0.013523,0.002678,0.000431,0.000940
82280000,0.0324,0.013523,0.002678,0.000431,0.000940
82281000,0.0324,0.013523,0.002678,0.000431,0.016571
82282000,0.0324,0.013523,0.002678,0.000431,0.549444
82283000,0.0324,0.013523,0.002678,0.000431,0.591167
82284000,0.0324,0.013523,0.002678,0.000431,0.132102
82285000,0.0324,0.013523,0.002678,0.000431,0.134452
82286000,0.0324,0.013523,0.002678,0.000431,0.541452
82287000,0.0324,0.013523,0.002678,0.000431,0.279482
82288000,0.0324,0.013523,0.002678,0.000431,0.263263
82289000,0.0324,0.013523,0.002678,0.000431,0.310980
82290000,0.0324,0.013523,0.002678,0.000431,0.137155
82291000,0.0324,0.013523,0.002678,0.000431,0.156077
82292000,0.0324,0.013523,0.002678,0.000431,0.107421
82293000,0.0324,0.013523,0.002678,0.000431,0.423807
82294000,0.0324,0.013523,0.002678,0.000431,0.188868
82295000,0.0324,0.013523,0.002678,0.000431,0.070164
82296000,0.0324,0.013523,0.002678,0.000431,0.058294
82297000,0.0324,0.013523,0.002678,0.000431,0.048657
82298000,0.0324,0.013523,0.002678,0.000431,0.044073
82299000,0.0324,0.013523,0.002678,0.000431,0.038432
82300000,0.0324,0.013523,0.002678,0.000431,0.031850
82301000,0.0324,0.013523,0.002678,0.000431,0.021860
82302000,0.0324,0.013523,0.002678,0.000431,0.021625
82303000,0.0324,0.013523,0.002678,0.000431,0.019627
82304000,0.0324,0.013523,0.002678,0.000431,0.016219
82305000,0.0324,0.013523,0.002678,0.000431,0.014691
82306000,0.0324,0.013523,0.002678,0.000431,0.013398
82307000,0.0324,0.013523,0.002678,0.000431,0.013751
82308000,0.0324,0.013523,0.002678,0.000431,0.011753
82309000,0.0324,0.013523,0.002678,0.000431,0.015161
82310000,0.0324,0.013523,0.002678,0.000431,0.011870
82311000,0.0324,0.013523,0.002678,0.000431,0.009285
82312000,0.0324,0.013523,0.002678,0.000431,0.010225
82313000,0.0324,0.013523,0.002678,0.000431,0.007757
82314000,0.0324,0.013523,0.002678,0.000431,0.007522
82315000,0.0324,0.013523,0.002678,0.000431,0.008580
82316000,0.0324,0.013523,0.002678,0.000431,0.009402
82317000,0.0324,0.013523,0.002678,0.000431,0.006229
82318000,0.0324,0.013523,0.002678,0.000431,0.006934
82319000,0.0324,0.013523,0.002678,0.000431,0.005289
82320000,0.0324,0.013523,0.002678,0.000431,0.005289
82321000,0.0324,0.013523,0.002678,0.000431,0.004819
82322000,0.0324,0.013523,0.002678,0.000431,0.005524
82323000,0.0324,0.013523,0.002678,0.000431,0.005054
82324000,0.0324,0.013523,0.002678,0.000431,0.005171
82325000,0.0324,0.013523,0.002678,0.000431,0.004936
82326000,0.0324,0.013523,0.002678,0.000431,0.005406
82327000,0.0324,0.013523,0.002678,0.000431,0.005171
82328000,0.0324,0.013523,0.002678,0.000431,0.005054
82329000,0.0324,0.013523,0.002678,0.000431,0.005289
82330000,0.0324,0.013523,0.002678,0.000431,0.005054
82331000,0.0324,0.013523,0.002678,0.000431,0.005406
82332000,0.0324,0.013523,0.002678,0.000431,0.004936
82333000,0.0324,0.013523,0.002678,0.000431,0.005289
82334000,0.0324,0.013523,0.002678,0.000431,0.005054
82335000,0.0324,0.013523,0.002678,0.000431,0.005171
82336000,0.0324,0.013523,0.002678,0.000431,0.005406
82337000,0.0324,0.013523,0.002678,0.000431,0.004936
82338000,0.0324,0.013523,0.002678,0.000431,0.005289
82339000,0.0324,0.013523,0.002678,0.000431,0.005054
82340000,0.0324,0.013523,0.002678,0.000431,0.005406
82341000,0.0324,0.013523,0.002678,0.000431,0.008932
82342000,0.0324,0.013523,0.002678,0.000431,0.004231
82343000,0.0324,0.013523,0.002678,0.000431,0.002116
82344000,0.0324,0.013523,0.002678,0.000431,0.005641
82345000,0.0324,0.013523,0.002678,0.000431,0.001880
82346000,0.0324,0.013523,0.002678,0.000431,0.001175
82347000,0.0324,0.013523,0.002678,0.000431,0.001880
82348000,0.0324,0.013523,0.002678,0.000431,0.001293
82349000,0.0324,0.013523,0.002678,0.000431,0.001763
82350000,0.0324,0.013523,0.002678,0.000431,0.001645
82351000,0.0324,0.013523,0.002678,0.000431,0.001410
82352000,0.0324,0.013523,0.002678,0.000431,0.001645
82353000,0.0324,0.013523,0.002678,0.000431,0.001528
82354000,0.0324,0.013523,0.002678,0.000431,0.001763
82355000,0.0324,0.013523,0.002678,0.000431,0.001410
82356000,0.0324,0.013523,0.002678,0.000431,0.001645
82357000,0.0324,0.013523,0.002678,0.000431,0.001645
82358000,0.0324,0.013523,0.002678,0.000431,0.001528
82359000,0.0324,0.013523,0.002678,0.000431,0.001528
82360000,0.0324,0.013523,0.002678,0.000431,0.001645
82361000,0.0324,0.013523,0.002678,0.000431,0.001410
82362000,0.0324,0.013523,0.002678,0.000431,0.001645
82363000,0.0324,0.013523,0.002678,0.000431,0.001645
82364000,0.0324,0.013523,0.002678,0.000431,0.001410
82365000,0.0324,0.013523,0.002678,0.000431,0.001880
82366000,0.0324,0.013523,0.002678,0.000431,0.001410
82367000,0.0324,0.013523,0.002678,0.000431,0.001645
82368000,0.0324,0.013523,0.002678,0.000431,0.001410
82369000,0.0324,0.013523,0.002678,0.000431,0.001645
82370000,0.0324,0.013523,0.002678,0.000431,0.001880
82371000,0.0324,0.013523,0.002678,0.000431,0.001175
82372000,0.0324,0.013523,0.002678,0.000431,0.001880
82373000,0.0324,0.013523,0.002678,0.000431,0.001410
82374000,0.0324,0.013523,0.002678,0.000431,0.001645
82375000,0.0324,0.013523,0.002678,0.000431,0.001645
82376000,0.0324,0.013523,0.002678,0.000431,0.001410
82377000,0.0324,0.013523,0.002678,0.000431,0.001880
82378000,0.0324,0.013523,0.002678,0.000431,0.001410
82379000,0.0324,0.013523,0.002678,0.000431,0.001645
82380000,0.0324,0.013523,0.002678,0.000431,0.001645
82381000,0.0324,0.013523,0.002678,0.000431,0.001410
82382000,0.0324,0.013523,0.002678,0.000431,0.001645
82383000,0.0324,0.013523,0.002678,0.000431,0.001645
82384000,0.0324,0.013523,0.002678,0.000431,0.001410
82385000,0.0324,0.013523,0.002678,0.000431,0.001645
82386000,0.0324,0.013523,0.002678,0.000431,0.001645
82387000,0.0324,0.013523,0.002678,0.000431,0.001645
82388000,0.0324,0.013523,0.002678,0.000431,0.001645
82389000,0.0324,0.013523,0.002678,0.000431,0.001410
82390000,0.0324,0.013523,0.002678,0.000431,0.001645
82391000,0.0324,0.013523,0.002678,0.000431,0.001293
82392000,0.0324,0.013523,0.002678,0.000431,0.001763
82393000,0.0324,0.013523,0.002678,0.000431,0.001880
82394000,0.0324,0.013523,0.002678,0.000431,0.001175
82395000,0.0324,0.013523,0.002678,0.000431,0.001880
82396000,0.0324,0.013523,0.002678,0.000431,0.001293
82397000,0.0324,0.013523,0.002678,0.000431,0.001763
82398000,0.0324,0.013523,0.002678,0.000431,0.001880
82399000,0.0324,0.013523,0.002678,0.000431,0.001175
82400000,0.0324,0.013523,0.002678,0.000431,0.001880
82401000,0.0324,0.013523,0.002678,0.000431,0.001293
82402000,0.0324,0.013523,0.002678,0.000431,0.001763
82403000,0.0324,0.013523,0.002678,0.000431,0.001645
82404000,0.0324,0.013523,0.002678,0.000431,0.001410
82405000,0.0324,0.013523,0.002678,0.000431,0.001645
82406000,0.0324,0.013523,0.002678,0.000431,0.001528
82407000,0.0324,0.013523,0.002678,0.000431,0.001763
82408000,0.0324,0.013523,0.002678,0.000431,0.001410
82409000,0.0324,0.013523,0.002678,0.000431,0.001645
82410000,0.0324,0.013523,0.002678,0.000431,0.001645
82411000,0.0324,0.013523,0.002678,0.000431,0.001410
82412000,0.0324,0.013523,0.002678,0.000431,0.001645
82413000,0.0324,0.013523,0.002678,0.000431,0.001645
82414000,0.0324,0.013523,0.002678,0.000431,0.001410
82415000,0.0324,0.013523,0.002678,0.000431,0.001645
82416000,0.0324,0.013523,0.002678,0.000431,0.001645
82417000,0.0324,0.013523,0.002678,0.000431,0.001410
82418000,0.0324,0.013523,0.002678,0.000431,0.001880
82419000,0.0324,0.013523,0.002678,0.000431,0.001410
82420000,0.0324,0.013523,0.002678,0.000431,0.001645
82421000,0.0324,0.013523,0.002678,0.000431,0.001410
82422000,0.0324,0.013523,0.002678,0.000431,0.001645
82423000,0.0324,0.013523,0.002678,0.000431,0.001880
82424000,0.0324,0.013523,0.002678,0.000431,0.001175
82425000,0.0324,0.013523,0.002678,0.000431,0.001880
82426000,0.0324,0.013523,0.002678,0.000431,0.001410
82427000,0.0324,0.013523,0.002678,0.000431,0.001645
82428000,0.0324,0.013523,0.002678,0.000431,0.001645
82429000,0.0324,0.013523,0.002678,0.000431,0.001410
82430000,0.0324,0.013523,0.002678,0.000431,0.001880
82431000,0.0324,0.013523,0.002678,0.000431,0.001410
82432000,0.0324,0.013523,0.002678,0.000431,0.001645
82433000,0.0324,0.013523,0.002678,0.000431,0.001645
82434000,0.0324,0.013523,0.002678,0.000431,0.001410
82435000,0.0324,0.013523,0.002678,0.000431,0.001645
82436000,0.0324,0.013523,0.002678,0.000431,0.001645
82437000,0.0324,0.013523,0.002678,0.000431,0.001410
82438000,0.0324,0.013523,0.002678,0.000431,0.001645
82439000,0.0324,0.013523,0.002678,0.000431,0.001645
82440000,0.0324,0.013523,0.002678,0.000431,0.001410
82441000,0.0324,0.013523,0.002678,0.000431,0.001880
82442000,0.0324,0.013523,0.002678,0.000431,0.001410
82443000,0.0324,0.013523,0.002678,0.000431,0.001645
82444000,0.0324,0.013523,0.002678,0.000431,0.001293
82445000,0.0324,0.013523,0.002678,0.000431,0.001763
82446000,0.0324,0.013523,0.002678,0.000431,0.001880
82447000,0.0324,0.013523,0.002678,0.000431,0.001175
82448000,0.0324,0.013523,0.002678,0.000431,0.001880
82449000,0.0324,0.013523,0.002678,0.000431,0.001293
82450000,0.0324,0.013523,0.002678,0.000431,0.001763
82451000,0.0324,0.013523,0.002678,0.000431,0.001645
82452000,0.0324,0.013523,0.002678,0.000431,0.001410
82453000,0.0324,0.013523,0.002678,0.000431,0.001880
82454000,0.0324,0.013523,0.002678,0.000431,0.001293
82455000,0.0324,0.013523,0.002678,0.000431,0.001763
82456000,0.0324,0.013523,0.002678,0.000431,0.001645
82457000,0.0324,0.013523,0.002678,0.000431,0.001410
82458000,0.0324,0.013523,0.002678,0.000431,0.001645
82459000,0.0324,0.013523,0.002678,0.000431,0.001528
82460000,0.0324,0.013523,0.002678,0.000431,0.001528
82461000,0.0324,0.013523,0.002678,0.000431,0.001645
82462000,0.0324,0.013523,0.002678,0.000431,0.001645
82463000,0.0324,0.013523,0.002678,0.000431,0.001410
82464000,0.0324,0.013523,0.002678,0.000431,0.001645
82465000,0.0324,0.013523,0.002678,0.000431,0.001645
82466000,0.0324,0.013523,0.002678,0.000431,0.001645
82467000,0.0324,0.013523,0.002678,0.000431,0.001410
82468000,0.0324,0.013523,0.002678,0.000431,0.001645
82469000,0.0324,0.013523,0.002678,0.000431,0.001645
82470000,0.0324,0.013523,0.002678,0.000431,0.001410
82471000,0.0324,0.013523,0.002678,0.000431,0.001880
82472000,0.0324,0.013523,0.002678,0.000431,0.001175
82473000,0.0324,0.013523,0.002678,0.000431,0.001880
82474000,0.0324,0.013523,0.002678,0.000431,0.001410
82475000,0.0324,0.013523,0.002678,0.000431,0.001645
82476000,0.0324,0.013523,0.002678,0.000431,0.001880
82477000,0.0324,0.013523,0.002678,0.000431,0.001175
82478000,0.0324,0.013523,0.002678,0.000431,0.001880
82479000,0.0324,0.013523,0.002678,0.000431,0.001410
82480000,0.0324,0.013523,0.002678,0.000431,0.001645
82481000,0.0324,0.013523,0.002678,0.000431,0.001645
82482000,0.0324,0.013523,0.002678,0.000431,0.001410
82483000,0.0324,0.013523,0.002678,0.000431,0.001645
82484000,0.0324,0.013523,0.002678,0.000431,0.080742
82485000,0.0324,0.013523,0.002678,0.000431,0.556143
82486000,0.0324,0.013523,0.002678,0.000431,0.542628
82487000,0.0324,0.013523,0.002678,0.000431,0.134922
82488000,0.0324,0.013523,0.002678,0.000431,0.131161
82489000,0.0324,0.013523,0.002678,0.000431,0.555908
82490000,0.0324,0.013523,0.002678,0.000431,0.261735
82491000,0.0324,0.013523,0.002678,0.000431,0.249982
82492000,0.0324,0.013523,0.002678,0.000431,0.289589
82493000,0.0324,0.013523,0.002678,0.000431,0.137978
82494000,0.0324,0.013523,0.002678,0.000431,0.143972
82495000,0.0324,0.013523,0.002678,0.000431,0.109419
82496000,0.0324,0.013523,0.002678,0.000431,0.379969
82497000,0.0324,0.013523,0.002678,0.000431,0.241050
82498000,0.0324,0.013523,0.002678,0.000431,0.063818
82499000,0.0324,0.013523,0.002678,0.000431,0.057471
82500000,0.0324,0.013523,0.002678,0.000431,0.041017
82501000,0.0324,0.013523,0.002678,0.000431,0.036081
82502000,0.0324,0.013523,0.002678,0.000431,0.033143
82503000,0.0324,0.013523,0.002678,0.000431,0.033613
82504000,0.0324,0.013523,0.002678,0.000431,0.022565
82505000,0.0324,0.013523,0.002678,0.000431,0.020215
82506000,0.0324,0.013523,0.002678,0.000431,0.019745
82507000,0.0324,0.013523,0.002678,0.000431,0.018805
82508000,0.0324,0.013523,0.002678,0.000431,0.015044
82509000,0.0324,0.013523,0.002678,0.000431,0.012928
82510000,0.0324,0.013523,0.002678,0.000431,0.012223
82511000,0.0324,0.013523,0.002678,0.000431,0.008697
82512000,0.0324,0.013523,0.002678,0.000431,0.013633
82513000,0.0324,0.013523,0.002678,0.000431,0.007757
82514000,0.0324,0.013523,0.002678,0.000431,0.008580
82515000,0.0324,0.013523,0.002678,0.000431,0.006111
82516000,0.0324,0.013523,0.002678,0.000431,0.005524
82517000,0.0324,0.013523,0.002678,0.000431,0.005759
82518000,0.0324,0.013523,0.002678,0.000431,0.007169
82519000,0.0324,0.013523,0.002678,0.000431,0.005406
82520000,0.0324,0.013523,0.002678,0.000431,0.005171
82521000,0.0324,0.013523,0.002678,0.000431,0.003761
82522000,0.0324,0.013523,0.002678,0.000431,0.007404
82523000,0.0324,0.013523,0.002678,0.000431,0.002468
82524000,0.0324,0.013523,0.002678,0.000431,0.002468
82525000,0.0324,0.013523,0.002678,0.000431,0.002586
82526000,0.0324,0.013523,0.002678,0.000431,0.002351
82527000,0.0324,0.013523,0.002678,0.000431,0.002703
82528000,0.0324,0.013523,0.002678,0.000431,0.002351
82529000,0.0324,0.013523,0.002678,0.000431,0.002586
82530000,0.0324,0.013523,0.002678,0.000431,0.002703
82531000,0.0324,0.013523,0.002678,0.000431,0.002468
82532000,0.0324,0.013523,0.002678,0.000431,0.002586
82533000,0.0324,0.013523,0.002678,0.000431,0.002468
82534000,0.0324,0.013523,0.002678,0.000431,0.002351
82535000,0.0324,0.013523,0.002678,0.000431,0.002586
82536000,0.0324,0.013523,0.002678,0.000431,0.002586
82537000,0.0324,0.013523,0.002678,0.000431,0.002351
82538000,0.0324,0.013523,0.002678,0.000431,0.002703
82539000,0.0324,0.013523,0.002678,0.000431,0.002351
82540000,0.0324,0.013523,0.002678,0.000431,0.002586
82541000,0.0324,0.013523,0.002678,0.000431,0.002468
82542000,0.0324,0.013523,0.002678,0.000431,0.002586
82543000,0.0324,0.013523,0.002678,0.000431,0.002703
82544000,0.0324,0.013523,0.002678,0.000431,0.002468
82545000,0.0324,0.013523,0.002678,0.000431,0.004113
82546000,0.0324,0.013523,0.002678,0.000431,0.001763
82547000,0.0324,0.013523,0.002678,0.000431,0.001763
82548000,0.0324,0.013523,0.002678,0.000431,0.001528
82549000,0.0324,0.013523,0.002678,0.000431,0.001763
82550000,0.0324,0.013523,0.002678,0.000431,0.001528
82551000,0.0324,0.013523,0.002678,0.000431,0.001763
82552000,0.0324,0.013523,0.002678,0.000431,0.001880
82553000,0.0324,0.013523,0.002678,0.000431,0.001528
82554000,0.0324,0.013523,0.002678,0.000431,0.001763
82555000,0.0324,0.013523,0.002678,0.000431,0.001528
82556000,0.0324,0.013523,0.002678,0.000431,0.001763
82557000,0.0324,0.013523,0.002678,0.000431,0.001645
82558000,0.0324,0.013523,0.002678,0.000431,0.001645
82559000,0.0324,0.013523,0.002678,0.000431,0.001763
82560000,0.0324,0.013523,0.002678,0.000431,0.001528
82561000,0.0324,0.013523,0.002678,0.000431,0.001880
82562000,0.0324,0.013523,0.002678,0.000431,0.001410
82563000,0.0324,0.013523,0.002678,0.000431,0.001880
82564000,0.0324,0.013523,0.002678,0.000431,0.001763
82565000,0.0324,0.013523,0.002678,0.000431,0.001528
82566000,0.0324,0.013523,0.002678,0.000431,0.001763
82567000,0.0324,0.013523,0.002678,0.000431,0.001528
82568000,0.0324,0.013523,0.002678,0.000431,0.001645
82569000,0.0324,0.013523,0.002678,0.000431,0.001763
82570000,0.0324,0.013523,0.002678,0.000431,0.001763
82571000,0.0324,0.013523,0.002678,0.000431,0.001528
82572000,0.0324,0.013523,0.002678,0.000431,0.001763
82573000,0.0324,0.013523,0.002678,0.000431,0.002703
82574000,0.0324,0.013523,0.002678,0.000431,0.000705
82575000,0.0324,0.013523,0.002678,0.000431,0.000940
82576000,0.0324,0.013523,0.002678,0.000431,0.000823
82577000,0.0324,0.013523,0.002678,0.000431,0.000823
82578000,0.0324,0.013523,0.002678,0.000431,0.000823
82579000,0.0324,0.013523,0.002678,0.000431,0.000823
82580000,0.0324,0.013523,0.002678,0.000431,0.000823
82581000,0.0324,0.013523,0.002678,0.000431,0.000823
82582000,0.0324,0.013523,0.002678,0.000431,0.000823
82583000,0.0324,0.013523,0.002678,0.000431,0.000823
82584000,0.0324,0.013523,0.002678,0.000431,0.000940
82585000,0.0324,0.013523,0.002678,0.000431,0.000823
82586000,0.0324,0.013523,0.002678,0.000431,0.000823
82587000,0.0324,0.013523,0.002678,0.000431,0.000705
82588000,0.0324,0.013523,0.002678,0.000431,0.000940
82589000,0.0324,0.013523,0.002678,0.000431,0.000940
82590000,0.0324,0.013523,0.002678,0.000431,0.000705
82591000,0.0324,0.013523,0.002678,0.000431,0.000940
82592000,0.0324,0.013523,0.002678,0.000431,0.000705
82593000,0.0324,0.013523,0.002678,0.000431,0.000940
82594000,0.0324,0.013523,0.002678,0.000431,0.000823
82595000,0.0324,0.013523,0.002678,0.000431,0.000823
82596000,0.0324,0.013523,0.002678,0.000431,0.000940
82597000,0.0324,0.013523,0.002678,0.000431,0.000705
82598000,0.0324,0.013523,0.002678,0.000431,0.000940
82599000,0.0324,0.013523,0.002678,0.000431,0.000823
82600000,0.0324,0.013523,0.002678,0.000431,0.000823
82601000,0.0324,0.013523,0.002678,0.000431,0.000823
82602000,0.0324,0.013523,0.002678,0.000431,0.000823
82603000,0.0324,0.013523,0.002678,0.000431,0.000823
82604000,0.0324,0.013523,0.002678,0.000431,0.000823
82605000,0.0324,0.013523,0.002678,0.000431,0.000823
82606000,0.0324,0.013523,0.002678,0.000431,0.000823
82607000,0.0324,0.013523,0.002678,0.000431,0.000940
82608000,0.0324,0.013523,0.002678,0.000431,0.000823
82609000,0.0324,0.013523,0.002678,0.000431,0.000823
82610000,0.0324,0.013523,0.002678,0.000431,0.000705
82611000,0.0324,0.013523,0.002678,0.000431,0.000940
82612000,0.0324,0.013523,0.002678,0.000431,0.000940
82613000,0.0324,0.013523,0.002678,0.000431,0.000705
82614000,0.0324,0.013523,0.002678,0.000431,0.000940
82615000,0.0324,0.013523,0.002678,0.000431,0.000705
82616000,0.0324,0.013523,0.002678,0.000431,0.000940
82617000,0.0324,0.013523,0.002678,0.000431,0.000823
82618000,0.0324,0.013523,0.002678,0.000431,0.000823
82619000,0.0324,0.013523,0.002678,0.000431,0.000940
82620000,0.0324,0.013523,0.002678,0.000431,0.000705
82621000,0.0324,0.013523,0.002678,0.000431,0.000940
82622000,0.0324,0.013523,0.002678,0.000431,0.000705
82623000,0.0324,0.013523,0.002678,0.000431,0.000940
82624000,0.0324,0.013523,0.002678,0.000431,0.000823
82625000,0.0324,0.013523,0.002678,0.000431,0.000823
82626000,0.0324,0.013523,0.002678,0.000431,0.000823
82627000,0.0324,0.013523,0.002678,0.000431,0.000823
82628000,0.0324,0.013523,0.002678,0.000431,0.000940
82629000,0.0324,0.013523,0.002678,0.000431,0.000705
82630000,0.0324,0.013523,0.002678,0.000431,0.000823
82631000,0.0324,0.013523,0.002678,0.000431,0.000823
82632000,0.0324,0.013523,0.002678,0.000431,0.000940
82633000,0.0324,0.013523,0.002678,0.000431,0.000823
82634000,0.0324,0.013523,0.002678,0.000431,0.000823
82635000,0.0324,0.013523,0.002678,0.000431,0.000705
82636000,0.0324,0.013523,0.002678,0.000431,0.000940
82637000,0.0324,0.013523,0.002678,0.000431,0.000940
82638000,0.0324,0.013523,0.002678,0.000431,0.000705
82639000,0.0324,0.013523,0.002678,0.000431,0.000940
82640000,0.0324,0.013523,0.002678,0.000431,0.000705
82641000,0.0324,0.013523,0.002678,0.000431,0.000940
82642000,0.0324,0.013523,0.002678,0.000431,0.000940
82643000,0.0324,0.013523,0.002678,0.000431,0.000705
82644000,0.0324,0.013523,0.002678,0.000431,0.000940
82645000,0.0324,0.013523,0.002678,0.000431,0.000705
82646000,0.0324,0.013523,0.002678,0.000431,0.000940
82647000,0.0324,0.013523,0.002678,0.000431,0.000823
82648000,0.0324,0.013523,0.002678,0.000431,0.000823
82649000,0.0324,0.013523,0.002678,0.000431,0.000823
82650000,0.0324,0.013523,0.002678,0.000431,0.000823
82651000,0.0324,0.013523,0.002678,0.000431,0.000940
82652000,0.0324,0.013523,0.002678,0.000431,0.000705
82653000,0.0324,0.013523,0.002678,0.000431,0.000940
82654000,0.0324,0.013523,0.002678,0.000431,0.000823
82655000,0.0324,0.013523,0.002678,0.000431,0.000823
82656000,0.0324,0.013523,0.002678,0.000431,0.000823
82657000,0.0324,0.013523,0.002678,0.000431,0.000823
82658000,0.0324,0.013523,0.002678,0.000431,0.000940
82659000,0.0324,0.013523,0.002678,0.000431,0.000705
82660000,0.0324,0.013523,0.002678,0.000431,0.000940
82661000,0.0324,0.013523,0.002678,0.000431,0.000823
82662000,0.0324,0.013523,0.002678,0.000431,0.000823
82663000,0.0324,0.013523,0.002678,0.000431,0.000705
82664000,0.0324,0.013523,0.002678,0.000431,0.000940
82665000,0.0324,0.013523,0.002678,0.000431,0.000940
82666000,0.0324,0.013523,0.002678,0.000431,0.000705
82667000,0.0324,0.013523,0.002678,0.000431,0.000940
82668000,0.0324,0.013523,0.002678,0.000431,0.000705
82669000,0.0324,0.013523,0.002678,0.000431,0.000940
82670000,0.0324,0.013523,0.002678,0.000431,0.000823
82671000,0.0324,0.013523,0.002678,0.000431,0.000823
82672000,0.0324,0.013523,0.002678,0.000431,0.000940
82673000,0.0324,0.013523,0.002678,0.000431,0.000705
82674000,0.0324,0.013523,0.002678,0.000431,0.000940
82675000,0.0324,0.013523,0.002678,0.000431,0.000823
82676000,0.0324,0.013523,0.002678,0.000431,0.000823
82677000,0.0324,0.013523,0.002678,0.000431,0.000823
82678000,0.0324,0.013523,0.002678,0.000431,0.000823
82679000,0.0324,0.013523,0.002678,0.000431,0.000940
82680000,0.0324,0.013523,0.002678,0.000431,0.000705
82681000,0.0324,0.013523,0.002678,0.000431,0.000940
82682000,0.0324,0.013523,0.002678,0.000431,0.000823
82683000,0.0324,0.013523,0.002678,0.000431,0.000823
82684000,0.0324,0.013523,0.002678,0.000431,0.000823
82685000,0.0324,0.013523,0.002678,0.000431,0.000823
82686000,0.0324,0.013523,0.002678,0.000431,0.000823
82687000,0.0324,0.013523,0.002678,0.000431,0.000823
82688000,0.0324,0.013523,0.002678,0.000431,0.000823
82689000,0.0324,0.013523,0.002678,0.000431,0.000823
82690000,0.0324,0.013523,0.002678,0.000431,0.000940
82691000,0.0324,0.013523,0.002678,0.000431,0.000823
82692000,0.0324,0.013523,0.002678,0.000431,0.000823
82693000,0.0324,0.013523,0.002678,0.000431,0.000705
82694000,0.0324,0.013523,0.002678,0.000431,0.000940
82695000,0.0324,0.013523,0.002678,0.000431,0.000940
82696000,0.0324,0.013523,0.002678,0.000431,0.000705
82697000,0.0324,0.013523,0.002678,0.000431,0.000940
82698000,0.0324,0.013523,0.002678,0.000431,0.000705
82699000,0.0324,0.013523,0.002678,0.000431,0.000940
82700000,0.0324,0.013523,0.002678,0.000431,0.000823
82701000,0.0324,0.013523,0.002678,0.000431,0.000823
82702000,0.0324,0.013523,0.002678,0.000431,0.000940
82703000,0.0324,0.013523,0.002678,0.000431,0.000705
82704000,0.0324,0.013523,0.002678,0.000431,0.000940
82705000,0.0324,0.013523,0.002678,0.000431,0.000705
82706000,0.0324,0.013523,0.002678,0.000431,0.000940
82707000,0.0324,0.013523,0.002678,0.000431,0.000823
82708000,0.0324,0.013523,0.002678,0.000431,0.000823
82709000,0.0324,0.013523,0.002678,0.000431,0.000823
82710000,0.0324,0.013523,0.002678,0.000431,0.000823
82711000,0.0324,0.013523,0.002678,0.000431,0.000940
82712000,0.0324,0.013523,0.002678,0.000431,0.000705
82713000,0.0324,0.013523,0.002678,0.000431,0.000823
82714000,0.0324,0.013523,0.002678,0.000431,0.000823
82715000,0.0324,0.013523,0.002678,0.000431,0.000940
82716000,0.0324,0.013523,0.002678,0.000431,0.000823
82717000,0.0324,0.013523,0.002678,0.000431,0.000823
82718000,0.0324,0.013523,0.002678,0.000431,0.000705
82719000,0.0324,0.013523,0.002678,0.000431,0.000940
82720000,0.0324,0.013523,0.002678,0.000431,0.000940
82721000,0.0324,0.013523,0.002678,0.000431,0.000705
82722000,0.0324,0.013523,0.002678,0.000431,0.000940
82723000,0.0324,0.013523,0.002678,0.000431,0.000705
82724000,0.0324,0.013523,0.002678,0.000431,0.000940
82725000,0.0324,0.013523,0.002678,0.000431,0.000823
82726000,0.0324,0.013523,0.002678,0.000431,0.000823
82727000,0.0324,0.013523,0.002678,0.000431,0.000940
82728000,0.0324,0.013523,0.002678,0.000431,0.000705
82729000,0.0324,0.013523,0.002678,0.000431,0.000940
82730000,0.0324,0.013523,0.002678,0.000431,0.000823
82731000,0.0324,0.013523,0.002678,0.000431,0.000823
82732000,0.0324,0.013523,0.002678,0.000431,0.000823
82733000,0.0324,0.013523,0.002678,0.000431,0.000823
82734000,0.0324,0.013523,0.002678,0.000431,0.000940
82735000,0.0324,0.013523,0.002678,0.000431,0.000705
82736000,0.0324,0.013523,0.002678,0.000431,0.000940
82737000,0.0324,0.013523,0.002678,0.000431,0.072280
82738000,0.0324,0.013523,0.002678,0.000431,0.485979
82739000,0.0324,0.013523,0.002678,0.000431,0.591284
82740000,0.0324,0.013523,0.002678,0.000431,0.131161
82741000,0.0324,0.013523,0.002678,0.000431,0.133982
82742000,0.0324,0.013523,0.002678,0.000431,0.553910
82743000,0.0324,0.013523,0.002678,0.000431,0.228592
82744000,0.0324,0.013523,0.002678,0.000431,0.272313
82745000,0.0324,0.013523,0.002678,0.000431,0.328021
82746000,0.0324,0.013523,0.002678,0.000431,0.142797
82747000,0.0324,0.013523,0.002678,0.000431,0.145852
82748000,0.0324,0.013523,0.002678,0.000431,0.114355
82749000,0.0324,0.013523,0.002678,0.000431,0.437910
82750000,0.0324,0.013523,0.002678,0.000431,0.227417
82751000,0.0324,0.013523,0.002678,0.000431,0.079567
82752000,0.0324,0.013523,0.002678,0.000431,0.061115
82753000,0.0324,0.013523,0.002678,0.000431,0.049714
82754000,0.0324,0.013523,0.002678,0.000431,0.045131
82755000,0.0324,0.013523,0.002678,0.000431,0.040077
82756000,0.0324,0.013523,0.002678,0.000431,0.031498
82757000,0.0324,0.013523,0.002678,0.000431,0.033378
82758000,0.0324,0.013523,0.002678,0.000431,0.034201
82759000,0.0324,0.013523,0.002678,0.000431,0.028559
82760000,0.0324,0.013523,0.002678,0.000431,0.023036
82761000,0.0324,0.013523,0.002678,0.000431,0.018217
82762000,0.0324,0.013523,0.002678,0.000431,0.019275
82763000,0.0324,0.013523,0.002678,0.000431,0.016336
82764000,0.0324,0.013523,0.002678,0.000431,0.016219
82765000,0.0324,0.013523,0.002678,0.000431,0.018334
82766000,0.0324,0.013523,0.002678,0.000431,0.015631
82767000,0.0324,0.013523,0.002678,0.000431,0.015514
82768000,0.0324,0.013523,0.002678,0.000431,0.013986
82769000,0.0324,0.013523,0.002678,0.000431,0.012223
82770000,0.0324,0.013523,0.002678,0.000431,0.010107
82771000,0.0324,0.013523,0.002678,0.000431,0.011165
82772000,0.0324,0.013523,0.002678,0.000431,0.011400
82773000,0.0324,0.013523,0.002678,0.000431,0.010225
82774000,0.0324,0.013523,0.002678,0.000431,0.011753
82775000,0.0324,0.013523,0.002678,0.000431,0.010695
82776000,0.0324,0.013523,0.002678,0.000431,0.010930
82777000,0.0324,0.013523,0.002678,0.000431,0.012340
82778000,0.0324,0.013523,0.002678,0.000431,0.010107
82779000,0.0324,0.013523,0.002678,0.000431,0.010578
82780000,0.0324,0.013523,0.002678,0.000431,0.009637
82781000,0.0324,0.013523,0.002678,0.000431,0.010342
82782000,0.0324,0.013523,0.002678,0.000431,0.011283
82783000,0.0324,0.013523,0.002678,0.000431,0.010695
82784000,0.0324,0.013523,0.002678,0.000431,0.009402
82785000,0.0324,0.013523,0.002678,0.000431,0.009167
82786000,0.0324,0.013523,0.002678,0.000431,0.009285
82787000,0.0324,0.013523,0.002678,0.000431,0.009520
82788000,0.0324,0.013523,0.002678,0.000431,0.009637
82789000,0.0324,0.013523,0.002678,0.000431,0.008697
82790000,0.0324,0.013523,0.002678,0.000431,0.011048
82791000,0.0324,0.013523,0.002678,0.000431,0.008697
82792000,0.0324,0.013523,0.002678,0.000431,0.007639
82793000,0.0324,0.013523,0.002678,0.000431,0.010107
82794000,0.0324,0.013523,0.002678,0.000431,0.006229
82795000,0.0324,0.013523,0.002678,0.000431,0.007052
82796000,0.0324,0.013523,0.002678,0.000431,0.006582
82797000,0.0324,0.013523,0.002678,0.000431,0.006347
82798000,0.0324,0.013523,0.002678,0.000431,0.007052
82799000,0.0324,0.013523,0.002678,0.000431,0.005994
82800000,0.0324,0.013523,0.002678,0.000431,0.008697
82801000,0.0324,0.013523,0.002678,0.000431,0.005759
82802000,0.0324,0.013523,0.002678,0.000431,0.005406
82803000,0.0324,0.013523,0.002678,0.000431,0.005759
82804000,0.0324,0.013523,0.002678,0.000431,0.005406
82805000,0.0324,0.013523,0.002678,0.000431,0.006229
82806000,0.0324,0.013523,0.002678,0.000431,0.004819
82807000,0.0324,0.013523,0.002678,0.000431,0.006464
82808000,0.0324,0.013523,0.002678,0.000431,0.005406
82809000,0.0324,0.013523,0.002678,0.000431,0.005524
82810000,0.0324,0.013523,0.002678,0.000431,0.005876
82811000,0.0324,0.013523,0.002678,0.000431,0.005171
82812000,0.0324,0.013523,0.002678,0.000431,0.006347
82813000,0.0324,0.013523,0.002678,0.000431,0.004936
82814000,0.0324,0.013523,0.002678,0.000431,0.006111
82815000,0.0324,0.013523,0.002678,0.000431,0.005406
82816000,0.0324,0.013523,0.002678,0.000431,0.005876
82817000,0.0324,0.013523,0.002678,0.000431,0.005524
82818000,0.0324,0.013523,0.002678,0.000431,0.005759
82819000,0.0324,0.013523,0.002678,0.000431,0.005876
82820000,0.0324,0.013523,0.002678,0.000431,0.005641
82821000,0.0324,0.013523,0.002678,0.000431,0.005759
82822000,0.0324,0.013523,0.002678,0.000431,0.005289
82823000,0.0324,0.013523,0.002678,0.000431,0.005994
82824000,0.0324,0.013523,0.002678,0.000431,0.005641
82825000,0.0324,0.013523,0.002678,0.000431,0.005406
82826000,0.0324,0.013523,0.002678,0.000431,0.005994
82827000,0.0324,0.013523,0.002678,0.000431,0.005641
82828000,0.0324,0.013523,0.002678,0.000431,0.005641
82829000,0.0324,0.013523,0.002678,0.000431,0.005524
82830000,0.0324,0.013523,0.002678,0.000431,0.005876
82831000,0.0324,0.013523,0.002678,0.000431,0.005641
82832000,0.0324,0.013523,0.002678,0.000431,0.005406
82833000,0.0324,0.013523,0.002678,0.000431,0.005876
82834000,0.0324,0.013523,0.002678,0.000431,0.005641
82835000,0.0324,0.013523,0.002678,0.000431,0.005524
82836000,0.0324,0.013523,0.002678,0.000431,0.005759
82837000,0.0324,0.013523,0.002678,0.000431,0.006817
82838000,0.0324,0.013523,0.002678,0.000431,0.004466
82839000,0.0324,0.013523,0.002678,0.000431,0.005289
82840000,0.0324,0.013523,0.002678,0.000431,0.004584
82841000,0.0324,0.013523,0.002678,0.000431,0.004466
82842000,0.0324,0.013523,0.002678,0.000431,0.005289
82843000,0.0324,0.013523,0.002678,0.000431,0.004701
82844000,0.0324,0.013523,0.002678,0.000431,0.004819
82845000,0.0324,0.013523,0.002678,0.000431,0.005054
82846000,0.0324,0.013523,0.002678,0.000431,0.003526
82847000,0.0324,0.013523,0.002678,0.000431,0.003056
82848000,0.0324,0.013523,0.002678,0.000431,0.002586
82849000,0.0324,0.013523,0.002678,0.000431,0.003643
82850000,0.0324,0.013523,0.002678,0.000431,0.002938
82851000,0.0324,0.013523,0.002678,0.000431,0.003173
82852000,0.0324,0.013523,0.002678,0.000431,0.002938
82853000,0.0324,0.013523,0.002678,0.000431,0.002233
82854000,0.0324,0.013523,0.002678,0.000431,0.002351
82855000,0.0324,0.013523,0.002678,0.000431,0.001880
82856000,0.0324,0.013523,0.002678,0.000431,0.001645
82857000,0.0324,0.013523,0.002678,0.000431,0.003643
82858000,0.0324,0.013523,0.002678,0.000431,0.000705
82859000,0.0324,0.013523,0.002678,0.000431,0.000823
82860000,0.0324,0.013523,0.002678,0.000431,0.000823
82861000,0.0324,0.013523,0.002678,0.000431,0.000940
82862000,0.0324,0.013523,0.002678,0.000431,0.000823
82863000,0.0324,0.013523,0.002678,0.000431,0.000823
82864000,0.0324,0.013523,0.002678,0.000431,0.000705
82865000,0.0324,0.013523,0.002678,0.000431,0.000940
82866000,0.0324,0.013523,0.002678,0.000431,0.000940
82867000,0.0324,0.013523,0.002678,0.000431,0.000705
82868000,0.0324,0.013523,0.002678,0.000431,0.000940
82869000,0.0324,0.013523,0.002678,0.000431,0.000705
82870000,0.0324,0.013523,0.002678,0.000431,0.000940
82871000,0.0324,0.013523,0.002678,0.000431,0.000823
82872000,0.0324,0.013523,0.002678,0.000431,0.000823
82873000,0.0324,0.013523,0.002678,0.000431,0.000940
82874000,0.0324,0.013523,0.002678,0.000431,0.000705
82875000,0.0324,0.013523,0.002678,0.000431,0.000940
82876000,0.0324,0.013523,0.002678,0.000431,0.000823
82877000,0.0324,0.013523,0.002678,0.000431,0.000823
82878000,0.0324,0.013523,0.002678,0.000431,0.000823
82879000,0.0324,0.013523,0.002678,0.000431,0.000823
82880000,0.0324,0.013523,0.002678,0.000431,0.000823
82881000,0.0324,0.013523,0.002678,0.000431,0.000823
82882000,0.0324,0.013523,0.002678,0.000431,0.000940
82883000,0.0324,0.013523,0.002678,0.000431,0.000705
82884000,0.0324,0.013523,0.002678,0.000431,0.000940
82885000,0.0324,0.013523,0.002678,0.000431,0.000823
82886000,0.0324,0.013523,0.002678,0.000431,0.000823
82887000,0.0324,0.013523,0.002678,0.000431,0.000823
82888000,0.0324,0.013523,0.002678,0.000431,0.000823
82889000,0.0324,0.013523,0.002678,0.000431,0.000940
82890000,0.0324,0.013523,0.002678,0.000431,0.000705
82891000,0.0324,0.013523,0.002678,0.000431,0.000940
82892000,0.0324,0.013523,0.002678,0.000431,0.000705
82893000,0.0324,0.013523,0.002678,0.000431,0.000940
82894000,0.0324,0.013523,0.002678,0.000431,0.000823
82895000,0.0324,0.013523,0.002678,0.000431,0.000823
82896000,0.0324,0.013523,0.002678,0.000431,0.000940
82897000,0.0324,0.013523,0.002678,0.000431,0.000705
82898000,0.0324,0.013523,0.002678,0.000431,0.000940
82899000,0.0324,0.013523,0.002678,0.000431,0.000823
82900000,0.0324,0.013523,0.002678,0.000431,0.000940
82901000,0.0324,0.013523,0.002678,0.000431,0.000940
82902000,0.0324,0.013523,0.002678,0.000431,0.000823
82903000,0.0324,0.013523,0.002678,0.000431,0.000940
82904000,0.0324,0.013523,0.002678,0.000431,0.058882
82905000,0.0324,0.013523,0.002678,0.000431,0.562607
82906000,0.0324,0.013523,0.002678,0.000431,0.586936
82907000,0.0324,0.013523,0.002678,0.000431,0.131632
82908000,0.0324,0.013523,0.002678,0.000431,0.134452
82909000,0.0324,0.013523,0.002678,0.000431,0.543568
82910000,0.0324,0.013523,0.002678,0.000431,0.248925
82911000,0.0324,0.013523,0.002678,0.000431,0.294643
82912000,0.0324,0.013523,0.002678,0.000431,0.243048
82913000,0.0324,0.013523,0.002678,0.000431,0.139271
82914000,0.0324,0.013523,0.002678,0.000431,0.177938
82915000,0.0324,0.013523,0.002678,0.000431,0.102485
82916000,0.0324,0.013523,0.002678,0.000431,0.467410
82917000,0.0324,0.013523,0.002678,0.000431,0.131632
82918000,0.0324,0.013523,0.002678,0.000431,0.062407
82919000,0.0324,0.013523,0.002678,0.000431,0.047481
82920000,0.0324,0.013523,0.002678,0.000431,0.035729
82921000,0.0324,0.013523,0.002678,0.000431,0.036199
82922000,0.0324,0.013523,0.002678,0.000431,0.029029
82923000,0.0324,0.013523,0.002678,0.000431,0.021390
82924000,0.0324,0.013523,0.002678,0.000431,0.019862
82925000,0.0324,0.013523,0.002678,0.000431,0.021155
82926000,0.0324,0.013523,0.002678,0.000431,0.017864
82927000,0.0324,0.013523,0.002678,0.000431,0.011283
82928000,0.0324,0.013523,0.002678,0.000431,0.011048
82929000,0.0324,0.013523,0.002678,0.000431,0.015279
82930000,0.0324,0.013523,0.002678,0.000431,0.007522
82931000,0.0324,0.013523,0.002678,0.000431,0.010460
82932000,0.0324,0.013523,0.002678,0.000431,0.005759
82933000,0.0324,0.013523,0.002678,0.000431,0.005759
82934000,0.0324,0.013523,0.002678,0.000431,0.008580
82935000,0.0324,0.013523,0.002678,0.000431,0.004819
82936000,0.0324,0.013523,0.002678,0.000431,0.004349
82937000,0.0324,0.013523,0.002678,0.000431,0.006229
82938000,0.0324,0.013523,0.002678,0.000431,0.005054
82939000,0.0324,0.013523,0.002678,0.000431,0.002351
82940000,0.0324,0.013523,0.002678,0.000431,0.002703
82941000,0.0324,0.013523,0.002678,0.000431,0.002703
82942000,0.0324,0.013523,0.002678,0.000431,0.002351
82943000,0.0324,0.013523,0.002678,0.000431,0.003996
82944000,0.0324,0.013523,0.002678,0.000431,0.003173
82945000,0.0324,0.013523,0.002678,0.000431,0.001763
82946000,0.0324,0.013523,0.002678,0.000431,0.001645
82947000,0.0324,0.013523,0.002678,0.000431,0.001645
82948000,0.0324,0.013523,0.002678,0.000431,0.001645
82949000,0.0324,0.013523,0.002678,0.000431,0.001645
82950000,0.0324,0.013523,0.002678,0.000431,0.001763
82951000,0.0324,0.013523,0.002678,0.000431,0.001528
82952000,0.0324,0.013523,0.002678,0.000431,0.001880
82953000,0.0324,0.013523,0.002678,0.000431,0.001410
82954000,0.0324,0.013523,0.002678,0.000431,0.001763
82955000,0.0324,0.013523,0.002678,0.000431,0.001763
82956000,0.0324,0.013523,0.002678,0.000431,0.001645
82957000,0.0324,0.013523,0.002678,0.000431,0.001763
82958000,0.0324,0.013523,0.002678,0.000431,0.003291
82959000,0.0324,0.013523,0.002678,0.000431,0.000940
82960000,0.0324,0.013523,0.002678,0.000431,0.000823
82961000,0.0324,0.013523,0.002678,0.000431,0.000823
82962000,0.0324,0.013523,0.002678,0.000431,0.000823
82963000,0.0324,0.013523,0.002678,0.000431,0.000823
82964000,0.0324,0.013523,0.002678,0.000431,0.000940
82965000,0.0324,0.013523,0.002678,0.000431,0.000705
82966000,0.0324,0.013523,0.002678,0.000431,0.000940
82967000,0.0324,0.013523,0.002678,0.000431,0.000823
82968000,0.0324,0.013523,0.002678,0.000431,0.000823
82969000,0.0324,0.013523,0.002678,0.000431,0.000823
82970000,0.0324,0.013523,0.002678,0.000431,0.000823
82971000,0.0324,0.013523,0.002678,0.000431,0.000823
82972000,0.0324,0.013523,0.002678,0.000431,0.000823
82973000,0.0324,0.013523,0.002678,0.000431,0.000823
82974000,0.0324,0.013523,0.002678,0.000431,0.000823
82975000,0.0324,0.013523,0.002678,0.000431,0.000940
82976000,0.0324,0.013523,0.002678,0.000431,0.000823
82977000,0.0324,0.013523,0.002678,0.000431,0.000823
82978000,0.0324,0.013523,0.002678,0.000431,0.000705
82979000,0.0324,0.013523,0.002678,0.000431,0.000940
82980000,0.0324,0.013523,0.002678,0.000431,0.000940
82981000,0.0324,0.013523,0.002678,0.000431,0.000705
82982000,0.0324,0.013523,0.002678,0.000431,0.000940
82983000,0.0324,0.013523,0.002678,0.000431,0.000705
82984000,0.0324,0.013523,0.002678,0.000431,0.000940
82985000,0.0324,0.013523,0.002678,0.000431,0.000823
82986000,0.0324,0.013523,0.002678,0.000431,0.000823
82987000,0.0324,0.013523,0.002678,0.000431,0.000823
82988000,0.0324,0.013523,0.002678,0.000431,0.000823
82989000,0.0324,0.013523,0.002678,0.000431,0.000940
82990000,0.0324,0.013523,0.002678,0.000431,0.000705
82991000,0.0324,0.013523,0.002678,0.000431,0.000940
82992000,0.0324,0.013523,0.002678,0.000431,0.028089
82993000,0.0324,0.013523,0.002678,0.000431,0.524998
82994000,0.0324,0.013523,0.002678,0.000431,0.597043
82995000,0.0324,0.013523,0.002678,0.000431,0.131984
82996000,0.0324,0.013523,0.002678,0.000431,0.133042
82997000,0.0324,0.013523,0.002678,0.000431,0.534871
82998000,0.0324,0.013523,0.002678,0.000431,0.262205
82999000,0.0324,0.013523,0.002678,0.000431,0.305573
