Cycle,Area(mm^2),PeakDynamic(W),SubthresholdLeakage(W),GateLeakage(W),RunTimeDynamic(W)
128000000,0.0324,0.013523,0.002678,0.000431,0.000823
128001000,0.0324,0.013523,0.002678,0.000431,0.000823
128002000,0.0324,0.013523,0.002678,0.000431,0.000823
128003000,0.0324,0.013523,0.002678,0.000431,0.000940
128004000,0.0324,0.013523,0.002678,0.000431,0.000823
128005000,0.0324,0.013523,0.002678,0.000431,0.000823
128006000,0.0324,0.013523,0.002678,0.000431,0.000823
128007000,0.0324,0.013523,0.002678,0.000431,0.000823
128008000,0.0324,0.013523,0.002678,0.000431,0.000705
128009000,0.0324,0.013523,0.002678,0.000431,0.000940
128010000,0.0324,0.013523,0.002678,0.000431,0.000940
128011000,0.0324,0.013523,0.002678,0.000431,0.000705
128012000,0.0324,0.013523,0.002678,0.000431,0.000940
128013000,0.0324,0.013523,0.002678,0.000431,0.000705
128014000,0.0324,0.013523,0.002678,0.000431,0.000940
128015000,0.0324,0.013523,0.002678,0.000431,0.000823
128016000,0.0324,0.013523,0.002678,0.000431,0.000823
128017000,0.0324,0.013523,0.002678,0.000431,0.000940
128018000,0.0324,0.013523,0.002678,0.000431,0.000705
128019000,0.0324,0.013523,0.002678,0.000431,0.000940
128020000,0.0324,0.013523,0.002678,0.000431,0.000823
128021000,0.0324,0.013523,0.002678,0.000431,0.000823
128022000,0.0324,0.013523,0.002678,0.000431,0.000823
128023000,0.0324,0.013523,0.002678,0.000431,0.000823
128024000,0.0324,0.013523,0.002678,0.000431,0.000940
128025000,0.0324,0.013523,0.002678,0.000431,0.000705
128026000,0.0324,0.013523,0.002678,0.000431,0.000940
128027000,0.0324,0.013523,0.002678,0.000431,0.000823
128028000,0.0324,0.013523,0.002678,0.000431,0.000705
128029000,0.0324,0.013523,0.002678,0.000431,0.000940
128030000,0.0324,0.013523,0.002678,0.000431,0.000823
128031000,0.0324,0.013523,0.002678,0.000431,0.000823
128032000,0.0324,0.013523,0.002678,0.000431,0.000823
128033000,0.0324,0.013523,0.002678,0.000431,0.000823
128034000,0.0324,0.013523,0.002678,0.000431,0.000823
128035000,0.0324,0.013523,0.002678,0.000431,0.000940
128036000,0.0324,0.013523,0.002678,0.000431,0.000823
128037000,0.0324,0.013523,0.002678,0.000431,0.000823
128038000,0.0324,0.013523,0.002678,0.000431,0.000705
128039000,0.0324,0.013523,0.002678,0.000431,0.000940
128040000,0.0324,0.013523,0.002678,0.000431,0.000940
128041000,0.0324,0.013523,0.002678,0.000431,0.000705
128042000,0.0324,0.013523,0.002678,0.000431,0.000940
128043000,0.0324,0.013523,0.002678,0.000431,0.000705
128044000,0.0324,0.013523,0.002678,0.000431,0.000940
128045000,0.0324,0.013523,0.002678,0.000431,0.000823
128046000,0.0324,0.013523,0.002678,0.000431,0.000823
128047000,0.0324,0.013523,0.002678,0.000431,0.000940
128048000,0.0324,0.013523,0.002678,0.000431,0.000705
128049000,0.0324,0.013523,0.002678,0.000431,0.000940
128050000,0.0324,0.013523,0.002678,0.000431,0.000705
128051000,0.0324,0.013523,0.002678,0.000431,0.000940
128052000,0.0324,0.013523,0.002678,0.000431,0.000823
128053000,0.0324,0.013523,0.002678,0.000431,0.000823
128054000,0.0324,0.013523,0.002678,0.000431,0.000823
128055000,0.0324,0.013523,0.002678,0.000431,0.000823
128056000,0.0324,0.013523,0.002678,0.000431,0.000940
128057000,0.0324,0.013523,0.002678,0.000431,0.000705
128058000,0.0324,0.013523,0.002678,0.000431,0.000940
128059000,0.0324,0.013523,0.002678,0.000431,0.000823
128060000,0.0324,0.013523,0.002678,0.000431,0.000823
128061000,0.0324,0.013523,0.002678,0.000431,0.000705
128062000,0.0324,0.013523,0.002678,0.000431,0.000940
128063000,0.0324,0.013523,0.002678,0.000431,0.000940
128064000,0.0324,0.013523,0.002678,0.000431,0.000705
128065000,0.0324,0.013523,0.002678,0.000431,0.000940
128066000,0.0324,0.013523,0.002678,0.000431,0.000705
128067000,0.0324,0.013523,0.002678,0.000431,0.000940
128068000,0.0324,0.013523,0.002678,0.000431,0.000823
128069000,0.0324,0.013523,0.002678,0.000431,0.000823
128070000,0.0324,0.013523,0.002678,0.000431,0.000940
128071000,0.0324,0.013523,0.002678,0.000431,0.000705
128072000,0.0324,0.013523,0.002678,0.000431,0.019157
128073000,0.0324,0.013523,0.002678,0.000431,0.532403
128074000,0.0324,0.013523,0.002678,0.000431,0.599276
128075000,0.0324,0.013523,0.002678,0.000431,0.136450
128076000,0.0324,0.013523,0.002678,0.000431,0.133042
128077000,0.0324,0.013523,0.002678,0.000431,0.521943
128078000,0.0324,0.013523,0.002678,0.000431,0.289942
128079000,0.0324,0.013523,0.002678,0.000431,0.249277
128080000,0.0324,0.013523,0.002678,0.000431,0.344475
128081000,0.0324,0.013523,0.002678,0.000431,0.143619
128082000,0.0324,0.013523,0.002678,0.000431,0.146088
128083000,0.0324,0.013523,0.002678,0.000431,0.101192
128084000,0.0324,0.013523,0.002678,0.000431,0.361164
128085000,0.0324,0.013523,0.002678,0.000431,0.245164
128086000,0.0324,0.013523,0.002678,0.000431,0.058764
128087000,0.0324,0.013523,0.002678,0.000431,0.048539
128088000,0.0324,0.013523,0.002678,0.000431,0.041958
128089000,0.0324,0.013523,0.002678,0.000431,0.033025
128090000,0.0324,0.013523,0.002678,0.000431,0.032203
128091000,0.0324,0.013523,0.002678,0.000431,0.022683
128092000,0.0324,0.013523,0.002678,0.000431,0.027737
128093000,0.0324,0.013523,0.002678,0.000431,0.023741
128094000,0.0324,0.013523,0.002678,0.000431,0.014809
128095000,0.0324,0.013523,0.002678,0.000431,0.011048
128096000,0.0324,0.013523,0.002678,0.000431,0.010342
128097000,0.0324,0.013523,0.002678,0.000431,0.009755
128098000,0.0324,0.013523,0.002678,0.000431,0.008815
128099000,0.0324,0.013523,0.002678,0.000431,0.007639
128100000,0.0324,0.013523,0.002678,0.000431,0.009990
128101000,0.0324,0.013523,0.002678,0.000431,0.005876
128102000,0.0324,0.013523,0.002678,0.000431,0.007169
128103000,0.0324,0.013523,0.002678,0.000431,0.007169
128104000,0.0324,0.013523,0.002678,0.000431,0.005759
128105000,0.0324,0.013523,0.002678,0.000431,0.004466
128106000,0.0324,0.013523,0.002678,0.000431,0.005876
128107000,0.0324,0.013523,0.002678,0.000431,0.003526
128108000,0.0324,0.013523,0.002678,0.000431,0.003996
128109000,0.0324,0.013523,0.002678,0.000431,0.003643
128110000,0.0324,0.013523,0.002678,0.000431,0.002468
128111000,0.0324,0.013523,0.002678,0.000431,0.002468
128112000,0.0324,0.013523,0.002678,0.000431,0.002703
128113000,0.0324,0.013523,0.002678,0.000431,0.002586
128114000,0.0324,0.013523,0.002678,0.000431,0.002703
128115000,0.0324,0.013523,0.002678,0.000431,0.002351
128116000,0.0324,0.013523,0.002678,0.000431,0.002821
128117000,0.0324,0.013523,0.002678,0.000431,0.002586
128118000,0.0324,0.013523,0.002678,0.000431,0.002468
128119000,0.0324,0.013523,0.002678,0.000431,0.002586
128120000,0.0324,0.013523,0.002678,0.000431,0.002703
128121000,0.0324,0.013523,0.002678,0.000431,0.002468
128122000,0.0324,0.013523,0.002678,0.000431,0.002586
128123000,0.0324,0.013523,0.002678,0.000431,0.002703
128124000,0.0324,0.013523,0.002678,0.000431,0.002586
128125000,0.0324,0.013523,0.002678,0.000431,0.002586
128126000,0.0324,0.013523,0.002678,0.000431,0.002468
128127000,0.0324,0.013523,0.002678,0.000431,0.002703
128128000,0.0324,0.013523,0.002678,0.000431,0.002586
128129000,0.0324,0.013523,0.002678,0.000431,0.004349
128130000,0.0324,0.013523,0.002678,0.000431,0.001645
128131000,0.0324,0.013523,0.002678,0.000431,0.001880
128132000,0.0324,0.013523,0.002678,0.000431,0.001763
128133000,0.0324,0.013523,0.002678,0.000431,0.001645
128134000,0.0324,0.013523,0.002678,0.000431,0.001763
128135000,0.0324,0.013523,0.002678,0.000431,0.001880
128136000,0.0324,0.013523,0.002678,0.000431,0.001763
128137000,0.0324,0.013523,0.002678,0.000431,0.002468
128138000,0.0324,0.013523,0.002678,0.000431,0.000823
128139000,0.0324,0.013523,0.002678,0.000431,0.000940
128140000,0.0324,0.013523,0.002678,0.000431,0.000940
128141000,0.0324,0.013523,0.002678,0.000431,0.000823
128142000,0.0324,0.013523,0.002678,0.000431,0.000823
128143000,0.0324,0.013523,0.002678,0.000431,0.000940
128144000,0.0324,0.013523,0.002678,0.000431,0.000940
128145000,0.0324,0.013523,0.002678,0.000431,0.000823
128146000,0.0324,0.013523,0.002678,0.000431,0.000823
128147000,0.0324,0.013523,0.002678,0.000431,0.000940
128148000,0.0324,0.013523,0.002678,0.000431,0.000940
128149000,0.0324,0.013523,0.002678,0.000431,0.000823
128150000,0.0324,0.013523,0.002678,0.000431,0.000823
128151000,0.0324,0.013523,0.002678,0.000431,0.000940
128152000,0.0324,0.013523,0.002678,0.000431,0.000823
128153000,0.0324,0.013523,0.002678,0.000431,0.000940
128154000,0.0324,0.013523,0.002678,0.000431,0.000823
128155000,0.0324,0.013523,0.002678,0.000431,0.000940
128156000,0.0324,0.013523,0.002678,0.000431,0.000823
128157000,0.0324,0.013523,0.002678,0.000431,0.000823
128158000,0.0324,0.013523,0.002678,0.000431,0.000940
128159000,0.0324,0.013523,0.002678,0.000431,0.000940
128160000,0.0324,0.013523,0.002678,0.000431,0.000823
128161000,0.0324,0.013523,0.002678,0.000431,0.000823
128162000,0.0324,0.013523,0.002678,0.000431,0.000940
128163000,0.0324,0.013523,0.002678,0.000431,0.000940
128164000,0.0324,0.013523,0.002678,0.000431,0.000705
128165000,0.0324,0.013523,0.002678,0.000431,0.000940
128166000,0.0324,0.013523,0.002678,0.000431,0.000940
128167000,0.0324,0.013523,0.002678,0.000431,0.000940
128168000,0.0324,0.013523,0.002678,0.000431,0.000823
128169000,0.0324,0.013523,0.002678,0.000431,0.000823
128170000,0.0324,0.013523,0.002678,0.000431,0.000940
128171000,0.0324,0.013523,0.002678,0.000431,0.000823
128172000,0.0324,0.013523,0.002678,0.000431,0.000940
128173000,0.0324,0.013523,0.002678,0.000431,0.000823
128174000,0.0324,0.013523,0.002678,0.000431,0.000940
128175000,0.0324,0.013523,0.002678,0.000431,0.000823
128176000,0.0324,0.013523,0.002678,0.000431,0.000823
128177000,0.0324,0.013523,0.002678,0.000431,0.000940
128178000,0.0324,0.013523,0.002678,0.000431,0.000940
128179000,0.0324,0.013523,0.002678,0.000431,0.000705
128180000,0.0324,0.013523,0.002678,0.000431,0.000940
128181000,0.0324,0.013523,0.002678,0.000431,0.000940
128182000,0.0324,0.013523,0.002678,0.000431,0.000940
128183000,0.0324,0.013523,0.002678,0.000431,0.000705
128184000,0.0324,0.013523,0.002678,0.000431,0.000940
128185000,0.0324,0.013523,0.002678,0.000431,0.000940
128186000,0.0324,0.013523,0.002678,0.000431,0.000823
128187000,0.0324,0.013523,0.002678,0.000431,0.000823
128188000,0.0324,0.013523,0.002678,0.000431,0.000940
128189000,0.0324,0.013523,0.002678,0.000431,0.000940
128190000,0.0324,0.013523,0.002678,0.000431,0.000823
128191000,0.0324,0.013523,0.002678,0.000431,0.000823
128192000,0.0324,0.013523,0.002678,0.000431,0.000940
128193000,0.0324,0.013523,0.002678,0.000431,0.000823
128194000,0.0324,0.013523,0.002678,0.000431,0.000940
128195000,0.0324,0.013523,0.002678,0.000431,0.000823
128196000,0.0324,0.013523,0.002678,0.000431,0.000940
128197000,0.0324,0.013523,0.002678,0.000431,0.000823
128198000,0.0324,0.013523,0.002678,0.000431,0.000823
128199000,0.0324,0.013523,0.002678,0.000431,0.000940
128200000,0.0324,0.013523,0.002678,0.000431,0.000940
128201000,0.0324,0.013523,0.002678,0.000431,0.000940
128202000,0.0324,0.013523,0.002678,0.000431,0.000705
128203000,0.0324,0.013523,0.002678,0.000431,0.000940
128204000,0.0324,0.013523,0.002678,0.000431,0.000940
128205000,0.0324,0.013523,0.002678,0.000431,0.000823
128206000,0.0324,0.013523,0.002678,0.000431,0.000823
128207000,0.0324,0.013523,0.002678,0.000431,0.000940
128208000,0.0324,0.013523,0.002678,0.000431,0.000940
128209000,0.0324,0.013523,0.002678,0.000431,0.000823
128210000,0.0324,0.013523,0.002678,0.000431,0.000823
128211000,0.0324,0.013523,0.002678,0.000431,0.000940
128212000,0.0324,0.013523,0.002678,0.000431,0.000823
128213000,0.0324,0.013523,0.002678,0.000431,0.000940
128214000,0.0324,0.013523,0.002678,0.000431,0.000823
128215000,0.0324,0.013523,0.002678,0.000431,0.000940
128216000,0.0324,0.013523,0.002678,0.000431,0.000823
128217000,0.0324,0.013523,0.002678,0.000431,0.000823
128218000,0.0324,0.013523,0.002678,0.000431,0.000940
128219000,0.0324,0.013523,0.002678,0.000431,0.000940
128220000,0.0324,0.013523,0.002678,0.000431,0.000823
128221000,0.0324,0.013523,0.002678,0.000431,0.000823
128222000,0.0324,0.013523,0.002678,0.000431,0.000940
128223000,0.0324,0.013523,0.002678,0.000431,0.000940
128224000,0.0324,0.013523,0.002678,0.000431,0.000705
128225000,0.0324,0.013523,0.002678,0.000431,0.000940
128226000,0.0324,0.013523,0.002678,0.000431,0.000940
128227000,0.0324,0.013523,0.002678,0.000431,0.000823
128228000,0.0324,0.013523,0.002678,0.000431,0.000940
128229000,0.0324,0.013523,0.002678,0.000431,0.000823
128230000,0.0324,0.013523,0.002678,0.000431,0.000940
128231000,0.0324,0.013523,0.002678,0.000431,0.000823
128232000,0.0324,0.013523,0.002678,0.000431,0.000823
128233000,0.0324,0.013523,0.002678,0.000431,0.000940
128234000,0.0324,0.013523,0.002678,0.000431,0.000940
128235000,0.0324,0.013523,0.002678,0.000431,0.000823
128236000,0.0324,0.013523,0.002678,0.000431,0.000823
128237000,0.0324,0.013523,0.002678,0.000431,0.000940
128238000,0.0324,0.013523,0.002678,0.000431,0.000940
128239000,0.0324,0.013523,0.002678,0.000431,0.000705
128240000,0.0324,0.013523,0.002678,0.000431,0.000940
128241000,0.0324,0.013523,0.002678,0.000431,0.000940
128242000,0.0324,0.013523,0.002678,0.000431,0.000940
128243000,0.0324,0.013523,0.002678,0.000431,0.000705
128244000,0.0324,0.013523,0.002678,0.000431,0.000940
128245000,0.0324,0.013523,0.002678,0.000431,0.000940
128246000,0.0324,0.013523,0.002678,0.000431,0.000823
128247000,0.0324,0.013523,0.002678,0.000431,0.000823
128248000,0.0324,0.013523,0.002678,0.000431,0.000940
128249000,0.0324,0.013523,0.002678,0.000431,0.000940
128250000,0.0324,0.013523,0.002678,0.000431,0.000823
128251000,0.0324,0.013523,0.002678,0.000431,0.000823
128252000,0.0324,0.013523,0.002678,0.000431,0.000940
128253000,0.0324,0.013523,0.002678,0.000431,0.000823
128254000,0.0324,0.013523,0.002678,0.000431,0.000940
128255000,0.0324,0.013523,0.002678,0.000431,0.000823
128256000,0.0324,0.013523,0.002678,0.000431,0.000940
128257000,0.0324,0.013523,0.002678,0.000431,0.000823
128258000,0.0324,0.013523,0.002678,0.000431,0.000823
128259000,0.0324,0.013523,0.002678,0.000431,0.000940
128260000,0.0324,0.013523,0.002678,0.000431,0.000940
128261000,0.0324,0.013523,0.002678,0.000431,0.000940
128262000,0.0324,0.013523,0.002678,0.000431,0.000705
128263000,0.0324,0.013523,0.002678,0.000431,0.000940
128264000,0.0324,0.013523,0.002678,0.000431,0.000940
128265000,0.0324,0.013523,0.002678,0.000431,0.000823
128266000,0.0324,0.013523,0.002678,0.000431,0.000823
128267000,0.0324,0.013523,0.002678,0.000431,0.000940
128268000,0.0324,0.013523,0.002678,0.000431,0.000823
128269000,0.0324,0.013523,0.002678,0.000431,0.000940
128270000,0.0324,0.013523,0.002678,0.000431,0.000823
128271000,0.0324,0.013523,0.002678,0.000431,0.000940
128272000,0.0324,0.013523,0.002678,0.000431,0.000823
128273000,0.0324,0.013523,0.002678,0.000431,0.000823
128274000,0.0324,0.013523,0.002678,0.000431,0.000940
128275000,0.0324,0.013523,0.002678,0.000431,0.000940
128276000,0.0324,0.013523,0.002678,0.000431,0.000823
128277000,0.0324,0.013523,0.002678,0.000431,0.000823
128278000,0.0324,0.013523,0.002678,0.000431,0.000940
128279000,0.0324,0.013523,0.002678,0.000431,0.000940
128280000,0.0324,0.013523,0.002678,0.000431,0.000705
128281000,0.0324,0.013523,0.002678,0.000431,0.000940
128282000,0.0324,0.013523,0.002678,0.000431,0.000940
128283000,0.0324,0.013523,0.002678,0.000431,0.000940
128284000,0.0324,0.013523,0.002678,0.000431,0.000705
128285000,0.0324,0.013523,0.002678,0.000431,0.000940
128286000,0.0324,0.013523,0.002678,0.000431,0.000940
128287000,0.0324,0.013523,0.002678,0.000431,0.000823
128288000,0.0324,0.013523,0.002678,0.000431,0.000940
128289000,0.0324,0.013523,0.002678,0.000431,0.000823
128290000,0.0324,0.013523,0.002678,0.000431,0.000940
128291000,0.0324,0.013523,0.002678,0.000431,0.000823
128292000,0.0324,0.013523,0.002678,0.000431,0.000823
128293000,0.0324,0.013523,0.002678,0.000431,0.000940
128294000,0.0324,0.013523,0.002678,0.000431,0.000940
128295000,0.0324,0.013523,0.002678,0.000431,0.000823
128296000,0.0324,0.013523,0.002678,0.000431,0.000823
128297000,0.0324,0.013523,0.002678,0.000431,0.000940
128298000,0.0324,0.013523,0.002678,0.000431,0.000940
128299000,0.0324,0.013523,0.002678,0.000431,0.000705
128300000,0.0324,0.013523,0.002678,0.000431,0.000940
128301000,0.0324,0.013523,0.002678,0.000431,0.000940
128302000,0.0324,0.013523,0.002678,0.000431,0.000940
128303000,0.0324,0.013523,0.002678,0.000431,0.000705
128304000,0.0324,0.013523,0.002678,0.000431,0.000940
128305000,0.0324,0.013523,0.002678,0.000431,0.000940
128306000,0.0324,0.013523,0.002678,0.000431,0.000823
128307000,0.0324,0.013523,0.002678,0.000431,0.000823
128308000,0.0324,0.013523,0.002678,0.000431,0.000940
128309000,0.0324,0.013523,0.002678,0.000431,0.000940
128310000,0.0324,0.013523,0.002678,0.000431,0.000823
128311000,0.0324,0.013523,0.002678,0.000431,0.000823
128312000,0.0324,0.013523,0.002678,0.000431,0.000940
128313000,0.0324,0.013523,0.002678,0.000431,0.000940
128314000,0.0324,0.013523,0.002678,0.000431,0.000823
128315000,0.0324,0.013523,0.002678,0.000431,0.000823
128316000,0.0324,0.013523,0.002678,0.000431,0.000940
128317000,0.0324,0.013523,0.002678,0.000431,0.000823
128318000,0.0324,0.013523,0.002678,0.000431,0.000940
128319000,0.0324,0.013523,0.002678,0.000431,0.000823
128320000,0.0324,0.013523,0.002678,0.000431,0.000940
128321000,0.0324,0.013523,0.002678,0.000431,0.000940
128322000,0.0324,0.013523,0.002678,0.000431,0.000705
128323000,0.0324,0.013523,0.002678,0.000431,0.000940
128324000,0.0324,0.013523,0.002678,0.000431,0.000940
128325000,0.0324,0.013523,0.002678,0.000431,0.000940
128326000,0.0324,0.013523,0.002678,0.000431,0.000705
128327000,0.0324,0.013523,0.002678,0.000431,0.013633
128328000,0.0324,0.013523,0.002678,0.000431,0.477870
128329000,0.0324,0.013523,0.002678,0.000431,0.593752
128330000,0.0324,0.013523,0.002678,0.000431,0.134922
128331000,0.0324,0.013523,0.002678,0.000431,0.130691
128332000,0.0324,0.013523,0.002678,0.000431,0.234939
128333000,0.0324,0.013523,0.002678,0.000431,0.507722
128334000,0.0324,0.013523,0.002678,0.000431,0.249160
128335000,0.0324,0.013523,0.002678,0.000431,0.275956
128336000,0.0324,0.013523,0.002678,0.000431,0.223186
128337000,0.0324,0.013523,0.002678,0.000431,0.139506
128338000,0.0324,0.013523,0.002678,0.000431,0.182874
128339000,0.0324,0.013523,0.002678,0.000431,0.088381
128340000,0.0324,0.013523,0.002678,0.000431,0.477517
128341000,0.0324,0.013523,0.002678,0.000431,0.129516
128342000,0.0324,0.013523,0.002678,0.000431,0.082975
128343000,0.0324,0.013523,0.002678,0.000431,0.073103
128344000,0.0324,0.013523,0.002678,0.000431,0.059939
128345000,0.0324,0.013523,0.002678,0.000431,0.047599
128346000,0.0324,0.013523,0.002678,0.000431,0.038432
128347000,0.0324,0.013523,0.002678,0.000431,0.037139
128348000,0.0324,0.013523,0.002678,0.000431,0.032438
128349000,0.0324,0.013523,0.002678,0.000431,0.025151
128350000,0.0324,0.013523,0.002678,0.000431,0.021625
128351000,0.0324,0.013523,0.002678,0.000431,0.018687
128352000,0.0324,0.013523,0.002678,0.000431,0.013398
128353000,0.0324,0.013523,0.002678,0.000431,0.012223
128354000,0.0324,0.013523,0.002678,0.000431,0.012693
128355000,0.0324,0.013523,0.002678,0.000431,0.015749
128356000,0.0324,0.013523,0.002678,0.000431,0.012340
128357000,0.0324,0.013523,0.002678,0.000431,0.015514
128358000,0.0324,0.013523,0.002678,0.000431,0.008227
128359000,0.0324,0.013523,0.002678,0.000431,0.008580
128360000,0.0324,0.013523,0.002678,0.000431,0.008580
128361000,0.0324,0.013523,0.002678,0.000431,0.008932
128362000,0.0324,0.013523,0.002678,0.000431,0.011283
128363000,0.0324,0.013523,0.002678,0.000431,0.007874
128364000,0.0324,0.013523,0.002678,0.000431,0.004819
128365000,0.0324,0.013523,0.002678,0.000431,0.004936
128366000,0.0324,0.013523,0.002678,0.000431,0.004349
128367000,0.0324,0.013523,0.002678,0.000431,0.004349
128368000,0.0324,0.013523,0.002678,0.000431,0.006699
128369000,0.0324,0.013523,0.002678,0.000431,0.003408
128370000,0.0324,0.013523,0.002678,0.000431,0.003761
128371000,0.0324,0.013523,0.002678,0.000431,0.003526
128372000,0.0324,0.013523,0.002678,0.000431,0.003526
128373000,0.0324,0.013523,0.002678,0.000431,0.003526
128374000,0.0324,0.013523,0.002678,0.000431,0.003408
128375000,0.0324,0.013523,0.002678,0.000431,0.003761
128376000,0.0324,0.013523,0.002678,0.000431,0.003408
128377000,0.0324,0.013523,0.002678,0.000431,0.003878
128378000,0.0324,0.013523,0.002678,0.000431,0.004349
128379000,0.0324,0.013523,0.002678,0.000431,0.004231
128380000,0.0324,0.013523,0.002678,0.000431,0.002821
128381000,0.0324,0.013523,0.002678,0.000431,0.004349
128382000,0.0324,0.013523,0.002678,0.000431,0.001763
128383000,0.0324,0.013523,0.002678,0.000431,0.001645
128384000,0.0324,0.013523,0.002678,0.000431,0.001763
128385000,0.0324,0.013523,0.002678,0.000431,0.001645
128386000,0.0324,0.013523,0.002678,0.000431,0.003173
128387000,0.0324,0.013523,0.002678,0.000431,0.000705
128388000,0.0324,0.013523,0.002678,0.000431,0.000940
128389000,0.0324,0.013523,0.002678,0.000431,0.000705
128390000,0.0324,0.013523,0.002678,0.000431,0.000940
128391000,0.0324,0.013523,0.002678,0.000431,0.000705
128392000,0.0324,0.013523,0.002678,0.000431,0.000940
128393000,0.0324,0.013523,0.002678,0.000431,0.000940
128394000,0.0324,0.013523,0.002678,0.000431,0.000705
128395000,0.0324,0.013523,0.002678,0.000431,0.000940
128396000,0.0324,0.013523,0.002678,0.000431,0.000705
128397000,0.0324,0.013523,0.002678,0.000431,0.000940
128398000,0.0324,0.013523,0.002678,0.000431,0.000823
128399000,0.0324,0.013523,0.002678,0.000431,0.000823
128400000,0.0324,0.013523,0.002678,0.000431,0.000940
128401000,0.0324,0.013523,0.002678,0.000431,0.000705
128402000,0.0324,0.013523,0.002678,0.000431,0.000940
128403000,0.0324,0.013523,0.002678,0.000431,0.138918
128404000,0.0324,0.013523,0.002678,0.000431,0.523823
128405000,0.0324,0.013523,0.002678,0.000431,0.547329
128406000,0.0324,0.013523,0.002678,0.000431,0.132572
128407000,0.0324,0.013523,0.002678,0.000431,0.133159
128408000,0.0324,0.013523,0.002678,0.000431,0.569189
128409000,0.0324,0.013523,0.002678,0.000431,0.242461
128410000,0.0324,0.013523,0.002678,0.000431,0.279835
128411000,0.0324,0.013523,0.002678,0.000431,0.278189
128412000,0.0324,0.013523,0.002678,0.000431,0.138566
128413000,0.0324,0.013523,0.002678,0.000431,0.154432
128414000,0.0324,0.013523,0.002678,0.000431,0.114590
128415000,0.0324,0.013523,0.002678,0.000431,0.401829
128416000,0.0324,0.013523,0.002678,0.000431,0.184989
128417000,0.0324,0.013523,0.002678,0.000431,0.049362
128418000,0.0324,0.013523,0.002678,0.000431,0.046894
128419000,0.0324,0.013523,0.002678,0.000431,0.039372
128420000,0.0324,0.013523,0.002678,0.000431,0.039960
128421000,0.0324,0.013523,0.002678,0.000431,0.034201
128422000,0.0324,0.013523,0.002678,0.000431,0.021860
128423000,0.0324,0.013523,0.002678,0.000431,0.017982
128424000,0.0324,0.013523,0.002678,0.000431,0.018217
128425000,0.0324,0.013523,0.002678,0.000431,0.019510
128426000,0.0324,0.013523,0.002678,0.000431,0.011048
128427000,0.0324,0.013523,0.002678,0.000431,0.011518
128428000,0.0324,0.013523,0.002678,0.000431,0.011518
128429000,0.0324,0.013523,0.002678,0.000431,0.010695
128430000,0.0324,0.013523,0.002678,0.000431,0.011283
128431000,0.0324,0.013523,0.002678,0.000431,0.011518
128432000,0.0324,0.013523,0.002678,0.000431,0.011165
128433000,0.0324,0.013523,0.002678,0.000431,0.008815
128434000,0.0324,0.013523,0.002678,0.000431,0.008462
128435000,0.0324,0.013523,0.002678,0.000431,0.007404
128436000,0.0324,0.013523,0.002678,0.000431,0.008345
128437000,0.0324,0.013523,0.002678,0.000431,0.007992
128438000,0.0324,0.013523,0.002678,0.000431,0.008227
128439000,0.0324,0.013523,0.002678,0.000431,0.007757
128440000,0.0324,0.013523,0.002678,0.000431,0.008462
128441000,0.0324,0.013523,0.002678,0.000431,0.007874
128442000,0.0324,0.013523,0.002678,0.000431,0.008345
128443000,0.0324,0.013523,0.002678,0.000431,0.009872
128444000,0.0324,0.013523,0.002678,0.000431,0.006934
128445000,0.0324,0.013523,0.002678,0.000431,0.007757
128446000,0.0324,0.013523,0.002678,0.000431,0.006934
128447000,0.0324,0.013523,0.002678,0.000431,0.009637
128448000,0.0324,0.013523,0.002678,0.000431,0.006229
128449000,0.0324,0.013523,0.002678,0.000431,0.006699
128450000,0.0324,0.013523,0.002678,0.000431,0.006699
128451000,0.0324,0.013523,0.002678,0.000431,0.006229
128452000,0.0324,0.013523,0.002678,0.000431,0.007052
128453000,0.0324,0.013523,0.002678,0.000431,0.006111
128454000,0.0324,0.013523,0.002678,0.000431,0.006582
128455000,0.0324,0.013523,0.002678,0.000431,0.006699
128456000,0.0324,0.013523,0.002678,0.000431,0.009285
128457000,0.0324,0.013523,0.002678,0.000431,0.005054
128458000,0.0324,0.013523,0.002678,0.000431,0.004819
128459000,0.0324,0.013523,0.002678,0.000431,0.004466
128460000,0.0324,0.013523,0.002678,0.000431,0.006817
128461000,0.0324,0.013523,0.002678,0.000431,0.004113
128462000,0.0324,0.013523,0.002678,0.000431,0.005759
128463000,0.0324,0.013523,0.002678,0.000431,0.003526
128464000,0.0324,0.013523,0.002678,0.000431,0.002351
128465000,0.0324,0.013523,0.002678,0.000431,0.000705
128466000,0.0324,0.013523,0.002678,0.000431,0.000940
128467000,0.0324,0.013523,0.002678,0.000431,0.000823
128468000,0.0324,0.013523,0.002678,0.000431,0.000823
128469000,0.0324,0.013523,0.002678,0.000431,0.000940
128470000,0.0324,0.013523,0.002678,0.000431,0.000705
128471000,0.0324,0.013523,0.002678,0.000431,0.000940
128472000,0.0324,0.013523,0.002678,0.000431,0.000823
128473000,0.0324,0.013523,0.002678,0.000431,0.000823
128474000,0.0324,0.013523,0.002678,0.000431,0.000823
128475000,0.0324,0.013523,0.002678,0.000431,0.000823
128476000,0.0324,0.013523,0.002678,0.000431,0.000940
128477000,0.0324,0.013523,0.002678,0.000431,0.000705
128478000,0.0324,0.013523,0.002678,0.000431,0.000940
128479000,0.0324,0.013523,0.002678,0.000431,0.000823
128480000,0.0324,0.013523,0.002678,0.000431,0.000823
128481000,0.0324,0.013523,0.002678,0.000431,0.000823
128482000,0.0324,0.013523,0.002678,0.000431,0.000823
128483000,0.0324,0.013523,0.002678,0.000431,0.000823
128484000,0.0324,0.013523,0.002678,0.000431,0.000823
128485000,0.0324,0.013523,0.002678,0.000431,0.000940
128486000,0.0324,0.013523,0.002678,0.000431,0.000705
128487000,0.0324,0.013523,0.002678,0.000431,0.000940
128488000,0.0324,0.013523,0.002678,0.000431,0.000705
128489000,0.0324,0.013523,0.002678,0.000431,0.000940
128490000,0.0324,0.013523,0.002678,0.000431,0.000940
128491000,0.0324,0.013523,0.002678,0.000431,0.000705
128492000,0.0324,0.013523,0.002678,0.000431,0.000940
128493000,0.0324,0.013523,0.002678,0.000431,0.000705
128494000,0.0324,0.013523,0.002678,0.000431,0.000940
128495000,0.0324,0.013523,0.002678,0.000431,0.000823
128496000,0.0324,0.013523,0.002678,0.000431,0.000823
128497000,0.0324,0.013523,0.002678,0.000431,0.000823
128498000,0.0324,0.013523,0.002678,0.000431,0.000823
128499000,0.0324,0.013523,0.002678,0.000431,0.000940
128500000,0.0324,0.013523,0.002678,0.000431,0.000823
128501000,0.0324,0.013523,0.002678,0.000431,0.000823
128502000,0.0324,0.013523,0.002678,0.000431,0.000823
128503000,0.0324,0.013523,0.002678,0.000431,0.000823
128504000,0.0324,0.013523,0.002678,0.000431,0.000823
128505000,0.0324,0.013523,0.002678,0.000431,0.000823
128506000,0.0324,0.013523,0.002678,0.000431,0.000940
128507000,0.0324,0.013523,0.002678,0.000431,0.000705
128508000,0.0324,0.013523,0.002678,0.000431,0.000823
128509000,0.0324,0.013523,0.002678,0.000431,0.000940
128510000,0.0324,0.013523,0.002678,0.000431,0.000823
128511000,0.0324,0.013523,0.002678,0.000431,0.000823
128512000,0.0324,0.013523,0.002678,0.000431,0.000823
128513000,0.0324,0.013523,0.002678,0.000431,0.000705
128514000,0.0324,0.013523,0.002678,0.000431,0.000940
128515000,0.0324,0.013523,0.002678,0.000431,0.000940
128516000,0.0324,0.013523,0.002678,0.000431,0.000705
128517000,0.0324,0.013523,0.002678,0.000431,0.000940
128518000,0.0324,0.013523,0.002678,0.000431,0.000705
128519000,0.0324,0.013523,0.002678,0.000431,0.000940
128520000,0.0324,0.013523,0.002678,0.000431,0.000940
128521000,0.0324,0.013523,0.002678,0.000431,0.000705
128522000,0.0324,0.013523,0.002678,0.000431,0.000940
128523000,0.0324,0.013523,0.002678,0.000431,0.000705
128524000,0.0324,0.013523,0.002678,0.000431,0.000940
128525000,0.0324,0.013523,0.002678,0.000431,0.000823
128526000,0.0324,0.013523,0.002678,0.000431,0.000823
128527000,0.0324,0.013523,0.002678,0.000431,0.000823
128528000,0.0324,0.013523,0.002678,0.000431,0.000823
128529000,0.0324,0.013523,0.002678,0.000431,0.000940
128530000,0.0324,0.013523,0.002678,0.000431,0.000823
128531000,0.0324,0.013523,0.002678,0.000431,0.000823
128532000,0.0324,0.013523,0.002678,0.000431,0.000823
128533000,0.0324,0.013523,0.002678,0.000431,0.000823
128534000,0.0324,0.013523,0.002678,0.000431,0.000823
128535000,0.0324,0.013523,0.002678,0.000431,0.000823
128536000,0.0324,0.013523,0.002678,0.000431,0.000940
128537000,0.0324,0.013523,0.002678,0.000431,0.000705
128538000,0.0324,0.013523,0.002678,0.000431,0.000940
128539000,0.0324,0.013523,0.002678,0.000431,0.000823
128540000,0.0324,0.013523,0.002678,0.000431,0.000823
128541000,0.0324,0.013523,0.002678,0.000431,0.000705
128542000,0.0324,0.013523,0.002678,0.000431,0.000940
128543000,0.0324,0.013523,0.002678,0.000431,0.000940
128544000,0.0324,0.013523,0.002678,0.000431,0.000705
128545000,0.0324,0.013523,0.002678,0.000431,0.000940
128546000,0.0324,0.013523,0.002678,0.000431,0.000705
128547000,0.0324,0.013523,0.002678,0.000431,0.000940
128548000,0.0324,0.013523,0.002678,0.000431,0.000823
128549000,0.0324,0.013523,0.002678,0.000431,0.000823
128550000,0.0324,0.013523,0.002678,0.000431,0.000940
128551000,0.0324,0.013523,0.002678,0.000431,0.000705
128552000,0.0324,0.013523,0.002678,0.000431,0.000940
128553000,0.0324,0.013523,0.002678,0.000431,0.000823
128554000,0.0324,0.013523,0.002678,0.000431,0.000823
128555000,0.0324,0.013523,0.002678,0.000431,0.000823
128556000,0.0324,0.013523,0.002678,0.000431,0.000823
128557000,0.0324,0.013523,0.002678,0.000431,0.000823
128558000,0.0324,0.013523,0.002678,0.000431,0.000823
128559000,0.0324,0.013523,0.002678,0.000431,0.000940
128560000,0.0324,0.013523,0.002678,0.000431,0.000705
128561000,0.0324,0.013523,0.002678,0.000431,0.000823
128562000,0.0324,0.013523,0.002678,0.000431,0.000940
128563000,0.0324,0.013523,0.002678,0.000431,0.000823
128564000,0.0324,0.013523,0.002678,0.000431,0.000823
128565000,0.0324,0.013523,0.002678,0.000431,0.000823
128566000,0.0324,0.013523,0.002678,0.000431,0.000705
128567000,0.0324,0.013523,0.002678,0.000431,0.000940
128568000,0.0324,0.013523,0.002678,0.000431,0.000940
128569000,0.0324,0.013523,0.002678,0.000431,0.000705
128570000,0.0324,0.013523,0.002678,0.000431,0.000940
128571000,0.0324,0.013523,0.002678,0.000431,0.000705
128572000,0.0324,0.013523,0.002678,0.000431,0.000940
128573000,0.0324,0.013523,0.002678,0.000431,0.000823
128574000,0.0324,0.013523,0.002678,0.000431,0.000823
128575000,0.0324,0.013523,0.002678,0.000431,0.000940
128576000,0.0324,0.013523,0.002678,0.000431,0.000705
128577000,0.0324,0.013523,0.002678,0.000431,0.000940
128578000,0.0324,0.013523,0.002678,0.000431,0.000823
128579000,0.0324,0.013523,0.002678,0.000431,0.000823
128580000,0.0324,0.013523,0.002678,0.000431,0.000823
128581000,0.0324,0.013523,0.002678,0.000431,0.000823
128582000,0.0324,0.013523,0.002678,0.000431,0.000940
128583000,0.0324,0.013523,0.002678,0.000431,0.000705
128584000,0.0324,0.013523,0.002678,0.000431,0.000940
128585000,0.0324,0.013523,0.002678,0.000431,0.000823
128586000,0.0324,0.013523,0.002678,0.000431,0.000823
128587000,0.0324,0.013523,0.002678,0.000431,0.000823
128588000,0.0324,0.013523,0.002678,0.000431,0.000823
128589000,0.0324,0.013523,0.002678,0.000431,0.000940
128590000,0.0324,0.013523,0.002678,0.000431,0.000705
128591000,0.0324,0.013523,0.002678,0.000431,0.000940
128592000,0.0324,0.013523,0.002678,0.000431,0.000823
128593000,0.0324,0.013523,0.002678,0.000431,0.000823
128594000,0.0324,0.013523,0.002678,0.000431,0.000705
128595000,0.0324,0.013523,0.002678,0.000431,0.000940
128596000,0.0324,0.013523,0.002678,0.000431,0.000940
128597000,0.0324,0.013523,0.002678,0.000431,0.000705
128598000,0.0324,0.013523,0.002678,0.000431,0.000940
128599000,0.0324,0.013523,0.002678,0.000431,0.000705
128600000,0.0324,0.013523,0.002678,0.000431,0.000940
128601000,0.0324,0.013523,0.002678,0.000431,0.000823
128602000,0.0324,0.013523,0.002678,0.000431,0.000823
128603000,0.0324,0.013523,0.002678,0.000431,0.000940
128604000,0.0324,0.013523,0.002678,0.000431,0.000705
128605000,0.0324,0.013523,0.002678,0.000431,0.000940
128606000,0.0324,0.013523,0.002678,0.000431,0.000823
128607000,0.0324,0.013523,0.002678,0.000431,0.000823
128608000,0.0324,0.013523,0.002678,0.000431,0.000823
128609000,0.0324,0.013523,0.002678,0.000431,0.000823
128610000,0.0324,0.013523,0.002678,0.000431,0.000940
128611000,0.0324,0.013523,0.002678,0.000431,0.000705
128612000,0.0324,0.013523,0.002678,0.000431,0.000940
128613000,0.0324,0.013523,0.002678,0.000431,0.000823
128614000,0.0324,0.013523,0.002678,0.000431,0.000823
128615000,0.0324,0.013523,0.002678,0.000431,0.000823
128616000,0.0324,0.013523,0.002678,0.000431,0.000823
128617000,0.0324,0.013523,0.002678,0.000431,0.000823
128618000,0.0324,0.013523,0.002678,0.000431,0.000823
128619000,0.0324,0.013523,0.002678,0.000431,0.000823
128620000,0.0324,0.013523,0.002678,0.000431,0.000823
128621000,0.0324,0.013523,0.002678,0.000431,0.000940
128622000,0.0324,0.013523,0.002678,0.000431,0.000823
128623000,0.0324,0.013523,0.002678,0.000431,0.000823
128624000,0.0324,0.013523,0.002678,0.000431,0.000705
128625000,0.0324,0.013523,0.002678,0.000431,0.000940
128626000,0.0324,0.013523,0.002678,0.000431,0.000940
128627000,0.0324,0.013523,0.002678,0.000431,0.000705
128628000,0.0324,0.013523,0.002678,0.000431,0.000940
128629000,0.0324,0.013523,0.002678,0.000431,0.000705
128630000,0.0324,0.013523,0.002678,0.000431,0.000940
128631000,0.0324,0.013523,0.002678,0.000431,0.000823
128632000,0.0324,0.013523,0.002678,0.000431,0.000823
128633000,0.0324,0.013523,0.002678,0.000431,0.000940
128634000,0.0324,0.013523,0.002678,0.000431,0.000705
128635000,0.0324,0.013523,0.002678,0.000431,0.000940
128636000,0.0324,0.013523,0.002678,0.000431,0.000823
128637000,0.0324,0.013523,0.002678,0.000431,0.000823
128638000,0.0324,0.013523,0.002678,0.000431,0.000823
128639000,0.0324,0.013523,0.002678,0.000431,0.000823
128640000,0.0324,0.013523,0.002678,0.000431,0.000823
128641000,0.0324,0.013523,0.002678,0.000431,0.000823
128642000,0.0324,0.013523,0.002678,0.000431,0.000940
128643000,0.0324,0.013523,0.002678,0.000431,0.000705
128644000,0.0324,0.013523,0.002678,0.000431,0.000940
128645000,0.0324,0.013523,0.002678,0.000431,0.000823
128646000,0.0324,0.013523,0.002678,0.000431,0.000823
128647000,0.0324,0.013523,0.002678,0.000431,0.000705
128648000,0.0324,0.013523,0.002678,0.000431,0.000940
128649000,0.0324,0.013523,0.002678,0.000431,0.000940
128650000,0.0324,0.013523,0.002678,0.000431,0.000705
128651000,0.0324,0.013523,0.002678,0.000431,0.000940
128652000,0.0324,0.013523,0.002678,0.000431,0.000705
128653000,0.0324,0.013523,0.002678,0.000431,0.000940
128654000,0.0324,0.013523,0.002678,0.000431,0.000823
128655000,0.0324,0.013523,0.002678,0.000431,0.000823
128656000,0.0324,0.013523,0.002678,0.000431,0.000940
128657000,0.0324,0.013523,0.002678,0.000431,0.000705
128658000,0.0324,0.013523,0.002678,0.000431,0.000940
128659000,0.0324,0.013523,0.002678,0.000431,0.000823
128660000,0.0324,0.013523,0.002678,0.000431,0.000823
128661000,0.0324,0.013523,0.002678,0.000431,0.000823
128662000,0.0324,0.013523,0.002678,0.000431,0.000823
128663000,0.0324,0.013523,0.002678,0.000431,0.000940
128664000,0.0324,0.013523,0.002678,0.000431,0.000705
128665000,0.0324,0.013523,0.002678,0.000431,0.000940
128666000,0.0324,0.013523,0.002678,0.000431,0.000823
128667000,0.0324,0.013523,0.002678,0.000431,0.000823
128668000,0.0324,0.013523,0.002678,0.000431,0.000823
128669000,0.0324,0.013523,0.002678,0.000431,0.000823
128670000,0.0324,0.013523,0.002678,0.000431,0.000940
128671000,0.0324,0.013523,0.002678,0.000431,0.000705
128672000,0.0324,0.013523,0.002678,0.000431,0.000823
128673000,0.0324,0.013523,0.002678,0.000431,0.000940
128674000,0.0324,0.013523,0.002678,0.000431,0.000823
128675000,0.0324,0.013523,0.002678,0.000431,0.000823
128676000,0.0324,0.013523,0.002678,0.000431,0.000823
128677000,0.0324,0.013523,0.002678,0.000431,0.000705
128678000,0.0324,0.013523,0.002678,0.000431,0.000940
128679000,0.0324,0.013523,0.002678,0.000431,0.000940
128680000,0.0324,0.013523,0.002678,0.000431,0.000705
128681000,0.0324,0.013523,0.002678,0.000431,0.000940
128682000,0.0324,0.013523,0.002678,0.000431,0.000705
128683000,0.0324,0.013523,0.002678,0.000431,0.000940
128684000,0.0324,0.013523,0.002678,0.000431,0.000940
128685000,0.0324,0.013523,0.002678,0.000431,0.000705
128686000,0.0324,0.013523,0.002678,0.000431,0.000940
128687000,0.0324,0.013523,0.002678,0.000431,0.000705
128688000,0.0324,0.013523,0.002678,0.000431,0.000940
128689000,0.0324,0.013523,0.002678,0.000431,0.000823
128690000,0.0324,0.013523,0.002678,0.000431,0.000823
128691000,0.0324,0.013523,0.002678,0.000431,0.000823
128692000,0.0324,0.013523,0.002678,0.000431,0.000823
128693000,0.0324,0.013523,0.002678,0.000431,0.000940
128694000,0.0324,0.013523,0.002678,0.000431,0.000823
128695000,0.0324,0.013523,0.002678,0.000431,0.000823
128696000,0.0324,0.013523,0.002678,0.000431,0.000823
128697000,0.0324,0.013523,0.002678,0.000431,0.000823
128698000,0.0324,0.013523,0.002678,0.000431,0.000823
128699000,0.0324,0.013523,0.002678,0.000431,0.000823
128700000,0.0324,0.013523,0.002678,0.000431,0.000940
128701000,0.0324,0.013523,0.002678,0.000431,0.000705
128702000,0.0324,0.013523,0.002678,0.000431,0.000940
128703000,0.0324,0.013523,0.002678,0.000431,0.000823
128704000,0.0324,0.013523,0.002678,0.000431,0.000823
128705000,0.0324,0.013523,0.002678,0.000431,0.000705
128706000,0.0324,0.013523,0.002678,0.000431,0.000940
128707000,0.0324,0.013523,0.002678,0.000431,0.000940
128708000,0.0324,0.013523,0.002678,0.000431,0.000705
128709000,0.0324,0.013523,0.002678,0.000431,0.000940
128710000,0.0324,0.013523,0.002678,0.000431,0.000705
128711000,0.0324,0.013523,0.002678,0.000431,0.000940
128712000,0.0324,0.013523,0.002678,0.000431,0.000940
128713000,0.0324,0.013523,0.002678,0.000431,0.000705
128714000,0.0324,0.013523,0.002678,0.000431,0.000940
128715000,0.0324,0.013523,0.002678,0.000431,0.000705
128716000,0.0324,0.013523,0.002678,0.000431,0.000940
128717000,0.0324,0.013523,0.002678,0.000431,0.000823
128718000,0.0324,0.013523,0.002678,0.000431,0.000823
128719000,0.0324,0.013523,0.002678,0.000431,0.000823
128720000,0.0324,0.013523,0.002678,0.000431,0.000823
128721000,0.0324,0.013523,0.002678,0.000431,0.000940
128722000,0.0324,0.013523,0.002678,0.000431,0.000823
128723000,0.0324,0.013523,0.002678,0.000431,0.000823
128724000,0.0324,0.013523,0.002678,0.000431,0.000823
128725000,0.0324,0.013523,0.002678,0.000431,0.000823
128726000,0.0324,0.013523,0.002678,0.000431,0.000823
128727000,0.0324,0.013523,0.002678,0.000431,0.000823
128728000,0.0324,0.013523,0.002678,0.000431,0.000940
128729000,0.0324,0.013523,0.002678,0.000431,0.000705
128730000,0.0324,0.013523,0.002678,0.000431,0.000940
128731000,0.0324,0.013523,0.002678,0.000431,0.000705
128732000,0.0324,0.013523,0.002678,0.000431,0.000940
128733000,0.0324,0.013523,0.002678,0.000431,0.000823
128734000,0.0324,0.013523,0.002678,0.000431,0.000823
128735000,0.0324,0.013523,0.002678,0.000431,0.000940
128736000,0.0324,0.013523,0.002678,0.000431,0.000705
128737000,0.0324,0.013523,0.002678,0.000431,0.000940
128738000,0.0324,0.013523,0.002678,0.000431,0.000823
128739000,0.0324,0.013523,0.002678,0.000431,0.000823
128740000,0.0324,0.013523,0.002678,0.000431,0.000823
128741000,0.0324,0.013523,0.002678,0.000431,0.000823
128742000,0.0324,0.013523,0.002678,0.000431,0.000940
128743000,0.0324,0.013523,0.002678,0.000431,0.000705
128744000,0.0324,0.013523,0.002678,0.000431,0.000940
128745000,0.0324,0.013523,0.002678,0.000431,0.000823
128746000,0.0324,0.013523,0.002678,0.000431,0.000823
128747000,0.0324,0.013523,0.002678,0.000431,0.000823
128748000,0.0324,0.013523,0.002678,0.000431,0.000823
128749000,0.0324,0.013523,0.002678,0.000431,0.000823
128750000,0.0324,0.013523,0.002678,0.000431,0.000823
128751000,0.0324,0.013523,0.002678,0.000431,0.000823
128752000,0.0324,0.013523,0.002678,0.000431,0.000940
128753000,0.0324,0.013523,0.002678,0.000431,0.000823
128754000,0.0324,0.013523,0.002678,0.000431,0.000823
128755000,0.0324,0.013523,0.002678,0.000431,0.000823
128756000,0.0324,0.013523,0.002678,0.000431,0.000705
128757000,0.0324,0.013523,0.002678,0.000431,0.000940
128758000,0.0324,0.013523,0.002678,0.000431,0.000940
128759000,0.0324,0.013523,0.002678,0.000431,0.000705
128760000,0.0324,0.013523,0.002678,0.000431,0.000940
128761000,0.0324,0.013523,0.002678,0.000431,0.000705
128762000,0.0324,0.013523,0.002678,0.000431,0.000940
128763000,0.0324,0.013523,0.002678,0.000431,0.000940
128764000,0.0324,0.013523,0.002678,0.000431,0.000705
128765000,0.0324,0.013523,0.002678,0.000431,0.000940
128766000,0.0324,0.013523,0.002678,0.000431,0.000705
128767000,0.0324,0.013523,0.002678,0.000431,0.000940
128768000,0.0324,0.013523,0.002678,0.000431,0.000823
128769000,0.0324,0.013523,0.002678,0.000431,0.000823
128770000,0.0324,0.013523,0.002678,0.000431,0.000940
128771000,0.0324,0.013523,0.002678,0.000431,0.000705
128772000,0.0324,0.013523,0.002678,0.000431,0.000940
128773000,0.0324,0.013523,0.002678,0.000431,0.000823
128774000,0.0324,0.013523,0.002678,0.000431,0.000823
128775000,0.0324,0.013523,0.002678,0.000431,0.000823
128776000,0.0324,0.013523,0.002678,0.000431,0.000823
128777000,0.0324,0.013523,0.002678,0.000431,0.000940
128778000,0.0324,0.013523,0.002678,0.000431,0.000705
128779000,0.0324,0.013523,0.002678,0.000431,0.000940
128780000,0.0324,0.013523,0.002678,0.000431,0.000823
128781000,0.0324,0.013523,0.002678,0.000431,0.000823
128782000,0.0324,0.013523,0.002678,0.000431,0.000823
128783000,0.0324,0.013523,0.002678,0.000431,0.000823
128784000,0.0324,0.013523,0.002678,0.000431,0.000823
128785000,0.0324,0.013523,0.002678,0.000431,0.000823
128786000,0.0324,0.013523,0.002678,0.000431,0.000940
128787000,0.0324,0.013523,0.002678,0.000431,0.000823
128788000,0.0324,0.013523,0.002678,0.000431,0.000823
128789000,0.0324,0.013523,0.002678,0.000431,0.000705
128790000,0.0324,0.013523,0.002678,0.000431,0.000940
128791000,0.0324,0.013523,0.002678,0.000431,0.000940
128792000,0.0324,0.013523,0.002678,0.000431,0.000705
128793000,0.0324,0.013523,0.002678,0.000431,0.000940
128794000,0.0324,0.013523,0.002678,0.000431,0.000705
128795000,0.0324,0.013523,0.002678,0.000431,0.000940
128796000,0.0324,0.013523,0.002678,0.000431,0.000823
128797000,0.0324,0.013523,0.002678,0.000431,0.000823
128798000,0.0324,0.013523,0.002678,0.000431,0.000823
128799000,0.0324,0.013523,0.002678,0.000431,0.000823
128800000,0.0324,0.013523,0.002678,0.000431,0.000940
128801000,0.0324,0.013523,0.002678,0.000431,0.000823
128802000,0.0324,0.013523,0.002678,0.000431,0.000823
128803000,0.0324,0.013523,0.002678,0.000431,0.000823
128804000,0.0324,0.013523,0.002678,0.000431,0.000823
128805000,0.0324,0.013523,0.002678,0.000431,0.000823
128806000,0.0324,0.013523,0.002678,0.000431,0.000823
128807000,0.0324,0.013523,0.002678,0.000431,0.000940
128808000,0.0324,0.013523,0.002678,0.000431,0.000705
128809000,0.0324,0.013523,0.002678,0.000431,0.000823
128810000,0.0324,0.013523,0.002678,0.000431,0.000940
128811000,0.0324,0.013523,0.002678,0.000431,0.000823
128812000,0.0324,0.013523,0.002678,0.000431,0.000823
128813000,0.0324,0.013523,0.002678,0.000431,0.000823
128814000,0.0324,0.013523,0.002678,0.000431,0.000705
128815000,0.0324,0.013523,0.002678,0.000431,0.000940
128816000,0.0324,0.013523,0.002678,0.000431,0.000940
128817000,0.0324,0.013523,0.002678,0.000431,0.000823
128818000,0.0324,0.013523,0.002678,0.000431,0.000823
128819000,0.0324,0.013523,0.002678,0.000431,0.000705
128820000,0.0324,0.013523,0.002678,0.000431,0.000940
128821000,0.0324,0.013523,0.002678,0.000431,0.000940
128822000,0.0324,0.013523,0.002678,0.000431,0.000705
128823000,0.0324,0.013523,0.002678,0.000431,0.000940
128824000,0.0324,0.013523,0.002678,0.000431,0.000705
128825000,0.0324,0.013523,0.002678,0.000431,0.000940
128826000,0.0324,0.013523,0.002678,0.000431,0.000823
128827000,0.0324,0.013523,0.002678,0.000431,0.000823
128828000,0.0324,0.013523,0.002678,0.000431,0.000940
128829000,0.0324,0.013523,0.002678,0.000431,0.000705
128830000,0.0324,0.013523,0.002678,0.000431,0.000940
128831000,0.0324,0.013523,0.002678,0.000431,0.000823
128832000,0.0324,0.013523,0.002678,0.000431,0.000823
128833000,0.0324,0.013523,0.002678,0.000431,0.000823
128834000,0.0324,0.013523,0.002678,0.000431,0.000823
128835000,0.0324,0.013523,0.002678,0.000431,0.000940
128836000,0.0324,0.013523,0.002678,0.000431,0.000705
128837000,0.0324,0.013523,0.002678,0.000431,0.000940
128838000,0.0324,0.013523,0.002678,0.000431,0.000940
128839000,0.0324,0.013523,0.002678,0.000431,0.000940
128840000,0.0324,0.013523,0.002678,0.000431,0.000940
128841000,0.0324,0.013523,0.002678,0.000431,0.000823
128842000,0.0324,0.013523,0.002678,0.000431,0.000823
128843000,0.0324,0.013523,0.002678,0.000431,0.000940
128844000,0.0324,0.013523,0.002678,0.000431,0.000823
128845000,0.0324,0.013523,0.002678,0.000431,0.000940
128846000,0.0324,0.013523,0.002678,0.000431,0.000823
128847000,0.0324,0.013523,0.002678,0.000431,0.000940
128848000,0.0324,0.013523,0.002678,0.000431,0.000823
128849000,0.0324,0.013523,0.002678,0.000431,0.000823
128850000,0.0324,0.013523,0.002678,0.000431,0.000940
128851000,0.0324,0.013523,0.002678,0.000431,0.000940
128852000,0.0324,0.013523,0.002678,0.000431,0.000940
128853000,0.0324,0.013523,0.002678,0.000431,0.000705
128854000,0.0324,0.013523,0.002678,0.000431,0.000940
128855000,0.0324,0.013523,0.002678,0.000431,0.000940
128856000,0.0324,0.013523,0.002678,0.000431,0.000823
128857000,0.0324,0.013523,0.002678,0.000431,0.000823
128858000,0.0324,0.013523,0.002678,0.000431,0.000940
128859000,0.0324,0.013523,0.002678,0.000431,0.000823
128860000,0.0324,0.013523,0.002678,0.000431,0.000940
128861000,0.0324,0.013523,0.002678,0.000431,0.000823
128862000,0.0324,0.013523,0.002678,0.000431,0.000940
128863000,0.0324,0.013523,0.002678,0.000431,0.000823
128864000,0.0324,0.013523,0.002678,0.000431,0.000823
128865000,0.0324,0.013523,0.002678,0.000431,0.000940
128866000,0.0324,0.013523,0.002678,0.000431,0.000940
128867000,0.0324,0.013523,0.002678,0.000431,0.000823
128868000,0.0324,0.013523,0.002678,0.000431,0.000823
128869000,0.0324,0.013523,0.002678,0.000431,0.000940
128870000,0.0324,0.013523,0.002678,0.000431,0.000940
128871000,0.0324,0.013523,0.002678,0.000431,0.000705
128872000,0.0324,0.013523,0.002678,0.000431,0.000940
128873000,0.0324,0.013523,0.002678,0.000431,0.000940
128874000,0.0324,0.013523,0.002678,0.000431,0.000940
128875000,0.0324,0.013523,0.002678,0.000431,0.000705
128876000,0.0324,0.013523,0.002678,0.000431,0.014573
128877000,0.0324,0.013523,0.002678,0.000431,0.479750
128878000,0.0324,0.013523,0.002678,0.000431,0.591637
128879000,0.0324,0.013523,0.002678,0.000431,0.134922
128880000,0.0324,0.013523,0.002678,0.000431,0.131632
128881000,0.0324,0.013523,0.002678,0.000431,0.279482
128882000,0.0324,0.013523,0.002678,0.000431,0.472581
128883000,0.0324,0.013523,0.002678,0.000431,0.234469
128884000,0.0324,0.013523,0.002678,0.000431,0.309452
128885000,0.0324,0.013523,0.002678,0.000431,0.205439
128886000,0.0324,0.013523,0.002678,0.000431,0.134570
128887000,0.0324,0.013523,0.002678,0.000431,0.177350
128888000,0.0324,0.013523,0.002678,0.000431,0.105070
128889000,0.0324,0.013523,0.002678,0.000431,0.458595
128890000,0.0324,0.013523,0.002678,0.000431,0.072515
128891000,0.0324,0.013523,0.002678,0.000431,0.043603
128892000,0.0324,0.013523,0.002678,0.000431,0.035376
128893000,0.0324,0.013523,0.002678,0.000431,0.029382
128894000,0.0324,0.013523,0.002678,0.000431,0.028089
128895000,0.0324,0.013523,0.002678,0.000431,0.028794
128896000,0.0324,0.013523,0.002678,0.000431,0.019745
128897000,0.0324,0.013523,0.002678,0.000431,0.023153
128898000,0.0324,0.013523,0.002678,0.000431,0.020332
128899000,0.0324,0.013523,0.002678,0.000431,0.017159
128900000,0.0324,0.013523,0.002678,0.000431,0.016101
128901000,0.0324,0.013523,0.002678,0.000431,0.017042
128902000,0.0324,0.013523,0.002678,0.000431,0.014809
128903000,0.0324,0.013523,0.002678,0.000431,0.013163
128904000,0.0324,0.013523,0.002678,0.000431,0.015631
128905000,0.0324,0.013523,0.002678,0.000431,0.014926
128906000,0.0324,0.013523,0.002678,0.000431,0.010578
128907000,0.0324,0.013523,0.002678,0.000431,0.011283
128908000,0.0324,0.013523,0.002678,0.000431,0.010225
128909000,0.0324,0.013523,0.002678,0.000431,0.009755
128910000,0.0324,0.013523,0.002678,0.000431,0.009872
128911000,0.0324,0.013523,0.002678,0.000431,0.009755
128912000,0.0324,0.013523,0.002678,0.000431,0.009402
128913000,0.0324,0.013523,0.002678,0.000431,0.009402
128914000,0.0324,0.013523,0.002678,0.000431,0.009050
128915000,0.0324,0.013523,0.002678,0.000431,0.008462
128916000,0.0324,0.013523,0.002678,0.000431,0.009285
128917000,0.0324,0.013523,0.002678,0.000431,0.007639
128918000,0.0324,0.013523,0.002678,0.000431,0.007522
128919000,0.0324,0.013523,0.002678,0.000431,0.007404
128920000,0.0324,0.013523,0.002678,0.000431,0.007639
128921000,0.0324,0.013523,0.002678,0.000431,0.008227
128922000,0.0324,0.013523,0.002678,0.000431,0.006934
128923000,0.0324,0.013523,0.002678,0.000431,0.007639
128924000,0.0324,0.013523,0.002678,0.000431,0.007287
128925000,0.0324,0.013523,0.002678,0.000431,0.006817
128926000,0.0324,0.013523,0.002678,0.000431,0.007404
128927000,0.0324,0.013523,0.002678,0.000431,0.006582
128928000,0.0324,0.013523,0.002678,0.000431,0.006699
128929000,0.0324,0.013523,0.002678,0.000431,0.007052
128930000,0.0324,0.013523,0.002678,0.000431,0.006582
128931000,0.0324,0.013523,0.002678,0.000431,0.007052
128932000,0.0324,0.013523,0.002678,0.000431,0.007404
128933000,0.0324,0.013523,0.002678,0.000431,0.005994
128934000,0.0324,0.013523,0.002678,0.000431,0.007287
128935000,0.0324,0.013523,0.002678,0.000431,0.007052
128936000,0.0324,0.013523,0.002678,0.000431,0.006699
128937000,0.0324,0.013523,0.002678,0.000431,0.007287
128938000,0.0324,0.013523,0.002678,0.000431,0.006347
128939000,0.0324,0.013523,0.002678,0.000431,0.007404
128940000,0.0324,0.013523,0.002678,0.000431,0.006699
128941000,0.0324,0.013523,0.002678,0.000431,0.007052
128942000,0.0324,0.013523,0.002678,0.000431,0.007404
128943000,0.0324,0.013523,0.002678,0.000431,0.005641
128944000,0.0324,0.013523,0.002678,0.000431,0.006817
128945000,0.0324,0.013523,0.002678,0.000431,0.005641
128946000,0.0324,0.013523,0.002678,0.000431,0.006464
128947000,0.0324,0.013523,0.002678,0.000431,0.005994
128948000,0.0324,0.013523,0.002678,0.000431,0.006111
128949000,0.0324,0.013523,0.002678,0.000431,0.008580
128950000,0.0324,0.013523,0.002678,0.000431,0.004349
128951000,0.0324,0.013523,0.002678,0.000431,0.006111
128952000,0.0324,0.013523,0.002678,0.000431,0.004936
128953000,0.0324,0.013523,0.002678,0.000431,0.005171
128954000,0.0324,0.013523,0.002678,0.000431,0.005054
128955000,0.0324,0.013523,0.002678,0.000431,0.004466
128956000,0.0324,0.013523,0.002678,0.000431,0.004819
128957000,0.0324,0.013523,0.002678,0.000431,0.004466
128958000,0.0324,0.013523,0.002678,0.000431,0.004701
128959000,0.0324,0.013523,0.002678,0.000431,0.005054
128960000,0.0324,0.013523,0.002678,0.000431,0.004349
128961000,0.0324,0.013523,0.002678,0.000431,0.004584
128962000,0.0324,0.013523,0.002678,0.000431,0.004701
128963000,0.0324,0.013523,0.002678,0.000431,0.004113
128964000,0.0324,0.013523,0.002678,0.000431,0.005289
128965000,0.0324,0.013523,0.002678,0.000431,0.004466
128966000,0.0324,0.013523,0.002678,0.000431,0.004466
128967000,0.0324,0.013523,0.002678,0.000431,0.005054
128968000,0.0324,0.013523,0.002678,0.000431,0.004113
128969000,0.0324,0.013523,0.002678,0.000431,0.005289
128970000,0.0324,0.013523,0.002678,0.000431,0.004231
128971000,0.0324,0.013523,0.002678,0.000431,0.004701
128972000,0.0324,0.013523,0.002678,0.000431,0.004936
128973000,0.0324,0.013523,0.002678,0.000431,0.004113
128974000,0.0324,0.013523,0.002678,0.000431,0.005406
128975000,0.0324,0.013523,0.002678,0.000431,0.004113
128976000,0.0324,0.013523,0.002678,0.000431,0.004936
128977000,0.0324,0.013523,0.002678,0.000431,0.004584
128978000,0.0324,0.013523,0.002678,0.000431,0.004349
128979000,0.0324,0.013523,0.002678,0.000431,0.005289
128980000,0.0324,0.013523,0.002678,0.000431,0.004113
128981000,0.0324,0.013523,0.002678,0.000431,0.005054
128982000,0.0324,0.013523,0.002678,0.000431,0.004466
128983000,0.0324,0.013523,0.002678,0.000431,0.004349
128984000,0.0324,0.013523,0.002678,0.000431,0.005171
128985000,0.0324,0.013523,0.002678,0.000431,0.004349
128986000,0.0324,0.013523,0.002678,0.000431,0.004584
128987000,0.0324,0.013523,0.002678,0.000431,0.004936
128988000,0.0324,0.013523,0.002678,0.000431,0.004466
128989000,0.0324,0.013523,0.002678,0.000431,0.004584
128990000,0.0324,0.013523,0.002678,0.000431,0.004936
128991000,0.0324,0.013523,0.002678,0.000431,0.004349
128992000,0.0324,0.013523,0.002678,0.000431,0.004936
128993000,0.0324,0.013523,0.002678,0.000431,0.004113
128994000,0.0324,0.013523,0.002678,0.000431,0.004936
128995000,0.0324,0.013523,0.002678,0.000431,0.007169
128996000,0.0324,0.013523,0.002678,0.000431,0.003291
128997000,0.0324,0.013523,0.002678,0.000431,0.004349
128998000,0.0324,0.013523,0.002678,0.000431,0.003291
128999000,0.0324,0.013523,0.002678,0.000431,0.004349
