Cycle,Area(mm^2),PeakDynamic(W),SubthresholdLeakage(W),GateLeakage(W),RunTimeDynamic(W)
37000000,0.0324,0.013523,0.002678,0.000431,0.000705
37001000,0.0324,0.013523,0.002678,0.000431,0.000940
37002000,0.0324,0.013523,0.002678,0.000431,0.000705
37003000,0.0324,0.013523,0.002678,0.000431,0.000940
37004000,0.0324,0.013523,0.002678,0.000431,0.000823
37005000,0.0324,0.013523,0.002678,0.000431,0.000823
37006000,0.0324,0.013523,0.002678,0.000431,0.000940
37007000,0.0324,0.013523,0.002678,0.000431,0.000705
37008000,0.0324,0.013523,0.002678,0.000431,0.000940
37009000,0.0324,0.013523,0.002678,0.000431,0.000823
37010000,0.0324,0.013523,0.002678,0.000431,0.000823
37011000,0.0324,0.013523,0.002678,0.000431,0.000823
37012000,0.0324,0.013523,0.002678,0.000431,0.000823
37013000,0.0324,0.013523,0.002678,0.000431,0.000823
37014000,0.0324,0.013523,0.002678,0.000431,0.000823
37015000,0.0324,0.013523,0.002678,0.000431,0.000940
37016000,0.0324,0.013523,0.002678,0.000431,0.000823
37017000,0.0324,0.013523,0.002678,0.000431,0.000823
37018000,0.0324,0.013523,0.002678,0.000431,0.000823
37019000,0.0324,0.013523,0.002678,0.000431,0.000823
37020000,0.0324,0.013523,0.002678,0.000431,0.000823
37021000,0.0324,0.013523,0.002678,0.000431,0.000823
37022000,0.0324,0.013523,0.002678,0.000431,0.000823
37023000,0.0324,0.013523,0.002678,0.000431,0.000823
37024000,0.0324,0.013523,0.002678,0.000431,0.000940
37025000,0.0324,0.013523,0.002678,0.000431,0.000823
37026000,0.0324,0.013523,0.002678,0.000431,0.000823
37027000,0.0324,0.013523,0.002678,0.000431,0.000705
37028000,0.0324,0.013523,0.002678,0.000431,0.000940
37029000,0.0324,0.013523,0.002678,0.000431,0.000940
37030000,0.0324,0.013523,0.002678,0.000431,0.000705
37031000,0.0324,0.013523,0.002678,0.000431,0.000940
37032000,0.0324,0.013523,0.002678,0.000431,0.000705
37033000,0.0324,0.013523,0.002678,0.000431,0.000940
37034000,0.0324,0.013523,0.002678,0.000431,0.000823
37035000,0.0324,0.013523,0.002678,0.000431,0.000823
37036000,0.0324,0.013523,0.002678,0.000431,0.000940
37037000,0.0324,0.013523,0.002678,0.000431,0.000705
37038000,0.0324,0.013523,0.002678,0.000431,0.000940
37039000,0.0324,0.013523,0.002678,0.000431,0.000823
37040000,0.0324,0.013523,0.002678,0.000431,0.000823
37041000,0.0324,0.013523,0.002678,0.000431,0.000823
37042000,0.0324,0.013523,0.002678,0.000431,0.000823
37043000,0.0324,0.013523,0.002678,0.000431,0.000823
37044000,0.0324,0.013523,0.002678,0.000431,0.000823
37045000,0.0324,0.013523,0.002678,0.000431,0.000940
37046000,0.0324,0.013523,0.002678,0.000431,0.000705
37047000,0.0324,0.013523,0.002678,0.000431,0.000940
37048000,0.0324,0.013523,0.002678,0.000431,0.000823
37049000,0.0324,0.013523,0.002678,0.000431,0.000823
37050000,0.0324,0.013523,0.002678,0.000431,0.000705
37051000,0.0324,0.013523,0.002678,0.000431,0.000940
37052000,0.0324,0.013523,0.002678,0.000431,0.000940
37053000,0.0324,0.013523,0.002678,0.000431,0.000705
37054000,0.0324,0.013523,0.002678,0.000431,0.000940
37055000,0.0324,0.013523,0.002678,0.000431,0.000705
37056000,0.0324,0.013523,0.002678,0.000431,0.000940
37057000,0.0324,0.013523,0.002678,0.000431,0.000823
37058000,0.0324,0.013523,0.002678,0.000431,0.000823
37059000,0.0324,0.013523,0.002678,0.000431,0.000940
37060000,0.0324,0.013523,0.002678,0.000431,0.000705
37061000,0.0324,0.013523,0.002678,0.000431,0.000940
37062000,0.0324,0.013523,0.002678,0.000431,0.000823
37063000,0.0324,0.013523,0.002678,0.000431,0.000823
37064000,0.0324,0.013523,0.002678,0.000431,0.000823
37065000,0.0324,0.013523,0.002678,0.000431,0.000823
37066000,0.0324,0.013523,0.002678,0.000431,0.000823
37067000,0.0324,0.013523,0.002678,0.000431,0.000823
37068000,0.0324,0.013523,0.002678,0.000431,0.000940
37069000,0.0324,0.013523,0.002678,0.000431,0.000705
37070000,0.0324,0.013523,0.002678,0.000431,0.000823
37071000,0.0324,0.013523,0.002678,0.000431,0.000940
37072000,0.0324,0.013523,0.002678,0.000431,0.000823
37073000,0.0324,0.013523,0.002678,0.000431,0.000823
37074000,0.0324,0.013523,0.002678,0.000431,0.000823
37075000,0.0324,0.013523,0.002678,0.000431,0.000705
37076000,0.0324,0.013523,0.002678,0.000431,0.000940
37077000,0.0324,0.013523,0.002678,0.000431,0.000940
37078000,0.0324,0.013523,0.002678,0.000431,0.000823
37079000,0.0324,0.013523,0.002678,0.000431,0.000823
37080000,0.0324,0.013523,0.002678,0.000431,0.000705
37081000,0.0324,0.013523,0.002678,0.000431,0.000940
37082000,0.0324,0.013523,0.002678,0.000431,0.000940
37083000,0.0324,0.013523,0.002678,0.000431,0.000705
37084000,0.0324,0.013523,0.002678,0.000431,0.000940
37085000,0.0324,0.013523,0.002678,0.000431,0.000705
37086000,0.0324,0.013523,0.002678,0.000431,0.000940
37087000,0.0324,0.013523,0.002678,0.000431,0.000823
37088000,0.0324,0.013523,0.002678,0.000431,0.000823
37089000,0.0324,0.013523,0.002678,0.000431,0.000823
37090000,0.0324,0.013523,0.002678,0.000431,0.000823
37091000,0.0324,0.013523,0.002678,0.000431,0.000940
37092000,0.0324,0.013523,0.002678,0.000431,0.000823
37093000,0.0324,0.013523,0.002678,0.000431,0.000823
37094000,0.0324,0.013523,0.002678,0.000431,0.000823
37095000,0.0324,0.013523,0.002678,0.000431,0.000823
37096000,0.0324,0.013523,0.002678,0.000431,0.000823
37097000,0.0324,0.013523,0.002678,0.000431,0.000823
37098000,0.0324,0.013523,0.002678,0.000431,0.000940
37099000,0.0324,0.013523,0.002678,0.000431,0.000705
37100000,0.0324,0.013523,0.002678,0.000431,0.000940
37101000,0.0324,0.013523,0.002678,0.000431,0.000823
37102000,0.0324,0.013523,0.002678,0.000431,0.000823
37103000,0.0324,0.013523,0.002678,0.000431,0.000705
37104000,0.0324,0.013523,0.002678,0.000431,0.000940
37105000,0.0324,0.013523,0.002678,0.000431,0.000940
37106000,0.0324,0.013523,0.002678,0.000431,0.000705
37107000,0.0324,0.013523,0.002678,0.000431,0.000940
37108000,0.0324,0.013523,0.002678,0.000431,0.000940
37109000,0.0324,0.013523,0.002678,0.000431,0.000705
37110000,0.0324,0.013523,0.002678,0.000431,0.000823
37111000,0.0324,0.013523,0.002678,0.000431,0.000823
37112000,0.0324,0.013523,0.002678,0.000431,0.000823
37113000,0.0324,0.013523,0.002678,0.000431,0.000823
37114000,0.0324,0.013523,0.002678,0.000431,0.000823
37115000,0.0324,0.013523,0.002678,0.000431,0.000823
37116000,0.0324,0.013523,0.002678,0.000431,0.000940
37117000,0.0324,0.013523,0.002678,0.000431,0.000823
37118000,0.0324,0.013523,0.002678,0.000431,0.000823
37119000,0.0324,0.013523,0.002678,0.000431,0.000823
37120000,0.0324,0.013523,0.002678,0.000431,0.000823
37121000,0.0324,0.013523,0.002678,0.000431,0.000823
37122000,0.0324,0.013523,0.002678,0.000431,0.000823
37123000,0.0324,0.013523,0.002678,0.000431,0.000823
37124000,0.0324,0.013523,0.002678,0.000431,0.000823
37125000,0.0324,0.013523,0.002678,0.000431,0.000940
37126000,0.0324,0.013523,0.002678,0.000431,0.000705
37127000,0.0324,0.013523,0.002678,0.000431,0.000940
37128000,0.0324,0.013523,0.002678,0.000431,0.000705
37129000,0.0324,0.013523,0.002678,0.000431,0.000940
37130000,0.0324,0.013523,0.002678,0.000431,0.000940
37131000,0.0324,0.013523,0.002678,0.000431,0.000705
37132000,0.0324,0.013523,0.002678,0.000431,0.000940
37133000,0.0324,0.013523,0.002678,0.000431,0.000705
37134000,0.0324,0.013523,0.002678,0.000431,0.000940
37135000,0.0324,0.013523,0.002678,0.000431,0.000823
37136000,0.0324,0.013523,0.002678,0.000431,0.000823
37137000,0.0324,0.013523,0.002678,0.000431,0.000823
37138000,0.0324,0.013523,0.002678,0.000431,0.000823
37139000,0.0324,0.013523,0.002678,0.000431,0.000940
37140000,0.0324,0.013523,0.002678,0.000431,0.000705
37141000,0.0324,0.013523,0.002678,0.000431,0.000940
37142000,0.0324,0.013523,0.002678,0.000431,0.000823
37143000,0.0324,0.013523,0.002678,0.000431,0.000823
37144000,0.0324,0.013523,0.002678,0.000431,0.000823
37145000,0.0324,0.013523,0.002678,0.000431,0.000823
37146000,0.0324,0.013523,0.002678,0.000431,0.000705
37147000,0.0324,0.013523,0.002678,0.000431,0.000940
37148000,0.0324,0.013523,0.002678,0.000431,0.000940
37149000,0.0324,0.013523,0.002678,0.000431,0.000705
37150000,0.0324,0.013523,0.002678,0.000431,0.000940
37151000,0.0324,0.013523,0.002678,0.000431,0.000705
37152000,0.0324,0.013523,0.002678,0.000431,0.000940
37153000,0.0324,0.013523,0.002678,0.000431,0.000940
37154000,0.0324,0.013523,0.002678,0.000431,0.000705
37155000,0.0324,0.013523,0.002678,0.000431,0.000940
37156000,0.0324,0.013523,0.002678,0.000431,0.000705
37157000,0.0324,0.013523,0.002678,0.000431,0.000940
37158000,0.0324,0.013523,0.002678,0.000431,0.000823
37159000,0.0324,0.013523,0.002678,0.000431,0.000823
37160000,0.0324,0.013523,0.002678,0.000431,0.000823
37161000,0.0324,0.013523,0.002678,0.000431,0.000823
37162000,0.0324,0.013523,0.002678,0.000431,0.000940
37163000,0.0324,0.013523,0.002678,0.000431,0.000705
37164000,0.0324,0.013523,0.002678,0.000431,0.000940
37165000,0.0324,0.013523,0.002678,0.000431,0.000705
37166000,0.0324,0.013523,0.002678,0.000431,0.000823
37167000,0.0324,0.013523,0.002678,0.000431,0.000940
37168000,0.0324,0.013523,0.002678,0.000431,0.000823
37169000,0.0324,0.013523,0.002678,0.000431,0.000823
37170000,0.0324,0.013523,0.002678,0.000431,0.000823
37171000,0.0324,0.013523,0.002678,0.000431,0.000823
37172000,0.0324,0.013523,0.002678,0.000431,0.000823
37173000,0.0324,0.013523,0.002678,0.000431,0.000940
37174000,0.0324,0.013523,0.002678,0.000431,0.000705
37175000,0.0324,0.013523,0.002678,0.000431,0.000940
37176000,0.0324,0.013523,0.002678,0.000431,0.000705
37177000,0.0324,0.013523,0.002678,0.000431,0.000940
37178000,0.0324,0.013523,0.002678,0.000431,0.000940
37179000,0.0324,0.013523,0.002678,0.000431,0.000705
37180000,0.0324,0.013523,0.002678,0.000431,0.000940
37181000,0.0324,0.013523,0.002678,0.000431,0.000705
37182000,0.0324,0.013523,0.002678,0.000431,0.000940
37183000,0.0324,0.013523,0.002678,0.000431,0.000823
37184000,0.0324,0.013523,0.002678,0.000431,0.000823
37185000,0.0324,0.013523,0.002678,0.000431,0.000823
37186000,0.0324,0.013523,0.002678,0.000431,0.000823
37187000,0.0324,0.013523,0.002678,0.000431,0.000940
37188000,0.0324,0.013523,0.002678,0.000431,0.000823
37189000,0.0324,0.013523,0.002678,0.000431,0.000823
37190000,0.0324,0.013523,0.002678,0.000431,0.000823
37191000,0.0324,0.013523,0.002678,0.000431,0.000823
37192000,0.0324,0.013523,0.002678,0.000431,0.000823
37193000,0.0324,0.013523,0.002678,0.000431,0.000823
37194000,0.0324,0.013523,0.002678,0.000431,0.000940
37195000,0.0324,0.013523,0.002678,0.000431,0.000705
37196000,0.0324,0.013523,0.002678,0.000431,0.000940
37197000,0.0324,0.013523,0.002678,0.000431,0.000705
37198000,0.0324,0.013523,0.002678,0.000431,0.000940
37199000,0.0324,0.013523,0.002678,0.000431,0.000705
37200000,0.0324,0.013523,0.002678,0.000431,0.000940
37201000,0.0324,0.013523,0.002678,0.000431,0.000940
37202000,0.0324,0.013523,0.002678,0.000431,0.000705
37203000,0.0324,0.013523,0.002678,0.000431,0.000940
37204000,0.0324,0.013523,0.002678,0.000431,0.000705
37205000,0.0324,0.013523,0.002678,0.000431,0.000940
37206000,0.0324,0.013523,0.002678,0.000431,0.000823
37207000,0.0324,0.013523,0.002678,0.000431,0.000823
37208000,0.0324,0.013523,0.002678,0.000431,0.000823
37209000,0.0324,0.013523,0.002678,0.000431,0.000823
37210000,0.0324,0.013523,0.002678,0.000431,0.000940
37211000,0.0324,0.013523,0.002678,0.000431,0.000705
37212000,0.0324,0.013523,0.002678,0.000431,0.000940
37213000,0.0324,0.013523,0.002678,0.000431,0.000823
37214000,0.0324,0.013523,0.002678,0.000431,0.000823
37215000,0.0324,0.013523,0.002678,0.000431,0.000823
37216000,0.0324,0.013523,0.002678,0.000431,0.000823
37217000,0.0324,0.013523,0.002678,0.000431,0.000823
37218000,0.0324,0.013523,0.002678,0.000431,0.000823
37219000,0.0324,0.013523,0.002678,0.000431,0.000823
37220000,0.0324,0.013523,0.002678,0.000431,0.000823
37221000,0.0324,0.013523,0.002678,0.000431,0.000940
37222000,0.0324,0.013523,0.002678,0.000431,0.000823
37223000,0.0324,0.013523,0.002678,0.000431,0.000823
37224000,0.0324,0.013523,0.002678,0.000431,0.000705
37225000,0.0324,0.013523,0.002678,0.000431,0.000940
37226000,0.0324,0.013523,0.002678,0.000431,0.000940
37227000,0.0324,0.013523,0.002678,0.000431,0.000705
37228000,0.0324,0.013523,0.002678,0.000431,0.000940
37229000,0.0324,0.013523,0.002678,0.000431,0.000705
37230000,0.0324,0.013523,0.002678,0.000431,0.000940
37231000,0.0324,0.013523,0.002678,0.000431,0.000940
37232000,0.0324,0.013523,0.002678,0.000431,0.000705
37233000,0.0324,0.013523,0.002678,0.000431,0.000940
37234000,0.0324,0.013523,0.002678,0.000431,0.000705
37235000,0.0324,0.013523,0.002678,0.000431,0.000940
37236000,0.0324,0.013523,0.002678,0.000431,0.000823
37237000,0.0324,0.013523,0.002678,0.000431,0.000823
37238000,0.0324,0.013523,0.002678,0.000431,0.000823
37239000,0.0324,0.013523,0.002678,0.000431,0.000823
37240000,0.0324,0.013523,0.002678,0.000431,0.000940
37241000,0.0324,0.013523,0.002678,0.000431,0.000705
37242000,0.0324,0.013523,0.002678,0.000431,0.000940
37243000,0.0324,0.013523,0.002678,0.000431,0.000823
37244000,0.0324,0.013523,0.002678,0.000431,0.000823
37245000,0.0324,0.013523,0.002678,0.000431,0.000823
37246000,0.0324,0.013523,0.002678,0.000431,0.000823
37247000,0.0324,0.013523,0.002678,0.000431,0.000823
37248000,0.0324,0.013523,0.002678,0.000431,0.000823
37249000,0.0324,0.013523,0.002678,0.000431,0.000940
37250000,0.0324,0.013523,0.002678,0.000431,0.000705
37251000,0.0324,0.013523,0.002678,0.000431,0.000940
37252000,0.0324,0.013523,0.002678,0.000431,0.000705
37253000,0.0324,0.013523,0.002678,0.000431,0.000940
37254000,0.0324,0.013523,0.002678,0.000431,0.000940
37255000,0.0324,0.013523,0.002678,0.000431,0.000705
37256000,0.0324,0.013523,0.002678,0.000431,0.000940
37257000,0.0324,0.013523,0.002678,0.000431,0.000705
37258000,0.0324,0.013523,0.002678,0.000431,0.000940
37259000,0.0324,0.013523,0.002678,0.000431,0.000823
37260000,0.0324,0.013523,0.002678,0.000431,0.000823
37261000,0.0324,0.013523,0.002678,0.000431,0.000823
37262000,0.0324,0.013523,0.002678,0.000431,0.000823
37263000,0.0324,0.013523,0.002678,0.000431,0.000940
37264000,0.0324,0.013523,0.002678,0.000431,0.000705
37265000,0.0324,0.013523,0.002678,0.000431,0.000940
37266000,0.0324,0.013523,0.002678,0.000431,0.000823
37267000,0.0324,0.013523,0.002678,0.000431,0.000823
37268000,0.0324,0.013523,0.002678,0.000431,0.000823
37269000,0.0324,0.013523,0.002678,0.000431,0.000823
37270000,0.0324,0.013523,0.002678,0.000431,0.000823
37271000,0.0324,0.013523,0.002678,0.000431,0.000823
37272000,0.0324,0.013523,0.002678,0.000431,0.000823
37273000,0.0324,0.013523,0.002678,0.000431,0.000940
37274000,0.0324,0.013523,0.002678,0.000431,0.000823
37275000,0.0324,0.013523,0.002678,0.000431,0.000823
37276000,0.0324,0.013523,0.002678,0.000431,0.000823
37277000,0.0324,0.013523,0.002678,0.000431,0.000705
37278000,0.0324,0.013523,0.002678,0.000431,0.000940
37279000,0.0324,0.013523,0.002678,0.000431,0.000940
37280000,0.0324,0.013523,0.002678,0.000431,0.000705
37281000,0.0324,0.013523,0.002678,0.000431,0.000940
37282000,0.0324,0.013523,0.002678,0.000431,0.000705
37283000,0.0324,0.013523,0.002678,0.000431,0.000940
37284000,0.0324,0.013523,0.002678,0.000431,0.000823
37285000,0.0324,0.013523,0.002678,0.000431,0.000823
37286000,0.0324,0.013523,0.002678,0.000431,0.000940
37287000,0.0324,0.013523,0.002678,0.000431,0.000705
37288000,0.0324,0.013523,0.002678,0.000431,0.000940
37289000,0.0324,0.013523,0.002678,0.000431,0.000823
37290000,0.0324,0.013523,0.002678,0.000431,0.000823
37291000,0.0324,0.013523,0.002678,0.000431,0.000823
37292000,0.0324,0.013523,0.002678,0.000431,0.000823
37293000,0.0324,0.013523,0.002678,0.000431,0.000940
37294000,0.0324,0.013523,0.002678,0.000431,0.000705
37295000,0.0324,0.013523,0.002678,0.000431,0.000940
37296000,0.0324,0.013523,0.002678,0.000431,0.000705
37297000,0.0324,0.013523,0.002678,0.000431,0.000940
37298000,0.0324,0.013523,0.002678,0.000431,0.000823
37299000,0.0324,0.013523,0.002678,0.000431,0.000823
37300000,0.0324,0.013523,0.002678,0.000431,0.002586
37301000,0.0324,0.013523,0.002678,0.000431,0.394660
37302000,0.0324,0.013523,0.002678,0.000431,0.699880
37303000,0.0324,0.013523,0.002678,0.000431,0.134335
37304000,0.0324,0.013523,0.002678,0.000431,0.134922
37305000,0.0324,0.013523,0.002678,0.000431,0.193804
37306000,0.0324,0.013523,0.002678,0.000431,0.568954
37307000,0.0324,0.013523,0.002678,0.000431,0.274546
37308000,0.0324,0.013523,0.002678,0.000431,0.321087
37309000,0.0324,0.013523,0.002678,0.000431,0.187810
37310000,0.0324,0.013523,0.002678,0.000431,0.142914
37311000,0.0324,0.013523,0.002678,0.000431,0.120936
37312000,0.0324,0.013523,0.002678,0.000431,0.302047
37313000,0.0324,0.013523,0.002678,0.000431,0.409233
37314000,0.0324,0.013523,0.002678,0.000431,0.163599
37315000,0.0324,0.013523,0.002678,0.000431,0.150906
37316000,0.0324,0.013523,0.002678,0.000431,0.128341
37317000,0.0324,0.013523,0.002678,0.000431,0.114355
37318000,0.0324,0.013523,0.002678,0.000431,0.103895
37319000,0.0324,0.013523,0.002678,0.000431,0.086971
37320000,0.0324,0.013523,0.002678,0.000431,0.076393
37321000,0.0324,0.013523,0.002678,0.000431,0.065111
37322000,0.0324,0.013523,0.002678,0.000431,0.053475
37323000,0.0324,0.013523,0.002678,0.000431,0.052888
37324000,0.0324,0.013523,0.002678,0.000431,0.055943
37325000,0.0324,0.013523,0.002678,0.000431,0.040900
37326000,0.0324,0.013523,0.002678,0.000431,0.034083
37327000,0.0324,0.013523,0.002678,0.000431,0.033260
37328000,0.0324,0.013523,0.002678,0.000431,0.024916
37329000,0.0324,0.013523,0.002678,0.000431,0.021978
37330000,0.0324,0.013523,0.002678,0.000431,0.025386
37331000,0.0324,0.013523,0.002678,0.000431,0.019745
37332000,0.0324,0.013523,0.002678,0.000431,0.017159
37333000,0.0324,0.013523,0.002678,0.000431,0.019392
37334000,0.0324,0.013523,0.002678,0.000431,0.012576
37335000,0.0324,0.013523,0.002678,0.000431,0.010578
37336000,0.0324,0.013523,0.002678,0.000431,0.009990
37337000,0.0324,0.013523,0.002678,0.000431,0.011165
37338000,0.0324,0.013523,0.002678,0.000431,0.013751
37339000,0.0324,0.013523,0.002678,0.000431,0.014809
37340000,0.0324,0.013523,0.002678,0.000431,0.008580
37341000,0.0324,0.013523,0.002678,0.000431,0.007874
37342000,0.0324,0.013523,0.002678,0.000431,0.006111
37343000,0.0324,0.013523,0.002678,0.000431,0.005524
37344000,0.0324,0.013523,0.002678,0.000431,0.004701
37345000,0.0324,0.013523,0.002678,0.000431,0.005759
37346000,0.0324,0.013523,0.002678,0.000431,0.005406
37347000,0.0324,0.013523,0.002678,0.000431,0.006699
37348000,0.0324,0.013523,0.002678,0.000431,0.003408
37349000,0.0324,0.013523,0.002678,0.000431,0.003526
37350000,0.0324,0.013523,0.002678,0.000431,0.003408
37351000,0.0324,0.013523,0.002678,0.000431,0.007052
37352000,0.0324,0.013523,0.002678,0.000431,0.002468
37353000,0.0324,0.013523,0.002678,0.000431,0.004584
37354000,0.0324,0.013523,0.002678,0.000431,0.004466
37355000,0.0324,0.013523,0.002678,0.000431,0.000940
37356000,0.0324,0.013523,0.002678,0.000431,0.000823
37357000,0.0324,0.013523,0.002678,0.000431,0.000940
37358000,0.0324,0.013523,0.002678,0.000431,0.000823
37359000,0.0324,0.013523,0.002678,0.000431,0.000823
37360000,0.0324,0.013523,0.002678,0.000431,0.000940
37361000,0.0324,0.013523,0.002678,0.000431,0.000940
37362000,0.0324,0.013523,0.002678,0.000431,0.000823
37363000,0.0324,0.013523,0.002678,0.000431,0.000823
37364000,0.0324,0.013523,0.002678,0.000431,0.000940
37365000,0.0324,0.013523,0.002678,0.000431,0.000940
37366000,0.0324,0.013523,0.002678,0.000431,0.000705
37367000,0.0324,0.013523,0.002678,0.000431,0.000940
37368000,0.0324,0.013523,0.002678,0.000431,0.000940
37369000,0.0324,0.013523,0.002678,0.000431,0.000940
37370000,0.0324,0.013523,0.002678,0.000431,0.000823
37371000,0.0324,0.013523,0.002678,0.000431,0.000823
37372000,0.0324,0.013523,0.002678,0.000431,0.000940
37373000,0.0324,0.013523,0.002678,0.000431,0.000823
37374000,0.0324,0.013523,0.002678,0.000431,0.000940
37375000,0.0324,0.013523,0.002678,0.000431,0.000823
37376000,0.0324,0.013523,0.002678,0.000431,0.000940
37377000,0.0324,0.013523,0.002678,0.000431,0.000823
37378000,0.0324,0.013523,0.002678,0.000431,0.000823
37379000,0.0324,0.013523,0.002678,0.000431,0.000940
37380000,0.0324,0.013523,0.002678,0.000431,0.000940
37381000,0.0324,0.013523,0.002678,0.000431,0.000705
37382000,0.0324,0.013523,0.002678,0.000431,0.000940
37383000,0.0324,0.013523,0.002678,0.000431,0.000940
37384000,0.0324,0.013523,0.002678,0.000431,0.000940
37385000,0.0324,0.013523,0.002678,0.000431,0.000705
37386000,0.0324,0.013523,0.002678,0.000431,0.000940
37387000,0.0324,0.013523,0.002678,0.000431,0.000940
37388000,0.0324,0.013523,0.002678,0.000431,0.000823
37389000,0.0324,0.013523,0.002678,0.000431,0.000823
37390000,0.0324,0.013523,0.002678,0.000431,0.000940
37391000,0.0324,0.013523,0.002678,0.000431,0.000940
37392000,0.0324,0.013523,0.002678,0.000431,0.000823
37393000,0.0324,0.013523,0.002678,0.000431,0.000823
37394000,0.0324,0.013523,0.002678,0.000431,0.000940
37395000,0.0324,0.013523,0.002678,0.000431,0.000823
37396000,0.0324,0.013523,0.002678,0.000431,0.000940
37397000,0.0324,0.013523,0.002678,0.000431,0.000823
37398000,0.0324,0.013523,0.002678,0.000431,0.000940
37399000,0.0324,0.013523,0.002678,0.000431,0.000823
37400000,0.0324,0.013523,0.002678,0.000431,0.000823
37401000,0.0324,0.013523,0.002678,0.000431,0.000940
37402000,0.0324,0.013523,0.002678,0.000431,0.000940
37403000,0.0324,0.013523,0.002678,0.000431,0.000940
37404000,0.0324,0.013523,0.002678,0.000431,0.000705
37405000,0.0324,0.013523,0.002678,0.000431,0.000940
37406000,0.0324,0.013523,0.002678,0.000431,0.000940
37407000,0.0324,0.013523,0.002678,0.000431,0.000823
37408000,0.0324,0.013523,0.002678,0.000431,0.000823
37409000,0.0324,0.013523,0.002678,0.000431,0.000940
37410000,0.0324,0.013523,0.002678,0.000431,0.000940
37411000,0.0324,0.013523,0.002678,0.000431,0.000823
37412000,0.0324,0.013523,0.002678,0.000431,0.000823
37413000,0.0324,0.013523,0.002678,0.000431,0.000940
37414000,0.0324,0.013523,0.002678,0.000431,0.000823
37415000,0.0324,0.013523,0.002678,0.000431,0.000940
37416000,0.0324,0.013523,0.002678,0.000431,0.000823
37417000,0.0324,0.013523,0.002678,0.000431,0.000940
37418000,0.0324,0.013523,0.002678,0.000431,0.000823
37419000,0.0324,0.013523,0.002678,0.000431,0.000823
37420000,0.0324,0.013523,0.002678,0.000431,0.000940
37421000,0.0324,0.013523,0.002678,0.000431,0.000940
37422000,0.0324,0.013523,0.002678,0.000431,0.000823
37423000,0.0324,0.013523,0.002678,0.000431,0.000823
37424000,0.0324,0.013523,0.002678,0.000431,0.000940
37425000,0.0324,0.013523,0.002678,0.000431,0.000940
37426000,0.0324,0.013523,0.002678,0.000431,0.000705
37427000,0.0324,0.013523,0.002678,0.000431,0.000940
37428000,0.0324,0.013523,0.002678,0.000431,0.000940
37429000,0.0324,0.013523,0.002678,0.000431,0.000823
37430000,0.0324,0.013523,0.002678,0.000431,0.000940
37431000,0.0324,0.013523,0.002678,0.000431,0.000823
37432000,0.0324,0.013523,0.002678,0.000431,0.000940
37433000,0.0324,0.013523,0.002678,0.000431,0.000823
37434000,0.0324,0.013523,0.002678,0.000431,0.000823
37435000,0.0324,0.013523,0.002678,0.000431,0.000940
37436000,0.0324,0.013523,0.002678,0.000431,0.000940
37437000,0.0324,0.013523,0.002678,0.000431,0.000823
37438000,0.0324,0.013523,0.002678,0.000431,0.000823
37439000,0.0324,0.013523,0.002678,0.000431,0.070869
37440000,0.0324,0.013523,0.002678,0.000431,0.599394
37441000,0.0324,0.013523,0.002678,0.000431,0.591637
37442000,0.0324,0.013523,0.002678,0.000431,0.133512
37443000,0.0324,0.013523,0.002678,0.000431,0.133982
37444000,0.0324,0.013523,0.002678,0.000431,0.562020
37445000,0.0324,0.013523,0.002678,0.000431,0.238700
37446000,0.0324,0.013523,0.002678,0.000431,0.274546
37447000,0.0324,0.013523,0.002678,0.000431,0.292528
37448000,0.0324,0.013523,0.002678,0.000431,0.145852
37449000,0.0324,0.013523,0.002678,0.000431,0.162189
37450000,0.0324,0.013523,0.002678,0.000431,0.159721
37451000,0.0324,0.013523,0.002678,0.000431,0.540042
37452000,0.0324,0.013523,0.002678,0.000431,0.306513
37453000,0.0324,0.013523,0.002678,0.000431,0.251275
37454000,0.0324,0.013523,0.002678,0.000431,0.214606
37455000,0.0324,0.013523,0.002678,0.000431,0.196390
37456000,0.0324,0.013523,0.002678,0.000431,0.171591
37457000,0.0324,0.013523,0.002678,0.000431,0.151376
37458000,0.0324,0.013523,0.002678,0.000431,0.139976
37459000,0.0324,0.013523,0.002678,0.000431,0.120114
37460000,0.0324,0.013523,0.002678,0.000431,0.114708
37461000,0.0324,0.013523,0.002678,0.000431,0.097548
37462000,0.0324,0.013523,0.002678,0.000431,0.086971
37463000,0.0324,0.013523,0.002678,0.000431,0.071575
37464000,0.0324,0.013523,0.002678,0.000431,0.066286
37465000,0.0324,0.013523,0.002678,0.000431,0.057001
37466000,0.0324,0.013523,0.002678,0.000431,0.053123
37467000,0.0324,0.013523,0.002678,0.000431,0.056884
37468000,0.0324,0.013523,0.002678,0.000431,0.047129
37469000,0.0324,0.013523,0.002678,0.000431,0.046306
37470000,0.0324,0.013523,0.002678,0.000431,0.032203
37471000,0.0324,0.013523,0.002678,0.000431,0.035258
37472000,0.0324,0.013523,0.002678,0.000431,0.030205
37473000,0.0324,0.013523,0.002678,0.000431,0.035964
37474000,0.0324,0.013523,0.002678,0.000431,0.030440
37475000,0.0324,0.013523,0.002678,0.000431,0.030205
37476000,0.0324,0.013523,0.002678,0.000431,0.027149
37477000,0.0324,0.013523,0.002678,0.000431,0.028207
37478000,0.0324,0.013523,0.002678,0.000431,0.033143
37479000,0.0324,0.013523,0.002678,0.000431,0.020685
37480000,0.0324,0.013523,0.002678,0.000431,0.016219
37481000,0.0324,0.013523,0.002678,0.000431,0.014456
37482000,0.0324,0.013523,0.002678,0.000431,0.014926
37483000,0.0324,0.013523,0.002678,0.000431,0.014338
37484000,0.0324,0.013523,0.002678,0.000431,0.014809
37485000,0.0324,0.013523,0.002678,0.000431,0.013633
37486000,0.0324,0.013523,0.002678,0.000431,0.017629
37487000,0.0324,0.013523,0.002678,0.000431,0.015514
37488000,0.0324,0.013523,0.002678,0.000431,0.013986
37489000,0.0324,0.013523,0.002678,0.000431,0.014221
37490000,0.0324,0.013523,0.002678,0.000431,0.017747
37491000,0.0324,0.013523,0.002678,0.000431,0.009402
37492000,0.0324,0.013523,0.002678,0.000431,0.006111
37493000,0.0324,0.013523,0.002678,0.000431,0.006347
37494000,0.0324,0.013523,0.002678,0.000431,0.006582
37495000,0.0324,0.013523,0.002678,0.000431,0.006111
37496000,0.0324,0.013523,0.002678,0.000431,0.006111
37497000,0.0324,0.013523,0.002678,0.000431,0.005171
37498000,0.0324,0.013523,0.002678,0.000431,0.004584
37499000,0.0324,0.013523,0.002678,0.000431,0.008462
37500000,0.0324,0.013523,0.002678,0.000431,0.003996
37501000,0.0324,0.013523,0.002678,0.000431,0.004349
37502000,0.0324,0.013523,0.002678,0.000431,0.003996
37503000,0.0324,0.013523,0.002678,0.000431,0.004113
37504000,0.0324,0.013523,0.002678,0.000431,0.003996
37505000,0.0324,0.013523,0.002678,0.000431,0.004113
37506000,0.0324,0.013523,0.002678,0.000431,0.005876
37507000,0.0324,0.013523,0.002678,0.000431,0.005054
37508000,0.0324,0.013523,0.002678,0.000431,0.003173
37509000,0.0324,0.013523,0.002678,0.000431,0.003408
37510000,0.0324,0.013523,0.002678,0.000431,0.003291
37511000,0.0324,0.013523,0.002678,0.000431,0.003056
37512000,0.0324,0.013523,0.002678,0.000431,0.003526
37513000,0.0324,0.013523,0.002678,0.000431,0.003056
37514000,0.0324,0.013523,0.002678,0.000431,0.003408
37515000,0.0324,0.013523,0.002678,0.000431,0.003291
37516000,0.0324,0.013523,0.002678,0.000431,0.003173
37517000,0.0324,0.013523,0.002678,0.000431,0.003643
37518000,0.0324,0.013523,0.002678,0.000431,0.002703
37519000,0.0324,0.013523,0.002678,0.000431,0.003643
37520000,0.0324,0.013523,0.002678,0.000431,0.003291
37521000,0.0324,0.013523,0.002678,0.000431,0.003173
37522000,0.0324,0.013523,0.002678,0.000431,0.003643
37523000,0.0324,0.013523,0.002678,0.000431,0.002821
37524000,0.0324,0.013523,0.002678,0.000431,0.003408
37525000,0.0324,0.013523,0.002678,0.000431,0.003173
37526000,0.0324,0.013523,0.002678,0.000431,0.003408
37527000,0.0324,0.013523,0.002678,0.000431,0.003173
37528000,0.0324,0.013523,0.002678,0.000431,0.003173
37529000,0.0324,0.013523,0.002678,0.000431,0.003291
37530000,0.0324,0.013523,0.002678,0.000431,0.003291
37531000,0.0324,0.013523,0.002678,0.000431,0.003526
37532000,0.0324,0.013523,0.002678,0.000431,0.003056
37533000,0.0324,0.013523,0.002678,0.000431,0.003408
37534000,0.0324,0.013523,0.002678,0.000431,0.003056
37535000,0.0324,0.013523,0.002678,0.000431,0.003643
37536000,0.0324,0.013523,0.002678,0.000431,0.003173
37537000,0.0324,0.013523,0.002678,0.000431,0.003291
37538000,0.0324,0.013523,0.002678,0.000431,0.003056
37539000,0.0324,0.013523,0.002678,0.000431,0.003408
37540000,0.0324,0.013523,0.002678,0.000431,0.003761
37541000,0.0324,0.013523,0.002678,0.000431,0.002703
37542000,0.0324,0.013523,0.002678,0.000431,0.003643
37543000,0.0324,0.013523,0.002678,0.000431,0.002821
37544000,0.0324,0.013523,0.002678,0.000431,0.003526
37545000,0.0324,0.013523,0.002678,0.000431,0.003291
37546000,0.0324,0.013523,0.002678,0.000431,0.003056
37547000,0.0324,0.013523,0.002678,0.000431,0.003408
37548000,0.0324,0.013523,0.002678,0.000431,0.003173
37549000,0.0324,0.013523,0.002678,0.000431,0.003526
37550000,0.0324,0.013523,0.002678,0.000431,0.002938
37551000,0.0324,0.013523,0.002678,0.000431,0.003408
37552000,0.0324,0.013523,0.002678,0.000431,0.003291
37553000,0.0324,0.013523,0.002678,0.000431,0.003173
37554000,0.0324,0.013523,0.002678,0.000431,0.003291
37555000,0.0324,0.013523,0.002678,0.000431,0.003173
37556000,0.0324,0.013523,0.002678,0.000431,0.003173
37557000,0.0324,0.013523,0.002678,0.000431,0.003173
37558000,0.0324,0.013523,0.002678,0.000431,0.003526
37559000,0.0324,0.013523,0.002678,0.000431,0.003173
37560000,0.0324,0.013523,0.002678,0.000431,0.003408
37561000,0.0324,0.013523,0.002678,0.000431,0.003526
37562000,0.0324,0.013523,0.002678,0.000431,0.002938
37563000,0.0324,0.013523,0.002678,0.000431,0.003291
37564000,0.0324,0.013523,0.002678,0.000431,0.003526
37565000,0.0324,0.013523,0.002678,0.000431,0.003526
37566000,0.0324,0.013523,0.002678,0.000431,0.003291
37567000,0.0324,0.013523,0.002678,0.000431,0.003173
37568000,0.0324,0.013523,0.002678,0.000431,0.003526
37569000,0.0324,0.013523,0.002678,0.000431,0.003643
37570000,0.0324,0.013523,0.002678,0.000431,0.002938
37571000,0.0324,0.013523,0.002678,0.000431,0.004819
37572000,0.0324,0.013523,0.002678,0.000431,0.001763
37573000,0.0324,0.013523,0.002678,0.000431,0.001880
37574000,0.0324,0.013523,0.002678,0.000431,0.001528
37575000,0.0324,0.013523,0.002678,0.000431,0.001763
37576000,0.0324,0.013523,0.002678,0.000431,0.001763
37577000,0.0324,0.013523,0.002678,0.000431,0.001645
37578000,0.0324,0.013523,0.002678,0.000431,0.001763
37579000,0.0324,0.013523,0.002678,0.000431,0.001645
37580000,0.0324,0.013523,0.002678,0.000431,0.001763
37581000,0.0324,0.013523,0.002678,0.000431,0.001763
37582000,0.0324,0.013523,0.002678,0.000431,0.001645
37583000,0.0324,0.013523,0.002678,0.000431,0.001763
37584000,0.0324,0.013523,0.002678,0.000431,0.001645
37585000,0.0324,0.013523,0.002678,0.000431,0.001763
37586000,0.0324,0.013523,0.002678,0.000431,0.001645
37587000,0.0324,0.013523,0.002678,0.000431,0.001880
37588000,0.0324,0.013523,0.002678,0.000431,0.001645
37589000,0.0324,0.013523,0.002678,0.000431,0.001645
37590000,0.0324,0.013523,0.002678,0.000431,0.001645
37591000,0.0324,0.013523,0.002678,0.000431,0.001880
37592000,0.0324,0.013523,0.002678,0.000431,0.001763
37593000,0.0324,0.013523,0.002678,0.000431,0.001528
37594000,0.0324,0.013523,0.002678,0.000431,0.001880
37595000,0.0324,0.013523,0.002678,0.000431,0.001645
37596000,0.0324,0.013523,0.002678,0.000431,0.001763
37597000,0.0324,0.013523,0.002678,0.000431,0.001645
37598000,0.0324,0.013523,0.002678,0.000431,0.001763
37599000,0.0324,0.013523,0.002678,0.000431,0.001763
37600000,0.0324,0.013523,0.002678,0.000431,0.001645
37601000,0.0324,0.013523,0.002678,0.000431,0.001763
37602000,0.0324,0.013523,0.002678,0.000431,0.001763
37603000,0.0324,0.013523,0.002678,0.000431,0.001645
37604000,0.0324,0.013523,0.002678,0.000431,0.001645
37605000,0.0324,0.013523,0.002678,0.000431,0.001763
37606000,0.0324,0.013523,0.002678,0.000431,0.001763
37607000,0.0324,0.013523,0.002678,0.000431,0.001645
37608000,0.0324,0.013523,0.002678,0.000431,0.001763
37609000,0.0324,0.013523,0.002678,0.000431,0.001645
37610000,0.0324,0.013523,0.002678,0.000431,0.001763
37611000,0.0324,0.013523,0.002678,0.000431,0.001645
37612000,0.0324,0.013523,0.002678,0.000431,0.001763
37613000,0.0324,0.013523,0.002678,0.000431,0.001763
37614000,0.0324,0.013523,0.002678,0.000431,0.001763
37615000,0.0324,0.013523,0.002678,0.000431,0.001528
37616000,0.0324,0.013523,0.002678,0.000431,0.001763
37617000,0.0324,0.013523,0.002678,0.000431,0.004466
37618000,0.0324,0.013523,0.002678,0.000431,0.000823
37619000,0.0324,0.013523,0.002678,0.000431,0.000940
37620000,0.0324,0.013523,0.002678,0.000431,0.000705
37621000,0.0324,0.013523,0.002678,0.000431,0.000940
37622000,0.0324,0.013523,0.002678,0.000431,0.000940
37623000,0.0324,0.013523,0.002678,0.000431,0.000705
37624000,0.0324,0.013523,0.002678,0.000431,0.000940
37625000,0.0324,0.013523,0.002678,0.000431,0.000705
37626000,0.0324,0.013523,0.002678,0.000431,0.000940
37627000,0.0324,0.013523,0.002678,0.000431,0.000823
37628000,0.0324,0.013523,0.002678,0.000431,0.000823
37629000,0.0324,0.013523,0.002678,0.000431,0.000823
37630000,0.0324,0.013523,0.002678,0.000431,0.000823
37631000,0.0324,0.013523,0.002678,0.000431,0.000940
37632000,0.0324,0.013523,0.002678,0.000431,0.000705
37633000,0.0324,0.013523,0.002678,0.000431,0.000940
37634000,0.0324,0.013523,0.002678,0.000431,0.000823
37635000,0.0324,0.013523,0.002678,0.000431,0.000823
37636000,0.0324,0.013523,0.002678,0.000431,0.000823
37637000,0.0324,0.013523,0.002678,0.000431,0.000823
37638000,0.0324,0.013523,0.002678,0.000431,0.000823
37639000,0.0324,0.013523,0.002678,0.000431,0.000823
37640000,0.0324,0.013523,0.002678,0.000431,0.000940
37641000,0.0324,0.013523,0.002678,0.000431,0.000823
37642000,0.0324,0.013523,0.002678,0.000431,0.000823
37643000,0.0324,0.013523,0.002678,0.000431,0.000940
37644000,0.0324,0.013523,0.002678,0.000431,0.000823
37645000,0.0324,0.013523,0.002678,0.000431,0.073573
37646000,0.0324,0.013523,0.002678,0.000431,0.778977
37647000,0.0324,0.013523,0.002678,0.000431,0.565663
37648000,0.0324,0.013523,0.002678,0.000431,0.144677
37649000,0.0324,0.013523,0.002678,0.000431,0.184637
37650000,0.0324,0.013523,0.002678,0.000431,0.549327
37651000,0.0324,0.013523,0.002678,0.000431,0.254684
37652000,0.0324,0.013523,0.002678,0.000431,0.322262
37653000,0.0324,0.013523,0.002678,0.000431,0.169593
37654000,0.0324,0.013523,0.002678,0.000431,0.168418
37655000,0.0324,0.013523,0.002678,0.000431,0.105893
37656000,0.0324,0.013523,0.002678,0.000431,0.497614
37657000,0.0324,0.013523,0.002678,0.000431,0.299697
37658000,0.0324,0.013523,0.002678,0.000431,0.223774
37659000,0.0324,0.013523,0.002678,0.000431,0.192629
37660000,0.0324,0.013523,0.002678,0.000431,0.185577
37661000,0.0324,0.013523,0.002678,0.000431,0.178290
37662000,0.0324,0.013523,0.002678,0.000431,0.154902
37663000,0.0324,0.013523,0.002678,0.000431,0.157488
37664000,0.0324,0.013523,0.002678,0.000431,0.115530
37665000,0.0324,0.013523,0.002678,0.000431,0.109301
37666000,0.0324,0.013523,0.002678,0.000431,0.105775
37667000,0.0324,0.013523,0.002678,0.000431,0.089909
37668000,0.0324,0.013523,0.002678,0.000431,0.075688
37669000,0.0324,0.013523,0.002678,0.000431,0.083563
37670000,0.0324,0.013523,0.002678,0.000431,0.076041
37671000,0.0324,0.013523,0.002678,0.000431,0.055473
37672000,0.0324,0.013523,0.002678,0.000431,0.057941
37673000,0.0324,0.013523,0.002678,0.000431,0.053828
37674000,0.0324,0.013523,0.002678,0.000431,0.057236
37675000,0.0324,0.013523,0.002678,0.000431,0.051595
37676000,0.0324,0.013523,0.002678,0.000431,0.041605
37677000,0.0324,0.013523,0.002678,0.000431,0.043485
37678000,0.0324,0.013523,0.002678,0.000431,0.034436
37679000,0.0324,0.013523,0.002678,0.000431,0.029617
37680000,0.0324,0.013523,0.002678,0.000431,0.031262
37681000,0.0324,0.013523,0.002678,0.000431,0.025034
37682000,0.0324,0.013523,0.002678,0.000431,0.020802
37683000,0.0324,0.013523,0.002678,0.000431,0.019157
37684000,0.0324,0.013523,0.002678,0.000431,0.018334
37685000,0.0324,0.013523,0.002678,0.000431,0.014338
37686000,0.0324,0.013523,0.002678,0.000431,0.016101
37687000,0.0324,0.013523,0.002678,0.000431,0.014338
37688000,0.0324,0.013523,0.002678,0.000431,0.014691
37689000,0.0324,0.013523,0.002678,0.000431,0.014573
37690000,0.0324,0.013523,0.002678,0.000431,0.014809
37691000,0.0324,0.013523,0.002678,0.000431,0.013986
37692000,0.0324,0.013523,0.002678,0.000431,0.021155
37693000,0.0324,0.013523,0.002678,0.000431,0.012811
37694000,0.0324,0.013523,0.002678,0.000431,0.015631
37695000,0.0324,0.013523,0.002678,0.000431,0.011518
37696000,0.0324,0.013523,0.002678,0.000431,0.011753
37697000,0.0324,0.013523,0.002678,0.000431,0.013046
37698000,0.0324,0.013523,0.002678,0.000431,0.010695
37699000,0.0324,0.013523,0.002678,0.000431,0.013398
37700000,0.0324,0.013523,0.002678,0.000431,0.011283
37701000,0.0324,0.013523,0.002678,0.000431,0.012693
37702000,0.0324,0.013523,0.002678,0.000431,0.015984
37703000,0.0324,0.013523,0.002678,0.000431,0.011048
37704000,0.0324,0.013523,0.002678,0.000431,0.011165
37705000,0.0324,0.013523,0.002678,0.000431,0.009285
37706000,0.0324,0.013523,0.002678,0.000431,0.009520
37707000,0.0324,0.013523,0.002678,0.000431,0.009990
37708000,0.0324,0.013523,0.002678,0.000431,0.009050
37709000,0.0324,0.013523,0.002678,0.000431,0.010225
37710000,0.0324,0.013523,0.002678,0.000431,0.008932
37711000,0.0324,0.013523,0.002678,0.000431,0.009167
37712000,0.0324,0.013523,0.002678,0.000431,0.010107
37713000,0.0324,0.013523,0.002678,0.000431,0.008815
37714000,0.0324,0.013523,0.002678,0.000431,0.009872
37715000,0.0324,0.013523,0.002678,0.000431,0.008697
37716000,0.0324,0.013523,0.002678,0.000431,0.009755
37717000,0.0324,0.013523,0.002678,0.000431,0.009285
37718000,0.0324,0.013523,0.002678,0.000431,0.009285
37719000,0.0324,0.013523,0.002678,0.000431,0.009402
37720000,0.0324,0.013523,0.002678,0.000431,0.009872
37721000,0.0324,0.013523,0.002678,0.000431,0.009050
37722000,0.0324,0.013523,0.002678,0.000431,0.009167
37723000,0.0324,0.013523,0.002678,0.000431,0.009990
37724000,0.0324,0.013523,0.002678,0.000431,0.009285
37725000,0.0324,0.013523,0.002678,0.000431,0.009872
37726000,0.0324,0.013523,0.002678,0.000431,0.008345
37727000,0.0324,0.013523,0.002678,0.000431,0.008345
37728000,0.0324,0.013523,0.002678,0.000431,0.007757
37729000,0.0324,0.013523,0.002678,0.000431,0.007169
37730000,0.0324,0.013523,0.002678,0.000431,0.006582
37731000,0.0324,0.013523,0.002678,0.000431,0.006464
37732000,0.0324,0.013523,0.002678,0.000431,0.007052
37733000,0.0324,0.013523,0.002678,0.000431,0.006111
37734000,0.0324,0.013523,0.002678,0.000431,0.007287
37735000,0.0324,0.013523,0.002678,0.000431,0.007169
37736000,0.0324,0.013523,0.002678,0.000431,0.005524
37737000,0.0324,0.013523,0.002678,0.000431,0.005171
37738000,0.0324,0.013523,0.002678,0.000431,0.007404
37739000,0.0324,0.013523,0.002678,0.000431,0.004701
37740000,0.0324,0.013523,0.002678,0.000431,0.006347
37741000,0.0324,0.013523,0.002678,0.000431,0.003056
37742000,0.0324,0.013523,0.002678,0.000431,0.005524
37743000,0.0324,0.013523,0.002678,0.000431,0.002233
37744000,0.0324,0.013523,0.002678,0.000431,0.002468
37745000,0.0324,0.013523,0.002678,0.000431,0.002821
37746000,0.0324,0.013523,0.002678,0.000431,0.001880
37747000,0.0324,0.013523,0.002678,0.000431,0.002821
37748000,0.0324,0.013523,0.002678,0.000431,0.002233
37749000,0.0324,0.013523,0.002678,0.000431,0.002468
37750000,0.0324,0.013523,0.002678,0.000431,0.002468
37751000,0.0324,0.013523,0.002678,0.000431,0.002116
37752000,0.0324,0.013523,0.002678,0.000431,0.004584
37753000,0.0324,0.013523,0.002678,0.000431,0.000940
37754000,0.0324,0.013523,0.002678,0.000431,0.000823
37755000,0.0324,0.013523,0.002678,0.000431,0.000823
37756000,0.0324,0.013523,0.002678,0.000431,0.000940
37757000,0.0324,0.013523,0.002678,0.000431,0.000823
37758000,0.0324,0.013523,0.002678,0.000431,0.000823
37759000,0.0324,0.013523,0.002678,0.000431,0.000705
37760000,0.0324,0.013523,0.002678,0.000431,0.000940
37761000,0.0324,0.013523,0.002678,0.000431,0.000940
37762000,0.0324,0.013523,0.002678,0.000431,0.000705
37763000,0.0324,0.013523,0.002678,0.000431,0.000940
37764000,0.0324,0.013523,0.002678,0.000431,0.000705
37765000,0.0324,0.013523,0.002678,0.000431,0.000940
37766000,0.0324,0.013523,0.002678,0.000431,0.000823
37767000,0.0324,0.013523,0.002678,0.000431,0.000823
37768000,0.0324,0.013523,0.002678,0.000431,0.000940
37769000,0.0324,0.013523,0.002678,0.000431,0.000705
37770000,0.0324,0.013523,0.002678,0.000431,0.000940
37771000,0.0324,0.013523,0.002678,0.000431,0.000823
37772000,0.0324,0.013523,0.002678,0.000431,0.000823
37773000,0.0324,0.013523,0.002678,0.000431,0.000823
37774000,0.0324,0.013523,0.002678,0.000431,0.000823
37775000,0.0324,0.013523,0.002678,0.000431,0.000823
37776000,0.0324,0.013523,0.002678,0.000431,0.000823
37777000,0.0324,0.013523,0.002678,0.000431,0.000940
37778000,0.0324,0.013523,0.002678,0.000431,0.000705
37779000,0.0324,0.013523,0.002678,0.000431,0.000940
37780000,0.0324,0.013523,0.002678,0.000431,0.000823
37781000,0.0324,0.013523,0.002678,0.000431,0.000823
37782000,0.0324,0.013523,0.002678,0.000431,0.000705
37783000,0.0324,0.013523,0.002678,0.000431,0.000940
37784000,0.0324,0.013523,0.002678,0.000431,0.000940
37785000,0.0324,0.013523,0.002678,0.000431,0.000705
37786000,0.0324,0.013523,0.002678,0.000431,0.000940
37787000,0.0324,0.013523,0.002678,0.000431,0.000705
37788000,0.0324,0.013523,0.002678,0.000431,0.000940
37789000,0.0324,0.013523,0.002678,0.000431,0.000823
37790000,0.0324,0.013523,0.002678,0.000431,0.000823
37791000,0.0324,0.013523,0.002678,0.000431,0.000940
37792000,0.0324,0.013523,0.002678,0.000431,0.000705
37793000,0.0324,0.013523,0.002678,0.000431,0.000940
37794000,0.0324,0.013523,0.002678,0.000431,0.000823
37795000,0.0324,0.013523,0.002678,0.000431,0.000823
37796000,0.0324,0.013523,0.002678,0.000431,0.000823
37797000,0.0324,0.013523,0.002678,0.000431,0.000823
37798000,0.0324,0.013523,0.002678,0.000431,0.000823
37799000,0.0324,0.013523,0.002678,0.000431,0.000823
37800000,0.0324,0.013523,0.002678,0.000431,0.000940
37801000,0.0324,0.013523,0.002678,0.000431,0.000705
37802000,0.0324,0.013523,0.002678,0.000431,0.000823
37803000,0.0324,0.013523,0.002678,0.000431,0.000940
37804000,0.0324,0.013523,0.002678,0.000431,0.000823
37805000,0.0324,0.013523,0.002678,0.000431,0.000823
37806000,0.0324,0.013523,0.002678,0.000431,0.000823
37807000,0.0324,0.013523,0.002678,0.000431,0.000823
37808000,0.0324,0.013523,0.002678,0.000431,0.000823
37809000,0.0324,0.013523,0.002678,0.000431,0.000940
37810000,0.0324,0.013523,0.002678,0.000431,0.000823
37811000,0.0324,0.013523,0.002678,0.000431,0.000823
37812000,0.0324,0.013523,0.002678,0.000431,0.000705
37813000,0.0324,0.013523,0.002678,0.000431,0.000940
37814000,0.0324,0.013523,0.002678,0.000431,0.000940
37815000,0.0324,0.013523,0.002678,0.000431,0.000705
37816000,0.0324,0.013523,0.002678,0.000431,0.000940
37817000,0.0324,0.013523,0.002678,0.000431,0.000705
37818000,0.0324,0.013523,0.002678,0.000431,0.000940
37819000,0.0324,0.013523,0.002678,0.000431,0.000705
37820000,0.0324,0.013523,0.002678,0.000431,0.000940
37821000,0.0324,0.013523,0.002678,0.000431,0.071810
37822000,0.0324,0.013523,0.002678,0.000431,0.693181
37823000,0.0324,0.013523,0.002678,0.000431,0.579884
37824000,0.0324,0.013523,0.002678,0.000431,0.133747
37825000,0.0324,0.013523,0.002678,0.000431,0.166302
37826000,0.0324,0.013523,0.002678,0.000431,0.550502
37827000,0.0324,0.013523,0.002678,0.000431,0.264203
37828000,0.0324,0.013523,0.002678,0.000431,0.321440
37829000,0.0324,0.013523,0.002678,0.000431,0.200503
37830000,0.0324,0.013523,0.002678,0.000431,0.155842
37831000,0.0324,0.013523,0.002678,0.000431,0.116588
37832000,0.0324,0.013523,0.002678,0.000431,0.455892
37833000,0.0324,0.013523,0.002678,0.000431,0.319559
37834000,0.0324,0.013523,0.002678,0.000431,0.230120
37835000,0.0324,0.013523,0.002678,0.000431,0.217427
37836000,0.0324,0.013523,0.002678,0.000431,0.185577
37837000,0.0324,0.013523,0.002678,0.000431,0.167595
37838000,0.0324,0.013523,0.002678,0.000431,0.137626
37839000,0.0324,0.013523,0.002678,0.000431,0.107891
37840000,0.0324,0.013523,0.002678,0.000431,0.106716
37841000,0.0324,0.013523,0.002678,0.000431,0.095550
37842000,0.0324,0.013523,0.002678,0.000431,0.078979
37843000,0.0324,0.013523,0.002678,0.000431,0.058176
37844000,0.0324,0.013523,0.002678,0.000431,0.054416
37845000,0.0324,0.013523,0.002678,0.000431,0.047481
37846000,0.0324,0.013523,0.002678,0.000431,0.041487
37847000,0.0324,0.013523,0.002678,0.000431,0.031262
37848000,0.0324,0.013523,0.002678,0.000431,0.031027
37849000,0.0324,0.013523,0.002678,0.000431,0.023976
37850000,0.0324,0.013523,0.002678,0.000431,0.023976
37851000,0.0324,0.013523,0.002678,0.000431,0.023741
37852000,0.0324,0.013523,0.002678,0.000431,0.018687
37853000,0.0324,0.013523,0.002678,0.000431,0.023153
37854000,0.0324,0.013523,0.002678,0.000431,0.016454
37855000,0.0324,0.013523,0.002678,0.000431,0.015396
37856000,0.0324,0.013523,0.002678,0.000431,0.012105
37857000,0.0324,0.013523,0.002678,0.000431,0.010930
37858000,0.0324,0.013523,0.002678,0.000431,0.013046
37859000,0.0324,0.013523,0.002678,0.000431,0.008697
37860000,0.0324,0.013523,0.002678,0.000431,0.006111
37861000,0.0324,0.013523,0.002678,0.000431,0.006699
37862000,0.0324,0.013523,0.002678,0.000431,0.005994
37863000,0.0324,0.013523,0.002678,0.000431,0.005641
37864000,0.0324,0.013523,0.002678,0.000431,0.006111
37865000,0.0324,0.013523,0.002678,0.000431,0.007874
37866000,0.0324,0.013523,0.002678,0.000431,0.005054
37867000,0.0324,0.013523,0.002678,0.000431,0.004466
37868000,0.0324,0.013523,0.002678,0.000431,0.004466
37869000,0.0324,0.013523,0.002678,0.000431,0.008109
37870000,0.0324,0.013523,0.002678,0.000431,0.003761
37871000,0.0324,0.013523,0.002678,0.000431,0.007404
37872000,0.0324,0.013523,0.002678,0.000431,0.004113
37873000,0.0324,0.013523,0.002678,0.000431,0.000940
37874000,0.0324,0.013523,0.002678,0.000431,0.000823
37875000,0.0324,0.013523,0.002678,0.000431,0.000823
37876000,0.0324,0.013523,0.002678,0.000431,0.000940
37877000,0.0324,0.013523,0.002678,0.000431,0.000705
37878000,0.0324,0.013523,0.002678,0.000431,0.000940
37879000,0.0324,0.013523,0.002678,0.000431,0.000705
37880000,0.0324,0.013523,0.002678,0.000431,0.000940
37881000,0.0324,0.013523,0.002678,0.000431,0.000940
37882000,0.0324,0.013523,0.002678,0.000431,0.000705
37883000,0.0324,0.013523,0.002678,0.000431,0.000940
37884000,0.0324,0.013523,0.002678,0.000431,0.000705
37885000,0.0324,0.013523,0.002678,0.000431,0.000940
37886000,0.0324,0.013523,0.002678,0.000431,0.000823
37887000,0.0324,0.013523,0.002678,0.000431,0.000823
37888000,0.0324,0.013523,0.002678,0.000431,0.000823
37889000,0.0324,0.013523,0.002678,0.000431,0.000823
37890000,0.0324,0.013523,0.002678,0.000431,0.000940
37891000,0.0324,0.013523,0.002678,0.000431,0.000705
37892000,0.0324,0.013523,0.002678,0.000431,0.000940
37893000,0.0324,0.013523,0.002678,0.000431,0.013986
37894000,0.0324,0.013523,0.002678,0.000431,0.728675
37895000,0.0324,0.013523,0.002678,0.000431,0.589051
37896000,0.0324,0.013523,0.002678,0.000431,0.141504
37897000,0.0324,0.013523,0.002678,0.000431,0.134922
37898000,0.0324,0.013523,0.002678,0.000431,0.595750
37899000,0.0324,0.013523,0.002678,0.000431,0.238582
37900000,0.0324,0.013523,0.002678,0.000431,0.265849
37901000,0.0324,0.013523,0.002678,0.000431,0.221071
37902000,0.0324,0.013523,0.002678,0.000431,0.142562
37903000,0.0324,0.013523,0.002678,0.000431,0.173001
37904000,0.0324,0.013523,0.002678,0.000431,0.152199
37905000,0.0324,0.013523,0.002678,0.000431,0.596103
37906000,0.0324,0.013523,0.002678,0.000431,0.325906
37907000,0.0324,0.013523,0.002678,0.000431,0.285241
37908000,0.0324,0.013523,0.002678,0.000431,0.263851
37909000,0.0324,0.013523,0.002678,0.000431,0.230473
37910000,0.0324,0.013523,0.002678,0.000431,0.189103
37911000,0.0324,0.013523,0.002678,0.000431,0.186282
37912000,0.0324,0.013523,0.002678,0.000431,0.143854
37913000,0.0324,0.013523,0.002678,0.000431,0.142444
37914000,0.0324,0.013523,0.002678,0.000431,0.109654
37915000,0.0324,0.013523,0.002678,0.000431,0.116941
37916000,0.0324,0.013523,0.002678,0.000431,0.097196
37917000,0.0324,0.013523,0.002678,0.000431,0.089909
37918000,0.0324,0.013523,0.002678,0.000431,0.095550
37919000,0.0324,0.013523,0.002678,0.000431,0.069459
37920000,0.0324,0.013523,0.002678,0.000431,0.071575
37921000,0.0324,0.013523,0.002678,0.000431,0.057471
37922000,0.0324,0.013523,0.002678,0.000431,0.049362
37923000,0.0324,0.013523,0.002678,0.000431,0.043015
37924000,0.0324,0.013523,0.002678,0.000431,0.055591
37925000,0.0324,0.013523,0.002678,0.000431,0.033143
37926000,0.0324,0.013523,0.002678,0.000431,0.036199
37927000,0.0324,0.013523,0.002678,0.000431,0.029735
37928000,0.0324,0.013523,0.002678,0.000431,0.034318
37929000,0.0324,0.013523,0.002678,0.000431,0.022683
37930000,0.0324,0.013523,0.002678,0.000431,0.026561
37931000,0.0324,0.013523,0.002678,0.000431,0.018805
37932000,0.0324,0.013523,0.002678,0.000431,0.016336
37933000,0.0324,0.013523,0.002678,0.000431,0.013516
37934000,0.0324,0.013523,0.002678,0.000431,0.016924
37935000,0.0324,0.013523,0.002678,0.000431,0.013633
37936000,0.0324,0.013523,0.002678,0.000431,0.011635
37937000,0.0324,0.013523,0.002678,0.000431,0.007287
37938000,0.0324,0.013523,0.002678,0.000431,0.006464
37939000,0.0324,0.013523,0.002678,0.000431,0.007874
37940000,0.0324,0.013523,0.002678,0.000431,0.009637
37941000,0.0324,0.013523,0.002678,0.000431,0.004349
37942000,0.0324,0.013523,0.002678,0.000431,0.004231
37943000,0.0324,0.013523,0.002678,0.000431,0.003996
37944000,0.0324,0.013523,0.002678,0.000431,0.003761
37945000,0.0324,0.013523,0.002678,0.000431,0.004231
37946000,0.0324,0.013523,0.002678,0.000431,0.003526
37947000,0.0324,0.013523,0.002678,0.000431,0.004231
37948000,0.0324,0.013523,0.002678,0.000431,0.004466
37949000,0.0324,0.013523,0.002678,0.000431,0.003291
37950000,0.0324,0.013523,0.002678,0.000431,0.004701
37951000,0.0324,0.013523,0.002678,0.000431,0.003408
37952000,0.0324,0.013523,0.002678,0.000431,0.004349
37953000,0.0324,0.013523,0.002678,0.000431,0.004231
37954000,0.0324,0.013523,0.002678,0.000431,0.003761
37955000,0.0324,0.013523,0.002678,0.000431,0.003996
37956000,0.0324,0.013523,0.002678,0.000431,0.004113
37957000,0.0324,0.013523,0.002678,0.000431,0.003878
37958000,0.0324,0.013523,0.002678,0.000431,0.004113
37959000,0.0324,0.013523,0.002678,0.000431,0.004113
37960000,0.0324,0.013523,0.002678,0.000431,0.003761
37961000,0.0324,0.013523,0.002678,0.000431,0.004349
37962000,0.0324,0.013523,0.002678,0.000431,0.003526
37963000,0.0324,0.013523,0.002678,0.000431,0.004349
37964000,0.0324,0.013523,0.002678,0.000431,0.003526
37965000,0.0324,0.013523,0.002678,0.000431,0.004349
37966000,0.0324,0.013523,0.002678,0.000431,0.004113
37967000,0.0324,0.013523,0.002678,0.000431,0.003761
37968000,0.0324,0.013523,0.002678,0.000431,0.004466
37969000,0.0324,0.013523,0.002678,0.000431,0.003643
37970000,0.0324,0.013523,0.002678,0.000431,0.004113
37971000,0.0324,0.013523,0.002678,0.000431,0.004231
37972000,0.0324,0.013523,0.002678,0.000431,0.003996
37973000,0.0324,0.013523,0.002678,0.000431,0.003761
37974000,0.0324,0.013523,0.002678,0.000431,0.004113
37975000,0.0324,0.013523,0.002678,0.000431,0.003878
37976000,0.0324,0.013523,0.002678,0.000431,0.004466
37977000,0.0324,0.013523,0.002678,0.000431,0.003643
37978000,0.0324,0.013523,0.002678,0.000431,0.004113
37979000,0.0324,0.013523,0.002678,0.000431,0.003996
37980000,0.0324,0.013523,0.002678,0.000431,0.003878
37981000,0.0324,0.013523,0.002678,0.000431,0.004701
37982000,0.0324,0.013523,0.002678,0.000431,0.003408
37983000,0.0324,0.013523,0.002678,0.000431,0.004466
37984000,0.0324,0.013523,0.002678,0.000431,0.003643
37985000,0.0324,0.013523,0.002678,0.000431,0.004113
37986000,0.0324,0.013523,0.002678,0.000431,0.006229
37987000,0.0324,0.013523,0.002678,0.000431,0.002821
37988000,0.0324,0.013523,0.002678,0.000431,0.003526
37989000,0.0324,0.013523,0.002678,0.000431,0.005994
37990000,0.0324,0.013523,0.002678,0.000431,0.001528
37991000,0.0324,0.013523,0.002678,0.000431,0.001645
37992000,0.0324,0.013523,0.002678,0.000431,0.001645
37993000,0.0324,0.013523,0.002678,0.000431,0.001410
37994000,0.0324,0.013523,0.002678,0.000431,0.001880
37995000,0.0324,0.013523,0.002678,0.000431,0.001410
37996000,0.0324,0.013523,0.002678,0.000431,0.001645
37997000,0.0324,0.013523,0.002678,0.000431,0.001293
37998000,0.0324,0.013523,0.002678,0.000431,0.001763
37999000,0.0324,0.013523,0.002678,0.000431,0.001880
