Cycle,Area(mm^2),PeakDynamic(W),SubthresholdLeakage(W),GateLeakage(W),RunTimeDynamic(W)
116000000,0.0324,0.013523,0.002678,0.000431,0.010813
116001000,0.0324,0.013523,0.002678,0.000431,0.008697
116002000,0.0324,0.013523,0.002678,0.000431,0.009285
116003000,0.0324,0.013523,0.002678,0.000431,0.008580
116004000,0.0324,0.013523,0.002678,0.000431,0.009637
116005000,0.0324,0.013523,0.002678,0.000431,0.009285
116006000,0.0324,0.013523,0.002678,0.000431,0.009402
116007000,0.0324,0.013523,0.002678,0.000431,0.011400
116008000,0.0324,0.013523,0.002678,0.000431,0.006699
116009000,0.0324,0.013523,0.002678,0.000431,0.006464
116010000,0.0324,0.013523,0.002678,0.000431,0.006699
116011000,0.0324,0.013523,0.002678,0.000431,0.006347
116012000,0.0324,0.013523,0.002678,0.000431,0.007757
116013000,0.0324,0.013523,0.002678,0.000431,0.006582
116014000,0.0324,0.013523,0.002678,0.000431,0.005054
116015000,0.0324,0.013523,0.002678,0.000431,0.005876
116016000,0.0324,0.013523,0.002678,0.000431,0.005406
116017000,0.0324,0.013523,0.002678,0.000431,0.004113
116018000,0.0324,0.013523,0.002678,0.000431,0.004349
116019000,0.0324,0.013523,0.002678,0.000431,0.004113
116020000,0.0324,0.013523,0.002678,0.000431,0.004113
116021000,0.0324,0.013523,0.002678,0.000431,0.004231
116022000,0.0324,0.013523,0.002678,0.000431,0.004231
116023000,0.0324,0.013523,0.002678,0.000431,0.004466
116024000,0.0324,0.013523,0.002678,0.000431,0.006347
116025000,0.0324,0.013523,0.002678,0.000431,0.003526
116026000,0.0324,0.013523,0.002678,0.000431,0.004113
116027000,0.0324,0.013523,0.002678,0.000431,0.003878
116028000,0.0324,0.013523,0.002678,0.000431,0.004701
116029000,0.0324,0.013523,0.002678,0.000431,0.001528
116030000,0.0324,0.013523,0.002678,0.000431,0.001763
116031000,0.0324,0.013523,0.002678,0.000431,0.001763
116032000,0.0324,0.013523,0.002678,0.000431,0.001880
116033000,0.0324,0.013523,0.002678,0.000431,0.001528
116034000,0.0324,0.013523,0.002678,0.000431,0.001763
116035000,0.0324,0.013523,0.002678,0.000431,0.001763
116036000,0.0324,0.013523,0.002678,0.000431,0.001645
116037000,0.0324,0.013523,0.002678,0.000431,0.001763
116038000,0.0324,0.013523,0.002678,0.000431,0.001645
116039000,0.0324,0.013523,0.002678,0.000431,0.001763
116040000,0.0324,0.013523,0.002678,0.000431,0.001880
116041000,0.0324,0.013523,0.002678,0.000431,0.001528
116042000,0.0324,0.013523,0.002678,0.000431,0.001763
116043000,0.0324,0.013523,0.002678,0.000431,0.001763
116044000,0.0324,0.013523,0.002678,0.000431,0.004466
116045000,0.0324,0.013523,0.002678,0.000431,0.000823
116046000,0.0324,0.013523,0.002678,0.000431,0.000940
116047000,0.0324,0.013523,0.002678,0.000431,0.000823
116048000,0.0324,0.013523,0.002678,0.000431,0.000823
116049000,0.0324,0.013523,0.002678,0.000431,0.000705
116050000,0.0324,0.013523,0.002678,0.000431,0.000940
116051000,0.0324,0.013523,0.002678,0.000431,0.000940
116052000,0.0324,0.013523,0.002678,0.000431,0.000705
116053000,0.0324,0.013523,0.002678,0.000431,0.000940
116054000,0.0324,0.013523,0.002678,0.000431,0.000705
116055000,0.0324,0.013523,0.002678,0.000431,0.000940
116056000,0.0324,0.013523,0.002678,0.000431,0.000823
116057000,0.0324,0.013523,0.002678,0.000431,0.000940
116058000,0.0324,0.013523,0.002678,0.000431,0.013633
116059000,0.0324,0.013523,0.002678,0.000431,0.527114
116060000,0.0324,0.013523,0.002678,0.000431,0.595398
116061000,0.0324,0.013523,0.002678,0.000431,0.134452
116062000,0.0324,0.013523,0.002678,0.000431,0.131161
116063000,0.0324,0.013523,0.002678,0.000431,0.461063
116064000,0.0324,0.013523,0.002678,0.000431,0.366570
116065000,0.0324,0.013523,0.002678,0.000431,0.243518
116066000,0.0324,0.013523,0.002678,0.000431,0.345180
116067000,0.0324,0.013523,0.002678,0.000431,0.136920
116068000,0.0324,0.013523,0.002678,0.000431,0.150201
116069000,0.0324,0.013523,0.002678,0.000431,0.106363
116070000,0.0324,0.013523,0.002678,0.000431,0.418400
116071000,0.0324,0.013523,0.002678,0.000431,0.198740
116072000,0.0324,0.013523,0.002678,0.000431,0.079919
116073000,0.0324,0.013523,0.002678,0.000431,0.074865
116074000,0.0324,0.013523,0.002678,0.000431,0.069459
116075000,0.0324,0.013523,0.002678,0.000431,0.060880
116076000,0.0324,0.013523,0.002678,0.000431,0.045954
116077000,0.0324,0.013523,0.002678,0.000431,0.033966
116078000,0.0324,0.013523,0.002678,0.000431,0.032790
116079000,0.0324,0.013523,0.002678,0.000431,0.028442
116080000,0.0324,0.013523,0.002678,0.000431,0.027384
116081000,0.0324,0.013523,0.002678,0.000431,0.026209
116082000,0.0324,0.013523,0.002678,0.000431,0.019275
116083000,0.0324,0.013523,0.002678,0.000431,0.023623
116084000,0.0324,0.013523,0.002678,0.000431,0.020802
116085000,0.0324,0.013523,0.002678,0.000431,0.015396
116086000,0.0324,0.013523,0.002678,0.000431,0.014456
116087000,0.0324,0.013523,0.002678,0.000431,0.016219
116088000,0.0324,0.013523,0.002678,0.000431,0.014691
116089000,0.0324,0.013523,0.002678,0.000431,0.013398
116090000,0.0324,0.013523,0.002678,0.000431,0.010930
116091000,0.0324,0.013523,0.002678,0.000431,0.011870
116092000,0.0324,0.013523,0.002678,0.000431,0.011048
116093000,0.0324,0.013523,0.002678,0.000431,0.010813
116094000,0.0324,0.013523,0.002678,0.000431,0.012340
116095000,0.0324,0.013523,0.002678,0.000431,0.010225
116096000,0.0324,0.013523,0.002678,0.000431,0.010813
116097000,0.0324,0.013523,0.002678,0.000431,0.011870
116098000,0.0324,0.013523,0.002678,0.000431,0.011400
116099000,0.0324,0.013523,0.002678,0.000431,0.011870
116100000,0.0324,0.013523,0.002678,0.000431,0.011518
116101000,0.0324,0.013523,0.002678,0.000431,0.009285
116102000,0.0324,0.013523,0.002678,0.000431,0.010107
116103000,0.0324,0.013523,0.002678,0.000431,0.010342
116104000,0.0324,0.013523,0.002678,0.000431,0.009050
116105000,0.0324,0.013523,0.002678,0.000431,0.010107
116106000,0.0324,0.013523,0.002678,0.000431,0.010342
116107000,0.0324,0.013523,0.002678,0.000431,0.008932
116108000,0.0324,0.013523,0.002678,0.000431,0.010342
116109000,0.0324,0.013523,0.002678,0.000431,0.012105
116110000,0.0324,0.013523,0.002678,0.000431,0.008462
116111000,0.0324,0.013523,0.002678,0.000431,0.009285
116112000,0.0324,0.013523,0.002678,0.000431,0.008932
116113000,0.0324,0.013523,0.002678,0.000431,0.011518
116114000,0.0324,0.013523,0.002678,0.000431,0.006699
116115000,0.0324,0.013523,0.002678,0.000431,0.008345
116116000,0.0324,0.013523,0.002678,0.000431,0.005171
116117000,0.0324,0.013523,0.002678,0.000431,0.005406
116118000,0.0324,0.013523,0.002678,0.000431,0.004936
116119000,0.0324,0.013523,0.002678,0.000431,0.005054
116120000,0.0324,0.013523,0.002678,0.000431,0.005289
116121000,0.0324,0.013523,0.002678,0.000431,0.004936
116122000,0.0324,0.013523,0.002678,0.000431,0.005171
116123000,0.0324,0.013523,0.002678,0.000431,0.005054
116124000,0.0324,0.013523,0.002678,0.000431,0.005171
116125000,0.0324,0.013523,0.002678,0.000431,0.005171
116126000,0.0324,0.013523,0.002678,0.000431,0.005171
116127000,0.0324,0.013523,0.002678,0.000431,0.005054
116128000,0.0324,0.013523,0.002678,0.000431,0.005171
116129000,0.0324,0.013523,0.002678,0.000431,0.005054
116130000,0.0324,0.013523,0.002678,0.000431,0.004936
116131000,0.0324,0.013523,0.002678,0.000431,0.005289
116132000,0.0324,0.013523,0.002678,0.000431,0.005289
116133000,0.0324,0.013523,0.002678,0.000431,0.004936
116134000,0.0324,0.013523,0.002678,0.000431,0.005054
116135000,0.0324,0.013523,0.002678,0.000431,0.006934
116136000,0.0324,0.013523,0.002678,0.000431,0.003761
116137000,0.0324,0.013523,0.002678,0.000431,0.003173
116138000,0.0324,0.013523,0.002678,0.000431,0.003526
116139000,0.0324,0.013523,0.002678,0.000431,0.003761
116140000,0.0324,0.013523,0.002678,0.000431,0.003291
116141000,0.0324,0.013523,0.002678,0.000431,0.003291
116142000,0.0324,0.013523,0.002678,0.000431,0.003643
116143000,0.0324,0.013523,0.002678,0.000431,0.003526
116144000,0.0324,0.013523,0.002678,0.000431,0.003526
116145000,0.0324,0.013523,0.002678,0.000431,0.003408
116146000,0.0324,0.013523,0.002678,0.000431,0.003526
116147000,0.0324,0.013523,0.002678,0.000431,0.003643
116148000,0.0324,0.013523,0.002678,0.000431,0.004819
116149000,0.0324,0.013523,0.002678,0.000431,0.002703
116150000,0.0324,0.013523,0.002678,0.000431,0.002703
116151000,0.0324,0.013523,0.002678,0.000431,0.002586
116152000,0.0324,0.013523,0.002678,0.000431,0.004466
116153000,0.0324,0.013523,0.002678,0.000431,0.001880
116154000,0.0324,0.013523,0.002678,0.000431,0.001880
116155000,0.0324,0.013523,0.002678,0.000431,0.001763
116156000,0.0324,0.013523,0.002678,0.000431,0.001528
116157000,0.0324,0.013523,0.002678,0.000431,0.001880
116158000,0.0324,0.013523,0.002678,0.000431,0.001880
116159000,0.0324,0.013523,0.002678,0.000431,0.001645
116160000,0.0324,0.013523,0.002678,0.000431,0.001645
116161000,0.0324,0.013523,0.002678,0.000431,0.001880
116162000,0.0324,0.013523,0.002678,0.000431,0.001763
116163000,0.0324,0.013523,0.002678,0.000431,0.001763
116164000,0.0324,0.013523,0.002678,0.000431,0.001645
116165000,0.0324,0.013523,0.002678,0.000431,0.001880
116166000,0.0324,0.013523,0.002678,0.000431,0.001645
116167000,0.0324,0.013523,0.002678,0.000431,0.001763
116168000,0.0324,0.013523,0.002678,0.000431,0.001763
116169000,0.0324,0.013523,0.002678,0.000431,0.001880
116170000,0.0324,0.013523,0.002678,0.000431,0.001645
116171000,0.0324,0.013523,0.002678,0.000431,0.001645
116172000,0.0324,0.013523,0.002678,0.000431,0.002938
116173000,0.0324,0.013523,0.002678,0.000431,0.000940
116174000,0.0324,0.013523,0.002678,0.000431,0.000823
116175000,0.0324,0.013523,0.002678,0.000431,0.000823
116176000,0.0324,0.013523,0.002678,0.000431,0.000940
116177000,0.0324,0.013523,0.002678,0.000431,0.000940
116178000,0.0324,0.013523,0.002678,0.000431,0.000940
116179000,0.0324,0.013523,0.002678,0.000431,0.000705
116180000,0.0324,0.013523,0.002678,0.000431,0.000940
116181000,0.0324,0.013523,0.002678,0.000431,0.000940
116182000,0.0324,0.013523,0.002678,0.000431,0.000823
116183000,0.0324,0.013523,0.002678,0.000431,0.000823
116184000,0.0324,0.013523,0.002678,0.000431,0.000940
116185000,0.0324,0.013523,0.002678,0.000431,0.000940
116186000,0.0324,0.013523,0.002678,0.000431,0.000823
116187000,0.0324,0.013523,0.002678,0.000431,0.000823
116188000,0.0324,0.013523,0.002678,0.000431,0.000940
116189000,0.0324,0.013523,0.002678,0.000431,0.000940
116190000,0.0324,0.013523,0.002678,0.000431,0.000940
116191000,0.0324,0.013523,0.002678,0.000431,0.000705
116192000,0.0324,0.013523,0.002678,0.000431,0.000940
116193000,0.0324,0.013523,0.002678,0.000431,0.000940
116194000,0.0324,0.013523,0.002678,0.000431,0.000823
116195000,0.0324,0.013523,0.002678,0.000431,0.000940
116196000,0.0324,0.013523,0.002678,0.000431,0.000823
116197000,0.0324,0.013523,0.002678,0.000431,0.000940
116198000,0.0324,0.013523,0.002678,0.000431,0.000823
116199000,0.0324,0.013523,0.002678,0.000431,0.000823
116200000,0.0324,0.013523,0.002678,0.000431,0.000940
116201000,0.0324,0.013523,0.002678,0.000431,0.000823
116202000,0.0324,0.013523,0.002678,0.000431,0.000823
116203000,0.0324,0.013523,0.002678,0.000431,0.000940
116204000,0.0324,0.013523,0.002678,0.000431,0.000940
116205000,0.0324,0.013523,0.002678,0.000431,0.000940
116206000,0.0324,0.013523,0.002678,0.000431,0.000705
116207000,0.0324,0.013523,0.002678,0.000431,0.000940
116208000,0.0324,0.013523,0.002678,0.000431,0.000940
116209000,0.0324,0.013523,0.002678,0.000431,0.000823
116210000,0.0324,0.013523,0.002678,0.000431,0.000823
116211000,0.0324,0.013523,0.002678,0.000431,0.000940
116212000,0.0324,0.013523,0.002678,0.000431,0.000940
116213000,0.0324,0.013523,0.002678,0.000431,0.000823
116214000,0.0324,0.013523,0.002678,0.000431,0.000823
116215000,0.0324,0.013523,0.002678,0.000431,0.000940
116216000,0.0324,0.013523,0.002678,0.000431,0.000823
116217000,0.0324,0.013523,0.002678,0.000431,0.000940
116218000,0.0324,0.013523,0.002678,0.000431,0.000823
116219000,0.0324,0.013523,0.002678,0.000431,0.000940
116220000,0.0324,0.013523,0.002678,0.000431,0.000823
116221000,0.0324,0.013523,0.002678,0.000431,0.000823
116222000,0.0324,0.013523,0.002678,0.000431,0.000940
116223000,0.0324,0.013523,0.002678,0.000431,0.000940
116224000,0.0324,0.013523,0.002678,0.000431,0.000823
116225000,0.0324,0.013523,0.002678,0.000431,0.000823
116226000,0.0324,0.013523,0.002678,0.000431,0.000940
116227000,0.0324,0.013523,0.002678,0.000431,0.000940
116228000,0.0324,0.013523,0.002678,0.000431,0.000823
116229000,0.0324,0.013523,0.002678,0.000431,0.000823
116230000,0.0324,0.013523,0.002678,0.000431,0.000940
116231000,0.0324,0.013523,0.002678,0.000431,0.000940
116232000,0.0324,0.013523,0.002678,0.000431,0.000823
116233000,0.0324,0.013523,0.002678,0.000431,0.000823
116234000,0.0324,0.013523,0.002678,0.000431,0.000940
116235000,0.0324,0.013523,0.002678,0.000431,0.000823
116236000,0.0324,0.013523,0.002678,0.000431,0.000940
116237000,0.0324,0.013523,0.002678,0.000431,0.000823
116238000,0.0324,0.013523,0.002678,0.000431,0.000940
116239000,0.0324,0.013523,0.002678,0.000431,0.000823
116240000,0.0324,0.013523,0.002678,0.000431,0.000823
116241000,0.0324,0.013523,0.002678,0.000431,0.000940
116242000,0.0324,0.013523,0.002678,0.000431,0.000940
116243000,0.0324,0.013523,0.002678,0.000431,0.000705
116244000,0.0324,0.013523,0.002678,0.000431,0.000940
116245000,0.0324,0.013523,0.002678,0.000431,0.000940
116246000,0.0324,0.013523,0.002678,0.000431,0.000940
116247000,0.0324,0.013523,0.002678,0.000431,0.000705
116248000,0.0324,0.013523,0.002678,0.000431,0.000940
116249000,0.0324,0.013523,0.002678,0.000431,0.000940
116250000,0.0324,0.013523,0.002678,0.000431,0.000823
116251000,0.0324,0.013523,0.002678,0.000431,0.000823
116252000,0.0324,0.013523,0.002678,0.000431,0.000940
116253000,0.0324,0.013523,0.002678,0.000431,0.000940
116254000,0.0324,0.013523,0.002678,0.000431,0.000823
116255000,0.0324,0.013523,0.002678,0.000431,0.000823
116256000,0.0324,0.013523,0.002678,0.000431,0.000940
116257000,0.0324,0.013523,0.002678,0.000431,0.000823
116258000,0.0324,0.013523,0.002678,0.000431,0.000940
116259000,0.0324,0.013523,0.002678,0.000431,0.000823
116260000,0.0324,0.013523,0.002678,0.000431,0.000940
116261000,0.0324,0.013523,0.002678,0.000431,0.000940
116262000,0.0324,0.013523,0.002678,0.000431,0.000705
116263000,0.0324,0.013523,0.002678,0.000431,0.000940
116264000,0.0324,0.013523,0.002678,0.000431,0.000940
116265000,0.0324,0.013523,0.002678,0.000431,0.000940
116266000,0.0324,0.013523,0.002678,0.000431,0.000705
116267000,0.0324,0.013523,0.002678,0.000431,0.000940
116268000,0.0324,0.013523,0.002678,0.000431,0.000940
116269000,0.0324,0.013523,0.002678,0.000431,0.000823
116270000,0.0324,0.013523,0.002678,0.000431,0.000823
116271000,0.0324,0.013523,0.002678,0.000431,0.000940
116272000,0.0324,0.013523,0.002678,0.000431,0.000940
116273000,0.0324,0.013523,0.002678,0.000431,0.000823
116274000,0.0324,0.013523,0.002678,0.000431,0.000823
116275000,0.0324,0.013523,0.002678,0.000431,0.000940
116276000,0.0324,0.013523,0.002678,0.000431,0.000823
116277000,0.0324,0.013523,0.002678,0.000431,0.000940
116278000,0.0324,0.013523,0.002678,0.000431,0.000823
116279000,0.0324,0.013523,0.002678,0.000431,0.000940
116280000,0.0324,0.013523,0.002678,0.000431,0.000823
116281000,0.0324,0.013523,0.002678,0.000431,0.000823
116282000,0.0324,0.013523,0.002678,0.000431,0.000940
116283000,0.0324,0.013523,0.002678,0.000431,0.000940
116284000,0.0324,0.013523,0.002678,0.000431,0.000823
116285000,0.0324,0.013523,0.002678,0.000431,0.000823
116286000,0.0324,0.013523,0.002678,0.000431,0.000940
116287000,0.0324,0.013523,0.002678,0.000431,0.000940
116288000,0.0324,0.013523,0.002678,0.000431,0.000823
116289000,0.0324,0.013523,0.002678,0.000431,0.000823
116290000,0.0324,0.013523,0.002678,0.000431,0.000940
116291000,0.0324,0.013523,0.002678,0.000431,0.000823
116292000,0.0324,0.013523,0.002678,0.000431,0.000940
116293000,0.0324,0.013523,0.002678,0.000431,0.000823
116294000,0.0324,0.013523,0.002678,0.000431,0.000940
116295000,0.0324,0.013523,0.002678,0.000431,0.000823
116296000,0.0324,0.013523,0.002678,0.000431,0.000823
116297000,0.0324,0.013523,0.002678,0.000431,0.000940
116298000,0.0324,0.013523,0.002678,0.000431,0.000940
116299000,0.0324,0.013523,0.002678,0.000431,0.000823
116300000,0.0324,0.013523,0.002678,0.000431,0.000823
116301000,0.0324,0.013523,0.002678,0.000431,0.000940
116302000,0.0324,0.013523,0.002678,0.000431,0.000940
116303000,0.0324,0.013523,0.002678,0.000431,0.000705
116304000,0.0324,0.013523,0.002678,0.000431,0.000940
116305000,0.0324,0.013523,0.002678,0.000431,0.000940
116306000,0.0324,0.013523,0.002678,0.000431,0.000940
116307000,0.0324,0.013523,0.002678,0.000431,0.000705
116308000,0.0324,0.013523,0.002678,0.000431,0.000940
116309000,0.0324,0.013523,0.002678,0.000431,0.000940
116310000,0.0324,0.013523,0.002678,0.000431,0.000823
116311000,0.0324,0.013523,0.002678,0.000431,0.000823
116312000,0.0324,0.013523,0.002678,0.000431,0.000940
116313000,0.0324,0.013523,0.002678,0.000431,0.000940
116314000,0.0324,0.013523,0.002678,0.000431,0.000823
116315000,0.0324,0.013523,0.002678,0.000431,0.000823
116316000,0.0324,0.013523,0.002678,0.000431,0.000940
116317000,0.0324,0.013523,0.002678,0.000431,0.000823
116318000,0.0324,0.013523,0.002678,0.000431,0.000940
116319000,0.0324,0.013523,0.002678,0.000431,0.000823
116320000,0.0324,0.013523,0.002678,0.000431,0.000940
116321000,0.0324,0.013523,0.002678,0.000431,0.000940
116322000,0.0324,0.013523,0.002678,0.000431,0.000705
116323000,0.0324,0.013523,0.002678,0.000431,0.000940
116324000,0.0324,0.013523,0.002678,0.000431,0.000940
116325000,0.0324,0.013523,0.002678,0.000431,0.000940
116326000,0.0324,0.013523,0.002678,0.000431,0.000705
116327000,0.0324,0.013523,0.002678,0.000431,0.000940
116328000,0.0324,0.013523,0.002678,0.000431,0.000940
116329000,0.0324,0.013523,0.002678,0.000431,0.000823
116330000,0.0324,0.013523,0.002678,0.000431,0.000823
116331000,0.0324,0.013523,0.002678,0.000431,0.000940
116332000,0.0324,0.013523,0.002678,0.000431,0.000823
116333000,0.0324,0.013523,0.002678,0.000431,0.000940
116334000,0.0324,0.013523,0.002678,0.000431,0.000823
116335000,0.0324,0.013523,0.002678,0.000431,0.000940
116336000,0.0324,0.013523,0.002678,0.000431,0.000823
116337000,0.0324,0.013523,0.002678,0.000431,0.000823
116338000,0.0324,0.013523,0.002678,0.000431,0.000940
116339000,0.0324,0.013523,0.002678,0.000431,0.000940
116340000,0.0324,0.013523,0.002678,0.000431,0.000823
116341000,0.0324,0.013523,0.002678,0.000431,0.000823
116342000,0.0324,0.013523,0.002678,0.000431,0.000940
116343000,0.0324,0.013523,0.002678,0.000431,0.000940
116344000,0.0324,0.013523,0.002678,0.000431,0.000705
116345000,0.0324,0.013523,0.002678,0.000431,0.209083
116346000,0.0324,0.013523,0.002678,0.000431,0.616788
116347000,0.0324,0.013523,0.002678,0.000431,0.378793
116348000,0.0324,0.013523,0.002678,0.000431,0.131397
116349000,0.0324,0.013523,0.002678,0.000431,0.132807
116350000,0.0324,0.013523,0.002678,0.000431,0.598218
116351000,0.0324,0.013523,0.002678,0.000431,0.231648
116352000,0.0324,0.013523,0.002678,0.000431,0.277719
116353000,0.0324,0.013523,0.002678,0.000431,0.251863
116354000,0.0324,0.013523,0.002678,0.000431,0.143854
116355000,0.0324,0.013523,0.002678,0.000431,0.168300
116356000,0.0324,0.013523,0.002678,0.000431,0.104130
116357000,0.0324,0.013523,0.002678,0.000431,0.446137
116358000,0.0324,0.013523,0.002678,0.000431,0.125168
116359000,0.0324,0.013523,0.002678,0.000431,0.045954
116360000,0.0324,0.013523,0.002678,0.000431,0.039607
116361000,0.0324,0.013523,0.002678,0.000431,0.037727
116362000,0.0324,0.013523,0.002678,0.000431,0.030440
116363000,0.0324,0.013523,0.002678,0.000431,0.029382
116364000,0.0324,0.013523,0.002678,0.000431,0.024093
116365000,0.0324,0.013523,0.002678,0.000431,0.015396
116366000,0.0324,0.013523,0.002678,0.000431,0.019862
116367000,0.0324,0.013523,0.002678,0.000431,0.010342
116368000,0.0324,0.013523,0.002678,0.000431,0.011518
116369000,0.0324,0.013523,0.002678,0.000431,0.008227
116370000,0.0324,0.013523,0.002678,0.000431,0.007992
116371000,0.0324,0.013523,0.002678,0.000431,0.008932
116372000,0.0324,0.013523,0.002678,0.000431,0.006347
116373000,0.0324,0.013523,0.002678,0.000431,0.007052
116374000,0.0324,0.013523,0.002678,0.000431,0.008580
116375000,0.0324,0.013523,0.002678,0.000431,0.005876
116376000,0.0324,0.013523,0.002678,0.000431,0.005876
116377000,0.0324,0.013523,0.002678,0.000431,0.006111
116378000,0.0324,0.013523,0.002678,0.000431,0.006229
116379000,0.0324,0.013523,0.002678,0.000431,0.005759
116380000,0.0324,0.013523,0.002678,0.000431,0.006111
116381000,0.0324,0.013523,0.002678,0.000431,0.005759
116382000,0.0324,0.013523,0.002678,0.000431,0.006347
116383000,0.0324,0.013523,0.002678,0.000431,0.005759
116384000,0.0324,0.013523,0.002678,0.000431,0.006111
116385000,0.0324,0.013523,0.002678,0.000431,0.009520
116386000,0.0324,0.013523,0.002678,0.000431,0.005171
116387000,0.0324,0.013523,0.002678,0.000431,0.005289
116388000,0.0324,0.013523,0.002678,0.000431,0.004936
116389000,0.0324,0.013523,0.002678,0.000431,0.005171
116390000,0.0324,0.013523,0.002678,0.000431,0.005171
116391000,0.0324,0.013523,0.002678,0.000431,0.005289
116392000,0.0324,0.013523,0.002678,0.000431,0.005171
116393000,0.0324,0.013523,0.002678,0.000431,0.004936
116394000,0.0324,0.013523,0.002678,0.000431,0.005406
116395000,0.0324,0.013523,0.002678,0.000431,0.004936
116396000,0.0324,0.013523,0.002678,0.000431,0.005054
116397000,0.0324,0.013523,0.002678,0.000431,0.005759
116398000,0.0324,0.013523,0.002678,0.000431,0.004936
116399000,0.0324,0.013523,0.002678,0.000431,0.006111
116400000,0.0324,0.013523,0.002678,0.000431,0.003643
116401000,0.0324,0.013523,0.002678,0.000431,0.003643
116402000,0.0324,0.013523,0.002678,0.000431,0.003408
116403000,0.0324,0.013523,0.002678,0.000431,0.003291
116404000,0.0324,0.013523,0.002678,0.000431,0.003643
116405000,0.0324,0.013523,0.002678,0.000431,0.003526
116406000,0.0324,0.013523,0.002678,0.000431,0.003291
116407000,0.0324,0.013523,0.002678,0.000431,0.003408
116408000,0.0324,0.013523,0.002678,0.000431,0.003526
116409000,0.0324,0.013523,0.002678,0.000431,0.003643
116410000,0.0324,0.013523,0.002678,0.000431,0.004819
116411000,0.0324,0.013523,0.002678,0.000431,0.002586
116412000,0.0324,0.013523,0.002678,0.000431,0.002586
116413000,0.0324,0.013523,0.002678,0.000431,0.002586
116414000,0.0324,0.013523,0.002678,0.000431,0.002703
116415000,0.0324,0.013523,0.002678,0.000431,0.002351
116416000,0.0324,0.013523,0.002678,0.000431,0.002703
116417000,0.0324,0.013523,0.002678,0.000431,0.002703
116418000,0.0324,0.013523,0.002678,0.000431,0.002468
116419000,0.0324,0.013523,0.002678,0.000431,0.002703
116420000,0.0324,0.013523,0.002678,0.000431,0.002468
116421000,0.0324,0.013523,0.002678,0.000431,0.004584
116422000,0.0324,0.013523,0.002678,0.000431,0.001645
116423000,0.0324,0.013523,0.002678,0.000431,0.001763
116424000,0.0324,0.013523,0.002678,0.000431,0.001763
116425000,0.0324,0.013523,0.002678,0.000431,0.001645
116426000,0.0324,0.013523,0.002678,0.000431,0.001763
116427000,0.0324,0.013523,0.002678,0.000431,0.001645
116428000,0.0324,0.013523,0.002678,0.000431,0.001763
116429000,0.0324,0.013523,0.002678,0.000431,0.001763
116430000,0.0324,0.013523,0.002678,0.000431,0.001645
116431000,0.0324,0.013523,0.002678,0.000431,0.001645
116432000,0.0324,0.013523,0.002678,0.000431,0.001763
116433000,0.0324,0.013523,0.002678,0.000431,0.001880
116434000,0.0324,0.013523,0.002678,0.000431,0.001528
116435000,0.0324,0.013523,0.002678,0.000431,0.001763
116436000,0.0324,0.013523,0.002678,0.000431,0.001763
116437000,0.0324,0.013523,0.002678,0.000431,0.001645
116438000,0.0324,0.013523,0.002678,0.000431,0.001645
116439000,0.0324,0.013523,0.002678,0.000431,0.001763
116440000,0.0324,0.013523,0.002678,0.000431,0.001880
116441000,0.0324,0.013523,0.002678,0.000431,0.001528
116442000,0.0324,0.013523,0.002678,0.000431,0.001763
116443000,0.0324,0.013523,0.002678,0.000431,0.001645
116444000,0.0324,0.013523,0.002678,0.000431,0.001880
116445000,0.0324,0.013523,0.002678,0.000431,0.001645
116446000,0.0324,0.013523,0.002678,0.000431,0.001645
116447000,0.0324,0.013523,0.002678,0.000431,0.002938
116448000,0.0324,0.013523,0.002678,0.000431,0.000940
116449000,0.0324,0.013523,0.002678,0.000431,0.000705
116450000,0.0324,0.013523,0.002678,0.000431,0.000940
116451000,0.0324,0.013523,0.002678,0.000431,0.000940
116452000,0.0324,0.013523,0.002678,0.000431,0.000940
116453000,0.0324,0.013523,0.002678,0.000431,0.000705
116454000,0.0324,0.013523,0.002678,0.000431,0.000940
116455000,0.0324,0.013523,0.002678,0.000431,0.000940
116456000,0.0324,0.013523,0.002678,0.000431,0.000823
116457000,0.0324,0.013523,0.002678,0.000431,0.000823
116458000,0.0324,0.013523,0.002678,0.000431,0.000940
116459000,0.0324,0.013523,0.002678,0.000431,0.000940
116460000,0.0324,0.013523,0.002678,0.000431,0.000823
116461000,0.0324,0.013523,0.002678,0.000431,0.000823
116462000,0.0324,0.013523,0.002678,0.000431,0.001998
116463000,0.0324,0.013523,0.002678,0.000431,0.349294
116464000,0.0324,0.013523,0.002678,0.000431,0.684602
116465000,0.0324,0.013523,0.002678,0.000431,0.158310
116466000,0.0324,0.013523,0.002678,0.000431,0.133042
116467000,0.0324,0.013523,0.002678,0.000431,0.133042
116468000,0.0324,0.013523,0.002678,0.000431,0.598571
116469000,0.0324,0.013523,0.002678,0.000431,0.233058
116470000,0.0324,0.013523,0.002678,0.000431,0.270785
116471000,0.0324,0.013523,0.002678,0.000431,0.234939
116472000,0.0324,0.013523,0.002678,0.000431,0.135628
116473000,0.0324,0.013523,0.002678,0.000431,0.143032
116474000,0.0324,0.013523,0.002678,0.000431,0.125285
116475000,0.0324,0.013523,0.002678,0.000431,0.313565
116476000,0.0324,0.013523,0.002678,0.000431,0.332722
116477000,0.0324,0.013523,0.002678,0.000431,0.104365
116478000,0.0324,0.013523,0.002678,0.000431,0.085561
116479000,0.0324,0.013523,0.002678,0.000431,0.061585
116480000,0.0324,0.013523,0.002678,0.000431,0.060292
116481000,0.0324,0.013523,0.002678,0.000431,0.056178
116482000,0.0324,0.013523,0.002678,0.000431,0.042310
116483000,0.0324,0.013523,0.002678,0.000431,0.037374
116484000,0.0324,0.013523,0.002678,0.000431,0.028794
116485000,0.0324,0.013523,0.002678,0.000431,0.021625
116486000,0.0324,0.013523,0.002678,0.000431,0.021390
116487000,0.0324,0.013523,0.002678,0.000431,0.016336
116488000,0.0324,0.013523,0.002678,0.000431,0.019157
116489000,0.0324,0.013523,0.002678,0.000431,0.016219
116490000,0.0324,0.013523,0.002678,0.000431,0.013163
116491000,0.0324,0.013523,0.002678,0.000431,0.014809
116492000,0.0324,0.013523,0.002678,0.000431,0.013516
116493000,0.0324,0.013523,0.002678,0.000431,0.012576
116494000,0.0324,0.013523,0.002678,0.000431,0.011518
116495000,0.0324,0.013523,0.002678,0.000431,0.010107
116496000,0.0324,0.013523,0.002678,0.000431,0.011753
116497000,0.0324,0.013523,0.002678,0.000431,0.010107
116498000,0.0324,0.013523,0.002678,0.000431,0.013281
116499000,0.0324,0.013523,0.002678,0.000431,0.020450
116500000,0.0324,0.013523,0.002678,0.000431,0.007287
116501000,0.0324,0.013523,0.002678,0.000431,0.007874
116502000,0.0324,0.013523,0.002678,0.000431,0.007639
116503000,0.0324,0.013523,0.002678,0.000431,0.009520
116504000,0.0324,0.013523,0.002678,0.000431,0.006582
116505000,0.0324,0.013523,0.002678,0.000431,0.009872
116506000,0.0324,0.013523,0.002678,0.000431,0.006699
116507000,0.0324,0.013523,0.002678,0.000431,0.004936
116508000,0.0324,0.013523,0.002678,0.000431,0.005171
116509000,0.0324,0.013523,0.002678,0.000431,0.007404
116510000,0.0324,0.013523,0.002678,0.000431,0.003526
116511000,0.0324,0.013523,0.002678,0.000431,0.003173
116512000,0.0324,0.013523,0.002678,0.000431,0.003408
116513000,0.0324,0.013523,0.002678,0.000431,0.003643
116514000,0.0324,0.013523,0.002678,0.000431,0.003056
116515000,0.0324,0.013523,0.002678,0.000431,0.003526
116516000,0.0324,0.013523,0.002678,0.000431,0.003408
116517000,0.0324,0.013523,0.002678,0.000431,0.003291
116518000,0.0324,0.013523,0.002678,0.000431,0.003291
116519000,0.0324,0.013523,0.002678,0.000431,0.003526
116520000,0.0324,0.013523,0.002678,0.000431,0.003408
116521000,0.0324,0.013523,0.002678,0.000431,0.003526
116522000,0.0324,0.013523,0.002678,0.000431,0.003173
116523000,0.0324,0.013523,0.002678,0.000431,0.003408
116524000,0.0324,0.013523,0.002678,0.000431,0.003526
116525000,0.0324,0.013523,0.002678,0.000431,0.003408
116526000,0.0324,0.013523,0.002678,0.000431,0.003408
116527000,0.0324,0.013523,0.002678,0.000431,0.003291
116528000,0.0324,0.013523,0.002678,0.000431,0.003526
116529000,0.0324,0.013523,0.002678,0.000431,0.003291
116530000,0.0324,0.013523,0.002678,0.000431,0.003526
116531000,0.0324,0.013523,0.002678,0.000431,0.003291
116532000,0.0324,0.013523,0.002678,0.000431,0.003408
116533000,0.0324,0.013523,0.002678,0.000431,0.003408
116534000,0.0324,0.013523,0.002678,0.000431,0.003173
116535000,0.0324,0.013523,0.002678,0.000431,0.003643
116536000,0.0324,0.013523,0.002678,0.000431,0.003291
116537000,0.0324,0.013523,0.002678,0.000431,0.003291
116538000,0.0324,0.013523,0.002678,0.000431,0.003408
116539000,0.0324,0.013523,0.002678,0.000431,0.005054
116540000,0.0324,0.013523,0.002678,0.000431,0.002586
116541000,0.0324,0.013523,0.002678,0.000431,0.002351
116542000,0.0324,0.013523,0.002678,0.000431,0.002586
116543000,0.0324,0.013523,0.002678,0.000431,0.004349
116544000,0.0324,0.013523,0.002678,0.000431,0.001998
116545000,0.0324,0.013523,0.002678,0.000431,0.001645
116546000,0.0324,0.013523,0.002678,0.000431,0.001645
116547000,0.0324,0.013523,0.002678,0.000431,0.001645
116548000,0.0324,0.013523,0.002678,0.000431,0.001645
116549000,0.0324,0.013523,0.002678,0.000431,0.001763
116550000,0.0324,0.013523,0.002678,0.000431,0.001763
116551000,0.0324,0.013523,0.002678,0.000431,0.001645
116552000,0.0324,0.013523,0.002678,0.000431,0.001645
116553000,0.0324,0.013523,0.002678,0.000431,0.001645
116554000,0.0324,0.013523,0.002678,0.000431,0.003643
116555000,0.0324,0.013523,0.002678,0.000431,0.000823
116556000,0.0324,0.013523,0.002678,0.000431,0.000940
116557000,0.0324,0.013523,0.002678,0.000431,0.000823
116558000,0.0324,0.013523,0.002678,0.000431,0.000940
116559000,0.0324,0.013523,0.002678,0.000431,0.014221
116560000,0.0324,0.013523,0.002678,0.000431,0.556378
116561000,0.0324,0.013523,0.002678,0.000431,0.603860
116562000,0.0324,0.013523,0.002678,0.000431,0.137155
116563000,0.0324,0.013523,0.002678,0.000431,0.132572
116564000,0.0324,0.013523,0.002678,0.000431,0.477282
116565000,0.0324,0.013523,0.002678,0.000431,0.335778
116566000,0.0324,0.013523,0.002678,0.000431,0.291000
116567000,0.0324,0.013523,0.002678,0.000431,0.341184
116568000,0.0324,0.013523,0.002678,0.000431,0.135980
116569000,0.0324,0.013523,0.002678,0.000431,0.175940
116570000,0.0324,0.013523,0.002678,0.000431,0.084268
116571000,0.0324,0.013523,0.002678,0.000431,0.478927
116572000,0.0324,0.013523,0.002678,0.000431,0.078509
116573000,0.0324,0.013523,0.002678,0.000431,0.042545
116574000,0.0324,0.013523,0.002678,0.000431,0.040547
116575000,0.0324,0.013523,0.002678,0.000431,0.032203
116576000,0.0324,0.013523,0.002678,0.000431,0.033848
116577000,0.0324,0.013523,0.002678,0.000431,0.027502
116578000,0.0324,0.013523,0.002678,0.000431,0.028794
116579000,0.0324,0.013523,0.002678,0.000431,0.019627
116580000,0.0324,0.013523,0.002678,0.000431,0.021625
116581000,0.0324,0.013523,0.002678,0.000431,0.018922
116582000,0.0324,0.013523,0.002678,0.000431,0.018099
116583000,0.0324,0.013523,0.002678,0.000431,0.014221
116584000,0.0324,0.013523,0.002678,0.000431,0.016924
116585000,0.0324,0.013523,0.002678,0.000431,0.013633
116586000,0.0324,0.013523,0.002678,0.000431,0.017512
116587000,0.0324,0.013523,0.002678,0.000431,0.013868
116588000,0.0324,0.013523,0.002678,0.000431,0.011988
116589000,0.0324,0.013523,0.002678,0.000431,0.010930
116590000,0.0324,0.013523,0.002678,0.000431,0.011048
116591000,0.0324,0.013523,0.002678,0.000431,0.010695
116592000,0.0324,0.013523,0.002678,0.000431,0.011518
116593000,0.0324,0.013523,0.002678,0.000431,0.012576
116594000,0.0324,0.013523,0.002678,0.000431,0.011283
116595000,0.0324,0.013523,0.002678,0.000431,0.008932
116596000,0.0324,0.013523,0.002678,0.000431,0.007639
116597000,0.0324,0.013523,0.002678,0.000431,0.008815
116598000,0.0324,0.013523,0.002678,0.000431,0.007992
116599000,0.0324,0.013523,0.002678,0.000431,0.010342
116600000,0.0324,0.013523,0.002678,0.000431,0.008345
116601000,0.0324,0.013523,0.002678,0.000431,0.006699
116602000,0.0324,0.013523,0.002678,0.000431,0.008580
116603000,0.0324,0.013523,0.002678,0.000431,0.007287
116604000,0.0324,0.013523,0.002678,0.000431,0.008109
116605000,0.0324,0.013523,0.002678,0.000431,0.007522
116606000,0.0324,0.013523,0.002678,0.000431,0.006464
116607000,0.0324,0.013523,0.002678,0.000431,0.009520
116608000,0.0324,0.013523,0.002678,0.000431,0.007169
116609000,0.0324,0.013523,0.002678,0.000431,0.007522
116610000,0.0324,0.013523,0.002678,0.000431,0.004231
116611000,0.0324,0.013523,0.002678,0.000431,0.004349
116612000,0.0324,0.013523,0.002678,0.000431,0.004819
116613000,0.0324,0.013523,0.002678,0.000431,0.004231
116614000,0.0324,0.013523,0.002678,0.000431,0.004349
116615000,0.0324,0.013523,0.002678,0.000431,0.004701
116616000,0.0324,0.013523,0.002678,0.000431,0.003996
116617000,0.0324,0.013523,0.002678,0.000431,0.004936
116618000,0.0324,0.013523,0.002678,0.000431,0.003878
116619000,0.0324,0.013523,0.002678,0.000431,0.004819
116620000,0.0324,0.013523,0.002678,0.000431,0.004819
116621000,0.0324,0.013523,0.002678,0.000431,0.003643
116622000,0.0324,0.013523,0.002678,0.000431,0.006111
116623000,0.0324,0.013523,0.002678,0.000431,0.003526
116624000,0.0324,0.013523,0.002678,0.000431,0.003408
116625000,0.0324,0.013523,0.002678,0.000431,0.003878
116626000,0.0324,0.013523,0.002678,0.000431,0.003056
116627000,0.0324,0.013523,0.002678,0.000431,0.004231
116628000,0.0324,0.013523,0.002678,0.000431,0.003408
116629000,0.0324,0.013523,0.002678,0.000431,0.003643
116630000,0.0324,0.013523,0.002678,0.000431,0.003643
116631000,0.0324,0.013523,0.002678,0.000431,0.003291
116632000,0.0324,0.013523,0.002678,0.000431,0.004349
116633000,0.0324,0.013523,0.002678,0.000431,0.003056
116634000,0.0324,0.013523,0.002678,0.000431,0.003761
116635000,0.0324,0.013523,0.002678,0.000431,0.003526
116636000,0.0324,0.013523,0.002678,0.000431,0.003408
116637000,0.0324,0.013523,0.002678,0.000431,0.004113
116638000,0.0324,0.013523,0.002678,0.000431,0.003526
116639000,0.0324,0.013523,0.002678,0.000431,0.003291
116640000,0.0324,0.013523,0.002678,0.000431,0.003996
116641000,0.0324,0.013523,0.002678,0.000431,0.003173
116642000,0.0324,0.013523,0.002678,0.000431,0.003996
116643000,0.0324,0.013523,0.002678,0.000431,0.003761
116644000,0.0324,0.013523,0.002678,0.000431,0.003173
116645000,0.0324,0.013523,0.002678,0.000431,0.004349
116646000,0.0324,0.013523,0.002678,0.000431,0.001763
116647000,0.0324,0.013523,0.002678,0.000431,0.002351
116648000,0.0324,0.013523,0.002678,0.000431,0.001880
116649000,0.0324,0.013523,0.002678,0.000431,0.003173
116650000,0.0324,0.013523,0.002678,0.000431,0.001410
116651000,0.0324,0.013523,0.002678,0.000431,0.000940
116652000,0.0324,0.013523,0.002678,0.000431,0.001410
116653000,0.0324,0.013523,0.002678,0.000431,0.001293
116654000,0.0324,0.013523,0.002678,0.000431,0.003056
116655000,0.0324,0.013523,0.002678,0.000431,0.398185
116656000,0.0324,0.013523,0.002678,0.000431,0.669323
116657000,0.0324,0.013523,0.002678,0.000431,0.131632
116658000,0.0324,0.013523,0.002678,0.000431,0.133512
116659000,0.0324,0.013523,0.002678,0.000431,0.156783
116660000,0.0324,0.013523,0.002678,0.000431,0.582940
116661000,0.0324,0.013523,0.002678,0.000431,0.253861
116662000,0.0324,0.013523,0.002678,0.000431,0.291000
116663000,0.0324,0.013523,0.002678,0.000431,0.251040
116664000,0.0324,0.013523,0.002678,0.000431,0.138331
116665000,0.0324,0.013523,0.002678,0.000431,0.157018
116666000,0.0324,0.013523,0.002678,0.000431,0.139623
116667000,0.0324,0.013523,0.002678,0.000431,0.476694
116668000,0.0324,0.013523,0.002678,0.000431,0.064876
116669000,0.0324,0.013523,0.002678,0.000431,0.036081
116670000,0.0324,0.013523,0.002678,0.000431,0.028559
116671000,0.0324,0.013523,0.002678,0.000431,0.025739
116672000,0.0324,0.013523,0.002678,0.000431,0.022800
116673000,0.0324,0.013523,0.002678,0.000431,0.019275
116674000,0.0324,0.013523,0.002678,0.000431,0.017864
116675000,0.0324,0.013523,0.002678,0.000431,0.012811
116676000,0.0324,0.013523,0.002678,0.000431,0.011518
116677000,0.0324,0.013523,0.002678,0.000431,0.007757
116678000,0.0324,0.013523,0.002678,0.000431,0.008109
116679000,0.0324,0.013523,0.002678,0.000431,0.008462
116680000,0.0324,0.013523,0.002678,0.000431,0.007639
116681000,0.0324,0.013523,0.002678,0.000431,0.008697
116682000,0.0324,0.013523,0.002678,0.000431,0.009990
116683000,0.0324,0.013523,0.002678,0.000431,0.008462
116684000,0.0324,0.013523,0.002678,0.000431,0.005876
116685000,0.0324,0.013523,0.002678,0.000431,0.006111
116686000,0.0324,0.013523,0.002678,0.000431,0.005289
116687000,0.0324,0.013523,0.002678,0.000431,0.006347
116688000,0.0324,0.013523,0.002678,0.000431,0.005759
116689000,0.0324,0.013523,0.002678,0.000431,0.005876
116690000,0.0324,0.013523,0.002678,0.000431,0.006229
116691000,0.0324,0.013523,0.002678,0.000431,0.005289
116692000,0.0324,0.013523,0.002678,0.000431,0.007522
116693000,0.0324,0.013523,0.002678,0.000431,0.005406
116694000,0.0324,0.013523,0.002678,0.000431,0.005289
116695000,0.0324,0.013523,0.002678,0.000431,0.004349
116696000,0.0324,0.013523,0.002678,0.000431,0.003408
116697000,0.0324,0.013523,0.002678,0.000431,0.006699
116698000,0.0324,0.013523,0.002678,0.000431,0.002586
116699000,0.0324,0.013523,0.002678,0.000431,0.002703
116700000,0.0324,0.013523,0.002678,0.000431,0.002468
116701000,0.0324,0.013523,0.002678,0.000431,0.002821
116702000,0.0324,0.013523,0.002678,0.000431,0.002468
116703000,0.0324,0.013523,0.002678,0.000431,0.002586
116704000,0.0324,0.013523,0.002678,0.000431,0.002703
116705000,0.0324,0.013523,0.002678,0.000431,0.002468
116706000,0.0324,0.013523,0.002678,0.000431,0.002586
116707000,0.0324,0.013523,0.002678,0.000431,0.002703
116708000,0.0324,0.013523,0.002678,0.000431,0.002703
116709000,0.0324,0.013523,0.002678,0.000431,0.002586
116710000,0.0324,0.013523,0.002678,0.000431,0.002468
116711000,0.0324,0.013523,0.002678,0.000431,0.002586
116712000,0.0324,0.013523,0.002678,0.000431,0.002703
116713000,0.0324,0.013523,0.002678,0.000431,0.002586
116714000,0.0324,0.013523,0.002678,0.000431,0.002586
116715000,0.0324,0.013523,0.002678,0.000431,0.002468
116716000,0.0324,0.013523,0.002678,0.000431,0.002586
116717000,0.0324,0.013523,0.002678,0.000431,0.002821
116718000,0.0324,0.013523,0.002678,0.000431,0.002351
116719000,0.0324,0.013523,0.002678,0.000431,0.002821
116720000,0.0324,0.013523,0.002678,0.000431,0.002586
116721000,0.0324,0.013523,0.002678,0.000431,0.002351
116722000,0.0324,0.013523,0.002678,0.000431,0.002821
116723000,0.0324,0.013523,0.002678,0.000431,0.002586
116724000,0.0324,0.013523,0.002678,0.000431,0.002586
116725000,0.0324,0.013523,0.002678,0.000431,0.002586
116726000,0.0324,0.013523,0.002678,0.000431,0.002468
116727000,0.0324,0.013523,0.002678,0.000431,0.002703
116728000,0.0324,0.013523,0.002678,0.000431,0.002703
116729000,0.0324,0.013523,0.002678,0.000431,0.002586
116730000,0.0324,0.013523,0.002678,0.000431,0.002586
116731000,0.0324,0.013523,0.002678,0.000431,0.002586
116732000,0.0324,0.013523,0.002678,0.000431,0.002586
116733000,0.0324,0.013523,0.002678,0.000431,0.004349
116734000,0.0324,0.013523,0.002678,0.000431,0.001645
116735000,0.0324,0.013523,0.002678,0.000431,0.001880
116736000,0.0324,0.013523,0.002678,0.000431,0.001528
116737000,0.0324,0.013523,0.002678,0.000431,0.001998
116738000,0.0324,0.013523,0.002678,0.000431,0.001645
116739000,0.0324,0.013523,0.002678,0.000431,0.001763
116740000,0.0324,0.013523,0.002678,0.000431,0.001880
116741000,0.0324,0.013523,0.002678,0.000431,0.001528
116742000,0.0324,0.013523,0.002678,0.000431,0.002116
116743000,0.0324,0.013523,0.002678,0.000431,0.001528
116744000,0.0324,0.013523,0.002678,0.000431,0.001880
116745000,0.0324,0.013523,0.002678,0.000431,0.001763
116746000,0.0324,0.013523,0.002678,0.000431,0.001645
116747000,0.0324,0.013523,0.002678,0.000431,0.001880
116748000,0.0324,0.013523,0.002678,0.000431,0.001645
116749000,0.0324,0.013523,0.002678,0.000431,0.001880
116750000,0.0324,0.013523,0.002678,0.000431,0.002351
116751000,0.0324,0.013523,0.002678,0.000431,0.001998
116752000,0.0324,0.013523,0.002678,0.000431,0.000940
116753000,0.0324,0.013523,0.002678,0.000431,0.000940
116754000,0.0324,0.013523,0.002678,0.000431,0.001058
116755000,0.0324,0.013523,0.002678,0.000431,0.000823
116756000,0.0324,0.013523,0.002678,0.000431,0.000940
116757000,0.0324,0.013523,0.002678,0.000431,0.000940
116758000,0.0324,0.013523,0.002678,0.000431,0.000940
116759000,0.0324,0.013523,0.002678,0.000431,0.000823
116760000,0.0324,0.013523,0.002678,0.000431,0.001058
116761000,0.0324,0.013523,0.002678,0.000431,0.000823
116762000,0.0324,0.013523,0.002678,0.000431,0.001058
116763000,0.0324,0.013523,0.002678,0.000431,0.000940
116764000,0.0324,0.013523,0.002678,0.000431,0.000705
116765000,0.0324,0.013523,0.002678,0.000431,0.001175
116766000,0.0324,0.013523,0.002678,0.000431,0.000705
116767000,0.0324,0.013523,0.002678,0.000431,0.001058
116768000,0.0324,0.013523,0.002678,0.000431,0.000940
116769000,0.0324,0.013523,0.002678,0.000431,0.000823
116770000,0.0324,0.013523,0.002678,0.000431,0.001058
116771000,0.0324,0.013523,0.002678,0.000431,0.000823
116772000,0.0324,0.013523,0.002678,0.000431,0.000940
116773000,0.0324,0.013523,0.002678,0.000431,0.000940
116774000,0.0324,0.013523,0.002678,0.000431,0.000940
116775000,0.0324,0.013523,0.002678,0.000431,0.000940
116776000,0.0324,0.013523,0.002678,0.000431,0.000940
116777000,0.0324,0.013523,0.002678,0.000431,0.000940
116778000,0.0324,0.013523,0.002678,0.000431,0.000940
116779000,0.0324,0.013523,0.002678,0.000431,0.000823
116780000,0.0324,0.013523,0.002678,0.000431,0.001058
116781000,0.0324,0.013523,0.002678,0.000431,0.000940
116782000,0.0324,0.013523,0.002678,0.000431,0.000823
116783000,0.0324,0.013523,0.002678,0.000431,0.001058
116784000,0.0324,0.013523,0.002678,0.000431,0.000823
116785000,0.0324,0.013523,0.002678,0.000431,0.001058
116786000,0.0324,0.013523,0.002678,0.000431,0.000823
116787000,0.0324,0.013523,0.002678,0.000431,0.000940
116788000,0.0324,0.013523,0.002678,0.000431,0.000940
116789000,0.0324,0.013523,0.002678,0.000431,0.000823
116790000,0.0324,0.013523,0.002678,0.000431,0.001175
116791000,0.0324,0.013523,0.002678,0.000431,0.000705
116792000,0.0324,0.013523,0.002678,0.000431,0.001058
116793000,0.0324,0.013523,0.002678,0.000431,0.000940
116794000,0.0324,0.013523,0.002678,0.000431,0.000823
116795000,0.0324,0.013523,0.002678,0.000431,0.000940
116796000,0.0324,0.013523,0.002678,0.000431,0.000940
116797000,0.0324,0.013523,0.002678,0.000431,0.001058
116798000,0.0324,0.013523,0.002678,0.000431,0.000823
116799000,0.0324,0.013523,0.002678,0.000431,0.000940
116800000,0.0324,0.013523,0.002678,0.000431,0.000940
116801000,0.0324,0.013523,0.002678,0.000431,0.000940
116802000,0.0324,0.013523,0.002678,0.000431,0.000823
116803000,0.0324,0.013523,0.002678,0.000431,0.001058
116804000,0.0324,0.013523,0.002678,0.000431,0.000940
116805000,0.0324,0.013523,0.002678,0.000431,0.000940
116806000,0.0324,0.013523,0.002678,0.000431,0.000940
116807000,0.0324,0.013523,0.002678,0.000431,0.000705
116808000,0.0324,0.013523,0.002678,0.000431,0.001175
116809000,0.0324,0.013523,0.002678,0.000431,0.000823
116810000,0.0324,0.013523,0.002678,0.000431,0.001058
116811000,0.0324,0.013523,0.002678,0.000431,0.000823
116812000,0.0324,0.013523,0.002678,0.000431,0.000823
116813000,0.0324,0.013523,0.002678,0.000431,0.001058
116814000,0.0324,0.013523,0.002678,0.000431,0.000823
116815000,0.0324,0.013523,0.002678,0.000431,0.001058
116816000,0.0324,0.013523,0.002678,0.000431,0.000823
116817000,0.0324,0.013523,0.002678,0.000431,0.000940
116818000,0.0324,0.013523,0.002678,0.000431,0.000940
116819000,0.0324,0.013523,0.002678,0.000431,0.000940
116820000,0.0324,0.013523,0.002678,0.000431,0.000940
116821000,0.0324,0.013523,0.002678,0.000431,0.000940
116822000,0.0324,0.013523,0.002678,0.000431,0.000940
116823000,0.0324,0.013523,0.002678,0.000431,0.000940
116824000,0.0324,0.013523,0.002678,0.000431,0.000940
116825000,0.0324,0.013523,0.002678,0.000431,0.000940
116826000,0.0324,0.013523,0.002678,0.000431,0.000940
116827000,0.0324,0.013523,0.002678,0.000431,0.000823
116828000,0.0324,0.013523,0.002678,0.000431,0.001058
116829000,0.0324,0.013523,0.002678,0.000431,0.000823
116830000,0.0324,0.013523,0.002678,0.000431,0.000940
116831000,0.0324,0.013523,0.002678,0.000431,0.001058
116832000,0.0324,0.013523,0.002678,0.000431,0.000705
116833000,0.0324,0.013523,0.002678,0.000431,0.001175
116834000,0.0324,0.013523,0.002678,0.000431,0.000823
116835000,0.0324,0.013523,0.002678,0.000431,0.000940
116836000,0.0324,0.013523,0.002678,0.000431,0.000940
116837000,0.0324,0.013523,0.002678,0.000431,0.000823
116838000,0.0324,0.013523,0.002678,0.000431,0.000940
116839000,0.0324,0.013523,0.002678,0.000431,0.000940
116840000,0.0324,0.013523,0.002678,0.000431,0.001058
116841000,0.0324,0.013523,0.002678,0.000431,0.000823
116842000,0.0324,0.013523,0.002678,0.000431,0.000940
116843000,0.0324,0.013523,0.002678,0.000431,0.000940
116844000,0.0324,0.013523,0.002678,0.000431,0.000940
116845000,0.0324,0.013523,0.002678,0.000431,0.000823
116846000,0.0324,0.013523,0.002678,0.000431,0.001058
116847000,0.0324,0.013523,0.002678,0.000431,0.000940
116848000,0.0324,0.013523,0.002678,0.000431,0.000940
116849000,0.0324,0.013523,0.002678,0.000431,0.000940
116850000,0.0324,0.013523,0.002678,0.000431,0.000823
116851000,0.0324,0.013523,0.002678,0.000431,0.001058
116852000,0.0324,0.013523,0.002678,0.000431,0.000823
116853000,0.0324,0.013523,0.002678,0.000431,0.001058
116854000,0.0324,0.013523,0.002678,0.000431,0.000940
116855000,0.0324,0.013523,0.002678,0.000431,0.000705
116856000,0.0324,0.013523,0.002678,0.000431,0.001175
116857000,0.0324,0.013523,0.002678,0.000431,0.000705
116858000,0.0324,0.013523,0.002678,0.000431,0.001058
116859000,0.0324,0.013523,0.002678,0.000431,0.000940
116860000,0.0324,0.013523,0.002678,0.000431,0.000823
116861000,0.0324,0.013523,0.002678,0.000431,0.001058
116862000,0.0324,0.013523,0.002678,0.000431,0.000823
116863000,0.0324,0.013523,0.002678,0.000431,0.000940
116864000,0.0324,0.013523,0.002678,0.000431,0.000940
116865000,0.0324,0.013523,0.002678,0.000431,0.000940
116866000,0.0324,0.013523,0.002678,0.000431,0.000940
116867000,0.0324,0.013523,0.002678,0.000431,0.000940
116868000,0.0324,0.013523,0.002678,0.000431,0.000940
116869000,0.0324,0.013523,0.002678,0.000431,0.000940
116870000,0.0324,0.013523,0.002678,0.000431,0.000823
116871000,0.0324,0.013523,0.002678,0.000431,0.001058
116872000,0.0324,0.013523,0.002678,0.000431,0.000940
116873000,0.0324,0.013523,0.002678,0.000431,0.000940
116874000,0.0324,0.013523,0.002678,0.000431,0.000940
116875000,0.0324,0.013523,0.002678,0.000431,0.000823
116876000,0.0324,0.013523,0.002678,0.000431,0.001058
116877000,0.0324,0.013523,0.002678,0.000431,0.000823
116878000,0.0324,0.013523,0.002678,0.000431,0.000940
116879000,0.0324,0.013523,0.002678,0.000431,0.001175
116880000,0.0324,0.013523,0.002678,0.000431,0.001058
116881000,0.0324,0.013523,0.002678,0.000431,0.001998
116882000,0.0324,0.013523,0.002678,0.000431,0.382437
116883000,0.0324,0.013523,0.002678,0.000431,0.700233
116884000,0.0324,0.013523,0.002678,0.000431,0.145617
116885000,0.0324,0.013523,0.002678,0.000431,0.132219
116886000,0.0324,0.013523,0.002678,0.000431,0.197565
116887000,0.0324,0.013523,0.002678,0.000431,0.605740
116888000,0.0324,0.013523,0.002678,0.000431,0.243283
116889000,0.0324,0.013523,0.002678,0.000431,0.314035
116890000,0.0324,0.013523,0.002678,0.000431,0.177938
116891000,0.0324,0.013523,0.002678,0.000431,0.153374
116892000,0.0324,0.013523,0.002678,0.000431,0.115883
116893000,0.0324,0.013523,0.002678,0.000431,0.317679
116894000,0.0324,0.013523,0.002678,0.000431,0.301695
116895000,0.0324,0.013523,0.002678,0.000431,0.072515
116896000,0.0324,0.013523,0.002678,0.000431,0.055591
116897000,0.0324,0.013523,0.002678,0.000431,0.054651
116898000,0.0324,0.013523,0.002678,0.000431,0.045954
116899000,0.0324,0.013523,0.002678,0.000431,0.036199
116900000,0.0324,0.013523,0.002678,0.000431,0.034906
116901000,0.0324,0.013523,0.002678,0.000431,0.028442
116902000,0.0324,0.013523,0.002678,0.000431,0.029382
116903000,0.0324,0.013523,0.002678,0.000431,0.025856
116904000,0.0324,0.013523,0.002678,0.000431,0.024211
116905000,0.0324,0.013523,0.002678,0.000431,0.027267
116906000,0.0324,0.013523,0.002678,0.000431,0.024681
116907000,0.0324,0.013523,0.002678,0.000431,0.021273
116908000,0.0324,0.013523,0.002678,0.000431,0.020685
116909000,0.0324,0.013523,0.002678,0.000431,0.021273
116910000,0.0324,0.013523,0.002678,0.000431,0.020567
116911000,0.0324,0.013523,0.002678,0.000431,0.021860
116912000,0.0324,0.013523,0.002678,0.000431,0.020920
116913000,0.0324,0.013523,0.002678,0.000431,0.020332
116914000,0.0324,0.013523,0.002678,0.000431,0.021860
116915000,0.0324,0.013523,0.002678,0.000431,0.024681
116916000,0.0324,0.013523,0.002678,0.000431,0.019627
116917000,0.0324,0.013523,0.002678,0.000431,0.018805
116918000,0.0324,0.013523,0.002678,0.000431,0.017512
116919000,0.0324,0.013523,0.002678,0.000431,0.018217
116920000,0.0324,0.013523,0.002678,0.000431,0.019392
116921000,0.0324,0.013523,0.002678,0.000431,0.016571
116922000,0.0324,0.013523,0.002678,0.000431,0.017394
116923000,0.0324,0.013523,0.002678,0.000431,0.020802
116924000,0.0324,0.013523,0.002678,0.000431,0.016101
116925000,0.0324,0.013523,0.002678,0.000431,0.015866
116926000,0.0324,0.013523,0.002678,0.000431,0.014691
116927000,0.0324,0.013523,0.002678,0.000431,0.015514
116928000,0.0324,0.013523,0.002678,0.000431,0.014573
116929000,0.0324,0.013523,0.002678,0.000431,0.015984
116930000,0.0324,0.013523,0.002678,0.000431,0.013751
116931000,0.0324,0.013523,0.002678,0.000431,0.013281
116932000,0.0324,0.013523,0.002678,0.000431,0.015631
116933000,0.0324,0.013523,0.002678,0.000431,0.013868
116934000,0.0324,0.013523,0.002678,0.000431,0.011753
116935000,0.0324,0.013523,0.002678,0.000431,0.013868
116936000,0.0324,0.013523,0.002678,0.000431,0.009990
116937000,0.0324,0.013523,0.002678,0.000431,0.010342
116938000,0.0324,0.013523,0.002678,0.000431,0.010342
116939000,0.0324,0.013523,0.002678,0.000431,0.010342
116940000,0.0324,0.013523,0.002678,0.000431,0.012576
116941000,0.0324,0.013523,0.002678,0.000431,0.008462
116942000,0.0324,0.013523,0.002678,0.000431,0.008932
116943000,0.0324,0.013523,0.002678,0.000431,0.012223
116944000,0.0324,0.013523,0.002678,0.000431,0.007522
116945000,0.0324,0.013523,0.002678,0.000431,0.006699
116946000,0.0324,0.013523,0.002678,0.000431,0.006111
116947000,0.0324,0.013523,0.002678,0.000431,0.005759
116948000,0.0324,0.013523,0.002678,0.000431,0.009050
116949000,0.0324,0.013523,0.002678,0.000431,0.006582
116950000,0.0324,0.013523,0.002678,0.000431,0.003526
116951000,0.0324,0.013523,0.002678,0.000431,0.003056
116952000,0.0324,0.013523,0.002678,0.000431,0.007522
116953000,0.0324,0.013523,0.002678,0.000431,0.001645
116954000,0.0324,0.013523,0.002678,0.000431,0.001645
116955000,0.0324,0.013523,0.002678,0.000431,0.001645
116956000,0.0324,0.013523,0.002678,0.000431,0.001998
116957000,0.0324,0.013523,0.002678,0.000431,0.001528
116958000,0.0324,0.013523,0.002678,0.000431,0.001763
116959000,0.0324,0.013523,0.002678,0.000431,0.001763
116960000,0.0324,0.013523,0.002678,0.000431,0.001528
116961000,0.0324,0.013523,0.002678,0.000431,0.001763
116962000,0.0324,0.013523,0.002678,0.000431,0.001880
116963000,0.0324,0.013523,0.002678,0.000431,0.001528
116964000,0.0324,0.013523,0.002678,0.000431,0.001880
116965000,0.0324,0.013523,0.002678,0.000431,0.002821
116966000,0.0324,0.013523,0.002678,0.000431,0.000940
116967000,0.0324,0.013523,0.002678,0.000431,0.000823
116968000,0.0324,0.013523,0.002678,0.000431,0.000823
116969000,0.0324,0.013523,0.002678,0.000431,0.000940
116970000,0.0324,0.013523,0.002678,0.000431,0.000705
116971000,0.0324,0.013523,0.002678,0.000431,0.000940
116972000,0.0324,0.013523,0.002678,0.000431,0.000823
116973000,0.0324,0.013523,0.002678,0.000431,0.000823
116974000,0.0324,0.013523,0.002678,0.000431,0.000823
116975000,0.0324,0.013523,0.002678,0.000431,0.000823
116976000,0.0324,0.013523,0.002678,0.000431,0.000823
116977000,0.0324,0.013523,0.002678,0.000431,0.000823
116978000,0.0324,0.013523,0.002678,0.000431,0.000940
116979000,0.0324,0.013523,0.002678,0.000431,0.000705
116980000,0.0324,0.013523,0.002678,0.000431,0.000823
116981000,0.0324,0.013523,0.002678,0.000431,0.000940
116982000,0.0324,0.013523,0.002678,0.000431,0.000823
116983000,0.0324,0.013523,0.002678,0.000431,0.000823
116984000,0.0324,0.013523,0.002678,0.000431,0.000823
116985000,0.0324,0.013523,0.002678,0.000431,0.000940
116986000,0.0324,0.013523,0.002678,0.000431,0.069694
116987000,0.0324,0.013523,0.002678,0.000431,0.495734
116988000,0.0324,0.013523,0.002678,0.000431,0.593987
116989000,0.0324,0.013523,0.002678,0.000431,0.133042
116990000,0.0324,0.013523,0.002678,0.000431,0.132572
116991000,0.0324,0.013523,0.002678,0.000431,0.560609
116992000,0.0324,0.013523,0.002678,0.000431,0.228592
116993000,0.0324,0.013523,0.002678,0.000431,0.315446
116994000,0.0324,0.013523,0.002678,0.000431,0.294056
116995000,0.0324,0.013523,0.002678,0.000431,0.138918
116996000,0.0324,0.013523,0.002678,0.000431,0.182169
116997000,0.0324,0.013523,0.002678,0.000431,0.081447
116998000,0.0324,0.013523,0.002678,0.000431,0.489975
116999000,0.0324,0.013523,0.002678,0.000431,0.137861
