Cycle,Area(mm^2),PeakDynamic(W),SubthresholdLeakage(W),GateLeakage(W),RunTimeDynamic(W)
114000000,0.0324,0.013523,0.002678,0.000431,0.000823
114001000,0.0324,0.013523,0.002678,0.000431,0.000940
114002000,0.0324,0.013523,0.002678,0.000431,0.000823
114003000,0.0324,0.013523,0.002678,0.000431,0.000940
114004000,0.0324,0.013523,0.002678,0.000431,0.000823
114005000,0.0324,0.013523,0.002678,0.000431,0.000823
114006000,0.0324,0.013523,0.002678,0.000431,0.000940
114007000,0.0324,0.013523,0.002678,0.000431,0.000940
114008000,0.0324,0.013523,0.002678,0.000431,0.000823
114009000,0.0324,0.013523,0.002678,0.000431,0.000823
114010000,0.0324,0.013523,0.002678,0.000431,0.000940
114011000,0.0324,0.013523,0.002678,0.000431,0.000940
114012000,0.0324,0.013523,0.002678,0.000431,0.000705
114013000,0.0324,0.013523,0.002678,0.000431,0.000940
114014000,0.0324,0.013523,0.002678,0.000431,0.000940
114015000,0.0324,0.013523,0.002678,0.000431,0.000940
114016000,0.0324,0.013523,0.002678,0.000431,0.000823
114017000,0.0324,0.013523,0.002678,0.000431,0.000823
114018000,0.0324,0.013523,0.002678,0.000431,0.000940
114019000,0.0324,0.013523,0.002678,0.000431,0.000823
114020000,0.0324,0.013523,0.002678,0.000431,0.000940
114021000,0.0324,0.013523,0.002678,0.000431,0.000823
114022000,0.0324,0.013523,0.002678,0.000431,0.000940
114023000,0.0324,0.013523,0.002678,0.000431,0.000823
114024000,0.0324,0.013523,0.002678,0.000431,0.000823
114025000,0.0324,0.013523,0.002678,0.000431,0.000940
114026000,0.0324,0.013523,0.002678,0.000431,0.000940
114027000,0.0324,0.013523,0.002678,0.000431,0.000705
114028000,0.0324,0.013523,0.002678,0.000431,0.000940
114029000,0.0324,0.013523,0.002678,0.000431,0.000940
114030000,0.0324,0.013523,0.002678,0.000431,0.000940
114031000,0.0324,0.013523,0.002678,0.000431,0.000705
114032000,0.0324,0.013523,0.002678,0.000431,0.000940
114033000,0.0324,0.013523,0.002678,0.000431,0.000940
114034000,0.0324,0.013523,0.002678,0.000431,0.000823
114035000,0.0324,0.013523,0.002678,0.000431,0.000823
114036000,0.0324,0.013523,0.002678,0.000431,0.000940
114037000,0.0324,0.013523,0.002678,0.000431,0.000940
114038000,0.0324,0.013523,0.002678,0.000431,0.000823
114039000,0.0324,0.013523,0.002678,0.000431,0.000823
114040000,0.0324,0.013523,0.002678,0.000431,0.000940
114041000,0.0324,0.013523,0.002678,0.000431,0.000823
114042000,0.0324,0.013523,0.002678,0.000431,0.000940
114043000,0.0324,0.013523,0.002678,0.000431,0.000823
114044000,0.0324,0.013523,0.002678,0.000431,0.000940
114045000,0.0324,0.013523,0.002678,0.000431,0.000823
114046000,0.0324,0.013523,0.002678,0.000431,0.000823
114047000,0.0324,0.013523,0.002678,0.000431,0.000940
114048000,0.0324,0.013523,0.002678,0.000431,0.000940
114049000,0.0324,0.013523,0.002678,0.000431,0.000940
114050000,0.0324,0.013523,0.002678,0.000431,0.013751
114051000,0.0324,0.013523,0.002678,0.000431,0.479750
114052000,0.0324,0.013523,0.002678,0.000431,0.598689
114053000,0.0324,0.013523,0.002678,0.000431,0.131632
114054000,0.0324,0.013523,0.002678,0.000431,0.133042
114055000,0.0324,0.013523,0.002678,0.000431,0.383259
114056000,0.0324,0.013523,0.002678,0.000431,0.390429
114057000,0.0324,0.013523,0.002678,0.000431,0.232823
114058000,0.0324,0.013523,0.002678,0.000431,0.335190
114059000,0.0324,0.013523,0.002678,0.000431,0.196155
114060000,0.0324,0.013523,0.002678,0.000431,0.137508
114061000,0.0324,0.013523,0.002678,0.000431,0.141151
114062000,0.0324,0.013523,0.002678,0.000431,0.234704
114063000,0.0324,0.013523,0.002678,0.000431,0.346473
114064000,0.0324,0.013523,0.002678,0.000431,0.032203
114065000,0.0324,0.013523,0.002678,0.000431,0.032790
114066000,0.0324,0.013523,0.002678,0.000431,0.021743
114067000,0.0324,0.013523,0.002678,0.000431,0.022683
114068000,0.0324,0.013523,0.002678,0.000431,0.020332
114069000,0.0324,0.013523,0.002678,0.000431,0.019392
114070000,0.0324,0.013523,0.002678,0.000431,0.012693
114071000,0.0324,0.013523,0.002678,0.000431,0.013046
114072000,0.0324,0.013523,0.002678,0.000431,0.015866
114073000,0.0324,0.013523,0.002678,0.000431,0.010460
114074000,0.0324,0.013523,0.002678,0.000431,0.015866
114075000,0.0324,0.013523,0.002678,0.000431,0.006699
114076000,0.0324,0.013523,0.002678,0.000431,0.006934
114077000,0.0324,0.013523,0.002678,0.000431,0.006699
114078000,0.0324,0.013523,0.002678,0.000431,0.006699
114079000,0.0324,0.013523,0.002678,0.000431,0.007052
114080000,0.0324,0.013523,0.002678,0.000431,0.008227
114081000,0.0324,0.013523,0.002678,0.000431,0.005759
114082000,0.0324,0.013523,0.002678,0.000431,0.005759
114083000,0.0324,0.013523,0.002678,0.000431,0.006817
114084000,0.0324,0.013523,0.002678,0.000431,0.005289
114085000,0.0324,0.013523,0.002678,0.000431,0.004231
114086000,0.0324,0.013523,0.002678,0.000431,0.004349
114087000,0.0324,0.013523,0.002678,0.000431,0.003878
114088000,0.0324,0.013523,0.002678,0.000431,0.004349
114089000,0.0324,0.013523,0.002678,0.000431,0.004113
114090000,0.0324,0.013523,0.002678,0.000431,0.004113
114091000,0.0324,0.013523,0.002678,0.000431,0.004113
114092000,0.0324,0.013523,0.002678,0.000431,0.004349
114093000,0.0324,0.013523,0.002678,0.000431,0.004113
114094000,0.0324,0.013523,0.002678,0.000431,0.004113
114095000,0.0324,0.013523,0.002678,0.000431,0.004349
114096000,0.0324,0.013523,0.002678,0.000431,0.003761
114097000,0.0324,0.013523,0.002678,0.000431,0.004466
114098000,0.0324,0.013523,0.002678,0.000431,0.004349
114099000,0.0324,0.013523,0.002678,0.000431,0.004231
114100000,0.0324,0.013523,0.002678,0.000431,0.005171
114101000,0.0324,0.013523,0.002678,0.000431,0.004231
114102000,0.0324,0.013523,0.002678,0.000431,0.003643
114103000,0.0324,0.013523,0.002678,0.000431,0.003173
114104000,0.0324,0.013523,0.002678,0.000431,0.003291
114105000,0.0324,0.013523,0.002678,0.000431,0.004819
114106000,0.0324,0.013523,0.002678,0.000431,0.002586
114107000,0.0324,0.013523,0.002678,0.000431,0.002351
114108000,0.0324,0.013523,0.002678,0.000431,0.002586
114109000,0.0324,0.013523,0.002678,0.000431,0.002351
114110000,0.0324,0.013523,0.002678,0.000431,0.002703
114111000,0.0324,0.013523,0.002678,0.000431,0.002468
114112000,0.0324,0.013523,0.002678,0.000431,0.002586
114113000,0.0324,0.013523,0.002678,0.000431,0.004466
114114000,0.0324,0.013523,0.002678,0.000431,0.001763
114115000,0.0324,0.013523,0.002678,0.000431,0.001645
114116000,0.0324,0.013523,0.002678,0.000431,0.001763
114117000,0.0324,0.013523,0.002678,0.000431,0.002821
114118000,0.0324,0.013523,0.002678,0.000431,0.000823
114119000,0.0324,0.013523,0.002678,0.000431,0.000823
114120000,0.0324,0.013523,0.002678,0.000431,0.002116
114121000,0.0324,0.013523,0.002678,0.000431,0.254801
114122000,0.0324,0.013523,0.002678,0.000431,0.593752
114123000,0.0324,0.013523,0.002678,0.000431,0.286534
114124000,0.0324,0.013523,0.002678,0.000431,0.131632
114125000,0.0324,0.013523,0.002678,0.000431,0.133512
114126000,0.0324,0.013523,0.002678,0.000431,0.581882
114127000,0.0324,0.013523,0.002678,0.000431,0.235526
114128000,0.0324,0.013523,0.002678,0.000431,0.225654
114129000,0.0324,0.013523,0.002678,0.000431,0.313565
114130000,0.0324,0.013523,0.002678,0.000431,0.139036
114131000,0.0324,0.013523,0.002678,0.000431,0.150319
114132000,0.0324,0.013523,0.002678,0.000431,0.125050
114133000,0.0324,0.013523,0.002678,0.000431,0.268199
114134000,0.0324,0.013523,0.002678,0.000431,0.292880
114135000,0.0324,0.013523,0.002678,0.000431,0.004349
114136000,0.0324,0.013523,0.002678,0.000431,0.004349
114137000,0.0324,0.013523,0.002678,0.000431,0.003996
114138000,0.0324,0.013523,0.002678,0.000431,0.004349
114139000,0.0324,0.013523,0.002678,0.000431,0.003996
114140000,0.0324,0.013523,0.002678,0.000431,0.004466
114141000,0.0324,0.013523,0.002678,0.000431,0.004231
114142000,0.0324,0.013523,0.002678,0.000431,0.004231
114143000,0.0324,0.013523,0.002678,0.000431,0.004113
114144000,0.0324,0.013523,0.002678,0.000431,0.004113
114145000,0.0324,0.013523,0.002678,0.000431,0.004466
114146000,0.0324,0.013523,0.002678,0.000431,0.004231
114147000,0.0324,0.013523,0.002678,0.000431,0.004113
114148000,0.0324,0.013523,0.002678,0.000431,0.004231
114149000,0.0324,0.013523,0.002678,0.000431,0.004349
114150000,0.0324,0.013523,0.002678,0.000431,0.004113
114151000,0.0324,0.013523,0.002678,0.000431,0.004349
114152000,0.0324,0.013523,0.002678,0.000431,0.004231
114153000,0.0324,0.013523,0.002678,0.000431,0.004113
114154000,0.0324,0.013523,0.002678,0.000431,0.004349
114155000,0.0324,0.013523,0.002678,0.000431,0.004231
114156000,0.0324,0.013523,0.002678,0.000431,0.004231
114157000,0.0324,0.013523,0.002678,0.000431,0.004231
114158000,0.0324,0.013523,0.002678,0.000431,0.004231
114159000,0.0324,0.013523,0.002678,0.000431,0.004349
114160000,0.0324,0.013523,0.002678,0.000431,0.003996
114161000,0.0324,0.013523,0.002678,0.000431,0.004349
114162000,0.0324,0.013523,0.002678,0.000431,0.004113
114163000,0.0324,0.013523,0.002678,0.000431,0.004349
114164000,0.0324,0.013523,0.002678,0.000431,0.004231
114165000,0.0324,0.013523,0.002678,0.000431,0.005524
114166000,0.0324,0.013523,0.002678,0.000431,0.003291
114167000,0.0324,0.013523,0.002678,0.000431,0.003173
114168000,0.0324,0.013523,0.002678,0.000431,0.003761
114169000,0.0324,0.013523,0.002678,0.000431,0.003408
114170000,0.0324,0.013523,0.002678,0.000431,0.003173
114171000,0.0324,0.013523,0.002678,0.000431,0.003291
114172000,0.0324,0.013523,0.002678,0.000431,0.003526
114173000,0.0324,0.013523,0.002678,0.000431,0.003291
114174000,0.0324,0.013523,0.002678,0.000431,0.003408
114175000,0.0324,0.013523,0.002678,0.000431,0.003643
114176000,0.0324,0.013523,0.002678,0.000431,0.003056
114177000,0.0324,0.013523,0.002678,0.000431,0.003526
114178000,0.0324,0.013523,0.002678,0.000431,0.003291
114179000,0.0324,0.013523,0.002678,0.000431,0.003643
114180000,0.0324,0.013523,0.002678,0.000431,0.003291
114181000,0.0324,0.013523,0.002678,0.000431,0.003291
114182000,0.0324,0.013523,0.002678,0.000431,0.003526
114183000,0.0324,0.013523,0.002678,0.000431,0.003408
114184000,0.0324,0.013523,0.002678,0.000431,0.003996
114185000,0.0324,0.013523,0.002678,0.000431,0.002351
114186000,0.0324,0.013523,0.002678,0.000431,0.002703
114187000,0.0324,0.013523,0.002678,0.000431,0.003878
114188000,0.0324,0.013523,0.002678,0.000431,0.003408
114189000,0.0324,0.013523,0.002678,0.000431,0.001058
114190000,0.0324,0.013523,0.002678,0.000431,0.000940
114191000,0.0324,0.013523,0.002678,0.000431,0.000940
114192000,0.0324,0.013523,0.002678,0.000431,0.000823
114193000,0.0324,0.013523,0.002678,0.000431,0.000823
114194000,0.0324,0.013523,0.002678,0.000431,0.000940
114195000,0.0324,0.013523,0.002678,0.000431,0.000823
114196000,0.0324,0.013523,0.002678,0.000431,0.000940
114197000,0.0324,0.013523,0.002678,0.000431,0.000823
114198000,0.0324,0.013523,0.002678,0.000431,0.000940
114199000,0.0324,0.013523,0.002678,0.000431,0.000823
114200000,0.0324,0.013523,0.002678,0.000431,0.000823
114201000,0.0324,0.013523,0.002678,0.000431,0.000940
114202000,0.0324,0.013523,0.002678,0.000431,0.000940
114203000,0.0324,0.013523,0.002678,0.000431,0.000823
114204000,0.0324,0.013523,0.002678,0.000431,0.000823
114205000,0.0324,0.013523,0.002678,0.000431,0.000940
114206000,0.0324,0.013523,0.002678,0.000431,0.000940
114207000,0.0324,0.013523,0.002678,0.000431,0.000705
114208000,0.0324,0.013523,0.002678,0.000431,0.000940
114209000,0.0324,0.013523,0.002678,0.000431,0.000940
114210000,0.0324,0.013523,0.002678,0.000431,0.000940
114211000,0.0324,0.013523,0.002678,0.000431,0.000705
114212000,0.0324,0.013523,0.002678,0.000431,0.000940
114213000,0.0324,0.013523,0.002678,0.000431,0.000940
114214000,0.0324,0.013523,0.002678,0.000431,0.000823
114215000,0.0324,0.013523,0.002678,0.000431,0.000823
114216000,0.0324,0.013523,0.002678,0.000431,0.000940
114217000,0.0324,0.013523,0.002678,0.000431,0.000940
114218000,0.0324,0.013523,0.002678,0.000431,0.000823
114219000,0.0324,0.013523,0.002678,0.000431,0.000823
114220000,0.0324,0.013523,0.002678,0.000431,0.000940
114221000,0.0324,0.013523,0.002678,0.000431,0.000823
114222000,0.0324,0.013523,0.002678,0.000431,0.000823
114223000,0.0324,0.013523,0.002678,0.000431,0.000940
114224000,0.0324,0.013523,0.002678,0.000431,0.000940
114225000,0.0324,0.013523,0.002678,0.000431,0.000940
114226000,0.0324,0.013523,0.002678,0.000431,0.000705
114227000,0.0324,0.013523,0.002678,0.000431,0.000940
114228000,0.0324,0.013523,0.002678,0.000431,0.000940
114229000,0.0324,0.013523,0.002678,0.000431,0.000823
114230000,0.0324,0.013523,0.002678,0.000431,0.000823
114231000,0.0324,0.013523,0.002678,0.000431,0.000940
114232000,0.0324,0.013523,0.002678,0.000431,0.000940
114233000,0.0324,0.013523,0.002678,0.000431,0.000823
114234000,0.0324,0.013523,0.002678,0.000431,0.000823
114235000,0.0324,0.013523,0.002678,0.000431,0.000940
114236000,0.0324,0.013523,0.002678,0.000431,0.000823
114237000,0.0324,0.013523,0.002678,0.000431,0.000940
114238000,0.0324,0.013523,0.002678,0.000431,0.000823
114239000,0.0324,0.013523,0.002678,0.000431,0.000940
114240000,0.0324,0.013523,0.002678,0.000431,0.000823
114241000,0.0324,0.013523,0.002678,0.000431,0.000823
114242000,0.0324,0.013523,0.002678,0.000431,0.000940
114243000,0.0324,0.013523,0.002678,0.000431,0.000940
114244000,0.0324,0.013523,0.002678,0.000431,0.000823
114245000,0.0324,0.013523,0.002678,0.000431,0.000823
114246000,0.0324,0.013523,0.002678,0.000431,0.000940
114247000,0.0324,0.013523,0.002678,0.000431,0.000940
114248000,0.0324,0.013523,0.002678,0.000431,0.000705
114249000,0.0324,0.013523,0.002678,0.000431,0.000940
114250000,0.0324,0.013523,0.002678,0.000431,0.000940
114251000,0.0324,0.013523,0.002678,0.000431,0.000940
114252000,0.0324,0.013523,0.002678,0.000431,0.000823
114253000,0.0324,0.013523,0.002678,0.000431,0.000823
114254000,0.0324,0.013523,0.002678,0.000431,0.000940
114255000,0.0324,0.013523,0.002678,0.000431,0.000823
114256000,0.0324,0.013523,0.002678,0.000431,0.000940
114257000,0.0324,0.013523,0.002678,0.000431,0.000823
114258000,0.0324,0.013523,0.002678,0.000431,0.000940
114259000,0.0324,0.013523,0.002678,0.000431,0.000823
114260000,0.0324,0.013523,0.002678,0.000431,0.000823
114261000,0.0324,0.013523,0.002678,0.000431,0.000940
114262000,0.0324,0.013523,0.002678,0.000431,0.000940
114263000,0.0324,0.013523,0.002678,0.000431,0.000705
114264000,0.0324,0.013523,0.002678,0.000431,0.000940
114265000,0.0324,0.013523,0.002678,0.000431,0.000940
114266000,0.0324,0.013523,0.002678,0.000431,0.000940
114267000,0.0324,0.013523,0.002678,0.000431,0.000705
114268000,0.0324,0.013523,0.002678,0.000431,0.000940
114269000,0.0324,0.013523,0.002678,0.000431,0.000940
114270000,0.0324,0.013523,0.002678,0.000431,0.000823
114271000,0.0324,0.013523,0.002678,0.000431,0.000823
114272000,0.0324,0.013523,0.002678,0.000431,0.000940
114273000,0.0324,0.013523,0.002678,0.000431,0.000940
114274000,0.0324,0.013523,0.002678,0.000431,0.000823
114275000,0.0324,0.013523,0.002678,0.000431,0.000823
114276000,0.0324,0.013523,0.002678,0.000431,0.000940
114277000,0.0324,0.013523,0.002678,0.000431,0.000823
114278000,0.0324,0.013523,0.002678,0.000431,0.000940
114279000,0.0324,0.013523,0.002678,0.000431,0.000823
114280000,0.0324,0.013523,0.002678,0.000431,0.000940
114281000,0.0324,0.013523,0.002678,0.000431,0.000823
114282000,0.0324,0.013523,0.002678,0.000431,0.000823
114283000,0.0324,0.013523,0.002678,0.000431,0.000940
114284000,0.0324,0.013523,0.002678,0.000431,0.000940
114285000,0.0324,0.013523,0.002678,0.000431,0.000940
114286000,0.0324,0.013523,0.002678,0.000431,0.000705
114287000,0.0324,0.013523,0.002678,0.000431,0.000940
114288000,0.0324,0.013523,0.002678,0.000431,0.000940
114289000,0.0324,0.013523,0.002678,0.000431,0.000823
114290000,0.0324,0.013523,0.002678,0.000431,0.000823
114291000,0.0324,0.013523,0.002678,0.000431,0.000940
114292000,0.0324,0.013523,0.002678,0.000431,0.000940
114293000,0.0324,0.013523,0.002678,0.000431,0.000823
114294000,0.0324,0.013523,0.002678,0.000431,0.000823
114295000,0.0324,0.013523,0.002678,0.000431,0.000940
114296000,0.0324,0.013523,0.002678,0.000431,0.000823
114297000,0.0324,0.013523,0.002678,0.000431,0.078274
114298000,0.0324,0.013523,0.002678,0.000431,0.434267
114299000,0.0324,0.013523,0.002678,0.000431,0.542158
114300000,0.0324,0.013523,0.002678,0.000431,0.133042
114301000,0.0324,0.013523,0.002678,0.000431,0.132102
114302000,0.0324,0.013523,0.002678,0.000431,0.566133
114303000,0.0324,0.013523,0.002678,0.000431,0.257387
114304000,0.0324,0.013523,0.002678,0.000431,0.262675
114305000,0.0324,0.013523,0.002678,0.000431,0.237054
114306000,0.0324,0.013523,0.002678,0.000431,0.175940
114307000,0.0324,0.013523,0.002678,0.000431,0.142327
114308000,0.0324,0.013523,0.002678,0.000431,0.171826
114309000,0.0324,0.013523,0.002678,0.000431,0.090497
114310000,0.0324,0.013523,0.002678,0.000431,0.467527
114311000,0.0324,0.013523,0.002678,0.000431,0.105540
114312000,0.0324,0.013523,0.002678,0.000431,0.060762
114313000,0.0324,0.013523,0.002678,0.000431,0.055356
114314000,0.0324,0.013523,0.002678,0.000431,0.045131
114315000,0.0324,0.013523,0.002678,0.000431,0.039607
114316000,0.0324,0.013523,0.002678,0.000431,0.027502
114317000,0.0324,0.013523,0.002678,0.000431,0.026444
114318000,0.0324,0.013523,0.002678,0.000431,0.022448
114319000,0.0324,0.013523,0.002678,0.000431,0.018217
114320000,0.0324,0.013523,0.002678,0.000431,0.020450
114321000,0.0324,0.013523,0.002678,0.000431,0.015866
114322000,0.0324,0.013523,0.002678,0.000431,0.014456
114323000,0.0324,0.013523,0.002678,0.000431,0.015866
114324000,0.0324,0.013523,0.002678,0.000431,0.013281
114325000,0.0324,0.013523,0.002678,0.000431,0.017629
114326000,0.0324,0.013523,0.002678,0.000431,0.008815
114327000,0.0324,0.013523,0.002678,0.000431,0.011165
114328000,0.0324,0.013523,0.002678,0.000431,0.009637
114329000,0.0324,0.013523,0.002678,0.000431,0.006464
114330000,0.0324,0.013523,0.002678,0.000431,0.005524
114331000,0.0324,0.013523,0.002678,0.000431,0.006229
114332000,0.0324,0.013523,0.002678,0.000431,0.005524
114333000,0.0324,0.013523,0.002678,0.000431,0.006464
114334000,0.0324,0.013523,0.002678,0.000431,0.004231
114335000,0.0324,0.013523,0.002678,0.000431,0.004349
114336000,0.0324,0.013523,0.002678,0.000431,0.004466
114337000,0.0324,0.013523,0.002678,0.000431,0.004113
114338000,0.0324,0.013523,0.002678,0.000431,0.004231
114339000,0.0324,0.013523,0.002678,0.000431,0.004231
114340000,0.0324,0.013523,0.002678,0.000431,0.004466
114341000,0.0324,0.013523,0.002678,0.000431,0.004231
114342000,0.0324,0.013523,0.002678,0.000431,0.004231
114343000,0.0324,0.013523,0.002678,0.000431,0.004113
114344000,0.0324,0.013523,0.002678,0.000431,0.004466
114345000,0.0324,0.013523,0.002678,0.000431,0.004349
114346000,0.0324,0.013523,0.002678,0.000431,0.003878
114347000,0.0324,0.013523,0.002678,0.000431,0.004584
114348000,0.0324,0.013523,0.002678,0.000431,0.004231
114349000,0.0324,0.013523,0.002678,0.000431,0.004113
114350000,0.0324,0.013523,0.002678,0.000431,0.004349
114351000,0.0324,0.013523,0.002678,0.000431,0.004349
114352000,0.0324,0.013523,0.002678,0.000431,0.004231
114353000,0.0324,0.013523,0.002678,0.000431,0.003996
114354000,0.0324,0.013523,0.002678,0.000431,0.004584
114355000,0.0324,0.013523,0.002678,0.000431,0.004231
114356000,0.0324,0.013523,0.002678,0.000431,0.004231
114357000,0.0324,0.013523,0.002678,0.000431,0.003996
114358000,0.0324,0.013523,0.002678,0.000431,0.004349
114359000,0.0324,0.013523,0.002678,0.000431,0.004701
114360000,0.0324,0.013523,0.002678,0.000431,0.003996
114361000,0.0324,0.013523,0.002678,0.000431,0.004231
114362000,0.0324,0.013523,0.002678,0.000431,0.004231
114363000,0.0324,0.013523,0.002678,0.000431,0.004349
114364000,0.0324,0.013523,0.002678,0.000431,0.004349
114365000,0.0324,0.013523,0.002678,0.000431,0.004231
114366000,0.0324,0.013523,0.002678,0.000431,0.003996
114367000,0.0324,0.013523,0.002678,0.000431,0.004349
114368000,0.0324,0.013523,0.002678,0.000431,0.005641
114369000,0.0324,0.013523,0.002678,0.000431,0.003056
114370000,0.0324,0.013523,0.002678,0.000431,0.003643
114371000,0.0324,0.013523,0.002678,0.000431,0.003291
114372000,0.0324,0.013523,0.002678,0.000431,0.003526
114373000,0.0324,0.013523,0.002678,0.000431,0.003408
114374000,0.0324,0.013523,0.002678,0.000431,0.003291
114375000,0.0324,0.013523,0.002678,0.000431,0.003526
114376000,0.0324,0.013523,0.002678,0.000431,0.003526
114377000,0.0324,0.013523,0.002678,0.000431,0.003526
114378000,0.0324,0.013523,0.002678,0.000431,0.005641
114379000,0.0324,0.013523,0.002678,0.000431,0.002351
114380000,0.0324,0.013523,0.002678,0.000431,0.002586
114381000,0.0324,0.013523,0.002678,0.000431,0.002586
114382000,0.0324,0.013523,0.002678,0.000431,0.002703
114383000,0.0324,0.013523,0.002678,0.000431,0.002351
114384000,0.0324,0.013523,0.002678,0.000431,0.002703
114385000,0.0324,0.013523,0.002678,0.000431,0.002586
114386000,0.0324,0.013523,0.002678,0.000431,0.002351
114387000,0.0324,0.013523,0.002678,0.000431,0.002586
114388000,0.0324,0.013523,0.002678,0.000431,0.002703
114389000,0.0324,0.013523,0.002678,0.000431,0.002586
114390000,0.0324,0.013523,0.002678,0.000431,0.002468
114391000,0.0324,0.013523,0.002678,0.000431,0.002351
114392000,0.0324,0.013523,0.002678,0.000431,0.002821
114393000,0.0324,0.013523,0.002678,0.000431,0.002468
114394000,0.0324,0.013523,0.002678,0.000431,0.002586
114395000,0.0324,0.013523,0.002678,0.000431,0.002351
114396000,0.0324,0.013523,0.002678,0.000431,0.002821
114397000,0.0324,0.013523,0.002678,0.000431,0.002703
114398000,0.0324,0.013523,0.002678,0.000431,0.002233
114399000,0.0324,0.013523,0.002678,0.000431,0.002821
114400000,0.0324,0.013523,0.002678,0.000431,0.002586
114401000,0.0324,0.013523,0.002678,0.000431,0.002821
114402000,0.0324,0.013523,0.002678,0.000431,0.002233
114403000,0.0324,0.013523,0.002678,0.000431,0.002703
114404000,0.0324,0.013523,0.002678,0.000431,0.002821
114405000,0.0324,0.013523,0.002678,0.000431,0.002351
114406000,0.0324,0.013523,0.002678,0.000431,0.002586
114407000,0.0324,0.013523,0.002678,0.000431,0.002586
114408000,0.0324,0.013523,0.002678,0.000431,0.002586
114409000,0.0324,0.013523,0.002678,0.000431,0.002703
114410000,0.0324,0.013523,0.002678,0.000431,0.002468
114411000,0.0324,0.013523,0.002678,0.000431,0.002703
114412000,0.0324,0.013523,0.002678,0.000431,0.002468
114413000,0.0324,0.013523,0.002678,0.000431,0.002586
114414000,0.0324,0.013523,0.002678,0.000431,0.004936
114415000,0.0324,0.013523,0.002678,0.000431,0.001880
114416000,0.0324,0.013523,0.002678,0.000431,0.001645
114417000,0.0324,0.013523,0.002678,0.000431,0.001763
114418000,0.0324,0.013523,0.002678,0.000431,0.001763
114419000,0.0324,0.013523,0.002678,0.000431,0.001763
114420000,0.0324,0.013523,0.002678,0.000431,0.003526
114421000,0.0324,0.013523,0.002678,0.000431,0.001058
114422000,0.0324,0.013523,0.002678,0.000431,0.000940
114423000,0.0324,0.013523,0.002678,0.000431,0.000705
114424000,0.0324,0.013523,0.002678,0.000431,0.000940
114425000,0.0324,0.013523,0.002678,0.000431,0.000705
114426000,0.0324,0.013523,0.002678,0.000431,0.000940
114427000,0.0324,0.013523,0.002678,0.000431,0.000823
114428000,0.0324,0.013523,0.002678,0.000431,0.000823
114429000,0.0324,0.013523,0.002678,0.000431,0.000940
114430000,0.0324,0.013523,0.002678,0.000431,0.000705
114431000,0.0324,0.013523,0.002678,0.000431,0.000940
114432000,0.0324,0.013523,0.002678,0.000431,0.000823
114433000,0.0324,0.013523,0.002678,0.000431,0.000823
114434000,0.0324,0.013523,0.002678,0.000431,0.000823
114435000,0.0324,0.013523,0.002678,0.000431,0.000823
114436000,0.0324,0.013523,0.002678,0.000431,0.000940
114437000,0.0324,0.013523,0.002678,0.000431,0.000705
114438000,0.0324,0.013523,0.002678,0.000431,0.000940
114439000,0.0324,0.013523,0.002678,0.000431,0.000823
114440000,0.0324,0.013523,0.002678,0.000431,0.000823
114441000,0.0324,0.013523,0.002678,0.000431,0.000823
114442000,0.0324,0.013523,0.002678,0.000431,0.000823
114443000,0.0324,0.013523,0.002678,0.000431,0.000823
114444000,0.0324,0.013523,0.002678,0.000431,0.000823
114445000,0.0324,0.013523,0.002678,0.000431,0.000940
114446000,0.0324,0.013523,0.002678,0.000431,0.000705
114447000,0.0324,0.013523,0.002678,0.000431,0.000940
114448000,0.0324,0.013523,0.002678,0.000431,0.000705
114449000,0.0324,0.013523,0.002678,0.000431,0.000940
114450000,0.0324,0.013523,0.002678,0.000431,0.000940
114451000,0.0324,0.013523,0.002678,0.000431,0.000705
114452000,0.0324,0.013523,0.002678,0.000431,0.000940
114453000,0.0324,0.013523,0.002678,0.000431,0.000705
114454000,0.0324,0.013523,0.002678,0.000431,0.000940
114455000,0.0324,0.013523,0.002678,0.000431,0.000823
114456000,0.0324,0.013523,0.002678,0.000431,0.000823
114457000,0.0324,0.013523,0.002678,0.000431,0.000823
114458000,0.0324,0.013523,0.002678,0.000431,0.000823
114459000,0.0324,0.013523,0.002678,0.000431,0.000940
114460000,0.0324,0.013523,0.002678,0.000431,0.000705
114461000,0.0324,0.013523,0.002678,0.000431,0.000940
114462000,0.0324,0.013523,0.002678,0.000431,0.000823
114463000,0.0324,0.013523,0.002678,0.000431,0.000823
114464000,0.0324,0.013523,0.002678,0.000431,0.000823
114465000,0.0324,0.013523,0.002678,0.000431,0.000823
114466000,0.0324,0.013523,0.002678,0.000431,0.000823
114467000,0.0324,0.013523,0.002678,0.000431,0.000823
114468000,0.0324,0.013523,0.002678,0.000431,0.000823
114469000,0.0324,0.013523,0.002678,0.000431,0.000823
114470000,0.0324,0.013523,0.002678,0.000431,0.000940
114471000,0.0324,0.013523,0.002678,0.000431,0.000823
114472000,0.0324,0.013523,0.002678,0.000431,0.000823
114473000,0.0324,0.013523,0.002678,0.000431,0.000705
114474000,0.0324,0.013523,0.002678,0.000431,0.000940
114475000,0.0324,0.013523,0.002678,0.000431,0.000940
114476000,0.0324,0.013523,0.002678,0.000431,0.000705
114477000,0.0324,0.013523,0.002678,0.000431,0.000940
114478000,0.0324,0.013523,0.002678,0.000431,0.000705
114479000,0.0324,0.013523,0.002678,0.000431,0.000940
114480000,0.0324,0.013523,0.002678,0.000431,0.000823
114481000,0.0324,0.013523,0.002678,0.000431,0.000823
114482000,0.0324,0.013523,0.002678,0.000431,0.000940
114483000,0.0324,0.013523,0.002678,0.000431,0.000705
114484000,0.0324,0.013523,0.002678,0.000431,0.000940
114485000,0.0324,0.013523,0.002678,0.000431,0.000823
114486000,0.0324,0.013523,0.002678,0.000431,0.000823
114487000,0.0324,0.013523,0.002678,0.000431,0.000823
114488000,0.0324,0.013523,0.002678,0.000431,0.000823
114489000,0.0324,0.013523,0.002678,0.000431,0.000823
114490000,0.0324,0.013523,0.002678,0.000431,0.000823
114491000,0.0324,0.013523,0.002678,0.000431,0.000940
114492000,0.0324,0.013523,0.002678,0.000431,0.000705
114493000,0.0324,0.013523,0.002678,0.000431,0.000940
114494000,0.0324,0.013523,0.002678,0.000431,0.000823
114495000,0.0324,0.013523,0.002678,0.000431,0.000823
114496000,0.0324,0.013523,0.002678,0.000431,0.000705
114497000,0.0324,0.013523,0.002678,0.000431,0.000940
114498000,0.0324,0.013523,0.002678,0.000431,0.000940
114499000,0.0324,0.013523,0.002678,0.000431,0.000705
114500000,0.0324,0.013523,0.002678,0.000431,0.000940
114501000,0.0324,0.013523,0.002678,0.000431,0.000705
114502000,0.0324,0.013523,0.002678,0.000431,0.000940
114503000,0.0324,0.013523,0.002678,0.000431,0.000823
114504000,0.0324,0.013523,0.002678,0.000431,0.000823
114505000,0.0324,0.013523,0.002678,0.000431,0.000940
114506000,0.0324,0.013523,0.002678,0.000431,0.000705
114507000,0.0324,0.013523,0.002678,0.000431,0.000940
114508000,0.0324,0.013523,0.002678,0.000431,0.000823
114509000,0.0324,0.013523,0.002678,0.000431,0.000823
114510000,0.0324,0.013523,0.002678,0.000431,0.000823
114511000,0.0324,0.013523,0.002678,0.000431,0.000823
114512000,0.0324,0.013523,0.002678,0.000431,0.000823
114513000,0.0324,0.013523,0.002678,0.000431,0.000823
114514000,0.0324,0.013523,0.002678,0.000431,0.000940
114515000,0.0324,0.013523,0.002678,0.000431,0.000823
114516000,0.0324,0.013523,0.002678,0.000431,0.000705
114517000,0.0324,0.013523,0.002678,0.000431,0.000940
114518000,0.0324,0.013523,0.002678,0.000431,0.000823
114519000,0.0324,0.013523,0.002678,0.000431,0.000823
114520000,0.0324,0.013523,0.002678,0.000431,0.000823
114521000,0.0324,0.013523,0.002678,0.000431,0.000823
114522000,0.0324,0.013523,0.002678,0.000431,0.000823
114523000,0.0324,0.013523,0.002678,0.000431,0.000940
114524000,0.0324,0.013523,0.002678,0.000431,0.000823
114525000,0.0324,0.013523,0.002678,0.000431,0.000823
114526000,0.0324,0.013523,0.002678,0.000431,0.193804
114527000,0.0324,0.013523,0.002678,0.000431,0.491855
114528000,0.0324,0.013523,0.002678,0.000431,0.493501
114529000,0.0324,0.013523,0.002678,0.000431,0.132102
114530000,0.0324,0.013523,0.002678,0.000431,0.133512
114531000,0.0324,0.013523,0.002678,0.000431,0.566368
114532000,0.0324,0.013523,0.002678,0.000431,0.244576
114533000,0.0324,0.013523,0.002678,0.000431,0.263733
114534000,0.0324,0.013523,0.002678,0.000431,0.288179
114535000,0.0324,0.013523,0.002678,0.000431,0.147028
114536000,0.0324,0.013523,0.002678,0.000431,0.161014
114537000,0.0324,0.013523,0.002678,0.000431,0.093435
114538000,0.0324,0.013523,0.002678,0.000431,0.437087
114539000,0.0324,0.013523,0.002678,0.000431,0.118468
114540000,0.0324,0.013523,0.002678,0.000431,0.033613
114541000,0.0324,0.013523,0.002678,0.000431,0.026091
114542000,0.0324,0.013523,0.002678,0.000431,0.025034
114543000,0.0324,0.013523,0.002678,0.000431,0.022918
114544000,0.0324,0.013523,0.002678,0.000431,0.025151
114545000,0.0324,0.013523,0.002678,0.000431,0.020097
114546000,0.0324,0.013523,0.002678,0.000431,0.018922
114547000,0.0324,0.013523,0.002678,0.000431,0.020332
114548000,0.0324,0.013523,0.002678,0.000431,0.016101
114549000,0.0324,0.013523,0.002678,0.000431,0.017159
114550000,0.0324,0.013523,0.002678,0.000431,0.017277
114551000,0.0324,0.013523,0.002678,0.000431,0.017394
114552000,0.0324,0.013523,0.002678,0.000431,0.016924
114553000,0.0324,0.013523,0.002678,0.000431,0.011753
114554000,0.0324,0.013523,0.002678,0.000431,0.013986
114555000,0.0324,0.013523,0.002678,0.000431,0.010930
114556000,0.0324,0.013523,0.002678,0.000431,0.011165
114557000,0.0324,0.013523,0.002678,0.000431,0.013163
114558000,0.0324,0.013523,0.002678,0.000431,0.014338
114559000,0.0324,0.013523,0.002678,0.000431,0.008815
114560000,0.0324,0.013523,0.002678,0.000431,0.007874
114561000,0.0324,0.013523,0.002678,0.000431,0.009402
114562000,0.0324,0.013523,0.002678,0.000431,0.006699
114563000,0.0324,0.013523,0.002678,0.000431,0.006817
114564000,0.0324,0.013523,0.002678,0.000431,0.007404
114565000,0.0324,0.013523,0.002678,0.000431,0.006817
114566000,0.0324,0.013523,0.002678,0.000431,0.006817
114567000,0.0324,0.013523,0.002678,0.000431,0.007287
114568000,0.0324,0.013523,0.002678,0.000431,0.006817
114569000,0.0324,0.013523,0.002678,0.000431,0.006934
114570000,0.0324,0.013523,0.002678,0.000431,0.007052
114571000,0.0324,0.013523,0.002678,0.000431,0.007404
114572000,0.0324,0.013523,0.002678,0.000431,0.010342
114573000,0.0324,0.013523,0.002678,0.000431,0.005524
114574000,0.0324,0.013523,0.002678,0.000431,0.005054
114575000,0.0324,0.013523,0.002678,0.000431,0.005289
114576000,0.0324,0.013523,0.002678,0.000431,0.006111
114577000,0.0324,0.013523,0.002678,0.000431,0.005406
114578000,0.0324,0.013523,0.002678,0.000431,0.004466
114579000,0.0324,0.013523,0.002678,0.000431,0.003996
114580000,0.0324,0.013523,0.002678,0.000431,0.004819
114581000,0.0324,0.013523,0.002678,0.000431,0.004113
114582000,0.0324,0.013523,0.002678,0.000431,0.004584
114583000,0.0324,0.013523,0.002678,0.000431,0.004231
114584000,0.0324,0.013523,0.002678,0.000431,0.004349
114585000,0.0324,0.013523,0.002678,0.000431,0.005171
114586000,0.0324,0.013523,0.002678,0.000431,0.003291
114587000,0.0324,0.013523,0.002678,0.000431,0.003996
114588000,0.0324,0.013523,0.002678,0.000431,0.003056
114589000,0.0324,0.013523,0.002678,0.000431,0.003878
114590000,0.0324,0.013523,0.002678,0.000431,0.003291
114591000,0.0324,0.013523,0.002678,0.000431,0.005171
114592000,0.0324,0.013523,0.002678,0.000431,0.002468
114593000,0.0324,0.013523,0.002678,0.000431,0.002468
114594000,0.0324,0.013523,0.002678,0.000431,0.002351
114595000,0.0324,0.013523,0.002678,0.000431,0.002586
114596000,0.0324,0.013523,0.002678,0.000431,0.002586
114597000,0.0324,0.013523,0.002678,0.000431,0.002233
114598000,0.0324,0.013523,0.002678,0.000431,0.002703
114599000,0.0324,0.013523,0.002678,0.000431,0.002586
114600000,0.0324,0.013523,0.002678,0.000431,0.002351
114601000,0.0324,0.013523,0.002678,0.000431,0.002468
114602000,0.0324,0.013523,0.002678,0.000431,0.002116
114603000,0.0324,0.013523,0.002678,0.000431,0.002703
114604000,0.0324,0.013523,0.002678,0.000431,0.002586
114605000,0.0324,0.013523,0.002678,0.000431,0.002116
114606000,0.0324,0.013523,0.002678,0.000431,0.002586
114607000,0.0324,0.013523,0.002678,0.000431,0.002233
114608000,0.0324,0.013523,0.002678,0.000431,0.002586
114609000,0.0324,0.013523,0.002678,0.000431,0.002468
114610000,0.0324,0.013523,0.002678,0.000431,0.002233
114611000,0.0324,0.013523,0.002678,0.000431,0.002703
114612000,0.0324,0.013523,0.002678,0.000431,0.002233
114613000,0.0324,0.013523,0.002678,0.000431,0.002468
114614000,0.0324,0.013523,0.002678,0.000431,0.002703
114615000,0.0324,0.013523,0.002678,0.000431,0.002468
114616000,0.0324,0.013523,0.002678,0.000431,0.003996
114617000,0.0324,0.013523,0.002678,0.000431,0.001763
114618000,0.0324,0.013523,0.002678,0.000431,0.001880
114619000,0.0324,0.013523,0.002678,0.000431,0.001410
114620000,0.0324,0.013523,0.002678,0.000431,0.001645
114621000,0.0324,0.013523,0.002678,0.000431,0.001880
114622000,0.0324,0.013523,0.002678,0.000431,0.001175
114623000,0.0324,0.013523,0.002678,0.000431,0.001880
114624000,0.0324,0.013523,0.002678,0.000431,0.001410
114625000,0.0324,0.013523,0.002678,0.000431,0.001645
114626000,0.0324,0.013523,0.002678,0.000431,0.001763
114627000,0.0324,0.013523,0.002678,0.000431,0.001293
114628000,0.0324,0.013523,0.002678,0.000431,0.001880
114629000,0.0324,0.013523,0.002678,0.000431,0.001410
114630000,0.0324,0.013523,0.002678,0.000431,0.001645
114631000,0.0324,0.013523,0.002678,0.000431,0.001645
114632000,0.0324,0.013523,0.002678,0.000431,0.001410
114633000,0.0324,0.013523,0.002678,0.000431,0.001880
114634000,0.0324,0.013523,0.002678,0.000431,0.001645
114635000,0.0324,0.013523,0.002678,0.000431,0.001645
114636000,0.0324,0.013523,0.002678,0.000431,0.001645
114637000,0.0324,0.013523,0.002678,0.000431,0.001645
114638000,0.0324,0.013523,0.002678,0.000431,0.001645
114639000,0.0324,0.013523,0.002678,0.000431,0.001528
114640000,0.0324,0.013523,0.002678,0.000431,0.001763
114641000,0.0324,0.013523,0.002678,0.000431,0.001645
114642000,0.0324,0.013523,0.002678,0.000431,0.001410
114643000,0.0324,0.013523,0.002678,0.000431,0.001645
114644000,0.0324,0.013523,0.002678,0.000431,0.001528
114645000,0.0324,0.013523,0.002678,0.000431,0.001763
114646000,0.0324,0.013523,0.002678,0.000431,0.001410
114647000,0.0324,0.013523,0.002678,0.000431,0.001645
114648000,0.0324,0.013523,0.002678,0.000431,0.001645
114649000,0.0324,0.013523,0.002678,0.000431,0.001528
114650000,0.0324,0.013523,0.002678,0.000431,0.001528
114651000,0.0324,0.013523,0.002678,0.000431,0.001645
114652000,0.0324,0.013523,0.002678,0.000431,0.001410
114653000,0.0324,0.013523,0.002678,0.000431,0.001645
114654000,0.0324,0.013523,0.002678,0.000431,0.001645
114655000,0.0324,0.013523,0.002678,0.000431,0.001410
114656000,0.0324,0.013523,0.002678,0.000431,0.001880
114657000,0.0324,0.013523,0.002678,0.000431,0.001175
114658000,0.0324,0.013523,0.002678,0.000431,0.001880
114659000,0.0324,0.013523,0.002678,0.000431,0.001410
114660000,0.0324,0.013523,0.002678,0.000431,0.001645
114661000,0.0324,0.013523,0.002678,0.000431,0.001880
114662000,0.0324,0.013523,0.002678,0.000431,0.001175
114663000,0.0324,0.013523,0.002678,0.000431,0.001880
114664000,0.0324,0.013523,0.002678,0.000431,0.001410
114665000,0.0324,0.013523,0.002678,0.000431,0.001645
114666000,0.0324,0.013523,0.002678,0.000431,0.001645
114667000,0.0324,0.013523,0.002678,0.000431,0.001410
114668000,0.0324,0.013523,0.002678,0.000431,0.001645
114669000,0.0324,0.013523,0.002678,0.000431,0.001645
114670000,0.0324,0.013523,0.002678,0.000431,0.001410
114671000,0.0324,0.013523,0.002678,0.000431,0.001645
114672000,0.0324,0.013523,0.002678,0.000431,0.001410
114673000,0.0324,0.013523,0.002678,0.000431,0.001645
114674000,0.0324,0.013523,0.002678,0.000431,0.001880
114675000,0.0324,0.013523,0.002678,0.000431,0.001175
114676000,0.0324,0.013523,0.002678,0.000431,0.001880
114677000,0.0324,0.013523,0.002678,0.000431,0.001293
114678000,0.0324,0.013523,0.002678,0.000431,0.001763
114679000,0.0324,0.013523,0.002678,0.000431,0.001645
114680000,0.0324,0.013523,0.002678,0.000431,0.001410
114681000,0.0324,0.013523,0.002678,0.000431,0.001880
114682000,0.0324,0.013523,0.002678,0.000431,0.001293
114683000,0.0324,0.013523,0.002678,0.000431,0.001763
114684000,0.0324,0.013523,0.002678,0.000431,0.001645
114685000,0.0324,0.013523,0.002678,0.000431,0.001998
114686000,0.0324,0.013523,0.002678,0.000431,0.335308
114687000,0.0324,0.013523,0.002678,0.000431,0.649578
114688000,0.0324,0.013523,0.002678,0.000431,0.171004
114689000,0.0324,0.013523,0.002678,0.000431,0.132572
114690000,0.0324,0.013523,0.002678,0.000431,0.132572
114691000,0.0324,0.013523,0.002678,0.000431,0.621724
114692000,0.0324,0.013523,0.002678,0.000431,0.258680
114693000,0.0324,0.013523,0.002678,0.000431,0.242813
114694000,0.0324,0.013523,0.002678,0.000431,0.252451
114695000,0.0324,0.013523,0.002678,0.000431,0.143267
114696000,0.0324,0.013523,0.002678,0.000431,0.151611
114697000,0.0324,0.013523,0.002678,0.000431,0.106481
114698000,0.0324,0.013523,0.002678,0.000431,0.406765
114699000,0.0324,0.013523,0.002678,0.000431,0.175705
114700000,0.0324,0.013523,0.002678,0.000431,0.052888
114701000,0.0324,0.013523,0.002678,0.000431,0.045483
114702000,0.0324,0.013523,0.002678,0.000431,0.038197
114703000,0.0324,0.013523,0.002678,0.000431,0.029147
114704000,0.0324,0.013523,0.002678,0.000431,0.033260
114705000,0.0324,0.013523,0.002678,0.000431,0.028089
114706000,0.0324,0.013523,0.002678,0.000431,0.024563
114707000,0.0324,0.013523,0.002678,0.000431,0.015631
114708000,0.0324,0.013523,0.002678,0.000431,0.014338
114709000,0.0324,0.013523,0.002678,0.000431,0.015514
114710000,0.0324,0.013523,0.002678,0.000431,0.012105
114711000,0.0324,0.013523,0.002678,0.000431,0.012223
114712000,0.0324,0.013523,0.002678,0.000431,0.011753
114713000,0.0324,0.013523,0.002678,0.000431,0.013751
114714000,0.0324,0.013523,0.002678,0.000431,0.010813
114715000,0.0324,0.013523,0.002678,0.000431,0.010930
114716000,0.0324,0.013523,0.002678,0.000431,0.011400
114717000,0.0324,0.013523,0.002678,0.000431,0.011165
114718000,0.0324,0.013523,0.002678,0.000431,0.011988
114719000,0.0324,0.013523,0.002678,0.000431,0.010107
114720000,0.0324,0.013523,0.002678,0.000431,0.012223
114721000,0.0324,0.013523,0.002678,0.000431,0.010460
114722000,0.0324,0.013523,0.002678,0.000431,0.009990
114723000,0.0324,0.013523,0.002678,0.000431,0.008109
114724000,0.0324,0.013523,0.002678,0.000431,0.008345
114725000,0.0324,0.013523,0.002678,0.000431,0.008580
114726000,0.0324,0.013523,0.002678,0.000431,0.010930
114727000,0.0324,0.013523,0.002678,0.000431,0.007522
114728000,0.0324,0.013523,0.002678,0.000431,0.007757
114729000,0.0324,0.013523,0.002678,0.000431,0.007639
114730000,0.0324,0.013523,0.002678,0.000431,0.007757
114731000,0.0324,0.013523,0.002678,0.000431,0.008462
114732000,0.0324,0.013523,0.002678,0.000431,0.008227
114733000,0.0324,0.013523,0.002678,0.000431,0.005994
114734000,0.0324,0.013523,0.002678,0.000431,0.005524
114735000,0.0324,0.013523,0.002678,0.000431,0.005994
114736000,0.0324,0.013523,0.002678,0.000431,0.008932
114737000,0.0324,0.013523,0.002678,0.000431,0.003761
114738000,0.0324,0.013523,0.002678,0.000431,0.006934
114739000,0.0324,0.013523,0.002678,0.000431,0.003291
114740000,0.0324,0.013523,0.002678,0.000431,0.004466
114741000,0.0324,0.013523,0.002678,0.000431,0.002351
114742000,0.0324,0.013523,0.002678,0.000431,0.001763
114743000,0.0324,0.013523,0.002678,0.000431,0.001528
114744000,0.0324,0.013523,0.002678,0.000431,0.001880
114745000,0.0324,0.013523,0.002678,0.000431,0.001645
114746000,0.0324,0.013523,0.002678,0.000431,0.001763
114747000,0.0324,0.013523,0.002678,0.000431,0.001763
114748000,0.0324,0.013523,0.002678,0.000431,0.001645
114749000,0.0324,0.013523,0.002678,0.000431,0.001880
114750000,0.0324,0.013523,0.002678,0.000431,0.001410
114751000,0.0324,0.013523,0.002678,0.000431,0.001880
114752000,0.0324,0.013523,0.002678,0.000431,0.001763
114753000,0.0324,0.013523,0.002678,0.000431,0.001763
114754000,0.0324,0.013523,0.002678,0.000431,0.001528
114755000,0.0324,0.013523,0.002678,0.000431,0.001763
114756000,0.0324,0.013523,0.002678,0.000431,0.001880
114757000,0.0324,0.013523,0.002678,0.000431,0.001528
114758000,0.0324,0.013523,0.002678,0.000431,0.001880
114759000,0.0324,0.013523,0.002678,0.000431,0.001645
114760000,0.0324,0.013523,0.002678,0.000431,0.001763
114761000,0.0324,0.013523,0.002678,0.000431,0.001763
114762000,0.0324,0.013523,0.002678,0.000431,0.001645
114763000,0.0324,0.013523,0.002678,0.000431,0.003761
114764000,0.0324,0.013523,0.002678,0.000431,0.000823
114765000,0.0324,0.013523,0.002678,0.000431,0.000823
114766000,0.0324,0.013523,0.002678,0.000431,0.000940
114767000,0.0324,0.013523,0.002678,0.000431,0.000940
114768000,0.0324,0.013523,0.002678,0.000431,0.000940
114769000,0.0324,0.013523,0.002678,0.000431,0.000705
114770000,0.0324,0.013523,0.002678,0.000431,0.000940
114771000,0.0324,0.013523,0.002678,0.000431,0.000940
114772000,0.0324,0.013523,0.002678,0.000431,0.000823
114773000,0.0324,0.013523,0.002678,0.000431,0.000823
114774000,0.0324,0.013523,0.002678,0.000431,0.000940
114775000,0.0324,0.013523,0.002678,0.000431,0.000940
114776000,0.0324,0.013523,0.002678,0.000431,0.000823
114777000,0.0324,0.013523,0.002678,0.000431,0.000823
114778000,0.0324,0.013523,0.002678,0.000431,0.000940
114779000,0.0324,0.013523,0.002678,0.000431,0.000823
114780000,0.0324,0.013523,0.002678,0.000431,0.000940
114781000,0.0324,0.013523,0.002678,0.000431,0.000823
114782000,0.0324,0.013523,0.002678,0.000431,0.000940
114783000,0.0324,0.013523,0.002678,0.000431,0.000823
114784000,0.0324,0.013523,0.002678,0.000431,0.000823
114785000,0.0324,0.013523,0.002678,0.000431,0.000940
114786000,0.0324,0.013523,0.002678,0.000431,0.000940
114787000,0.0324,0.013523,0.002678,0.000431,0.000823
114788000,0.0324,0.013523,0.002678,0.000431,0.000823
114789000,0.0324,0.013523,0.002678,0.000431,0.000940
114790000,0.0324,0.013523,0.002678,0.000431,0.000940
114791000,0.0324,0.013523,0.002678,0.000431,0.000823
114792000,0.0324,0.013523,0.002678,0.000431,0.000823
114793000,0.0324,0.013523,0.002678,0.000431,0.000940
114794000,0.0324,0.013523,0.002678,0.000431,0.000940
114795000,0.0324,0.013523,0.002678,0.000431,0.000823
114796000,0.0324,0.013523,0.002678,0.000431,0.000823
114797000,0.0324,0.013523,0.002678,0.000431,0.000940
114798000,0.0324,0.013523,0.002678,0.000431,0.000823
114799000,0.0324,0.013523,0.002678,0.000431,0.000940
114800000,0.0324,0.013523,0.002678,0.000431,0.000823
114801000,0.0324,0.013523,0.002678,0.000431,0.000940
114802000,0.0324,0.013523,0.002678,0.000431,0.000823
114803000,0.0324,0.013523,0.002678,0.000431,0.000823
114804000,0.0324,0.013523,0.002678,0.000431,0.000940
114805000,0.0324,0.013523,0.002678,0.000431,0.000940
114806000,0.0324,0.013523,0.002678,0.000431,0.000705
114807000,0.0324,0.013523,0.002678,0.000431,0.000940
114808000,0.0324,0.013523,0.002678,0.000431,0.000940
114809000,0.0324,0.013523,0.002678,0.000431,0.000940
114810000,0.0324,0.013523,0.002678,0.000431,0.000705
114811000,0.0324,0.013523,0.002678,0.000431,0.000940
114812000,0.0324,0.013523,0.002678,0.000431,0.000940
114813000,0.0324,0.013523,0.002678,0.000431,0.000823
114814000,0.0324,0.013523,0.002678,0.000431,0.000823
114815000,0.0324,0.013523,0.002678,0.000431,0.000940
114816000,0.0324,0.013523,0.002678,0.000431,0.000940
114817000,0.0324,0.013523,0.002678,0.000431,0.000823
114818000,0.0324,0.013523,0.002678,0.000431,0.000823
114819000,0.0324,0.013523,0.002678,0.000431,0.000940
114820000,0.0324,0.013523,0.002678,0.000431,0.000940
114821000,0.0324,0.013523,0.002678,0.000431,0.008345
114822000,0.0324,0.013523,0.002678,0.000431,0.448135
114823000,0.0324,0.013523,0.002678,0.000431,0.620079
114824000,0.0324,0.013523,0.002678,0.000431,0.132337
114825000,0.0324,0.013523,0.002678,0.000431,0.133277
114826000,0.0324,0.013523,0.002678,0.000431,0.182874
114827000,0.0324,0.013523,0.002678,0.000431,0.560609
114828000,0.0324,0.013523,0.002678,0.000431,0.244459
114829000,0.0324,0.013523,0.002678,0.000431,0.263616
114830000,0.0324,0.013523,0.002678,0.000431,0.248102
114831000,0.0324,0.013523,0.002678,0.000431,0.144325
114832000,0.0324,0.013523,0.002678,0.000431,0.166772
114833000,0.0324,0.013523,0.002678,0.000431,0.106951
114834000,0.0324,0.013523,0.002678,0.000431,0.456832
114835000,0.0324,0.013523,0.002678,0.000431,0.115765
114836000,0.0324,0.013523,0.002678,0.000431,0.069929
114837000,0.0324,0.013523,0.002678,0.000431,0.059822
114838000,0.0324,0.013523,0.002678,0.000431,0.055473
114839000,0.0324,0.013523,0.002678,0.000431,0.044896
114840000,0.0324,0.013523,0.002678,0.000431,0.040547
114841000,0.0324,0.013523,0.002678,0.000431,0.035258
114842000,0.0324,0.013523,0.002678,0.000431,0.032908
114843000,0.0324,0.013523,0.002678,0.000431,0.033378
114844000,0.0324,0.013523,0.002678,0.000431,0.021860
114845000,0.0324,0.013523,0.002678,0.000431,0.022095
114846000,0.0324,0.013523,0.002678,0.000431,0.021860
114847000,0.0324,0.013523,0.002678,0.000431,0.018922
114848000,0.0324,0.013523,0.002678,0.000431,0.016807
114849000,0.0324,0.013523,0.002678,0.000431,0.015866
114850000,0.0324,0.013523,0.002678,0.000431,0.015631
114851000,0.0324,0.013523,0.002678,0.000431,0.016101
114852000,0.0324,0.013523,0.002678,0.000431,0.012458
114853000,0.0324,0.013523,0.002678,0.000431,0.012223
114854000,0.0324,0.013523,0.002678,0.000431,0.011635
114855000,0.0324,0.013523,0.002678,0.000431,0.013633
114856000,0.0324,0.013523,0.002678,0.000431,0.013163
114857000,0.0324,0.013523,0.002678,0.000431,0.011165
114858000,0.0324,0.013523,0.002678,0.000431,0.009520
114859000,0.0324,0.013523,0.002678,0.000431,0.008932
114860000,0.0324,0.013523,0.002678,0.000431,0.010578
114861000,0.0324,0.013523,0.002678,0.000431,0.008580
114862000,0.0324,0.013523,0.002678,0.000431,0.008462
114863000,0.0324,0.013523,0.002678,0.000431,0.007992
114864000,0.0324,0.013523,0.002678,0.000431,0.008227
114865000,0.0324,0.013523,0.002678,0.000431,0.009050
114866000,0.0324,0.013523,0.002678,0.000431,0.007757
114867000,0.0324,0.013523,0.002678,0.000431,0.008109
114868000,0.0324,0.013523,0.002678,0.000431,0.009872
114869000,0.0324,0.013523,0.002678,0.000431,0.007287
114870000,0.0324,0.013523,0.002678,0.000431,0.007874
114871000,0.0324,0.013523,0.002678,0.000431,0.007052
114872000,0.0324,0.013523,0.002678,0.000431,0.007404
114873000,0.0324,0.013523,0.002678,0.000431,0.008109
114874000,0.0324,0.013523,0.002678,0.000431,0.008697
114875000,0.0324,0.013523,0.002678,0.000431,0.008345
114876000,0.0324,0.013523,0.002678,0.000431,0.006817
114877000,0.0324,0.013523,0.002678,0.000431,0.006464
114878000,0.0324,0.013523,0.002678,0.000431,0.006699
114879000,0.0324,0.013523,0.002678,0.000431,0.008345
114880000,0.0324,0.013523,0.002678,0.000431,0.005641
114881000,0.0324,0.013523,0.002678,0.000431,0.005876
114882000,0.0324,0.013523,0.002678,0.000431,0.005876
114883000,0.0324,0.013523,0.002678,0.000431,0.005641
114884000,0.0324,0.013523,0.002678,0.000431,0.005994
114885000,0.0324,0.013523,0.002678,0.000431,0.005759
114886000,0.0324,0.013523,0.002678,0.000431,0.005406
114887000,0.0324,0.013523,0.002678,0.000431,0.006111
114888000,0.0324,0.013523,0.002678,0.000431,0.005641
114889000,0.0324,0.013523,0.002678,0.000431,0.005759
114890000,0.0324,0.013523,0.002678,0.000431,0.005641
114891000,0.0324,0.013523,0.002678,0.000431,0.005876
114892000,0.0324,0.013523,0.002678,0.000431,0.005524
114893000,0.0324,0.013523,0.002678,0.000431,0.005171
114894000,0.0324,0.013523,0.002678,0.000431,0.004936
114895000,0.0324,0.013523,0.002678,0.000431,0.006934
114896000,0.0324,0.013523,0.002678,0.000431,0.004349
114897000,0.0324,0.013523,0.002678,0.000431,0.004113
114898000,0.0324,0.013523,0.002678,0.000431,0.004584
114899000,0.0324,0.013523,0.002678,0.000431,0.004231
114900000,0.0324,0.013523,0.002678,0.000431,0.004231
114901000,0.0324,0.013523,0.002678,0.000431,0.004349
114902000,0.0324,0.013523,0.002678,0.000431,0.004349
114903000,0.0324,0.013523,0.002678,0.000431,0.004466
114904000,0.0324,0.013523,0.002678,0.000431,0.003878
114905000,0.0324,0.013523,0.002678,0.000431,0.004584
114906000,0.0324,0.013523,0.002678,0.000431,0.005759
114907000,0.0324,0.013523,0.002678,0.000431,0.003643
114908000,0.0324,0.013523,0.002678,0.000431,0.003291
114909000,0.0324,0.013523,0.002678,0.000431,0.003408
114910000,0.0324,0.013523,0.002678,0.000431,0.003643
114911000,0.0324,0.013523,0.002678,0.000431,0.003291
114912000,0.0324,0.013523,0.002678,0.000431,0.003526
114913000,0.0324,0.013523,0.002678,0.000431,0.003291
114914000,0.0324,0.013523,0.002678,0.000431,0.003526
114915000,0.0324,0.013523,0.002678,0.000431,0.003526
114916000,0.0324,0.013523,0.002678,0.000431,0.003291
114917000,0.0324,0.013523,0.002678,0.000431,0.003291
114918000,0.0324,0.013523,0.002678,0.000431,0.003643
114919000,0.0324,0.013523,0.002678,0.000431,0.003643
114920000,0.0324,0.013523,0.002678,0.000431,0.003291
114921000,0.0324,0.013523,0.002678,0.000431,0.003408
114922000,0.0324,0.013523,0.002678,0.000431,0.003291
114923000,0.0324,0.013523,0.002678,0.000431,0.005289
114924000,0.0324,0.013523,0.002678,0.000431,0.002586
114925000,0.0324,0.013523,0.002678,0.000431,0.002586
114926000,0.0324,0.013523,0.002678,0.000431,0.002821
114927000,0.0324,0.013523,0.002678,0.000431,0.004231
114928000,0.0324,0.013523,0.002678,0.000431,0.004231
114929000,0.0324,0.013523,0.002678,0.000431,0.000940
114930000,0.0324,0.013523,0.002678,0.000431,0.000940
114931000,0.0324,0.013523,0.002678,0.000431,0.000823
114932000,0.0324,0.013523,0.002678,0.000431,0.000823
114933000,0.0324,0.013523,0.002678,0.000431,0.000940
114934000,0.0324,0.013523,0.002678,0.000431,0.000940
114935000,0.0324,0.013523,0.002678,0.000431,0.000823
114936000,0.0324,0.013523,0.002678,0.000431,0.000823
114937000,0.0324,0.013523,0.002678,0.000431,0.000940
114938000,0.0324,0.013523,0.002678,0.000431,0.000823
114939000,0.0324,0.013523,0.002678,0.000431,0.000940
114940000,0.0324,0.013523,0.002678,0.000431,0.000823
114941000,0.0324,0.013523,0.002678,0.000431,0.000940
114942000,0.0324,0.013523,0.002678,0.000431,0.000823
114943000,0.0324,0.013523,0.002678,0.000431,0.000823
114944000,0.0324,0.013523,0.002678,0.000431,0.000940
114945000,0.0324,0.013523,0.002678,0.000431,0.000940
114946000,0.0324,0.013523,0.002678,0.000431,0.000705
114947000,0.0324,0.013523,0.002678,0.000431,0.000940
114948000,0.0324,0.013523,0.002678,0.000431,0.000940
114949000,0.0324,0.013523,0.002678,0.000431,0.000940
114950000,0.0324,0.013523,0.002678,0.000431,0.000705
114951000,0.0324,0.013523,0.002678,0.000431,0.000940
114952000,0.0324,0.013523,0.002678,0.000431,0.000940
114953000,0.0324,0.013523,0.002678,0.000431,0.000823
114954000,0.0324,0.013523,0.002678,0.000431,0.000823
114955000,0.0324,0.013523,0.002678,0.000431,0.000940
114956000,0.0324,0.013523,0.002678,0.000431,0.000940
114957000,0.0324,0.013523,0.002678,0.000431,0.000823
114958000,0.0324,0.013523,0.002678,0.000431,0.000823
114959000,0.0324,0.013523,0.002678,0.000431,0.000940
114960000,0.0324,0.013523,0.002678,0.000431,0.000823
114961000,0.0324,0.013523,0.002678,0.000431,0.000940
114962000,0.0324,0.013523,0.002678,0.000431,0.000823
114963000,0.0324,0.013523,0.002678,0.000431,0.000940
114964000,0.0324,0.013523,0.002678,0.000431,0.000823
114965000,0.0324,0.013523,0.002678,0.000431,0.000823
114966000,0.0324,0.013523,0.002678,0.000431,0.000940
114967000,0.0324,0.013523,0.002678,0.000431,0.000940
114968000,0.0324,0.013523,0.002678,0.000431,0.000940
114969000,0.0324,0.013523,0.002678,0.000431,0.000705
114970000,0.0324,0.013523,0.002678,0.000431,0.000940
114971000,0.0324,0.013523,0.002678,0.000431,0.000940
114972000,0.0324,0.013523,0.002678,0.000431,0.000823
114973000,0.0324,0.013523,0.002678,0.000431,0.000823
114974000,0.0324,0.013523,0.002678,0.000431,0.000940
114975000,0.0324,0.013523,0.002678,0.000431,0.000940
114976000,0.0324,0.013523,0.002678,0.000431,0.000823
114977000,0.0324,0.013523,0.002678,0.000431,0.000823
114978000,0.0324,0.013523,0.002678,0.000431,0.000940
114979000,0.0324,0.013523,0.002678,0.000431,0.000823
114980000,0.0324,0.013523,0.002678,0.000431,0.001058
114981000,0.0324,0.013523,0.002678,0.000431,0.224596
114982000,0.0324,0.013523,0.002678,0.000431,0.617140
114983000,0.0324,0.013523,0.002678,0.000431,0.361987
114984000,0.0324,0.013523,0.002678,0.000431,0.132572
114985000,0.0324,0.013523,0.002678,0.000431,0.133512
114986000,0.0324,0.013523,0.002678,0.000431,0.604800
114987000,0.0324,0.013523,0.002678,0.000431,0.227887
114988000,0.0324,0.013523,0.002678,0.000431,0.311685
114989000,0.0324,0.013523,0.002678,0.000431,0.272078
114990000,0.0324,0.013523,0.002678,0.000431,0.143737
114991000,0.0324,0.013523,0.002678,0.000431,0.150789
114992000,0.0324,0.013523,0.002678,0.000431,0.163599
114993000,0.0324,0.013523,0.002678,0.000431,0.444139
114994000,0.0324,0.013523,0.002678,0.000431,0.092260
114995000,0.0324,0.013523,0.002678,0.000431,0.078626
114996000,0.0324,0.013523,0.002678,0.000431,0.067461
114997000,0.0324,0.013523,0.002678,0.000431,0.062055
114998000,0.0324,0.013523,0.002678,0.000431,0.051360
114999000,0.0324,0.013523,0.002678,0.000431,0.049127
