Cycle,Area(mm^2),PeakDynamic(W),SubthresholdLeakage(W),GateLeakage(W),RunTimeDynamic(W)
1000000,0.0324,0.013523,0.002678,0.000431,0.764403
1001000,0.0324,0.013523,0.002678,0.000431,0.781915
1002000,0.0324,0.013523,0.002678,0.000431,0.755471
1003000,0.0324,0.013523,0.002678,0.000431,0.661566
1004000,0.0324,0.013523,0.002678,0.000431,0.695649
1005000,0.0324,0.013523,0.002678,0.000431,0.742308
1006000,0.0324,0.013523,0.002678,0.000431,0.664974
1007000,0.0324,0.013523,0.002678,0.000431,0.700468
1008000,0.0324,0.013523,0.002678,0.000431,0.746186
1009000,0.0324,0.013523,0.002678,0.000431,0.723856
1010000,0.0324,0.013523,0.002678,0.000431,0.791552
1011000,0.0324,0.013523,0.002678,0.000431,0.722798
1012000,0.0324,0.013523,0.002678,0.000431,0.821052
1013000,0.0324,0.013523,0.002678,0.000431,0.836918
1014000,0.0324,0.013523,0.002678,0.000431,0.752533
1015000,0.0324,0.013523,0.002678,0.000431,0.814118
1016000,0.0324,0.013523,0.002678,0.000431,0.791435
1017000,0.0324,0.013523,0.002678,0.000431,0.764403
1018000,0.0324,0.013523,0.002678,0.000431,0.798957
1019000,0.0324,0.013523,0.002678,0.000431,0.735374
1020000,0.0324,0.013523,0.002678,0.000431,0.649696
1021000,0.0324,0.013523,0.002678,0.000431,0.757352
1022000,0.0324,0.013523,0.002678,0.000431,0.725266
1023000,0.0324,0.013523,0.002678,0.000431,0.788026
1024000,0.0324,0.013523,0.002678,0.000431,0.784383
1025000,0.0324,0.013523,0.002678,0.000431,0.861129
1026000,0.0324,0.013523,0.002678,0.000431,0.739487
1027000,0.0324,0.013523,0.002678,0.000431,0.708225
1028000,0.0324,0.013523,0.002678,0.000431,0.701761
1029000,0.0324,0.013523,0.002678,0.000431,0.744541
1030000,0.0324,0.013523,0.002678,0.000431,0.730085
1031000,0.0324,0.013523,0.002678,0.000431,0.807536
1032000,0.0324,0.013523,0.002678,0.000431,0.792022
1033000,0.0324,0.013523,0.002678,0.000431,0.798957
1034000,0.0324,0.013523,0.002678,0.000431,0.685307
1035000,0.0324,0.013523,0.002678,0.000431,0.752650
1036000,0.0324,0.013523,0.002678,0.000431,0.774863
1037000,0.0324,0.013523,0.002678,0.000431,0.751475
1038000,0.0324,0.013523,0.002678,0.000431,0.819406
1039000,0.0324,0.013523,0.002678,0.000431,0.721976
1040000,0.0324,0.013523,0.002678,0.000431,0.746304
1041000,0.0324,0.013523,0.002678,0.000431,0.711398
1042000,0.0324,0.013523,0.002678,0.000431,0.852549
1043000,0.0324,0.013523,0.002678,0.000431,0.835390
1044000,0.0324,0.013523,0.002678,0.000431,0.803893
1045000,0.0324,0.013523,0.002678,0.000431,0.838564
1046000,0.0324,0.013523,0.002678,0.000431,0.774981
1047000,0.0324,0.013523,0.002678,0.000431,0.848671
1048000,0.0324,0.013523,0.002678,0.000431,0.743131
1049000,0.0324,0.013523,0.002678,0.000431,0.871942
1050000,0.0324,0.013523,0.002678,0.000431,0.753708
1051000,0.0324,0.013523,0.002678,0.000431,0.717627
1052000,0.0324,0.013523,0.002678,0.000431,0.799779
1053000,0.0324,0.013523,0.002678,0.000431,0.766871
1054000,0.0324,0.013523,0.002678,0.000431,0.780622
1055000,0.0324,0.013523,0.002678,0.000431,0.690831
1056000,0.0324,0.013523,0.002678,0.000431,0.792257
1057000,0.0324,0.013523,0.002678,0.000431,0.761348
1058000,0.0324,0.013523,0.002678,0.000431,0.788026
1059000,0.0324,0.013523,0.002678,0.000431,0.753238
1060000,0.0324,0.013523,0.002678,0.000431,0.766401
1061000,0.0324,0.013523,0.002678,0.000431,0.702936
1062000,0.0324,0.013523,0.002678,0.000431,0.739135
1063000,0.0324,0.013523,0.002678,0.000431,0.713396
1064000,0.0324,0.013523,0.002678,0.000431,0.806713
1065000,0.0324,0.013523,0.002678,0.000431,0.838446
1066000,0.0324,0.013523,0.002678,0.000431,0.832922
1067000,0.0324,0.013523,0.002678,0.000431,0.842324
1068000,0.0324,0.013523,0.002678,0.000431,0.866183
1069000,0.0324,0.013523,0.002678,0.000431,0.781680
1070000,0.0324,0.013523,0.002678,0.000431,0.778037
1071000,0.0324,0.013523,0.002678,0.000431,0.906612
1072000,0.0324,0.013523,0.002678,0.000431,0.831277
1073000,0.0324,0.013523,0.002678,0.000431,0.815998
1074000,0.0324,0.013523,0.002678,0.000431,0.713514
1075000,0.0324,0.013523,0.002678,0.000431,0.785323
1076000,0.0324,0.013523,0.002678,0.000431,0.732906
1077000,0.0324,0.013523,0.002678,0.000431,0.745364
1078000,0.0324,0.013523,0.002678,0.000431,0.769692
1079000,0.0324,0.013523,0.002678,0.000431,0.826693
1080000,0.0324,0.013523,0.002678,0.000431,0.789672
1081000,0.0324,0.013523,0.002678,0.000431,0.666972
1082000,0.0324,0.013523,0.002678,0.000431,0.717862
1083000,0.0324,0.013523,0.002678,0.000431,0.594575
1084000,0.0324,0.013523,0.002678,0.000431,0.854782
1085000,0.0324,0.013523,0.002678,0.000431,0.723856
1086000,0.0324,0.013523,0.002678,0.000431,0.701291
1087000,0.0324,0.013523,0.002678,0.000431,0.788026
1088000,0.0324,0.013523,0.002678,0.000431,0.835038
1089000,0.0324,0.013523,0.002678,0.000431,0.725972
1090000,0.0324,0.013523,0.002678,0.000431,0.763463
1091000,0.0324,0.013523,0.002678,0.000431,0.788967
1092000,0.0324,0.013523,0.002678,0.000431,0.723621
1093000,0.0324,0.013523,0.002678,0.000431,0.825753
1094000,0.0324,0.013523,0.002678,0.000431,0.720565
1095000,0.0324,0.013523,0.002678,0.000431,0.826576
1096000,0.0324,0.013523,0.002678,0.000431,0.749830
1097000,0.0324,0.013523,0.002678,0.000431,0.815411
1098000,0.0324,0.013523,0.002678,0.000431,0.743601
1099000,0.0324,0.013523,0.002678,0.000431,0.856780
1100000,0.0324,0.013523,0.002678,0.000431,0.671674
1101000,0.0324,0.013523,0.002678,0.000431,0.697765
1102000,0.0324,0.013523,0.002678,0.000431,0.736432
1103000,0.0324,0.013523,0.002678,0.000431,0.714336
1104000,0.0324,0.013523,0.002678,0.000431,0.650283
1105000,0.0324,0.013523,0.002678,0.000431,0.684837
1106000,0.0324,0.013523,0.002678,0.000431,0.869238
1107000,0.0324,0.013523,0.002678,0.000431,0.669911
1108000,0.0324,0.013523,0.002678,0.000431,0.781327
1109000,0.0324,0.013523,0.002678,0.000431,0.835155
1110000,0.0324,0.013523,0.002678,0.000431,0.720448
1111000,0.0324,0.013523,0.002678,0.000431,0.814705
1112000,0.0324,0.013523,0.002678,0.000431,0.724326
1113000,0.0324,0.013523,0.002678,0.000431,0.729732
1114000,0.0324,0.013523,0.002678,0.000431,0.714219
1115000,0.0324,0.013523,0.002678,0.000431,0.733258
1116000,0.0324,0.013523,0.002678,0.000431,0.709870
1117000,0.0324,0.013523,0.002678,0.000431,0.858073
1118000,0.0324,0.013523,0.002678,0.000431,0.699880
1119000,0.0324,0.013523,0.002678,0.000431,0.750417
1120000,0.0324,0.013523,0.002678,0.000431,0.742426
1121000,0.0324,0.013523,0.002678,0.000431,0.742073
1122000,0.0324,0.013523,0.002678,0.000431,0.835625
1123000,0.0324,0.013523,0.002678,0.000431,0.799897
1124000,0.0324,0.013523,0.002678,0.000431,0.749830
1125000,0.0324,0.013523,0.002678,0.000431,0.862657
1126000,0.0324,0.013523,0.002678,0.000431,0.688715
1127000,0.0324,0.013523,0.002678,0.000431,0.804128
1128000,0.0324,0.013523,0.002678,0.000431,0.761113
1129000,0.0324,0.013523,0.002678,0.000431,0.823167
1130000,0.0324,0.013523,0.002678,0.000431,0.743248
1131000,0.0324,0.013523,0.002678,0.000431,0.710810
1132000,0.0324,0.013523,0.002678,0.000431,0.807771
1133000,0.0324,0.013523,0.002678,0.000431,0.685659
1134000,0.0324,0.013523,0.002678,0.000431,0.834450
1135000,0.0324,0.013523,0.002678,0.000431,0.756646
1136000,0.0324,0.013523,0.002678,0.000431,0.792963
1137000,0.0324,0.013523,0.002678,0.000431,0.706932
1138000,0.0324,0.013523,0.002678,0.000431,0.811650
1139000,0.0324,0.013523,0.002678,0.000431,0.783090
1140000,0.0324,0.013523,0.002678,0.000431,0.742778
1141000,0.0324,0.013523,0.002678,0.000431,0.762875
1142000,0.0324,0.013523,0.002678,0.000431,0.736549
1143000,0.0324,0.013523,0.002678,0.000431,0.713514
1144000,0.0324,0.013523,0.002678,0.000431,0.747597
1145000,0.0324,0.013523,0.002678,0.000431,0.800837
1146000,0.0324,0.013523,0.002678,0.000431,0.784853
1147000,0.0324,0.013523,0.002678,0.000431,0.757822
1148000,0.0324,0.013523,0.002678,0.000431,0.749477
1149000,0.0324,0.013523,0.002678,0.000431,0.703054
1150000,0.0324,0.013523,0.002678,0.000431,0.740898
1151000,0.0324,0.013523,0.002678,0.000431,0.777096
1152000,0.0324,0.013523,0.002678,0.000431,0.814118
1153000,0.0324,0.013523,0.002678,0.000431,0.732436
1154000,0.0324,0.013523,0.002678,0.000431,0.750888
1155000,0.0324,0.013523,0.002678,0.000431,0.751005
1156000,0.0324,0.013523,0.002678,0.000431,0.782268
1157000,0.0324,0.013523,0.002678,0.000431,0.741133
1158000,0.0324,0.013523,0.002678,0.000431,0.877583
1159000,0.0324,0.013523,0.002678,0.000431,0.707167
1160000,0.0324,0.013523,0.002678,0.000431,0.822227
1161000,0.0324,0.013523,0.002678,0.000431,0.891334
1162000,0.0324,0.013523,0.002678,0.000431,0.809182
1163000,0.0324,0.013523,0.002678,0.000431,0.801777
1164000,0.0324,0.013523,0.002678,0.000431,0.789202
1165000,0.0324,0.013523,0.002678,0.000431,0.791082
1166000,0.0324,0.013523,0.002678,0.000431,0.734081
1167000,0.0324,0.013523,0.002678,0.000431,0.870296
1168000,0.0324,0.013523,0.002678,0.000431,0.740545
1169000,0.0324,0.013523,0.002678,0.000431,0.746421
1170000,0.0324,0.013523,0.002678,0.000431,0.826576
1171000,0.0324,0.013523,0.002678,0.000431,0.743131
1172000,0.0324,0.013523,0.002678,0.000431,0.817996
1173000,0.0324,0.013523,0.002678,0.000431,0.736432
1174000,0.0324,0.013523,0.002678,0.000431,0.815998
1175000,0.0324,0.013523,0.002678,0.000431,0.712103
1176000,0.0324,0.013523,0.002678,0.000431,0.761348
1177000,0.0324,0.013523,0.002678,0.000431,0.774393
1178000,0.0324,0.013523,0.002678,0.000431,0.850081
1179000,0.0324,0.013523,0.002678,0.000431,0.790142
1180000,0.0324,0.013523,0.002678,0.000431,0.782855
1181000,0.0324,0.013523,0.002678,0.000431,0.803423
1182000,0.0324,0.013523,0.002678,0.000431,0.704346
1183000,0.0324,0.013523,0.002678,0.000431,0.758057
1184000,0.0324,0.013523,0.002678,0.000431,0.758879
1185000,0.0324,0.013523,0.002678,0.000431,0.858661
1186000,0.0324,0.013523,0.002678,0.000431,0.840444
1187000,0.0324,0.013523,0.002678,0.000431,0.781445
1188000,0.0324,0.013523,0.002678,0.000431,0.861482
1189000,0.0324,0.013523,0.002678,0.000431,0.692829
1190000,0.0324,0.013523,0.002678,0.000431,0.758644
1191000,0.0324,0.013523,0.002678,0.000431,0.720448
1192000,0.0324,0.013523,0.002678,0.000431,0.734199
1193000,0.0324,0.013523,0.002678,0.000431,0.708460
1194000,0.0324,0.013523,0.002678,0.000431,0.752533
1195000,0.0324,0.013523,0.002678,0.000431,0.827751
1196000,0.0324,0.013523,0.002678,0.000431,0.796488
1197000,0.0324,0.013523,0.002678,0.000431,0.783560
1198000,0.0324,0.013523,0.002678,0.000431,0.767812
1199000,0.0324,0.013523,0.002678,0.000431,0.820582
1200000,0.0324,0.013523,0.002678,0.000431,0.843147
1201000,0.0324,0.013523,0.002678,0.000431,0.683074
1202000,0.0324,0.013523,0.002678,0.000431,0.696707
1203000,0.0324,0.013523,0.002678,0.000431,0.712808
1204000,0.0324,0.013523,0.002678,0.000431,0.829749
1205000,0.0324,0.013523,0.002678,0.000431,0.749242
1206000,0.0324,0.013523,0.002678,0.000431,0.805773
1207000,0.0324,0.013523,0.002678,0.000431,0.770515
1208000,0.0324,0.013523,0.002678,0.000431,0.710105
1209000,0.0324,0.013523,0.002678,0.000431,0.744776
1210000,0.0324,0.013523,0.002678,0.000431,0.769222
1211000,0.0324,0.013523,0.002678,0.000431,0.745364
1212000,0.0324,0.013523,0.002678,0.000431,0.734786
1213000,0.0324,0.013523,0.002678,0.000431,0.728792
1214000,0.0324,0.013523,0.002678,0.000431,0.811062
1215000,0.0324,0.013523,0.002678,0.000431,0.732553
1216000,0.0324,0.013523,0.002678,0.000431,0.715159
1217000,0.0324,0.013523,0.002678,0.000431,0.760995
1218000,0.0324,0.013523,0.002678,0.000431,0.830219
1219000,0.0324,0.013523,0.002678,0.000431,0.824225
1220000,0.0324,0.013523,0.002678,0.000431,0.757469
1221000,0.0324,0.013523,0.002678,0.000431,0.655455
1222000,0.0324,0.013523,0.002678,0.000431,0.743013
1223000,0.0324,0.013523,0.002678,0.000431,0.774393
1224000,0.0324,0.013523,0.002678,0.000431,0.823167
1225000,0.0324,0.013523,0.002678,0.000431,0.748890
1226000,0.0324,0.013523,0.002678,0.000431,0.810239
1227000,0.0324,0.013523,0.002678,0.000431,0.725854
1228000,0.0324,0.013523,0.002678,0.000431,0.898973
1229000,0.0324,0.013523,0.002678,0.000431,0.809652
1230000,0.0324,0.013523,0.002678,0.000431,0.769457
1231000,0.0324,0.013523,0.002678,0.000431,0.788379
1232000,0.0324,0.013523,0.002678,0.000431,0.760290
1233000,0.0324,0.013523,0.002678,0.000431,0.725149
1234000,0.0324,0.013523,0.002678,0.000431,0.825871
1235000,0.0324,0.013523,0.002678,0.000431,0.845615
1236000,0.0324,0.013523,0.002678,0.000431,0.822110
1237000,0.0324,0.013523,0.002678,0.000431,0.733493
1238000,0.0324,0.013523,0.002678,0.000431,0.755001
1239000,0.0324,0.013523,0.002678,0.000431,0.784383
1240000,0.0324,0.013523,0.002678,0.000431,0.835273
1241000,0.0324,0.013523,0.002678,0.000431,0.767342
1242000,0.0324,0.013523,0.002678,0.000431,0.777566
1243000,0.0324,0.013523,0.002678,0.000431,0.722446
1244000,0.0324,0.013523,0.002678,0.000431,0.854665
1245000,0.0324,0.013523,0.002678,0.000431,0.786499
1246000,0.0324,0.013523,0.002678,0.000431,0.717980
1247000,0.0324,0.013523,0.002678,0.000431,0.862539
1248000,0.0324,0.013523,0.002678,0.000431,0.748067
1249000,0.0324,0.013523,0.002678,0.000431,0.738430
1250000,0.0324,0.013523,0.002678,0.000431,0.719390
1251000,0.0324,0.013523,0.002678,0.000431,0.744894
1252000,0.0324,0.013523,0.002678,0.000431,0.706814
1253000,0.0324,0.013523,0.002678,0.000431,0.814705
1254000,0.0324,0.013523,0.002678,0.000431,0.742426
1255000,0.0324,0.013523,0.002678,0.000431,0.763228
1256000,0.0324,0.013523,0.002678,0.000431,0.843265
1257000,0.0324,0.013523,0.002678,0.000431,0.731260
1258000,0.0324,0.013523,0.002678,0.000431,0.644995
1259000,0.0324,0.013523,0.002678,0.000431,0.715512
1260000,0.0324,0.013523,0.002678,0.000431,0.786499
1261000,0.0324,0.013523,0.002678,0.000431,0.793315
1262000,0.0324,0.013523,0.002678,0.000431,0.629951
1263000,0.0324,0.013523,0.002678,0.000431,0.802365
1264000,0.0324,0.013523,0.002678,0.000431,0.802247
1265000,0.0324,0.013523,0.002678,0.000431,0.766989
1266000,0.0324,0.013523,0.002678,0.000431,0.774393
1267000,0.0324,0.013523,0.002678,0.000431,0.801425
1268000,0.0324,0.013523,0.002678,0.000431,0.737019
1269000,0.0324,0.013523,0.002678,0.000431,0.691418
1270000,0.0324,0.013523,0.002678,0.000431,0.779329
1271000,0.0324,0.013523,0.002678,0.000431,0.869826
1272000,0.0324,0.013523,0.002678,0.000431,0.812237
1273000,0.0324,0.013523,0.002678,0.000431,0.762523
1274000,0.0324,0.013523,0.002678,0.000431,0.733493
1275000,0.0324,0.013523,0.002678,0.000431,0.748302
1276000,0.0324,0.013523,0.002678,0.000431,0.809064
1277000,0.0324,0.013523,0.002678,0.000431,0.779917
1278000,0.0324,0.013523,0.002678,0.000431,0.822462
1279000,0.0324,0.013523,0.002678,0.000431,0.751710
1280000,0.0324,0.013523,0.002678,0.000431,0.812590
1281000,0.0324,0.013523,0.002678,0.000431,0.795783
1282000,0.0324,0.013523,0.002678,0.000431,0.828809
1283000,0.0324,0.013523,0.002678,0.000431,0.738782
1284000,0.0324,0.013523,0.002678,0.000431,0.706932
1285000,0.0324,0.013523,0.002678,0.000431,0.839974
1286000,0.0324,0.013523,0.002678,0.000431,0.752298
1287000,0.0324,0.013523,0.002678,0.000431,0.771220
1288000,0.0324,0.013523,0.002678,0.000431,0.739957
1289000,0.0324,0.013523,0.002678,0.000431,0.718685
1290000,0.0324,0.013523,0.002678,0.000431,0.697060
1291000,0.0324,0.013523,0.002678,0.000431,0.775333
1292000,0.0324,0.013523,0.002678,0.000431,0.746657
1293000,0.0324,0.013523,0.002678,0.000431,0.744071
1294000,0.0324,0.013523,0.002678,0.000431,0.823990
1295000,0.0324,0.013523,0.002678,0.000431,0.695297
1296000,0.0324,0.013523,0.002678,0.000431,0.709870
1297000,0.0324,0.013523,0.002678,0.000431,0.745951
1298000,0.0324,0.013523,0.002678,0.000431,0.740075
1299000,0.0324,0.013523,0.002678,0.000431,0.740192
1300000,0.0324,0.013523,0.002678,0.000431,0.765931
1301000,0.0324,0.013523,0.002678,0.000431,0.792022
1302000,0.0324,0.013523,0.002678,0.000431,0.811180
1303000,0.0324,0.013523,0.002678,0.000431,0.676727
1304000,0.0324,0.013523,0.002678,0.000431,0.723151
1305000,0.0324,0.013523,0.002678,0.000431,0.745481
1306000,0.0324,0.013523,0.002678,0.000431,0.804128
1307000,0.0324,0.013523,0.002678,0.000431,0.760525
1308000,0.0324,0.013523,0.002678,0.000431,0.701408
1309000,0.0324,0.013523,0.002678,0.000431,0.730203
1310000,0.0324,0.013523,0.002678,0.000431,0.782973
1311000,0.0324,0.013523,0.002678,0.000431,0.836683
1312000,0.0324,0.013523,0.002678,0.000431,0.721741
1313000,0.0324,0.013523,0.002678,0.000431,0.802130
1314000,0.0324,0.013523,0.002678,0.000431,0.830807
1315000,0.0324,0.013523,0.002678,0.000431,0.679665
1316000,0.0324,0.013523,0.002678,0.000431,0.721623
1317000,0.0324,0.013523,0.002678,0.000431,0.726794
1318000,0.0324,0.013523,0.002678,0.000431,0.763463
1319000,0.0324,0.013523,0.002678,0.000431,0.752533
1320000,0.0324,0.013523,0.002678,0.000431,0.751710
1321000,0.0324,0.013523,0.002678,0.000431,0.727499
1322000,0.0324,0.013523,0.002678,0.000431,0.737019
1323000,0.0324,0.013523,0.002678,0.000431,0.849964
1324000,0.0324,0.013523,0.002678,0.000431,0.876173
1325000,0.0324,0.013523,0.002678,0.000431,0.725501
1326000,0.0324,0.013523,0.002678,0.000431,0.819877
1327000,0.0324,0.013523,0.002678,0.000431,0.691301
1328000,0.0324,0.013523,0.002678,0.000431,0.739370
1329000,0.0324,0.013523,0.002678,0.000431,0.728675
1330000,0.0324,0.013523,0.002678,0.000431,0.747949
1331000,0.0324,0.013523,0.002678,0.000431,0.809182
1332000,0.0324,0.013523,0.002678,0.000431,0.805891
1333000,0.0324,0.013523,0.002678,0.000431,0.681663
1334000,0.0324,0.013523,0.002678,0.000431,0.752298
1335000,0.0324,0.013523,0.002678,0.000431,0.796606
1336000,0.0324,0.013523,0.002678,0.000431,0.776626
1337000,0.0324,0.013523,0.002678,0.000431,0.796018
1338000,0.0324,0.013523,0.002678,0.000431,0.699998
1339000,0.0324,0.013523,0.002678,0.000431,0.649461
1340000,0.0324,0.013523,0.002678,0.000431,0.826693
1341000,0.0324,0.013523,0.002678,0.000431,0.719978
1342000,0.0324,0.013523,0.002678,0.000431,0.820934
1343000,0.0324,0.013523,0.002678,0.000431,0.796488
1344000,0.0324,0.013523,0.002678,0.000431,0.776979
1345000,0.0324,0.013523,0.002678,0.000431,0.720565
1346000,0.0324,0.013523,0.002678,0.000431,0.818349
1347000,0.0324,0.013523,0.002678,0.000431,0.712221
1348000,0.0324,0.013523,0.002678,0.000431,0.738900
1349000,0.0324,0.013523,0.002678,0.000431,0.744424
1350000,0.0324,0.013523,0.002678,0.000431,0.756999
1351000,0.0324,0.013523,0.002678,0.000431,0.765461
1352000,0.0324,0.013523,0.002678,0.000431,0.778154
1353000,0.0324,0.013523,0.002678,0.000431,0.799427
1354000,0.0324,0.013523,0.002678,0.000431,0.779799
1355000,0.0324,0.013523,0.002678,0.000431,0.764521
1356000,0.0324,0.013523,0.002678,0.000431,0.772630
1357000,0.0324,0.013523,0.002678,0.000431,0.799427
1358000,0.0324,0.013523,0.002678,0.000431,0.755589
1359000,0.0324,0.013523,0.002678,0.000431,0.782033
1360000,0.0324,0.013523,0.002678,0.000431,0.784148
1361000,0.0324,0.013523,0.002678,0.000431,0.760055
1362000,0.0324,0.013523,0.002678,0.000431,0.795313
1363000,0.0324,0.013523,0.002678,0.000431,0.850551
1364000,0.0324,0.013523,0.002678,0.000431,0.772748
1365000,0.0324,0.013523,0.002678,0.000431,0.724326
1366000,0.0324,0.013523,0.002678,0.000431,0.745951
1367000,0.0324,0.013523,0.002678,0.000431,0.646875
1368000,0.0324,0.013523,0.002678,0.000431,0.770867
1369000,0.0324,0.013523,0.002678,0.000431,0.749712
1370000,0.0324,0.013523,0.002678,0.000431,0.724561
1371000,0.0324,0.013523,0.002678,0.000431,0.702113
1372000,0.0324,0.013523,0.002678,0.000431,0.775568
1373000,0.0324,0.013523,0.002678,0.000431,0.762523
1374000,0.0324,0.013523,0.002678,0.000431,0.716334
1375000,0.0324,0.013523,0.002678,0.000431,0.767459
1376000,0.0324,0.013523,0.002678,0.000431,0.748067
1377000,0.0324,0.013523,0.002678,0.000431,0.757117
1378000,0.0324,0.013523,0.002678,0.000431,0.703759
1379000,0.0324,0.013523,0.002678,0.000431,0.762993
1380000,0.0324,0.013523,0.002678,0.000431,0.792257
1381000,0.0324,0.013523,0.002678,0.000431,0.770397
1382000,0.0324,0.013523,0.002678,0.000431,0.732436
1383000,0.0324,0.013523,0.002678,0.000431,0.715864
1384000,0.0324,0.013523,0.002678,0.000431,0.788262
1385000,0.0324,0.013523,0.002678,0.000431,0.707285
1386000,0.0324,0.013523,0.002678,0.000431,0.775451
1387000,0.0324,0.013523,0.002678,0.000431,0.695297
1388000,0.0324,0.013523,0.002678,0.000431,0.757117
1389000,0.0324,0.013523,0.002678,0.000431,0.698235
1390000,0.0324,0.013523,0.002678,0.000431,0.801895
1391000,0.0324,0.013523,0.002678,0.000431,0.792963
1392000,0.0324,0.013523,0.002678,0.000431,0.689068
1393000,0.0324,0.013523,0.002678,0.000431,0.773806
1394000,0.0324,0.013523,0.002678,0.000431,0.815528
1395000,0.0324,0.013523,0.002678,0.000431,0.780622
1396000,0.0324,0.013523,0.002678,0.000431,0.801307
1397000,0.0324,0.013523,0.002678,0.000431,0.776626
1398000,0.0324,0.013523,0.002678,0.000431,0.800955
1399000,0.0324,0.013523,0.002678,0.000431,0.738782
1400000,0.0324,0.013523,0.002678,0.000431,0.795783
1401000,0.0324,0.013523,0.002678,0.000431,0.675199
1402000,0.0324,0.013523,0.002678,0.000431,0.839621
1403000,0.0324,0.013523,0.002678,0.000431,0.824225
1404000,0.0324,0.013523,0.002678,0.000431,0.803423
1405000,0.0324,0.013523,0.002678,0.000431,0.709988
1406000,0.0324,0.013523,0.002678,0.000431,0.754648
1407000,0.0324,0.013523,0.002678,0.000431,0.729262
1408000,0.0324,0.013523,0.002678,0.000431,0.722328
1409000,0.0324,0.013523,0.002678,0.000431,0.713866
1410000,0.0324,0.013523,0.002678,0.000431,0.773688
1411000,0.0324,0.013523,0.002678,0.000431,0.783560
1412000,0.0324,0.013523,0.002678,0.000431,0.811650
1413000,0.0324,0.013523,0.002678,0.000431,0.746774
1414000,0.0324,0.013523,0.002678,0.000431,0.740898
1415000,0.0324,0.013523,0.002678,0.000431,0.748184
1416000,0.0324,0.013523,0.002678,0.000431,0.793433
1417000,0.0324,0.013523,0.002678,0.000431,0.782150
1418000,0.0324,0.013523,0.002678,0.000431,0.712573
1419000,0.0324,0.013523,0.002678,0.000431,0.728675
1420000,0.0324,0.013523,0.002678,0.000431,0.694357
1421000,0.0324,0.013523,0.002678,0.000431,0.858308
1422000,0.0324,0.013523,0.002678,0.000431,0.660273
1423000,0.0324,0.013523,0.002678,0.000431,0.827633
1424000,0.0324,0.013523,0.002678,0.000431,0.651459
1425000,0.0324,0.013523,0.002678,0.000431,0.750770
1426000,0.0324,0.013523,0.002678,0.000431,0.734786
1427000,0.0324,0.013523,0.002678,0.000431,0.822697
1428000,0.0324,0.013523,0.002678,0.000431,0.744541
1429000,0.0324,0.013523,0.002678,0.000431,0.692359
1430000,0.0324,0.013523,0.002678,0.000431,0.721506
1431000,0.0324,0.013523,0.002678,0.000431,0.758057
1432000,0.0324,0.013523,0.002678,0.000431,0.806596
1433000,0.0324,0.013523,0.002678,0.000431,0.679195
1434000,0.0324,0.013523,0.002678,0.000431,0.777919
1435000,0.0324,0.013523,0.002678,0.000431,0.697295
1436000,0.0324,0.013523,0.002678,0.000431,0.718685
1437000,0.0324,0.013523,0.002678,0.000431,0.817173
1438000,0.0324,0.013523,0.002678,0.000431,0.727617
1439000,0.0324,0.013523,0.002678,0.000431,0.717510
1440000,0.0324,0.013523,0.002678,0.000431,0.710575
1441000,0.0324,0.013523,0.002678,0.000431,0.676022
1442000,0.0324,0.013523,0.002678,0.000431,0.754061
1443000,0.0324,0.013523,0.002678,0.000431,0.768869
1444000,0.0324,0.013523,0.002678,0.000431,0.771690
1445000,0.0324,0.013523,0.002678,0.000431,0.717274
1446000,0.0324,0.013523,0.002678,0.000431,0.761465
1447000,0.0324,0.013523,0.002678,0.000431,0.745834
1448000,0.0324,0.013523,0.002678,0.000431,0.753591
1449000,0.0324,0.013523,0.002678,0.000431,0.763228
1450000,0.0324,0.013523,0.002678,0.000431,0.778272
1451000,0.0324,0.013523,0.002678,0.000431,0.716452
1452000,0.0324,0.013523,0.002678,0.000431,0.843617
1453000,0.0324,0.013523,0.002678,0.000431,0.743248
1454000,0.0324,0.013523,0.002678,0.000431,0.772395
1455000,0.0324,0.013523,0.002678,0.000431,0.754178
1456000,0.0324,0.013523,0.002678,0.000431,0.807889
1457000,0.0324,0.013523,0.002678,0.000431,0.760055
1458000,0.0324,0.013523,0.002678,0.000431,0.723739
1459000,0.0324,0.013523,0.002678,0.000431,0.732788
1460000,0.0324,0.013523,0.002678,0.000431,0.819877
1461000,0.0324,0.013523,0.002678,0.000431,0.831512
1462000,0.0324,0.013523,0.002678,0.000431,0.744541
1463000,0.0324,0.013523,0.002678,0.000431,0.825753
1464000,0.0324,0.013523,0.002678,0.000431,0.788732
1465000,0.0324,0.013523,0.002678,0.000431,0.776744
1466000,0.0324,0.013523,0.002678,0.000431,0.786381
1467000,0.0324,0.013523,0.002678,0.000431,0.825283
1468000,0.0324,0.013523,0.002678,0.000431,0.739957
1469000,0.0324,0.013523,0.002678,0.000431,0.804833
1470000,0.0324,0.013523,0.002678,0.000431,0.786734
1471000,0.0324,0.013523,0.002678,0.000431,0.814118
1472000,0.0324,0.013523,0.002678,0.000431,0.777919
1473000,0.0324,0.013523,0.002678,0.000431,0.821875
1474000,0.0324,0.013523,0.002678,0.000431,0.689420
1475000,0.0324,0.013523,0.002678,0.000431,0.805421
1476000,0.0324,0.013523,0.002678,0.000431,0.782855
1477000,0.0324,0.013523,0.002678,0.000431,0.777684
1478000,0.0324,0.013523,0.002678,0.000431,0.768752
1479000,0.0324,0.013523,0.002678,0.000431,0.725854
1480000,0.0324,0.013523,0.002678,0.000431,0.858073
1481000,0.0324,0.013523,0.002678,0.000431,0.782855
1482000,0.0324,0.013523,0.002678,0.000431,0.856780
1483000,0.0324,0.013523,0.002678,0.000431,0.801072
1484000,0.0324,0.013523,0.002678,0.000431,0.761348
1485000,0.0324,0.013523,0.002678,0.000431,0.732083
1486000,0.0324,0.013523,0.002678,0.000431,0.751005
1487000,0.0324,0.013523,0.002678,0.000431,0.775804
1488000,0.0324,0.013523,0.002678,0.000431,0.763228
1489000,0.0324,0.013523,0.002678,0.000431,0.794608
1490000,0.0324,0.013523,0.002678,0.000431,0.762288
1491000,0.0324,0.013523,0.002678,0.000431,0.751710
1492000,0.0324,0.013523,0.002678,0.000431,0.838446
1493000,0.0324,0.013523,0.002678,0.000431,0.717039
1494000,0.0324,0.013523,0.002678,0.000431,0.826576
1495000,0.0324,0.013523,0.002678,0.000431,0.735961
1496000,0.0324,0.013523,0.002678,0.000431,0.781210
1497000,0.0324,0.013523,0.002678,0.000431,0.778507
1498000,0.0324,0.013523,0.002678,0.000431,0.821640
1499000,0.0324,0.013523,0.002678,0.000431,0.793903
1500000,0.0324,0.013523,0.002678,0.000431,0.855605
1501000,0.0324,0.013523,0.002678,0.000431,0.765931
1502000,0.0324,0.013523,0.002678,0.000431,0.744424
1503000,0.0324,0.013523,0.002678,0.000431,0.827751
1504000,0.0324,0.013523,0.002678,0.000431,0.778389
1505000,0.0324,0.013523,0.002678,0.000431,0.743366
1506000,0.0324,0.013523,0.002678,0.000431,0.782738
1507000,0.0324,0.013523,0.002678,0.000431,0.718097
1508000,0.0324,0.013523,0.002678,0.000431,0.725384
1509000,0.0324,0.013523,0.002678,0.000431,0.852902
1510000,0.0324,0.013523,0.002678,0.000431,0.800014
1511000,0.0324,0.013523,0.002678,0.000431,0.722093
1512000,0.0324,0.013523,0.002678,0.000431,0.740310
1513000,0.0324,0.013523,0.002678,0.000431,0.811415
1514000,0.0324,0.013523,0.002678,0.000431,0.751240
1515000,0.0324,0.013523,0.002678,0.000431,0.854665
1516000,0.0324,0.013523,0.002678,0.000431,0.761700
1517000,0.0324,0.013523,0.002678,0.000431,0.822345
1518000,0.0324,0.013523,0.002678,0.000431,0.764521
1519000,0.0324,0.013523,0.002678,0.000431,0.819994
1520000,0.0324,0.013523,0.002678,0.000431,0.793903
1521000,0.0324,0.013523,0.002678,0.000431,0.819406
1522000,0.0324,0.013523,0.002678,0.000431,0.852784
1523000,0.0324,0.013523,0.002678,0.000431,0.890981
1524000,0.0324,0.013523,0.002678,0.000431,0.805891
1525000,0.0324,0.013523,0.002678,0.000431,0.764051
1526000,0.0324,0.013523,0.002678,0.000431,0.777096
1527000,0.0324,0.013523,0.002678,0.000431,0.753003
1528000,0.0324,0.013523,0.002678,0.000431,0.736314
1529000,0.0324,0.013523,0.002678,0.000431,0.738547
1530000,0.0324,0.013523,0.002678,0.000431,0.817056
1531000,0.0324,0.013523,0.002678,0.000431,0.770162
1532000,0.0324,0.013523,0.002678,0.000431,0.720683
1533000,0.0324,0.013523,0.002678,0.000431,0.746069
1534000,0.0324,0.013523,0.002678,0.000431,0.735726
1535000,0.0324,0.013523,0.002678,0.000431,0.741015
1536000,0.0324,0.013523,0.002678,0.000431,0.785558
1537000,0.0324,0.013523,0.002678,0.000431,0.789907
1538000,0.0324,0.013523,0.002678,0.000431,0.774746
1539000,0.0324,0.013523,0.002678,0.000431,0.768047
1540000,0.0324,0.013523,0.002678,0.000431,0.847378
1541000,0.0324,0.013523,0.002678,0.000431,0.744424
1542000,0.0324,0.013523,0.002678,0.000431,0.682956
1543000,0.0324,0.013523,0.002678,0.000431,0.715982
1544000,0.0324,0.013523,0.002678,0.000431,0.699998
1545000,0.0324,0.013523,0.002678,0.000431,0.798957
1546000,0.0324,0.013523,0.002678,0.000431,0.802835
1547000,0.0324,0.013523,0.002678,0.000431,0.728910
1548000,0.0324,0.013523,0.002678,0.000431,0.798722
1549000,0.0324,0.013523,0.002678,0.000431,0.727499
1550000,0.0324,0.013523,0.002678,0.000431,0.844675
1551000,0.0324,0.013523,0.002678,0.000431,0.799427
1552000,0.0324,0.013523,0.002678,0.000431,0.805303
1553000,0.0324,0.013523,0.002678,0.000431,0.840091
1554000,0.0324,0.013523,0.002678,0.000431,0.786969
1555000,0.0324,0.013523,0.002678,0.000431,0.802953
1556000,0.0324,0.013523,0.002678,0.000431,0.761113
1557000,0.0324,0.013523,0.002678,0.000431,0.898150
1558000,0.0324,0.013523,0.002678,0.000431,0.821875
1559000,0.0324,0.013523,0.002678,0.000431,0.818701
1560000,0.0324,0.013523,0.002678,0.000431,0.881931
1561000,0.0324,0.013523,0.002678,0.000431,0.837153
1562000,0.0324,0.013523,0.002678,0.000431,0.800837
1563000,0.0324,0.013523,0.002678,0.000431,0.818584
1564000,0.0324,0.013523,0.002678,0.000431,0.854195
1565000,0.0324,0.013523,0.002678,0.000431,0.770750
1566000,0.0324,0.013523,0.002678,0.000431,0.720448
1567000,0.0324,0.013523,0.002678,0.000431,0.789084
1568000,0.0324,0.013523,0.002678,0.000431,0.722916
1569000,0.0324,0.013523,0.002678,0.000431,0.719390
1570000,0.0324,0.013523,0.002678,0.000431,0.758527
1571000,0.0324,0.013523,0.002678,0.000431,0.755001
1572000,0.0324,0.013523,0.002678,0.000431,0.705287
1573000,0.0324,0.013523,0.002678,0.000431,0.841619
1574000,0.0324,0.013523,0.002678,0.000431,0.727382
1575000,0.0324,0.013523,0.002678,0.000431,0.730555
1576000,0.0324,0.013523,0.002678,0.000431,0.793903
1577000,0.0324,0.013523,0.002678,0.000431,0.806949
1578000,0.0324,0.013523,0.002678,0.000431,0.819877
1579000,0.0324,0.013523,0.002678,0.000431,0.788144
1580000,0.0324,0.013523,0.002678,0.000431,0.778624
1581000,0.0324,0.013523,0.002678,0.000431,0.733611
1582000,0.0324,0.013523,0.002678,0.000431,0.782503
1583000,0.0324,0.013523,0.002678,0.000431,0.700821
1584000,0.0324,0.013523,0.002678,0.000431,0.697647
1585000,0.0324,0.013523,0.002678,0.000431,0.755941
1586000,0.0324,0.013523,0.002678,0.000431,0.755236
1587000,0.0324,0.013523,0.002678,0.000431,0.802365
1588000,0.0324,0.013523,0.002678,0.000431,0.766754
1589000,0.0324,0.013523,0.002678,0.000431,0.786146
1590000,0.0324,0.013523,0.002678,0.000431,0.617023
1591000,0.0324,0.013523,0.002678,0.000431,0.796253
1592000,0.0324,0.013523,0.002678,0.000431,0.723856
1593000,0.0324,0.013523,0.002678,0.000431,0.892391
1594000,0.0324,0.013523,0.002678,0.000431,0.754296
1595000,0.0324,0.013523,0.002678,0.000431,0.792610
1596000,0.0324,0.013523,0.002678,0.000431,0.823285
1597000,0.0324,0.013523,0.002678,0.000431,0.754413
1598000,0.0324,0.013523,0.002678,0.000431,0.775804
1599000,0.0324,0.013523,0.002678,0.000431,0.824225
1600000,0.0324,0.013523,0.002678,0.000431,0.780270
1601000,0.0324,0.013523,0.002678,0.000431,0.800720
1602000,0.0324,0.013523,0.002678,0.000431,0.769927
1603000,0.0324,0.013523,0.002678,0.000431,0.790612
1604000,0.0324,0.013523,0.002678,0.000431,0.667913
1605000,0.0324,0.013523,0.002678,0.000431,0.796136
1606000,0.0324,0.013523,0.002678,0.000431,0.745364
1607000,0.0324,0.013523,0.002678,0.000431,0.800014
1608000,0.0324,0.013523,0.002678,0.000431,0.776509
1609000,0.0324,0.013523,0.002678,0.000431,0.722211
1610000,0.0324,0.013523,0.002678,0.000431,0.853255
1611000,0.0324,0.013523,0.002678,0.000431,0.680018
1612000,0.0324,0.013523,0.002678,0.000431,0.832687
1613000,0.0324,0.013523,0.002678,0.000431,0.855840
1614000,0.0324,0.013523,0.002678,0.000431,0.802482
1615000,0.0324,0.013523,0.002678,0.000431,0.779682
1616000,0.0324,0.013523,0.002678,0.000431,0.710105
1617000,0.0324,0.013523,0.002678,0.000431,0.791082
1618000,0.0324,0.013523,0.002678,0.000431,0.757234
1619000,0.0324,0.013523,0.002678,0.000431,0.754884
1620000,0.0324,0.013523,0.002678,0.000431,0.846438
1621000,0.0324,0.013523,0.002678,0.000431,0.775098
1622000,0.0324,0.013523,0.002678,0.000431,0.693534
1623000,0.0324,0.013523,0.002678,0.000431,0.820817
1624000,0.0324,0.013523,0.002678,0.000431,0.815175
1625000,0.0324,0.013523,0.002678,0.000431,0.769692
1626000,0.0324,0.013523,0.002678,0.000431,0.802482
1627000,0.0324,0.013523,0.002678,0.000431,0.852902
1628000,0.0324,0.013523,0.002678,0.000431,0.782150
1629000,0.0324,0.013523,0.002678,0.000431,0.723739
1630000,0.0324,0.013523,0.002678,0.000431,0.712926
1631000,0.0324,0.013523,0.002678,0.000431,0.707755
1632000,0.0324,0.013523,0.002678,0.000431,0.787674
1633000,0.0324,0.013523,0.002678,0.000431,0.784736
1634000,0.0324,0.013523,0.002678,0.000431,0.830924
1635000,0.0324,0.013523,0.002678,0.000431,0.679430
1636000,0.0324,0.013523,0.002678,0.000431,0.825165
1637000,0.0324,0.013523,0.002678,0.000431,0.885457
1638000,0.0324,0.013523,0.002678,0.000431,0.859836
1639000,0.0324,0.013523,0.002678,0.000431,0.784031
1640000,0.0324,0.013523,0.002678,0.000431,0.748890
1641000,0.0324,0.013523,0.002678,0.000431,0.796371
1642000,0.0324,0.013523,0.002678,0.000431,0.732906
1643000,0.0324,0.013523,0.002678,0.000431,0.754648
1644000,0.0324,0.013523,0.002678,0.000431,0.762288
1645000,0.0324,0.013523,0.002678,0.000431,0.781797
1646000,0.0324,0.013523,0.002678,0.000431,0.690125
1647000,0.0324,0.013523,0.002678,0.000431,0.713984
1648000,0.0324,0.013523,0.002678,0.000431,0.695884
1649000,0.0324,0.013523,0.002678,0.000431,0.802365
1650000,0.0324,0.013523,0.002678,0.000431,0.748772
1651000,0.0324,0.013523,0.002678,0.000431,0.702936
1652000,0.0324,0.013523,0.002678,0.000431,0.753591
1653000,0.0324,0.013523,0.002678,0.000431,0.740192
1654000,0.0324,0.013523,0.002678,0.000431,0.812120
1655000,0.0324,0.013523,0.002678,0.000431,0.723503
1656000,0.0324,0.013523,0.002678,0.000431,0.788026
1657000,0.0324,0.013523,0.002678,0.000431,0.695767
1658000,0.0324,0.013523,0.002678,0.000431,0.803070
1659000,0.0324,0.013523,0.002678,0.000431,0.676727
1660000,0.0324,0.013523,0.002678,0.000431,0.725501
1661000,0.0324,0.013523,0.002678,0.000431,0.758997
1662000,0.0324,0.013523,0.002678,0.000431,0.769104
1663000,0.0324,0.013523,0.002678,0.000431,0.865595
1664000,0.0324,0.013523,0.002678,0.000431,0.653104
1665000,0.0324,0.013523,0.002678,0.000431,0.746304
1666000,0.0324,0.013523,0.002678,0.000431,0.689655
1667000,0.0324,0.013523,0.002678,0.000431,0.801660
1668000,0.0324,0.013523,0.002678,0.000431,0.834333
1669000,0.0324,0.013523,0.002678,0.000431,0.755354
1670000,0.0324,0.013523,0.002678,0.000431,0.774981
1671000,0.0324,0.013523,0.002678,0.000431,0.737137
1672000,0.0324,0.013523,0.002678,0.000431,0.718097
1673000,0.0324,0.013523,0.002678,0.000431,0.686012
1674000,0.0324,0.013523,0.002678,0.000431,0.715629
1675000,0.0324,0.013523,0.002678,0.000431,0.700938
1676000,0.0324,0.013523,0.002678,0.000431,0.828221
1677000,0.0324,0.013523,0.002678,0.000431,0.715864
1678000,0.0324,0.013523,0.002678,0.000431,0.640058
1679000,0.0324,0.013523,0.002678,0.000431,0.796724
1680000,0.0324,0.013523,0.002678,0.000431,0.736667
1681000,0.0324,0.013523,0.002678,0.000431,0.809064
1682000,0.0324,0.013523,0.002678,0.000431,0.819289
1683000,0.0324,0.013523,0.002678,0.000431,0.784266
1684000,0.0324,0.013523,0.002678,0.000431,0.817291
1685000,0.0324,0.013523,0.002678,0.000431,0.729380
1686000,0.0324,0.013523,0.002678,0.000431,0.726912
1687000,0.0324,0.013523,0.002678,0.000431,0.648050
1688000,0.0324,0.013523,0.002678,0.000431,0.707167
1689000,0.0324,0.013523,0.002678,0.000431,0.826223
1690000,0.0324,0.013523,0.002678,0.000431,0.768164
1691000,0.0324,0.013523,0.002678,0.000431,0.735256
1692000,0.0324,0.013523,0.002678,0.000431,0.736314
1693000,0.0324,0.013523,0.002678,0.000431,0.833627
1694000,0.0324,0.013523,0.002678,0.000431,0.745129
1695000,0.0324,0.013523,0.002678,0.000431,0.747714
1696000,0.0324,0.013523,0.002678,0.000431,0.764991
1697000,0.0324,0.013523,0.002678,0.000431,0.793668
1698000,0.0324,0.013523,0.002678,0.000431,0.844087
1699000,0.0324,0.013523,0.002678,0.000431,0.683661
1700000,0.0324,0.013523,0.002678,0.000431,0.786381
1701000,0.0324,0.013523,0.002678,0.000431,0.688245
1702000,0.0324,0.013523,0.002678,0.000431,0.764168
1703000,0.0324,0.013523,0.002678,0.000431,0.751240
1704000,0.0324,0.013523,0.002678,0.000431,0.799192
1705000,0.0324,0.013523,0.002678,0.000431,0.771102
1706000,0.0324,0.013523,0.002678,0.000431,0.702583
1707000,0.0324,0.013523,0.002678,0.000431,0.816938
1708000,0.0324,0.013523,0.002678,0.000431,0.715512
1709000,0.0324,0.013523,0.002678,0.000431,0.747009
1710000,0.0324,0.013523,0.002678,0.000431,0.701761
1711000,0.0324,0.013523,0.002678,0.000431,0.788262
1712000,0.0324,0.013523,0.002678,0.000431,0.816703
1713000,0.0324,0.013523,0.002678,0.000431,0.915780
1714000,0.0324,0.013523,0.002678,0.000431,0.835508
1715000,0.0324,0.013523,0.002678,0.000431,0.754648
1716000,0.0324,0.013523,0.002678,0.000431,0.851609
1717000,0.0324,0.013523,0.002678,0.000431,0.682956
1718000,0.0324,0.013523,0.002678,0.000431,0.741603
1719000,0.0324,0.013523,0.002678,0.000431,0.814118
1720000,0.0324,0.013523,0.002678,0.000431,0.778624
1721000,0.0324,0.013523,0.002678,0.000431,0.775921
1722000,0.0324,0.013523,0.002678,0.000431,0.815175
1723000,0.0324,0.013523,0.002678,0.000431,0.780740
1724000,0.0324,0.013523,0.002678,0.000431,0.744071
1725000,0.0324,0.013523,0.002678,0.000431,0.724209
1726000,0.0324,0.013523,0.002678,0.000431,0.773335
1727000,0.0324,0.013523,0.002678,0.000431,0.780857
1728000,0.0324,0.013523,0.002678,0.000431,0.745011
1729000,0.0324,0.013523,0.002678,0.000431,0.809652
1730000,0.0324,0.013523,0.002678,0.000431,0.733611
1731000,0.0324,0.013523,0.002678,0.000431,0.755706
1732000,0.0324,0.013523,0.002678,0.000431,0.777331
1733000,0.0324,0.013523,0.002678,0.000431,0.747362
1734000,0.0324,0.013523,0.002678,0.000431,0.714336
1735000,0.0324,0.013523,0.002678,0.000431,0.751945
1736000,0.0324,0.013523,0.002678,0.000431,0.863127
1737000,0.0324,0.013523,0.002678,0.000431,0.795666
1738000,0.0324,0.013523,0.002678,0.000431,0.772043
1739000,0.0324,0.013523,0.002678,0.000431,0.863597
1740000,0.0324,0.013523,0.002678,0.000431,0.667325
1741000,0.0324,0.013523,0.002678,0.000431,0.809652
1742000,0.0324,0.013523,0.002678,0.000431,0.741955
1743000,0.0324,0.013523,0.002678,0.000431,0.775451
1744000,0.0324,0.013523,0.002678,0.000431,0.760172
1745000,0.0324,0.013523,0.002678,0.000431,0.759702
1746000,0.0324,0.013523,0.002678,0.000431,0.811297
1747000,0.0324,0.013523,0.002678,0.000431,0.674612
1748000,0.0324,0.013523,0.002678,0.000431,0.787556
1749000,0.0324,0.013523,0.002678,0.000431,0.813530
1750000,0.0324,0.013523,0.002678,0.000431,0.797899
1751000,0.0324,0.013523,0.002678,0.000431,0.751005
1752000,0.0324,0.013523,0.002678,0.000431,0.749595
1753000,0.0324,0.013523,0.002678,0.000431,0.684484
1754000,0.0324,0.013523,0.002678,0.000431,0.821640
1755000,0.0324,0.013523,0.002678,0.000431,0.786381
1756000,0.0324,0.013523,0.002678,0.000431,0.754884
1757000,0.0324,0.013523,0.002678,0.000431,0.751005
1758000,0.0324,0.013523,0.002678,0.000431,0.714924
1759000,0.0324,0.013523,0.002678,0.000431,0.755354
1760000,0.0324,0.013523,0.002678,0.000431,0.752533
1761000,0.0324,0.013523,0.002678,0.000431,0.738077
1762000,0.0324,0.013523,0.002678,0.000431,0.717392
1763000,0.0324,0.013523,0.002678,0.000431,0.775098
1764000,0.0324,0.013523,0.002678,0.000431,0.715747
1765000,0.0324,0.013523,0.002678,0.000431,0.732083
1766000,0.0324,0.013523,0.002678,0.000431,0.829161
1767000,0.0324,0.013523,0.002678,0.000431,0.788497
1768000,0.0324,0.013523,0.002678,0.000431,0.745364
1769000,0.0324,0.013523,0.002678,0.000431,0.699293
1770000,0.0324,0.013523,0.002678,0.000431,0.779094
1771000,0.0324,0.013523,0.002678,0.000431,0.721741
1772000,0.0324,0.013523,0.002678,0.000431,0.753826
1773000,0.0324,0.013523,0.002678,0.000431,0.815528
1774000,0.0324,0.013523,0.002678,0.000431,0.708107
1775000,0.0324,0.013523,0.002678,0.000431,0.778037
1776000,0.0324,0.013523,0.002678,0.000431,0.816468
1777000,0.0324,0.013523,0.002678,0.000431,0.768752
1778000,0.0324,0.013523,0.002678,0.000431,0.757704
1779000,0.0324,0.013523,0.002678,0.000431,0.805891
1780000,0.0324,0.013523,0.002678,0.000431,0.776509
1781000,0.0324,0.013523,0.002678,0.000431,0.802717
1782000,0.0324,0.013523,0.002678,0.000431,0.733493
1783000,0.0324,0.013523,0.002678,0.000431,0.686247
1784000,0.0324,0.013523,0.002678,0.000431,0.855488
1785000,0.0324,0.013523,0.002678,0.000431,0.820934
1786000,0.0324,0.013523,0.002678,0.000431,0.721506
1787000,0.0324,0.013523,0.002678,0.000431,0.788262
1788000,0.0324,0.013523,0.002678,0.000431,0.806126
1789000,0.0324,0.013523,0.002678,0.000431,0.702231
1790000,0.0324,0.013523,0.002678,0.000431,0.847143
1791000,0.0324,0.013523,0.002678,0.000431,0.728322
1792000,0.0324,0.013523,0.002678,0.000431,0.778272
1793000,0.0324,0.013523,0.002678,0.000431,0.791200
1794000,0.0324,0.013523,0.002678,0.000431,0.683896
1795000,0.0324,0.013523,0.002678,0.000431,0.834215
1796000,0.0324,0.013523,0.002678,0.000431,0.773335
1797000,0.0324,0.013523,0.002678,0.000431,0.832100
1798000,0.0324,0.013523,0.002678,0.000431,0.837388
1799000,0.0324,0.013523,0.002678,0.000431,0.795313
1800000,0.0324,0.013523,0.002678,0.000431,0.766754
1801000,0.0324,0.013523,0.002678,0.000431,0.751593
1802000,0.0324,0.013523,0.002678,0.000431,0.703994
1803000,0.0324,0.013523,0.002678,0.000431,0.874880
1804000,0.0324,0.013523,0.002678,0.000431,0.738782
1805000,0.0324,0.013523,0.002678,0.000431,0.870531
1806000,0.0324,0.013523,0.002678,0.000431,0.765226
1807000,0.0324,0.013523,0.002678,0.000431,0.709283
1808000,0.0324,0.013523,0.002678,0.000431,0.812237
1809000,0.0324,0.013523,0.002678,0.000431,0.796136
1810000,0.0324,0.013523,0.002678,0.000431,0.719743
1811000,0.0324,0.013523,0.002678,0.000431,0.716687
1812000,0.0324,0.013523,0.002678,0.000431,0.843617
1813000,0.0324,0.013523,0.002678,0.000431,0.763228
1814000,0.0324,0.013523,0.002678,0.000431,0.812942
1815000,0.0324,0.013523,0.002678,0.000431,0.738077
1816000,0.0324,0.013523,0.002678,0.000431,0.800720
1817000,0.0324,0.013523,0.002678,0.000431,0.731966
1818000,0.0324,0.013523,0.002678,0.000431,0.737724
1819000,0.0324,0.013523,0.002678,0.000431,0.857368
1820000,0.0324,0.013523,0.002678,0.000431,0.753238
1821000,0.0324,0.013523,0.002678,0.000431,0.777566
1822000,0.0324,0.013523,0.002678,0.000431,0.730085
1823000,0.0324,0.013523,0.002678,0.000431,0.827163
1824000,0.0324,0.013523,0.002678,0.000431,0.681311
1825000,0.0324,0.013523,0.002678,0.000431,0.723739
1826000,0.0324,0.013523,0.002678,0.000431,0.789554
1827000,0.0324,0.013523,0.002678,0.000431,0.806243
1828000,0.0324,0.013523,0.002678,0.000431,0.783560
1829000,0.0324,0.013523,0.002678,0.000431,0.818231
1830000,0.0324,0.013523,0.002678,0.000431,0.826928
1831000,0.0324,0.013523,0.002678,0.000431,0.728322
1832000,0.0324,0.013523,0.002678,0.000431,0.818349
1833000,0.0324,0.013523,0.002678,0.000431,0.822462
1834000,0.0324,0.013523,0.002678,0.000431,0.774041
1835000,0.0324,0.013523,0.002678,0.000431,0.853490
1836000,0.0324,0.013523,0.002678,0.000431,0.827986
1837000,0.0324,0.013523,0.002678,0.000431,0.800249
1838000,0.0324,0.013523,0.002678,0.000431,0.742661
1839000,0.0324,0.013523,0.002678,0.000431,0.723503
1840000,0.0324,0.013523,0.002678,0.000431,0.743366
1841000,0.0324,0.013523,0.002678,0.000431,0.715982
1842000,0.0324,0.013523,0.002678,0.000431,0.756294
1843000,0.0324,0.013523,0.002678,0.000431,0.739252
1844000,0.0324,0.013523,0.002678,0.000431,0.740075
1845000,0.0324,0.013523,0.002678,0.000431,0.693299
1846000,0.0324,0.013523,0.002678,0.000431,0.768869
1847000,0.0324,0.013523,0.002678,0.000431,0.751240
1848000,0.0324,0.013523,0.002678,0.000431,0.732318
1849000,0.0324,0.013523,0.002678,0.000431,0.802482
1850000,0.0324,0.013523,0.002678,0.000431,0.768987
1851000,0.0324,0.013523,0.002678,0.000431,0.765108
1852000,0.0324,0.013523,0.002678,0.000431,0.813530
1853000,0.0324,0.013523,0.002678,0.000431,0.761583
1854000,0.0324,0.013523,0.002678,0.000431,0.802953
1855000,0.0324,0.013523,0.002678,0.000431,0.853255
1856000,0.0324,0.013523,0.002678,0.000431,0.777449
1857000,0.0324,0.013523,0.002678,0.000431,0.792963
1858000,0.0324,0.013523,0.002678,0.000431,0.760642
1859000,0.0324,0.013523,0.002678,0.000431,0.699410
1860000,0.0324,0.013523,0.002678,0.000431,0.786734
1861000,0.0324,0.013523,0.002678,0.000431,0.810004
1862000,0.0324,0.013523,0.002678,0.000431,0.807419
1863000,0.0324,0.013523,0.002678,0.000431,0.784501
1864000,0.0324,0.013523,0.002678,0.000431,0.838916
1865000,0.0324,0.013523,0.002678,0.000431,0.751240
1866000,0.0324,0.013523,0.002678,0.000431,0.797311
1867000,0.0324,0.013523,0.002678,0.000431,0.809299
1868000,0.0324,0.013523,0.002678,0.000431,0.816468
1869000,0.0324,0.013523,0.002678,0.000431,0.836213
1870000,0.0324,0.013523,0.002678,0.000431,0.757587
1871000,0.0324,0.013523,0.002678,0.000431,0.815881
1872000,0.0324,0.013523,0.002678,0.000431,0.777331
1873000,0.0324,0.013523,0.002678,0.000431,0.785676
1874000,0.0324,0.013523,0.002678,0.000431,0.722563
1875000,0.0324,0.013523,0.002678,0.000431,0.805891
1876000,0.0324,0.013523,0.002678,0.000431,0.774041
1877000,0.0324,0.013523,0.002678,0.000431,0.722916
1878000,0.0324,0.013523,0.002678,0.000431,0.788144
1879000,0.0324,0.013523,0.002678,0.000431,0.742308
1880000,0.0324,0.013523,0.002678,0.000431,0.696119
1881000,0.0324,0.013523,0.002678,0.000431,0.748655
1882000,0.0324,0.013523,0.002678,0.000431,0.722446
1883000,0.0324,0.013523,0.002678,0.000431,0.811062
1884000,0.0324,0.013523,0.002678,0.000431,0.680841
1885000,0.0324,0.013523,0.002678,0.000431,0.891334
1886000,0.0324,0.013523,0.002678,0.000431,0.797546
1887000,0.0324,0.013523,0.002678,0.000431,0.753826
1888000,0.0324,0.013523,0.002678,0.000431,0.858426
1889000,0.0324,0.013523,0.002678,0.000431,0.813765
1890000,0.0324,0.013523,0.002678,0.000431,0.801542
1891000,0.0324,0.013523,0.002678,0.000431,0.804833
1892000,0.0324,0.013523,0.002678,0.000431,0.873469
1893000,0.0324,0.013523,0.002678,0.000431,0.790259
1894000,0.0324,0.013523,0.002678,0.000431,0.745011
1895000,0.0324,0.013523,0.002678,0.000431,0.760290
1896000,0.0324,0.013523,0.002678,0.000431,0.828456
1897000,0.0324,0.013523,0.002678,0.000431,0.776744
1898000,0.0324,0.013523,0.002678,0.000431,0.753826
1899000,0.0324,0.013523,0.002678,0.000431,0.749947
1900000,0.0324,0.013523,0.002678,0.000431,0.759585
1901000,0.0324,0.013523,0.002678,0.000431,0.894272
1902000,0.0324,0.013523,0.002678,0.000431,0.731378
1903000,0.0324,0.013523,0.002678,0.000431,0.764521
1904000,0.0324,0.013523,0.002678,0.000431,0.769575
1905000,0.0324,0.013523,0.002678,0.000431,0.832452
1906000,0.0324,0.013523,0.002678,0.000431,0.714101
1907000,0.0324,0.013523,0.002678,0.000431,0.809064
1908000,0.0324,0.013523,0.002678,0.000431,0.779564
1909000,0.0324,0.013523,0.002678,0.000431,0.721741
1910000,0.0324,0.013523,0.002678,0.000431,0.727147
1911000,0.0324,0.013523,0.002678,0.000431,0.772630
1912000,0.0324,0.013523,0.002678,0.000431,0.775921
1913000,0.0324,0.013523,0.002678,0.000431,0.710575
1914000,0.0324,0.013523,0.002678,0.000431,0.766636
1915000,0.0324,0.013523,0.002678,0.000431,0.753473
1916000,0.0324,0.013523,0.002678,0.000431,0.836566
1917000,0.0324,0.013523,0.002678,0.000431,0.806596
1918000,0.0324,0.013523,0.002678,0.000431,0.764991
1919000,0.0324,0.013523,0.002678,0.000431,0.849141
1920000,0.0324,0.013523,0.002678,0.000431,0.811415
1921000,0.0324,0.013523,0.002678,0.000431,0.730790
1922000,0.0324,0.013523,0.002678,0.000431,0.780387
1923000,0.0324,0.013523,0.002678,0.000431,0.827633
1924000,0.0324,0.013523,0.002678,0.000431,0.731613
1925000,0.0324,0.013523,0.002678,0.000431,0.742896
1926000,0.0324,0.013523,0.002678,0.000431,0.766284
1927000,0.0324,0.013523,0.002678,0.000431,0.758409
1928000,0.0324,0.013523,0.002678,0.000431,0.690596
1929000,0.0324,0.013523,0.002678,0.000431,0.845968
1930000,0.0324,0.013523,0.002678,0.000431,0.707285
1931000,0.0324,0.013523,0.002678,0.000431,0.789084
1932000,0.0324,0.013523,0.002678,0.000431,0.728322
1933000,0.0324,0.013523,0.002678,0.000431,0.746069
1934000,0.0324,0.013523,0.002678,0.000431,0.733963
1935000,0.0324,0.013523,0.002678,0.000431,0.689420
1936000,0.0324,0.013523,0.002678,0.000431,0.661566
1937000,0.0324,0.013523,0.002678,0.000431,0.731613
1938000,0.0324,0.013523,0.002678,0.000431,0.805421
1939000,0.0324,0.013523,0.002678,0.000431,0.739487
1940000,0.0324,0.013523,0.002678,0.000431,0.762053
1941000,0.0324,0.013523,0.002678,0.000431,0.762758
1942000,0.0324,0.013523,0.002678,0.000431,0.651929
1943000,0.0324,0.013523,0.002678,0.000431,0.817644
1944000,0.0324,0.013523,0.002678,0.000431,0.735139
1945000,0.0324,0.013523,0.002678,0.000431,0.766871
1946000,0.0324,0.013523,0.002678,0.000431,0.818936
1947000,0.0324,0.013523,0.002678,0.000431,0.684719
1948000,0.0324,0.013523,0.002678,0.000431,0.762758
1949000,0.0324,0.013523,0.002678,0.000431,0.843147
1950000,0.0324,0.013523,0.002678,0.000431,0.773218
1951000,0.0324,0.013523,0.002678,0.000431,0.886633
1952000,0.0324,0.013523,0.002678,0.000431,0.745599
1953000,0.0324,0.013523,0.002678,0.000431,0.759702
1954000,0.0324,0.013523,0.002678,0.000431,0.775686
1955000,0.0324,0.013523,0.002678,0.000431,0.801307
1956000,0.0324,0.013523,0.002678,0.000431,0.829749
1957000,0.0324,0.013523,0.002678,0.000431,0.697882
1958000,0.0324,0.013523,0.002678,0.000431,0.746421
1959000,0.0324,0.013523,0.002678,0.000431,0.795431
1960000,0.0324,0.013523,0.002678,0.000431,0.815058
1961000,0.0324,0.013523,0.002678,0.000431,0.867476
1962000,0.0324,0.013523,0.002678,0.000431,0.719860
1963000,0.0324,0.013523,0.002678,0.000431,0.782268
1964000,0.0324,0.013523,0.002678,0.000431,0.768752
1965000,0.0324,0.013523,0.002678,0.000431,0.724091
1966000,0.0324,0.013523,0.002678,0.000431,0.911431
1967000,0.0324,0.013523,0.002678,0.000431,0.802365
1968000,0.0324,0.013523,0.002678,0.000431,0.743953
1969000,0.0324,0.013523,0.002678,0.000431,0.792375
1970000,0.0324,0.013523,0.002678,0.000431,0.758879
1971000,0.0324,0.013523,0.002678,0.000431,0.788026
1972000,0.0324,0.013523,0.002678,0.000431,0.779682
1973000,0.0324,0.013523,0.002678,0.000431,0.703406
1974000,0.0324,0.013523,0.002678,0.000431,0.955269
1975000,0.0324,0.013523,0.002678,0.000431,0.800720
1976000,0.0324,0.013523,0.002678,0.000431,0.911196
1977000,0.0324,0.013523,0.002678,0.000431,0.765461
1978000,0.0324,0.013523,0.002678,0.000431,0.812002
1979000,0.0324,0.013523,0.002678,0.000431,0.814470
1980000,0.0324,0.013523,0.002678,0.000431,0.730320
1981000,0.0324,0.013523,0.002678,0.000431,0.780857
1982000,0.0324,0.013523,0.002678,0.000431,0.813413
1983000,0.0324,0.013523,0.002678,0.000431,0.737019
1984000,0.0324,0.013523,0.002678,0.000431,0.764756
1985000,0.0324,0.013523,0.002678,0.000431,0.749007
1986000,0.0324,0.013523,0.002678,0.000431,0.816703
1987000,0.0324,0.013523,0.002678,0.000431,0.800602
1988000,0.0324,0.013523,0.002678,0.000431,0.758644
1989000,0.0324,0.013523,0.002678,0.000431,0.890746
1990000,0.0324,0.013523,0.002678,0.000431,0.741603
1991000,0.0324,0.013523,0.002678,0.000431,0.774628
1992000,0.0324,0.013523,0.002678,0.000431,0.733258
1993000,0.0324,0.013523,0.002678,0.000431,0.802600
1994000,0.0324,0.013523,0.002678,0.000431,0.751828
1995000,0.0324,0.013523,0.002678,0.000431,0.701878
1996000,0.0324,0.013523,0.002678,0.000431,0.752298
1997000,0.0324,0.013523,0.002678,0.000431,0.665327
1998000,0.0324,0.013523,0.002678,0.000431,0.784971
1999000,0.0324,0.013523,0.002678,0.000431,0.750300
