Cycle,Area(mm^2),PeakDynamic(W),SubthresholdLeakage(W),GateLeakage(W),RunTimeDynamic(W)
1000,0.0324,0.013523,0.002678,0.000431,0.025974
2000,0.0324,0.013523,0.002678,0.000431,0.000000
3000,0.0324,0.013523,0.002678,0.000431,0.000000
4000,0.0324,0.013523,0.002678,0.000431,0.000000
5000,0.0324,0.013523,0.002678,0.000431,0.000000
6000,0.0324,0.013523,0.002678,0.000431,2.028419
7000,0.0324,0.013523,0.002678,0.000431,2.278284
8000,0.0324,0.013523,0.002678,0.000431,1.364502
9000,0.0324,0.013523,0.002678,0.000431,2.016666
10000,0.0324,0.013523,0.002678,0.000431,2.260890
11000,0.0324,0.013523,0.002678,0.000431,3.637380
12000,0.0324,0.013523,0.002678,0.000431,4.000072
13000,0.0324,0.013523,0.002678,0.000431,4.233953
14000,0.0324,0.013523,0.002678,0.000431,4.187882
15000,0.0324,0.013523,0.002678,0.000431,4.056720
16000,0.0324,0.013523,0.002678,0.000431,4.030747
17000,0.0324,0.013523,0.002678,0.000431,4.039679
18000,0.0324,0.013523,0.002678,0.000431,4.015468
19000,0.0324,0.013523,0.002678,0.000431,4.071294
20000,0.0324,0.013523,0.002678,0.000431,4.023695
21000,0.0324,0.013523,0.002678,0.000431,4.042969
22000,0.0324,0.013523,0.002678,0.000431,4.042969
23000,0.0324,0.013523,0.002678,0.000431,4.083282
24000,0.0324,0.013523,0.002678,0.000431,4.040971
25000,0.0324,0.013523,0.002678,0.000431,4.048258
26000,0.0324,0.013523,0.002678,0.000431,4.054605
27000,0.0324,0.013523,0.002678,0.000431,4.085750
28000,0.0324,0.013523,0.002678,0.000431,4.057543
29000,0.0324,0.013523,0.002678,0.000431,4.042029
30000,0.0324,0.013523,0.002678,0.000431,4.033097
31000,0.0324,0.013523,0.002678,0.000431,4.044967
32000,0.0324,0.013523,0.002678,0.000431,4.024282
33000,0.0324,0.013523,0.002678,0.000431,4.096797
34000,0.0324,0.013523,0.002678,0.000431,4.051667
35000,0.0324,0.013523,0.002678,0.000431,4.064830
36000,0.0324,0.013523,0.002678,0.000431,4.051549
37000,0.0324,0.013523,0.002678,0.000431,4.047083
38000,0.0324,0.013523,0.002678,0.000431,4.014998
39000,0.0324,0.013523,0.002678,0.000431,4.081636
40000,0.0324,0.013523,0.002678,0.000431,4.042617
41000,0.0324,0.013523,0.002678,0.000431,4.054135
42000,0.0324,0.013523,0.002678,0.000431,4.062714
43000,0.0324,0.013523,0.002678,0.000431,4.099618
44000,0.0324,0.013523,0.002678,0.000431,4.065887
45000,0.0324,0.013523,0.002678,0.000431,4.064242
46000,0.0324,0.013523,0.002678,0.000431,4.052724
47000,0.0324,0.013523,0.002678,0.000431,4.081401
48000,0.0324,0.013523,0.002678,0.000431,4.079521
49000,0.0324,0.013523,0.002678,0.000431,4.044850
50000,0.0324,0.013523,0.002678,0.000431,4.023577
51000,0.0324,0.013523,0.002678,0.000431,4.049786
52000,0.0324,0.013523,0.002678,0.000431,4.079756
53000,0.0324,0.013523,0.002678,0.000431,4.046965
54000,0.0324,0.013523,0.002678,0.000431,4.060481
55000,0.0324,0.013523,0.002678,0.000431,4.073762
56000,0.0324,0.013523,0.002678,0.000431,4.032392
57000,0.0324,0.013523,0.002678,0.000431,4.063537
58000,0.0324,0.013523,0.002678,0.000431,4.060951
59000,0.0324,0.013523,0.002678,0.000431,4.073762
60000,0.0324,0.013523,0.002678,0.000431,4.103614
61000,0.0324,0.013523,0.002678,0.000431,4.024165
62000,0.0324,0.013523,0.002678,0.000431,4.073527
63000,0.0324,0.013523,0.002678,0.000431,4.035213
64000,0.0324,0.013523,0.002678,0.000431,4.040619
65000,0.0324,0.013523,0.002678,0.000431,4.025928
66000,0.0324,0.013523,0.002678,0.000431,4.063067
67000,0.0324,0.013523,0.002678,0.000431,4.020874
68000,0.0324,0.013523,0.002678,0.000431,4.005948
69000,0.0324,0.013523,0.002678,0.000431,4.056838
70000,0.0324,0.013523,0.002678,0.000431,4.066005
71000,0.0324,0.013523,0.002678,0.000431,4.082812
72000,0.0324,0.013523,0.002678,0.000431,4.103144
73000,0.0324,0.013523,0.002678,0.000431,4.042969
74000,0.0324,0.013523,0.002678,0.000431,4.050021
75000,0.0324,0.013523,0.002678,0.000431,4.055310
76000,0.0324,0.013523,0.002678,0.000431,4.017701
77000,0.0324,0.013523,0.002678,0.000431,4.064595
78000,0.0324,0.013523,0.002678,0.000431,4.085515
79000,0.0324,0.013523,0.002678,0.000431,4.071881
80000,0.0324,0.013523,0.002678,0.000431,4.067885
81000,0.0324,0.013523,0.002678,0.000431,4.121831
82000,0.0324,0.013523,0.002678,0.000431,4.042264
83000,0.0324,0.013523,0.002678,0.000431,4.092096
84000,0.0324,0.013523,0.002678,0.000431,4.052489
85000,0.0324,0.013523,0.002678,0.000431,4.081166
86000,0.0324,0.013523,0.002678,0.000431,4.035800
87000,0.0324,0.013523,0.002678,0.000431,4.095270
88000,0.0324,0.013523,0.002678,0.000431,4.049316
89000,0.0324,0.013523,0.002678,0.000431,4.063419
90000,0.0324,0.013523,0.002678,0.000431,4.083399
91000,0.0324,0.013523,0.002678,0.000431,4.056368
92000,0.0324,0.013523,0.002678,0.000431,4.046260
93000,0.0324,0.013523,0.002678,0.000431,4.067650
94000,0.0324,0.013523,0.002678,0.000431,4.063302
95000,0.0324,0.013523,0.002678,0.000431,4.025575
96000,0.0324,0.013523,0.002678,0.000431,4.059423
97000,0.0324,0.013523,0.002678,0.000431,4.103026
98000,0.0324,0.013523,0.002678,0.000431,4.087983
99000,0.0324,0.013523,0.002678,0.000431,4.092684
100000,0.0324,0.013523,0.002678,0.000431,4.077875
101000,0.0324,0.013523,0.002678,0.000431,4.042969
102000,0.0324,0.013523,0.002678,0.000431,4.109843
103000,0.0324,0.013523,0.002678,0.000431,4.014410
104000,0.0324,0.013523,0.002678,0.000431,4.070706
105000,0.0324,0.013523,0.002678,0.000431,4.081401
106000,0.0324,0.013523,0.002678,0.000431,4.036623
107000,0.0324,0.013523,0.002678,0.000431,4.053782
108000,0.0324,0.013523,0.002678,0.000431,4.052372
109000,0.0324,0.013523,0.002678,0.000431,4.047436
110000,0.0324,0.013523,0.002678,0.000431,4.014880
111000,0.0324,0.013523,0.002678,0.000431,3.989612
112000,0.0324,0.013523,0.002678,0.000431,4.021109
113000,0.0324,0.013523,0.002678,0.000431,3.982442
114000,0.0324,0.013523,0.002678,0.000431,3.900760
115000,0.0324,0.013523,0.002678,0.000431,3.879840
116000,0.0324,0.013523,0.002678,0.000431,3.824485
117000,0.0324,0.013523,0.002678,0.000431,3.742802
118000,0.0324,0.013523,0.002678,0.000431,3.622689
119000,0.0324,0.013523,0.002678,0.000431,3.525375
120000,0.0324,0.013523,0.002678,0.000431,3.342149
121000,0.0324,0.013523,0.002678,0.000431,3.207579
122000,0.0324,0.013523,0.002678,0.000431,3.105447
123000,0.0324,0.013523,0.002678,0.000431,2.976401
124000,0.0324,0.013523,0.002678,0.000431,2.853232
125000,0.0324,0.013523,0.002678,0.000431,2.692218
126000,0.0324,0.013523,0.002678,0.000431,2.570341
127000,0.0324,0.013523,0.002678,0.000431,2.477024
128000,0.0324,0.013523,0.002678,0.000431,2.396165
129000,0.0324,0.013523,0.002678,0.000431,2.341867
130000,0.0324,0.013523,0.002678,0.000431,2.233506
131000,0.0324,0.013523,0.002678,0.000431,2.181558
132000,0.0324,0.013523,0.002678,0.000431,2.075195
133000,0.0324,0.013523,0.002678,0.000431,2.006441
134000,0.0324,0.013523,0.002678,0.000431,1.911126
135000,0.0324,0.013523,0.002678,0.000431,1.908070
136000,0.0324,0.013523,0.002678,0.000431,1.809699
137000,0.0324,0.013523,0.002678,0.000431,1.712151
138000,0.0324,0.013523,0.002678,0.000431,1.651271
139000,0.0324,0.013523,0.002678,0.000431,1.594270
140000,0.0324,0.013523,0.002678,0.000431,1.544438
141000,0.0324,0.013523,0.002678,0.000431,1.511295
142000,0.0324,0.013523,0.002678,0.000431,1.416567
143000,0.0324,0.013523,0.002678,0.000431,1.384247
144000,0.0324,0.013523,0.002678,0.000431,1.310087
145000,0.0324,0.013523,0.002678,0.000431,1.272713
146000,0.0324,0.013523,0.002678,0.000431,1.195614
147000,0.0324,0.013523,0.002678,0.000431,1.163764
148000,0.0324,0.013523,0.002678,0.000431,1.123569
149000,0.0324,0.013523,0.002678,0.000431,1.056696
150000,0.0324,0.013523,0.002678,0.000431,1.015326
151000,0.0324,0.013523,0.002678,0.000431,0.989235
152000,0.0324,0.013523,0.002678,0.000431,0.953036
153000,0.0324,0.013523,0.002678,0.000431,0.903322
154000,0.0324,0.013523,0.002678,0.000431,0.856545
155000,0.0324,0.013523,0.002678,0.000431,0.836683
156000,0.0324,0.013523,0.002678,0.000431,0.796253
157000,0.0324,0.013523,0.002678,0.000431,0.763933
158000,0.0324,0.013523,0.002678,0.000431,0.723151
159000,0.0324,0.013523,0.002678,0.000431,0.688480
160000,0.0324,0.013523,0.002678,0.000431,0.658510
161000,0.0324,0.013523,0.002678,0.000431,0.631126
162000,0.0324,0.013523,0.002678,0.000431,0.601979
163000,0.0324,0.013523,0.002678,0.000431,0.585525
164000,0.0324,0.013523,0.002678,0.000431,0.556966
165000,0.0324,0.013523,0.002678,0.000431,0.525704
166000,0.0324,0.013523,0.002678,0.000431,0.492678
167000,0.0324,0.013523,0.002678,0.000431,0.483864
168000,0.0324,0.013523,0.002678,0.000431,0.463061
169000,0.0324,0.013523,0.002678,0.000431,0.438968
170000,0.0324,0.013523,0.002678,0.000431,0.416520
171000,0.0324,0.013523,0.002678,0.000431,0.406177
172000,0.0324,0.013523,0.002678,0.000431,0.385845
173000,0.0324,0.013523,0.002678,0.000431,0.369038
174000,0.0324,0.013523,0.002678,0.000431,0.347413
175000,0.0324,0.013523,0.002678,0.000431,0.340597
176000,0.0324,0.013523,0.002678,0.000431,0.316856
177000,0.0324,0.013523,0.002678,0.000431,0.306866
178000,0.0324,0.013523,0.002678,0.000431,0.297464
179000,0.0324,0.013523,0.002678,0.000431,0.277367
180000,0.0324,0.013523,0.002678,0.000431,0.265144
181000,0.0324,0.013523,0.002678,0.000431,0.253273
182000,0.0324,0.013523,0.002678,0.000431,0.240580
183000,0.0324,0.013523,0.002678,0.000431,0.227300
184000,0.0324,0.013523,0.002678,0.000431,0.217545
185000,0.0324,0.013523,0.002678,0.000431,0.214371
186000,0.0324,0.013523,0.002678,0.000431,0.203676
187000,0.0324,0.013523,0.002678,0.000431,0.188398
188000,0.0324,0.013523,0.002678,0.000431,0.184167
189000,0.0324,0.013523,0.002678,0.000431,0.176880
190000,0.0324,0.013523,0.002678,0.000431,0.163717
191000,0.0324,0.013523,0.002678,0.000431,0.160896
192000,0.0324,0.013523,0.002678,0.000431,0.154315
193000,0.0324,0.013523,0.002678,0.000431,0.146558
194000,0.0324,0.013523,0.002678,0.000431,0.139741
195000,0.0324,0.013523,0.002678,0.000431,0.136333
196000,0.0324,0.013523,0.002678,0.000431,0.127753
197000,0.0324,0.013523,0.002678,0.000431,0.123170
198000,0.0324,0.013523,0.002678,0.000431,0.120349
199000,0.0324,0.013523,0.002678,0.000431,0.114120
200000,0.0324,0.013523,0.002678,0.000431,0.111417
201000,0.0324,0.013523,0.002678,0.000431,0.109536
202000,0.0324,0.013523,0.002678,0.000431,0.097313
203000,0.0324,0.013523,0.002678,0.000431,0.098019
204000,0.0324,0.013523,0.002678,0.000431,0.096491
205000,0.0324,0.013523,0.002678,0.000431,0.091437
206000,0.0324,0.013523,0.002678,0.000431,0.087558
207000,0.0324,0.013523,0.002678,0.000431,0.084503
208000,0.0324,0.013523,0.002678,0.000431,0.079096
209000,0.0324,0.013523,0.002678,0.000431,0.075336
210000,0.0324,0.013523,0.002678,0.000431,0.076276
211000,0.0324,0.013523,0.002678,0.000431,0.072045
212000,0.0324,0.013523,0.002678,0.000431,0.067344
213000,0.0324,0.013523,0.002678,0.000431,0.064405
214000,0.0324,0.013523,0.002678,0.000431,0.062643
215000,0.0324,0.013523,0.002678,0.000431,0.057824
216000,0.0324,0.013523,0.002678,0.000431,0.059234
217000,0.0324,0.013523,0.002678,0.000431,0.053358
218000,0.0324,0.013523,0.002678,0.000431,0.054180
219000,0.0324,0.013523,0.002678,0.000431,0.053005
220000,0.0324,0.013523,0.002678,0.000431,0.050185
221000,0.0324,0.013523,0.002678,0.000431,0.049244
222000,0.0324,0.013523,0.002678,0.000431,0.048422
223000,0.0324,0.013523,0.002678,0.000431,0.045248
224000,0.0324,0.013523,0.002678,0.000431,0.045836
225000,0.0324,0.013523,0.002678,0.000431,0.040900
226000,0.0324,0.013523,0.002678,0.000431,0.040195
227000,0.0324,0.013523,0.002678,0.000431,0.038079
228000,0.0324,0.013523,0.002678,0.000431,0.035141
229000,0.0324,0.013523,0.002678,0.000431,0.035494
230000,0.0324,0.013523,0.002678,0.000431,0.033731
231000,0.0324,0.013523,0.002678,0.000431,0.034788
232000,0.0324,0.013523,0.002678,0.000431,0.033848
233000,0.0324,0.013523,0.002678,0.000431,0.031733
234000,0.0324,0.013523,0.002678,0.000431,0.031733
235000,0.0324,0.013523,0.002678,0.000431,0.029970
236000,0.0324,0.013523,0.002678,0.000431,0.031498
237000,0.0324,0.013523,0.002678,0.000431,0.029147
238000,0.0324,0.013523,0.002678,0.000431,0.029265
239000,0.0324,0.013523,0.002678,0.000431,0.028442
240000,0.0324,0.013523,0.002678,0.000431,0.027149
241000,0.0324,0.013523,0.002678,0.000431,0.025269
242000,0.0324,0.013523,0.002678,0.000431,0.024328
243000,0.0324,0.013523,0.002678,0.000431,0.024093
244000,0.0324,0.013523,0.002678,0.000431,0.022448
245000,0.0324,0.013523,0.002678,0.000431,0.022800
246000,0.0324,0.013523,0.002678,0.000431,0.022330
247000,0.0324,0.013523,0.002678,0.000431,0.021155
248000,0.0324,0.013523,0.002678,0.000431,0.022095
249000,0.0324,0.013523,0.002678,0.000431,0.019275
250000,0.0324,0.013523,0.002678,0.000431,0.020567
251000,0.0324,0.013523,0.002678,0.000431,0.020215
252000,0.0324,0.013523,0.002678,0.000431,0.018452
253000,0.0324,0.013523,0.002678,0.000431,0.017629
254000,0.0324,0.013523,0.002678,0.000431,0.018569
255000,0.0324,0.013523,0.002678,0.000431,0.017042
256000,0.0324,0.013523,0.002678,0.000431,0.018217
257000,0.0324,0.013523,0.002678,0.000431,0.016101
258000,0.0324,0.013523,0.002678,0.000431,0.017159
259000,0.0324,0.013523,0.002678,0.000431,0.015161
260000,0.0324,0.013523,0.002678,0.000431,0.016101
261000,0.0324,0.013523,0.002678,0.000431,0.015044
262000,0.0324,0.013523,0.002678,0.000431,0.015749
263000,0.0324,0.013523,0.002678,0.000431,0.014221
264000,0.0324,0.013523,0.002678,0.000431,0.015161
265000,0.0324,0.013523,0.002678,0.000431,0.013751
266000,0.0324,0.013523,0.002678,0.000431,0.012693
267000,0.0324,0.013523,0.002678,0.000431,0.012811
268000,0.0324,0.013523,0.002678,0.000431,0.012340
269000,0.0324,0.013523,0.002678,0.000431,0.013398
270000,0.0324,0.013523,0.002678,0.000431,0.012458
271000,0.0324,0.013523,0.002678,0.000431,0.013398
272000,0.0324,0.013523,0.002678,0.000431,0.011283
273000,0.0324,0.013523,0.002678,0.000431,0.011283
274000,0.0324,0.013523,0.002678,0.000431,0.011635
275000,0.0324,0.013523,0.002678,0.000431,0.011635
276000,0.0324,0.013523,0.002678,0.000431,0.012223
277000,0.0324,0.013523,0.002678,0.000431,0.011870
278000,0.0324,0.013523,0.002678,0.000431,0.010695
279000,0.0324,0.013523,0.002678,0.000431,0.010930
280000,0.0324,0.013523,0.002678,0.000431,0.010460
281000,0.0324,0.013523,0.002678,0.000431,0.010813
282000,0.0324,0.013523,0.002678,0.000431,0.010578
283000,0.0324,0.013523,0.002678,0.000431,0.010225
284000,0.0324,0.013523,0.002678,0.000431,0.009872
285000,0.0324,0.013523,0.002678,0.000431,0.009637
286000,0.0324,0.013523,0.002678,0.000431,0.009167
287000,0.0324,0.013523,0.002678,0.000431,0.009167
288000,0.0324,0.013523,0.002678,0.000431,0.009167
289000,0.0324,0.013523,0.002678,0.000431,0.009285
290000,0.0324,0.013523,0.002678,0.000431,0.009755
291000,0.0324,0.013523,0.002678,0.000431,0.009050
292000,0.0324,0.013523,0.002678,0.000431,0.009050
293000,0.0324,0.013523,0.002678,0.000431,0.009167
294000,0.0324,0.013523,0.002678,0.000431,0.008932
295000,0.0324,0.013523,0.002678,0.000431,0.008580
296000,0.0324,0.013523,0.002678,0.000431,0.008227
297000,0.0324,0.013523,0.002678,0.000431,0.008345
298000,0.0324,0.013523,0.002678,0.000431,0.007992
299000,0.0324,0.013523,0.002678,0.000431,0.007874
300000,0.0324,0.013523,0.002678,0.000431,0.008227
301000,0.0324,0.013523,0.002678,0.000431,0.008227
302000,0.0324,0.013523,0.002678,0.000431,0.006934
303000,0.0324,0.013523,0.002678,0.000431,0.007287
304000,0.0324,0.013523,0.002678,0.000431,0.007522
305000,0.0324,0.013523,0.002678,0.000431,0.006817
306000,0.0324,0.013523,0.002678,0.000431,0.007757
307000,0.0324,0.013523,0.002678,0.000431,0.007522
308000,0.0324,0.013523,0.002678,0.000431,0.007522
309000,0.0324,0.013523,0.002678,0.000431,0.007522
310000,0.0324,0.013523,0.002678,0.000431,0.006699
311000,0.0324,0.013523,0.002678,0.000431,0.007757
312000,0.0324,0.013523,0.002678,0.000431,0.006934
313000,0.0324,0.013523,0.002678,0.000431,0.006582
314000,0.0324,0.013523,0.002678,0.000431,0.007639
315000,0.0324,0.013523,0.002678,0.000431,0.006699
316000,0.0324,0.013523,0.002678,0.000431,0.006347
317000,0.0324,0.013523,0.002678,0.000431,0.006817
318000,0.0324,0.013523,0.002678,0.000431,0.006111
319000,0.0324,0.013523,0.002678,0.000431,0.006582
320000,0.0324,0.013523,0.002678,0.000431,0.007522
321000,0.0324,0.013523,0.002678,0.000431,0.006934
322000,0.0324,0.013523,0.002678,0.000431,0.006934
323000,0.0324,0.013523,0.002678,0.000431,0.006582
324000,0.0324,0.013523,0.002678,0.000431,0.006582
325000,0.0324,0.013523,0.002678,0.000431,0.005994
326000,0.0324,0.013523,0.002678,0.000431,0.005406
327000,0.0324,0.013523,0.002678,0.000431,0.006111
328000,0.0324,0.013523,0.002678,0.000431,0.005289
329000,0.0324,0.013523,0.002678,0.000431,0.005289
330000,0.0324,0.013523,0.002678,0.000431,0.005759
331000,0.0324,0.013523,0.002678,0.000431,0.006229
332000,0.0324,0.013523,0.002678,0.000431,0.005641
333000,0.0324,0.013523,0.002678,0.000431,0.005759
334000,0.0324,0.013523,0.002678,0.000431,0.005524
335000,0.0324,0.013523,0.002678,0.000431,0.004936
336000,0.0324,0.013523,0.002678,0.000431,0.005406
337000,0.0324,0.013523,0.002678,0.000431,0.004936
338000,0.0324,0.013523,0.002678,0.000431,0.005876
339000,0.0324,0.013523,0.002678,0.000431,0.005054
340000,0.0324,0.013523,0.002678,0.000431,0.004466
341000,0.0324,0.013523,0.002678,0.000431,0.005406
342000,0.0324,0.013523,0.002678,0.000431,0.005406
343000,0.0324,0.013523,0.002678,0.000431,0.005641
344000,0.0324,0.013523,0.002678,0.000431,0.004701
345000,0.0324,0.013523,0.002678,0.000431,0.005054
346000,0.0324,0.013523,0.002678,0.000431,0.004819
347000,0.0324,0.013523,0.002678,0.000431,0.004584
348000,0.0324,0.013523,0.002678,0.000431,0.004584
349000,0.0324,0.013523,0.002678,0.000431,0.005406
350000,0.0324,0.013523,0.002678,0.000431,0.004701
351000,0.0324,0.013523,0.002678,0.000431,0.004466
352000,0.0324,0.013523,0.002678,0.000431,0.004584
353000,0.0324,0.013523,0.002678,0.000431,0.004701
354000,0.0324,0.013523,0.002678,0.000431,0.005054
355000,0.0324,0.013523,0.002678,0.000431,0.004349
356000,0.0324,0.013523,0.002678,0.000431,0.004819
357000,0.0324,0.013523,0.002678,0.000431,0.004819
358000,0.0324,0.013523,0.002678,0.000431,0.004936
359000,0.0324,0.013523,0.002678,0.000431,0.004113
360000,0.0324,0.013523,0.002678,0.000431,0.004466
361000,0.0324,0.013523,0.002678,0.000431,0.004231
362000,0.0324,0.013523,0.002678,0.000431,0.004701
363000,0.0324,0.013523,0.002678,0.000431,0.004819
364000,0.0324,0.013523,0.002678,0.000431,0.004701
365000,0.0324,0.013523,0.002678,0.000431,0.003878
366000,0.0324,0.013523,0.002678,0.000431,0.004584
367000,0.0324,0.013523,0.002678,0.000431,0.004349
368000,0.0324,0.013523,0.002678,0.000431,0.004936
369000,0.0324,0.013523,0.002678,0.000431,0.003408
370000,0.0324,0.013523,0.002678,0.000431,0.004113
371000,0.0324,0.013523,0.002678,0.000431,0.004584
372000,0.0324,0.013523,0.002678,0.000431,0.004466
373000,0.0324,0.013523,0.002678,0.000431,0.004349
374000,0.0324,0.013523,0.002678,0.000431,0.003643
375000,0.0324,0.013523,0.002678,0.000431,0.004231
376000,0.0324,0.013523,0.002678,0.000431,0.003643
377000,0.0324,0.013523,0.002678,0.000431,0.004113
378000,0.0324,0.013523,0.002678,0.000431,0.004113
379000,0.0324,0.013523,0.002678,0.000431,0.003526
380000,0.0324,0.013523,0.002678,0.000431,0.003643
381000,0.0324,0.013523,0.002678,0.000431,0.004231
382000,0.0324,0.013523,0.002678,0.000431,0.003173
383000,0.0324,0.013523,0.002678,0.000431,0.003996
384000,0.0324,0.013523,0.002678,0.000431,0.003408
385000,0.0324,0.013523,0.002678,0.000431,0.003996
386000,0.0324,0.013523,0.002678,0.000431,0.003173
387000,0.0324,0.013523,0.002678,0.000431,0.003761
388000,0.0324,0.013523,0.002678,0.000431,0.003878
389000,0.0324,0.013523,0.002678,0.000431,0.003643
390000,0.0324,0.013523,0.002678,0.000431,0.004349
391000,0.0324,0.013523,0.002678,0.000431,0.004231
392000,0.0324,0.013523,0.002678,0.000431,0.003173
393000,0.0324,0.013523,0.002678,0.000431,0.003526
394000,0.0324,0.013523,0.002678,0.000431,0.003761
395000,0.0324,0.013523,0.002678,0.000431,0.003643
396000,0.0324,0.013523,0.002678,0.000431,0.003643
397000,0.0324,0.013523,0.002678,0.000431,0.003408
398000,0.0324,0.013523,0.002678,0.000431,0.003643
399000,0.0324,0.013523,0.002678,0.000431,0.003408
400000,0.0324,0.013523,0.002678,0.000431,0.003056
401000,0.0324,0.013523,0.002678,0.000431,0.003526
402000,0.0324,0.013523,0.002678,0.000431,0.003408
403000,0.0324,0.013523,0.002678,0.000431,0.003526
404000,0.0324,0.013523,0.002678,0.000431,0.003526
405000,0.0324,0.013523,0.002678,0.000431,0.003056
406000,0.0324,0.013523,0.002678,0.000431,0.003408
407000,0.0324,0.013523,0.002678,0.000431,0.003761
408000,0.0324,0.013523,0.002678,0.000431,0.003408
409000,0.0324,0.013523,0.002678,0.000431,0.003643
410000,0.0324,0.013523,0.002678,0.000431,0.003526
411000,0.0324,0.013523,0.002678,0.000431,0.003526
412000,0.0324,0.013523,0.002678,0.000431,0.003996
413000,0.0324,0.013523,0.002678,0.000431,0.003643
414000,0.0324,0.013523,0.002678,0.000431,0.003643
415000,0.0324,0.013523,0.002678,0.000431,0.003643
416000,0.0324,0.013523,0.002678,0.000431,0.003291
417000,0.0324,0.013523,0.002678,0.000431,0.004113
418000,0.0324,0.013523,0.002678,0.000431,0.003643
419000,0.0324,0.013523,0.002678,0.000431,0.003173
420000,0.0324,0.013523,0.002678,0.000431,0.003526
421000,0.0324,0.013523,0.002678,0.000431,0.003291
422000,0.0324,0.013523,0.002678,0.000431,0.003173
423000,0.0324,0.013523,0.002678,0.000431,0.003056
424000,0.0324,0.013523,0.002678,0.000431,0.002938
425000,0.0324,0.013523,0.002678,0.000431,0.003291
426000,0.0324,0.013523,0.002678,0.000431,0.003056
427000,0.0324,0.013523,0.002678,0.000431,0.003056
428000,0.0324,0.013523,0.002678,0.000431,0.002703
429000,0.0324,0.013523,0.002678,0.000431,0.002468
430000,0.0324,0.013523,0.002678,0.000431,0.002586
431000,0.0324,0.013523,0.002678,0.000431,0.002703
432000,0.0324,0.013523,0.002678,0.000431,0.002703
433000,0.0324,0.013523,0.002678,0.000431,0.002233
434000,0.0324,0.013523,0.002678,0.000431,0.002468
435000,0.0324,0.013523,0.002678,0.000431,0.002351
436000,0.0324,0.013523,0.002678,0.000431,0.002468
437000,0.0324,0.013523,0.002678,0.000431,0.002938
438000,0.0324,0.013523,0.002678,0.000431,0.001998
439000,0.0324,0.013523,0.002678,0.000431,0.002586
440000,0.0324,0.013523,0.002678,0.000431,0.002468
441000,0.0324,0.013523,0.002678,0.000431,0.002586
442000,0.0324,0.013523,0.002678,0.000431,0.002821
443000,0.0324,0.013523,0.002678,0.000431,0.002586
444000,0.0324,0.013523,0.002678,0.000431,0.002468
445000,0.0324,0.013523,0.002678,0.000431,0.002468
446000,0.0324,0.013523,0.002678,0.000431,0.002468
447000,0.0324,0.013523,0.002678,0.000431,0.002586
448000,0.0324,0.013523,0.002678,0.000431,0.002703
449000,0.0324,0.013523,0.002678,0.000431,0.002351
450000,0.0324,0.013523,0.002678,0.000431,0.002468
451000,0.0324,0.013523,0.002678,0.000431,0.002586
452000,0.0324,0.013523,0.002678,0.000431,0.002351
453000,0.0324,0.013523,0.002678,0.000431,0.002468
454000,0.0324,0.013523,0.002678,0.000431,0.002821
455000,0.0324,0.013523,0.002678,0.000431,0.002938
456000,0.0324,0.013523,0.002678,0.000431,0.002351
457000,0.0324,0.013523,0.002678,0.000431,0.002703
458000,0.0324,0.013523,0.002678,0.000431,0.002351
459000,0.0324,0.013523,0.002678,0.000431,0.002703
460000,0.0324,0.013523,0.002678,0.000431,0.002821
461000,0.0324,0.013523,0.002678,0.000431,0.002703
462000,0.0324,0.013523,0.002678,0.000431,0.002703
463000,0.0324,0.013523,0.002678,0.000431,0.002468
464000,0.0324,0.013523,0.002678,0.000431,0.002351
465000,0.0324,0.013523,0.002678,0.000431,0.002703
466000,0.0324,0.013523,0.002678,0.000431,0.002586
467000,0.0324,0.013523,0.002678,0.000431,0.002586
468000,0.0324,0.013523,0.002678,0.000431,0.002821
469000,0.0324,0.013523,0.002678,0.000431,0.002938
470000,0.0324,0.013523,0.002678,0.000431,0.002586
471000,0.0324,0.013523,0.002678,0.000431,0.002468
472000,0.0324,0.013523,0.002678,0.000431,0.001880
473000,0.0324,0.013523,0.002678,0.000431,0.001998
474000,0.0324,0.013523,0.002678,0.000431,0.001880
475000,0.0324,0.013523,0.002678,0.000431,0.001763
476000,0.0324,0.013523,0.002678,0.000431,0.002233
477000,0.0324,0.013523,0.002678,0.000431,0.001998
478000,0.0324,0.013523,0.002678,0.000431,0.001998
479000,0.0324,0.013523,0.002678,0.000431,0.002116
480000,0.0324,0.013523,0.002678,0.000431,0.001998
481000,0.0324,0.013523,0.002678,0.000431,0.002351
482000,0.0324,0.013523,0.002678,0.000431,0.001880
483000,0.0324,0.013523,0.002678,0.000431,0.001998
484000,0.0324,0.013523,0.002678,0.000431,0.001763
485000,0.0324,0.013523,0.002678,0.000431,0.001528
486000,0.0324,0.013523,0.002678,0.000431,0.002116
487000,0.0324,0.013523,0.002678,0.000431,0.001998
488000,0.0324,0.013523,0.002678,0.000431,0.002116
489000,0.0324,0.013523,0.002678,0.000431,0.002116
490000,0.0324,0.013523,0.002678,0.000431,0.001998
491000,0.0324,0.013523,0.002678,0.000431,0.001645
492000,0.0324,0.013523,0.002678,0.000431,0.001880
493000,0.0324,0.013523,0.002678,0.000431,0.001880
494000,0.0324,0.013523,0.002678,0.000431,0.001880
495000,0.0324,0.013523,0.002678,0.000431,0.001880
496000,0.0324,0.013523,0.002678,0.000431,0.002116
497000,0.0324,0.013523,0.002678,0.000431,0.001880
498000,0.0324,0.013523,0.002678,0.000431,0.001880
499000,0.0324,0.013523,0.002678,0.000431,0.001645
500000,0.0324,0.013523,0.002678,0.000431,0.001763
501000,0.0324,0.013523,0.002678,0.000431,0.001645
502000,0.0324,0.013523,0.002678,0.000431,0.002116
503000,0.0324,0.013523,0.002678,0.000431,0.002116
504000,0.0324,0.013523,0.002678,0.000431,0.001763
505000,0.0324,0.013523,0.002678,0.000431,0.001528
506000,0.0324,0.013523,0.002678,0.000431,0.001998
507000,0.0324,0.013523,0.002678,0.000431,0.001880
508000,0.0324,0.013523,0.002678,0.000431,0.001763
509000,0.0324,0.013523,0.002678,0.000431,0.001763
510000,0.0324,0.013523,0.002678,0.000431,0.001763
511000,0.0324,0.013523,0.002678,0.000431,0.002116
512000,0.0324,0.013523,0.002678,0.000431,0.001880
513000,0.0324,0.013523,0.002678,0.000431,0.001880
514000,0.0324,0.013523,0.002678,0.000431,0.001998
515000,0.0324,0.013523,0.002678,0.000431,0.001998
516000,0.0324,0.013523,0.002678,0.000431,0.001645
517000,0.0324,0.013523,0.002678,0.000431,0.001763
518000,0.0324,0.013523,0.002678,0.000431,0.002116
519000,0.0324,0.013523,0.002678,0.000431,0.001763
520000,0.0324,0.013523,0.002678,0.000431,0.002116
521000,0.0324,0.013523,0.002678,0.000431,0.001763
522000,0.0324,0.013523,0.002678,0.000431,0.001998
523000,0.0324,0.013523,0.002678,0.000431,0.001763
524000,0.0324,0.013523,0.002678,0.000431,0.001998
525000,0.0324,0.013523,0.002678,0.000431,0.001880
526000,0.0324,0.013523,0.002678,0.000431,0.002116
527000,0.0324,0.013523,0.002678,0.000431,0.001763
528000,0.0324,0.013523,0.002678,0.000431,0.001998
529000,0.0324,0.013523,0.002678,0.000431,0.001880
530000,0.0324,0.013523,0.002678,0.000431,0.001880
531000,0.0324,0.013523,0.002678,0.000431,0.001880
532000,0.0324,0.013523,0.002678,0.000431,0.001880
533000,0.0324,0.013523,0.002678,0.000431,0.001998
534000,0.0324,0.013523,0.002678,0.000431,0.001645
535000,0.0324,0.013523,0.002678,0.000431,0.001998
536000,0.0324,0.013523,0.002678,0.000431,0.002116
537000,0.0324,0.013523,0.002678,0.000431,0.001763
538000,0.0324,0.013523,0.002678,0.000431,0.001880
539000,0.0324,0.013523,0.002678,0.000431,0.001763
540000,0.0324,0.013523,0.002678,0.000431,0.002233
541000,0.0324,0.013523,0.002678,0.000431,0.001763
542000,0.0324,0.013523,0.002678,0.000431,0.001880
543000,0.0324,0.013523,0.002678,0.000431,0.001880
544000,0.0324,0.013523,0.002678,0.000431,0.002233
545000,0.0324,0.013523,0.002678,0.000431,0.001763
546000,0.0324,0.013523,0.002678,0.000431,0.001880
547000,0.0324,0.013523,0.002678,0.000431,0.001880
548000,0.0324,0.013523,0.002678,0.000431,0.001998
549000,0.0324,0.013523,0.002678,0.000431,0.001880
550000,0.0324,0.013523,0.002678,0.000431,0.001763
551000,0.0324,0.013523,0.002678,0.000431,0.001998
552000,0.0324,0.013523,0.002678,0.000431,0.001763
553000,0.0324,0.013523,0.002678,0.000431,0.001998
554000,0.0324,0.013523,0.002678,0.000431,0.001880
555000,0.0324,0.013523,0.002678,0.000431,0.001763
556000,0.0324,0.013523,0.002678,0.000431,0.001645
557000,0.0324,0.013523,0.002678,0.000431,0.001998
558000,0.0324,0.013523,0.002678,0.000431,0.002116
559000,0.0324,0.013523,0.002678,0.000431,0.001763
560000,0.0324,0.013523,0.002678,0.000431,0.001880
561000,0.0324,0.013523,0.002678,0.000431,0.001998
562000,0.0324,0.013523,0.002678,0.000431,0.001763
563000,0.0324,0.013523,0.002678,0.000431,0.001763
564000,0.0324,0.013523,0.002678,0.000431,0.001763
565000,0.0324,0.013523,0.002678,0.000431,0.001880
566000,0.0324,0.013523,0.002678,0.000431,0.002233
567000,0.0324,0.013523,0.002678,0.000431,0.001998
568000,0.0324,0.013523,0.002678,0.000431,0.002351
569000,0.0324,0.013523,0.002678,0.000431,0.001998
570000,0.0324,0.013523,0.002678,0.000431,0.001763
571000,0.0324,0.013523,0.002678,0.000431,0.001998
572000,0.0324,0.013523,0.002678,0.000431,0.001763
573000,0.0324,0.013523,0.002678,0.000431,0.001998
574000,0.0324,0.013523,0.002678,0.000431,0.001528
575000,0.0324,0.013523,0.002678,0.000431,0.002233
576000,0.0324,0.013523,0.002678,0.000431,0.001645
577000,0.0324,0.013523,0.002678,0.000431,0.001880
578000,0.0324,0.013523,0.002678,0.000431,0.001880
579000,0.0324,0.013523,0.002678,0.000431,0.001880
580000,0.0324,0.013523,0.002678,0.000431,0.001880
581000,0.0324,0.013523,0.002678,0.000431,0.001763
582000,0.0324,0.013523,0.002678,0.000431,0.001998
583000,0.0324,0.013523,0.002678,0.000431,0.001880
584000,0.0324,0.013523,0.002678,0.000431,0.001880
585000,0.0324,0.013523,0.002678,0.000431,0.001645
586000,0.0324,0.013523,0.002678,0.000431,0.001998
587000,0.0324,0.013523,0.002678,0.000431,0.001763
588000,0.0324,0.013523,0.002678,0.000431,0.001880
589000,0.0324,0.013523,0.002678,0.000431,0.001763
590000,0.0324,0.013523,0.002678,0.000431,0.001528
591000,0.0324,0.013523,0.002678,0.000431,0.001528
592000,0.0324,0.013523,0.002678,0.000431,0.001528
593000,0.0324,0.013523,0.002678,0.000431,0.002116
594000,0.0324,0.013523,0.002678,0.000431,0.001880
595000,0.0324,0.013523,0.002678,0.000431,0.001763
596000,0.0324,0.013523,0.002678,0.000431,0.001763
597000,0.0324,0.013523,0.002678,0.000431,0.002116
598000,0.0324,0.013523,0.002678,0.000431,0.001763
599000,0.0324,0.013523,0.002678,0.000431,0.001880
600000,0.0324,0.013523,0.002678,0.000431,0.001998
601000,0.0324,0.013523,0.002678,0.000431,0.002116
602000,0.0324,0.013523,0.002678,0.000431,0.001880
603000,0.0324,0.013523,0.002678,0.000431,0.001998
604000,0.0324,0.013523,0.002678,0.000431,0.001645
605000,0.0324,0.013523,0.002678,0.000431,0.002116
606000,0.0324,0.013523,0.002678,0.000431,0.002116
607000,0.0324,0.013523,0.002678,0.000431,0.001763
608000,0.0324,0.013523,0.002678,0.000431,0.002116
609000,0.0324,0.013523,0.002678,0.000431,0.001998
610000,0.0324,0.013523,0.002678,0.000431,0.001880
611000,0.0324,0.013523,0.002678,0.000431,0.001645
612000,0.0324,0.013523,0.002678,0.000431,0.001998
613000,0.0324,0.013523,0.002678,0.000431,0.001880
614000,0.0324,0.013523,0.002678,0.000431,0.001763
615000,0.0324,0.013523,0.002678,0.000431,0.001880
616000,0.0324,0.013523,0.002678,0.000431,0.001645
617000,0.0324,0.013523,0.002678,0.000431,0.001645
618000,0.0324,0.013523,0.002678,0.000431,0.001645
619000,0.0324,0.013523,0.002678,0.000431,0.001880
620000,0.0324,0.013523,0.002678,0.000431,0.001763
621000,0.0324,0.013523,0.002678,0.000431,0.001645
622000,0.0324,0.013523,0.002678,0.000431,0.002116
623000,0.0324,0.013523,0.002678,0.000431,0.001293
624000,0.0324,0.013523,0.002678,0.000431,0.001763
625000,0.0324,0.013523,0.002678,0.000431,0.001528
626000,0.0324,0.013523,0.002678,0.000431,0.002116
627000,0.0324,0.013523,0.002678,0.000431,0.001763
628000,0.0324,0.013523,0.002678,0.000431,0.001880
629000,0.0324,0.013523,0.002678,0.000431,0.002233
630000,0.0324,0.013523,0.002678,0.000431,0.001880
631000,0.0324,0.013523,0.002678,0.000431,0.002116
632000,0.0324,0.013523,0.002678,0.000431,0.001998
633000,0.0324,0.013523,0.002678,0.000431,0.001645
634000,0.0324,0.013523,0.002678,0.000431,0.001645
635000,0.0324,0.013523,0.002678,0.000431,0.001998
636000,0.0324,0.013523,0.002678,0.000431,0.001998
637000,0.0324,0.013523,0.002678,0.000431,0.001763
638000,0.0324,0.013523,0.002678,0.000431,0.001763
639000,0.0324,0.013523,0.002678,0.000431,0.001880
640000,0.0324,0.013523,0.002678,0.000431,0.001763
641000,0.0324,0.013523,0.002678,0.000431,0.001880
642000,0.0324,0.013523,0.002678,0.000431,0.001645
643000,0.0324,0.013523,0.002678,0.000431,0.001645
644000,0.0324,0.013523,0.002678,0.000431,0.001998
645000,0.0324,0.013523,0.002678,0.000431,0.002233
646000,0.0324,0.013523,0.002678,0.000431,0.001880
647000,0.0324,0.013523,0.002678,0.000431,0.001763
648000,0.0324,0.013523,0.002678,0.000431,0.001998
649000,0.0324,0.013523,0.002678,0.000431,0.001998
650000,0.0324,0.013523,0.002678,0.000431,0.001645
651000,0.0324,0.013523,0.002678,0.000431,0.002116
652000,0.0324,0.013523,0.002678,0.000431,0.001528
653000,0.0324,0.013523,0.002678,0.000431,0.002351
654000,0.0324,0.013523,0.002678,0.000431,0.002116
655000,0.0324,0.013523,0.002678,0.000431,0.001763
656000,0.0324,0.013523,0.002678,0.000431,0.002116
657000,0.0324,0.013523,0.002678,0.000431,0.001763
658000,0.0324,0.013523,0.002678,0.000431,0.001998
659000,0.0324,0.013523,0.002678,0.000431,0.001880
660000,0.0324,0.013523,0.002678,0.000431,0.001998
661000,0.0324,0.013523,0.002678,0.000431,0.002116
662000,0.0324,0.013523,0.002678,0.000431,0.001763
663000,0.0324,0.013523,0.002678,0.000431,0.001998
664000,0.0324,0.013523,0.002678,0.000431,0.001880
665000,0.0324,0.013523,0.002678,0.000431,0.002116
666000,0.0324,0.013523,0.002678,0.000431,0.001998
667000,0.0324,0.013523,0.002678,0.000431,0.001880
668000,0.0324,0.013523,0.002678,0.000431,0.001880
669000,0.0324,0.013523,0.002678,0.000431,0.001763
670000,0.0324,0.013523,0.002678,0.000431,0.002116
671000,0.0324,0.013523,0.002678,0.000431,0.001880
672000,0.0324,0.013523,0.002678,0.000431,0.001645
673000,0.0324,0.013523,0.002678,0.000431,0.001763
674000,0.0324,0.013523,0.002678,0.000431,0.001645
675000,0.0324,0.013523,0.002678,0.000431,0.002116
676000,0.0324,0.013523,0.002678,0.000431,0.001528
677000,0.0324,0.013523,0.002678,0.000431,0.001645
678000,0.0324,0.013523,0.002678,0.000431,0.001880
679000,0.0324,0.013523,0.002678,0.000431,0.001763
680000,0.0324,0.013523,0.002678,0.000431,0.002233
681000,0.0324,0.013523,0.002678,0.000431,0.001763
682000,0.0324,0.013523,0.002678,0.000431,0.001645
683000,0.0324,0.013523,0.002678,0.000431,0.001645
684000,0.0324,0.013523,0.002678,0.000431,0.001998
685000,0.0324,0.013523,0.002678,0.000431,0.001763
686000,0.0324,0.013523,0.002678,0.000431,0.002116
687000,0.0324,0.013523,0.002678,0.000431,0.001763
688000,0.0324,0.013523,0.002678,0.000431,0.001880
689000,0.0324,0.013523,0.002678,0.000431,0.001998
690000,0.0324,0.013523,0.002678,0.000431,0.001528
691000,0.0324,0.013523,0.002678,0.000431,0.001645
692000,0.0324,0.013523,0.002678,0.000431,0.001880
693000,0.0324,0.013523,0.002678,0.000431,0.002116
694000,0.0324,0.013523,0.002678,0.000431,0.001763
695000,0.0324,0.013523,0.002678,0.000431,0.001998
696000,0.0324,0.013523,0.002678,0.000431,0.002116
697000,0.0324,0.013523,0.002678,0.000431,0.001880
698000,0.0324,0.013523,0.002678,0.000431,0.002116
699000,0.0324,0.013523,0.002678,0.000431,0.002116
700000,0.0324,0.013523,0.002678,0.000431,0.001998
701000,0.0324,0.013523,0.002678,0.000431,0.001880
702000,0.0324,0.013523,0.002678,0.000431,0.001880
703000,0.0324,0.013523,0.002678,0.000431,0.001998
704000,0.0324,0.013523,0.002678,0.000431,0.001528
705000,0.0324,0.013523,0.002678,0.000431,0.001998
706000,0.0324,0.013523,0.002678,0.000431,0.001998
707000,0.0324,0.013523,0.002678,0.000431,0.001645
708000,0.0324,0.013523,0.002678,0.000431,0.002116
709000,0.0324,0.013523,0.002678,0.000431,0.001880
710000,0.0324,0.013523,0.002678,0.000431,0.001880
711000,0.0324,0.013523,0.002678,0.000431,0.001998
712000,0.0324,0.013523,0.002678,0.000431,0.001763
713000,0.0324,0.013523,0.002678,0.000431,0.001763
714000,0.0324,0.013523,0.002678,0.000431,0.001998
715000,0.0324,0.013523,0.002678,0.000431,0.001880
716000,0.0324,0.013523,0.002678,0.000431,0.001880
717000,0.0324,0.013523,0.002678,0.000431,0.001763
718000,0.0324,0.013523,0.002678,0.000431,0.001763
719000,0.0324,0.013523,0.002678,0.000431,0.001645
720000,0.0324,0.013523,0.002678,0.000431,0.001763
721000,0.0324,0.013523,0.002678,0.000431,0.001880
722000,0.0324,0.013523,0.002678,0.000431,0.002116
723000,0.0324,0.013523,0.002678,0.000431,0.001880
724000,0.0324,0.013523,0.002678,0.000431,0.001880
725000,0.0324,0.013523,0.002678,0.000431,0.001528
726000,0.0324,0.013523,0.002678,0.000431,0.001998
727000,0.0324,0.013523,0.002678,0.000431,0.002116
728000,0.0324,0.013523,0.002678,0.000431,0.001880
729000,0.0324,0.013523,0.002678,0.000431,0.001528
730000,0.0324,0.013523,0.002678,0.000431,0.001880
731000,0.0324,0.013523,0.002678,0.000431,0.001880
732000,0.0324,0.013523,0.002678,0.000431,0.001528
733000,0.0324,0.013523,0.002678,0.000431,0.001645
734000,0.0324,0.013523,0.002678,0.000431,0.001880
735000,0.0324,0.013523,0.002678,0.000431,0.002233
736000,0.0324,0.013523,0.002678,0.000431,0.002116
737000,0.0324,0.013523,0.002678,0.000431,0.001763
738000,0.0324,0.013523,0.002678,0.000431,0.001880
739000,0.0324,0.013523,0.002678,0.000431,0.002116
740000,0.0324,0.013523,0.002678,0.000431,0.001528
741000,0.0324,0.013523,0.002678,0.000431,0.001763
742000,0.0324,0.013523,0.002678,0.000431,0.001998
743000,0.0324,0.013523,0.002678,0.000431,0.001998
744000,0.0324,0.013523,0.002678,0.000431,0.001998
745000,0.0324,0.013523,0.002678,0.000431,0.001763
746000,0.0324,0.013523,0.002678,0.000431,0.001763
747000,0.0324,0.013523,0.002678,0.000431,0.001763
748000,0.0324,0.013523,0.002678,0.000431,0.001998
749000,0.0324,0.013523,0.002678,0.000431,0.001645
750000,0.0324,0.013523,0.002678,0.000431,0.002116
751000,0.0324,0.013523,0.002678,0.000431,0.001763
752000,0.0324,0.013523,0.002678,0.000431,0.001998
753000,0.0324,0.013523,0.002678,0.000431,0.001880
754000,0.0324,0.013523,0.002678,0.000431,0.001880
755000,0.0324,0.013523,0.002678,0.000431,0.001998
756000,0.0324,0.013523,0.002678,0.000431,0.001880
757000,0.0324,0.013523,0.002678,0.000431,0.001763
758000,0.0324,0.013523,0.002678,0.000431,0.001998
759000,0.0324,0.013523,0.002678,0.000431,0.001998
760000,0.0324,0.013523,0.002678,0.000431,0.001175
761000,0.0324,0.013523,0.002678,0.000431,0.002116
762000,0.0324,0.013523,0.002678,0.000431,0.001880
763000,0.0324,0.013523,0.002678,0.000431,0.002116
764000,0.0324,0.013523,0.002678,0.000431,0.002116
765000,0.0324,0.013523,0.002678,0.000431,0.001880
766000,0.0324,0.013523,0.002678,0.000431,0.001645
767000,0.0324,0.013523,0.002678,0.000431,0.001645
768000,0.0324,0.013523,0.002678,0.000431,0.001880
769000,0.0324,0.013523,0.002678,0.000431,0.002233
770000,0.0324,0.013523,0.002678,0.000431,0.001645
771000,0.0324,0.013523,0.002678,0.000431,0.001998
772000,0.0324,0.013523,0.002678,0.000431,0.001998
773000,0.0324,0.013523,0.002678,0.000431,0.001880
774000,0.0324,0.013523,0.002678,0.000431,0.001998
775000,0.0324,0.013523,0.002678,0.000431,0.002116
776000,0.0324,0.013523,0.002678,0.000431,0.001998
777000,0.0324,0.013523,0.002678,0.000431,0.001763
778000,0.0324,0.013523,0.002678,0.000431,0.001998
779000,0.0324,0.013523,0.002678,0.000431,0.002233
780000,0.0324,0.013523,0.002678,0.000431,0.001998
781000,0.0324,0.013523,0.002678,0.000431,0.001763
782000,0.0324,0.013523,0.002678,0.000431,0.001763
783000,0.0324,0.013523,0.002678,0.000431,0.001880
784000,0.0324,0.013523,0.002678,0.000431,0.001998
785000,0.0324,0.013523,0.002678,0.000431,0.001528
786000,0.0324,0.013523,0.002678,0.000431,0.001998
787000,0.0324,0.013523,0.002678,0.000431,0.001880
788000,0.0324,0.013523,0.002678,0.000431,0.001880
789000,0.0324,0.013523,0.002678,0.000431,0.001763
790000,0.0324,0.013523,0.002678,0.000431,0.001880
791000,0.0324,0.013523,0.002678,0.000431,0.001998
792000,0.0324,0.013523,0.002678,0.000431,0.001763
793000,0.0324,0.013523,0.002678,0.000431,0.002233
794000,0.0324,0.013523,0.002678,0.000431,0.001880
795000,0.0324,0.013523,0.002678,0.000431,0.001998
796000,0.0324,0.013523,0.002678,0.000431,0.001645
797000,0.0324,0.013523,0.002678,0.000431,0.001998
798000,0.0324,0.013523,0.002678,0.000431,0.001880
799000,0.0324,0.013523,0.002678,0.000431,0.001880
800000,0.0324,0.013523,0.002678,0.000431,0.001880
801000,0.0324,0.013523,0.002678,0.000431,0.002116
802000,0.0324,0.013523,0.002678,0.000431,0.001763
803000,0.0324,0.013523,0.002678,0.000431,0.001880
804000,0.0324,0.013523,0.002678,0.000431,0.001645
805000,0.0324,0.013523,0.002678,0.000431,0.001763
806000,0.0324,0.013523,0.002678,0.000431,0.001880
807000,0.0324,0.013523,0.002678,0.000431,0.002116
808000,0.0324,0.013523,0.002678,0.000431,0.002116
809000,0.0324,0.013523,0.002678,0.000431,0.001645
810000,0.0324,0.013523,0.002678,0.000431,0.001763
811000,0.0324,0.013523,0.002678,0.000431,0.001880
812000,0.0324,0.013523,0.002678,0.000431,0.001880
813000,0.0324,0.013523,0.002678,0.000431,0.001410
814000,0.0324,0.013523,0.002678,0.000431,0.001293
815000,0.0324,0.013523,0.002678,0.000431,0.001410
816000,0.0324,0.013523,0.002678,0.000431,0.001410
817000,0.0324,0.013523,0.002678,0.000431,0.001175
818000,0.0324,0.013523,0.002678,0.000431,0.001410
819000,0.0324,0.013523,0.002678,0.000431,0.001175
820000,0.0324,0.013523,0.002678,0.000431,0.001528
821000,0.0324,0.013523,0.002678,0.000431,0.001410
822000,0.0324,0.013523,0.002678,0.000431,0.001175
823000,0.0324,0.013523,0.002678,0.000431,0.001058
824000,0.0324,0.013523,0.002678,0.000431,0.001410
825000,0.0324,0.013523,0.002678,0.000431,0.001410
826000,0.0324,0.013523,0.002678,0.000431,0.001293
827000,0.0324,0.013523,0.002678,0.000431,0.001293
828000,0.0324,0.013523,0.002678,0.000431,0.001293
829000,0.0324,0.013523,0.002678,0.000431,0.001410
830000,0.0324,0.013523,0.002678,0.000431,0.001410
831000,0.0324,0.013523,0.002678,0.000431,0.001293
832000,0.0324,0.013523,0.002678,0.000431,0.001175
833000,0.0324,0.013523,0.002678,0.000431,0.001293
834000,0.0324,0.013523,0.002678,0.000431,0.001293
835000,0.0324,0.013523,0.002678,0.000431,0.001410
836000,0.0324,0.013523,0.002678,0.000431,0.001293
837000,0.0324,0.013523,0.002678,0.000431,0.001175
838000,0.0324,0.013523,0.002678,0.000431,0.001175
839000,0.0324,0.013523,0.002678,0.000431,0.001175
840000,0.0324,0.013523,0.002678,0.000431,0.001293
841000,0.0324,0.013523,0.002678,0.000431,0.001175
842000,0.0324,0.013523,0.002678,0.000431,0.001058
843000,0.0324,0.013523,0.002678,0.000431,0.001410
844000,0.0324,0.013523,0.002678,0.000431,0.001410
845000,0.0324,0.013523,0.002678,0.000431,0.001058
846000,0.0324,0.013523,0.002678,0.000431,0.001293
847000,0.0324,0.013523,0.002678,0.000431,0.001410
848000,0.0324,0.013523,0.002678,0.000431,0.001410
849000,0.0324,0.013523,0.002678,0.000431,0.001058
850000,0.0324,0.013523,0.002678,0.000431,0.001175
851000,0.0324,0.013523,0.002678,0.000431,0.001528
852000,0.0324,0.013523,0.002678,0.000431,0.001293
853000,0.0324,0.013523,0.002678,0.000431,0.001293
854000,0.0324,0.013523,0.002678,0.000431,0.001410
855000,0.0324,0.013523,0.002678,0.000431,0.001410
856000,0.0324,0.013523,0.002678,0.000431,0.001293
857000,0.0324,0.013523,0.002678,0.000431,0.001175
858000,0.0324,0.013523,0.002678,0.000431,0.001410
859000,0.0324,0.013523,0.002678,0.000431,0.001410
860000,0.0324,0.013523,0.002678,0.000431,0.000940
861000,0.0324,0.013523,0.002678,0.000431,0.001410
862000,0.0324,0.013523,0.002678,0.000431,0.001528
863000,0.0324,0.013523,0.002678,0.000431,0.001293
864000,0.0324,0.013523,0.002678,0.000431,0.001058
865000,0.0324,0.013523,0.002678,0.000431,0.001175
866000,0.0324,0.013523,0.002678,0.000431,0.001528
867000,0.0324,0.013523,0.002678,0.000431,0.001293
868000,0.0324,0.013523,0.002678,0.000431,0.001175
869000,0.0324,0.013523,0.002678,0.000431,0.001175
870000,0.0324,0.013523,0.002678,0.000431,0.001293
871000,0.0324,0.013523,0.002678,0.000431,0.001293
872000,0.0324,0.013523,0.002678,0.000431,0.001293
873000,0.0324,0.013523,0.002678,0.000431,0.001410
874000,0.0324,0.013523,0.002678,0.000431,0.001175
875000,0.0324,0.013523,0.002678,0.000431,0.001410
876000,0.0324,0.013523,0.002678,0.000431,0.001410
877000,0.0324,0.013523,0.002678,0.000431,0.001410
878000,0.0324,0.013523,0.002678,0.000431,0.001293
879000,0.0324,0.013523,0.002678,0.000431,0.001293
880000,0.0324,0.013523,0.002678,0.000431,0.001410
881000,0.0324,0.013523,0.002678,0.000431,0.001175
882000,0.0324,0.013523,0.002678,0.000431,0.001293
883000,0.0324,0.013523,0.002678,0.000431,0.001528
884000,0.0324,0.013523,0.002678,0.000431,0.001293
885000,0.0324,0.013523,0.002678,0.000431,0.001410
886000,0.0324,0.013523,0.002678,0.000431,0.001293
887000,0.0324,0.013523,0.002678,0.000431,0.000940
888000,0.0324,0.013523,0.002678,0.000431,0.001410
889000,0.0324,0.013523,0.002678,0.000431,0.001175
890000,0.0324,0.013523,0.002678,0.000431,0.001528
891000,0.0324,0.013523,0.002678,0.000431,0.001410
892000,0.0324,0.013523,0.002678,0.000431,0.001058
893000,0.0324,0.013523,0.002678,0.000431,0.001175
894000,0.0324,0.013523,0.002678,0.000431,0.001410
895000,0.0324,0.013523,0.002678,0.000431,0.001410
896000,0.0324,0.013523,0.002678,0.000431,0.001175
897000,0.0324,0.013523,0.002678,0.000431,0.001175
898000,0.0324,0.013523,0.002678,0.000431,0.001528
899000,0.0324,0.013523,0.002678,0.000431,0.001528
900000,0.0324,0.013523,0.002678,0.000431,0.001058
901000,0.0324,0.013523,0.002678,0.000431,0.001175
902000,0.0324,0.013523,0.002678,0.000431,0.001410
903000,0.0324,0.013523,0.002678,0.000431,0.001175
904000,0.0324,0.013523,0.002678,0.000431,0.001058
905000,0.0324,0.013523,0.002678,0.000431,0.001293
906000,0.0324,0.013523,0.002678,0.000431,0.001410
907000,0.0324,0.013523,0.002678,0.000431,0.001528
908000,0.0324,0.013523,0.002678,0.000431,0.001293
909000,0.0324,0.013523,0.002678,0.000431,0.001175
910000,0.0324,0.013523,0.002678,0.000431,0.001058
911000,0.0324,0.013523,0.002678,0.000431,0.001293
912000,0.0324,0.013523,0.002678,0.000431,0.000940
913000,0.0324,0.013523,0.002678,0.000431,0.001410
914000,0.0324,0.013523,0.002678,0.000431,0.001528
915000,0.0324,0.013523,0.002678,0.000431,0.001528
916000,0.0324,0.013523,0.002678,0.000431,0.001175
917000,0.0324,0.013523,0.002678,0.000431,0.001293
918000,0.0324,0.013523,0.002678,0.000431,0.001293
919000,0.0324,0.013523,0.002678,0.000431,0.001293
920000,0.0324,0.013523,0.002678,0.000431,0.001293
921000,0.0324,0.013523,0.002678,0.000431,0.001175
922000,0.0324,0.013523,0.002678,0.000431,0.001175
923000,0.0324,0.013523,0.002678,0.000431,0.001528
924000,0.0324,0.013523,0.002678,0.000431,0.001175
925000,0.0324,0.013523,0.002678,0.000431,0.001410
926000,0.0324,0.013523,0.002678,0.000431,0.001175
927000,0.0324,0.013523,0.002678,0.000431,0.001175
928000,0.0324,0.013523,0.002678,0.000431,0.001410
929000,0.0324,0.013523,0.002678,0.000431,0.001293
930000,0.0324,0.013523,0.002678,0.000431,0.001175
931000,0.0324,0.013523,0.002678,0.000431,0.001410
932000,0.0324,0.013523,0.002678,0.000431,0.001410
933000,0.0324,0.013523,0.002678,0.000431,0.001175
934000,0.0324,0.013523,0.002678,0.000431,0.001528
935000,0.0324,0.013523,0.002678,0.000431,0.001058
936000,0.0324,0.013523,0.002678,0.000431,0.001293
937000,0.0324,0.013523,0.002678,0.000431,0.001293
938000,0.0324,0.013523,0.002678,0.000431,0.001410
939000,0.0324,0.013523,0.002678,0.000431,0.001293
940000,0.0324,0.013523,0.002678,0.000431,0.001410
941000,0.0324,0.013523,0.002678,0.000431,0.001410
942000,0.0324,0.013523,0.002678,0.000431,0.001293
943000,0.0324,0.013523,0.002678,0.000431,0.000940
944000,0.0324,0.013523,0.002678,0.000431,0.001293
945000,0.0324,0.013523,0.002678,0.000431,0.001293
946000,0.0324,0.013523,0.002678,0.000431,0.001175
947000,0.0324,0.013523,0.002678,0.000431,0.001410
948000,0.0324,0.013523,0.002678,0.000431,0.001410
949000,0.0324,0.013523,0.002678,0.000431,0.001175
950000,0.0324,0.013523,0.002678,0.000431,0.001645
951000,0.0324,0.013523,0.002678,0.000431,0.001058
952000,0.0324,0.013523,0.002678,0.000431,0.001410
953000,0.0324,0.013523,0.002678,0.000431,0.001175
954000,0.0324,0.013523,0.002678,0.000431,0.001293
955000,0.0324,0.013523,0.002678,0.000431,0.001175
956000,0.0324,0.013523,0.002678,0.000431,0.001293
957000,0.0324,0.013523,0.002678,0.000431,0.001293
958000,0.0324,0.013523,0.002678,0.000431,0.001293
959000,0.0324,0.013523,0.002678,0.000431,0.001410
960000,0.0324,0.013523,0.002678,0.000431,0.001293
961000,0.0324,0.013523,0.002678,0.000431,0.001175
962000,0.0324,0.013523,0.002678,0.000431,0.001293
963000,0.0324,0.013523,0.002678,0.000431,0.001293
964000,0.0324,0.013523,0.002678,0.000431,0.001058
965000,0.0324,0.013523,0.002678,0.000431,0.001293
966000,0.0324,0.013523,0.002678,0.000431,0.001410
967000,0.0324,0.013523,0.002678,0.000431,0.001293
968000,0.0324,0.013523,0.002678,0.000431,0.001175
969000,0.0324,0.013523,0.002678,0.000431,0.001410
970000,0.0324,0.013523,0.002678,0.000431,0.001410
971000,0.0324,0.013523,0.002678,0.000431,0.001175
972000,0.0324,0.013523,0.002678,0.000431,0.001293
973000,0.0324,0.013523,0.002678,0.000431,0.001410
974000,0.0324,0.013523,0.002678,0.000431,0.001293
975000,0.0324,0.013523,0.002678,0.000431,0.001645
976000,0.0324,0.013523,0.002678,0.000431,0.001175
977000,0.0324,0.013523,0.002678,0.000431,0.001175
978000,0.0324,0.013523,0.002678,0.000431,0.001410
979000,0.0324,0.013523,0.002678,0.000431,0.001293
980000,0.0324,0.013523,0.002678,0.000431,0.001175
981000,0.0324,0.013523,0.002678,0.000431,0.001293
982000,0.0324,0.013523,0.002678,0.000431,0.001410
983000,0.0324,0.013523,0.002678,0.000431,0.001175
984000,0.0324,0.013523,0.002678,0.000431,0.001410
985000,0.0324,0.013523,0.002678,0.000431,0.001175
986000,0.0324,0.013523,0.002678,0.000431,0.001410
987000,0.0324,0.013523,0.002678,0.000431,0.001175
988000,0.0324,0.013523,0.002678,0.000431,0.001645
989000,0.0324,0.013523,0.002678,0.000431,0.001175
990000,0.0324,0.013523,0.002678,0.000431,0.001293
991000,0.0324,0.013523,0.002678,0.000431,0.001293
992000,0.0324,0.013523,0.002678,0.000431,0.001175
993000,0.0324,0.013523,0.002678,0.000431,0.001410
994000,0.0324,0.013523,0.002678,0.000431,0.001410
995000,0.0324,0.013523,0.002678,0.000431,0.001175
996000,0.0324,0.013523,0.002678,0.000431,0.001410
997000,0.0324,0.013523,0.002678,0.000431,0.001293
998000,0.0324,0.013523,0.002678,0.000431,0.001410
999000,0.0324,0.013523,0.002678,0.000431,0.001293
