Cycle,Area(mm^2),PeakDynamic(W),SubthresholdLeakage(W),GateLeakage(W),RunTimeDynamic(W)
7000000,0.0324,0.013523,0.002678,0.000431,1.695462
7001000,0.0324,0.013523,0.002678,0.000431,1.890558
7002000,0.0324,0.013523,0.002678,0.000431,1.687235
7003000,0.0324,0.013523,0.002678,0.000431,1.767154
7004000,0.0324,0.013523,0.002678,0.000431,1.771502
7005000,0.0324,0.013523,0.002678,0.000431,1.911008
7006000,0.0324,0.013523,0.002678,0.000431,1.920058
7007000,0.0324,0.013523,0.002678,0.000431,1.842842
7008000,0.0324,0.013523,0.002678,0.000431,1.638460
7009000,0.0324,0.013523,0.002678,0.000431,1.640458
7010000,0.0324,0.013523,0.002678,0.000431,1.824390
7011000,0.0324,0.013523,0.002678,0.000431,1.807113
7012000,0.0324,0.013523,0.002678,0.000431,1.914769
7013000,0.0324,0.013523,0.002678,0.000431,1.894319
7014000,0.0324,0.013523,0.002678,0.000431,1.710975
7015000,0.0324,0.013523,0.002678,0.000431,1.860471
7016000,0.0324,0.013523,0.002678,0.000431,1.788074
7017000,0.0324,0.013523,0.002678,0.000431,1.755636
7018000,0.0324,0.013523,0.002678,0.000431,1.770562
7019000,0.0324,0.013523,0.002678,0.000431,1.756929
7020000,0.0324,0.013523,0.002678,0.000431,1.766801
7021000,0.0324,0.013523,0.002678,0.000431,1.721318
7022000,0.0324,0.013523,0.002678,0.000431,1.704746
7023000,0.0324,0.013523,0.002678,0.000431,1.665374
7024000,0.0324,0.013523,0.002678,0.000431,1.634935
7025000,0.0324,0.013523,0.002678,0.000431,1.679360
7026000,0.0324,0.013523,0.002678,0.000431,1.747056
7027000,0.0324,0.013523,0.002678,0.000431,1.763393
7028000,0.0324,0.013523,0.002678,0.000431,1.710153
7029000,0.0324,0.013523,0.002678,0.000431,1.651271
7030000,0.0324,0.013523,0.002678,0.000431,1.721083
7031000,0.0324,0.013523,0.002678,0.000431,1.881626
7032000,0.0324,0.013523,0.002678,0.000431,1.776438
7033000,0.0324,0.013523,0.002678,0.000431,1.848013
7034000,0.0324,0.013523,0.002678,0.000431,1.718615
7035000,0.0324,0.013523,0.002678,0.000431,1.707332
7036000,0.0324,0.013523,0.002678,0.000431,1.661261
7037000,0.0324,0.013523,0.002678,0.000431,1.625180
7038000,0.0324,0.013523,0.002678,0.000431,1.706862
7039000,0.0324,0.013523,0.002678,0.000431,1.750347
7040000,0.0324,0.013523,0.002678,0.000431,1.741180
7041000,0.0324,0.013523,0.002678,0.000431,1.678185
7042000,0.0324,0.013523,0.002678,0.000431,1.666080
7043000,0.0324,0.013523,0.002678,0.000431,1.583927
7044000,0.0324,0.013523,0.002678,0.000431,1.884094
7045000,0.0324,0.013523,0.002678,0.000431,1.696167
7046000,0.0324,0.013523,0.002678,0.000431,1.813930
7047000,0.0324,0.013523,0.002678,0.000431,1.901253
7048000,0.0324,0.013523,0.002678,0.000431,1.850129
7049000,0.0324,0.013523,0.002678,0.000431,1.791012
7050000,0.0324,0.013523,0.002678,0.000431,1.711210
7051000,0.0324,0.013523,0.002678,0.000431,1.798064
7052000,0.0324,0.013523,0.002678,0.000431,1.782785
7053000,0.0324,0.013523,0.002678,0.000431,1.862704
7054000,0.0324,0.013523,0.002678,0.000431,1.901959
7055000,0.0324,0.013523,0.002678,0.000431,1.875397
7056000,0.0324,0.013523,0.002678,0.000431,1.724609
7057000,0.0324,0.013523,0.002678,0.000431,1.718850
7058000,0.0324,0.013523,0.002678,0.000431,1.769152
7059000,0.0324,0.013523,0.002678,0.000431,1.695697
7060000,0.0324,0.013523,0.002678,0.000431,1.751993
7061000,0.0324,0.013523,0.002678,0.000431,1.593565
7062000,0.0324,0.013523,0.002678,0.000431,1.631056
7063000,0.0324,0.013523,0.002678,0.000431,1.646335
7064000,0.0324,0.013523,0.002678,0.000431,1.716382
7065000,0.0324,0.013523,0.002678,0.000431,1.767859
7066000,0.0324,0.013523,0.002678,0.000431,1.856945
7067000,0.0324,0.013523,0.002678,0.000431,1.846603
7068000,0.0324,0.013523,0.002678,0.000431,1.844487
7069000,0.0324,0.013523,0.002678,0.000431,1.827563
7070000,0.0324,0.013523,0.002678,0.000431,1.720730
7071000,0.0324,0.013523,0.002678,0.000431,1.703218
7072000,0.0324,0.013523,0.002678,0.000431,1.617188
7073000,0.0324,0.013523,0.002678,0.000431,1.557366
7074000,0.0324,0.013523,0.002678,0.000431,1.728252
7075000,0.0324,0.013523,0.002678,0.000431,1.760102
7076000,0.0324,0.013523,0.002678,0.000431,1.727664
7077000,0.0324,0.013523,0.002678,0.000431,1.849071
7078000,0.0324,0.013523,0.002678,0.000431,1.486732
7079000,0.0324,0.013523,0.002678,0.000431,1.675364
7080000,0.0324,0.013523,0.002678,0.000431,1.729192
7081000,0.0324,0.013523,0.002678,0.000431,1.814400
7082000,0.0324,0.013523,0.002678,0.000431,1.776438
7083000,0.0324,0.013523,0.002678,0.000431,1.758339
7084000,0.0324,0.013523,0.002678,0.000431,1.738947
7085000,0.0324,0.013523,0.002678,0.000431,1.959430
7086000,0.0324,0.013523,0.002678,0.000431,1.810052
7087000,0.0324,0.013523,0.002678,0.000431,1.877513
7088000,0.0324,0.013523,0.002678,0.000431,1.840374
7089000,0.0324,0.013523,0.002678,0.000431,1.765978
7090000,0.0324,0.013523,0.002678,0.000431,1.693816
7091000,0.0324,0.013523,0.002678,0.000431,1.650331
7092000,0.0324,0.013523,0.002678,0.000431,1.752580
7093000,0.0324,0.013523,0.002678,0.000431,1.690878
7094000,0.0324,0.013523,0.002678,0.000431,1.807701
7095000,0.0324,0.013523,0.002678,0.000431,1.762335
7096000,0.0324,0.013523,0.002678,0.000431,1.698987
7097000,0.0324,0.013523,0.002678,0.000431,1.809816
7098000,0.0324,0.013523,0.002678,0.000431,1.841314
7099000,0.0324,0.013523,0.002678,0.000431,1.659145
7100000,0.0324,0.013523,0.002678,0.000431,1.673249
7101000,0.0324,0.013523,0.002678,0.000431,1.771620
7102000,0.0324,0.013523,0.002678,0.000431,1.654797
7103000,0.0324,0.013523,0.002678,0.000431,1.885505
7104000,0.0324,0.013523,0.002678,0.000431,1.757516
7105000,0.0324,0.013523,0.002678,0.000431,1.953789
7106000,0.0324,0.013523,0.002678,0.000431,1.798534
7107000,0.0324,0.013523,0.002678,0.000431,1.676304
7108000,0.0324,0.013523,0.002678,0.000431,1.553135
7109000,0.0324,0.013523,0.002678,0.000431,1.702748
7110000,0.0324,0.013523,0.002678,0.000431,1.621889
7111000,0.0324,0.013523,0.002678,0.000431,1.644689
7112000,0.0324,0.013523,0.002678,0.000431,1.654444
7113000,0.0324,0.013523,0.002678,0.000431,1.661731
7114000,0.0324,0.013523,0.002678,0.000431,1.562890
7115000,0.0324,0.013523,0.002678,0.000431,1.819806
7116000,0.0324,0.013523,0.002678,0.000431,1.754108
7117000,0.0324,0.013523,0.002678,0.000431,1.674542
7118000,0.0324,0.013523,0.002678,0.000431,1.687117
7119000,0.0324,0.013523,0.002678,0.000431,1.836025
7120000,0.0324,0.013523,0.002678,0.000431,1.707567
7121000,0.0324,0.013523,0.002678,0.000431,1.824978
7122000,0.0324,0.013523,0.002678,0.000431,1.708507
7123000,0.0324,0.013523,0.002678,0.000431,1.655972
7124000,0.0324,0.013523,0.002678,0.000431,1.715676
7125000,0.0324,0.013523,0.002678,0.000431,1.717439
7126000,0.0324,0.013523,0.002678,0.000431,1.611899
7127000,0.0324,0.013523,0.002678,0.000431,1.813107
7128000,0.0324,0.013523,0.002678,0.000431,1.794538
7129000,0.0324,0.013523,0.002678,0.000431,1.789484
7130000,0.0324,0.013523,0.002678,0.000431,1.951908
7131000,0.0324,0.013523,0.002678,0.000431,1.717204
7132000,0.0324,0.013523,0.002678,0.000431,1.701455
7133000,0.0324,0.013523,0.002678,0.000431,1.843312
7134000,0.0324,0.013523,0.002678,0.000431,1.693816
7135000,0.0324,0.013523,0.002678,0.000431,1.695462
7136000,0.0324,0.013523,0.002678,0.000431,1.644219
7137000,0.0324,0.013523,0.002678,0.000431,1.630704
7138000,0.0324,0.013523,0.002678,0.000431,1.676540
7139000,0.0324,0.013523,0.002678,0.000431,1.562185
7140000,0.0324,0.013523,0.002678,0.000431,1.610959
7141000,0.0324,0.013523,0.002678,0.000431,1.607786
7142000,0.0324,0.013523,0.002678,0.000431,1.621066
7143000,0.0324,0.013523,0.002678,0.000431,1.787839
7144000,0.0324,0.013523,0.002678,0.000431,1.814400
7145000,0.0324,0.013523,0.002678,0.000431,1.818396
7146000,0.0324,0.013523,0.002678,0.000431,1.796653
7147000,0.0324,0.013523,0.002678,0.000431,1.774440
7148000,0.0324,0.013523,0.002678,0.000431,1.694991
7149000,0.0324,0.013523,0.002678,0.000431,1.680418
7150000,0.0324,0.013523,0.002678,0.000431,1.636580
7151000,0.0324,0.013523,0.002678,0.000431,1.752580
7152000,0.0324,0.013523,0.002678,0.000431,1.707214
7153000,0.0324,0.013523,0.002678,0.000431,1.686647
7154000,0.0324,0.013523,0.002678,0.000431,1.755636
7155000,0.0324,0.013523,0.002678,0.000431,1.776556
7156000,0.0324,0.013523,0.002678,0.000431,1.671721
7157000,0.0324,0.013523,0.002678,0.000431,1.925582
7158000,0.0324,0.013523,0.002678,0.000431,1.917355
7159000,0.0324,0.013523,0.002678,0.000431,1.861646
7160000,0.0324,0.013523,0.002678,0.000431,1.740592
7161000,0.0324,0.013523,0.002678,0.000431,1.577346
7162000,0.0324,0.013523,0.002678,0.000431,1.791129
7163000,0.0324,0.013523,0.002678,0.000431,1.749642
7164000,0.0324,0.013523,0.002678,0.000431,1.813812
7165000,0.0324,0.013523,0.002678,0.000431,1.643984
7166000,0.0324,0.013523,0.002678,0.000431,1.692171
7167000,0.0324,0.013523,0.002678,0.000431,1.744001
7168000,0.0324,0.013523,0.002678,0.000431,1.709095
7169000,0.0324,0.013523,0.002678,0.000431,1.767389
7170000,0.0324,0.013523,0.002678,0.000431,1.706039
7171000,0.0324,0.013523,0.002678,0.000431,1.618010
7172000,0.0324,0.013523,0.002678,0.000431,1.777261
7173000,0.0324,0.013523,0.002678,0.000431,1.954611
7174000,0.0324,0.013523,0.002678,0.000431,1.828974
7175000,0.0324,0.013523,0.002678,0.000431,1.778319
7176000,0.0324,0.013523,0.002678,0.000431,1.691818
7177000,0.0324,0.013523,0.002678,0.000431,1.620596
7178000,0.0324,0.013523,0.002678,0.000431,1.553370
7179000,0.0324,0.013523,0.002678,0.000431,1.612487
7180000,0.0324,0.013523,0.002678,0.000431,1.641869
7181000,0.0324,0.013523,0.002678,0.000431,1.728722
7182000,0.0324,0.013523,0.002678,0.000431,1.678538
7183000,0.0324,0.013523,0.002678,0.000431,1.752698
7184000,0.0324,0.013523,0.002678,0.000431,1.714736
7185000,0.0324,0.013523,0.002678,0.000431,1.754578
7186000,0.0324,0.013523,0.002678,0.000431,1.483441
7187000,0.0324,0.013523,0.002678,0.000431,1.701808
7188000,0.0324,0.013523,0.002678,0.000431,1.786546
7189000,0.0324,0.013523,0.002678,0.000431,1.665374
7190000,0.0324,0.013523,0.002678,0.000431,1.629058
7191000,0.0324,0.013523,0.002678,0.000431,1.725784
7192000,0.0324,0.013523,0.002678,0.000431,1.666902
7193000,0.0324,0.013523,0.002678,0.000431,1.715676
7194000,0.0324,0.013523,0.002678,0.000431,1.826035
7195000,0.0324,0.013523,0.002678,0.000431,1.762688
7196000,0.0324,0.013523,0.002678,0.000431,1.815105
7197000,0.0324,0.013523,0.002678,0.000431,1.863174
7198000,0.0324,0.013523,0.002678,0.000431,1.771502
7199000,0.0324,0.013523,0.002678,0.000431,1.839081
7200000,0.0324,0.013523,0.002678,0.000431,1.813225
7201000,0.0324,0.013523,0.002678,0.000431,1.735656
7202000,0.0324,0.013523,0.002678,0.000431,2.010085
7203000,0.0324,0.013523,0.002678,0.000431,1.842724
7204000,0.0324,0.013523,0.002678,0.000431,1.866818
7205000,0.0324,0.013523,0.002678,0.000431,1.644102
7206000,0.0324,0.013523,0.002678,0.000431,1.740592
7207000,0.0324,0.013523,0.002678,0.000431,1.865055
7208000,0.0324,0.013523,0.002678,0.000431,1.732365
7209000,0.0324,0.013523,0.002678,0.000431,1.664552
7210000,0.0324,0.013523,0.002678,0.000431,1.726371
7211000,0.0324,0.013523,0.002678,0.000431,1.755989
7212000,0.0324,0.013523,0.002678,0.000431,1.744001
7213000,0.0324,0.013523,0.002678,0.000431,1.680418
7214000,0.0324,0.013523,0.002678,0.000431,1.670311
7215000,0.0324,0.013523,0.002678,0.000431,1.730838
7216000,0.0324,0.013523,0.002678,0.000431,1.663964
7217000,0.0324,0.013523,0.002678,0.000431,1.631409
7218000,0.0324,0.013523,0.002678,0.000431,1.654327
7219000,0.0324,0.013523,0.002678,0.000431,1.666902
7220000,0.0324,0.013523,0.002678,0.000431,1.777261
7221000,0.0324,0.013523,0.002678,0.000431,1.715089
7222000,0.0324,0.013523,0.002678,0.000431,1.766801
7223000,0.0324,0.013523,0.002678,0.000431,1.599206
7224000,0.0324,0.013523,0.002678,0.000431,1.753050
7225000,0.0324,0.013523,0.002678,0.000431,1.762100
7226000,0.0324,0.013523,0.002678,0.000431,1.712621
7227000,0.0324,0.013523,0.002678,0.000431,1.824978
7228000,0.0324,0.013523,0.002678,0.000431,1.689585
7229000,0.0324,0.013523,0.002678,0.000431,1.651388
7230000,0.0324,0.013523,0.002678,0.000431,1.819101
7231000,0.0324,0.013523,0.002678,0.000431,1.677715
7232000,0.0324,0.013523,0.002678,0.000431,1.841902
7233000,0.0324,0.013523,0.002678,0.000431,1.870226
7234000,0.0324,0.013523,0.002678,0.000431,1.871166
7235000,0.0324,0.013523,0.002678,0.000431,1.937452
7236000,0.0324,0.013523,0.002678,0.000431,1.720142
7237000,0.0324,0.013523,0.002678,0.000431,1.672779
7238000,0.0324,0.013523,0.002678,0.000431,1.673131
7239000,0.0324,0.013523,0.002678,0.000431,1.534801
7240000,0.0324,0.013523,0.002678,0.000431,1.743413
7241000,0.0324,0.013523,0.002678,0.000431,1.751640
7242000,0.0324,0.013523,0.002678,0.000431,1.588511
7243000,0.0324,0.013523,0.002678,0.000431,1.684766
7244000,0.0324,0.013523,0.002678,0.000431,1.646922
7245000,0.0324,0.013523,0.002678,0.000431,1.612369
7246000,0.0324,0.013523,0.002678,0.000431,1.848601
7247000,0.0324,0.013523,0.002678,0.000431,1.690055
7248000,0.0324,0.013523,0.002678,0.000431,1.696754
7249000,0.0324,0.013523,0.002678,0.000431,1.738124
7250000,0.0324,0.013523,0.002678,0.000431,1.745529
7251000,0.0324,0.013523,0.002678,0.000431,1.614132
7252000,0.0324,0.013523,0.002678,0.000431,1.605200
7253000,0.0324,0.013523,0.002678,0.000431,1.730720
7254000,0.0324,0.013523,0.002678,0.000431,1.742943
7255000,0.0324,0.013523,0.002678,0.000431,1.563125
7256000,0.0324,0.013523,0.002678,0.000431,1.722963
7257000,0.0324,0.013523,0.002678,0.000431,1.751170
7258000,0.0324,0.013523,0.002678,0.000431,1.736714
7259000,0.0324,0.013523,0.002678,0.000431,1.700633
7260000,0.0324,0.013523,0.002678,0.000431,1.652094
7261000,0.0324,0.013523,0.002678,0.000431,1.773970
7262000,0.0324,0.013523,0.002678,0.000431,1.589451
7263000,0.0324,0.013523,0.002678,0.000431,1.479680
7264000,0.0324,0.013523,0.002678,0.000431,1.432316
7265000,0.0324,0.013523,0.002678,0.000431,1.563477
7266000,0.0324,0.013523,0.002678,0.000431,1.784665
7267000,0.0324,0.013523,0.002678,0.000431,1.841079
7268000,0.0324,0.013523,0.002678,0.000431,1.674189
7269000,0.0324,0.013523,0.002678,0.000431,1.750935
7270000,0.0324,0.013523,0.002678,0.000431,1.757399
7271000,0.0324,0.013523,0.002678,0.000431,1.740475
7272000,0.0324,0.013523,0.002678,0.000431,1.767271
7273000,0.0324,0.013523,0.002678,0.000431,1.828974
7274000,0.0324,0.013523,0.002678,0.000431,1.599206
7275000,0.0324,0.013523,0.002678,0.000431,1.831324
7276000,0.0324,0.013523,0.002678,0.000431,1.714266
7277000,0.0324,0.013523,0.002678,0.000431,1.826858
7278000,0.0324,0.013523,0.002678,0.000431,1.679595
7279000,0.0324,0.013523,0.002678,0.000431,1.707214
7280000,0.0324,0.013523,0.002678,0.000431,1.687587
7281000,0.0324,0.013523,0.002678,0.000431,1.607433
7282000,0.0324,0.013523,0.002678,0.000431,1.523870
7283000,0.0324,0.013523,0.002678,0.000431,1.629646
7284000,0.0324,0.013523,0.002678,0.000431,1.806056
7285000,0.0324,0.013523,0.002678,0.000431,1.695932
7286000,0.0324,0.013523,0.002678,0.000431,1.696872
7287000,0.0324,0.013523,0.002678,0.000431,1.861059
7288000,0.0324,0.013523,0.002678,0.000431,1.757281
7289000,0.0324,0.013523,0.002678,0.000431,1.702043
7290000,0.0324,0.013523,0.002678,0.000431,1.703571
7291000,0.0324,0.013523,0.002678,0.000431,1.695814
7292000,0.0324,0.013523,0.002678,0.000431,1.689703
7293000,0.0324,0.013523,0.002678,0.000431,1.720613
7294000,0.0324,0.013523,0.002678,0.000431,1.711093
7295000,0.0324,0.013523,0.002678,0.000431,1.789014
7296000,0.0324,0.013523,0.002678,0.000431,1.742708
7297000,0.0324,0.013523,0.002678,0.000431,1.770327
7298000,0.0324,0.013523,0.002678,0.000431,1.706744
7299000,0.0324,0.013523,0.002678,0.000431,1.730838
7300000,0.0324,0.013523,0.002678,0.000431,1.755401
7301000,0.0324,0.013523,0.002678,0.000431,1.814988
7302000,0.0324,0.013523,0.002678,0.000431,1.735774
7303000,0.0324,0.013523,0.002678,0.000431,1.746469
7304000,0.0324,0.013523,0.002678,0.000431,1.596150
7305000,0.0324,0.013523,0.002678,0.000431,1.636697
7306000,0.0324,0.013523,0.002678,0.000431,1.530099
7307000,0.0324,0.013523,0.002678,0.000431,1.519522
7308000,0.0324,0.013523,0.002678,0.000431,1.789837
7309000,0.0324,0.013523,0.002678,0.000431,1.762335
7310000,0.0324,0.013523,0.002678,0.000431,1.773853
7311000,0.0324,0.013523,0.002678,0.000431,1.504008
7312000,0.0324,0.013523,0.002678,0.000431,1.563242
7313000,0.0324,0.013523,0.002678,0.000431,1.541147
7314000,0.0324,0.013523,0.002678,0.000431,1.657147
7315000,0.0324,0.013523,0.002678,0.000431,1.603437
7316000,0.0324,0.013523,0.002678,0.000431,1.692641
7317000,0.0324,0.013523,0.002678,0.000431,1.648450
7318000,0.0324,0.013523,0.002678,0.000431,1.481678
7319000,0.0324,0.013523,0.002678,0.000431,1.609901
7320000,0.0324,0.013523,0.002678,0.000431,1.759162
7321000,0.0324,0.013523,0.002678,0.000431,1.722493
7322000,0.0324,0.013523,0.002678,0.000431,1.859296
7323000,0.0324,0.013523,0.002678,0.000431,1.713678
7324000,0.0324,0.013523,0.002678,0.000431,1.631761
7325000,0.0324,0.013523,0.002678,0.000431,1.628823
7326000,0.0324,0.013523,0.002678,0.000431,1.739417
7327000,0.0324,0.013523,0.002678,0.000431,1.647157
7328000,0.0324,0.013523,0.002678,0.000431,1.562772
7329000,0.0324,0.013523,0.002678,0.000431,1.682416
7330000,0.0324,0.013523,0.002678,0.000431,1.703218
7331000,0.0324,0.013523,0.002678,0.000431,1.562655
7332000,0.0324,0.013523,0.002678,0.000431,1.673719
7333000,0.0324,0.013523,0.002678,0.000431,1.607668
7334000,0.0324,0.013523,0.002678,0.000431,1.609901
7335000,0.0324,0.013523,0.002678,0.000431,1.796418
7336000,0.0324,0.013523,0.002678,0.000431,1.773265
7337000,0.0324,0.013523,0.002678,0.000431,1.771855
7338000,0.0324,0.013523,0.002678,0.000431,1.753520
7339000,0.0324,0.013523,0.002678,0.000431,1.667607
7340000,0.0324,0.013523,0.002678,0.000431,1.757164
7341000,0.0324,0.013523,0.002678,0.000431,1.755871
7342000,0.0324,0.013523,0.002678,0.000431,1.812285
7343000,0.0324,0.013523,0.002678,0.000431,1.841079
7344000,0.0324,0.013523,0.002678,0.000431,1.500835
7345000,0.0324,0.013523,0.002678,0.000431,1.734363
7346000,0.0324,0.013523,0.002678,0.000431,1.573702
7347000,0.0324,0.013523,0.002678,0.000431,1.620361
7348000,0.0324,0.013523,0.002678,0.000431,1.535036
7349000,0.0324,0.013523,0.002678,0.000431,1.727077
7350000,0.0324,0.013523,0.002678,0.000431,1.646217
7351000,0.0324,0.013523,0.002678,0.000431,1.523870
7352000,0.0324,0.013523,0.002678,0.000431,1.556308
7353000,0.0324,0.013523,0.002678,0.000431,1.581459
7354000,0.0324,0.013523,0.002678,0.000431,1.795243
7355000,0.0324,0.013523,0.002678,0.000431,1.722258
7356000,0.0324,0.013523,0.002678,0.000431,1.664199
7357000,0.0324,0.013523,0.002678,0.000431,1.798886
7358000,0.0324,0.013523,0.002678,0.000431,1.855300
7359000,0.0324,0.013523,0.002678,0.000431,1.759044
7360000,0.0324,0.013523,0.002678,0.000431,1.851774
7361000,0.0324,0.013523,0.002678,0.000431,1.876808
7362000,0.0324,0.013523,0.002678,0.000431,1.779377
7363000,0.0324,0.013523,0.002678,0.000431,1.630586
7364000,0.0324,0.013523,0.002678,0.000431,1.743766
7365000,0.0324,0.013523,0.002678,0.000431,1.663141
7366000,0.0324,0.013523,0.002678,0.000431,1.807936
7367000,0.0324,0.013523,0.002678,0.000431,1.695227
7368000,0.0324,0.013523,0.002678,0.000431,1.771267
7369000,0.0324,0.013523,0.002678,0.000431,1.706627
7370000,0.0324,0.013523,0.002678,0.000431,1.629998
7371000,0.0324,0.013523,0.002678,0.000431,1.680300
7372000,0.0324,0.013523,0.002678,0.000431,1.746821
7373000,0.0324,0.013523,0.002678,0.000431,1.668077
7374000,0.0324,0.013523,0.002678,0.000431,1.605317
7375000,0.0324,0.013523,0.002678,0.000431,1.593682
7376000,0.0324,0.013523,0.002678,0.000431,1.402581
7377000,0.0324,0.013523,0.002678,0.000431,1.791717
7378000,0.0324,0.013523,0.002678,0.000431,1.745176
7379000,0.0324,0.013523,0.002678,0.000431,1.557366
7380000,0.0324,0.013523,0.002678,0.000431,1.645159
7381000,0.0324,0.013523,0.002678,0.000431,1.677832
7382000,0.0324,0.013523,0.002678,0.000431,1.851421
7383000,0.0324,0.013523,0.002678,0.000431,1.762335
7384000,0.0324,0.013523,0.002678,0.000431,1.567591
7385000,0.0324,0.013523,0.002678,0.000431,1.637403
7386000,0.0324,0.013523,0.002678,0.000431,1.611781
7387000,0.0324,0.013523,0.002678,0.000431,1.836848
7388000,0.0324,0.013523,0.002678,0.000431,1.770327
7389000,0.0324,0.013523,0.002678,0.000431,1.811462
7390000,0.0324,0.013523,0.002678,0.000431,1.659733
7391000,0.0324,0.013523,0.002678,0.000431,1.839316
7392000,0.0324,0.013523,0.002678,0.000431,1.723551
7393000,0.0324,0.013523,0.002678,0.000431,1.714736
7394000,0.0324,0.013523,0.002678,0.000431,1.718144
7395000,0.0324,0.013523,0.002678,0.000431,1.557601
7396000,0.0324,0.013523,0.002678,0.000431,1.733188
7397000,0.0324,0.013523,0.002678,0.000431,1.585925
7398000,0.0324,0.013523,0.002678,0.000431,1.556308
7399000,0.0324,0.013523,0.002678,0.000431,1.619186
7400000,0.0324,0.013523,0.002678,0.000431,1.682769
7401000,0.0324,0.013523,0.002678,0.000431,1.786781
7402000,0.0324,0.013523,0.002678,0.000431,1.808641
7403000,0.0324,0.013523,0.002678,0.000431,1.956139
7404000,0.0324,0.013523,0.002678,0.000431,1.791129
7405000,0.0324,0.013523,0.002678,0.000431,1.541382
7406000,0.0324,0.013523,0.002678,0.000431,1.761865
7407000,0.0324,0.013523,0.002678,0.000431,1.677010
7408000,0.0324,0.013523,0.002678,0.000431,1.673484
7409000,0.0324,0.013523,0.002678,0.000431,1.497544
7410000,0.0324,0.013523,0.002678,0.000431,1.535976
7411000,0.0324,0.013523,0.002678,0.000431,1.552077
7412000,0.0324,0.013523,0.002678,0.000431,1.707684
7413000,0.0324,0.013523,0.002678,0.000431,1.687117
7414000,0.0324,0.013523,0.002678,0.000431,1.781610
7415000,0.0324,0.013523,0.002678,0.000431,1.730015
7416000,0.0324,0.013523,0.002678,0.000431,1.646335
7417000,0.0324,0.013523,0.002678,0.000431,1.749642
7418000,0.0324,0.013523,0.002678,0.000431,1.746704
7419000,0.0324,0.013523,0.002678,0.000431,1.689115
7420000,0.0324,0.013523,0.002678,0.000431,1.662671
7421000,0.0324,0.013523,0.002678,0.000431,1.787134
7422000,0.0324,0.013523,0.002678,0.000431,1.687822
7423000,0.0324,0.013523,0.002678,0.000431,1.582635
7424000,0.0324,0.013523,0.002678,0.000431,1.751523
7425000,0.0324,0.013523,0.002678,0.000431,1.673366
7426000,0.0324,0.013523,0.002678,0.000431,1.618481
7427000,0.0324,0.013523,0.002678,0.000431,1.689820
7428000,0.0324,0.013523,0.002678,0.000431,1.482971
7429000,0.0324,0.013523,0.002678,0.000431,1.757987
7430000,0.0324,0.013523,0.002678,0.000431,1.508357
7431000,0.0324,0.013523,0.002678,0.000431,1.630351
7432000,0.0324,0.013523,0.002678,0.000431,1.634229
7433000,0.0324,0.013523,0.002678,0.000431,1.706744
7434000,0.0324,0.013523,0.002678,0.000431,1.777849
7435000,0.0324,0.013523,0.002678,0.000431,1.619773
7436000,0.0324,0.013523,0.002678,0.000431,1.700045
7437000,0.0324,0.013523,0.002678,0.000431,1.736126
7438000,0.0324,0.013523,0.002678,0.000431,1.683004
7439000,0.0324,0.013523,0.002678,0.000431,1.914417
7440000,0.0324,0.013523,0.002678,0.000431,1.779494
7441000,0.0324,0.013523,0.002678,0.000431,1.714384
7442000,0.0324,0.013523,0.002678,0.000431,1.618010
7443000,0.0324,0.013523,0.002678,0.000431,1.671486
7444000,0.0324,0.013523,0.002678,0.000431,1.604730
7445000,0.0324,0.013523,0.002678,0.000431,1.597443
7446000,0.0324,0.013523,0.002678,0.000431,1.618716
7447000,0.0324,0.013523,0.002678,0.000431,1.590861
7448000,0.0324,0.013523,0.002678,0.000431,1.736361
7449000,0.0324,0.013523,0.002678,0.000431,1.748937
7450000,0.0324,0.013523,0.002678,0.000431,1.690173
7451000,0.0324,0.013523,0.002678,0.000431,1.504126
7452000,0.0324,0.013523,0.002678,0.000431,1.754108
7453000,0.0324,0.013523,0.002678,0.000431,1.638813
7454000,0.0324,0.013523,0.002678,0.000431,1.602732
7455000,0.0324,0.013523,0.002678,0.000431,1.627295
7456000,0.0324,0.013523,0.002678,0.000431,1.736126
7457000,0.0324,0.013523,0.002678,0.000431,1.761983
7458000,0.0324,0.013523,0.002678,0.000431,1.850951
7459000,0.0324,0.013523,0.002678,0.000431,1.734246
7460000,0.0324,0.013523,0.002678,0.000431,1.713913
7461000,0.0324,0.013523,0.002678,0.000431,1.820159
7462000,0.0324,0.013523,0.002678,0.000431,1.592037
7463000,0.0324,0.013523,0.002678,0.000431,1.710623
7464000,0.0324,0.013523,0.002678,0.000431,1.823215
7465000,0.0324,0.013523,0.002678,0.000431,1.695462
7466000,0.0324,0.013523,0.002678,0.000431,1.626120
7467000,0.0324,0.013523,0.002678,0.000431,1.662436
7468000,0.0324,0.013523,0.002678,0.000431,1.804880
7469000,0.0324,0.013523,0.002678,0.000431,1.765156
7470000,0.0324,0.013523,0.002678,0.000431,1.932633
7471000,0.0324,0.013523,0.002678,0.000431,1.835203
7472000,0.0324,0.013523,0.002678,0.000431,1.747997
7473000,0.0324,0.013523,0.002678,0.000431,1.653386
7474000,0.0324,0.013523,0.002678,0.000431,1.728840
7475000,0.0324,0.013523,0.002678,0.000431,1.697695
7476000,0.0324,0.013523,0.002678,0.000431,1.748232
7477000,0.0324,0.013523,0.002678,0.000431,1.742943
7478000,0.0324,0.013523,0.002678,0.000431,1.765861
7479000,0.0324,0.013523,0.002678,0.000431,1.604025
7480000,0.0324,0.013523,0.002678,0.000431,1.707802
7481000,0.0324,0.013523,0.002678,0.000431,1.566416
7482000,0.0324,0.013523,0.002678,0.000431,1.676304
7483000,0.0324,0.013523,0.002678,0.000431,1.639283
7484000,0.0324,0.013523,0.002678,0.000431,1.728252
7485000,0.0324,0.013523,0.002678,0.000431,1.718497
7486000,0.0324,0.013523,0.002678,0.000431,1.628470
7487000,0.0324,0.013523,0.002678,0.000431,1.653857
7488000,0.0324,0.013523,0.002678,0.000431,1.779847
7489000,0.0324,0.013523,0.002678,0.000431,1.638108
7490000,0.0324,0.013523,0.002678,0.000431,1.747644
7491000,0.0324,0.013523,0.002678,0.000431,1.779729
7492000,0.0324,0.013523,0.002678,0.000431,1.618128
7493000,0.0324,0.013523,0.002678,0.000431,1.741062
7494000,0.0324,0.013523,0.002678,0.000431,1.747409
7495000,0.0324,0.013523,0.002678,0.000431,1.784548
7496000,0.0324,0.013523,0.002678,0.000431,1.842959
7497000,0.0324,0.013523,0.002678,0.000431,1.646100
7498000,0.0324,0.013523,0.002678,0.000431,1.857415
7499000,0.0324,0.013523,0.002678,0.000431,1.798534
7500000,0.0324,0.013523,0.002678,0.000431,1.638813
7501000,0.0324,0.013523,0.002678,0.000431,1.569236
7502000,0.0324,0.013523,0.002678,0.000431,1.716852
7503000,0.0324,0.013523,0.002678,0.000431,1.761160
7504000,0.0324,0.013523,0.002678,0.000431,1.629998
7505000,0.0324,0.013523,0.002678,0.000431,1.716617
7506000,0.0324,0.013523,0.002678,0.000431,1.519639
7507000,0.0324,0.013523,0.002678,0.000431,1.734834
7508000,0.0324,0.013523,0.002678,0.000431,1.731660
7509000,0.0324,0.013523,0.002678,0.000431,1.793950
7510000,0.0324,0.013523,0.002678,0.000431,1.755283
7511000,0.0324,0.013523,0.002678,0.000431,1.796888
7512000,0.0324,0.013523,0.002678,0.000431,1.673954
7513000,0.0324,0.013523,0.002678,0.000431,1.748937
7514000,0.0324,0.013523,0.002678,0.000431,1.616483
7515000,0.0324,0.013523,0.002678,0.000431,1.684531
7516000,0.0324,0.013523,0.002678,0.000431,1.644102
7517000,0.0324,0.013523,0.002678,0.000431,1.755636
7518000,0.0324,0.013523,0.002678,0.000431,1.671486
7519000,0.0324,0.013523,0.002678,0.000431,1.700045
7520000,0.0324,0.013523,0.002678,0.000431,1.866348
7521000,0.0324,0.013523,0.002678,0.000431,1.786663
7522000,0.0324,0.013523,0.002678,0.000431,1.665844
7523000,0.0324,0.013523,0.002678,0.000431,1.739887
7524000,0.0324,0.013523,0.002678,0.000431,1.647393
7525000,0.0324,0.013523,0.002678,0.000431,1.659145
7526000,0.0324,0.013523,0.002678,0.000431,1.856593
7527000,0.0324,0.013523,0.002678,0.000431,1.822862
7528000,0.0324,0.013523,0.002678,0.000431,1.724021
7529000,0.0324,0.013523,0.002678,0.000431,1.839081
7530000,0.0324,0.013523,0.002678,0.000431,1.790542
7531000,0.0324,0.013523,0.002678,0.000431,1.673601
7532000,0.0324,0.013523,0.002678,0.000431,1.705216
7533000,0.0324,0.013523,0.002678,0.000431,1.627060
7534000,0.0324,0.013523,0.002678,0.000431,1.786781
7535000,0.0324,0.013523,0.002678,0.000431,1.764921
7536000,0.0324,0.013523,0.002678,0.000431,1.580519
7537000,0.0324,0.013523,0.002678,0.000431,1.619891
7538000,0.0324,0.013523,0.002678,0.000431,1.595563
7539000,0.0324,0.013523,0.002678,0.000431,1.648568
7540000,0.0324,0.013523,0.002678,0.000431,1.750700
7541000,0.0324,0.013523,0.002678,0.000431,1.816281
7542000,0.0324,0.013523,0.002678,0.000431,1.670898
7543000,0.0324,0.013523,0.002678,0.000431,1.684179
7544000,0.0324,0.013523,0.002678,0.000431,1.490845
7545000,0.0324,0.013523,0.002678,0.000431,1.495546
7546000,0.0324,0.013523,0.002678,0.000431,1.847661
7547000,0.0324,0.013523,0.002678,0.000431,1.697695
7548000,0.0324,0.013523,0.002678,0.000431,1.646805
7549000,0.0324,0.013523,0.002678,0.000431,1.560539
7550000,0.0324,0.013523,0.002678,0.000431,1.445597
7551000,0.0324,0.013523,0.002678,0.000431,1.660086
7552000,0.0324,0.013523,0.002678,0.000431,1.650683
7553000,0.0324,0.013523,0.002678,0.000431,1.456409
7554000,0.0324,0.013523,0.002678,0.000431,1.688410
7555000,0.0324,0.013523,0.002678,0.000431,1.683474
7556000,0.0324,0.013523,0.002678,0.000431,1.593330
7557000,0.0324,0.013523,0.002678,0.000431,1.770092
7558000,0.0324,0.013523,0.002678,0.000431,1.721905
7559000,0.0324,0.013523,0.002678,0.000431,1.540324
7560000,0.0324,0.013523,0.002678,0.000431,1.717909
7561000,0.0324,0.013523,0.002678,0.000431,1.770915
7562000,0.0324,0.013523,0.002678,0.000431,1.677950
7563000,0.0324,0.013523,0.002678,0.000431,1.745058
7564000,0.0324,0.013523,0.002678,0.000431,1.812050
7565000,0.0324,0.013523,0.002678,0.000431,1.698517
7566000,0.0324,0.013523,0.002678,0.000431,1.600381
7567000,0.0324,0.013523,0.002678,0.000431,1.603672
7568000,0.0324,0.013523,0.002678,0.000431,1.448770
7569000,0.0324,0.013523,0.002678,0.000431,1.613074
7570000,0.0324,0.013523,0.002678,0.000431,1.633642
7571000,0.0324,0.013523,0.002678,0.000431,1.701573
7572000,0.0324,0.013523,0.002678,0.000431,1.641399
7573000,0.0324,0.013523,0.002678,0.000431,1.717557
7574000,0.0324,0.013523,0.002678,0.000431,1.572762
7575000,0.0324,0.013523,0.002678,0.000431,1.718144
7576000,0.0324,0.013523,0.002678,0.000431,1.821099
7577000,0.0324,0.013523,0.002678,0.000431,1.680653
7578000,0.0324,0.013523,0.002678,0.000431,1.662789
7579000,0.0324,0.013523,0.002678,0.000431,1.551490
7580000,0.0324,0.013523,0.002678,0.000431,1.689820
7581000,0.0324,0.013523,0.002678,0.000431,1.710975
7582000,0.0324,0.013523,0.002678,0.000431,1.694051
7583000,0.0324,0.013523,0.002678,0.000431,1.731778
7584000,0.0324,0.013523,0.002678,0.000431,1.692171
7585000,0.0324,0.013523,0.002678,0.000431,1.781492
7586000,0.0324,0.013523,0.002678,0.000431,1.843312
7587000,0.0324,0.013523,0.002678,0.000431,1.783255
7588000,0.0324,0.013523,0.002678,0.000431,1.601674
7589000,0.0324,0.013523,0.002678,0.000431,1.629058
7590000,0.0324,0.013523,0.002678,0.000431,1.649861
7591000,0.0324,0.013523,0.002678,0.000431,1.466399
7592000,0.0324,0.013523,0.002678,0.000431,1.585338
7593000,0.0324,0.013523,0.002678,0.000431,1.528689
7594000,0.0324,0.013523,0.002678,0.000431,1.609313
7595000,0.0324,0.013523,0.002678,0.000431,1.707332
7596000,0.0324,0.013523,0.002678,0.000431,1.846368
7597000,0.0324,0.013523,0.002678,0.000431,1.700280
7598000,0.0324,0.013523,0.002678,0.000431,1.724138
7599000,0.0324,0.013523,0.002678,0.000431,1.523400
7600000,0.0324,0.013523,0.002678,0.000431,1.889383
7601000,0.0324,0.013523,0.002678,0.000431,1.685119
7602000,0.0324,0.013523,0.002678,0.000431,1.549139
7603000,0.0324,0.013523,0.002678,0.000431,1.642574
7604000,0.0324,0.013523,0.002678,0.000431,1.793480
7605000,0.0324,0.013523,0.002678,0.000431,1.651624
7606000,0.0324,0.013523,0.002678,0.000431,1.700515
7607000,0.0324,0.013523,0.002678,0.000431,1.702396
7608000,0.0324,0.013523,0.002678,0.000431,1.748349
7609000,0.0324,0.013523,0.002678,0.000431,1.601674
7610000,0.0324,0.013523,0.002678,0.000431,1.789719
7611000,0.0324,0.013523,0.002678,0.000431,1.810992
7612000,0.0324,0.013523,0.002678,0.000431,1.769269
7613000,0.0324,0.013523,0.002678,0.000431,1.641399
7614000,0.0324,0.013523,0.002678,0.000431,1.614837
7615000,0.0324,0.013523,0.002678,0.000431,1.676540
7616000,0.0324,0.013523,0.002678,0.000431,1.663141
7617000,0.0324,0.013523,0.002678,0.000431,1.770327
7618000,0.0324,0.013523,0.002678,0.000431,1.934279
7619000,0.0324,0.013523,0.002678,0.000431,1.671368
7620000,0.0324,0.013523,0.002678,0.000431,1.765273
7621000,0.0324,0.013523,0.002678,0.000431,1.525398
7622000,0.0324,0.013523,0.002678,0.000431,1.674306
7623000,0.0324,0.013523,0.002678,0.000431,1.641869
7624000,0.0324,0.013523,0.002678,0.000431,1.389653
7625000,0.0324,0.013523,0.002678,0.000431,1.647980
7626000,0.0324,0.013523,0.002678,0.000431,1.658910
7627000,0.0324,0.013523,0.002678,0.000431,1.569824
7628000,0.0324,0.013523,0.002678,0.000431,1.613074
7629000,0.0324,0.013523,0.002678,0.000431,1.651506
7630000,0.0324,0.013523,0.002678,0.000431,1.728017
7631000,0.0324,0.013523,0.002678,0.000431,1.625415
7632000,0.0324,0.013523,0.002678,0.000431,1.639401
7633000,0.0324,0.013523,0.002678,0.000431,1.659851
7634000,0.0324,0.013523,0.002678,0.000431,1.747762
7635000,0.0324,0.013523,0.002678,0.000431,1.654562
7636000,0.0324,0.013523,0.002678,0.000431,1.952378
7637000,0.0324,0.013523,0.002678,0.000431,1.726959
7638000,0.0324,0.013523,0.002678,0.000431,1.660556
7639000,0.0324,0.013523,0.002678,0.000431,1.728134
7640000,0.0324,0.013523,0.002678,0.000431,1.672896
7641000,0.0324,0.013523,0.002678,0.000431,1.716147
7642000,0.0324,0.013523,0.002678,0.000431,1.617188
7643000,0.0324,0.013523,0.002678,0.000431,1.665374
7644000,0.0324,0.013523,0.002678,0.000431,1.642221
7645000,0.0324,0.013523,0.002678,0.000431,1.730015
7646000,0.0324,0.013523,0.002678,0.000431,1.626237
7647000,0.0324,0.013523,0.002678,0.000431,1.642574
7648000,0.0324,0.013523,0.002678,0.000431,1.832734
7649000,0.0324,0.013523,0.002678,0.000431,1.799827
7650000,0.0324,0.013523,0.002678,0.000431,1.848131
7651000,0.0324,0.013523,0.002678,0.000431,1.773030
7652000,0.0324,0.013523,0.002678,0.000431,1.668195
7653000,0.0324,0.013523,0.002678,0.000431,1.499660
7654000,0.0324,0.013523,0.002678,0.000431,1.654327
7655000,0.0324,0.013523,0.002678,0.000431,1.753638
7656000,0.0324,0.013523,0.002678,0.000431,1.653034
7657000,0.0324,0.013523,0.002678,0.000431,1.670193
7658000,0.0324,0.013523,0.002678,0.000431,1.719672
7659000,0.0324,0.013523,0.002678,0.000431,1.773265
7660000,0.0324,0.013523,0.002678,0.000431,1.686059
7661000,0.0324,0.013523,0.002678,0.000431,1.691231
7662000,0.0324,0.013523,0.002678,0.000431,1.701455
7663000,0.0324,0.013523,0.002678,0.000431,1.730250
7664000,0.0324,0.013523,0.002678,0.000431,1.589804
7665000,0.0324,0.013523,0.002678,0.000431,1.806291
7666000,0.0324,0.013523,0.002678,0.000431,1.417390
7667000,0.0324,0.013523,0.002678,0.000431,1.464401
7668000,0.0324,0.013523,0.002678,0.000431,1.416097
7669000,0.0324,0.013523,0.002678,0.000431,1.592859
7670000,0.0324,0.013523,0.002678,0.000431,1.581224
7671000,0.0324,0.013523,0.002678,0.000431,1.740240
7672000,0.0324,0.013523,0.002678,0.000431,1.704981
7673000,0.0324,0.013523,0.002678,0.000431,1.792187
7674000,0.0324,0.013523,0.002678,0.000431,1.714149
7675000,0.0324,0.013523,0.002678,0.000431,1.471100
7676000,0.0324,0.013523,0.002678,0.000431,1.561950
7677000,0.0324,0.013523,0.002678,0.000431,1.734363
7678000,0.0324,0.013523,0.002678,0.000431,1.596503
7679000,0.0324,0.013523,0.002678,0.000431,1.673249
7680000,0.0324,0.013523,0.002678,0.000431,1.620714
7681000,0.0324,0.013523,0.002678,0.000431,1.632702
7682000,0.0324,0.013523,0.002678,0.000431,1.633407
7683000,0.0324,0.013523,0.002678,0.000431,1.598971
7684000,0.0324,0.013523,0.002678,0.000431,1.816398
7685000,0.0324,0.013523,0.002678,0.000431,1.704276
7686000,0.0324,0.013523,0.002678,0.000431,1.549021
7687000,0.0324,0.013523,0.002678,0.000431,1.728252
7688000,0.0324,0.013523,0.002678,0.000431,1.650096
7689000,0.0324,0.013523,0.002678,0.000431,1.678067
7690000,0.0324,0.013523,0.002678,0.000431,1.537151
7691000,0.0324,0.013523,0.002678,0.000431,1.598266
7692000,0.0324,0.013523,0.002678,0.000431,1.606493
7693000,0.0324,0.013523,0.002678,0.000431,1.684766
7694000,0.0324,0.013523,0.002678,0.000431,1.674424
7695000,0.0324,0.013523,0.002678,0.000431,1.538561
7696000,0.0324,0.013523,0.002678,0.000431,1.650801
7697000,0.0324,0.013523,0.002678,0.000431,1.712151
7698000,0.0324,0.013523,0.002678,0.000431,1.685707
7699000,0.0324,0.013523,0.002678,0.000431,1.545025
7700000,0.0324,0.013523,0.002678,0.000431,1.601792
7701000,0.0324,0.013523,0.002678,0.000431,1.516701
7702000,0.0324,0.013523,0.002678,0.000431,1.668195
7703000,0.0324,0.013523,0.002678,0.000431,1.657147
7704000,0.0324,0.013523,0.002678,0.000431,1.514586
7705000,0.0324,0.013523,0.002678,0.000431,1.696402
7706000,0.0324,0.013523,0.002678,0.000431,1.710740
7707000,0.0324,0.013523,0.002678,0.000431,1.713913
7708000,0.0324,0.013523,0.002678,0.000431,1.765743
7709000,0.0324,0.013523,0.002678,0.000431,1.772913
7710000,0.0324,0.013523,0.002678,0.000431,1.697224
7711000,0.0324,0.013523,0.002678,0.000431,1.470630
7712000,0.0324,0.013523,0.002678,0.000431,1.647628
7713000,0.0324,0.013523,0.002678,0.000431,1.699810
7714000,0.0324,0.013523,0.002678,0.000431,1.723903
7715000,0.0324,0.013523,0.002678,0.000431,1.661731
7716000,0.0324,0.013523,0.002678,0.000431,1.740710
7717000,0.0324,0.013523,0.002678,0.000431,1.524576
7718000,0.0324,0.013523,0.002678,0.000431,1.615425
7719000,0.0324,0.013523,0.002678,0.000431,1.557601
7720000,0.0324,0.013523,0.002678,0.000431,1.594387
7721000,0.0324,0.013523,0.002678,0.000431,1.732953
7722000,0.0324,0.013523,0.002678,0.000431,1.655620
7723000,0.0324,0.013523,0.002678,0.000431,1.580166
7724000,0.0324,0.013523,0.002678,0.000431,1.748114
7725000,0.0324,0.013523,0.002678,0.000431,1.698282
7726000,0.0324,0.013523,0.002678,0.000431,1.498837
7727000,0.0324,0.013523,0.002678,0.000431,1.754343
7728000,0.0324,0.013523,0.002678,0.000431,1.712033
7729000,0.0324,0.013523,0.002678,0.000431,1.599559
7730000,0.0324,0.013523,0.002678,0.000431,1.592272
7731000,0.0324,0.013523,0.002678,0.000431,1.591449
7732000,0.0324,0.013523,0.002678,0.000431,1.609078
7733000,0.0324,0.013523,0.002678,0.000431,1.429378
7734000,0.0324,0.013523,0.002678,0.000431,1.803470
7735000,0.0324,0.013523,0.002678,0.000431,1.566651
7736000,0.0324,0.013523,0.002678,0.000431,1.632466
7737000,0.0324,0.013523,0.002678,0.000431,1.641164
7738000,0.0324,0.013523,0.002678,0.000431,1.618598
7739000,0.0324,0.013523,0.002678,0.000431,1.663611
7740000,0.0324,0.013523,0.002678,0.000431,1.689703
7741000,0.0324,0.013523,0.002678,0.000431,1.627178
7742000,0.0324,0.013523,0.002678,0.000431,1.692171
7743000,0.0324,0.013523,0.002678,0.000431,1.814165
7744000,0.0324,0.013523,0.002678,0.000431,1.616835
7745000,0.0324,0.013523,0.002678,0.000431,1.676892
7746000,0.0324,0.013523,0.002678,0.000431,1.680535
7747000,0.0324,0.013523,0.002678,0.000431,1.552077
7748000,0.0324,0.013523,0.002678,0.000431,1.501540
7749000,0.0324,0.013523,0.002678,0.000431,1.703453
7750000,0.0324,0.013523,0.002678,0.000431,1.752110
7751000,0.0324,0.013523,0.002678,0.000431,1.811344
7752000,0.0324,0.013523,0.002678,0.000431,1.775381
7753000,0.0324,0.013523,0.002678,0.000431,1.574995
7754000,0.0324,0.013523,0.002678,0.000431,1.850951
7755000,0.0324,0.013523,0.002678,0.000431,1.789954
7756000,0.0324,0.013523,0.002678,0.000431,1.653857
7757000,0.0324,0.013523,0.002678,0.000431,1.556543
7758000,0.0324,0.013523,0.002678,0.000431,1.626120
7759000,0.0324,0.013523,0.002678,0.000431,1.549609
7760000,0.0324,0.013523,0.002678,0.000431,1.464989
7761000,0.0324,0.013523,0.002678,0.000431,1.647157
7762000,0.0324,0.013523,0.002678,0.000431,1.545966
7763000,0.0324,0.013523,0.002678,0.000431,1.642691
7764000,0.0324,0.013523,0.002678,0.000431,1.788779
7765000,0.0324,0.013523,0.002678,0.000431,1.763393
7766000,0.0324,0.013523,0.002678,0.000431,1.772795
7767000,0.0324,0.013523,0.002678,0.000431,1.698517
7768000,0.0324,0.013523,0.002678,0.000431,1.570412
7769000,0.0324,0.013523,0.002678,0.000431,1.710270
7770000,0.0324,0.013523,0.002678,0.000431,1.609078
7771000,0.0324,0.013523,0.002678,0.000431,1.568766
7772000,0.0324,0.013523,0.002678,0.000431,1.804880
7773000,0.0324,0.013523,0.002678,0.000431,1.569824
7774000,0.0324,0.013523,0.002678,0.000431,1.552900
7775000,0.0324,0.013523,0.002678,0.000431,1.636227
7776000,0.0324,0.013523,0.002678,0.000431,1.609548
7777000,0.0324,0.013523,0.002678,0.000431,1.594152
7778000,0.0324,0.013523,0.002678,0.000431,1.644454
7779000,0.0324,0.013523,0.002678,0.000431,1.623417
7780000,0.0324,0.013523,0.002678,0.000431,1.675717
7781000,0.0324,0.013523,0.002678,0.000431,1.768564
7782000,0.0324,0.013523,0.002678,0.000431,1.576288
7783000,0.0324,0.013523,0.002678,0.000431,1.670193
7784000,0.0324,0.013523,0.002678,0.000431,1.620244
7785000,0.0324,0.013523,0.002678,0.000431,1.677597
7786000,0.0324,0.013523,0.002678,0.000431,1.618363
7787000,0.0324,0.013523,0.002678,0.000431,1.414217
7788000,0.0324,0.013523,0.002678,0.000431,1.621184
7789000,0.0324,0.013523,0.002678,0.000431,1.628706
7790000,0.0324,0.013523,0.002678,0.000431,1.639283
7791000,0.0324,0.013523,0.002678,0.000431,1.658088
7792000,0.0324,0.013523,0.002678,0.000431,1.767976
7793000,0.0324,0.013523,0.002678,0.000431,1.461463
7794000,0.0324,0.013523,0.002678,0.000431,1.663259
7795000,0.0324,0.013523,0.002678,0.000431,1.579814
7796000,0.0324,0.013523,0.002678,0.000431,1.484734
7797000,0.0324,0.013523,0.002678,0.000431,1.597796
7798000,0.0324,0.013523,0.002678,0.000431,1.545966
7799000,0.0324,0.013523,0.002678,0.000431,1.539502
7800000,0.0324,0.013523,0.002678,0.000431,1.458290
7801000,0.0324,0.013523,0.002678,0.000431,1.615777
7802000,0.0324,0.013523,0.002678,0.000431,1.729662
7803000,0.0324,0.013523,0.002678,0.000431,1.750935
7804000,0.0324,0.013523,0.002678,0.000431,1.852009
7805000,0.0324,0.013523,0.002678,0.000431,1.745529
7806000,0.0324,0.013523,0.002678,0.000431,1.627413
7807000,0.0324,0.013523,0.002678,0.000431,1.656677
7808000,0.0324,0.013523,0.002678,0.000431,1.466047
7809000,0.0324,0.013523,0.002678,0.000431,1.614602
7810000,0.0324,0.013523,0.002678,0.000431,1.727899
7811000,0.0324,0.013523,0.002678,0.000431,1.527984
7812000,0.0324,0.013523,0.002678,0.000431,1.611311
7813000,0.0324,0.013523,0.002678,0.000431,1.601557
7814000,0.0324,0.013523,0.002678,0.000431,1.612487
7815000,0.0324,0.013523,0.002678,0.000431,1.541970
7816000,0.0324,0.013523,0.002678,0.000431,1.540089
7817000,0.0324,0.013523,0.002678,0.000431,1.468280
7818000,0.0324,0.013523,0.002678,0.000431,1.522225
7819000,0.0324,0.013523,0.002678,0.000431,1.618833
7820000,0.0324,0.013523,0.002678,0.000431,1.669840
7821000,0.0324,0.013523,0.002678,0.000431,1.865877
7822000,0.0324,0.013523,0.002678,0.000431,1.704394
7823000,0.0324,0.013523,0.002678,0.000431,1.786546
7824000,0.0324,0.013523,0.002678,0.000431,1.707567
7825000,0.0324,0.013523,0.002678,0.000431,1.821099
7826000,0.0324,0.013523,0.002678,0.000431,1.577933
7827000,0.0324,0.013523,0.002678,0.000431,1.717322
7828000,0.0324,0.013523,0.002678,0.000431,1.754108
7829000,0.0324,0.013523,0.002678,0.000431,1.542440
7830000,0.0324,0.013523,0.002678,0.000431,1.622242
7831000,0.0324,0.013523,0.002678,0.000431,1.637285
7832000,0.0324,0.013523,0.002678,0.000431,1.733893
7833000,0.0324,0.013523,0.002678,0.000431,1.463578
7834000,0.0324,0.013523,0.002678,0.000431,1.605435
7835000,0.0324,0.013523,0.002678,0.000431,1.481325
7836000,0.0324,0.013523,0.002678,0.000431,1.749995
7837000,0.0324,0.013523,0.002678,0.000431,1.550902
7838000,0.0324,0.013523,0.002678,0.000431,1.694874
7839000,0.0324,0.013523,0.002678,0.000431,1.773618
7840000,0.0324,0.013523,0.002678,0.000431,1.799592
7841000,0.0324,0.013523,0.002678,0.000431,1.614485
7842000,0.0324,0.013523,0.002678,0.000431,1.730838
7843000,0.0324,0.013523,0.002678,0.000431,1.752933
7844000,0.0324,0.013523,0.002678,0.000431,1.773383
7845000,0.0324,0.013523,0.002678,0.000431,1.814165
7846000,0.0324,0.013523,0.002678,0.000431,1.591332
7847000,0.0324,0.013523,0.002678,0.000431,1.608021
7848000,0.0324,0.013523,0.002678,0.000431,1.579461
7849000,0.0324,0.013523,0.002678,0.000431,1.591802
7850000,0.0324,0.013523,0.002678,0.000431,1.705334
7851000,0.0324,0.013523,0.002678,0.000431,1.731543
7852000,0.0324,0.013523,0.002678,0.000431,1.502128
7853000,0.0324,0.013523,0.002678,0.000431,1.736479
7854000,0.0324,0.013523,0.002678,0.000431,1.706274
7855000,0.0324,0.013523,0.002678,0.000431,1.734951
7856000,0.0324,0.013523,0.002678,0.000431,1.598618
7857000,0.0324,0.013523,0.002678,0.000431,1.592272
7858000,0.0324,0.013523,0.002678,0.000431,1.611076
7859000,0.0324,0.013523,0.002678,0.000431,1.615777
7860000,0.0324,0.013523,0.002678,0.000431,1.549021
7861000,0.0324,0.013523,0.002678,0.000431,1.579814
7862000,0.0324,0.013523,0.002678,0.000431,1.585690
7863000,0.0324,0.013523,0.002678,0.000431,1.658558
7864000,0.0324,0.013523,0.002678,0.000431,1.626943
7865000,0.0324,0.013523,0.002678,0.000431,1.668313
7866000,0.0324,0.013523,0.002678,0.000431,1.730838
7867000,0.0324,0.013523,0.002678,0.000431,1.593447
7868000,0.0324,0.013523,0.002678,0.000431,1.721200
7869000,0.0324,0.013523,0.002678,0.000431,1.775616
7870000,0.0324,0.013523,0.002678,0.000431,1.699458
7871000,0.0324,0.013523,0.002678,0.000431,1.550314
7872000,0.0324,0.013523,0.002678,0.000431,1.692523
7873000,0.0324,0.013523,0.002678,0.000431,1.727077
7874000,0.0324,0.013523,0.002678,0.000431,1.551254
7875000,0.0324,0.013523,0.002678,0.000431,1.612369
7876000,0.0324,0.013523,0.002678,0.000431,1.666080
7877000,0.0324,0.013523,0.002678,0.000431,1.570412
7878000,0.0324,0.013523,0.002678,0.000431,1.665727
7879000,0.0324,0.013523,0.002678,0.000431,1.564300
7880000,0.0324,0.013523,0.002678,0.000431,1.567238
7881000,0.0324,0.013523,0.002678,0.000431,1.623769
7882000,0.0324,0.013523,0.002678,0.000431,1.647980
7883000,0.0324,0.013523,0.002678,0.000431,1.642456
7884000,0.0324,0.013523,0.002678,0.000431,1.425969
7885000,0.0324,0.013523,0.002678,0.000431,1.691583
7886000,0.0324,0.013523,0.002678,0.000431,1.682063
7887000,0.0324,0.013523,0.002678,0.000431,1.441836
7888000,0.0324,0.013523,0.002678,0.000431,1.724961
7889000,0.0324,0.013523,0.002678,0.000431,1.669018
7890000,0.0324,0.013523,0.002678,0.000431,1.537974
7891000,0.0324,0.013523,0.002678,0.000431,1.543028
7892000,0.0324,0.013523,0.002678,0.000431,1.622359
7893000,0.0324,0.013523,0.002678,0.000431,1.657853
7894000,0.0324,0.013523,0.002678,0.000431,1.722846
7895000,0.0324,0.013523,0.002678,0.000431,1.611899
7896000,0.0324,0.013523,0.002678,0.000431,1.507652
7897000,0.0324,0.013523,0.002678,0.000431,1.520815
7898000,0.0324,0.013523,0.002678,0.000431,1.763980
7899000,0.0324,0.013523,0.002678,0.000431,1.638343
7900000,0.0324,0.013523,0.002678,0.000431,1.619303
7901000,0.0324,0.013523,0.002678,0.000431,1.586983
7902000,0.0324,0.013523,0.002678,0.000431,1.548551
7903000,0.0324,0.013523,0.002678,0.000431,1.484263
7904000,0.0324,0.013523,0.002678,0.000431,1.456997
7905000,0.0324,0.013523,0.002678,0.000431,1.394354
7906000,0.0324,0.013523,0.002678,0.000431,1.637168
7907000,0.0324,0.013523,0.002678,0.000431,1.454176
7908000,0.0324,0.013523,0.002678,0.000431,1.600499
7909000,0.0324,0.013523,0.002678,0.000431,1.641516
7910000,0.0324,0.013523,0.002678,0.000431,1.589569
7911000,0.0324,0.013523,0.002678,0.000431,1.620479
7912000,0.0324,0.013523,0.002678,0.000431,1.483793
7913000,0.0324,0.013523,0.002678,0.000431,1.615072
7914000,0.0324,0.013523,0.002678,0.000431,1.695344
7915000,0.0324,0.013523,0.002678,0.000431,1.589804
7916000,0.0324,0.013523,0.002678,0.000431,1.780552
7917000,0.0324,0.013523,0.002678,0.000431,1.673249
7918000,0.0324,0.013523,0.002678,0.000431,1.680771
7919000,0.0324,0.013523,0.002678,0.000431,1.613897
7920000,0.0324,0.013523,0.002678,0.000431,1.690173
7921000,0.0324,0.013523,0.002678,0.000431,1.700985
7922000,0.0324,0.013523,0.002678,0.000431,1.631644
7923000,0.0324,0.013523,0.002678,0.000431,1.569589
7924000,0.0324,0.013523,0.002678,0.000431,1.451473
7925000,0.0324,0.013523,0.002678,0.000431,1.546788
7926000,0.0324,0.013523,0.002678,0.000431,1.586630
7927000,0.0324,0.013523,0.002678,0.000431,1.784548
7928000,0.0324,0.013523,0.002678,0.000431,1.784195
7929000,0.0324,0.013523,0.002678,0.000431,1.576523
7930000,0.0324,0.013523,0.002678,0.000431,1.644102
7931000,0.0324,0.013523,0.002678,0.000431,1.732953
7932000,0.0324,0.013523,0.002678,0.000431,1.446537
7933000,0.0324,0.013523,0.002678,0.000431,1.662789
7934000,0.0324,0.013523,0.002678,0.000431,1.729897
7935000,0.0324,0.013523,0.002678,0.000431,1.681358
7936000,0.0324,0.013523,0.002678,0.000431,1.558189
7937000,0.0324,0.013523,0.002678,0.000431,1.627060
7938000,0.0324,0.013523,0.002678,0.000431,1.591802
7939000,0.0324,0.013523,0.002678,0.000431,1.786311
7940000,0.0324,0.013523,0.002678,0.000431,1.697577
7941000,0.0324,0.013523,0.002678,0.000431,1.806408
7942000,0.0324,0.013523,0.002678,0.000431,1.762453
7943000,0.0324,0.013523,0.002678,0.000431,1.593800
7944000,0.0324,0.013523,0.002678,0.000431,1.631409
7945000,0.0324,0.013523,0.002678,0.000431,1.722140
7946000,0.0324,0.013523,0.002678,0.000431,1.610959
7947000,0.0324,0.013523,0.002678,0.000431,1.509062
7948000,0.0324,0.013523,0.002678,0.000431,1.539384
7949000,0.0324,0.013523,0.002678,0.000431,1.673954
7950000,0.0324,0.013523,0.002678,0.000431,1.512705
7951000,0.0324,0.013523,0.002678,0.000431,1.613309
7952000,0.0324,0.013523,0.002678,0.000431,1.710975
7953000,0.0324,0.013523,0.002678,0.000431,1.690643
7954000,0.0324,0.013523,0.002678,0.000431,1.422561
7955000,0.0324,0.013523,0.002678,0.000431,1.682298
7956000,0.0324,0.013523,0.002678,0.000431,1.657970
7957000,0.0324,0.013523,0.002678,0.000431,1.681946
7958000,0.0324,0.013523,0.002678,0.000431,1.521167
7959000,0.0324,0.013523,0.002678,0.000431,1.566533
7960000,0.0324,0.013523,0.002678,0.000431,1.536681
7961000,0.0324,0.013523,0.002678,0.000431,1.539384
7962000,0.0324,0.013523,0.002678,0.000431,1.536211
7963000,0.0324,0.013523,0.002678,0.000431,1.740945
7964000,0.0324,0.013523,0.002678,0.000431,1.728252
7965000,0.0324,0.013523,0.002678,0.000431,1.709095
7966000,0.0324,0.013523,0.002678,0.000431,1.700515
7967000,0.0324,0.013523,0.002678,0.000431,1.596973
7968000,0.0324,0.013523,0.002678,0.000431,1.714854
7969000,0.0324,0.013523,0.002678,0.000431,1.635052
7970000,0.0324,0.013523,0.002678,0.000431,1.668195
7971000,0.0324,0.013523,0.002678,0.000431,1.615307
7972000,0.0324,0.013523,0.002678,0.000431,1.738477
7973000,0.0324,0.013523,0.002678,0.000431,1.715794
7974000,0.0324,0.013523,0.002678,0.000431,1.689233
7975000,0.0324,0.013523,0.002678,0.000431,1.523400
7976000,0.0324,0.013523,0.002678,0.000431,1.594857
7977000,0.0324,0.013523,0.002678,0.000431,1.558306
7978000,0.0324,0.013523,0.002678,0.000431,1.759162
7979000,0.0324,0.013523,0.002678,0.000431,1.502010
7980000,0.0324,0.013523,0.002678,0.000431,1.734951
7981000,0.0324,0.013523,0.002678,0.000431,1.570059
7982000,0.0324,0.013523,0.002678,0.000431,1.483206
7983000,0.0324,0.013523,0.002678,0.000431,1.635875
7984000,0.0324,0.013523,0.002678,0.000431,1.684414
7985000,0.0324,0.013523,0.002678,0.000431,1.636697
7986000,0.0324,0.013523,0.002678,0.000431,1.654327
7987000,0.0324,0.013523,0.002678,0.000431,1.557954
7988000,0.0324,0.013523,0.002678,0.000431,1.549374
7989000,0.0324,0.013523,0.002678,0.000431,1.537269
7990000,0.0324,0.013523,0.002678,0.000431,1.718380
7991000,0.0324,0.013523,0.002678,0.000431,1.692053
7992000,0.0324,0.013523,0.002678,0.000431,1.736361
7993000,0.0324,0.013523,0.002678,0.000431,1.758104
7994000,0.0324,0.013523,0.002678,0.000431,1.580401
7995000,0.0324,0.013523,0.002678,0.000431,1.717557
7996000,0.0324,0.013523,0.002678,0.000431,1.650918
7997000,0.0324,0.013523,0.002678,0.000431,1.566181
7998000,0.0324,0.013523,0.002678,0.000431,1.630704
7999000,0.0324,0.013523,0.002678,0.000431,1.602027
