Cycle,Area(mm^2),PeakDynamic(W),SubthresholdLeakage(W),GateLeakage(W),RunTimeDynamic(W)
18000000,0.0324,0.013523,0.002678,0.000431,0.368921
18001000,0.0324,0.013523,0.002678,0.000431,0.375738
18002000,0.0324,0.013523,0.002678,0.000431,0.397245
18003000,0.0324,0.013523,0.002678,0.000431,0.386785
18004000,0.0324,0.013523,0.002678,0.000431,0.396775
18005000,0.0324,0.013523,0.002678,0.000431,0.355053
18006000,0.0324,0.013523,0.002678,0.000431,0.354347
18007000,0.0324,0.013523,0.002678,0.000431,0.326141
18008000,0.0324,0.013523,0.002678,0.000431,0.375032
18009000,0.0324,0.013523,0.002678,0.000431,0.307336
18010000,0.0324,0.013523,0.002678,0.000431,0.404885
18011000,0.0324,0.013523,0.002678,0.000431,0.334485
18012000,0.0324,0.013523,0.002678,0.000431,0.317796
18013000,0.0324,0.013523,0.002678,0.000431,0.327669
18014000,0.0324,0.013523,0.002678,0.000431,0.332487
18015000,0.0324,0.013523,0.002678,0.000431,0.349999
18016000,0.0324,0.013523,0.002678,0.000431,0.342007
18017000,0.0324,0.013523,0.002678,0.000431,0.371507
18018000,0.0324,0.013523,0.002678,0.000431,0.356345
18019000,0.0324,0.013523,0.002678,0.000431,0.351879
18020000,0.0324,0.013523,0.002678,0.000431,0.383612
18021000,0.0324,0.013523,0.002678,0.000431,0.370449
18022000,0.0324,0.013523,0.002678,0.000431,0.364572
18023000,0.0324,0.013523,0.002678,0.000431,0.355053
18024000,0.0324,0.013523,0.002678,0.000431,0.360224
18025000,0.0324,0.013523,0.002678,0.000431,0.344123
18026000,0.0324,0.013523,0.002678,0.000431,0.325436
18027000,0.0324,0.013523,0.002678,0.000431,0.394425
18028000,0.0324,0.013523,0.002678,0.000431,0.303575
18029000,0.0324,0.013523,0.002678,0.000431,0.395130
18030000,0.0324,0.013523,0.002678,0.000431,0.337894
18031000,0.0324,0.013523,0.002678,0.000431,0.383142
18032000,0.0324,0.013523,0.002678,0.000431,0.334015
18033000,0.0324,0.013523,0.002678,0.000431,0.354112
18034000,0.0324,0.013523,0.002678,0.000431,0.304163
18035000,0.0324,0.013523,0.002678,0.000431,0.408175
18036000,0.0324,0.013523,0.002678,0.000431,0.305926
18037000,0.0324,0.013523,0.002678,0.000431,0.376678
18038000,0.0324,0.013523,0.002678,0.000431,0.299109
18039000,0.0324,0.013523,0.002678,0.000431,0.386785
18040000,0.0324,0.013523,0.002678,0.000431,0.371036
18041000,0.0324,0.013523,0.002678,0.000431,0.322262
18042000,0.0324,0.013523,0.002678,0.000431,0.314858
18043000,0.0324,0.013523,0.002678,0.000431,0.321322
18044000,0.0324,0.013523,0.002678,0.000431,0.312978
18045000,0.0324,0.013523,0.002678,0.000431,0.337894
18046000,0.0324,0.013523,0.002678,0.000431,0.283008
18047000,0.0324,0.013523,0.002678,0.000431,0.378911
18048000,0.0324,0.013523,0.002678,0.000431,0.323908
18049000,0.0324,0.013523,0.002678,0.000431,0.348118
18050000,0.0324,0.013523,0.002678,0.000431,0.367746
18051000,0.0324,0.013523,0.002678,0.000431,0.348589
18052000,0.0324,0.013523,0.002678,0.000431,0.314270
18053000,0.0324,0.013523,0.002678,0.000431,0.337306
18054000,0.0324,0.013523,0.002678,0.000431,0.322615
18055000,0.0324,0.013523,0.002678,0.000431,0.314505
18056000,0.0324,0.013523,0.002678,0.000431,0.304516
18057000,0.0324,0.013523,0.002678,0.000431,0.295231
18058000,0.0324,0.013523,0.002678,0.000431,0.314153
18059000,0.0324,0.013523,0.002678,0.000431,0.324613
18060000,0.0324,0.013523,0.002678,0.000431,0.280657
18061000,0.0324,0.013523,0.002678,0.000431,0.301107
18062000,0.0324,0.013523,0.002678,0.000431,0.304868
18063000,0.0324,0.013523,0.002678,0.000431,0.301577
18064000,0.0324,0.013523,0.002678,0.000431,0.313800
18065000,0.0324,0.013523,0.002678,0.000431,0.305691
18066000,0.0324,0.013523,0.002678,0.000431,0.322145
18067000,0.0324,0.013523,0.002678,0.000431,0.375150
18068000,0.0324,0.013523,0.002678,0.000431,0.321675
18069000,0.0324,0.013523,0.002678,0.000431,0.334368
18070000,0.0324,0.013523,0.002678,0.000431,0.314388
18071000,0.0324,0.013523,0.002678,0.000431,0.298522
18072000,0.0324,0.013523,0.002678,0.000431,0.334015
18073000,0.0324,0.013523,0.002678,0.000431,0.277367
18074000,0.0324,0.013523,0.002678,0.000431,0.308747
18075000,0.0324,0.013523,0.002678,0.000431,0.304751
18076000,0.0324,0.013523,0.002678,0.000431,0.310039
18077000,0.0324,0.013523,0.002678,0.000431,0.319559
18078000,0.0324,0.013523,0.002678,0.000431,0.298287
18079000,0.0324,0.013523,0.002678,0.000431,0.312155
18080000,0.0324,0.013523,0.002678,0.000431,0.309334
18081000,0.0324,0.013523,0.002678,0.000431,0.284653
18082000,0.0324,0.013523,0.002678,0.000431,0.296759
18083000,0.0324,0.013523,0.002678,0.000431,0.317209
18084000,0.0324,0.013523,0.002678,0.000431,0.340009
18085000,0.0324,0.013523,0.002678,0.000431,0.277719
18086000,0.0324,0.013523,0.002678,0.000431,0.312742
18087000,0.0324,0.013523,0.002678,0.000431,0.300637
18088000,0.0324,0.013523,0.002678,0.000431,0.299932
18089000,0.0324,0.013523,0.002678,0.000431,0.285358
18090000,0.0324,0.013523,0.002678,0.000431,0.314623
18091000,0.0324,0.013523,0.002678,0.000431,0.304868
18092000,0.0324,0.013523,0.002678,0.000431,0.309804
18093000,0.0324,0.013523,0.002678,0.000431,0.277954
18094000,0.0324,0.013523,0.002678,0.000431,0.333898
18095000,0.0324,0.013523,0.002678,0.000431,0.269962
18096000,0.0324,0.013523,0.002678,0.000431,0.280657
18097000,0.0324,0.013523,0.002678,0.000431,0.265261
18098000,0.0324,0.013523,0.002678,0.000431,0.298051
18099000,0.0324,0.013523,0.002678,0.000431,0.303810
18100000,0.0324,0.013523,0.002678,0.000431,0.262323
18101000,0.0324,0.013523,0.002678,0.000431,0.290295
18102000,0.0324,0.013523,0.002678,0.000431,0.240228
18103000,0.0324,0.013523,0.002678,0.000431,0.294408
18104000,0.0324,0.013523,0.002678,0.000431,0.249982
18105000,0.0324,0.013523,0.002678,0.000431,0.306513
18106000,0.0324,0.013523,0.002678,0.000431,0.274076
18107000,0.0324,0.013523,0.002678,0.000431,0.298404
18108000,0.0324,0.013523,0.002678,0.000431,0.273371
18109000,0.0324,0.013523,0.002678,0.000431,0.260560
18110000,0.0324,0.013523,0.002678,0.000431,0.260325
18111000,0.0324,0.013523,0.002678,0.000431,0.292410
18112000,0.0324,0.013523,0.002678,0.000431,0.302518
18113000,0.0324,0.013523,0.002678,0.000431,0.280305
18114000,0.0324,0.013523,0.002678,0.000431,0.303810
18115000,0.0324,0.013523,0.002678,0.000431,0.267729
18116000,0.0324,0.013523,0.002678,0.000431,0.264086
18117000,0.0324,0.013523,0.002678,0.000431,0.269845
18118000,0.0324,0.013523,0.002678,0.000431,0.259267
18119000,0.0324,0.013523,0.002678,0.000431,0.242461
18120000,0.0324,0.013523,0.002678,0.000431,0.281480
18121000,0.0324,0.013523,0.002678,0.000431,0.243283
18122000,0.0324,0.013523,0.002678,0.000431,0.268434
18123000,0.0324,0.013523,0.002678,0.000431,0.240698
18124000,0.0324,0.013523,0.002678,0.000431,0.258680
18125000,0.0324,0.013523,0.002678,0.000431,0.239875
18126000,0.0324,0.013523,0.002678,0.000431,0.264791
18127000,0.0324,0.013523,0.002678,0.000431,0.238817
18128000,0.0324,0.013523,0.002678,0.000431,0.229180
18129000,0.0324,0.013523,0.002678,0.000431,0.240815
18130000,0.0324,0.013523,0.002678,0.000431,0.270785
18131000,0.0324,0.013523,0.002678,0.000431,0.256564
18132000,0.0324,0.013523,0.002678,0.000431,0.224009
18133000,0.0324,0.013523,0.002678,0.000431,0.288884
18134000,0.0324,0.013523,0.002678,0.000431,0.208848
18135000,0.0324,0.013523,0.002678,0.000431,0.241050
18136000,0.0324,0.013523,0.002678,0.000431,0.220483
18137000,0.0324,0.013523,0.002678,0.000431,0.236467
18138000,0.0324,0.013523,0.002678,0.000431,0.212844
18139000,0.0324,0.013523,0.002678,0.000431,0.255036
18140000,0.0324,0.013523,0.002678,0.000431,0.253391
18141000,0.0324,0.013523,0.002678,0.000431,0.251275
18142000,0.0324,0.013523,0.002678,0.000431,0.243753
18143000,0.0324,0.013523,0.002678,0.000431,0.210375
18144000,0.0324,0.013523,0.002678,0.000431,0.248102
18145000,0.0324,0.013523,0.002678,0.000431,0.216839
18146000,0.0324,0.013523,0.002678,0.000431,0.225654
18147000,0.0324,0.013523,0.002678,0.000431,0.198858
18148000,0.0324,0.013523,0.002678,0.000431,0.228357
18149000,0.0324,0.013523,0.002678,0.000431,0.213901
18150000,0.0324,0.013523,0.002678,0.000431,0.223774
18151000,0.0324,0.013523,0.002678,0.000431,0.210846
18152000,0.0324,0.013523,0.002678,0.000431,0.248455
18153000,0.0324,0.013523,0.002678,0.000431,0.229768
18154000,0.0324,0.013523,0.002678,0.000431,0.252568
18155000,0.0324,0.013523,0.002678,0.000431,0.231295
18156000,0.0324,0.013523,0.002678,0.000431,0.260090
18157000,0.0324,0.013523,0.002678,0.000431,0.234704
18158000,0.0324,0.013523,0.002678,0.000431,0.229650
18159000,0.0324,0.013523,0.002678,0.000431,0.224009
18160000,0.0324,0.013523,0.002678,0.000431,0.233411
18161000,0.0324,0.013523,0.002678,0.000431,0.208260
18162000,0.0324,0.013523,0.002678,0.000431,0.201326
18163000,0.0324,0.013523,0.002678,0.000431,0.212844
18164000,0.0324,0.013523,0.002678,0.000431,0.214371
18165000,0.0324,0.013523,0.002678,0.000431,0.213314
18166000,0.0324,0.013523,0.002678,0.000431,0.202736
18167000,0.0324,0.013523,0.002678,0.000431,0.227652
18168000,0.0324,0.013523,0.002678,0.000431,0.219543
18169000,0.0324,0.013523,0.002678,0.000431,0.247984
18170000,0.0324,0.013523,0.002678,0.000431,0.215547
18171000,0.0324,0.013523,0.002678,0.000431,0.221776
18172000,0.0324,0.013523,0.002678,0.000431,0.196977
18173000,0.0324,0.013523,0.002678,0.000431,0.228710
18174000,0.0324,0.013523,0.002678,0.000431,0.204029
18175000,0.0324,0.013523,0.002678,0.000431,0.193451
18176000,0.0324,0.013523,0.002678,0.000431,0.242931
18177000,0.0324,0.013523,0.002678,0.000431,0.276779
18178000,0.0324,0.013523,0.002678,0.000431,0.238700
18179000,0.0324,0.013523,0.002678,0.000431,0.219895
18180000,0.0324,0.013523,0.002678,0.000431,0.171356
18181000,0.0324,0.013523,0.002678,0.000431,0.189220
18182000,0.0324,0.013523,0.002678,0.000431,0.155372
18183000,0.0324,0.013523,0.002678,0.000431,0.218485
18184000,0.0324,0.013523,0.002678,0.000431,0.172884
18185000,0.0324,0.013523,0.002678,0.000431,0.207437
18186000,0.0324,0.013523,0.002678,0.000431,0.171474
18187000,0.0324,0.013523,0.002678,0.000431,0.203324
18188000,0.0324,0.013523,0.002678,0.000431,0.211551
18189000,0.0324,0.013523,0.002678,0.000431,0.237172
18190000,0.0324,0.013523,0.002678,0.000431,0.180993
18191000,0.0324,0.013523,0.002678,0.000431,0.210846
18192000,0.0324,0.013523,0.002678,0.000431,0.171944
18193000,0.0324,0.013523,0.002678,0.000431,0.194274
18194000,0.0324,0.013523,0.002678,0.000431,0.184872
18195000,0.0324,0.013523,0.002678,0.000431,0.196037
18196000,0.0324,0.013523,0.002678,0.000431,0.167830
18197000,0.0324,0.013523,0.002678,0.000431,0.194979
18198000,0.0324,0.013523,0.002678,0.000431,0.168418
18199000,0.0324,0.013523,0.002678,0.000431,0.176057
18200000,0.0324,0.013523,0.002678,0.000431,0.187105
18201000,0.0324,0.013523,0.002678,0.000431,0.179113
18202000,0.0324,0.013523,0.002678,0.000431,0.194627
18203000,0.0324,0.013523,0.002678,0.000431,0.211316
18204000,0.0324,0.013523,0.002678,0.000431,0.176175
18205000,0.0324,0.013523,0.002678,0.000431,0.185459
18206000,0.0324,0.013523,0.002678,0.000431,0.191688
18207000,0.0324,0.013523,0.002678,0.000431,0.191101
18208000,0.0324,0.013523,0.002678,0.000431,0.172649
18209000,0.0324,0.013523,0.002678,0.000431,0.198623
18210000,0.0324,0.013523,0.002678,0.000431,0.180406
18211000,0.0324,0.013523,0.002678,0.000431,0.168300
18212000,0.0324,0.013523,0.002678,0.000431,0.157253
18213000,0.0324,0.013523,0.002678,0.000431,0.191806
18214000,0.0324,0.013523,0.002678,0.000431,0.176410
18215000,0.0324,0.013523,0.002678,0.000431,0.171826
18216000,0.0324,0.013523,0.002678,0.000431,0.142797
18217000,0.0324,0.013523,0.002678,0.000431,0.152081
18218000,0.0324,0.013523,0.002678,0.000431,0.159368
18219000,0.0324,0.013523,0.002678,0.000431,0.190631
18220000,0.0324,0.013523,0.002678,0.000431,0.171591
18221000,0.0324,0.013523,0.002678,0.000431,0.165127
18222000,0.0324,0.013523,0.002678,0.000431,0.155372
18223000,0.0324,0.013523,0.002678,0.000431,0.160661
18224000,0.0324,0.013523,0.002678,0.000431,0.176880
18225000,0.0324,0.013523,0.002678,0.000431,0.172296
18226000,0.0324,0.013523,0.002678,0.000431,0.157723
18227000,0.0324,0.013523,0.002678,0.000431,0.133042
18228000,0.0324,0.013523,0.002678,0.000431,0.125520
18229000,0.0324,0.013523,0.002678,0.000431,0.154079
18230000,0.0324,0.013523,0.002678,0.000431,0.140211
18231000,0.0324,0.013523,0.002678,0.000431,0.141621
18232000,0.0324,0.013523,0.002678,0.000431,0.130104
18233000,0.0324,0.013523,0.002678,0.000431,0.141621
18234000,0.0324,0.013523,0.002678,0.000431,0.173237
18235000,0.0324,0.013523,0.002678,0.000431,0.184284
18236000,0.0324,0.013523,0.002678,0.000431,0.150671
18237000,0.0324,0.013523,0.002678,0.000431,0.152317
18238000,0.0324,0.013523,0.002678,0.000431,0.164304
18239000,0.0324,0.013523,0.002678,0.000431,0.138918
18240000,0.0324,0.013523,0.002678,0.000431,0.158428
18241000,0.0324,0.013523,0.002678,0.000431,0.163599
18242000,0.0324,0.013523,0.002678,0.000431,0.164304
18243000,0.0324,0.013523,0.002678,0.000431,0.147733
18244000,0.0324,0.013523,0.002678,0.000431,0.161131
18245000,0.0324,0.013523,0.002678,0.000431,0.156195
18246000,0.0324,0.013523,0.002678,0.000431,0.160896
18247000,0.0324,0.013523,0.002678,0.000431,0.140564
18248000,0.0324,0.013523,0.002678,0.000431,0.148791
18249000,0.0324,0.013523,0.002678,0.000431,0.135157
18250000,0.0324,0.013523,0.002678,0.000431,0.164422
18251000,0.0324,0.013523,0.002678,0.000431,0.170533
18252000,0.0324,0.013523,0.002678,0.000431,0.150201
18253000,0.0324,0.013523,0.002678,0.000431,0.132572
18254000,0.0324,0.013523,0.002678,0.000431,0.165832
18255000,0.0324,0.013523,0.002678,0.000431,0.137038
18256000,0.0324,0.013523,0.002678,0.000431,0.168770
18257000,0.0324,0.013523,0.002678,0.000431,0.148673
18258000,0.0324,0.013523,0.002678,0.000431,0.190161
18259000,0.0324,0.013523,0.002678,0.000431,0.163599
18260000,0.0324,0.013523,0.002678,0.000431,0.183814
18261000,0.0324,0.013523,0.002678,0.000431,0.137273
18262000,0.0324,0.013523,0.002678,0.000431,0.156430
18263000,0.0324,0.013523,0.002678,0.000431,0.144795
18264000,0.0324,0.013523,0.002678,0.000431,0.142914
18265000,0.0324,0.013523,0.002678,0.000431,0.132454
18266000,0.0324,0.013523,0.002678,0.000431,0.176880
18267000,0.0324,0.013523,0.002678,0.000431,0.131749
18268000,0.0324,0.013523,0.002678,0.000431,0.164304
18269000,0.0324,0.013523,0.002678,0.000431,0.129163
18270000,0.0324,0.013523,0.002678,0.000431,0.187457
18271000,0.0324,0.013523,0.002678,0.000431,0.139859
18272000,0.0324,0.013523,0.002678,0.000431,0.152669
18273000,0.0324,0.013523,0.002678,0.000431,0.146558
18274000,0.0324,0.013523,0.002678,0.000431,0.164187
18275000,0.0324,0.013523,0.002678,0.000431,0.160191
18276000,0.0324,0.013523,0.002678,0.000431,0.169476
18277000,0.0324,0.013523,0.002678,0.000431,0.133159
18278000,0.0324,0.013523,0.002678,0.000431,0.155960
18279000,0.0324,0.013523,0.002678,0.000431,0.160543
18280000,0.0324,0.013523,0.002678,0.000431,0.152081
18281000,0.0324,0.013523,0.002678,0.000431,0.134687
18282000,0.0324,0.013523,0.002678,0.000431,0.147263
18283000,0.0324,0.013523,0.002678,0.000431,0.148556
18284000,0.0324,0.013523,0.002678,0.000431,0.151494
18285000,0.0324,0.013523,0.002678,0.000431,0.121524
18286000,0.0324,0.013523,0.002678,0.000431,0.171826
18287000,0.0324,0.013523,0.002678,0.000431,0.114708
18288000,0.0324,0.013523,0.002678,0.000431,0.168065
18289000,0.0324,0.013523,0.002678,0.000431,0.147380
18290000,0.0324,0.013523,0.002678,0.000431,0.163717
18291000,0.0324,0.013523,0.002678,0.000431,0.117058
18292000,0.0324,0.013523,0.002678,0.000431,0.147733
18293000,0.0324,0.013523,0.002678,0.000431,0.139859
18294000,0.0324,0.013523,0.002678,0.000431,0.132572
18295000,0.0324,0.013523,0.002678,0.000431,0.126695
18296000,0.0324,0.013523,0.002678,0.000431,0.151376
18297000,0.0324,0.013523,0.002678,0.000431,0.139036
18298000,0.0324,0.013523,0.002678,0.000431,0.138448
18299000,0.0324,0.013523,0.002678,0.000431,0.153139
18300000,0.0324,0.013523,0.002678,0.000431,0.142327
18301000,0.0324,0.013523,0.002678,0.000431,0.134922
18302000,0.0324,0.013523,0.002678,0.000431,0.119409
18303000,0.0324,0.013523,0.002678,0.000431,0.150201
18304000,0.0324,0.013523,0.002678,0.000431,0.127048
18305000,0.0324,0.013523,0.002678,0.000431,0.114237
18306000,0.0324,0.013523,0.002678,0.000431,0.147028
18307000,0.0324,0.013523,0.002678,0.000431,0.144325
18308000,0.0324,0.013523,0.002678,0.000431,0.121054
18309000,0.0324,0.013523,0.002678,0.000431,0.121877
18310000,0.0324,0.013523,0.002678,0.000431,0.139153
18311000,0.0324,0.013523,0.002678,0.000431,0.138331
18312000,0.0324,0.013523,0.002678,0.000431,0.142914
18313000,0.0324,0.013523,0.002678,0.000431,0.145147
18314000,0.0324,0.013523,0.002678,0.000431,0.152552
18315000,0.0324,0.013523,0.002678,0.000431,0.124932
18316000,0.0324,0.013523,0.002678,0.000431,0.129751
18317000,0.0324,0.013523,0.002678,0.000431,0.119879
18318000,0.0324,0.013523,0.002678,0.000431,0.157018
18319000,0.0324,0.013523,0.002678,0.000431,0.145030
18320000,0.0324,0.013523,0.002678,0.000431,0.125990
18321000,0.0324,0.013523,0.002678,0.000431,0.143619
18322000,0.0324,0.013523,0.002678,0.000431,0.129516
18323000,0.0324,0.013523,0.002678,0.000431,0.177703
18324000,0.0324,0.013523,0.002678,0.000431,0.127401
18325000,0.0324,0.013523,0.002678,0.000431,0.124110
18326000,0.0324,0.013523,0.002678,0.000431,0.129986
18327000,0.0324,0.013523,0.002678,0.000431,0.108243
18328000,0.0324,0.013523,0.002678,0.000431,0.135392
18329000,0.0324,0.013523,0.002678,0.000431,0.105188
18330000,0.0324,0.013523,0.002678,0.000431,0.132807
18331000,0.0324,0.013523,0.002678,0.000431,0.135157
18332000,0.0324,0.013523,0.002678,0.000431,0.102837
18333000,0.0324,0.013523,0.002678,0.000431,0.116470
18334000,0.0324,0.013523,0.002678,0.000431,0.143384
18335000,0.0324,0.013523,0.002678,0.000431,0.124227
18336000,0.0324,0.013523,0.002678,0.000431,0.135510
18337000,0.0324,0.013523,0.002678,0.000431,0.124462
18338000,0.0324,0.013523,0.002678,0.000431,0.121407
18339000,0.0324,0.013523,0.002678,0.000431,0.123992
18340000,0.0324,0.013523,0.002678,0.000431,0.124932
18341000,0.0324,0.013523,0.002678,0.000431,0.108361
18342000,0.0324,0.013523,0.002678,0.000431,0.100487
18343000,0.0324,0.013523,0.002678,0.000431,0.100369
18344000,0.0324,0.013523,0.002678,0.000431,0.100487
18345000,0.0324,0.013523,0.002678,0.000431,0.129163
18346000,0.0324,0.013523,0.002678,0.000431,0.090732
18347000,0.0324,0.013523,0.002678,0.000431,0.105540
18348000,0.0324,0.013523,0.002678,0.000431,0.110594
18349000,0.0324,0.013523,0.002678,0.000431,0.113885
18350000,0.0324,0.013523,0.002678,0.000431,0.135275
18351000,0.0324,0.013523,0.002678,0.000431,0.129986
18352000,0.0324,0.013523,0.002678,0.000431,0.114002
18353000,0.0324,0.013523,0.002678,0.000431,0.127871
18354000,0.0324,0.013523,0.002678,0.000431,0.128223
18355000,0.0324,0.013523,0.002678,0.000431,0.104012
18356000,0.0324,0.013523,0.002678,0.000431,0.120114
18357000,0.0324,0.013523,0.002678,0.000431,0.121289
18358000,0.0324,0.013523,0.002678,0.000431,0.106598
18359000,0.0324,0.013523,0.002678,0.000431,0.119174
18360000,0.0324,0.013523,0.002678,0.000431,0.099194
18361000,0.0324,0.013523,0.002678,0.000431,0.112004
18362000,0.0324,0.013523,0.002678,0.000431,0.093435
18363000,0.0324,0.013523,0.002678,0.000431,0.117646
18364000,0.0324,0.013523,0.002678,0.000431,0.085678
18365000,0.0324,0.013523,0.002678,0.000431,0.123875
18366000,0.0324,0.013523,0.002678,0.000431,0.091907
18367000,0.0324,0.013523,0.002678,0.000431,0.121877
18368000,0.0324,0.013523,0.002678,0.000431,0.116235
18369000,0.0324,0.013523,0.002678,0.000431,0.104718
18370000,0.0324,0.013523,0.002678,0.000431,0.113767
18371000,0.0324,0.013523,0.002678,0.000431,0.086736
18372000,0.0324,0.013523,0.002678,0.000431,0.092847
18373000,0.0324,0.013523,0.002678,0.000431,0.110829
18374000,0.0324,0.013523,0.002678,0.000431,0.135392
18375000,0.0324,0.013523,0.002678,0.000431,0.104483
18376000,0.0324,0.013523,0.002678,0.000431,0.100016
18377000,0.0324,0.013523,0.002678,0.000431,0.073220
18378000,0.0324,0.013523,0.002678,0.000431,0.107068
18379000,0.0324,0.013523,0.002678,0.000431,0.082152
18380000,0.0324,0.013523,0.002678,0.000431,0.130104
18381000,0.0324,0.013523,0.002678,0.000431,0.077569
18382000,0.0324,0.013523,0.002678,0.000431,0.113885
18383000,0.0324,0.013523,0.002678,0.000431,0.081212
18384000,0.0324,0.013523,0.002678,0.000431,0.083210
18385000,0.0324,0.013523,0.002678,0.000431,0.070634
18386000,0.0324,0.013523,0.002678,0.000431,0.071575
18387000,0.0324,0.013523,0.002678,0.000431,0.068872
18388000,0.0324,0.013523,0.002678,0.000431,0.074865
18389000,0.0324,0.013523,0.002678,0.000431,0.063583
18390000,0.0324,0.013523,0.002678,0.000431,0.092612
18391000,0.0324,0.013523,0.002678,0.000431,0.085678
18392000,0.0324,0.013523,0.002678,0.000431,0.087088
18393000,0.0324,0.013523,0.002678,0.000431,0.063113
18394000,0.0324,0.013523,0.002678,0.000431,0.061232
18395000,0.0324,0.013523,0.002678,0.000431,0.072045
18396000,0.0324,0.013523,0.002678,0.000431,0.076981
18397000,0.0324,0.013523,0.002678,0.000431,0.079684
18398000,0.0324,0.013523,0.002678,0.000431,0.102837
18399000,0.0324,0.013523,0.002678,0.000431,0.064523
18400000,0.0324,0.013523,0.002678,0.000431,0.083915
18401000,0.0324,0.013523,0.002678,0.000431,0.073573
18402000,0.0324,0.013523,0.002678,0.000431,0.119056
18403000,0.0324,0.013523,0.002678,0.000431,0.078861
18404000,0.0324,0.013523,0.002678,0.000431,0.081330
18405000,0.0324,0.013523,0.002678,0.000431,0.066403
18406000,0.0324,0.013523,0.002678,0.000431,0.085796
18407000,0.0324,0.013523,0.002678,0.000431,0.072045
18408000,0.0324,0.013523,0.002678,0.000431,0.074395
18409000,0.0324,0.013523,0.002678,0.000431,0.068989
18410000,0.0324,0.013523,0.002678,0.000431,0.079449
18411000,0.0324,0.013523,0.002678,0.000431,0.059704
18412000,0.0324,0.013523,0.002678,0.000431,0.080389
18413000,0.0324,0.013523,0.002678,0.000431,0.070869
18414000,0.0324,0.013523,0.002678,0.000431,0.081800
18415000,0.0324,0.013523,0.002678,0.000431,0.082270
18416000,0.0324,0.013523,0.002678,0.000431,0.066756
18417000,0.0324,0.013523,0.002678,0.000431,0.076628
18418000,0.0324,0.013523,0.002678,0.000431,0.071457
18419000,0.0324,0.013523,0.002678,0.000431,0.077686
18420000,0.0324,0.013523,0.002678,0.000431,0.069342
18421000,0.0324,0.013523,0.002678,0.000431,0.072985
18422000,0.0324,0.013523,0.002678,0.000431,0.066756
18423000,0.0324,0.013523,0.002678,0.000431,0.076628
18424000,0.0324,0.013523,0.002678,0.000431,0.060880
18425000,0.0324,0.013523,0.002678,0.000431,0.108714
18426000,0.0324,0.013523,0.002678,0.000431,0.076981
18427000,0.0324,0.013523,0.002678,0.000431,0.097313
18428000,0.0324,0.013523,0.002678,0.000431,0.085913
18429000,0.0324,0.013523,0.002678,0.000431,0.072045
18430000,0.0324,0.013523,0.002678,0.000431,0.064993
18431000,0.0324,0.013523,0.002678,0.000431,0.086383
18432000,0.0324,0.013523,0.002678,0.000431,0.072985
18433000,0.0324,0.013523,0.002678,0.000431,0.076276
18434000,0.0324,0.013523,0.002678,0.000431,0.068872
18435000,0.0324,0.013523,0.002678,0.000431,0.090144
18436000,0.0324,0.013523,0.002678,0.000431,0.060880
18437000,0.0324,0.013523,0.002678,0.000431,0.089556
18438000,0.0324,0.013523,0.002678,0.000431,0.062643
18439000,0.0324,0.013523,0.002678,0.000431,0.086148
18440000,0.0324,0.013523,0.002678,0.000431,0.052418
18441000,0.0324,0.013523,0.002678,0.000431,0.082152
18442000,0.0324,0.013523,0.002678,0.000431,0.056766
18443000,0.0324,0.013523,0.002678,0.000431,0.068284
18444000,0.0324,0.013523,0.002678,0.000431,0.059117
18445000,0.0324,0.013523,0.002678,0.000431,0.082975
18446000,0.0324,0.013523,0.002678,0.000431,0.062760
18447000,0.0324,0.013523,0.002678,0.000431,0.082505
18448000,0.0324,0.013523,0.002678,0.000431,0.051830
18449000,0.0324,0.013523,0.002678,0.000431,0.080624
18450000,0.0324,0.013523,0.002678,0.000431,0.066286
18451000,0.0324,0.013523,0.002678,0.000431,0.091202
18452000,0.0324,0.013523,0.002678,0.000431,0.072750
18453000,0.0324,0.013523,0.002678,0.000431,0.082387
18454000,0.0324,0.013523,0.002678,0.000431,0.070047
18455000,0.0324,0.013523,0.002678,0.000431,0.081917
18456000,0.0324,0.013523,0.002678,0.000431,0.067696
18457000,0.0324,0.013523,0.002678,0.000431,0.071692
18458000,0.0324,0.013523,0.002678,0.000431,0.071575
18459000,0.0324,0.013523,0.002678,0.000431,0.075923
18460000,0.0324,0.013523,0.002678,0.000431,0.074983
18461000,0.0324,0.013523,0.002678,0.000431,0.081682
18462000,0.0324,0.013523,0.002678,0.000431,0.076276
18463000,0.0324,0.013523,0.002678,0.000431,0.066874
18464000,0.0324,0.013523,0.002678,0.000431,0.077569
18465000,0.0324,0.013523,0.002678,0.000431,0.076746
18466000,0.0324,0.013523,0.002678,0.000431,0.083798
18467000,0.0324,0.013523,0.002678,0.000431,0.069577
18468000,0.0324,0.013523,0.002678,0.000431,0.069577
18469000,0.0324,0.013523,0.002678,0.000431,0.078979
18470000,0.0324,0.013523,0.002678,0.000431,0.065463
18471000,0.0324,0.013523,0.002678,0.000431,0.066051
18472000,0.0324,0.013523,0.002678,0.000431,0.073455
18473000,0.0324,0.013523,0.002678,0.000431,0.057706
18474000,0.0324,0.013523,0.002678,0.000431,0.075101
18475000,0.0324,0.013523,0.002678,0.000431,0.075806
18476000,0.0324,0.013523,0.002678,0.000431,0.076981
18477000,0.0324,0.013523,0.002678,0.000431,0.058999
18478000,0.0324,0.013523,0.002678,0.000431,0.064758
18479000,0.0324,0.013523,0.002678,0.000431,0.068636
18480000,0.0324,0.013523,0.002678,0.000431,0.063818
18481000,0.0324,0.013523,0.002678,0.000431,0.079919
18482000,0.0324,0.013523,0.002678,0.000431,0.085090
18483000,0.0324,0.013523,0.002678,0.000431,0.064288
18484000,0.0324,0.013523,0.002678,0.000431,0.082152
18485000,0.0324,0.013523,0.002678,0.000431,0.076276
18486000,0.0324,0.013523,0.002678,0.000431,0.062760
18487000,0.0324,0.013523,0.002678,0.000431,0.075571
18488000,0.0324,0.013523,0.002678,0.000431,0.086736
18489000,0.0324,0.013523,0.002678,0.000431,0.055591
18490000,0.0324,0.013523,0.002678,0.000431,0.057941
18491000,0.0324,0.013523,0.002678,0.000431,0.056531
18492000,0.0324,0.013523,0.002678,0.000431,0.063583
18493000,0.0324,0.013523,0.002678,0.000431,0.068754
18494000,0.0324,0.013523,0.002678,0.000431,0.065698
18495000,0.0324,0.013523,0.002678,0.000431,0.062643
18496000,0.0324,0.013523,0.002678,0.000431,0.070634
18497000,0.0324,0.013523,0.002678,0.000431,0.081212
18498000,0.0324,0.013523,0.002678,0.000431,0.091319
18499000,0.0324,0.013523,0.002678,0.000431,0.057354
18500000,0.0324,0.013523,0.002678,0.000431,0.066991
18501000,0.0324,0.013523,0.002678,0.000431,0.053123
18502000,0.0324,0.013523,0.002678,0.000431,0.071222
18503000,0.0324,0.013523,0.002678,0.000431,0.054416
18504000,0.0324,0.013523,0.002678,0.000431,0.057589
18505000,0.0324,0.013523,0.002678,0.000431,0.063700
18506000,0.0324,0.013523,0.002678,0.000431,0.062525
18507000,0.0324,0.013523,0.002678,0.000431,0.086266
18508000,0.0324,0.013523,0.002678,0.000431,0.067344
18509000,0.0324,0.013523,0.002678,0.000431,0.067814
18510000,0.0324,0.013523,0.002678,0.000431,0.060409
18511000,0.0324,0.013523,0.002678,0.000431,0.074748
18512000,0.0324,0.013523,0.002678,0.000431,0.072280
18513000,0.0324,0.013523,0.002678,0.000431,0.064288
18514000,0.0324,0.013523,0.002678,0.000431,0.060292
18515000,0.0324,0.013523,0.002678,0.000431,0.055473
18516000,0.0324,0.013523,0.002678,0.000431,0.080859
18517000,0.0324,0.013523,0.002678,0.000431,0.064641
18518000,0.0324,0.013523,0.002678,0.000431,0.053240
18519000,0.0324,0.013523,0.002678,0.000431,0.053710
18520000,0.0324,0.013523,0.002678,0.000431,0.068284
18521000,0.0324,0.013523,0.002678,0.000431,0.068049
18522000,0.0324,0.013523,0.002678,0.000431,0.054298
18523000,0.0324,0.013523,0.002678,0.000431,0.053593
18524000,0.0324,0.013523,0.002678,0.000431,0.062878
18525000,0.0324,0.013523,0.002678,0.000431,0.055473
18526000,0.0324,0.013523,0.002678,0.000431,0.062055
18527000,0.0324,0.013523,0.002678,0.000431,0.053945
18528000,0.0324,0.013523,0.002678,0.000431,0.073455
18529000,0.0324,0.013523,0.002678,0.000431,0.073220
18530000,0.0324,0.013523,0.002678,0.000431,0.080389
18531000,0.0324,0.013523,0.002678,0.000431,0.054651
18532000,0.0324,0.013523,0.002678,0.000431,0.077334
18533000,0.0324,0.013523,0.002678,0.000431,0.047716
18534000,0.0324,0.013523,0.002678,0.000431,0.046071
18535000,0.0324,0.013523,0.002678,0.000431,0.060174
18536000,0.0324,0.013523,0.002678,0.000431,0.056414
18537000,0.0324,0.013523,0.002678,0.000431,0.061702
18538000,0.0324,0.013523,0.002678,0.000431,0.048657
18539000,0.0324,0.013523,0.002678,0.000431,0.060762
18540000,0.0324,0.013523,0.002678,0.000431,0.052653
18541000,0.0324,0.013523,0.002678,0.000431,0.066756
18542000,0.0324,0.013523,0.002678,0.000431,0.060880
18543000,0.0324,0.013523,0.002678,0.000431,0.064170
18544000,0.0324,0.013523,0.002678,0.000431,0.049597
18545000,0.0324,0.013523,0.002678,0.000431,0.077451
18546000,0.0324,0.013523,0.002678,0.000431,0.048422
18547000,0.0324,0.013523,0.002678,0.000431,0.068166
18548000,0.0324,0.013523,0.002678,0.000431,0.048069
18549000,0.0324,0.013523,0.002678,0.000431,0.069459
18550000,0.0324,0.013523,0.002678,0.000431,0.045483
18551000,0.0324,0.013523,0.002678,0.000431,0.064876
18552000,0.0324,0.013523,0.002678,0.000431,0.049714
18553000,0.0324,0.013523,0.002678,0.000431,0.060645
18554000,0.0324,0.013523,0.002678,0.000431,0.055121
18555000,0.0324,0.013523,0.002678,0.000431,0.065463
18556000,0.0324,0.013523,0.002678,0.000431,0.043485
18557000,0.0324,0.013523,0.002678,0.000431,0.047481
18558000,0.0324,0.013523,0.002678,0.000431,0.043015
18559000,0.0324,0.013523,0.002678,0.000431,0.057236
18560000,0.0324,0.013523,0.002678,0.000431,0.047951
18561000,0.0324,0.013523,0.002678,0.000431,0.053710
18562000,0.0324,0.013523,0.002678,0.000431,0.070282
18563000,0.0324,0.013523,0.002678,0.000431,0.061585
18564000,0.0324,0.013523,0.002678,0.000431,0.047716
18565000,0.0324,0.013523,0.002678,0.000431,0.043485
18566000,0.0324,0.013523,0.002678,0.000431,0.036786
18567000,0.0324,0.013523,0.002678,0.000431,0.039725
18568000,0.0324,0.013523,0.002678,0.000431,0.042193
18569000,0.0324,0.013523,0.002678,0.000431,0.041605
18570000,0.0324,0.013523,0.002678,0.000431,0.035729
18571000,0.0324,0.013523,0.002678,0.000431,0.042898
18572000,0.0324,0.013523,0.002678,0.000431,0.039842
18573000,0.0324,0.013523,0.002678,0.000431,0.040665
18574000,0.0324,0.013523,0.002678,0.000431,0.037844
18575000,0.0324,0.013523,0.002678,0.000431,0.041017
18576000,0.0324,0.013523,0.002678,0.000431,0.048774
18577000,0.0324,0.013523,0.002678,0.000431,0.031380
18578000,0.0324,0.013523,0.002678,0.000431,0.047129
18579000,0.0324,0.013523,0.002678,0.000431,0.044308
18580000,0.0324,0.013523,0.002678,0.000431,0.047481
18581000,0.0324,0.013523,0.002678,0.000431,0.037256
18582000,0.0324,0.013523,0.002678,0.000431,0.035494
18583000,0.0324,0.013523,0.002678,0.000431,0.043485
18584000,0.0324,0.013523,0.002678,0.000431,0.041252
18585000,0.0324,0.013523,0.002678,0.000431,0.041487
18586000,0.0324,0.013523,0.002678,0.000431,0.043603
18587000,0.0324,0.013523,0.002678,0.000431,0.056649
18588000,0.0324,0.013523,0.002678,0.000431,0.064523
18589000,0.0324,0.013523,0.002678,0.000431,0.036316
18590000,0.0324,0.013523,0.002678,0.000431,0.038314
18591000,0.0324,0.013523,0.002678,0.000431,0.045954
18592000,0.0324,0.013523,0.002678,0.000431,0.036669
18593000,0.0324,0.013523,0.002678,0.000431,0.045131
18594000,0.0324,0.013523,0.002678,0.000431,0.037609
18595000,0.0324,0.013523,0.002678,0.000431,0.041605
18596000,0.0324,0.013523,0.002678,0.000431,0.043015
18597000,0.0324,0.013523,0.002678,0.000431,0.053005
18598000,0.0324,0.013523,0.002678,0.000431,0.033613
18599000,0.0324,0.013523,0.002678,0.000431,0.048657
18600000,0.0324,0.013523,0.002678,0.000431,0.047599
18601000,0.0324,0.013523,0.002678,0.000431,0.048539
18602000,0.0324,0.013523,0.002678,0.000431,0.037139
18603000,0.0324,0.013523,0.002678,0.000431,0.044426
18604000,0.0324,0.013523,0.002678,0.000431,0.037844
18605000,0.0324,0.013523,0.002678,0.000431,0.060527
18606000,0.0324,0.013523,0.002678,0.000431,0.049244
18607000,0.0324,0.013523,0.002678,0.000431,0.041723
18608000,0.0324,0.013523,0.002678,0.000431,0.050655
18609000,0.0324,0.013523,0.002678,0.000431,0.032673
18610000,0.0324,0.013523,0.002678,0.000431,0.046776
18611000,0.0324,0.013523,0.002678,0.000431,0.045366
18612000,0.0324,0.013523,0.002678,0.000431,0.048069
18613000,0.0324,0.013523,0.002678,0.000431,0.035846
18614000,0.0324,0.013523,0.002678,0.000431,0.040077
18615000,0.0324,0.013523,0.002678,0.000431,0.038432
18616000,0.0324,0.013523,0.002678,0.000431,0.037374
18617000,0.0324,0.013523,0.002678,0.000431,0.033025
18618000,0.0324,0.013523,0.002678,0.000431,0.033613
18619000,0.0324,0.013523,0.002678,0.000431,0.049009
18620000,0.0324,0.013523,0.002678,0.000431,0.050772
18621000,0.0324,0.013523,0.002678,0.000431,0.065816
18622000,0.0324,0.013523,0.002678,0.000431,0.032673
18623000,0.0324,0.013523,0.002678,0.000431,0.036081
18624000,0.0324,0.013523,0.002678,0.000431,0.033025
18625000,0.0324,0.013523,0.002678,0.000431,0.030792
18626000,0.0324,0.013523,0.002678,0.000431,0.042545
18627000,0.0324,0.013523,0.002678,0.000431,0.045131
18628000,0.0324,0.013523,0.002678,0.000431,0.046071
18629000,0.0324,0.013523,0.002678,0.000431,0.033025
18630000,0.0324,0.013523,0.002678,0.000431,0.035846
18631000,0.0324,0.013523,0.002678,0.000431,0.038314
18632000,0.0324,0.013523,0.002678,0.000431,0.035964
18633000,0.0324,0.013523,0.002678,0.000431,0.030557
18634000,0.0324,0.013523,0.002678,0.000431,0.034788
18635000,0.0324,0.013523,0.002678,0.000431,0.038784
18636000,0.0324,0.013523,0.002678,0.000431,0.031850
18637000,0.0324,0.013523,0.002678,0.000431,0.041605
18638000,0.0324,0.013523,0.002678,0.000431,0.046189
18639000,0.0324,0.013523,0.002678,0.000431,0.039960
18640000,0.0324,0.013523,0.002678,0.000431,0.031615
18641000,0.0324,0.013523,0.002678,0.000431,0.036904
18642000,0.0324,0.013523,0.002678,0.000431,0.037256
18643000,0.0324,0.013523,0.002678,0.000431,0.044426
18644000,0.0324,0.013523,0.002678,0.000431,0.042310
18645000,0.0324,0.013523,0.002678,0.000431,0.038902
18646000,0.0324,0.013523,0.002678,0.000431,0.037962
18647000,0.0324,0.013523,0.002678,0.000431,0.039725
18648000,0.0324,0.013523,0.002678,0.000431,0.049362
18649000,0.0324,0.013523,0.002678,0.000431,0.028207
18650000,0.0324,0.013523,0.002678,0.000431,0.032320
18651000,0.0324,0.013523,0.002678,0.000431,0.030205
18652000,0.0324,0.013523,0.002678,0.000431,0.055473
18653000,0.0324,0.013523,0.002678,0.000431,0.037491
18654000,0.0324,0.013523,0.002678,0.000431,0.029852
18655000,0.0324,0.013523,0.002678,0.000431,0.039489
18656000,0.0324,0.013523,0.002678,0.000431,0.036434
18657000,0.0324,0.013523,0.002678,0.000431,0.038432
18658000,0.0324,0.013523,0.002678,0.000431,0.036434
18659000,0.0324,0.013523,0.002678,0.000431,0.037844
18660000,0.0324,0.013523,0.002678,0.000431,0.036551
18661000,0.0324,0.013523,0.002678,0.000431,0.048304
18662000,0.0324,0.013523,0.002678,0.000431,0.032673
18663000,0.0324,0.013523,0.002678,0.000431,0.034436
18664000,0.0324,0.013523,0.002678,0.000431,0.048422
18665000,0.0324,0.013523,0.002678,0.000431,0.045013
18666000,0.0324,0.013523,0.002678,0.000431,0.038432
18667000,0.0324,0.013523,0.002678,0.000431,0.034671
18668000,0.0324,0.013523,0.002678,0.000431,0.037021
18669000,0.0324,0.013523,0.002678,0.000431,0.051242
18670000,0.0324,0.013523,0.002678,0.000431,0.032203
18671000,0.0324,0.013523,0.002678,0.000431,0.024093
18672000,0.0324,0.013523,0.002678,0.000431,0.036434
18673000,0.0324,0.013523,0.002678,0.000431,0.036551
18674000,0.0324,0.013523,0.002678,0.000431,0.030910
18675000,0.0324,0.013523,0.002678,0.000431,0.034553
18676000,0.0324,0.013523,0.002678,0.000431,0.025974
18677000,0.0324,0.013523,0.002678,0.000431,0.036669
18678000,0.0324,0.013523,0.002678,0.000431,0.027384
18679000,0.0324,0.013523,0.002678,0.000431,0.034788
18680000,0.0324,0.013523,0.002678,0.000431,0.044896
18681000,0.0324,0.013523,0.002678,0.000431,0.043956
18682000,0.0324,0.013523,0.002678,0.000431,0.048774
18683000,0.0324,0.013523,0.002678,0.000431,0.043250
18684000,0.0324,0.013523,0.002678,0.000431,0.040430
18685000,0.0324,0.013523,0.002678,0.000431,0.036551
18686000,0.0324,0.013523,0.002678,0.000431,0.039372
18687000,0.0324,0.013523,0.002678,0.000431,0.038432
18688000,0.0324,0.013523,0.002678,0.000431,0.039607
18689000,0.0324,0.013523,0.002678,0.000431,0.044661
18690000,0.0324,0.013523,0.002678,0.000431,0.024093
18691000,0.0324,0.013523,0.002678,0.000431,0.033848
18692000,0.0324,0.013523,0.002678,0.000431,0.026091
18693000,0.0324,0.013523,0.002678,0.000431,0.025034
18694000,0.0324,0.013523,0.002678,0.000431,0.022918
18695000,0.0324,0.013523,0.002678,0.000431,0.027502
18696000,0.0324,0.013523,0.002678,0.000431,0.023388
18697000,0.0324,0.013523,0.002678,0.000431,0.033260
18698000,0.0324,0.013523,0.002678,0.000431,0.022095
18699000,0.0324,0.013523,0.002678,0.000431,0.024916
18700000,0.0324,0.013523,0.002678,0.000431,0.023506
18701000,0.0324,0.013523,0.002678,0.000431,0.029265
18702000,0.0324,0.013523,0.002678,0.000431,0.022683
18703000,0.0324,0.013523,0.002678,0.000431,0.023623
18704000,0.0324,0.013523,0.002678,0.000431,0.027502
18705000,0.0324,0.013523,0.002678,0.000431,0.029382
18706000,0.0324,0.013523,0.002678,0.000431,0.046189
18707000,0.0324,0.013523,0.002678,0.000431,0.037727
18708000,0.0324,0.013523,0.002678,0.000431,0.034671
18709000,0.0324,0.013523,0.002678,0.000431,0.022683
18710000,0.0324,0.013523,0.002678,0.000431,0.025621
18711000,0.0324,0.013523,0.002678,0.000431,0.024798
18712000,0.0324,0.013523,0.002678,0.000431,0.022683
18713000,0.0324,0.013523,0.002678,0.000431,0.023153
18714000,0.0324,0.013523,0.002678,0.000431,0.033143
18715000,0.0324,0.013523,0.002678,0.000431,0.018805
18716000,0.0324,0.013523,0.002678,0.000431,0.040782
18717000,0.0324,0.013523,0.002678,0.000431,0.032908
18718000,0.0324,0.013523,0.002678,0.000431,0.032908
18719000,0.0324,0.013523,0.002678,0.000431,0.025739
18720000,0.0324,0.013523,0.002678,0.000431,0.023623
18721000,0.0324,0.013523,0.002678,0.000431,0.025151
18722000,0.0324,0.013523,0.002678,0.000431,0.021155
18723000,0.0324,0.013523,0.002678,0.000431,0.024916
18724000,0.0324,0.013523,0.002678,0.000431,0.024798
18725000,0.0324,0.013523,0.002678,0.000431,0.024563
18726000,0.0324,0.013523,0.002678,0.000431,0.025269
18727000,0.0324,0.013523,0.002678,0.000431,0.019510
18728000,0.0324,0.013523,0.002678,0.000431,0.017982
18729000,0.0324,0.013523,0.002678,0.000431,0.022095
18730000,0.0324,0.013523,0.002678,0.000431,0.036551
18731000,0.0324,0.013523,0.002678,0.000431,0.017747
18732000,0.0324,0.013523,0.002678,0.000431,0.021390
18733000,0.0324,0.013523,0.002678,0.000431,0.018922
18734000,0.0324,0.013523,0.002678,0.000431,0.021155
18735000,0.0324,0.013523,0.002678,0.000431,0.024916
18736000,0.0324,0.013523,0.002678,0.000431,0.020802
18737000,0.0324,0.013523,0.002678,0.000431,0.020920
18738000,0.0324,0.013523,0.002678,0.000431,0.021390
18739000,0.0324,0.013523,0.002678,0.000431,0.021508
18740000,0.0324,0.013523,0.002678,0.000431,0.021155
18741000,0.0324,0.013523,0.002678,0.000431,0.029147
18742000,0.0324,0.013523,0.002678,0.000431,0.019862
18743000,0.0324,0.013523,0.002678,0.000431,0.023623
18744000,0.0324,0.013523,0.002678,0.000431,0.015396
18745000,0.0324,0.013523,0.002678,0.000431,0.023036
18746000,0.0324,0.013523,0.002678,0.000431,0.022213
18747000,0.0324,0.013523,0.002678,0.000431,0.031615
18748000,0.0324,0.013523,0.002678,0.000431,0.017042
18749000,0.0324,0.013523,0.002678,0.000431,0.016689
18750000,0.0324,0.013523,0.002678,0.000431,0.017042
18751000,0.0324,0.013523,0.002678,0.000431,0.023153
18752000,0.0324,0.013523,0.002678,0.000431,0.017982
18753000,0.0324,0.013523,0.002678,0.000431,0.025386
18754000,0.0324,0.013523,0.002678,0.000431,0.018569
18755000,0.0324,0.013523,0.002678,0.000431,0.027737
18756000,0.0324,0.013523,0.002678,0.000431,0.016336
18757000,0.0324,0.013523,0.002678,0.000431,0.019862
18758000,0.0324,0.013523,0.002678,0.000431,0.014456
18759000,0.0324,0.013523,0.002678,0.000431,0.023036
18760000,0.0324,0.013523,0.002678,0.000431,0.017864
18761000,0.0324,0.013523,0.002678,0.000431,0.030440
18762000,0.0324,0.013523,0.002678,0.000431,0.018099
18763000,0.0324,0.013523,0.002678,0.000431,0.016924
18764000,0.0324,0.013523,0.002678,0.000431,0.039960
18765000,0.0324,0.013523,0.002678,0.000431,0.017394
18766000,0.0324,0.013523,0.002678,0.000431,0.018217
18767000,0.0324,0.013523,0.002678,0.000431,0.021273
18768000,0.0324,0.013523,0.002678,0.000431,0.033848
18769000,0.0324,0.013523,0.002678,0.000431,0.033613
18770000,0.0324,0.013523,0.002678,0.000431,0.023858
18771000,0.0324,0.013523,0.002678,0.000431,0.020685
18772000,0.0324,0.013523,0.002678,0.000431,0.024328
18773000,0.0324,0.013523,0.002678,0.000431,0.022213
18774000,0.0324,0.013523,0.002678,0.000431,0.033496
18775000,0.0324,0.013523,0.002678,0.000431,0.028442
18776000,0.0324,0.013523,0.002678,0.000431,0.026209
18777000,0.0324,0.013523,0.002678,0.000431,0.026209
18778000,0.0324,0.013523,0.002678,0.000431,0.034553
18779000,0.0324,0.013523,0.002678,0.000431,0.016571
18780000,0.0324,0.013523,0.002678,0.000431,0.020685
18781000,0.0324,0.013523,0.002678,0.000431,0.021743
18782000,0.0324,0.013523,0.002678,0.000431,0.025504
18783000,0.0324,0.013523,0.002678,0.000431,0.017159
18784000,0.0324,0.013523,0.002678,0.000431,0.020215
18785000,0.0324,0.013523,0.002678,0.000431,0.022330
18786000,0.0324,0.013523,0.002678,0.000431,0.022213
18787000,0.0324,0.013523,0.002678,0.000431,0.015866
18788000,0.0324,0.013523,0.002678,0.000431,0.022800
18789000,0.0324,0.013523,0.002678,0.000431,0.022918
18790000,0.0324,0.013523,0.002678,0.000431,0.024328
18791000,0.0324,0.013523,0.002678,0.000431,0.021743
18792000,0.0324,0.013523,0.002678,0.000431,0.022213
18793000,0.0324,0.013523,0.002678,0.000431,0.015749
18794000,0.0324,0.013523,0.002678,0.000431,0.023623
18795000,0.0324,0.013523,0.002678,0.000431,0.018334
18796000,0.0324,0.013523,0.002678,0.000431,0.021390
18797000,0.0324,0.013523,0.002678,0.000431,0.019157
18798000,0.0324,0.013523,0.002678,0.000431,0.021508
18799000,0.0324,0.013523,0.002678,0.000431,0.021155
18800000,0.0324,0.013523,0.002678,0.000431,0.026561
18801000,0.0324,0.013523,0.002678,0.000431,0.022800
18802000,0.0324,0.013523,0.002678,0.000431,0.015514
18803000,0.0324,0.013523,0.002678,0.000431,0.024093
18804000,0.0324,0.013523,0.002678,0.000431,0.019510
18805000,0.0324,0.013523,0.002678,0.000431,0.017982
18806000,0.0324,0.013523,0.002678,0.000431,0.016454
18807000,0.0324,0.013523,0.002678,0.000431,0.018217
18808000,0.0324,0.013523,0.002678,0.000431,0.022565
18809000,0.0324,0.013523,0.002678,0.000431,0.017982
18810000,0.0324,0.013523,0.002678,0.000431,0.017629
18811000,0.0324,0.013523,0.002678,0.000431,0.021038
18812000,0.0324,0.013523,0.002678,0.000431,0.023858
18813000,0.0324,0.013523,0.002678,0.000431,0.032790
18814000,0.0324,0.013523,0.002678,0.000431,0.022213
18815000,0.0324,0.013523,0.002678,0.000431,0.023388
18816000,0.0324,0.013523,0.002678,0.000431,0.019157
18817000,0.0324,0.013523,0.002678,0.000431,0.019157
18818000,0.0324,0.013523,0.002678,0.000431,0.015866
18819000,0.0324,0.013523,0.002678,0.000431,0.017982
18820000,0.0324,0.013523,0.002678,0.000431,0.020215
18821000,0.0324,0.013523,0.002678,0.000431,0.022095
18822000,0.0324,0.013523,0.002678,0.000431,0.025504
18823000,0.0324,0.013523,0.002678,0.000431,0.036434
18824000,0.0324,0.013523,0.002678,0.000431,0.030205
18825000,0.0324,0.013523,0.002678,0.000431,0.018922
18826000,0.0324,0.013523,0.002678,0.000431,0.019745
18827000,0.0324,0.013523,0.002678,0.000431,0.018805
18828000,0.0324,0.013523,0.002678,0.000431,0.015514
18829000,0.0324,0.013523,0.002678,0.000431,0.021860
18830000,0.0324,0.013523,0.002678,0.000431,0.019275
18831000,0.0324,0.013523,0.002678,0.000431,0.018922
18832000,0.0324,0.013523,0.002678,0.000431,0.019040
18833000,0.0324,0.013523,0.002678,0.000431,0.021390
18834000,0.0324,0.013523,0.002678,0.000431,0.023271
18835000,0.0324,0.013523,0.002678,0.000431,0.020332
18836000,0.0324,0.013523,0.002678,0.000431,0.016689
18837000,0.0324,0.013523,0.002678,0.000431,0.021860
18838000,0.0324,0.013523,0.002678,0.000431,0.018922
18839000,0.0324,0.013523,0.002678,0.000431,0.023858
18840000,0.0324,0.013523,0.002678,0.000431,0.019862
18841000,0.0324,0.013523,0.002678,0.000431,0.019275
18842000,0.0324,0.013523,0.002678,0.000431,0.019980
18843000,0.0324,0.013523,0.002678,0.000431,0.017629
18844000,0.0324,0.013523,0.002678,0.000431,0.017982
18845000,0.0324,0.013523,0.002678,0.000431,0.022683
18846000,0.0324,0.013523,0.002678,0.000431,0.021508
18847000,0.0324,0.013523,0.002678,0.000431,0.015279
18848000,0.0324,0.013523,0.002678,0.000431,0.025974
18849000,0.0324,0.013523,0.002678,0.000431,0.022095
18850000,0.0324,0.013523,0.002678,0.000431,0.022448
18851000,0.0324,0.013523,0.002678,0.000431,0.023271
18852000,0.0324,0.013523,0.002678,0.000431,0.023976
18853000,0.0324,0.013523,0.002678,0.000431,0.015161
18854000,0.0324,0.013523,0.002678,0.000431,0.019157
18855000,0.0324,0.013523,0.002678,0.000431,0.019745
18856000,0.0324,0.013523,0.002678,0.000431,0.017747
18857000,0.0324,0.013523,0.002678,0.000431,0.011753
18858000,0.0324,0.013523,0.002678,0.000431,0.019275
18859000,0.0324,0.013523,0.002678,0.000431,0.008697
18860000,0.0324,0.013523,0.002678,0.000431,0.011870
18861000,0.0324,0.013523,0.002678,0.000431,0.010695
18862000,0.0324,0.013523,0.002678,0.000431,0.012223
18863000,0.0324,0.013523,0.002678,0.000431,0.010578
18864000,0.0324,0.013523,0.002678,0.000431,0.009167
18865000,0.0324,0.013523,0.002678,0.000431,0.013046
18866000,0.0324,0.013523,0.002678,0.000431,0.018569
18867000,0.0324,0.013523,0.002678,0.000431,0.010930
18868000,0.0324,0.013523,0.002678,0.000431,0.017159
18869000,0.0324,0.013523,0.002678,0.000431,0.012576
18870000,0.0324,0.013523,0.002678,0.000431,0.013633
18871000,0.0324,0.013523,0.002678,0.000431,0.015044
18872000,0.0324,0.013523,0.002678,0.000431,0.015514
18873000,0.0324,0.013523,0.002678,0.000431,0.015044
18874000,0.0324,0.013523,0.002678,0.000431,0.013163
18875000,0.0324,0.013523,0.002678,0.000431,0.023271
18876000,0.0324,0.013523,0.002678,0.000431,0.013163
18877000,0.0324,0.013523,0.002678,0.000431,0.013751
18878000,0.0324,0.013523,0.002678,0.000431,0.016101
18879000,0.0324,0.013523,0.002678,0.000431,0.021860
18880000,0.0324,0.013523,0.002678,0.000431,0.023506
18881000,0.0324,0.013523,0.002678,0.000431,0.013868
18882000,0.0324,0.013523,0.002678,0.000431,0.016571
18883000,0.0324,0.013523,0.002678,0.000431,0.024328
18884000,0.0324,0.013523,0.002678,0.000431,0.030557
18885000,0.0324,0.013523,0.002678,0.000431,0.014573
18886000,0.0324,0.013523,0.002678,0.000431,0.012811
18887000,0.0324,0.013523,0.002678,0.000431,0.012693
18888000,0.0324,0.013523,0.002678,0.000431,0.015044
18889000,0.0324,0.013523,0.002678,0.000431,0.022448
18890000,0.0324,0.013523,0.002678,0.000431,0.014221
18891000,0.0324,0.013523,0.002678,0.000431,0.015631
18892000,0.0324,0.013523,0.002678,0.000431,0.012693
18893000,0.0324,0.013523,0.002678,0.000431,0.017747
18894000,0.0324,0.013523,0.002678,0.000431,0.012576
18895000,0.0324,0.013523,0.002678,0.000431,0.019980
18896000,0.0324,0.013523,0.002678,0.000431,0.015749
18897000,0.0324,0.013523,0.002678,0.000431,0.022565
18898000,0.0324,0.013523,0.002678,0.000431,0.024563
18899000,0.0324,0.013523,0.002678,0.000431,0.017982
18900000,0.0324,0.013523,0.002678,0.000431,0.011518
18901000,0.0324,0.013523,0.002678,0.000431,0.015161
18902000,0.0324,0.013523,0.002678,0.000431,0.013398
18903000,0.0324,0.013523,0.002678,0.000431,0.018687
18904000,0.0324,0.013523,0.002678,0.000431,0.014573
18905000,0.0324,0.013523,0.002678,0.000431,0.011988
18906000,0.0324,0.013523,0.002678,0.000431,0.012105
18907000,0.0324,0.013523,0.002678,0.000431,0.011753
18908000,0.0324,0.013523,0.002678,0.000431,0.030910
18909000,0.0324,0.013523,0.002678,0.000431,0.038784
18910000,0.0324,0.013523,0.002678,0.000431,0.019040
18911000,0.0324,0.013523,0.002678,0.000431,0.010342
18912000,0.0324,0.013523,0.002678,0.000431,0.009755
18913000,0.0324,0.013523,0.002678,0.000431,0.013516
18914000,0.0324,0.013523,0.002678,0.000431,0.016219
18915000,0.0324,0.013523,0.002678,0.000431,0.014573
18916000,0.0324,0.013523,0.002678,0.000431,0.014573
18917000,0.0324,0.013523,0.002678,0.000431,0.013516
18918000,0.0324,0.013523,0.002678,0.000431,0.013868
18919000,0.0324,0.013523,0.002678,0.000431,0.013163
18920000,0.0324,0.013523,0.002678,0.000431,0.013751
18921000,0.0324,0.013523,0.002678,0.000431,0.011870
18922000,0.0324,0.013523,0.002678,0.000431,0.015984
18923000,0.0324,0.013523,0.002678,0.000431,0.013986
18924000,0.0324,0.013523,0.002678,0.000431,0.010225
18925000,0.0324,0.013523,0.002678,0.000431,0.013398
18926000,0.0324,0.013523,0.002678,0.000431,0.013516
18927000,0.0324,0.013523,0.002678,0.000431,0.019862
18928000,0.0324,0.013523,0.002678,0.000431,0.013516
18929000,0.0324,0.013523,0.002678,0.000431,0.011635
18930000,0.0324,0.013523,0.002678,0.000431,0.010813
18931000,0.0324,0.013523,0.002678,0.000431,0.014809
18932000,0.0324,0.013523,0.002678,0.000431,0.018452
18933000,0.0324,0.013523,0.002678,0.000431,0.015514
18934000,0.0324,0.013523,0.002678,0.000431,0.012576
18935000,0.0324,0.013523,0.002678,0.000431,0.012928
18936000,0.0324,0.013523,0.002678,0.000431,0.015631
18937000,0.0324,0.013523,0.002678,0.000431,0.018334
18938000,0.0324,0.013523,0.002678,0.000431,0.012928
18939000,0.0324,0.013523,0.002678,0.000431,0.013633
18940000,0.0324,0.013523,0.002678,0.000431,0.011400
18941000,0.0324,0.013523,0.002678,0.000431,0.015044
18942000,0.0324,0.013523,0.002678,0.000431,0.017629
18943000,0.0324,0.013523,0.002678,0.000431,0.013163
18944000,0.0324,0.013523,0.002678,0.000431,0.015866
18945000,0.0324,0.013523,0.002678,0.000431,0.013398
18946000,0.0324,0.013523,0.002678,0.000431,0.017159
18947000,0.0324,0.013523,0.002678,0.000431,0.015279
18948000,0.0324,0.013523,0.002678,0.000431,0.029382
18949000,0.0324,0.013523,0.002678,0.000431,0.012693
18950000,0.0324,0.013523,0.002678,0.000431,0.013751
18951000,0.0324,0.013523,0.002678,0.000431,0.018922
18952000,0.0324,0.013523,0.002678,0.000431,0.015161
18953000,0.0324,0.013523,0.002678,0.000431,0.011283
18954000,0.0324,0.013523,0.002678,0.000431,0.018099
18955000,0.0324,0.013523,0.002678,0.000431,0.008345
18956000,0.0324,0.013523,0.002678,0.000431,0.010813
18957000,0.0324,0.013523,0.002678,0.000431,0.011753
18958000,0.0324,0.013523,0.002678,0.000431,0.026914
18959000,0.0324,0.013523,0.002678,0.000431,0.012458
18960000,0.0324,0.013523,0.002678,0.000431,0.013516
18961000,0.0324,0.013523,0.002678,0.000431,0.012105
18962000,0.0324,0.013523,0.002678,0.000431,0.012105
18963000,0.0324,0.013523,0.002678,0.000431,0.013398
18964000,0.0324,0.013523,0.002678,0.000431,0.019862
18965000,0.0324,0.013523,0.002678,0.000431,0.013986
18966000,0.0324,0.013523,0.002678,0.000431,0.013986
18967000,0.0324,0.013523,0.002678,0.000431,0.017394
18968000,0.0324,0.013523,0.002678,0.000431,0.031615
18969000,0.0324,0.013523,0.002678,0.000431,0.020802
18970000,0.0324,0.013523,0.002678,0.000431,0.020685
18971000,0.0324,0.013523,0.002678,0.000431,0.015749
18972000,0.0324,0.013523,0.002678,0.000431,0.020450
18973000,0.0324,0.013523,0.002678,0.000431,0.016336
18974000,0.0324,0.013523,0.002678,0.000431,0.012576
18975000,0.0324,0.013523,0.002678,0.000431,0.017159
18976000,0.0324,0.013523,0.002678,0.000431,0.010578
18977000,0.0324,0.013523,0.002678,0.000431,0.008227
18978000,0.0324,0.013523,0.002678,0.000431,0.010578
18979000,0.0324,0.013523,0.002678,0.000431,0.006464
18980000,0.0324,0.013523,0.002678,0.000431,0.009872
18981000,0.0324,0.013523,0.002678,0.000431,0.007287
18982000,0.0324,0.013523,0.002678,0.000431,0.009872
18983000,0.0324,0.013523,0.002678,0.000431,0.012105
18984000,0.0324,0.013523,0.002678,0.000431,0.010695
18985000,0.0324,0.013523,0.002678,0.000431,0.011870
18986000,0.0324,0.013523,0.002678,0.000431,0.007287
18987000,0.0324,0.013523,0.002678,0.000431,0.009050
18988000,0.0324,0.013523,0.002678,0.000431,0.011165
18989000,0.0324,0.013523,0.002678,0.000431,0.034553
18990000,0.0324,0.013523,0.002678,0.000431,0.023153
18991000,0.0324,0.013523,0.002678,0.000431,0.019862
18992000,0.0324,0.013523,0.002678,0.000431,0.027149
18993000,0.0324,0.013523,0.002678,0.000431,0.021155
18994000,0.0324,0.013523,0.002678,0.000431,0.016454
18995000,0.0324,0.013523,0.002678,0.000431,0.019275
18996000,0.0324,0.013523,0.002678,0.000431,0.013986
18997000,0.0324,0.013523,0.002678,0.000431,0.018099
18998000,0.0324,0.013523,0.002678,0.000431,0.006934
18999000,0.0324,0.013523,0.002678,0.000431,0.015749
