Cycle,Area(mm^2),PeakDynamic(W),SubthresholdLeakage(W),GateLeakage(W),RunTimeDynamic(W)
6000000,0.0324,0.013523,0.002678,0.000431,1.901959
6001000,0.0324,0.013523,0.002678,0.000431,1.952731
6002000,0.0324,0.013523,0.002678,0.000431,1.933809
6003000,0.0324,0.013523,0.002678,0.000431,1.956022
6004000,0.0324,0.013523,0.002678,0.000431,1.862234
6005000,0.0324,0.013523,0.002678,0.000431,1.940508
6006000,0.0324,0.013523,0.002678,0.000431,1.968950
6007000,0.0324,0.013523,0.002678,0.000431,1.874575
6008000,0.0324,0.013523,0.002678,0.000431,1.904897
6009000,0.0324,0.013523,0.002678,0.000431,1.906307
6010000,0.0324,0.013523,0.002678,0.000431,1.956022
6011000,0.0324,0.013523,0.002678,0.000431,1.858943
6012000,0.0324,0.013523,0.002678,0.000431,1.781022
6013000,0.0324,0.013523,0.002678,0.000431,1.767271
6014000,0.0324,0.013523,0.002678,0.000431,1.890793
6015000,0.0324,0.013523,0.002678,0.000431,1.809111
6016000,0.0324,0.013523,0.002678,0.000431,1.973886
6017000,0.0324,0.013523,0.002678,0.000431,1.809111
6018000,0.0324,0.013523,0.002678,0.000431,1.738829
6019000,0.0324,0.013523,0.002678,0.000431,1.877043
6020000,0.0324,0.013523,0.002678,0.000431,1.781257
6021000,0.0324,0.013523,0.002678,0.000431,1.825330
6022000,0.0324,0.013523,0.002678,0.000431,1.919823
6023000,0.0324,0.013523,0.002678,0.000431,1.910303
6024000,0.0324,0.013523,0.002678,0.000431,1.901841
6025000,0.0324,0.013523,0.002678,0.000431,1.837083
6026000,0.0324,0.013523,0.002678,0.000431,1.903604
6027000,0.0324,0.013523,0.002678,0.000431,1.867170
6028000,0.0324,0.013523,0.002678,0.000431,1.805350
6029000,0.0324,0.013523,0.002678,0.000431,1.873517
6030000,0.0324,0.013523,0.002678,0.000431,1.987637
6031000,0.0324,0.013523,0.002678,0.000431,1.819689
6032000,0.0324,0.013523,0.002678,0.000431,1.816986
6033000,0.0324,0.013523,0.002678,0.000431,1.823685
6034000,0.0324,0.013523,0.002678,0.000431,1.744236
6035000,0.0324,0.013523,0.002678,0.000431,1.838846
6036000,0.0324,0.013523,0.002678,0.000431,1.851657
6037000,0.0324,0.013523,0.002678,0.000431,1.797946
6038000,0.0324,0.013523,0.002678,0.000431,1.787486
6039000,0.0324,0.013523,0.002678,0.000431,1.970595
6040000,0.0324,0.013523,0.002678,0.000431,1.824743
6041000,0.0324,0.013523,0.002678,0.000431,1.847896
6042000,0.0324,0.013523,0.002678,0.000431,1.823685
6043000,0.0324,0.013523,0.002678,0.000431,1.829679
6044000,0.0324,0.013523,0.002678,0.000431,1.835320
6045000,0.0324,0.013523,0.002678,0.000431,1.753050
6046000,0.0324,0.013523,0.002678,0.000431,1.873987
6047000,0.0324,0.013523,0.002678,0.000431,1.933809
6048000,0.0324,0.013523,0.002678,0.000431,1.879981
6049000,0.0324,0.013523,0.002678,0.000431,1.983523
6050000,0.0324,0.013523,0.002678,0.000431,1.766096
6051000,0.0324,0.013523,0.002678,0.000431,1.891969
6052000,0.0324,0.013523,0.002678,0.000431,1.937570
6053000,0.0324,0.013523,0.002678,0.000431,1.855652
6054000,0.0324,0.013523,0.002678,0.000431,1.848366
6055000,0.0324,0.013523,0.002678,0.000431,1.833675
6056000,0.0324,0.013523,0.002678,0.000431,1.747409
6057000,0.0324,0.013523,0.002678,0.000431,1.830149
6058000,0.0324,0.013523,0.002678,0.000431,1.826976
6059000,0.0324,0.013523,0.002678,0.000431,1.822392
6060000,0.0324,0.013523,0.002678,0.000431,1.867993
6061000,0.0324,0.013523,0.002678,0.000431,1.953083
6062000,0.0324,0.013523,0.002678,0.000431,1.877043
6063000,0.0324,0.013523,0.002678,0.000431,1.877160
6064000,0.0324,0.013523,0.002678,0.000431,2.058506
6065000,0.0324,0.013523,0.002678,0.000431,1.985639
6066000,0.0324,0.013523,0.002678,0.000431,1.964484
6067000,0.0324,0.013523,0.002678,0.000431,1.820747
6068000,0.0324,0.013523,0.002678,0.000431,1.887150
6069000,0.0324,0.013523,0.002678,0.000431,1.896082
6070000,0.0324,0.013523,0.002678,0.000431,1.779259
6071000,0.0324,0.013523,0.002678,0.000431,1.885740
6072000,0.0324,0.013523,0.002678,0.000431,1.756459
6073000,0.0324,0.013523,0.002678,0.000431,1.901371
6074000,0.0324,0.013523,0.002678,0.000431,1.872341
6075000,0.0324,0.013523,0.002678,0.000431,1.969067
6076000,0.0324,0.013523,0.002678,0.000431,1.838963
6077000,0.0324,0.013523,0.002678,0.000431,1.873399
6078000,0.0324,0.013523,0.002678,0.000431,2.038996
6079000,0.0324,0.013523,0.002678,0.000431,1.948970
6080000,0.0324,0.013523,0.002678,0.000431,1.967657
6081000,0.0324,0.013523,0.002678,0.000431,1.848836
6082000,0.0324,0.013523,0.002678,0.000431,1.922526
6083000,0.0324,0.013523,0.002678,0.000431,1.913241
6084000,0.0324,0.013523,0.002678,0.000431,1.805821
6085000,0.0324,0.013523,0.002678,0.000431,1.846603
6086000,0.0324,0.013523,0.002678,0.000431,1.801237
6087000,0.0324,0.013523,0.002678,0.000431,1.806643
6088000,0.0324,0.013523,0.002678,0.000431,1.717322
6089000,0.0324,0.013523,0.002678,0.000431,1.782315
6090000,0.0324,0.013523,0.002678,0.000431,1.687822
6091000,0.0324,0.013523,0.002678,0.000431,1.937217
6092000,0.0324,0.013523,0.002678,0.000431,1.758339
6093000,0.0324,0.013523,0.002678,0.000431,1.856005
6094000,0.0324,0.013523,0.002678,0.000431,1.799944
6095000,0.0324,0.013523,0.002678,0.000431,1.670193
6096000,0.0324,0.013523,0.002678,0.000431,1.814400
6097000,0.0324,0.013523,0.002678,0.000431,1.756341
6098000,0.0324,0.013523,0.002678,0.000431,1.868346
6099000,0.0324,0.013523,0.002678,0.000431,1.697930
6100000,0.0324,0.013523,0.002678,0.000431,1.672191
6101000,0.0324,0.013523,0.002678,0.000431,1.750582
6102000,0.0324,0.013523,0.002678,0.000431,1.738124
6103000,0.0324,0.013523,0.002678,0.000431,1.734363
6104000,0.0324,0.013523,0.002678,0.000431,1.803470
6105000,0.0324,0.013523,0.002678,0.000431,1.824625
6106000,0.0324,0.013523,0.002678,0.000431,1.842372
6107000,0.0324,0.013523,0.002678,0.000431,1.831559
6108000,0.0324,0.013523,0.002678,0.000431,1.904192
6109000,0.0324,0.013523,0.002678,0.000431,1.932398
6110000,0.0324,0.013523,0.002678,0.000431,1.889501
6111000,0.0324,0.013523,0.002678,0.000431,1.836025
6112000,0.0324,0.013523,0.002678,0.000431,1.781962
6113000,0.0324,0.013523,0.002678,0.000431,1.850129
6114000,0.0324,0.013523,0.002678,0.000431,1.708272
6115000,0.0324,0.013523,0.002678,0.000431,1.803823
6116000,0.0324,0.013523,0.002678,0.000431,1.933339
6117000,0.0324,0.013523,0.002678,0.000431,1.773265
6118000,0.0324,0.013523,0.002678,0.000431,1.784901
6119000,0.0324,0.013523,0.002678,0.000431,1.908305
6120000,0.0324,0.013523,0.002678,0.000431,1.793598
6121000,0.0324,0.013523,0.002678,0.000431,1.896200
6122000,0.0324,0.013523,0.002678,0.000431,1.850011
6123000,0.0324,0.013523,0.002678,0.000431,1.639988
6124000,0.0324,0.013523,0.002678,0.000431,1.759162
6125000,0.0324,0.013523,0.002678,0.000431,1.908070
6126000,0.0324,0.013523,0.002678,0.000431,1.823450
6127000,0.0324,0.013523,0.002678,0.000431,1.875045
6128000,0.0324,0.013523,0.002678,0.000431,1.792187
6129000,0.0324,0.013523,0.002678,0.000431,1.912771
6130000,0.0324,0.013523,0.002678,0.000431,1.825800
6131000,0.0324,0.013523,0.002678,0.000431,1.771620
6132000,0.0324,0.013523,0.002678,0.000431,1.711445
6133000,0.0324,0.013523,0.002678,0.000431,1.839786
6134000,0.0324,0.013523,0.002678,0.000431,1.831559
6135000,0.0324,0.013523,0.002678,0.000431,1.773970
6136000,0.0324,0.013523,0.002678,0.000431,1.867875
6137000,0.0324,0.013523,0.002678,0.000431,1.864350
6138000,0.0324,0.013523,0.002678,0.000431,1.835438
6139000,0.0324,0.013523,0.002678,0.000431,1.879393
6140000,0.0324,0.013523,0.002678,0.000431,1.765273
6141000,0.0324,0.013523,0.002678,0.000431,1.813930
6142000,0.0324,0.013523,0.002678,0.000431,1.826976
6143000,0.0324,0.013523,0.002678,0.000431,1.744353
6144000,0.0324,0.013523,0.002678,0.000431,1.767271
6145000,0.0324,0.013523,0.002678,0.000431,1.824037
6146000,0.0324,0.013523,0.002678,0.000431,1.896670
6147000,0.0324,0.013523,0.002678,0.000431,1.955316
6148000,0.0324,0.013523,0.002678,0.000431,2.022542
6149000,0.0324,0.013523,0.002678,0.000431,1.979057
6150000,0.0324,0.013523,0.002678,0.000431,1.894554
6151000,0.0324,0.013523,0.002678,0.000431,1.824155
6152000,0.0324,0.013523,0.002678,0.000431,1.886092
6153000,0.0324,0.013523,0.002678,0.000431,1.904074
6154000,0.0324,0.013523,0.002678,0.000431,1.868110
6155000,0.0324,0.013523,0.002678,0.000431,1.837671
6156000,0.0324,0.013523,0.002678,0.000431,1.804058
6157000,0.0324,0.013523,0.002678,0.000431,1.870696
6158000,0.0324,0.013523,0.002678,0.000431,1.983758
6159000,0.0324,0.013523,0.002678,0.000431,1.923936
6160000,0.0324,0.013523,0.002678,0.000431,1.824155
6161000,0.0324,0.013523,0.002678,0.000431,1.831207
6162000,0.0324,0.013523,0.002678,0.000431,1.675482
6163000,0.0324,0.013523,0.002678,0.000431,1.681358
6164000,0.0324,0.013523,0.002678,0.000431,1.659968
6165000,0.0324,0.013523,0.002678,0.000431,1.735186
6166000,0.0324,0.013523,0.002678,0.000431,1.759632
6167000,0.0324,0.013523,0.002678,0.000431,1.845192
6168000,0.0324,0.013523,0.002678,0.000431,1.791482
6169000,0.0324,0.013523,0.002678,0.000431,1.850834
6170000,0.0324,0.013523,0.002678,0.000431,1.763510
6171000,0.0324,0.013523,0.002678,0.000431,1.786781
6172000,0.0324,0.013523,0.002678,0.000431,1.546083
6173000,0.0324,0.013523,0.002678,0.000431,1.662671
6174000,0.0324,0.013523,0.002678,0.000431,1.794303
6175000,0.0324,0.013523,0.002678,0.000431,1.673484
6176000,0.0324,0.013523,0.002678,0.000431,1.848836
6177000,0.0324,0.013523,0.002678,0.000431,1.794420
6178000,0.0324,0.013523,0.002678,0.000431,1.764921
6179000,0.0324,0.013523,0.002678,0.000431,1.837671
6180000,0.0324,0.013523,0.002678,0.000431,1.846838
6181000,0.0324,0.013523,0.002678,0.000431,1.964601
6182000,0.0324,0.013523,0.002678,0.000431,1.934279
6183000,0.0324,0.013523,0.002678,0.000431,1.923819
6184000,0.0324,0.013523,0.002678,0.000431,1.767506
6185000,0.0324,0.013523,0.002678,0.000431,1.775146
6186000,0.0324,0.013523,0.002678,0.000431,1.757046
6187000,0.0324,0.013523,0.002678,0.000431,1.746939
6188000,0.0324,0.013523,0.002678,0.000431,1.842019
6189000,0.0324,0.013523,0.002678,0.000431,1.827681
6190000,0.0324,0.013523,0.002678,0.000431,1.819101
6191000,0.0324,0.013523,0.002678,0.000431,1.849071
6192000,0.0324,0.013523,0.002678,0.000431,1.820629
6193000,0.0324,0.013523,0.002678,0.000431,1.762570
6194000,0.0324,0.013523,0.002678,0.000431,1.751993
6195000,0.0324,0.013523,0.002678,0.000431,1.873987
6196000,0.0324,0.013523,0.002678,0.000431,1.851421
6197000,0.0324,0.013523,0.002678,0.000431,1.909363
6198000,0.0324,0.013523,0.002678,0.000431,1.765508
6199000,0.0324,0.013523,0.002678,0.000431,1.923466
6200000,0.0324,0.013523,0.002678,0.000431,1.906777
6201000,0.0324,0.013523,0.002678,0.000431,1.824155
6202000,0.0324,0.013523,0.002678,0.000431,1.671721
6203000,0.0324,0.013523,0.002678,0.000431,1.766449
6204000,0.0324,0.013523,0.002678,0.000431,1.651624
6205000,0.0324,0.013523,0.002678,0.000431,1.700163
6206000,0.0324,0.013523,0.002678,0.000431,1.861059
6207000,0.0324,0.013523,0.002678,0.000431,1.875750
6208000,0.0324,0.013523,0.002678,0.000431,1.764451
6209000,0.0324,0.013523,0.002678,0.000431,1.732600
6210000,0.0324,0.013523,0.002678,0.000431,1.746704
6211000,0.0324,0.013523,0.002678,0.000431,1.768447
6212000,0.0324,0.013523,0.002678,0.000431,1.833322
6213000,0.0324,0.013523,0.002678,0.000431,1.768564
6214000,0.0324,0.013523,0.002678,0.000431,1.864232
6215000,0.0324,0.013523,0.002678,0.000431,1.858943
6216000,0.0324,0.013523,0.002678,0.000431,1.707684
6217000,0.0324,0.013523,0.002678,0.000431,1.809581
6218000,0.0324,0.013523,0.002678,0.000431,1.823450
6219000,0.0324,0.013523,0.002678,0.000431,1.802295
6220000,0.0324,0.013523,0.002678,0.000431,1.819924
6221000,0.0324,0.013523,0.002678,0.000431,1.824272
6222000,0.0324,0.013523,0.002678,0.000431,1.738947
6223000,0.0324,0.013523,0.002678,0.000431,1.645512
6224000,0.0324,0.013523,0.002678,0.000431,1.938745
6225000,0.0324,0.013523,0.002678,0.000431,1.954846
6226000,0.0324,0.013523,0.002678,0.000431,1.889853
6227000,0.0324,0.013523,0.002678,0.000431,1.846603
6228000,0.0324,0.013523,0.002678,0.000431,1.926404
6229000,0.0324,0.013523,0.002678,0.000431,2.036763
6230000,0.0324,0.013523,0.002678,0.000431,2.087183
6231000,0.0324,0.013523,0.002678,0.000431,1.978234
6232000,0.0324,0.013523,0.002678,0.000431,2.009262
6233000,0.0324,0.013523,0.002678,0.000431,1.818161
6234000,0.0324,0.013523,0.002678,0.000431,1.776556
6235000,0.0324,0.013523,0.002678,0.000431,1.804293
6236000,0.0324,0.013523,0.002678,0.000431,1.901018
6237000,0.0324,0.013523,0.002678,0.000431,1.901371
6238000,0.0324,0.013523,0.002678,0.000431,1.942976
6239000,0.0324,0.013523,0.002678,0.000431,1.822392
6240000,0.0324,0.013523,0.002678,0.000431,1.850481
6241000,0.0324,0.013523,0.002678,0.000431,1.826153
6242000,0.0324,0.013523,0.002678,0.000431,1.938862
6243000,0.0324,0.013523,0.002678,0.000431,1.918648
6244000,0.0324,0.013523,0.002678,0.000431,1.861999
6245000,0.0324,0.013523,0.002678,0.000431,1.783608
6246000,0.0324,0.013523,0.002678,0.000431,1.762805
6247000,0.0324,0.013523,0.002678,0.000431,1.779377
6248000,0.0324,0.013523,0.002678,0.000431,1.906542
6249000,0.0324,0.013523,0.002678,0.000431,1.918177
6250000,0.0324,0.013523,0.002678,0.000431,1.835203
6251000,0.0324,0.013523,0.002678,0.000431,1.859883
6252000,0.0324,0.013523,0.002678,0.000431,1.821334
6253000,0.0324,0.013523,0.002678,0.000431,1.790307
6254000,0.0324,0.013523,0.002678,0.000431,1.791717
6255000,0.0324,0.013523,0.002678,0.000431,1.764216
6256000,0.0324,0.013523,0.002678,0.000431,1.828739
6257000,0.0324,0.013523,0.002678,0.000431,1.863527
6258000,0.0324,0.013523,0.002678,0.000431,1.807231
6259000,0.0324,0.013523,0.002678,0.000431,1.867993
6260000,0.0324,0.013523,0.002678,0.000431,1.962603
6261000,0.0324,0.013523,0.002678,0.000431,1.863879
6262000,0.0324,0.013523,0.002678,0.000431,1.815105
6263000,0.0324,0.013523,0.002678,0.000431,1.916179
6264000,0.0324,0.013523,0.002678,0.000431,1.889736
6265000,0.0324,0.013523,0.002678,0.000431,1.850481
6266000,0.0324,0.013523,0.002678,0.000431,1.930165
6267000,0.0324,0.013523,0.002678,0.000431,1.785958
6268000,0.0324,0.013523,0.002678,0.000431,1.833205
6269000,0.0324,0.013523,0.002678,0.000431,1.960017
6270000,0.0324,0.013523,0.002678,0.000431,1.856240
6271000,0.0324,0.013523,0.002678,0.000431,1.759162
6272000,0.0324,0.013523,0.002678,0.000431,1.903839
6273000,0.0324,0.013523,0.002678,0.000431,1.815575
6274000,0.0324,0.013523,0.002678,0.000431,1.775616
6275000,0.0324,0.013523,0.002678,0.000431,1.840256
6276000,0.0324,0.013523,0.002678,0.000431,1.890323
6277000,0.0324,0.013523,0.002678,0.000431,1.779612
6278000,0.0324,0.013523,0.002678,0.000431,1.818631
6279000,0.0324,0.013523,0.002678,0.000431,1.739887
6280000,0.0324,0.013523,0.002678,0.000431,1.771385
6281000,0.0324,0.013523,0.002678,0.000431,1.769974
6282000,0.0324,0.013523,0.002678,0.000431,1.865172
6283000,0.0324,0.013523,0.002678,0.000431,1.905132
6284000,0.0324,0.013523,0.002678,0.000431,1.953201
6285000,0.0324,0.013523,0.002678,0.000431,1.918060
6286000,0.0324,0.013523,0.002678,0.000431,1.894907
6287000,0.0324,0.013523,0.002678,0.000431,1.709565
6288000,0.0324,0.013523,0.002678,0.000431,1.795478
6289000,0.0324,0.013523,0.002678,0.000431,1.792657
6290000,0.0324,0.013523,0.002678,0.000431,1.757281
6291000,0.0324,0.013523,0.002678,0.000431,1.838376
6292000,0.0324,0.013523,0.002678,0.000431,1.938392
6293000,0.0324,0.013523,0.002678,0.000431,1.798416
6294000,0.0324,0.013523,0.002678,0.000431,1.931341
6295000,0.0324,0.013523,0.002678,0.000431,1.847308
6296000,0.0324,0.013523,0.002678,0.000431,1.912536
6297000,0.0324,0.013523,0.002678,0.000431,1.824037
6298000,0.0324,0.013523,0.002678,0.000431,1.873399
6299000,0.0324,0.013523,0.002678,0.000431,1.656677
6300000,0.0324,0.013523,0.002678,0.000431,1.703689
6301000,0.0324,0.013523,0.002678,0.000431,1.620126
6302000,0.0324,0.013523,0.002678,0.000431,1.814283
6303000,0.0324,0.013523,0.002678,0.000431,1.748937
6304000,0.0324,0.013523,0.002678,0.000431,1.846838
6305000,0.0324,0.013523,0.002678,0.000431,1.763393
6306000,0.0324,0.013523,0.002678,0.000431,1.648920
6307000,0.0324,0.013523,0.002678,0.000431,1.683356
6308000,0.0324,0.013523,0.002678,0.000431,1.864467
6309000,0.0324,0.013523,0.002678,0.000431,1.843312
6310000,0.0324,0.013523,0.002678,0.000431,1.816751
6311000,0.0324,0.013523,0.002678,0.000431,1.959195
6312000,0.0324,0.013523,0.002678,0.000431,1.964249
6313000,0.0324,0.013523,0.002678,0.000431,1.862822
6314000,0.0324,0.013523,0.002678,0.000431,1.858238
6315000,0.0324,0.013523,0.002678,0.000431,1.835908
6316000,0.0324,0.013523,0.002678,0.000431,1.767506
6317000,0.0324,0.013523,0.002678,0.000431,1.868698
6318000,0.0324,0.013523,0.002678,0.000431,1.888913
6319000,0.0324,0.013523,0.002678,0.000431,1.855888
6320000,0.0324,0.013523,0.002678,0.000431,1.812990
6321000,0.0324,0.013523,0.002678,0.000431,1.932163
6322000,0.0324,0.013523,0.002678,0.000431,1.994101
6323000,0.0324,0.013523,0.002678,0.000431,1.948382
6324000,0.0324,0.013523,0.002678,0.000431,1.958020
6325000,0.0324,0.013523,0.002678,0.000431,1.929813
6326000,0.0324,0.013523,0.002678,0.000431,1.916532
6327000,0.0324,0.013523,0.002678,0.000431,1.861176
6328000,0.0324,0.013523,0.002678,0.000431,1.784195
6329000,0.0324,0.013523,0.002678,0.000431,1.954494
6330000,0.0324,0.013523,0.002678,0.000431,2.019604
6331000,0.0324,0.013523,0.002678,0.000431,2.057213
6332000,0.0324,0.013523,0.002678,0.000431,1.903369
6333000,0.0324,0.013523,0.002678,0.000431,1.954376
6334000,0.0324,0.013523,0.002678,0.000431,1.840256
6335000,0.0324,0.013523,0.002678,0.000431,1.836730
6336000,0.0324,0.013523,0.002678,0.000431,1.877865
6337000,0.0324,0.013523,0.002678,0.000431,1.894437
6338000,0.0324,0.013523,0.002678,0.000431,1.814518
6339000,0.0324,0.013523,0.002678,0.000431,1.680888
6340000,0.0324,0.013523,0.002678,0.000431,1.692171
6341000,0.0324,0.013523,0.002678,0.000431,1.763628
6342000,0.0324,0.013523,0.002678,0.000431,1.872341
6343000,0.0324,0.013523,0.002678,0.000431,1.806173
6344000,0.0324,0.013523,0.002678,0.000431,1.915709
6345000,0.0324,0.013523,0.002678,0.000431,1.906660
6346000,0.0324,0.013523,0.002678,0.000431,2.047811
6347000,0.0324,0.013523,0.002678,0.000431,1.859296
6348000,0.0324,0.013523,0.002678,0.000431,1.936394
6349000,0.0324,0.013523,0.002678,0.000431,1.944386
6350000,0.0324,0.013523,0.002678,0.000431,1.845545
6351000,0.0324,0.013523,0.002678,0.000431,1.855065
6352000,0.0324,0.013523,0.002678,0.000431,1.850716
6353000,0.0324,0.013523,0.002678,0.000431,1.830972
6354000,0.0324,0.013523,0.002678,0.000431,1.895142
6355000,0.0324,0.013523,0.002678,0.000431,1.756694
6356000,0.0324,0.013523,0.002678,0.000431,1.738007
6357000,0.0324,0.013523,0.002678,0.000431,1.765743
6358000,0.0324,0.013523,0.002678,0.000431,1.671251
6359000,0.0324,0.013523,0.002678,0.000431,1.866935
6360000,0.0324,0.013523,0.002678,0.000431,1.554193
6361000,0.0324,0.013523,0.002678,0.000431,1.797476
6362000,0.0324,0.013523,0.002678,0.000431,1.840374
6363000,0.0324,0.013523,0.002678,0.000431,1.748702
6364000,0.0324,0.013523,0.002678,0.000431,1.975766
6365000,0.0324,0.013523,0.002678,0.000431,1.895730
6366000,0.0324,0.013523,0.002678,0.000431,1.870696
6367000,0.0324,0.013523,0.002678,0.000431,1.909128
6368000,0.0324,0.013523,0.002678,0.000431,1.814283
6369000,0.0324,0.013523,0.002678,0.000431,1.828033
6370000,0.0324,0.013523,0.002678,0.000431,1.837436
6371000,0.0324,0.013523,0.002678,0.000431,1.939803
6372000,0.0324,0.013523,0.002678,0.000431,1.876925
6373000,0.0324,0.013523,0.002678,0.000431,1.909950
6374000,0.0324,0.013523,0.002678,0.000431,1.866935
6375000,0.0324,0.013523,0.002678,0.000431,1.883977
6376000,0.0324,0.013523,0.002678,0.000431,1.815693
6377000,0.0324,0.013523,0.002678,0.000431,1.922408
6378000,0.0324,0.013523,0.002678,0.000431,1.887503
6379000,0.0324,0.013523,0.002678,0.000431,1.901253
6380000,0.0324,0.013523,0.002678,0.000431,1.898198
6381000,0.0324,0.013523,0.002678,0.000431,1.928755
6382000,0.0324,0.013523,0.002678,0.000431,1.822157
6383000,0.0324,0.013523,0.002678,0.000431,1.872577
6384000,0.0324,0.013523,0.002678,0.000431,1.699693
6385000,0.0324,0.013523,0.002678,0.000431,1.753050
6386000,0.0324,0.013523,0.002678,0.000431,1.847896
6387000,0.0324,0.013523,0.002678,0.000431,2.034413
6388000,0.0324,0.013523,0.002678,0.000431,1.921938
6389000,0.0324,0.013523,0.002678,0.000431,1.976236
6390000,0.0324,0.013523,0.002678,0.000431,1.893967
6391000,0.0324,0.013523,0.002678,0.000431,1.983171
6392000,0.0324,0.013523,0.002678,0.000431,2.053100
6393000,0.0324,0.013523,0.002678,0.000431,1.872694
6394000,0.0324,0.013523,0.002678,0.000431,1.995511
6395000,0.0324,0.013523,0.002678,0.000431,1.906190
6396000,0.0324,0.013523,0.002678,0.000431,1.811814
6397000,0.0324,0.013523,0.002678,0.000431,1.866348
6398000,0.0324,0.013523,0.002678,0.000431,1.861646
6399000,0.0324,0.013523,0.002678,0.000431,1.831324
6400000,0.0324,0.013523,0.002678,0.000431,1.827798
6401000,0.0324,0.013523,0.002678,0.000431,1.832617
6402000,0.0324,0.013523,0.002678,0.000431,1.805468
6403000,0.0324,0.013523,0.002678,0.000431,1.900548
6404000,0.0324,0.013523,0.002678,0.000431,1.879863
6405000,0.0324,0.013523,0.002678,0.000431,1.876808
6406000,0.0324,0.013523,0.002678,0.000431,1.862117
6407000,0.0324,0.013523,0.002678,0.000431,1.943446
6408000,0.0324,0.013523,0.002678,0.000431,1.895847
6409000,0.0324,0.013523,0.002678,0.000431,1.886092
6410000,0.0324,0.013523,0.002678,0.000431,1.793715
6411000,0.0324,0.013523,0.002678,0.000431,1.894202
6412000,0.0324,0.013523,0.002678,0.000431,1.912771
6413000,0.0324,0.013523,0.002678,0.000431,1.826858
6414000,0.0324,0.013523,0.002678,0.000431,1.761747
6415000,0.0324,0.013523,0.002678,0.000431,1.671251
6416000,0.0324,0.013523,0.002678,0.000431,1.701573
6417000,0.0324,0.013523,0.002678,0.000431,1.651976
6418000,0.0324,0.013523,0.002678,0.000431,1.726607
6419000,0.0324,0.013523,0.002678,0.000431,1.803352
6420000,0.0324,0.013523,0.002678,0.000431,1.781022
6421000,0.0324,0.013523,0.002678,0.000431,1.828739
6422000,0.0324,0.013523,0.002678,0.000431,1.769974
6423000,0.0324,0.013523,0.002678,0.000431,1.898080
6424000,0.0324,0.013523,0.002678,0.000431,1.930048
6425000,0.0324,0.013523,0.002678,0.000431,1.810169
6426000,0.0324,0.013523,0.002678,0.000431,1.819806
6427000,0.0324,0.013523,0.002678,0.000431,1.863292
6428000,0.0324,0.013523,0.002678,0.000431,1.805585
6429000,0.0324,0.013523,0.002678,0.000431,1.836495
6430000,0.0324,0.013523,0.002678,0.000431,1.685472
6431000,0.0324,0.013523,0.002678,0.000431,1.739182
6432000,0.0324,0.013523,0.002678,0.000431,1.901136
6433000,0.0324,0.013523,0.002678,0.000431,1.879393
6434000,0.0324,0.013523,0.002678,0.000431,1.681946
6435000,0.0324,0.013523,0.002678,0.000431,1.880216
6436000,0.0324,0.013523,0.002678,0.000431,1.892321
6437000,0.0324,0.013523,0.002678,0.000431,1.920881
6438000,0.0324,0.013523,0.002678,0.000431,1.812520
6439000,0.0324,0.013523,0.002678,0.000431,1.822157
6440000,0.0324,0.013523,0.002678,0.000431,1.856005
6441000,0.0324,0.013523,0.002678,0.000431,1.637755
6442000,0.0324,0.013523,0.002678,0.000431,1.854830
6443000,0.0324,0.013523,0.002678,0.000431,1.869756
6444000,0.0324,0.013523,0.002678,0.000431,1.922291
6445000,0.0324,0.013523,0.002678,0.000431,1.957549
6446000,0.0324,0.013523,0.002678,0.000431,1.836260
6447000,0.0324,0.013523,0.002678,0.000431,1.875162
6448000,0.0324,0.013523,0.002678,0.000431,1.810757
6449000,0.0324,0.013523,0.002678,0.000431,1.792775
6450000,0.0324,0.013523,0.002678,0.000431,1.742003
6451000,0.0324,0.013523,0.002678,0.000431,1.762923
6452000,0.0324,0.013523,0.002678,0.000431,1.718967
6453000,0.0324,0.013523,0.002678,0.000431,1.777966
6454000,0.0324,0.013523,0.002678,0.000431,1.659028
6455000,0.0324,0.013523,0.002678,0.000431,1.854360
6456000,0.0324,0.013523,0.002678,0.000431,1.757046
6457000,0.0324,0.013523,0.002678,0.000431,1.659263
6458000,0.0324,0.013523,0.002678,0.000431,1.857886
6459000,0.0324,0.013523,0.002678,0.000431,1.845075
6460000,0.0324,0.013523,0.002678,0.000431,1.809229
6461000,0.0324,0.013523,0.002678,0.000431,1.788074
6462000,0.0324,0.013523,0.002678,0.000431,1.944621
6463000,0.0324,0.013523,0.002678,0.000431,1.882331
6464000,0.0324,0.013523,0.002678,0.000431,2.048751
6465000,0.0324,0.013523,0.002678,0.000431,1.830854
6466000,0.0324,0.013523,0.002678,0.000431,1.841432
6467000,0.0324,0.013523,0.002678,0.000431,1.852597
6468000,0.0324,0.013523,0.002678,0.000431,1.925229
6469000,0.0324,0.013523,0.002678,0.000431,1.925464
6470000,0.0324,0.013523,0.002678,0.000431,1.873869
6471000,0.0324,0.013523,0.002678,0.000431,1.672426
6472000,0.0324,0.013523,0.002678,0.000431,1.858826
6473000,0.0324,0.013523,0.002678,0.000431,1.818396
6474000,0.0324,0.013523,0.002678,0.000431,1.891146
6475000,0.0324,0.013523,0.002678,0.000431,1.987637
6476000,0.0324,0.013523,0.002678,0.000431,1.901606
6477000,0.0324,0.013523,0.002678,0.000431,1.944151
6478000,0.0324,0.013523,0.002678,0.000431,1.965659
6479000,0.0324,0.013523,0.002678,0.000431,1.903604
6480000,0.0324,0.013523,0.002678,0.000431,1.882449
6481000,0.0324,0.013523,0.002678,0.000431,1.897845
6482000,0.0324,0.013523,0.002678,0.000431,1.804410
6483000,0.0324,0.013523,0.002678,0.000431,1.748349
6484000,0.0324,0.013523,0.002678,0.000431,1.622359
6485000,0.0324,0.013523,0.002678,0.000431,1.714149
6486000,0.0324,0.013523,0.002678,0.000431,1.707449
6487000,0.0324,0.013523,0.002678,0.000431,1.757869
6488000,0.0324,0.013523,0.002678,0.000431,1.773735
6489000,0.0324,0.013523,0.002678,0.000431,1.684884
6490000,0.0324,0.013523,0.002678,0.000431,1.846720
6491000,0.0324,0.013523,0.002678,0.000431,1.784548
6492000,0.0324,0.013523,0.002678,0.000431,1.775968
6493000,0.0324,0.013523,0.002678,0.000431,1.823567
6494000,0.0324,0.013523,0.002678,0.000431,1.776321
6495000,0.0324,0.013523,0.002678,0.000431,1.792305
6496000,0.0324,0.013523,0.002678,0.000431,1.752228
6497000,0.0324,0.013523,0.002678,0.000431,1.902429
6498000,0.0324,0.013523,0.002678,0.000431,1.704276
6499000,0.0324,0.013523,0.002678,0.000431,1.885035
6500000,0.0324,0.013523,0.002678,0.000431,1.821334
6501000,0.0324,0.013523,0.002678,0.000431,1.837906
6502000,0.0324,0.013523,0.002678,0.000431,1.927110
6503000,0.0324,0.013523,0.002678,0.000431,1.846485
6504000,0.0324,0.013523,0.002678,0.000431,1.865172
6505000,0.0324,0.013523,0.002678,0.000431,2.023013
6506000,0.0324,0.013523,0.002678,0.000431,1.958607
6507000,0.0324,0.013523,0.002678,0.000431,1.996334
6508000,0.0324,0.013523,0.002678,0.000431,1.923114
6509000,0.0324,0.013523,0.002678,0.000431,1.915357
6510000,0.0324,0.013523,0.002678,0.000431,1.985404
6511000,0.0324,0.013523,0.002678,0.000431,1.856475
6512000,0.0324,0.013523,0.002678,0.000431,1.735304
6513000,0.0324,0.013523,0.002678,0.000431,1.780905
6514000,0.0324,0.013523,0.002678,0.000431,1.753050
6515000,0.0324,0.013523,0.002678,0.000431,1.784901
6516000,0.0324,0.013523,0.002678,0.000431,1.756224
6517000,0.0324,0.013523,0.002678,0.000431,1.756576
6518000,0.0324,0.013523,0.002678,0.000431,1.642456
6519000,0.0324,0.013523,0.002678,0.000431,1.838141
6520000,0.0324,0.013523,0.002678,0.000431,1.875515
6521000,0.0324,0.013523,0.002678,0.000431,1.800414
6522000,0.0324,0.013523,0.002678,0.000431,1.848131
6523000,0.0324,0.013523,0.002678,0.000431,1.908188
6524000,0.0324,0.013523,0.002678,0.000431,1.906072
6525000,0.0324,0.013523,0.002678,0.000431,1.792187
6526000,0.0324,0.013523,0.002678,0.000431,1.831677
6527000,0.0324,0.013523,0.002678,0.000431,1.601204
6528000,0.0324,0.013523,0.002678,0.000431,1.764451
6529000,0.0324,0.013523,0.002678,0.000431,1.785841
6530000,0.0324,0.013523,0.002678,0.000431,1.767271
6531000,0.0324,0.013523,0.002678,0.000431,1.755518
6532000,0.0324,0.013523,0.002678,0.000431,1.640811
6533000,0.0324,0.013523,0.002678,0.000431,1.722611
6534000,0.0324,0.013523,0.002678,0.000431,1.709565
6535000,0.0324,0.013523,0.002678,0.000431,1.724491
6536000,0.0324,0.013523,0.002678,0.000431,1.642221
6537000,0.0324,0.013523,0.002678,0.000431,1.796653
6538000,0.0324,0.013523,0.002678,0.000431,1.885035
6539000,0.0324,0.013523,0.002678,0.000431,1.865407
6540000,0.0324,0.013523,0.002678,0.000431,1.917237
6541000,0.0324,0.013523,0.002678,0.000431,1.620596
6542000,0.0324,0.013523,0.002678,0.000431,1.969067
6543000,0.0324,0.013523,0.002678,0.000431,2.048164
6544000,0.0324,0.013523,0.002678,0.000431,1.898903
6545000,0.0324,0.013523,0.002678,0.000431,2.050867
6546000,0.0324,0.013523,0.002678,0.000431,1.937687
6547000,0.0324,0.013523,0.002678,0.000431,1.916062
6548000,0.0324,0.013523,0.002678,0.000431,2.025011
6549000,0.0324,0.013523,0.002678,0.000431,1.908070
6550000,0.0324,0.013523,0.002678,0.000431,1.808289
6551000,0.0324,0.013523,0.002678,0.000431,1.847190
6552000,0.0324,0.013523,0.002678,0.000431,1.823215
6553000,0.0324,0.013523,0.002678,0.000431,1.749877
6554000,0.0324,0.013523,0.002678,0.000431,1.920175
6555000,0.0324,0.013523,0.002678,0.000431,1.918177
6556000,0.0324,0.013523,0.002678,0.000431,1.820512
6557000,0.0324,0.013523,0.002678,0.000431,1.900431
6558000,0.0324,0.013523,0.002678,0.000431,1.915827
6559000,0.0324,0.013523,0.002678,0.000431,1.923584
6560000,0.0324,0.013523,0.002678,0.000431,1.863174
6561000,0.0324,0.013523,0.002678,0.000431,1.796301
6562000,0.0324,0.013523,0.002678,0.000431,1.866230
6563000,0.0324,0.013523,0.002678,0.000431,1.881626
6564000,0.0324,0.013523,0.002678,0.000431,1.804175
6565000,0.0324,0.013523,0.002678,0.000431,1.748584
6566000,0.0324,0.013523,0.002678,0.000431,1.807466
6567000,0.0324,0.013523,0.002678,0.000431,1.873047
6568000,0.0324,0.013523,0.002678,0.000431,1.854947
6569000,0.0324,0.013523,0.002678,0.000431,1.875162
6570000,0.0324,0.013523,0.002678,0.000431,1.864115
6571000,0.0324,0.013523,0.002678,0.000431,1.715911
6572000,0.0324,0.013523,0.002678,0.000431,1.925464
6573000,0.0324,0.013523,0.002678,0.000431,1.945444
6574000,0.0324,0.013523,0.002678,0.000431,1.917825
6575000,0.0324,0.013523,0.002678,0.000431,2.043463
6576000,0.0324,0.013523,0.002678,0.000431,2.009027
6577000,0.0324,0.013523,0.002678,0.000431,1.981995
6578000,0.0324,0.013523,0.002678,0.000431,2.036881
6579000,0.0324,0.013523,0.002678,0.000431,1.976706
6580000,0.0324,0.013523,0.002678,0.000431,1.996921
6581000,0.0324,0.013523,0.002678,0.000431,2.066498
6582000,0.0324,0.013523,0.002678,0.000431,2.108573
6583000,0.0324,0.013523,0.002678,0.000431,1.999507
6584000,0.0324,0.013523,0.002678,0.000431,2.103637
6585000,0.0324,0.013523,0.002678,0.000431,2.068731
6586000,0.0324,0.013523,0.002678,0.000431,1.938040
6587000,0.0324,0.013523,0.002678,0.000431,1.836848
6588000,0.0324,0.013523,0.002678,0.000431,1.884799
6589000,0.0324,0.013523,0.002678,0.000431,1.822862
6590000,0.0324,0.013523,0.002678,0.000431,1.753168
6591000,0.0324,0.013523,0.002678,0.000431,1.876337
6592000,0.0324,0.013523,0.002678,0.000431,1.696049
6593000,0.0324,0.013523,0.002678,0.000431,1.670546
6594000,0.0324,0.013523,0.002678,0.000431,1.655620
6595000,0.0324,0.013523,0.002678,0.000431,1.774558
6596000,0.0324,0.013523,0.002678,0.000431,1.772795
6597000,0.0324,0.013523,0.002678,0.000431,1.791129
6598000,0.0324,0.013523,0.002678,0.000431,1.755989
6599000,0.0324,0.013523,0.002678,0.000431,1.731190
6600000,0.0324,0.013523,0.002678,0.000431,1.801472
6601000,0.0324,0.013523,0.002678,0.000431,1.834145
6602000,0.0324,0.013523,0.002678,0.000431,1.778672
6603000,0.0324,0.013523,0.002678,0.000431,1.665609
6604000,0.0324,0.013523,0.002678,0.000431,1.833087
6605000,0.0324,0.013523,0.002678,0.000431,1.795596
6606000,0.0324,0.013523,0.002678,0.000431,1.832147
6607000,0.0324,0.013523,0.002678,0.000431,1.910303
6608000,0.0324,0.013523,0.002678,0.000431,1.720142
6609000,0.0324,0.013523,0.002678,0.000431,1.897140
6610000,0.0324,0.013523,0.002678,0.000431,1.952613
6611000,0.0324,0.013523,0.002678,0.000431,1.889853
6612000,0.0324,0.013523,0.002678,0.000431,1.854242
6613000,0.0324,0.013523,0.002678,0.000431,1.820394
6614000,0.0324,0.013523,0.002678,0.000431,1.835203
6615000,0.0324,0.013523,0.002678,0.000431,1.816986
6616000,0.0324,0.013523,0.002678,0.000431,1.932281
6617000,0.0324,0.013523,0.002678,0.000431,2.080014
6618000,0.0324,0.013523,0.002678,0.000431,1.975061
6619000,0.0324,0.013523,0.002678,0.000431,1.952026
6620000,0.0324,0.013523,0.002678,0.000431,1.844017
6621000,0.0324,0.013523,0.002678,0.000431,1.824860
6622000,0.0324,0.013523,0.002678,0.000431,1.980350
6623000,0.0324,0.013523,0.002678,0.000431,1.967304
6624000,0.0324,0.013523,0.002678,0.000431,1.852127
6625000,0.0324,0.013523,0.002678,0.000431,1.931341
6626000,0.0324,0.013523,0.002678,0.000431,1.884212
6627000,0.0324,0.013523,0.002678,0.000431,1.823802
6628000,0.0324,0.013523,0.002678,0.000431,1.724844
6629000,0.0324,0.013523,0.002678,0.000431,1.953083
6630000,0.0324,0.013523,0.002678,0.000431,1.870226
6631000,0.0324,0.013523,0.002678,0.000431,1.945914
6632000,0.0324,0.013523,0.002678,0.000431,1.895259
6633000,0.0324,0.013523,0.002678,0.000431,1.808406
6634000,0.0324,0.013523,0.002678,0.000431,1.920881
6635000,0.0324,0.013523,0.002678,0.000431,1.880686
6636000,0.0324,0.013523,0.002678,0.000431,1.917707
6637000,0.0324,0.013523,0.002678,0.000431,1.948617
6638000,0.0324,0.013523,0.002678,0.000431,1.954259
6639000,0.0324,0.013523,0.002678,0.000431,1.890911
6640000,0.0324,0.013523,0.002678,0.000431,1.975179
6641000,0.0324,0.013523,0.002678,0.000431,1.847896
6642000,0.0324,0.013523,0.002678,0.000431,1.873047
6643000,0.0324,0.013523,0.002678,0.000431,1.891264
6644000,0.0324,0.013523,0.002678,0.000431,1.807583
6645000,0.0324,0.013523,0.002678,0.000431,1.991280
6646000,0.0324,0.013523,0.002678,0.000431,1.920058
6647000,0.0324,0.013523,0.002678,0.000431,1.816751
6648000,0.0324,0.013523,0.002678,0.000431,1.838611
6649000,0.0324,0.013523,0.002678,0.000431,1.856593
6650000,0.0324,0.013523,0.002678,0.000431,1.812520
6651000,0.0324,0.013523,0.002678,0.000431,1.749995
6652000,0.0324,0.013523,0.002678,0.000431,1.815928
6653000,0.0324,0.013523,0.002678,0.000431,1.827093
6654000,0.0324,0.013523,0.002678,0.000431,1.724138
6655000,0.0324,0.013523,0.002678,0.000431,1.795361
6656000,0.0324,0.013523,0.002678,0.000431,1.813930
6657000,0.0324,0.013523,0.002678,0.000431,1.767624
6658000,0.0324,0.013523,0.002678,0.000431,1.716617
6659000,0.0324,0.013523,0.002678,0.000431,1.775146
6660000,0.0324,0.013523,0.002678,0.000431,1.765743
6661000,0.0324,0.013523,0.002678,0.000431,1.707214
6662000,0.0324,0.013523,0.002678,0.000431,1.709918
6663000,0.0324,0.013523,0.002678,0.000431,1.846720
6664000,0.0324,0.013523,0.002678,0.000431,1.906895
6665000,0.0324,0.013523,0.002678,0.000431,1.826858
6666000,0.0324,0.013523,0.002678,0.000431,1.793833
6667000,0.0324,0.013523,0.002678,0.000431,1.817221
6668000,0.0324,0.013523,0.002678,0.000431,1.736244
6669000,0.0324,0.013523,0.002678,0.000431,1.869403
6670000,0.0324,0.013523,0.002678,0.000431,1.848953
6671000,0.0324,0.013523,0.002678,0.000431,1.989164
6672000,0.0324,0.013523,0.002678,0.000431,1.837788
6673000,0.0324,0.013523,0.002678,0.000431,1.997391
6674000,0.0324,0.013523,0.002678,0.000431,2.017606
6675000,0.0324,0.013523,0.002678,0.000431,1.899961
6676000,0.0324,0.013523,0.002678,0.000431,1.902664
6677000,0.0324,0.013523,0.002678,0.000431,1.943916
6678000,0.0324,0.013523,0.002678,0.000431,1.778789
6679000,0.0324,0.013523,0.002678,0.000431,1.698987
6680000,0.0324,0.013523,0.002678,0.000431,1.801825
6681000,0.0324,0.013523,0.002678,0.000431,1.818631
6682000,0.0324,0.013523,0.002678,0.000431,1.774676
6683000,0.0324,0.013523,0.002678,0.000431,1.711445
6684000,0.0324,0.013523,0.002678,0.000431,1.891969
6685000,0.0324,0.013523,0.002678,0.000431,1.796771
6686000,0.0324,0.013523,0.002678,0.000431,1.863409
6687000,0.0324,0.013523,0.002678,0.000431,1.838963
6688000,0.0324,0.013523,0.002678,0.000431,2.023248
6689000,0.0324,0.013523,0.002678,0.000431,1.969537
6690000,0.0324,0.013523,0.002678,0.000431,1.893379
6691000,0.0324,0.013523,0.002678,0.000431,1.877983
6692000,0.0324,0.013523,0.002678,0.000431,1.805821
6693000,0.0324,0.013523,0.002678,0.000431,1.825565
6694000,0.0324,0.013523,0.002678,0.000431,1.878335
6695000,0.0324,0.013523,0.002678,0.000431,1.971418
6696000,0.0324,0.013523,0.002678,0.000431,1.951203
6697000,0.0324,0.013523,0.002678,0.000431,1.949205
6698000,0.0324,0.013523,0.002678,0.000431,1.887268
6699000,0.0324,0.013523,0.002678,0.000431,1.833792
6700000,0.0324,0.013523,0.002678,0.000431,1.983993
6701000,0.0324,0.013523,0.002678,0.000431,1.871871
6702000,0.0324,0.013523,0.002678,0.000431,1.835908
6703000,0.0324,0.013523,0.002678,0.000431,1.966834
6704000,0.0324,0.013523,0.002678,0.000431,1.850481
6705000,0.0324,0.013523,0.002678,0.000431,1.891969
6706000,0.0324,0.013523,0.002678,0.000431,1.956492
6707000,0.0324,0.013523,0.002678,0.000431,1.763628
6708000,0.0324,0.013523,0.002678,0.000431,1.743648
6709000,0.0324,0.013523,0.002678,0.000431,1.706979
6710000,0.0324,0.013523,0.002678,0.000431,1.821334
6711000,0.0324,0.013523,0.002678,0.000431,1.695697
6712000,0.0324,0.013523,0.002678,0.000431,1.806291
6713000,0.0324,0.013523,0.002678,0.000431,1.827446
6714000,0.0324,0.013523,0.002678,0.000431,1.811579
6715000,0.0324,0.013523,0.002678,0.000431,1.844252
6716000,0.0324,0.013523,0.002678,0.000431,1.885505
6717000,0.0324,0.013523,0.002678,0.000431,1.994806
6718000,0.0324,0.013523,0.002678,0.000431,1.923466
6719000,0.0324,0.013523,0.002678,0.000431,1.837436
6720000,0.0324,0.013523,0.002678,0.000431,1.797946
6721000,0.0324,0.013523,0.002678,0.000431,1.911478
6722000,0.0324,0.013523,0.002678,0.000431,1.786781
6723000,0.0324,0.013523,0.002678,0.000431,1.806173
6724000,0.0324,0.013523,0.002678,0.000431,1.706039
6725000,0.0324,0.013523,0.002678,0.000431,1.709565
6726000,0.0324,0.013523,0.002678,0.000431,1.736479
6727000,0.0324,0.013523,0.002678,0.000431,1.910421
6728000,0.0324,0.013523,0.002678,0.000431,1.979175
6729000,0.0324,0.013523,0.002678,0.000431,1.838846
6730000,0.0324,0.013523,0.002678,0.000431,1.772090
6731000,0.0324,0.013523,0.002678,0.000431,1.732953
6732000,0.0324,0.013523,0.002678,0.000431,1.557601
6733000,0.0324,0.013523,0.002678,0.000431,1.796888
6734000,0.0324,0.013523,0.002678,0.000431,1.861881
6735000,0.0324,0.013523,0.002678,0.000431,1.899843
6736000,0.0324,0.013523,0.002678,0.000431,1.792305
6737000,0.0324,0.013523,0.002678,0.000431,1.828033
6738000,0.0324,0.013523,0.002678,0.000431,1.728957
6739000,0.0324,0.013523,0.002678,0.000431,1.905484
6740000,0.0324,0.013523,0.002678,0.000431,1.840961
6741000,0.0324,0.013523,0.002678,0.000431,1.916885
6742000,0.0324,0.013523,0.002678,0.000431,1.983876
6743000,0.0324,0.013523,0.002678,0.000431,1.899843
6744000,0.0324,0.013523,0.002678,0.000431,1.908188
6745000,0.0324,0.013523,0.002678,0.000431,1.868698
6746000,0.0324,0.013523,0.002678,0.000431,1.821334
6747000,0.0324,0.013523,0.002678,0.000431,1.739065
6748000,0.0324,0.013523,0.002678,0.000431,1.752110
6749000,0.0324,0.013523,0.002678,0.000431,1.793715
6750000,0.0324,0.013523,0.002678,0.000431,1.786781
6751000,0.0324,0.013523,0.002678,0.000431,1.694639
6752000,0.0324,0.013523,0.002678,0.000431,1.706039
6753000,0.0324,0.013523,0.002678,0.000431,1.740710
6754000,0.0324,0.013523,0.002678,0.000431,1.803705
6755000,0.0324,0.013523,0.002678,0.000431,1.788896
6756000,0.0324,0.013523,0.002678,0.000431,1.878570
6757000,0.0324,0.013523,0.002678,0.000431,1.952496
6758000,0.0324,0.013523,0.002678,0.000431,1.914887
6759000,0.0324,0.013523,0.002678,0.000431,1.808641
6760000,0.0324,0.013523,0.002678,0.000431,1.928990
6761000,0.0324,0.013523,0.002678,0.000431,1.757516
6762000,0.0324,0.013523,0.002678,0.000431,1.585808
6763000,0.0324,0.013523,0.002678,0.000431,1.791835
6764000,0.0324,0.013523,0.002678,0.000431,1.716617
6765000,0.0324,0.013523,0.002678,0.000431,1.851304
6766000,0.0324,0.013523,0.002678,0.000431,1.815105
6767000,0.0324,0.013523,0.002678,0.000431,1.881156
6768000,0.0324,0.013523,0.002678,0.000431,1.797476
6769000,0.0324,0.013523,0.002678,0.000431,1.794303
6770000,0.0324,0.013523,0.002678,0.000431,1.793833
6771000,0.0324,0.013523,0.002678,0.000431,1.808289
6772000,0.0324,0.013523,0.002678,0.000431,1.925582
6773000,0.0324,0.013523,0.002678,0.000431,1.819336
6774000,0.0324,0.013523,0.002678,0.000431,1.803940
6775000,0.0324,0.013523,0.002678,0.000431,1.955434
6776000,0.0324,0.013523,0.002678,0.000431,1.900431
6777000,0.0324,0.013523,0.002678,0.000431,1.959195
6778000,0.0324,0.013523,0.002678,0.000431,1.853772
6779000,0.0324,0.013523,0.002678,0.000431,1.873987
6780000,0.0324,0.013523,0.002678,0.000431,1.997627
6781000,0.0324,0.013523,0.002678,0.000431,1.872106
6782000,0.0324,0.013523,0.002678,0.000431,1.796418
6783000,0.0324,0.013523,0.002678,0.000431,1.757516
6784000,0.0324,0.013523,0.002678,0.000431,1.730132
6785000,0.0324,0.013523,0.002678,0.000431,1.652564
6786000,0.0324,0.013523,0.002678,0.000431,1.618598
6787000,0.0324,0.013523,0.002678,0.000431,1.810052
6788000,0.0324,0.013523,0.002678,0.000431,1.765273
6789000,0.0324,0.013523,0.002678,0.000431,1.786428
6790000,0.0324,0.013523,0.002678,0.000431,1.772443
6791000,0.0324,0.013523,0.002678,0.000431,1.796536
6792000,0.0324,0.013523,0.002678,0.000431,1.744941
6793000,0.0324,0.013523,0.002678,0.000431,1.790894
6794000,0.0324,0.013523,0.002678,0.000431,1.719555
6795000,0.0324,0.013523,0.002678,0.000431,1.780669
6796000,0.0324,0.013523,0.002678,0.000431,1.863762
6797000,0.0324,0.013523,0.002678,0.000431,1.739535
6798000,0.0324,0.013523,0.002678,0.000431,1.782785
6799000,0.0324,0.013523,0.002678,0.000431,1.815810
6800000,0.0324,0.013523,0.002678,0.000431,1.824155
6801000,0.0324,0.013523,0.002678,0.000431,1.911831
6802000,0.0324,0.013523,0.002678,0.000431,1.956492
6803000,0.0324,0.013523,0.002678,0.000431,2.022895
6804000,0.0324,0.013523,0.002678,0.000431,1.882801
6805000,0.0324,0.013523,0.002678,0.000431,1.951085
6806000,0.0324,0.013523,0.002678,0.000431,1.947795
6807000,0.0324,0.013523,0.002678,0.000431,1.901136
6808000,0.0324,0.013523,0.002678,0.000431,1.942388
6809000,0.0324,0.013523,0.002678,0.000431,1.823215
6810000,0.0324,0.013523,0.002678,0.000431,1.960253
6811000,0.0324,0.013523,0.002678,0.000431,1.934984
6812000,0.0324,0.013523,0.002678,0.000431,1.855652
6813000,0.0324,0.013523,0.002678,0.000431,1.777614
6814000,0.0324,0.013523,0.002678,0.000431,1.709682
6815000,0.0324,0.013523,0.002678,0.000431,1.924524
6816000,0.0324,0.013523,0.002678,0.000431,1.895142
6817000,0.0324,0.013523,0.002678,0.000431,1.905014
6818000,0.0324,0.013523,0.002678,0.000431,1.827093
6819000,0.0324,0.013523,0.002678,0.000431,1.828739
6820000,0.0324,0.013523,0.002678,0.000431,1.805350
6821000,0.0324,0.013523,0.002678,0.000431,1.852479
6822000,0.0324,0.013523,0.002678,0.000431,1.960605
6823000,0.0324,0.013523,0.002678,0.000431,1.981995
6824000,0.0324,0.013523,0.002678,0.000431,2.004561
6825000,0.0324,0.013523,0.002678,0.000431,1.910186
6826000,0.0324,0.013523,0.002678,0.000431,1.818279
6827000,0.0324,0.013523,0.002678,0.000431,1.864350
6828000,0.0324,0.013523,0.002678,0.000431,1.718850
6829000,0.0324,0.013523,0.002678,0.000431,1.754696
6830000,0.0324,0.013523,0.002678,0.000431,1.716734
6831000,0.0324,0.013523,0.002678,0.000431,1.727547
6832000,0.0324,0.013523,0.002678,0.000431,1.855652
6833000,0.0324,0.013523,0.002678,0.000431,1.912301
6834000,0.0324,0.013523,0.002678,0.000431,1.873399
6835000,0.0324,0.013523,0.002678,0.000431,1.835320
6836000,0.0324,0.013523,0.002678,0.000431,1.841667
6837000,0.0324,0.013523,0.002678,0.000431,1.672073
6838000,0.0324,0.013523,0.002678,0.000431,1.918295
6839000,0.0324,0.013523,0.002678,0.000431,1.729192
6840000,0.0324,0.013523,0.002678,0.000431,1.912654
6841000,0.0324,0.013523,0.002678,0.000431,1.923584
6842000,0.0324,0.013523,0.002678,0.000431,1.973768
6843000,0.0324,0.013523,0.002678,0.000431,1.980467
6844000,0.0324,0.013523,0.002678,0.000431,1.929813
6845000,0.0324,0.013523,0.002678,0.000431,1.996216
6846000,0.0324,0.013523,0.002678,0.000431,1.926287
6847000,0.0324,0.013523,0.002678,0.000431,1.749525
6848000,0.0324,0.013523,0.002678,0.000431,1.861999
6849000,0.0324,0.013523,0.002678,0.000431,1.860471
6850000,0.0324,0.013523,0.002678,0.000431,1.832734
6851000,0.0324,0.013523,0.002678,0.000431,1.775733
6852000,0.0324,0.013523,0.002678,0.000431,1.875515
6853000,0.0324,0.013523,0.002678,0.000431,1.787956
6854000,0.0324,0.013523,0.002678,0.000431,1.785136
6855000,0.0324,0.013523,0.002678,0.000431,1.809111
6856000,0.0324,0.013523,0.002678,0.000431,1.918765
6857000,0.0324,0.013523,0.002678,0.000431,1.982113
6858000,0.0324,0.013523,0.002678,0.000431,1.735539
6859000,0.0324,0.013523,0.002678,0.000431,1.843665
6860000,0.0324,0.013523,0.002678,0.000431,1.765626
6861000,0.0324,0.013523,0.002678,0.000431,1.731073
6862000,0.0324,0.013523,0.002678,0.000431,1.955434
6863000,0.0324,0.013523,0.002678,0.000431,1.836848
6864000,0.0324,0.013523,0.002678,0.000431,1.841314
6865000,0.0324,0.013523,0.002678,0.000431,1.879393
6866000,0.0324,0.013523,0.002678,0.000431,1.854007
6867000,0.0324,0.013523,0.002678,0.000431,1.763980
6868000,0.0324,0.013523,0.002678,0.000431,1.735304
6869000,0.0324,0.013523,0.002678,0.000431,1.929108
6870000,0.0324,0.013523,0.002678,0.000431,1.862587
6871000,0.0324,0.013523,0.002678,0.000431,1.920058
6872000,0.0324,0.013523,0.002678,0.000431,1.873869
6873000,0.0324,0.013523,0.002678,0.000431,1.686059
6874000,0.0324,0.013523,0.002678,0.000431,1.752345
6875000,0.0324,0.013523,0.002678,0.000431,1.735186
6876000,0.0324,0.013523,0.002678,0.000431,1.907835
6877000,0.0324,0.013523,0.002678,0.000431,1.878335
6878000,0.0324,0.013523,0.002678,0.000431,1.789954
6879000,0.0324,0.013523,0.002678,0.000431,1.945444
6880000,0.0324,0.013523,0.002678,0.000431,2.072845
6881000,0.0324,0.013523,0.002678,0.000431,1.933456
6882000,0.0324,0.013523,0.002678,0.000431,1.899255
6883000,0.0324,0.013523,0.002678,0.000431,1.936159
6884000,0.0324,0.013523,0.002678,0.000431,1.874692
6885000,0.0324,0.013523,0.002678,0.000431,1.874104
6886000,0.0324,0.013523,0.002678,0.000431,1.646805
6887000,0.0324,0.013523,0.002678,0.000431,1.905014
6888000,0.0324,0.013523,0.002678,0.000431,1.905602
6889000,0.0324,0.013523,0.002678,0.000431,1.750582
6890000,0.0324,0.013523,0.002678,0.000431,1.732130
6891000,0.0324,0.013523,0.002678,0.000431,1.792775
6892000,0.0324,0.013523,0.002678,0.000431,1.767506
6893000,0.0324,0.013523,0.002678,0.000431,1.829444
6894000,0.0324,0.013523,0.002678,0.000431,1.829444
6895000,0.0324,0.013523,0.002678,0.000431,1.839904
6896000,0.0324,0.013523,0.002678,0.000431,1.976824
6897000,0.0324,0.013523,0.002678,0.000431,1.857180
6898000,0.0324,0.013523,0.002678,0.000431,1.785606
6899000,0.0324,0.013523,0.002678,0.000431,1.925464
6900000,0.0324,0.013523,0.002678,0.000431,1.701220
6901000,0.0324,0.013523,0.002678,0.000431,1.931811
6902000,0.0324,0.013523,0.002678,0.000431,1.810052
6903000,0.0324,0.013523,0.002678,0.000431,1.838728
6904000,0.0324,0.013523,0.002678,0.000431,1.820982
6905000,0.0324,0.013523,0.002678,0.000431,1.842959
6906000,0.0324,0.013523,0.002678,0.000431,1.834497
6907000,0.0324,0.013523,0.002678,0.000431,1.861881
6908000,0.0324,0.013523,0.002678,0.000431,1.963661
6909000,0.0324,0.013523,0.002678,0.000431,1.852714
6910000,0.0324,0.013523,0.002678,0.000431,1.955786
6911000,0.0324,0.013523,0.002678,0.000431,1.914064
6912000,0.0324,0.013523,0.002678,0.000431,1.876690
6913000,0.0324,0.013523,0.002678,0.000431,1.834968
6914000,0.0324,0.013523,0.002678,0.000431,1.604260
6915000,0.0324,0.013523,0.002678,0.000431,1.663376
6916000,0.0324,0.013523,0.002678,0.000431,1.658205
6917000,0.0324,0.013523,0.002678,0.000431,1.846838
6918000,0.0324,0.013523,0.002678,0.000431,1.858473
6919000,0.0324,0.013523,0.002678,0.000431,1.961780
6920000,0.0324,0.013523,0.002678,0.000431,1.880804
6921000,0.0324,0.013523,0.002678,0.000431,1.794420
6922000,0.0324,0.013523,0.002678,0.000431,1.798534
6923000,0.0324,0.013523,0.002678,0.000431,1.791600
6924000,0.0324,0.013523,0.002678,0.000431,1.708155
6925000,0.0324,0.013523,0.002678,0.000431,1.793950
6926000,0.0324,0.013523,0.002678,0.000431,1.786546
6927000,0.0324,0.013523,0.002678,0.000431,1.760807
6928000,0.0324,0.013523,0.002678,0.000431,1.797241
6929000,0.0324,0.013523,0.002678,0.000431,1.824390
6930000,0.0324,0.013523,0.002678,0.000431,1.789484
6931000,0.0324,0.013523,0.002678,0.000431,1.804645
6932000,0.0324,0.013523,0.002678,0.000431,1.672896
6933000,0.0324,0.013523,0.002678,0.000431,1.831442
6934000,0.0324,0.013523,0.002678,0.000431,1.865877
6935000,0.0324,0.013523,0.002678,0.000431,1.966717
6936000,0.0324,0.013523,0.002678,0.000431,1.850129
6937000,0.0324,0.013523,0.002678,0.000431,1.860589
6938000,0.0324,0.013523,0.002678,0.000431,1.845545
6939000,0.0324,0.013523,0.002678,0.000431,1.802765
6940000,0.0324,0.013523,0.002678,0.000431,1.638108
6941000,0.0324,0.013523,0.002678,0.000431,1.778672
6942000,0.0324,0.013523,0.002678,0.000431,1.849071
6943000,0.0324,0.013523,0.002678,0.000431,1.901606
6944000,0.0324,0.013523,0.002678,0.000431,1.936159
6945000,0.0324,0.013523,0.002678,0.000431,1.790894
6946000,0.0324,0.013523,0.002678,0.000431,1.767741
6947000,0.0324,0.013523,0.002678,0.000431,1.730602
6948000,0.0324,0.013523,0.002678,0.000431,1.768447
6949000,0.0324,0.013523,0.002678,0.000431,1.884447
6950000,0.0324,0.013523,0.002678,0.000431,1.915357
6951000,0.0324,0.013523,0.002678,0.000431,1.776674
6952000,0.0324,0.013523,0.002678,0.000431,1.743531
6953000,0.0324,0.013523,0.002678,0.000431,1.863997
6954000,0.0324,0.013523,0.002678,0.000431,1.958842
6955000,0.0324,0.013523,0.002678,0.000431,1.911008
6956000,0.0324,0.013523,0.002678,0.000431,1.840021
6957000,0.0324,0.013523,0.002678,0.000431,1.934279
6958000,0.0324,0.013523,0.002678,0.000431,1.867640
6959000,0.0324,0.013523,0.002678,0.000431,1.838846
6960000,0.0324,0.013523,0.002678,0.000431,1.856005
6961000,0.0324,0.013523,0.002678,0.000431,1.902311
6962000,0.0324,0.013523,0.002678,0.000431,1.878218
6963000,0.0324,0.013523,0.002678,0.000431,1.836613
6964000,0.0324,0.013523,0.002678,0.000431,1.750582
6965000,0.0324,0.013523,0.002678,0.000431,1.739652
6966000,0.0324,0.013523,0.002678,0.000431,1.838728
6967000,0.0324,0.013523,0.002678,0.000431,1.658088
6968000,0.0324,0.013523,0.002678,0.000431,1.747527
6969000,0.0324,0.013523,0.002678,0.000431,1.730485
6970000,0.0324,0.013523,0.002678,0.000431,1.677715
6971000,0.0324,0.013523,0.002678,0.000431,1.694286
6972000,0.0324,0.013523,0.002678,0.000431,1.659380
6973000,0.0324,0.013523,0.002678,0.000431,1.721200
6974000,0.0324,0.013523,0.002678,0.000431,1.719320
6975000,0.0324,0.013523,0.002678,0.000431,1.675129
6976000,0.0324,0.013523,0.002678,0.000431,1.822627
6977000,0.0324,0.013523,0.002678,0.000431,1.908070
6978000,0.0324,0.013523,0.002678,0.000431,1.808994
6979000,0.0324,0.013523,0.002678,0.000431,1.793480
6980000,0.0324,0.013523,0.002678,0.000431,1.825565
6981000,0.0324,0.013523,0.002678,0.000431,1.837553
6982000,0.0324,0.013523,0.002678,0.000431,1.775616
6983000,0.0324,0.013523,0.002678,0.000431,1.694874
6984000,0.0324,0.013523,0.002678,0.000431,1.623064
6985000,0.0324,0.013523,0.002678,0.000431,1.781962
6986000,0.0324,0.013523,0.002678,0.000431,1.775028
6987000,0.0324,0.013523,0.002678,0.000431,1.644689
6988000,0.0324,0.013523,0.002678,0.000431,1.708507
6989000,0.0324,0.013523,0.002678,0.000431,1.887973
6990000,0.0324,0.013523,0.002678,0.000431,1.867758
6991000,0.0324,0.013523,0.002678,0.000431,1.697107
6992000,0.0324,0.013523,0.002678,0.000431,1.616600
6993000,0.0324,0.013523,0.002678,0.000431,1.766684
6994000,0.0324,0.013523,0.002678,0.000431,1.842842
6995000,0.0324,0.013523,0.002678,0.000431,1.828033
6996000,0.0324,0.013523,0.002678,0.000431,1.820159
6997000,0.0324,0.013523,0.002678,0.000431,1.797006
6998000,0.0324,0.013523,0.002678,0.000431,1.797476
6999000,0.0324,0.013523,0.002678,0.000431,1.634582
