Cycle,Area(mm^2),PeakDynamic(W),SubthresholdLeakage(W),GateLeakage(W),RunTimeDynamic(W)
8000000,0.0324,0.013523,0.002678,0.000431,1.691466
8001000,0.0324,0.013523,0.002678,0.000431,1.759397
8002000,0.0324,0.013523,0.002678,0.000431,1.503656
8003000,0.0324,0.013523,0.002678,0.000431,1.604260
8004000,0.0324,0.013523,0.002678,0.000431,1.711093
8005000,0.0324,0.013523,0.002678,0.000431,1.566533
8006000,0.0324,0.013523,0.002678,0.000431,1.570882
8007000,0.0324,0.013523,0.002678,0.000431,1.435019
8008000,0.0324,0.013523,0.002678,0.000431,1.558424
8009000,0.0324,0.013523,0.002678,0.000431,1.547023
8010000,0.0324,0.013523,0.002678,0.000431,1.481913
8011000,0.0324,0.013523,0.002678,0.000431,1.645395
8012000,0.0324,0.013523,0.002678,0.000431,1.741650
8013000,0.0324,0.013523,0.002678,0.000431,1.674894
8014000,0.0324,0.013523,0.002678,0.000431,1.565593
8015000,0.0324,0.013523,0.002678,0.000431,1.403169
8016000,0.0324,0.013523,0.002678,0.000431,1.556191
8017000,0.0324,0.013523,0.002678,0.000431,1.826623
8018000,0.0324,0.013523,0.002678,0.000431,1.649861
8019000,0.0324,0.013523,0.002678,0.000431,1.594505
8020000,0.0324,0.013523,0.002678,0.000431,1.508592
8021000,0.0324,0.013523,0.002678,0.000431,1.618951
8022000,0.0324,0.013523,0.002678,0.000431,1.626473
8023000,0.0324,0.013523,0.002678,0.000431,1.563125
8024000,0.0324,0.013523,0.002678,0.000431,1.610254
8025000,0.0324,0.013523,0.002678,0.000431,1.633994
8026000,0.0324,0.013523,0.002678,0.000431,1.619303
8027000,0.0324,0.013523,0.002678,0.000431,1.671956
8028000,0.0324,0.013523,0.002678,0.000431,1.514586
8029000,0.0324,0.013523,0.002678,0.000431,1.381074
8030000,0.0324,0.013523,0.002678,0.000431,1.468397
8031000,0.0324,0.013523,0.002678,0.000431,1.559599
8032000,0.0324,0.013523,0.002678,0.000431,1.507887
8033000,0.0324,0.013523,0.002678,0.000431,1.562537
8034000,0.0324,0.013523,0.002678,0.000431,1.632114
8035000,0.0324,0.013523,0.002678,0.000431,1.790894
8036000,0.0324,0.013523,0.002678,0.000431,1.766214
8037000,0.0324,0.013523,0.002678,0.000431,1.460170
8038000,0.0324,0.013523,0.002678,0.000431,1.602379
8039000,0.0324,0.013523,0.002678,0.000431,1.523400
8040000,0.0324,0.013523,0.002678,0.000431,1.755048
8041000,0.0324,0.013523,0.002678,0.000431,1.653386
8042000,0.0324,0.013523,0.002678,0.000431,1.492255
8043000,0.0324,0.013523,0.002678,0.000431,1.556073
8044000,0.0324,0.013523,0.002678,0.000431,1.733306
8045000,0.0324,0.013523,0.002678,0.000431,1.502128
8046000,0.0324,0.013523,0.002678,0.000431,1.633524
8047000,0.0324,0.013523,0.002678,0.000431,1.658793
8048000,0.0324,0.013523,0.002678,0.000431,1.650566
8049000,0.0324,0.013523,0.002678,0.000431,1.475214
8050000,0.0324,0.013523,0.002678,0.000431,1.434549
8051000,0.0324,0.013523,0.002678,0.000431,1.447947
8052000,0.0324,0.013523,0.002678,0.000431,1.429730
8053000,0.0324,0.013523,0.002678,0.000431,1.562185
8054000,0.0324,0.013523,0.002678,0.000431,1.686059
8055000,0.0324,0.013523,0.002678,0.000431,1.637403
8056000,0.0324,0.013523,0.002678,0.000431,1.671016
8057000,0.0324,0.013523,0.002678,0.000431,1.498249
8058000,0.0324,0.013523,0.002678,0.000431,1.569236
8059000,0.0324,0.013523,0.002678,0.000431,1.686059
8060000,0.0324,0.013523,0.002678,0.000431,1.694404
8061000,0.0324,0.013523,0.002678,0.000431,1.753168
8062000,0.0324,0.013523,0.002678,0.000431,1.662906
8063000,0.0324,0.013523,0.002678,0.000431,1.551137
8064000,0.0324,0.013523,0.002678,0.000431,1.539149
8065000,0.0324,0.013523,0.002678,0.000431,1.721788
8066000,0.0324,0.013523,0.002678,0.000431,1.422444
8067000,0.0324,0.013523,0.002678,0.000431,1.526103
8068000,0.0324,0.013523,0.002678,0.000431,1.497779
8069000,0.0324,0.013523,0.002678,0.000431,1.609901
8070000,0.0324,0.013523,0.002678,0.000431,1.629881
8071000,0.0324,0.013523,0.002678,0.000431,1.661261
8072000,0.0324,0.013523,0.002678,0.000431,1.649155
8073000,0.0324,0.013523,0.002678,0.000431,1.701103
8074000,0.0324,0.013523,0.002678,0.000431,1.818514
8075000,0.0324,0.013523,0.002678,0.000431,1.751758
8076000,0.0324,0.013523,0.002678,0.000431,1.627765
8077000,0.0324,0.013523,0.002678,0.000431,1.601792
8078000,0.0324,0.013523,0.002678,0.000431,1.673954
8079000,0.0324,0.013523,0.002678,0.000431,1.654209
8080000,0.0324,0.013523,0.002678,0.000431,1.467222
8081000,0.0324,0.013523,0.002678,0.000431,1.613779
8082000,0.0324,0.013523,0.002678,0.000431,1.523400
8083000,0.0324,0.013523,0.002678,0.000431,1.741298
8084000,0.0324,0.013523,0.002678,0.000431,1.493548
8085000,0.0324,0.013523,0.002678,0.000431,1.634582
8086000,0.0324,0.013523,0.002678,0.000431,1.596033
8087000,0.0324,0.013523,0.002678,0.000431,1.568296
8088000,0.0324,0.013523,0.002678,0.000431,1.625180
8089000,0.0324,0.013523,0.002678,0.000431,1.475331
8090000,0.0324,0.013523,0.002678,0.000431,1.591097
8091000,0.0324,0.013523,0.002678,0.000431,1.720142
8092000,0.0324,0.013523,0.002678,0.000431,1.696167
8093000,0.0324,0.013523,0.002678,0.000431,1.566181
8094000,0.0324,0.013523,0.002678,0.000431,1.565475
8095000,0.0324,0.013523,0.002678,0.000431,1.666785
8096000,0.0324,0.013523,0.002678,0.000431,1.714619
8097000,0.0324,0.013523,0.002678,0.000431,1.666432
8098000,0.0324,0.013523,0.002678,0.000431,1.637050
8099000,0.0324,0.013523,0.002678,0.000431,1.480032
8100000,0.0324,0.013523,0.002678,0.000431,1.394824
8101000,0.0324,0.013523,0.002678,0.000431,1.585573
8102000,0.0324,0.013523,0.002678,0.000431,1.648098
8103000,0.0324,0.013523,0.002678,0.000431,1.568179
8104000,0.0324,0.013523,0.002678,0.000431,1.651741
8105000,0.0324,0.013523,0.002678,0.000431,1.757399
8106000,0.0324,0.013523,0.002678,0.000431,1.706509
8107000,0.0324,0.013523,0.002678,0.000431,1.626355
8108000,0.0324,0.013523,0.002678,0.000431,1.575348
8109000,0.0324,0.013523,0.002678,0.000431,1.658675
8110000,0.0324,0.013523,0.002678,0.000431,1.612134
8111000,0.0324,0.013523,0.002678,0.000431,1.456644
8112000,0.0324,0.013523,0.002678,0.000431,1.651741
8113000,0.0324,0.013523,0.002678,0.000431,1.635287
8114000,0.0324,0.013523,0.002678,0.000431,1.342407
8115000,0.0324,0.013523,0.002678,0.000431,1.408928
8116000,0.0324,0.013523,0.002678,0.000431,1.568649
8117000,0.0324,0.013523,0.002678,0.000431,1.573350
8118000,0.0324,0.013523,0.002678,0.000431,1.635287
8119000,0.0324,0.013523,0.002678,0.000431,1.602262
8120000,0.0324,0.013523,0.002678,0.000431,1.395295
8121000,0.0324,0.013523,0.002678,0.000431,1.611781
8122000,0.0324,0.013523,0.002678,0.000431,1.490845
8123000,0.0324,0.013523,0.002678,0.000431,1.656325
8124000,0.0324,0.013523,0.002678,0.000431,1.869756
8125000,0.0324,0.013523,0.002678,0.000431,1.652211
8126000,0.0324,0.013523,0.002678,0.000431,1.750817
8127000,0.0324,0.013523,0.002678,0.000431,1.552900
8128000,0.0324,0.013523,0.002678,0.000431,1.509885
8129000,0.0324,0.013523,0.002678,0.000431,1.531392
8130000,0.0324,0.013523,0.002678,0.000431,1.660673
8131000,0.0324,0.013523,0.002678,0.000431,1.587806
8132000,0.0324,0.013523,0.002678,0.000431,1.588276
8133000,0.0324,0.013523,0.002678,0.000431,1.510942
8134000,0.0324,0.013523,0.002678,0.000431,1.608843
8135000,0.0324,0.013523,0.002678,0.000431,1.685354
8136000,0.0324,0.013523,0.002678,0.000431,1.580284
8137000,0.0324,0.013523,0.002678,0.000431,1.624827
8138000,0.0324,0.013523,0.002678,0.000431,1.639871
8139000,0.0324,0.013523,0.002678,0.000431,1.455234
8140000,0.0324,0.013523,0.002678,0.000431,1.499189
8141000,0.0324,0.013523,0.002678,0.000431,1.354512
8142000,0.0324,0.013523,0.002678,0.000431,1.495781
8143000,0.0324,0.013523,0.002678,0.000431,1.552782
8144000,0.0324,0.013523,0.002678,0.000431,1.611429
8145000,0.0324,0.013523,0.002678,0.000431,1.557954
8146000,0.0324,0.013523,0.002678,0.000431,1.565240
8147000,0.0324,0.013523,0.002678,0.000431,1.769857
8148000,0.0324,0.013523,0.002678,0.000431,1.543263
8149000,0.0324,0.013523,0.002678,0.000431,1.753991
8150000,0.0324,0.013523,0.002678,0.000431,1.465341
8151000,0.0324,0.013523,0.002678,0.000431,1.373082
8152000,0.0324,0.013523,0.002678,0.000431,1.494136
8153000,0.0324,0.013523,0.002678,0.000431,1.569471
8154000,0.0324,0.013523,0.002678,0.000431,1.603672
8155000,0.0324,0.013523,0.002678,0.000431,1.538796
8156000,0.0324,0.013523,0.002678,0.000431,1.728134
8157000,0.0324,0.013523,0.002678,0.000431,1.588393
8158000,0.0324,0.013523,0.002678,0.000431,1.646805
8159000,0.0324,0.013523,0.002678,0.000431,1.657853
8160000,0.0324,0.013523,0.002678,0.000431,1.587101
8161000,0.0324,0.013523,0.002678,0.000431,1.550667
8162000,0.0324,0.013523,0.002678,0.000431,1.645512
8163000,0.0324,0.013523,0.002678,0.000431,1.632114
8164000,0.0324,0.013523,0.002678,0.000431,1.786781
8165000,0.0324,0.013523,0.002678,0.000431,1.483676
8166000,0.0324,0.013523,0.002678,0.000431,1.577933
8167000,0.0324,0.013523,0.002678,0.000431,1.528924
8168000,0.0324,0.013523,0.002678,0.000431,1.598853
8169000,0.0324,0.013523,0.002678,0.000431,1.642809
8170000,0.0324,0.013523,0.002678,0.000431,1.669135
8171000,0.0324,0.013523,0.002678,0.000431,1.710505
8172000,0.0324,0.013523,0.002678,0.000431,1.841079
8173000,0.0324,0.013523,0.002678,0.000431,1.593447
8174000,0.0324,0.013523,0.002678,0.000431,1.429025
8175000,0.0324,0.013523,0.002678,0.000431,1.549609
8176000,0.0324,0.013523,0.002678,0.000431,1.514468
8177000,0.0324,0.013523,0.002678,0.000431,1.549844
8178000,0.0324,0.013523,0.002678,0.000431,1.495311
8179000,0.0324,0.013523,0.002678,0.000431,1.672191
8180000,0.0324,0.013523,0.002678,0.000431,1.481560
8181000,0.0324,0.013523,0.002678,0.000431,1.636697
8182000,0.0324,0.013523,0.002678,0.000431,1.717322
8183000,0.0324,0.013523,0.002678,0.000431,1.765273
8184000,0.0324,0.013523,0.002678,0.000431,1.724256
8185000,0.0324,0.013523,0.002678,0.000431,1.517406
8186000,0.0324,0.013523,0.002678,0.000431,1.745764
8187000,0.0324,0.013523,0.002678,0.000431,1.724609
8188000,0.0324,0.013523,0.002678,0.000431,1.637755
8189000,0.0324,0.013523,0.002678,0.000431,1.555603
8190000,0.0324,0.013523,0.002678,0.000431,1.477447
8191000,0.0324,0.013523,0.002678,0.000431,1.624475
8192000,0.0324,0.013523,0.002678,0.000431,1.601792
8193000,0.0324,0.013523,0.002678,0.000431,1.835908
8194000,0.0324,0.013523,0.002678,0.000431,1.761983
8195000,0.0324,0.013523,0.002678,0.000431,1.625650
8196000,0.0324,0.013523,0.002678,0.000431,1.549727
8197000,0.0324,0.013523,0.002678,0.000431,1.664199
8198000,0.0324,0.013523,0.002678,0.000431,1.605200
8199000,0.0324,0.013523,0.002678,0.000431,1.473803
8200000,0.0324,0.013523,0.002678,0.000431,1.581929
8201000,0.0324,0.013523,0.002678,0.000431,1.602849
8202000,0.0324,0.013523,0.002678,0.000431,1.505183
8203000,0.0324,0.013523,0.002678,0.000431,1.525751
8204000,0.0324,0.013523,0.002678,0.000431,1.522343
8205000,0.0324,0.013523,0.002678,0.000431,1.715676
8206000,0.0324,0.013523,0.002678,0.000431,1.774440
8207000,0.0324,0.013523,0.002678,0.000431,1.703453
8208000,0.0324,0.013523,0.002678,0.000431,1.651859
8209000,0.0324,0.013523,0.002678,0.000431,1.626473
8210000,0.0324,0.013523,0.002678,0.000431,1.487554
8211000,0.0324,0.013523,0.002678,0.000431,1.497662
8212000,0.0324,0.013523,0.002678,0.000431,1.533743
8213000,0.0324,0.013523,0.002678,0.000431,1.495546
8214000,0.0324,0.013523,0.002678,0.000431,1.481090
8215000,0.0324,0.013523,0.002678,0.000431,1.585103
8216000,0.0324,0.013523,0.002678,0.000431,1.555368
8217000,0.0324,0.013523,0.002678,0.000431,1.677715
8218000,0.0324,0.013523,0.002678,0.000431,1.445362
8219000,0.0324,0.013523,0.002678,0.000431,1.655737
8220000,0.0324,0.013523,0.002678,0.000431,1.676069
8221000,0.0324,0.013523,0.002678,0.000431,1.718027
8222000,0.0324,0.013523,0.002678,0.000431,1.660203
8223000,0.0324,0.013523,0.002678,0.000431,1.658088
8224000,0.0324,0.013523,0.002678,0.000431,1.713208
8225000,0.0324,0.013523,0.002678,0.000431,1.739535
8226000,0.0324,0.013523,0.002678,0.000431,1.684061
8227000,0.0324,0.013523,0.002678,0.000431,1.730367
8228000,0.0324,0.013523,0.002678,0.000431,1.628823
8229000,0.0324,0.013523,0.002678,0.000431,1.826270
8230000,0.0324,0.013523,0.002678,0.000431,1.712738
8231000,0.0324,0.013523,0.002678,0.000431,1.535623
8232000,0.0324,0.013523,0.002678,0.000431,1.683944
8233000,0.0324,0.013523,0.002678,0.000431,1.573702
8234000,0.0324,0.013523,0.002678,0.000431,1.697460
8235000,0.0324,0.013523,0.002678,0.000431,1.656442
8236000,0.0324,0.013523,0.002678,0.000431,1.657030
8237000,0.0324,0.013523,0.002678,0.000431,1.584280
8238000,0.0324,0.013523,0.002678,0.000431,1.697460
8239000,0.0324,0.013523,0.002678,0.000431,1.701455
8240000,0.0324,0.013523,0.002678,0.000431,1.578168
8241000,0.0324,0.013523,0.002678,0.000431,1.700985
8242000,0.0324,0.013523,0.002678,0.000431,1.691466
8243000,0.0324,0.013523,0.002678,0.000431,1.714501
8244000,0.0324,0.013523,0.002678,0.000431,1.699693
8245000,0.0324,0.013523,0.002678,0.000431,1.483676
8246000,0.0324,0.013523,0.002678,0.000431,1.495664
8247000,0.0324,0.013523,0.002678,0.000431,1.570177
8248000,0.0324,0.013523,0.002678,0.000431,1.564418
8249000,0.0324,0.013523,0.002678,0.000431,1.516114
8250000,0.0324,0.013523,0.002678,0.000431,1.645277
8251000,0.0324,0.013523,0.002678,0.000431,1.723903
8252000,0.0324,0.013523,0.002678,0.000431,1.644689
8253000,0.0324,0.013523,0.002678,0.000431,1.657265
8254000,0.0324,0.013523,0.002678,0.000431,1.741650
8255000,0.0324,0.013523,0.002678,0.000431,1.631879
8256000,0.0324,0.013523,0.002678,0.000431,1.595328
8257000,0.0324,0.013523,0.002678,0.000431,1.614015
8258000,0.0324,0.013523,0.002678,0.000431,1.625180
8259000,0.0324,0.013523,0.002678,0.000431,1.734246
8260000,0.0324,0.013523,0.002678,0.000431,1.752110
8261000,0.0324,0.013523,0.002678,0.000431,1.487672
8262000,0.0324,0.013523,0.002678,0.000431,1.719907
8263000,0.0324,0.013523,0.002678,0.000431,1.579814
8264000,0.0324,0.013523,0.002678,0.000431,1.697460
8265000,0.0324,0.013523,0.002678,0.000431,1.834968
8266000,0.0324,0.013523,0.002678,0.000431,1.732013
8267000,0.0324,0.013523,0.002678,0.000431,1.320664
8268000,0.0324,0.013523,0.002678,0.000431,1.441836
8269000,0.0324,0.013523,0.002678,0.000431,1.731425
8270000,0.0324,0.013523,0.002678,0.000431,1.528336
8271000,0.0324,0.013523,0.002678,0.000431,1.584985
8272000,0.0324,0.013523,0.002678,0.000431,1.688057
8273000,0.0324,0.013523,0.002678,0.000431,1.551960
8274000,0.0324,0.013523,0.002678,0.000431,1.592977
8275000,0.0324,0.013523,0.002678,0.000431,1.597561
8276000,0.0324,0.013523,0.002678,0.000431,1.589569
8277000,0.0324,0.013523,0.002678,0.000431,1.730015
8278000,0.0324,0.013523,0.002678,0.000431,1.549021
8279000,0.0324,0.013523,0.002678,0.000431,1.537739
8280000,0.0324,0.013523,0.002678,0.000431,1.506124
8281000,0.0324,0.013523,0.002678,0.000431,1.620361
8282000,0.0324,0.013523,0.002678,0.000431,1.510590
8283000,0.0324,0.013523,0.002678,0.000431,1.671133
8284000,0.0324,0.013523,0.002678,0.000431,1.602379
8285000,0.0324,0.013523,0.002678,0.000431,1.685354
8286000,0.0324,0.013523,0.002678,0.000431,1.647980
8287000,0.0324,0.013523,0.002678,0.000431,1.488729
8288000,0.0324,0.013523,0.002678,0.000431,1.626002
8289000,0.0324,0.013523,0.002678,0.000431,1.606023
8290000,0.0324,0.013523,0.002678,0.000431,1.698282
8291000,0.0324,0.013523,0.002678,0.000431,1.640458
8292000,0.0324,0.013523,0.002678,0.000431,1.419153
8293000,0.0324,0.013523,0.002678,0.000431,1.536916
8294000,0.0324,0.013523,0.002678,0.000431,1.702513
8295000,0.0324,0.013523,0.002678,0.000431,1.413982
8296000,0.0324,0.013523,0.002678,0.000431,1.458995
8297000,0.0324,0.013523,0.002678,0.000431,1.400583
8298000,0.0324,0.013523,0.002678,0.000431,1.627413
8299000,0.0324,0.013523,0.002678,0.000431,1.574995
8300000,0.0324,0.013523,0.002678,0.000431,1.499307
8301000,0.0324,0.013523,0.002678,0.000431,1.714619
8302000,0.0324,0.013523,0.002678,0.000431,1.747291
8303000,0.0324,0.013523,0.002678,0.000431,1.699928
8304000,0.0324,0.013523,0.002678,0.000431,1.743060
8305000,0.0324,0.013523,0.002678,0.000431,1.585220
8306000,0.0324,0.013523,0.002678,0.000431,1.534095
8307000,0.0324,0.013523,0.002678,0.000431,1.525281
8308000,0.0324,0.013523,0.002678,0.000431,1.623417
8309000,0.0324,0.013523,0.002678,0.000431,1.704041
8310000,0.0324,0.013523,0.002678,0.000431,1.574408
8311000,0.0324,0.013523,0.002678,0.000431,1.466752
8312000,0.0324,0.013523,0.002678,0.000431,1.595563
8313000,0.0324,0.013523,0.002678,0.000431,1.666785
8314000,0.0324,0.013523,0.002678,0.000431,1.534448
8315000,0.0324,0.013523,0.002678,0.000431,1.605082
8316000,0.0324,0.013523,0.002678,0.000431,1.647275
8317000,0.0324,0.013523,0.002678,0.000431,1.506006
8318000,0.0324,0.013523,0.002678,0.000431,1.368498
8319000,0.0324,0.013523,0.002678,0.000431,1.617540
8320000,0.0324,0.013523,0.002678,0.000431,1.729780
8321000,0.0324,0.013523,0.002678,0.000431,1.676069
8322000,0.0324,0.013523,0.002678,0.000431,1.569471
8323000,0.0324,0.013523,0.002678,0.000431,1.554663
8324000,0.0324,0.013523,0.002678,0.000431,1.665022
8325000,0.0324,0.013523,0.002678,0.000431,1.659615
8326000,0.0324,0.013523,0.002678,0.000431,1.665492
8327000,0.0324,0.013523,0.002678,0.000431,1.686529
8328000,0.0324,0.013523,0.002678,0.000431,1.592859
8329000,0.0324,0.013523,0.002678,0.000431,1.762570
8330000,0.0324,0.013523,0.002678,0.000431,1.643632
8331000,0.0324,0.013523,0.002678,0.000431,1.648215
8332000,0.0324,0.013523,0.002678,0.000431,1.533038
8333000,0.0324,0.013523,0.002678,0.000431,1.398350
8334000,0.0324,0.013523,0.002678,0.000431,1.584632
8335000,0.0324,0.013523,0.002678,0.000431,1.752228
8336000,0.0324,0.013523,0.002678,0.000431,1.533038
8337000,0.0324,0.013523,0.002678,0.000431,1.661143
8338000,0.0324,0.013523,0.002678,0.000431,1.574055
8339000,0.0324,0.013523,0.002678,0.000431,1.631761
8340000,0.0324,0.013523,0.002678,0.000431,1.647040
8341000,0.0324,0.013523,0.002678,0.000431,1.694874
8342000,0.0324,0.013523,0.002678,0.000431,1.612487
8343000,0.0324,0.013523,0.002678,0.000431,1.479680
8344000,0.0324,0.013523,0.002678,0.000431,1.591684
8345000,0.0324,0.013523,0.002678,0.000431,1.619186
8346000,0.0324,0.013523,0.002678,0.000431,1.700985
8347000,0.0324,0.013523,0.002678,0.000431,1.759749
8348000,0.0324,0.013523,0.002678,0.000431,1.827798
8349000,0.0324,0.013523,0.002678,0.000431,1.573232
8350000,0.0324,0.013523,0.002678,0.000431,1.456644
8351000,0.0324,0.013523,0.002678,0.000431,1.453589
8352000,0.0324,0.013523,0.002678,0.000431,1.625885
8353000,0.0324,0.013523,0.002678,0.000431,1.509532
8354000,0.0324,0.013523,0.002678,0.000431,1.555721
8355000,0.0324,0.013523,0.002678,0.000431,1.620596
8356000,0.0324,0.013523,0.002678,0.000431,1.640458
8357000,0.0324,0.013523,0.002678,0.000431,1.754343
8358000,0.0324,0.013523,0.002678,0.000431,1.506124
8359000,0.0324,0.013523,0.002678,0.000431,1.492490
8360000,0.0324,0.013523,0.002678,0.000431,1.663964
8361000,0.0324,0.013523,0.002678,0.000431,1.626590
8362000,0.0324,0.013523,0.002678,0.000431,1.694991
8363000,0.0324,0.013523,0.002678,0.000431,1.512940
8364000,0.0324,0.013523,0.002678,0.000431,1.734246
8365000,0.0324,0.013523,0.002678,0.000431,1.516701
8366000,0.0324,0.013523,0.002678,0.000431,1.571469
8367000,0.0324,0.013523,0.002678,0.000431,1.548316
8368000,0.0324,0.013523,0.002678,0.000431,1.661378
8369000,0.0324,0.013523,0.002678,0.000431,1.588863
8370000,0.0324,0.013523,0.002678,0.000431,1.661378
8371000,0.0324,0.013523,0.002678,0.000431,1.724256
8372000,0.0324,0.013523,0.002678,0.000431,1.627765
8373000,0.0324,0.013523,0.002678,0.000431,1.637755
8374000,0.0324,0.013523,0.002678,0.000431,1.499895
8375000,0.0324,0.013523,0.002678,0.000431,1.472746
8376000,0.0324,0.013523,0.002678,0.000431,1.693111
8377000,0.0324,0.013523,0.002678,0.000431,1.713678
8378000,0.0324,0.013523,0.002678,0.000431,1.681828
8379000,0.0324,0.013523,0.002678,0.000431,1.683944
8380000,0.0324,0.013523,0.002678,0.000431,1.610489
8381000,0.0324,0.013523,0.002678,0.000431,1.362387
8382000,0.0324,0.013523,0.002678,0.000431,1.687117
8383000,0.0324,0.013523,0.002678,0.000431,1.620479
8384000,0.0324,0.013523,0.002678,0.000431,1.740592
8385000,0.0324,0.013523,0.002678,0.000431,1.734246
8386000,0.0324,0.013523,0.002678,0.000431,1.764333
8387000,0.0324,0.013523,0.002678,0.000431,1.646922
8388000,0.0324,0.013523,0.002678,0.000431,1.449945
8389000,0.0324,0.013523,0.002678,0.000431,1.520815
8390000,0.0324,0.013523,0.002678,0.000431,1.663964
8391000,0.0324,0.013523,0.002678,0.000431,1.565828
8392000,0.0324,0.013523,0.002678,0.000431,1.546906
8393000,0.0324,0.013523,0.002678,0.000431,1.528454
8394000,0.0324,0.013523,0.002678,0.000431,1.443716
8395000,0.0324,0.013523,0.002678,0.000431,1.337236
8396000,0.0324,0.013523,0.002678,0.000431,1.593917
8397000,0.0324,0.013523,0.002678,0.000431,1.521402
8398000,0.0324,0.013523,0.002678,0.000431,1.462286
8399000,0.0324,0.013523,0.002678,0.000431,1.378018
8400000,0.0324,0.013523,0.002678,0.000431,1.446419
8401000,0.0324,0.013523,0.002678,0.000431,1.741180
8402000,0.0324,0.013523,0.002678,0.000431,1.719437
8403000,0.0324,0.013523,0.002678,0.000431,1.622242
8404000,0.0324,0.013523,0.002678,0.000431,1.592154
8405000,0.0324,0.013523,0.002678,0.000431,1.563125
8406000,0.0324,0.013523,0.002678,0.000431,1.595210
8407000,0.0324,0.013523,0.002678,0.000431,1.665727
8408000,0.0324,0.013523,0.002678,0.000431,1.753168
8409000,0.0324,0.013523,0.002678,0.000431,1.531510
8410000,0.0324,0.013523,0.002678,0.000431,1.321252
8411000,0.0324,0.013523,0.002678,0.000431,1.674659
8412000,0.0324,0.013523,0.002678,0.000431,1.404109
8413000,0.0324,0.013523,0.002678,0.000431,1.561714
8414000,0.0324,0.013523,0.002678,0.000431,1.659615
8415000,0.0324,0.013523,0.002678,0.000431,1.704629
8416000,0.0324,0.013523,0.002678,0.000431,1.373904
8417000,0.0324,0.013523,0.002678,0.000431,1.623534
8418000,0.0324,0.013523,0.002678,0.000431,1.517406
8419000,0.0324,0.013523,0.002678,0.000431,1.618481
8420000,0.0324,0.013523,0.002678,0.000431,1.545261
8421000,0.0324,0.013523,0.002678,0.000431,1.452883
8422000,0.0324,0.013523,0.002678,0.000431,1.571469
8423000,0.0324,0.013523,0.002678,0.000431,1.584632
8424000,0.0324,0.013523,0.002678,0.000431,1.637873
8425000,0.0324,0.013523,0.002678,0.000431,1.604965
8426000,0.0324,0.013523,0.002678,0.000431,1.576758
8427000,0.0324,0.013523,0.002678,0.000431,1.779847
8428000,0.0324,0.013523,0.002678,0.000431,1.416920
8429000,0.0324,0.013523,0.002678,0.000431,1.520345
8430000,0.0324,0.013523,0.002678,0.000431,1.503656
8431000,0.0324,0.013523,0.002678,0.000431,1.556308
8432000,0.0324,0.013523,0.002678,0.000431,1.880333
8433000,0.0324,0.013523,0.002678,0.000431,1.467222
8434000,0.0324,0.013523,0.002678,0.000431,1.625180
8435000,0.0324,0.013523,0.002678,0.000431,1.764098
8436000,0.0324,0.013523,0.002678,0.000431,1.561127
8437000,0.0324,0.013523,0.002678,0.000431,1.719085
8438000,0.0324,0.013523,0.002678,0.000431,1.252263
8439000,0.0324,0.013523,0.002678,0.000431,1.531745
8440000,0.0324,0.013523,0.002678,0.000431,1.541147
8441000,0.0324,0.013523,0.002678,0.000431,1.717204
8442000,0.0324,0.013523,0.002678,0.000431,1.659263
8443000,0.0324,0.013523,0.002678,0.000431,1.697224
8444000,0.0324,0.013523,0.002678,0.000431,1.534095
8445000,0.0324,0.013523,0.002678,0.000431,1.635287
8446000,0.0324,0.013523,0.002678,0.000431,1.596385
8447000,0.0324,0.013523,0.002678,0.000431,1.650566
8448000,0.0324,0.013523,0.002678,0.000431,1.624592
8449000,0.0324,0.013523,0.002678,0.000431,1.550314
8450000,0.0324,0.013523,0.002678,0.000431,1.377783
8451000,0.0324,0.013523,0.002678,0.000431,1.638695
8452000,0.0324,0.013523,0.002678,0.000431,1.669488
8453000,0.0324,0.013523,0.002678,0.000431,1.679830
8454000,0.0324,0.013523,0.002678,0.000431,1.603202
8455000,0.0324,0.013523,0.002678,0.000431,1.540559
8456000,0.0324,0.013523,0.002678,0.000431,1.628235
8457000,0.0324,0.013523,0.002678,0.000431,1.726607
8458000,0.0324,0.013523,0.002678,0.000431,1.597208
8459000,0.0324,0.013523,0.002678,0.000431,1.656090
8460000,0.0324,0.013523,0.002678,0.000431,1.582517
8461000,0.0324,0.013523,0.002678,0.000431,1.446772
8462000,0.0324,0.013523,0.002678,0.000431,1.445362
8463000,0.0324,0.013523,0.002678,0.000431,1.593447
8464000,0.0324,0.013523,0.002678,0.000431,1.676540
8465000,0.0324,0.013523,0.002678,0.000431,1.686294
8466000,0.0324,0.013523,0.002678,0.000431,1.569824
8467000,0.0324,0.013523,0.002678,0.000431,1.699928
8468000,0.0324,0.013523,0.002678,0.000431,1.623299
8469000,0.0324,0.013523,0.002678,0.000431,1.680418
8470000,0.0324,0.013523,0.002678,0.000431,1.420916
8471000,0.0324,0.013523,0.002678,0.000431,1.563242
8472000,0.0324,0.013523,0.002678,0.000431,1.725666
8473000,0.0324,0.013523,0.002678,0.000431,1.745646
8474000,0.0324,0.013523,0.002678,0.000431,1.591449
8475000,0.0324,0.013523,0.002678,0.000431,1.545143
8476000,0.0324,0.013523,0.002678,0.000431,1.481208
8477000,0.0324,0.013523,0.002678,0.000431,1.567591
8478000,0.0324,0.013523,0.002678,0.000431,1.504596
8479000,0.0324,0.013523,0.002678,0.000431,1.590979
8480000,0.0324,0.013523,0.002678,0.000431,1.685002
8481000,0.0324,0.013523,0.002678,0.000431,1.819336
8482000,0.0324,0.013523,0.002678,0.000431,1.583927
8483000,0.0324,0.013523,0.002678,0.000431,1.667020
8484000,0.0324,0.013523,0.002678,0.000431,1.681476
8485000,0.0324,0.013523,0.002678,0.000431,1.708625
8486000,0.0324,0.013523,0.002678,0.000431,1.349106
8487000,0.0324,0.013523,0.002678,0.000431,1.643867
8488000,0.0324,0.013523,0.002678,0.000431,1.530922
8489000,0.0324,0.013523,0.002678,0.000431,1.599676
8490000,0.0324,0.013523,0.002678,0.000431,1.805821
8491000,0.0324,0.013523,0.002678,0.000431,1.542792
8492000,0.0324,0.013523,0.002678,0.000431,1.499660
8493000,0.0324,0.013523,0.002678,0.000431,1.637285
8494000,0.0324,0.013523,0.002678,0.000431,1.633407
8495000,0.0324,0.013523,0.002678,0.000431,1.512705
8496000,0.0324,0.013523,0.002678,0.000431,1.533273
8497000,0.0324,0.013523,0.002678,0.000431,1.696049
8498000,0.0324,0.013523,0.002678,0.000431,1.544673
8499000,0.0324,0.013523,0.002678,0.000431,1.425499
8500000,0.0324,0.013523,0.002678,0.000431,1.742003
8501000,0.0324,0.013523,0.002678,0.000431,1.580166
8502000,0.0324,0.013523,0.002678,0.000431,1.572997
8503000,0.0324,0.013523,0.002678,0.000431,1.540677
8504000,0.0324,0.013523,0.002678,0.000431,1.469572
8505000,0.0324,0.013523,0.002678,0.000431,1.613662
8506000,0.0324,0.013523,0.002678,0.000431,1.495076
8507000,0.0324,0.013523,0.002678,0.000431,1.578051
8508000,0.0324,0.013523,0.002678,0.000431,1.576288
8509000,0.0324,0.013523,0.002678,0.000431,1.426792
8510000,0.0324,0.013523,0.002678,0.000431,1.588863
8511000,0.0324,0.013523,0.002678,0.000431,1.613192
8512000,0.0324,0.013523,0.002678,0.000431,1.567826
8513000,0.0324,0.013523,0.002678,0.000431,1.444774
8514000,0.0324,0.013523,0.002678,0.000431,1.328068
8515000,0.0324,0.013523,0.002678,0.000431,1.426910
8516000,0.0324,0.013523,0.002678,0.000431,1.549257
8517000,0.0324,0.013523,0.002678,0.000431,1.690525
8518000,0.0324,0.013523,0.002678,0.000431,1.630704
8519000,0.0324,0.013523,0.002678,0.000431,1.672544
8520000,0.0324,0.013523,0.002678,0.000431,1.616600
8521000,0.0324,0.013523,0.002678,0.000431,1.506476
8522000,0.0324,0.013523,0.002678,0.000431,1.601792
8523000,0.0324,0.013523,0.002678,0.000431,1.594740
8524000,0.0324,0.013523,0.002678,0.000431,1.649038
8525000,0.0324,0.013523,0.002678,0.000431,1.455587
8526000,0.0324,0.013523,0.002678,0.000431,1.565123
8527000,0.0324,0.013523,0.002678,0.000431,1.266601
8528000,0.0324,0.013523,0.002678,0.000431,1.501187
8529000,0.0324,0.013523,0.002678,0.000431,1.660438
8530000,0.0324,0.013523,0.002678,0.000431,1.685354
8531000,0.0324,0.013523,0.002678,0.000431,1.710035
8532000,0.0324,0.013523,0.002678,0.000431,1.590744
8533000,0.0324,0.013523,0.002678,0.000431,1.600616
8534000,0.0324,0.013523,0.002678,0.000431,1.421151
8535000,0.0324,0.013523,0.002678,0.000431,1.596150
8536000,0.0324,0.013523,0.002678,0.000431,1.544320
8537000,0.0324,0.013523,0.002678,0.000431,1.483911
8538000,0.0324,0.013523,0.002678,0.000431,1.484146
8539000,0.0324,0.013523,0.002678,0.000431,1.583692
8540000,0.0324,0.013523,0.002678,0.000431,1.678420
8541000,0.0324,0.013523,0.002678,0.000431,1.452413
8542000,0.0324,0.013523,0.002678,0.000431,1.544908
8543000,0.0324,0.013523,0.002678,0.000431,1.581342
8544000,0.0324,0.013523,0.002678,0.000431,1.693346
8545000,0.0324,0.013523,0.002678,0.000431,1.684296
8546000,0.0324,0.013523,0.002678,0.000431,1.526339
8547000,0.0324,0.013523,0.002678,0.000431,1.490022
8548000,0.0324,0.013523,0.002678,0.000431,1.536799
8549000,0.0324,0.013523,0.002678,0.000431,1.444304
8550000,0.0324,0.013523,0.002678,0.000431,1.441013
8551000,0.0324,0.013523,0.002678,0.000431,1.628000
8552000,0.0324,0.013523,0.002678,0.000431,1.602614
8553000,0.0324,0.013523,0.002678,0.000431,1.488259
8554000,0.0324,0.013523,0.002678,0.000431,1.652564
8555000,0.0324,0.013523,0.002678,0.000431,1.666197
8556000,0.0324,0.013523,0.002678,0.000431,1.584045
8557000,0.0324,0.013523,0.002678,0.000431,1.571234
8558000,0.0324,0.013523,0.002678,0.000431,1.461228
8559000,0.0324,0.013523,0.002678,0.000431,1.458055
8560000,0.0324,0.013523,0.002678,0.000431,1.661143
8561000,0.0324,0.013523,0.002678,0.000431,1.513528
8562000,0.0324,0.013523,0.002678,0.000431,1.877278
8563000,0.0324,0.013523,0.002678,0.000431,1.424677
8564000,0.0324,0.013523,0.002678,0.000431,1.441601
8565000,0.0324,0.013523,0.002678,0.000431,1.599088
8566000,0.0324,0.013523,0.002678,0.000431,1.473333
8567000,0.0324,0.013523,0.002678,0.000431,1.653386
8568000,0.0324,0.013523,0.002678,0.000431,1.734011
8569000,0.0324,0.013523,0.002678,0.000431,1.648215
8570000,0.0324,0.013523,0.002678,0.000431,1.536211
8571000,0.0324,0.013523,0.002678,0.000431,1.483088
8572000,0.0324,0.013523,0.002678,0.000431,1.363327
8573000,0.0324,0.013523,0.002678,0.000431,1.516936
8574000,0.0324,0.013523,0.002678,0.000431,1.765156
8575000,0.0324,0.013523,0.002678,0.000431,1.715206
8576000,0.0324,0.013523,0.002678,0.000431,1.470513
8577000,0.0324,0.013523,0.002678,0.000431,1.699810
8578000,0.0324,0.013523,0.002678,0.000431,1.745294
8579000,0.0324,0.013523,0.002678,0.000431,1.762335
8580000,0.0324,0.013523,0.002678,0.000431,1.666550
8581000,0.0324,0.013523,0.002678,0.000431,1.575348
8582000,0.0324,0.013523,0.002678,0.000431,1.504126
8583000,0.0324,0.013523,0.002678,0.000431,1.540559
8584000,0.0324,0.013523,0.002678,0.000431,1.616953
8585000,0.0324,0.013523,0.002678,0.000431,1.510355
8586000,0.0324,0.013523,0.002678,0.000431,1.730720
8587000,0.0324,0.013523,0.002678,0.000431,1.604965
8588000,0.0324,0.013523,0.002678,0.000431,1.682416
8589000,0.0324,0.013523,0.002678,0.000431,1.526339
8590000,0.0324,0.013523,0.002678,0.000431,1.593095
8591000,0.0324,0.013523,0.002678,0.000431,1.493901
8592000,0.0324,0.013523,0.002678,0.000431,1.536211
8593000,0.0324,0.013523,0.002678,0.000431,1.547729
8594000,0.0324,0.013523,0.002678,0.000431,1.720730
8595000,0.0324,0.013523,0.002678,0.000431,1.611899
8596000,0.0324,0.013523,0.002678,0.000431,1.618481
8597000,0.0324,0.013523,0.002678,0.000431,1.592742
8598000,0.0324,0.013523,0.002678,0.000431,1.479327
8599000,0.0324,0.013523,0.002678,0.000431,1.405990
8600000,0.0324,0.013523,0.002678,0.000431,1.591097
8601000,0.0324,0.013523,0.002678,0.000431,1.594740
8602000,0.0324,0.013523,0.002678,0.000431,1.566416
8603000,0.0324,0.013523,0.002678,0.000431,1.679125
8604000,0.0324,0.013523,0.002678,0.000431,1.494136
8605000,0.0324,0.013523,0.002678,0.000431,1.555838
8606000,0.0324,0.013523,0.002678,0.000431,1.710505
8607000,0.0324,0.013523,0.002678,0.000431,1.719437
8608000,0.0324,0.013523,0.002678,0.000431,1.531627
8609000,0.0324,0.013523,0.002678,0.000431,1.571939
8610000,0.0324,0.013523,0.002678,0.000431,1.649273
8611000,0.0324,0.013523,0.002678,0.000431,1.255201
8612000,0.0324,0.013523,0.002678,0.000431,1.632349
8613000,0.0324,0.013523,0.002678,0.000431,1.651388
8614000,0.0324,0.013523,0.002678,0.000431,1.537621
8615000,0.0324,0.013523,0.002678,0.000431,1.494018
8616000,0.0324,0.013523,0.002678,0.000431,1.492490
8617000,0.0324,0.013523,0.002678,0.000431,1.491433
8618000,0.0324,0.013523,0.002678,0.000431,1.653269
8619000,0.0324,0.013523,0.002678,0.000431,1.672779
8620000,0.0324,0.013523,0.002678,0.000431,1.683356
8621000,0.0324,0.013523,0.002678,0.000431,1.580166
8622000,0.0324,0.013523,0.002678,0.000431,1.697812
8623000,0.0324,0.013523,0.002678,0.000431,1.428555
8624000,0.0324,0.013523,0.002678,0.000431,1.706157
8625000,0.0324,0.013523,0.002678,0.000431,1.595210
8626000,0.0324,0.013523,0.002678,0.000431,1.616130
8627000,0.0324,0.013523,0.002678,0.000431,1.604377
8628000,0.0324,0.013523,0.002678,0.000431,1.552782
8629000,0.0324,0.013523,0.002678,0.000431,1.548434
8630000,0.0324,0.013523,0.002678,0.000431,1.571822
8631000,0.0324,0.013523,0.002678,0.000431,1.629176
8632000,0.0324,0.013523,0.002678,0.000431,1.433491
8633000,0.0324,0.013523,0.002678,0.000431,1.698752
8634000,0.0324,0.013523,0.002678,0.000431,1.637520
8635000,0.0324,0.013523,0.002678,0.000431,1.500835
8636000,0.0324,0.013523,0.002678,0.000431,1.591097
8637000,0.0324,0.013523,0.002678,0.000431,1.693464
8638000,0.0324,0.013523,0.002678,0.000431,1.591567
8639000,0.0324,0.013523,0.002678,0.000431,1.555485
8640000,0.0324,0.013523,0.002678,0.000431,1.677362
8641000,0.0324,0.013523,0.002678,0.000431,1.585103
8642000,0.0324,0.013523,0.002678,0.000431,1.617188
8643000,0.0324,0.013523,0.002678,0.000431,1.559834
8644000,0.0324,0.013523,0.002678,0.000431,1.675129
8645000,0.0324,0.013523,0.002678,0.000431,1.530687
8646000,0.0324,0.013523,0.002678,0.000431,1.611664
8647000,0.0324,0.013523,0.002678,0.000431,1.520227
8648000,0.0324,0.013523,0.002678,0.000431,1.611194
8649000,0.0324,0.013523,0.002678,0.000431,1.548434
8650000,0.0324,0.013523,0.002678,0.000431,1.534918
8651000,0.0324,0.013523,0.002678,0.000431,1.681828
8652000,0.0324,0.013523,0.002678,0.000431,1.596033
8653000,0.0324,0.013523,0.002678,0.000431,1.618598
8654000,0.0324,0.013523,0.002678,0.000431,1.749289
8655000,0.0324,0.013523,0.002678,0.000431,1.633407
8656000,0.0324,0.013523,0.002678,0.000431,1.666902
8657000,0.0324,0.013523,0.002678,0.000431,1.775851
8658000,0.0324,0.013523,0.002678,0.000431,1.572762
8659000,0.0324,0.013523,0.002678,0.000431,1.515056
8660000,0.0324,0.013523,0.002678,0.000431,1.605317
8661000,0.0324,0.013523,0.002678,0.000431,1.499425
8662000,0.0324,0.013523,0.002678,0.000431,1.708507
8663000,0.0324,0.013523,0.002678,0.000431,1.430083
8664000,0.0324,0.013523,0.002678,0.000431,1.596855
8665000,0.0324,0.013523,0.002678,0.000431,1.390946
8666000,0.0324,0.013523,0.002678,0.000431,1.562302
8667000,0.0324,0.013523,0.002678,0.000431,1.588628
8668000,0.0324,0.013523,0.002678,0.000431,1.561009
8669000,0.0324,0.013523,0.002678,0.000431,1.718027
8670000,0.0324,0.013523,0.002678,0.000431,1.515643
8671000,0.0324,0.013523,0.002678,0.000431,1.609548
8672000,0.0324,0.013523,0.002678,0.000431,1.629293
8673000,0.0324,0.013523,0.002678,0.000431,1.605317
8674000,0.0324,0.013523,0.002678,0.000431,1.698870
8675000,0.0324,0.013523,0.002678,0.000431,1.545731
8676000,0.0324,0.013523,0.002678,0.000431,1.366148
8677000,0.0324,0.013523,0.002678,0.000431,1.525751
8678000,0.0324,0.013523,0.002678,0.000431,1.668665
8679000,0.0324,0.013523,0.002678,0.000431,1.495781
8680000,0.0324,0.013523,0.002678,0.000431,1.662789
8681000,0.0324,0.013523,0.002678,0.000431,1.700515
8682000,0.0324,0.013523,0.002678,0.000431,1.710505
8683000,0.0324,0.013523,0.002678,0.000431,1.616130
8684000,0.0324,0.013523,0.002678,0.000431,1.647393
8685000,0.0324,0.013523,0.002678,0.000431,1.759985
8686000,0.0324,0.013523,0.002678,0.000431,1.520227
8687000,0.0324,0.013523,0.002678,0.000431,1.521520
8688000,0.0324,0.013523,0.002678,0.000431,1.744236
8689000,0.0324,0.013523,0.002678,0.000431,1.759044
8690000,0.0324,0.013523,0.002678,0.000431,1.548316
8691000,0.0324,0.013523,0.002678,0.000431,1.411043
8692000,0.0324,0.013523,0.002678,0.000431,1.526574
8693000,0.0324,0.013523,0.002678,0.000431,1.557601
8694000,0.0324,0.013523,0.002678,0.000431,1.521520
8695000,0.0324,0.013523,0.002678,0.000431,1.467457
8696000,0.0324,0.013523,0.002678,0.000431,1.656207
8697000,0.0324,0.013523,0.002678,0.000431,1.654327
8698000,0.0324,0.013523,0.002678,0.000431,1.686412
8699000,0.0324,0.013523,0.002678,0.000431,1.728369
8700000,0.0324,0.013523,0.002678,0.000431,1.797006
8701000,0.0324,0.013523,0.002678,0.000431,1.687940
8702000,0.0324,0.013523,0.002678,0.000431,1.649273
8703000,0.0324,0.013523,0.002678,0.000431,1.553605
8704000,0.0324,0.013523,0.002678,0.000431,1.814165
8705000,0.0324,0.013523,0.002678,0.000431,1.496134
8706000,0.0324,0.013523,0.002678,0.000431,1.555603
8707000,0.0324,0.013523,0.002678,0.000431,1.781257
8708000,0.0324,0.013523,0.002678,0.000431,1.561127
8709000,0.0324,0.013523,0.002678,0.000431,1.722493
8710000,0.0324,0.013523,0.002678,0.000431,1.741415
8711000,0.0324,0.013523,0.002678,0.000431,1.687000
8712000,0.0324,0.013523,0.002678,0.000431,1.721553
8713000,0.0324,0.013523,0.002678,0.000431,1.780787
8714000,0.0324,0.013523,0.002678,0.000431,1.560774
8715000,0.0324,0.013523,0.002678,0.000431,1.354512
8716000,0.0324,0.013523,0.002678,0.000431,1.461933
8717000,0.0324,0.013523,0.002678,0.000431,1.581107
8718000,0.0324,0.013523,0.002678,0.000431,1.601204
8719000,0.0324,0.013523,0.002678,0.000431,1.488612
8720000,0.0324,0.013523,0.002678,0.000431,1.552077
8721000,0.0324,0.013523,0.002678,0.000431,1.563007
8722000,0.0324,0.013523,0.002678,0.000431,1.789249
8723000,0.0324,0.013523,0.002678,0.000431,1.703101
8724000,0.0324,0.013523,0.002678,0.000431,1.551842
8725000,0.0324,0.013523,0.002678,0.000431,1.630704
8726000,0.0324,0.013523,0.002678,0.000431,1.503538
8727000,0.0324,0.013523,0.002678,0.000431,1.626708
8728000,0.0324,0.013523,0.002678,0.000431,1.765626
8729000,0.0324,0.013523,0.002678,0.000431,1.519874
8730000,0.0324,0.013523,0.002678,0.000431,1.604847
8731000,0.0324,0.013523,0.002678,0.000431,1.480503
8732000,0.0324,0.013523,0.002678,0.000431,1.654914
8733000,0.0324,0.013523,0.002678,0.000431,1.626590
8734000,0.0324,0.013523,0.002678,0.000431,1.604612
8735000,0.0324,0.013523,0.002678,0.000431,1.589216
8736000,0.0324,0.013523,0.002678,0.000431,1.387655
8737000,0.0324,0.013523,0.002678,0.000431,1.526809
8738000,0.0324,0.013523,0.002678,0.000431,1.730838
8739000,0.0324,0.013523,0.002678,0.000431,1.586866
8740000,0.0324,0.013523,0.002678,0.000431,1.596973
8741000,0.0324,0.013523,0.002678,0.000431,1.467339
8742000,0.0324,0.013523,0.002678,0.000431,1.755283
8743000,0.0324,0.013523,0.002678,0.000431,1.726489
8744000,0.0324,0.013523,0.002678,0.000431,1.717557
8745000,0.0324,0.013523,0.002678,0.000431,1.642574
8746000,0.0324,0.013523,0.002678,0.000431,1.642574
8747000,0.0324,0.013523,0.002678,0.000431,1.582987
8748000,0.0324,0.013523,0.002678,0.000431,1.577933
8749000,0.0324,0.013523,0.002678,0.000431,1.594857
8750000,0.0324,0.013523,0.002678,0.000431,1.657970
8751000,0.0324,0.013523,0.002678,0.000431,1.585690
8752000,0.0324,0.013523,0.002678,0.000431,1.657500
8753000,0.0324,0.013523,0.002678,0.000431,1.677127
8754000,0.0324,0.013523,0.002678,0.000431,1.564065
8755000,0.0324,0.013523,0.002678,0.000431,1.546788
8756000,0.0324,0.013523,0.002678,0.000431,1.612487
8757000,0.0324,0.013523,0.002678,0.000431,1.770797
8758000,0.0324,0.013523,0.002678,0.000431,1.613662
8759000,0.0324,0.013523,0.002678,0.000431,1.397528
8760000,0.0324,0.013523,0.002678,0.000431,1.601792
8761000,0.0324,0.013523,0.002678,0.000431,1.626002
8762000,0.0324,0.013523,0.002678,0.000431,1.684649
8763000,0.0324,0.013523,0.002678,0.000431,1.668900
8764000,0.0324,0.013523,0.002678,0.000431,1.778554
8765000,0.0324,0.013523,0.002678,0.000431,1.721905
8766000,0.0324,0.013523,0.002678,0.000431,1.635170
8767000,0.0324,0.013523,0.002678,0.000431,1.666432
8768000,0.0324,0.013523,0.002678,0.000431,1.493313
8769000,0.0324,0.013523,0.002678,0.000431,1.615425
8770000,0.0324,0.013523,0.002678,0.000431,1.409868
8771000,0.0324,0.013523,0.002678,0.000431,1.776086
8772000,0.0324,0.013523,0.002678,0.000431,1.688527
8773000,0.0324,0.013523,0.002678,0.000431,1.380016
8774000,0.0324,0.013523,0.002678,0.000431,1.481443
8775000,0.0324,0.013523,0.002678,0.000431,1.474626
8776000,0.0324,0.013523,0.002678,0.000431,1.636227
8777000,0.0324,0.013523,0.002678,0.000431,1.574408
8778000,0.0324,0.013523,0.002678,0.000431,1.486026
8779000,0.0324,0.013523,0.002678,0.000431,1.600734
8780000,0.0324,0.013523,0.002678,0.000431,1.622947
8781000,0.0324,0.013523,0.002678,0.000431,1.626120
8782000,0.0324,0.013523,0.002678,0.000431,1.528572
8783000,0.0324,0.013523,0.002678,0.000431,1.685237
8784000,0.0324,0.013523,0.002678,0.000431,1.695462
8785000,0.0324,0.013523,0.002678,0.000431,1.510942
8786000,0.0324,0.013523,0.002678,0.000431,1.525516
8787000,0.0324,0.013523,0.002678,0.000431,1.588041
8788000,0.0324,0.013523,0.002678,0.000431,1.539502
8789000,0.0324,0.013523,0.002678,0.000431,1.691936
8790000,0.0324,0.013523,0.002678,0.000431,1.578286
8791000,0.0324,0.013523,0.002678,0.000431,1.383424
8792000,0.0324,0.013523,0.002678,0.000431,1.666902
8793000,0.0324,0.013523,0.002678,0.000431,1.538091
8794000,0.0324,0.013523,0.002678,0.000431,1.529277
8795000,0.0324,0.013523,0.002678,0.000431,1.670193
8796000,0.0324,0.013523,0.002678,0.000431,1.761630
8797000,0.0324,0.013523,0.002678,0.000431,1.657617
8798000,0.0324,0.013523,0.002678,0.000431,1.651976
8799000,0.0324,0.013523,0.002678,0.000431,1.556073
8800000,0.0324,0.013523,0.002678,0.000431,1.708272
8801000,0.0324,0.013523,0.002678,0.000431,1.619068
8802000,0.0324,0.013523,0.002678,0.000431,1.577463
8803000,0.0324,0.013523,0.002678,0.000431,1.511883
8804000,0.0324,0.013523,0.002678,0.000431,1.567826
8805000,0.0324,0.013523,0.002678,0.000431,1.368968
8806000,0.0324,0.013523,0.002678,0.000431,1.634935
8807000,0.0324,0.013523,0.002678,0.000431,1.558659
8808000,0.0324,0.013523,0.002678,0.000431,1.412219
8809000,0.0324,0.013523,0.002678,0.000431,1.670311
8810000,0.0324,0.013523,0.002678,0.000431,1.672779
8811000,0.0324,0.013523,0.002678,0.000431,1.701691
8812000,0.0324,0.013523,0.002678,0.000431,1.554898
8813000,0.0324,0.013523,0.002678,0.000431,1.503891
8814000,0.0324,0.013523,0.002678,0.000431,1.641516
8815000,0.0324,0.013523,0.002678,0.000431,1.536093
8816000,0.0324,0.013523,0.002678,0.000431,1.431846
8817000,0.0324,0.013523,0.002678,0.000431,1.525281
8818000,0.0324,0.013523,0.002678,0.000431,1.512118
8819000,0.0324,0.013523,0.002678,0.000431,1.470748
8820000,0.0324,0.013523,0.002678,0.000431,1.643397
8821000,0.0324,0.013523,0.002678,0.000431,1.588628
8822000,0.0324,0.013523,0.002678,0.000431,1.722611
8823000,0.0324,0.013523,0.002678,0.000431,1.571939
8824000,0.0324,0.013523,0.002678,0.000431,1.496369
8825000,0.0324,0.013523,0.002678,0.000431,1.734128
8826000,0.0324,0.013523,0.002678,0.000431,1.498719
8827000,0.0324,0.013523,0.002678,0.000431,1.585925
8828000,0.0324,0.013523,0.002678,0.000431,1.628470
8829000,0.0324,0.013523,0.002678,0.000431,1.746116
8830000,0.0324,0.013523,0.002678,0.000431,1.739887
8831000,0.0324,0.013523,0.002678,0.000431,1.538796
8832000,0.0324,0.013523,0.002678,0.000431,1.478857
8833000,0.0324,0.013523,0.002678,0.000431,1.449358
8834000,0.0324,0.013523,0.002678,0.000431,1.486967
8835000,0.0324,0.013523,0.002678,0.000431,1.455939
8836000,0.0324,0.013523,0.002678,0.000431,1.685237
8837000,0.0324,0.013523,0.002678,0.000431,1.700045
8838000,0.0324,0.013523,0.002678,0.000431,1.658675
8839000,0.0324,0.013523,0.002678,0.000431,1.723433
8840000,0.0324,0.013523,0.002678,0.000431,1.800884
8841000,0.0324,0.013523,0.002678,0.000431,1.616130
8842000,0.0324,0.013523,0.002678,0.000431,1.514116
8843000,0.0324,0.013523,0.002678,0.000431,1.349106
8844000,0.0324,0.013523,0.002678,0.000431,1.415627
8845000,0.0324,0.013523,0.002678,0.000431,1.668548
8846000,0.0324,0.013523,0.002678,0.000431,1.666432
8847000,0.0324,0.013523,0.002678,0.000431,1.651388
8848000,0.0324,0.013523,0.002678,0.000431,1.594505
8849000,0.0324,0.013523,0.002678,0.000431,1.698870
8850000,0.0324,0.013523,0.002678,0.000431,1.392944
8851000,0.0324,0.013523,0.002678,0.000431,1.403169
8852000,0.0324,0.013523,0.002678,0.000431,1.576876
8853000,0.0324,0.013523,0.002678,0.000431,1.648450
8854000,0.0324,0.013523,0.002678,0.000431,1.758222
8855000,0.0324,0.013523,0.002678,0.000431,1.782785
8856000,0.0324,0.013523,0.002678,0.000431,1.567826
8857000,0.0324,0.013523,0.002678,0.000431,1.445597
8858000,0.0324,0.013523,0.002678,0.000431,1.708977
8859000,0.0324,0.013523,0.002678,0.000431,1.572997
8860000,0.0324,0.013523,0.002678,0.000431,1.730602
8861000,0.0324,0.013523,0.002678,0.000431,1.727547
8862000,0.0324,0.013523,0.002678,0.000431,1.540089
8863000,0.0324,0.013523,0.002678,0.000431,1.563712
8864000,0.0324,0.013523,0.002678,0.000431,1.540324
8865000,0.0324,0.013523,0.002678,0.000431,1.543263
8866000,0.0324,0.013523,0.002678,0.000431,1.245211
8867000,0.0324,0.013523,0.002678,0.000431,1.530570
8868000,0.0324,0.013523,0.002678,0.000431,1.535388
8869000,0.0324,0.013523,0.002678,0.000431,1.690055
8870000,0.0324,0.013523,0.002678,0.000431,1.611899
8871000,0.0324,0.013523,0.002678,0.000431,1.396470
8872000,0.0324,0.013523,0.002678,0.000431,1.524811
8873000,0.0324,0.013523,0.002678,0.000431,1.596503
8874000,0.0324,0.013523,0.002678,0.000431,1.562772
8875000,0.0324,0.013523,0.002678,0.000431,1.558189
8876000,0.0324,0.013523,0.002678,0.000431,1.677127
8877000,0.0324,0.013523,0.002678,0.000431,1.637520
8878000,0.0324,0.013523,0.002678,0.000431,1.445362
8879000,0.0324,0.013523,0.002678,0.000431,1.617893
8880000,0.0324,0.013523,0.002678,0.000431,1.591214
8881000,0.0324,0.013523,0.002678,0.000431,1.601086
8882000,0.0324,0.013523,0.002678,0.000431,1.568179
8883000,0.0324,0.013523,0.002678,0.000431,1.594622
8884000,0.0324,0.013523,0.002678,0.000431,1.529394
8885000,0.0324,0.013523,0.002678,0.000431,1.564183
8886000,0.0324,0.013523,0.002678,0.000431,1.561127
8887000,0.0324,0.013523,0.002678,0.000431,1.655972
8888000,0.0324,0.013523,0.002678,0.000431,1.590626
8889000,0.0324,0.013523,0.002678,0.000431,1.657970
8890000,0.0324,0.013523,0.002678,0.000431,1.559129
8891000,0.0324,0.013523,0.002678,0.000431,1.492608
8892000,0.0324,0.013523,0.002678,0.000431,1.570999
8893000,0.0324,0.013523,0.002678,0.000431,1.549492
8894000,0.0324,0.013523,0.002678,0.000431,1.535858
8895000,0.0324,0.013523,0.002678,0.000431,1.716147
8896000,0.0324,0.013523,0.002678,0.000431,1.790424
8897000,0.0324,0.013523,0.002678,0.000431,1.655855
8898000,0.0324,0.013523,0.002678,0.000431,1.529394
8899000,0.0324,0.013523,0.002678,0.000431,1.677362
8900000,0.0324,0.013523,0.002678,0.000431,1.611076
8901000,0.0324,0.013523,0.002678,0.000431,1.579461
8902000,0.0324,0.013523,0.002678,0.000431,1.409280
8903000,0.0324,0.013523,0.002678,0.000431,1.588158
8904000,0.0324,0.013523,0.002678,0.000431,1.544555
8905000,0.0324,0.013523,0.002678,0.000431,1.497897
8906000,0.0324,0.013523,0.002678,0.000431,1.370144
8907000,0.0324,0.013523,0.002678,0.000431,1.518582
8908000,0.0324,0.013523,0.002678,0.000431,1.613427
8909000,0.0324,0.013523,0.002678,0.000431,1.433491
8910000,0.0324,0.013523,0.002678,0.000431,1.707684
8911000,0.0324,0.013523,0.002678,0.000431,1.684766
8912000,0.0324,0.013523,0.002678,0.000431,1.536681
8913000,0.0324,0.013523,0.002678,0.000431,1.557131
8914000,0.0324,0.013523,0.002678,0.000431,1.585220
8915000,0.0324,0.013523,0.002678,0.000431,1.537386
8916000,0.0324,0.013523,0.002678,0.000431,1.525986
8917000,0.0324,0.013523,0.002678,0.000431,1.607786
8918000,0.0324,0.013523,0.002678,0.000431,1.728840
8919000,0.0324,0.013523,0.002678,0.000431,1.371319
8920000,0.0324,0.013523,0.002678,0.000431,1.421503
8921000,0.0324,0.013523,0.002678,0.000431,1.623652
8922000,0.0324,0.013523,0.002678,0.000431,1.478975
8923000,0.0324,0.013523,0.002678,0.000431,1.556778
8924000,0.0324,0.013523,0.002678,0.000431,1.534213
8925000,0.0324,0.013523,0.002678,0.000431,1.859531
8926000,0.0324,0.013523,0.002678,0.000431,1.581929
8927000,0.0324,0.013523,0.002678,0.000431,1.751523
8928000,0.0324,0.013523,0.002678,0.000431,1.498602
8929000,0.0324,0.013523,0.002678,0.000431,1.566181
8930000,0.0324,0.013523,0.002678,0.000431,1.518464
8931000,0.0324,0.013523,0.002678,0.000431,1.554193
8932000,0.0324,0.013523,0.002678,0.000431,1.767506
8933000,0.0324,0.013523,0.002678,0.000431,1.661966
8934000,0.0324,0.013523,0.002678,0.000431,1.526926
8935000,0.0324,0.013523,0.002678,0.000431,1.650096
8936000,0.0324,0.013523,0.002678,0.000431,1.605435
8937000,0.0324,0.013523,0.002678,0.000431,1.521872
8938000,0.0324,0.013523,0.002678,0.000431,1.550197
8939000,0.0324,0.013523,0.002678,0.000431,1.562537
8940000,0.0324,0.013523,0.002678,0.000431,1.618246
8941000,0.0324,0.013523,0.002678,0.000431,1.516349
8942000,0.0324,0.013523,0.002678,0.000431,1.478505
8943000,0.0324,0.013523,0.002678,0.000431,1.629763
8944000,0.0324,0.013523,0.002678,0.000431,1.654914
8945000,0.0324,0.013523,0.002678,0.000431,1.625767
8946000,0.0324,0.013523,0.002678,0.000431,1.506711
8947000,0.0324,0.013523,0.002678,0.000431,1.654092
8948000,0.0324,0.013523,0.002678,0.000431,1.639753
8949000,0.0324,0.013523,0.002678,0.000431,1.538326
8950000,0.0324,0.013523,0.002678,0.000431,1.665257
8951000,0.0324,0.013523,0.002678,0.000431,1.511530
8952000,0.0324,0.013523,0.002678,0.000431,1.461933
8953000,0.0324,0.013523,0.002678,0.000431,1.492961
8954000,0.0324,0.013523,0.002678,0.000431,1.522107
8955000,0.0324,0.013523,0.002678,0.000431,1.501540
8956000,0.0324,0.013523,0.002678,0.000431,1.619891
8957000,0.0324,0.013523,0.002678,0.000431,1.537621
8958000,0.0324,0.013523,0.002678,0.000431,1.539032
8959000,0.0324,0.013523,0.002678,0.000431,1.444656
8960000,0.0324,0.013523,0.002678,0.000431,1.498954
8961000,0.0324,0.013523,0.002678,0.000431,1.604965
8962000,0.0324,0.013523,0.002678,0.000431,1.655972
8963000,0.0324,0.013523,0.002678,0.000431,1.671956
8964000,0.0324,0.013523,0.002678,0.000431,1.591684
8965000,0.0324,0.013523,0.002678,0.000431,1.429143
8966000,0.0324,0.013523,0.002678,0.000431,1.501423
8967000,0.0324,0.013523,0.002678,0.000431,1.560069
8968000,0.0324,0.013523,0.002678,0.000431,1.510590
8969000,0.0324,0.013523,0.002678,0.000431,1.464401
8970000,0.0324,0.013523,0.002678,0.000431,1.572057
8971000,0.0324,0.013523,0.002678,0.000431,1.664552
8972000,0.0324,0.013523,0.002678,0.000431,1.624122
8973000,0.0324,0.013523,0.002678,0.000431,1.535506
8974000,0.0324,0.013523,0.002678,0.000431,1.586630
8975000,0.0324,0.013523,0.002678,0.000431,1.372494
8976000,0.0324,0.013523,0.002678,0.000431,1.613897
8977000,0.0324,0.013523,0.002678,0.000431,1.647040
8978000,0.0324,0.013523,0.002678,0.000431,1.606610
8979000,0.0324,0.013523,0.002678,0.000431,1.606375
8980000,0.0324,0.013523,0.002678,0.000431,1.635405
8981000,0.0324,0.013523,0.002678,0.000431,1.566768
8982000,0.0324,0.013523,0.002678,0.000431,1.568649
8983000,0.0324,0.013523,0.002678,0.000431,1.491785
8984000,0.0324,0.013523,0.002678,0.000431,1.473803
8985000,0.0324,0.013523,0.002678,0.000431,1.576288
8986000,0.0324,0.013523,0.002678,0.000431,1.456292
8987000,0.0324,0.013523,0.002678,0.000431,1.641869
8988000,0.0324,0.013523,0.002678,0.000431,1.643984
8989000,0.0324,0.013523,0.002678,0.000431,1.643514
8990000,0.0324,0.013523,0.002678,0.000431,1.471923
8991000,0.0324,0.013523,0.002678,0.000431,1.481678
8992000,0.0324,0.013523,0.002678,0.000431,1.511412
8993000,0.0324,0.013523,0.002678,0.000431,1.610019
8994000,0.0324,0.013523,0.002678,0.000431,1.713678
8995000,0.0324,0.013523,0.002678,0.000431,1.551960
8996000,0.0324,0.013523,0.002678,0.000431,1.412806
8997000,0.0324,0.013523,0.002678,0.000431,1.527161
8998000,0.0324,0.013523,0.002678,0.000431,1.407047
8999000,0.0324,0.013523,0.002678,0.000431,1.664552
