Cycle,Area(mm^2),PeakDynamic(W),SubthresholdLeakage(W),GateLeakage(W),RunTimeDynamic(W)
4000000,0.0324,0.013523,0.002678,0.000431,1.682769
4001000,0.0324,0.013523,0.002678,0.000431,1.819689
4002000,0.0324,0.013523,0.002678,0.000431,1.738712
4003000,0.0324,0.013523,0.002678,0.000431,1.748349
4004000,0.0324,0.013523,0.002678,0.000431,1.679360
4005000,0.0324,0.013523,0.002678,0.000431,1.785018
4006000,0.0324,0.013523,0.002678,0.000431,1.890558
4007000,0.0324,0.013523,0.002678,0.000431,1.671721
4008000,0.0324,0.013523,0.002678,0.000431,1.694639
4009000,0.0324,0.013523,0.002678,0.000431,1.763040
4010000,0.0324,0.013523,0.002678,0.000431,1.834732
4011000,0.0324,0.013523,0.002678,0.000431,1.863409
4012000,0.0324,0.013523,0.002678,0.000431,1.789014
4013000,0.0324,0.013523,0.002678,0.000431,1.613897
4014000,0.0324,0.013523,0.002678,0.000431,1.779847
4015000,0.0324,0.013523,0.002678,0.000431,1.718615
4016000,0.0324,0.013523,0.002678,0.000431,1.701455
4017000,0.0324,0.013523,0.002678,0.000431,1.777966
4018000,0.0324,0.013523,0.002678,0.000431,1.782903
4019000,0.0324,0.013523,0.002678,0.000431,1.709447
4020000,0.0324,0.013523,0.002678,0.000431,1.710035
4021000,0.0324,0.013523,0.002678,0.000431,1.661143
4022000,0.0324,0.013523,0.002678,0.000431,1.713678
4023000,0.0324,0.013523,0.002678,0.000431,1.608726
4024000,0.0324,0.013523,0.002678,0.000431,1.804998
4025000,0.0324,0.013523,0.002678,0.000431,1.905602
4026000,0.0324,0.013523,0.002678,0.000431,1.929460
4027000,0.0324,0.013523,0.002678,0.000431,1.732013
4028000,0.0324,0.013523,0.002678,0.000431,1.687117
4029000,0.0324,0.013523,0.002678,0.000431,1.768329
4030000,0.0324,0.013523,0.002678,0.000431,1.707567
4031000,0.0324,0.013523,0.002678,0.000431,1.671368
4032000,0.0324,0.013523,0.002678,0.000431,1.805233
4033000,0.0324,0.013523,0.002678,0.000431,1.769504
4034000,0.0324,0.013523,0.002678,0.000431,1.715441
4035000,0.0324,0.013523,0.002678,0.000431,1.777144
4036000,0.0324,0.013523,0.002678,0.000431,1.778084
4037000,0.0324,0.013523,0.002678,0.000431,1.885975
4038000,0.0324,0.013523,0.002678,0.000431,1.807231
4039000,0.0324,0.013523,0.002678,0.000431,1.888560
4040000,0.0324,0.013523,0.002678,0.000431,1.868228
4041000,0.0324,0.013523,0.002678,0.000431,1.804880
4042000,0.0324,0.013523,0.002678,0.000431,1.799004
4043000,0.0324,0.013523,0.002678,0.000431,1.728017
4044000,0.0324,0.013523,0.002678,0.000431,1.665139
4045000,0.0324,0.013523,0.002678,0.000431,1.806056
4046000,0.0324,0.013523,0.002678,0.000431,1.752698
4047000,0.0324,0.013523,0.002678,0.000431,1.889266
4048000,0.0324,0.013523,0.002678,0.000431,1.895730
4049000,0.0324,0.013523,0.002678,0.000431,1.874927
4050000,0.0324,0.013523,0.002678,0.000431,1.865055
4051000,0.0324,0.013523,0.002678,0.000431,1.897963
4052000,0.0324,0.013523,0.002678,0.000431,1.797829
4053000,0.0324,0.013523,0.002678,0.000431,1.632819
4054000,0.0324,0.013523,0.002678,0.000431,1.588628
4055000,0.0324,0.013523,0.002678,0.000431,1.608256
4056000,0.0324,0.013523,0.002678,0.000431,1.574290
4057000,0.0324,0.013523,0.002678,0.000431,1.705216
4058000,0.0324,0.013523,0.002678,0.000431,1.703924
4059000,0.0324,0.013523,0.002678,0.000431,1.719320
4060000,0.0324,0.013523,0.002678,0.000431,1.712033
4061000,0.0324,0.013523,0.002678,0.000431,1.670075
4062000,0.0324,0.013523,0.002678,0.000431,1.547494
4063000,0.0324,0.013523,0.002678,0.000431,1.618833
4064000,0.0324,0.013523,0.002678,0.000431,1.714619
4065000,0.0324,0.013523,0.002678,0.000431,1.678067
4066000,0.0324,0.013523,0.002678,0.000431,1.765038
4067000,0.0324,0.013523,0.002678,0.000431,1.724256
4068000,0.0324,0.013523,0.002678,0.000431,1.821687
4069000,0.0324,0.013523,0.002678,0.000431,1.726019
4070000,0.0324,0.013523,0.002678,0.000431,1.735774
4071000,0.0324,0.013523,0.002678,0.000431,1.777731
4072000,0.0324,0.013523,0.002678,0.000431,1.760925
4073000,0.0324,0.013523,0.002678,0.000431,1.819101
4074000,0.0324,0.013523,0.002678,0.000431,1.833205
4075000,0.0324,0.013523,0.002678,0.000431,1.759397
4076000,0.0324,0.013523,0.002678,0.000431,1.846015
4077000,0.0324,0.013523,0.002678,0.000431,1.878100
4078000,0.0324,0.013523,0.002678,0.000431,1.756341
4079000,0.0324,0.013523,0.002678,0.000431,1.828151
4080000,0.0324,0.013523,0.002678,0.000431,1.852597
4081000,0.0324,0.013523,0.002678,0.000431,1.808406
4082000,0.0324,0.013523,0.002678,0.000431,1.702278
4083000,0.0324,0.013523,0.002678,0.000431,1.572292
4084000,0.0324,0.013523,0.002678,0.000431,1.657735
4085000,0.0324,0.013523,0.002678,0.000431,1.839199
4086000,0.0324,0.013523,0.002678,0.000431,1.706862
4087000,0.0324,0.013523,0.002678,0.000431,1.728840
4088000,0.0324,0.013523,0.002678,0.000431,1.676422
4089000,0.0324,0.013523,0.002678,0.000431,1.695344
4090000,0.0324,0.013523,0.002678,0.000431,1.747997
4091000,0.0324,0.013523,0.002678,0.000431,1.682416
4092000,0.0324,0.013523,0.002678,0.000431,1.775851
4093000,0.0324,0.013523,0.002678,0.000431,1.844605
4094000,0.0324,0.013523,0.002678,0.000431,1.684884
4095000,0.0324,0.013523,0.002678,0.000431,1.817221
4096000,0.0324,0.013523,0.002678,0.000431,1.680418
4097000,0.0324,0.013523,0.002678,0.000431,1.666432
4098000,0.0324,0.013523,0.002678,0.000431,1.622242
4099000,0.0324,0.013523,0.002678,0.000431,1.761747
4100000,0.0324,0.013523,0.002678,0.000431,1.681241
4101000,0.0324,0.013523,0.002678,0.000431,1.787604
4102000,0.0324,0.013523,0.002678,0.000431,1.844370
4103000,0.0324,0.013523,0.002678,0.000431,1.722493
4104000,0.0324,0.013523,0.002678,0.000431,1.724491
4105000,0.0324,0.013523,0.002678,0.000431,1.912536
4106000,0.0324,0.013523,0.002678,0.000431,1.603790
4107000,0.0324,0.013523,0.002678,0.000431,1.640223
4108000,0.0324,0.013523,0.002678,0.000431,1.557483
4109000,0.0324,0.013523,0.002678,0.000431,1.684061
4110000,0.0324,0.013523,0.002678,0.000431,1.811697
4111000,0.0324,0.013523,0.002678,0.000431,1.614132
4112000,0.0324,0.013523,0.002678,0.000431,1.744236
4113000,0.0324,0.013523,0.002678,0.000431,1.547376
4114000,0.0324,0.013523,0.002678,0.000431,1.757164
4115000,0.0324,0.013523,0.002678,0.000431,1.938040
4116000,0.0324,0.013523,0.002678,0.000431,1.841784
4117000,0.0324,0.013523,0.002678,0.000431,1.779259
4118000,0.0324,0.013523,0.002678,0.000431,1.698047
4119000,0.0324,0.013523,0.002678,0.000431,1.798064
4120000,0.0324,0.013523,0.002678,0.000431,1.697342
4121000,0.0324,0.013523,0.002678,0.000431,1.792540
4122000,0.0324,0.013523,0.002678,0.000431,1.689350
4123000,0.0324,0.013523,0.002678,0.000431,1.681358
4124000,0.0324,0.013523,0.002678,0.000431,1.696872
4125000,0.0324,0.013523,0.002678,0.000431,1.707567
4126000,0.0324,0.013523,0.002678,0.000431,1.725549
4127000,0.0324,0.013523,0.002678,0.000431,1.857298
4128000,0.0324,0.013523,0.002678,0.000431,1.759162
4129000,0.0324,0.013523,0.002678,0.000431,1.730250
4130000,0.0324,0.013523,0.002678,0.000431,1.793598
4131000,0.0324,0.013523,0.002678,0.000431,1.769622
4132000,0.0324,0.013523,0.002678,0.000431,1.769269
4133000,0.0324,0.013523,0.002678,0.000431,1.822274
4134000,0.0324,0.013523,0.002678,0.000431,1.894084
4135000,0.0324,0.013523,0.002678,0.000431,1.663024
4136000,0.0324,0.013523,0.002678,0.000431,1.903721
4137000,0.0324,0.013523,0.002678,0.000431,1.894084
4138000,0.0324,0.013523,0.002678,0.000431,1.872694
4139000,0.0324,0.013523,0.002678,0.000431,1.835790
4140000,0.0324,0.013523,0.002678,0.000431,1.722140
4141000,0.0324,0.013523,0.002678,0.000431,1.624710
4142000,0.0324,0.013523,0.002678,0.000431,1.641986
4143000,0.0324,0.013523,0.002678,0.000431,1.802647
4144000,0.0324,0.013523,0.002678,0.000431,1.760220
4145000,0.0324,0.013523,0.002678,0.000431,1.664317
4146000,0.0324,0.013523,0.002678,0.000431,1.862822
4147000,0.0324,0.013523,0.002678,0.000431,1.812285
4148000,0.0324,0.013523,0.002678,0.000431,1.810639
4149000,0.0324,0.013523,0.002678,0.000431,1.762923
4150000,0.0324,0.013523,0.002678,0.000431,1.855888
4151000,0.0324,0.013523,0.002678,0.000431,1.753168
4152000,0.0324,0.013523,0.002678,0.000431,1.830031
4153000,0.0324,0.013523,0.002678,0.000431,1.825918
4154000,0.0324,0.013523,0.002678,0.000431,1.837083
4155000,0.0324,0.013523,0.002678,0.000431,1.813930
4156000,0.0324,0.013523,0.002678,0.000431,1.733776
4157000,0.0324,0.013523,0.002678,0.000431,1.788896
4158000,0.0324,0.013523,0.002678,0.000431,1.604377
4159000,0.0324,0.013523,0.002678,0.000431,1.668548
4160000,0.0324,0.013523,0.002678,0.000431,1.806056
4161000,0.0324,0.013523,0.002678,0.000431,1.772678
4162000,0.0324,0.013523,0.002678,0.000431,1.576170
4163000,0.0324,0.013523,0.002678,0.000431,1.694404
4164000,0.0324,0.013523,0.002678,0.000431,1.446772
4165000,0.0324,0.013523,0.002678,0.000431,1.786428
4166000,0.0324,0.013523,0.002678,0.000431,1.824390
4167000,0.0324,0.013523,0.002678,0.000431,1.762688
4168000,0.0324,0.013523,0.002678,0.000431,1.690643
4169000,0.0324,0.013523,0.002678,0.000431,1.641046
4170000,0.0324,0.013523,0.002678,0.000431,1.797946
4171000,0.0324,0.013523,0.002678,0.000431,1.687235
4172000,0.0324,0.013523,0.002678,0.000431,1.772090
4173000,0.0324,0.013523,0.002678,0.000431,1.891616
4174000,0.0324,0.013523,0.002678,0.000431,1.655149
4175000,0.0324,0.013523,0.002678,0.000431,1.713208
4176000,0.0324,0.013523,0.002678,0.000431,1.849541
4177000,0.0324,0.013523,0.002678,0.000431,1.812637
4178000,0.0324,0.013523,0.002678,0.000431,1.830854
4179000,0.0324,0.013523,0.002678,0.000431,1.800649
4180000,0.0324,0.013523,0.002678,0.000431,1.681241
4181000,0.0324,0.013523,0.002678,0.000431,1.521050
4182000,0.0324,0.013523,0.002678,0.000431,1.650918
4183000,0.0324,0.013523,0.002678,0.000431,1.635405
4184000,0.0324,0.013523,0.002678,0.000431,1.697107
4185000,0.0324,0.013523,0.002678,0.000431,1.750230
4186000,0.0324,0.013523,0.002678,0.000431,1.678773
4187000,0.0324,0.013523,0.002678,0.000431,1.816751
4188000,0.0324,0.013523,0.002678,0.000431,1.779729
4189000,0.0324,0.013523,0.002678,0.000431,1.793950
4190000,0.0324,0.013523,0.002678,0.000431,1.848836
4191000,0.0324,0.013523,0.002678,0.000431,1.688057
4192000,0.0324,0.013523,0.002678,0.000431,1.805468
4193000,0.0324,0.013523,0.002678,0.000431,1.695697
4194000,0.0324,0.013523,0.002678,0.000431,1.755989
4195000,0.0324,0.013523,0.002678,0.000431,1.771855
4196000,0.0324,0.013523,0.002678,0.000431,1.705687
4197000,0.0324,0.013523,0.002678,0.000431,1.561362
4198000,0.0324,0.013523,0.002678,0.000431,1.794538
4199000,0.0324,0.013523,0.002678,0.000431,1.772207
4200000,0.0324,0.013523,0.002678,0.000431,1.350164
4201000,0.0324,0.013523,0.002678,0.000431,1.555485
4202000,0.0324,0.013523,0.002678,0.000431,1.580049
4203000,0.0324,0.013523,0.002678,0.000431,1.747527
4204000,0.0324,0.013523,0.002678,0.000431,1.795361
4205000,0.0324,0.013523,0.002678,0.000431,1.662554
4206000,0.0324,0.013523,0.002678,0.000431,1.519639
4207000,0.0324,0.013523,0.002678,0.000431,1.735891
4208000,0.0324,0.013523,0.002678,0.000431,1.713091
4209000,0.0324,0.013523,0.002678,0.000431,1.936629
4210000,0.0324,0.013523,0.002678,0.000431,1.759514
4211000,0.0324,0.013523,0.002678,0.000431,1.692993
4212000,0.0324,0.013523,0.002678,0.000431,1.716499
4213000,0.0324,0.013523,0.002678,0.000431,1.743883
4214000,0.0324,0.013523,0.002678,0.000431,1.791717
4215000,0.0324,0.013523,0.002678,0.000431,1.752463
4216000,0.0324,0.013523,0.002678,0.000431,1.769739
4217000,0.0324,0.013523,0.002678,0.000431,1.727077
4218000,0.0324,0.013523,0.002678,0.000431,1.762100
4219000,0.0324,0.013523,0.002678,0.000431,1.751052
4220000,0.0324,0.013523,0.002678,0.000431,1.662554
4221000,0.0324,0.013523,0.002678,0.000431,1.811109
4222000,0.0324,0.013523,0.002678,0.000431,1.704394
4223000,0.0324,0.013523,0.002678,0.000431,1.757987
4224000,0.0324,0.013523,0.002678,0.000431,1.806291
4225000,0.0324,0.013523,0.002678,0.000431,1.766096
4226000,0.0324,0.013523,0.002678,0.000431,1.960605
4227000,0.0324,0.013523,0.002678,0.000431,1.704864
4228000,0.0324,0.013523,0.002678,0.000431,1.480620
4229000,0.0324,0.013523,0.002678,0.000431,1.718262
4230000,0.0324,0.013523,0.002678,0.000431,1.739652
4231000,0.0324,0.013523,0.002678,0.000431,1.806056
4232000,0.0324,0.013523,0.002678,0.000431,1.425852
4233000,0.0324,0.013523,0.002678,0.000431,1.507769
4234000,0.0324,0.013523,0.002678,0.000431,1.639753
4235000,0.0324,0.013523,0.002678,0.000431,1.603555
4236000,0.0324,0.013523,0.002678,0.000431,1.699693
4237000,0.0324,0.013523,0.002678,0.000431,1.886562
4238000,0.0324,0.013523,0.002678,0.000431,1.682769
4239000,0.0324,0.013523,0.002678,0.000431,1.799004
4240000,0.0324,0.013523,0.002678,0.000431,1.836848
4241000,0.0324,0.013523,0.002678,0.000431,1.899138
4242000,0.0324,0.013523,0.002678,0.000431,1.637050
4243000,0.0324,0.013523,0.002678,0.000431,1.679713
4244000,0.0324,0.013523,0.002678,0.000431,1.701220
4245000,0.0324,0.013523,0.002678,0.000431,1.655267
4246000,0.0324,0.013523,0.002678,0.000431,1.743648
4247000,0.0324,0.013523,0.002678,0.000431,1.806526
4248000,0.0324,0.013523,0.002678,0.000431,1.807936
4249000,0.0324,0.013523,0.002678,0.000431,1.640693
4250000,0.0324,0.013523,0.002678,0.000431,1.677832
4251000,0.0324,0.013523,0.002678,0.000431,1.950028
4252000,0.0324,0.013523,0.002678,0.000431,1.830149
4253000,0.0324,0.013523,0.002678,0.000431,1.723081
4254000,0.0324,0.013523,0.002678,0.000431,1.678773
4255000,0.0324,0.013523,0.002678,0.000431,1.595328
4256000,0.0324,0.013523,0.002678,0.000431,1.737772
4257000,0.0324,0.013523,0.002678,0.000431,1.704511
4258000,0.0324,0.013523,0.002678,0.000431,1.598736
4259000,0.0324,0.013523,0.002678,0.000431,1.731660
4260000,0.0324,0.013523,0.002678,0.000431,1.582987
4261000,0.0324,0.013523,0.002678,0.000431,1.623534
4262000,0.0324,0.013523,0.002678,0.000431,1.609666
4263000,0.0324,0.013523,0.002678,0.000431,1.725079
4264000,0.0324,0.013523,0.002678,0.000431,1.751993
4265000,0.0324,0.013523,0.002678,0.000431,1.745881
4266000,0.0324,0.013523,0.002678,0.000431,1.639401
4267000,0.0324,0.013523,0.002678,0.000431,1.569824
4268000,0.0324,0.013523,0.002678,0.000431,1.771385
4269000,0.0324,0.013523,0.002678,0.000431,1.682298
4270000,0.0324,0.013523,0.002678,0.000431,1.734834
4271000,0.0324,0.013523,0.002678,0.000431,1.791012
4272000,0.0324,0.013523,0.002678,0.000431,1.772795
4273000,0.0324,0.013523,0.002678,0.000431,1.650683
4274000,0.0324,0.013523,0.002678,0.000431,1.801237
4275000,0.0324,0.013523,0.002678,0.000431,1.768917
4276000,0.0324,0.013523,0.002678,0.000431,1.618833
4277000,0.0324,0.013523,0.002678,0.000431,1.781962
4278000,0.0324,0.013523,0.002678,0.000431,1.952378
4279000,0.0324,0.013523,0.002678,0.000431,1.735304
4280000,0.0324,0.013523,0.002678,0.000431,1.810639
4281000,0.0324,0.013523,0.002678,0.000431,1.741298
4282000,0.0324,0.013523,0.002678,0.000431,1.640693
4283000,0.0324,0.013523,0.002678,0.000431,1.663259
4284000,0.0324,0.013523,0.002678,0.000431,1.729427
4285000,0.0324,0.013523,0.002678,0.000431,1.656442
4286000,0.0324,0.013523,0.002678,0.000431,1.687000
4287000,0.0324,0.013523,0.002678,0.000431,1.843312
4288000,0.0324,0.013523,0.002678,0.000431,1.791482
4289000,0.0324,0.013523,0.002678,0.000431,1.832147
4290000,0.0324,0.013523,0.002678,0.000431,1.838141
4291000,0.0324,0.013523,0.002678,0.000431,1.819924
4292000,0.0324,0.013523,0.002678,0.000431,1.803470
4293000,0.0324,0.013523,0.002678,0.000431,1.892556
4294000,0.0324,0.013523,0.002678,0.000431,1.845780
4295000,0.0324,0.013523,0.002678,0.000431,1.862352
4296000,0.0324,0.013523,0.002678,0.000431,1.786428
4297000,0.0324,0.013523,0.002678,0.000431,1.712738
4298000,0.0324,0.013523,0.002678,0.000431,1.746116
4299000,0.0324,0.013523,0.002678,0.000431,1.560304
4300000,0.0324,0.013523,0.002678,0.000431,1.829561
4301000,0.0324,0.013523,0.002678,0.000431,1.914299
4302000,0.0324,0.013523,0.002678,0.000431,1.867875
4303000,0.0324,0.013523,0.002678,0.000431,1.605435
4304000,0.0324,0.013523,0.002678,0.000431,1.758927
4305000,0.0324,0.013523,0.002678,0.000431,1.697812
4306000,0.0324,0.013523,0.002678,0.000431,1.563125
4307000,0.0324,0.013523,0.002678,0.000431,1.888795
4308000,0.0324,0.013523,0.002678,0.000431,1.746939
4309000,0.0324,0.013523,0.002678,0.000431,1.542792
4310000,0.0324,0.013523,0.002678,0.000431,1.617070
4311000,0.0324,0.013523,0.002678,0.000431,1.805821
4312000,0.0324,0.013523,0.002678,0.000431,1.539854
4313000,0.0324,0.013523,0.002678,0.000431,1.465929
4314000,0.0324,0.013523,0.002678,0.000431,1.671603
4315000,0.0324,0.013523,0.002678,0.000431,1.847190
4316000,0.0324,0.013523,0.002678,0.000431,1.847190
4317000,0.0324,0.013523,0.002678,0.000431,1.737889
4318000,0.0324,0.013523,0.002678,0.000431,1.580519
4319000,0.0324,0.013523,0.002678,0.000431,1.794303
4320000,0.0324,0.013523,0.002678,0.000431,1.735774
4321000,0.0324,0.013523,0.002678,0.000431,1.514586
4322000,0.0324,0.013523,0.002678,0.000431,1.671956
4323000,0.0324,0.013523,0.002678,0.000431,1.567121
4324000,0.0324,0.013523,0.002678,0.000431,1.576641
4325000,0.0324,0.013523,0.002678,0.000431,1.595328
4326000,0.0324,0.013523,0.002678,0.000431,1.572645
4327000,0.0324,0.013523,0.002678,0.000431,1.495781
4328000,0.0324,0.013523,0.002678,0.000431,1.824155
4329000,0.0324,0.013523,0.002678,0.000431,1.796183
4330000,0.0324,0.013523,0.002678,0.000431,1.602262
4331000,0.0324,0.013523,0.002678,0.000431,1.729545
4332000,0.0324,0.013523,0.002678,0.000431,1.816868
4333000,0.0324,0.013523,0.002678,0.000431,1.824625
4334000,0.0324,0.013523,0.002678,0.000431,1.813460
4335000,0.0324,0.013523,0.002678,0.000431,1.666080
4336000,0.0324,0.013523,0.002678,0.000431,1.612134
4337000,0.0324,0.013523,0.002678,0.000431,1.552782
4338000,0.0324,0.013523,0.002678,0.000431,1.706039
4339000,0.0324,0.013523,0.002678,0.000431,1.803000
4340000,0.0324,0.013523,0.002678,0.000431,1.844722
4341000,0.0324,0.013523,0.002678,0.000431,1.754343
4342000,0.0324,0.013523,0.002678,0.000431,1.926169
4343000,0.0324,0.013523,0.002678,0.000431,1.653857
4344000,0.0324,0.013523,0.002678,0.000431,1.760807
4345000,0.0324,0.013523,0.002678,0.000431,1.767859
4346000,0.0324,0.013523,0.002678,0.000431,1.810874
4347000,0.0324,0.013523,0.002678,0.000431,1.679830
4348000,0.0324,0.013523,0.002678,0.000431,1.612017
4349000,0.0324,0.013523,0.002678,0.000431,1.803940
4350000,0.0324,0.013523,0.002678,0.000431,1.589334
4351000,0.0324,0.013523,0.002678,0.000431,1.669135
4352000,0.0324,0.013523,0.002678,0.000431,1.717087
4353000,0.0324,0.013523,0.002678,0.000431,1.770915
4354000,0.0324,0.013523,0.002678,0.000431,1.488965
4355000,0.0324,0.013523,0.002678,0.000431,1.655502
4356000,0.0324,0.013523,0.002678,0.000431,1.663376
4357000,0.0324,0.013523,0.002678,0.000431,1.534213
4358000,0.0324,0.013523,0.002678,0.000431,1.557719
4359000,0.0324,0.013523,0.002678,0.000431,1.738477
4360000,0.0324,0.013523,0.002678,0.000431,1.754696
4361000,0.0324,0.013523,0.002678,0.000431,1.622006
4362000,0.0324,0.013523,0.002678,0.000431,1.636580
4363000,0.0324,0.013523,0.002678,0.000431,1.724609
4364000,0.0324,0.013523,0.002678,0.000431,1.639048
4365000,0.0324,0.013523,0.002678,0.000431,1.569354
4366000,0.0324,0.013523,0.002678,0.000431,1.646805
4367000,0.0324,0.013523,0.002678,0.000431,1.650801
4368000,0.0324,0.013523,0.002678,0.000431,1.815223
4369000,0.0324,0.013523,0.002678,0.000431,1.823802
4370000,0.0324,0.013523,0.002678,0.000431,1.626237
4371000,0.0324,0.013523,0.002678,0.000431,1.659498
4372000,0.0324,0.013523,0.002678,0.000431,1.729662
4373000,0.0324,0.013523,0.002678,0.000431,1.718615
4374000,0.0324,0.013523,0.002678,0.000431,1.789014
4375000,0.0324,0.013523,0.002678,0.000431,1.652446
4376000,0.0324,0.013523,0.002678,0.000431,1.708977
4377000,0.0324,0.013523,0.002678,0.000431,1.778672
4378000,0.0324,0.013523,0.002678,0.000431,1.760102
4379000,0.0324,0.013523,0.002678,0.000431,1.716617
4380000,0.0324,0.013523,0.002678,0.000431,1.742003
4381000,0.0324,0.013523,0.002678,0.000431,1.693464
4382000,0.0324,0.013523,0.002678,0.000431,1.641751
4383000,0.0324,0.013523,0.002678,0.000431,1.795478
4384000,0.0324,0.013523,0.002678,0.000431,1.668195
4385000,0.0324,0.013523,0.002678,0.000431,1.567826
4386000,0.0324,0.013523,0.002678,0.000431,1.693581
4387000,0.0324,0.013523,0.002678,0.000431,1.665962
4388000,0.0324,0.013523,0.002678,0.000431,1.663141
4389000,0.0324,0.013523,0.002678,0.000431,1.741180
4390000,0.0324,0.013523,0.002678,0.000431,1.812755
4391000,0.0324,0.013523,0.002678,0.000431,1.688410
4392000,0.0324,0.013523,0.002678,0.000431,1.693581
4393000,0.0324,0.013523,0.002678,0.000431,1.692171
4394000,0.0324,0.013523,0.002678,0.000431,1.799121
4395000,0.0324,0.013523,0.002678,0.000431,1.837553
4396000,0.0324,0.013523,0.002678,0.000431,1.547964
4397000,0.0324,0.013523,0.002678,0.000431,1.635875
4398000,0.0324,0.013523,0.002678,0.000431,1.524458
4399000,0.0324,0.013523,0.002678,0.000431,1.847778
4400000,0.0324,0.013523,0.002678,0.000431,1.770562
4401000,0.0324,0.013523,0.002678,0.000431,1.665492
4402000,0.0324,0.013523,0.002678,0.000431,1.530922
4403000,0.0324,0.013523,0.002678,0.000431,1.704746
4404000,0.0324,0.013523,0.002678,0.000431,1.722963
4405000,0.0324,0.013523,0.002678,0.000431,1.809229
4406000,0.0324,0.013523,0.002678,0.000431,1.858943
4407000,0.0324,0.013523,0.002678,0.000431,1.775498
4408000,0.0324,0.013523,0.002678,0.000431,1.790542
4409000,0.0324,0.013523,0.002678,0.000431,1.686529
4410000,0.0324,0.013523,0.002678,0.000431,1.780787
4411000,0.0324,0.013523,0.002678,0.000431,1.741885
4412000,0.0324,0.013523,0.002678,0.000431,1.852479
4413000,0.0324,0.013523,0.002678,0.000431,1.890676
4414000,0.0324,0.013523,0.002678,0.000431,1.833557
4415000,0.0324,0.013523,0.002678,0.000431,1.689115
4416000,0.0324,0.013523,0.002678,0.000431,1.711210
4417000,0.0324,0.013523,0.002678,0.000431,1.635757
4418000,0.0324,0.013523,0.002678,0.000431,1.640106
4419000,0.0324,0.013523,0.002678,0.000431,1.690643
4420000,0.0324,0.013523,0.002678,0.000431,1.617775
4421000,0.0324,0.013523,0.002678,0.000431,1.733893
4422000,0.0324,0.013523,0.002678,0.000431,1.676540
4423000,0.0324,0.013523,0.002678,0.000431,1.713561
4424000,0.0324,0.013523,0.002678,0.000431,1.628118
4425000,0.0324,0.013523,0.002678,0.000431,1.649978
4426000,0.0324,0.013523,0.002678,0.000431,1.729075
4427000,0.0324,0.013523,0.002678,0.000431,1.847778
4428000,0.0324,0.013523,0.002678,0.000431,1.690525
4429000,0.0324,0.013523,0.002678,0.000431,1.862939
4430000,0.0324,0.013523,0.002678,0.000431,1.607433
4431000,0.0324,0.013523,0.002678,0.000431,1.787604
4432000,0.0324,0.013523,0.002678,0.000431,1.862704
4433000,0.0324,0.013523,0.002678,0.000431,1.807701
4434000,0.0324,0.013523,0.002678,0.000431,1.676069
4435000,0.0324,0.013523,0.002678,0.000431,1.769152
4436000,0.0324,0.013523,0.002678,0.000431,1.720613
4437000,0.0324,0.013523,0.002678,0.000431,1.778554
4438000,0.0324,0.013523,0.002678,0.000431,1.605200
4439000,0.0324,0.013523,0.002678,0.000431,1.612957
4440000,0.0324,0.013523,0.002678,0.000431,1.753285
4441000,0.0324,0.013523,0.002678,0.000431,1.691348
4442000,0.0324,0.013523,0.002678,0.000431,1.742473
4443000,0.0324,0.013523,0.002678,0.000431,1.699458
4444000,0.0324,0.013523,0.002678,0.000431,1.744823
4445000,0.0324,0.013523,0.002678,0.000431,1.886915
4446000,0.0324,0.013523,0.002678,0.000431,1.773500
4447000,0.0324,0.013523,0.002678,0.000431,1.756576
4448000,0.0324,0.013523,0.002678,0.000431,1.669958
4449000,0.0324,0.013523,0.002678,0.000431,1.653034
4450000,0.0324,0.013523,0.002678,0.000431,1.583692
4451000,0.0324,0.013523,0.002678,0.000431,1.706862
4452000,0.0324,0.013523,0.002678,0.000431,1.806643
4453000,0.0324,0.013523,0.002678,0.000431,1.675012
4454000,0.0324,0.013523,0.002678,0.000431,1.815105
4455000,0.0324,0.013523,0.002678,0.000431,1.719320
4456000,0.0324,0.013523,0.002678,0.000431,1.693699
4457000,0.0324,0.013523,0.002678,0.000431,1.540089
4458000,0.0324,0.013523,0.002678,0.000431,1.668313
4459000,0.0324,0.013523,0.002678,0.000431,1.588393
4460000,0.0324,0.013523,0.002678,0.000431,1.576523
4461000,0.0324,0.013523,0.002678,0.000431,1.602849
4462000,0.0324,0.013523,0.002678,0.000431,1.758927
4463000,0.0324,0.013523,0.002678,0.000431,1.738477
4464000,0.0324,0.013523,0.002678,0.000431,1.762453
4465000,0.0324,0.013523,0.002678,0.000431,1.802530
4466000,0.0324,0.013523,0.002678,0.000431,1.857768
4467000,0.0324,0.013523,0.002678,0.000431,1.786311
4468000,0.0324,0.013523,0.002678,0.000431,1.601909
4469000,0.0324,0.013523,0.002678,0.000431,1.666902
4470000,0.0324,0.013523,0.002678,0.000431,1.508122
4471000,0.0324,0.013523,0.002678,0.000431,1.751758
4472000,0.0324,0.013523,0.002678,0.000431,1.639753
4473000,0.0324,0.013523,0.002678,0.000431,1.752698
4474000,0.0324,0.013523,0.002678,0.000431,1.644572
4475000,0.0324,0.013523,0.002678,0.000431,1.785136
4476000,0.0324,0.013523,0.002678,0.000431,1.701103
4477000,0.0324,0.013523,0.002678,0.000431,1.651388
4478000,0.0324,0.013523,0.002678,0.000431,1.830619
4479000,0.0324,0.013523,0.002678,0.000431,1.658088
4480000,0.0324,0.013523,0.002678,0.000431,1.604142
4481000,0.0324,0.013523,0.002678,0.000431,1.599559
4482000,0.0324,0.013523,0.002678,0.000431,1.881274
4483000,0.0324,0.013523,0.002678,0.000431,1.656795
4484000,0.0324,0.013523,0.002678,0.000431,1.590039
4485000,0.0324,0.013523,0.002678,0.000431,1.667725
4486000,0.0324,0.013523,0.002678,0.000431,1.673484
4487000,0.0324,0.013523,0.002678,0.000431,1.811814
4488000,0.0324,0.013523,0.002678,0.000431,1.735539
4489000,0.0324,0.013523,0.002678,0.000431,1.520932
4490000,0.0324,0.013523,0.002678,0.000431,1.652446
4491000,0.0324,0.013523,0.002678,0.000431,1.682298
4492000,0.0324,0.013523,0.002678,0.000431,1.654209
4493000,0.0324,0.013523,0.002678,0.000431,1.823215
4494000,0.0324,0.013523,0.002678,0.000431,1.736126
4495000,0.0324,0.013523,0.002678,0.000431,1.593682
4496000,0.0324,0.013523,0.002678,0.000431,1.737067
4497000,0.0324,0.013523,0.002678,0.000431,1.783608
4498000,0.0324,0.013523,0.002678,0.000431,1.725314
4499000,0.0324,0.013523,0.002678,0.000431,1.608961
4500000,0.0324,0.013523,0.002678,0.000431,1.627413
4501000,0.0324,0.013523,0.002678,0.000431,1.794538
4502000,0.0324,0.013523,0.002678,0.000431,1.759044
4503000,0.0324,0.013523,0.002678,0.000431,1.529982
4504000,0.0324,0.013523,0.002678,0.000431,1.697107
4505000,0.0324,0.013523,0.002678,0.000431,1.605552
4506000,0.0324,0.013523,0.002678,0.000431,1.604142
4507000,0.0324,0.013523,0.002678,0.000431,1.642809
4508000,0.0324,0.013523,0.002678,0.000431,1.667960
4509000,0.0324,0.013523,0.002678,0.000431,1.601674
4510000,0.0324,0.013523,0.002678,0.000431,1.719202
4511000,0.0324,0.013523,0.002678,0.000431,1.758692
4512000,0.0324,0.013523,0.002678,0.000431,1.676304
4513000,0.0324,0.013523,0.002678,0.000431,1.823332
4514000,0.0324,0.013523,0.002678,0.000431,1.652329
4515000,0.0324,0.013523,0.002678,0.000431,1.624592
4516000,0.0324,0.013523,0.002678,0.000431,1.791482
4517000,0.0324,0.013523,0.002678,0.000431,1.810874
4518000,0.0324,0.013523,0.002678,0.000431,1.738594
4519000,0.0324,0.013523,0.002678,0.000431,1.904662
4520000,0.0324,0.013523,0.002678,0.000431,1.790307
4521000,0.0324,0.013523,0.002678,0.000431,1.872459
4522000,0.0324,0.013523,0.002678,0.000431,1.795361
4523000,0.0324,0.013523,0.002678,0.000431,1.659498
4524000,0.0324,0.013523,0.002678,0.000431,1.844487
4525000,0.0324,0.013523,0.002678,0.000431,1.696167
4526000,0.0324,0.013523,0.002678,0.000431,1.730485
4527000,0.0324,0.013523,0.002678,0.000431,1.696167
4528000,0.0324,0.013523,0.002678,0.000431,1.801707
4529000,0.0324,0.013523,0.002678,0.000431,1.520110
4530000,0.0324,0.013523,0.002678,0.000431,1.683944
4531000,0.0324,0.013523,0.002678,0.000431,1.639518
4532000,0.0324,0.013523,0.002678,0.000431,1.745058
4533000,0.0324,0.013523,0.002678,0.000431,1.624122
4534000,0.0324,0.013523,0.002678,0.000431,1.762688
4535000,0.0324,0.013523,0.002678,0.000431,1.739300
4536000,0.0324,0.013523,0.002678,0.000431,1.782080
4537000,0.0324,0.013523,0.002678,0.000431,1.727429
4538000,0.0324,0.013523,0.002678,0.000431,1.659145
4539000,0.0324,0.013523,0.002678,0.000431,1.953553
4540000,0.0324,0.013523,0.002678,0.000431,1.766919
4541000,0.0324,0.013523,0.002678,0.000431,1.703924
4542000,0.0324,0.013523,0.002678,0.000431,1.842019
4543000,0.0324,0.013523,0.002678,0.000431,1.668195
4544000,0.0324,0.013523,0.002678,0.000431,1.615072
4545000,0.0324,0.013523,0.002678,0.000431,1.640106
4546000,0.0324,0.013523,0.002678,0.000431,1.726136
4547000,0.0324,0.013523,0.002678,0.000431,1.688175
4548000,0.0324,0.013523,0.002678,0.000431,1.700280
4549000,0.0324,0.013523,0.002678,0.000431,1.797358
4550000,0.0324,0.013523,0.002678,0.000431,1.818749
4551000,0.0324,0.013523,0.002678,0.000431,1.812167
4552000,0.0324,0.013523,0.002678,0.000431,1.475096
4553000,0.0324,0.013523,0.002678,0.000431,1.698987
4554000,0.0324,0.013523,0.002678,0.000431,1.751993
4555000,0.0324,0.013523,0.002678,0.000431,1.552312
4556000,0.0324,0.013523,0.002678,0.000431,1.763980
4557000,0.0324,0.013523,0.002678,0.000431,1.735891
4558000,0.0324,0.013523,0.002678,0.000431,1.704159
4559000,0.0324,0.013523,0.002678,0.000431,1.545496
4560000,0.0324,0.013523,0.002678,0.000431,1.682886
4561000,0.0324,0.013523,0.002678,0.000431,1.742825
4562000,0.0324,0.013523,0.002678,0.000431,1.825330
4563000,0.0324,0.013523,0.002678,0.000431,1.660791
4564000,0.0324,0.013523,0.002678,0.000431,1.700045
4565000,0.0324,0.013523,0.002678,0.000431,1.504713
4566000,0.0324,0.013523,0.002678,0.000431,1.793598
4567000,0.0324,0.013523,0.002678,0.000431,1.764098
4568000,0.0324,0.013523,0.002678,0.000431,1.804293
4569000,0.0324,0.013523,0.002678,0.000431,1.744353
4570000,0.0324,0.013523,0.002678,0.000431,1.545966
4571000,0.0324,0.013523,0.002678,0.000431,1.673366
4572000,0.0324,0.013523,0.002678,0.000431,1.663611
4573000,0.0324,0.013523,0.002678,0.000431,1.716264
4574000,0.0324,0.013523,0.002678,0.000431,1.864115
4575000,0.0324,0.013523,0.002678,0.000431,1.643514
4576000,0.0324,0.013523,0.002678,0.000431,1.754931
4577000,0.0324,0.013523,0.002678,0.000431,1.710975
4578000,0.0324,0.013523,0.002678,0.000431,1.687705
4579000,0.0324,0.013523,0.002678,0.000431,1.684649
4580000,0.0324,0.013523,0.002678,0.000431,1.645982
4581000,0.0324,0.013523,0.002678,0.000431,1.645277
4582000,0.0324,0.013523,0.002678,0.000431,1.533860
4583000,0.0324,0.013523,0.002678,0.000431,1.681476
4584000,0.0324,0.013523,0.002678,0.000431,1.740710
4585000,0.0324,0.013523,0.002678,0.000431,1.781492
4586000,0.0324,0.013523,0.002678,0.000431,1.631409
4587000,0.0324,0.013523,0.002678,0.000431,1.662201
4588000,0.0324,0.013523,0.002678,0.000431,1.641399
4589000,0.0324,0.013523,0.002678,0.000431,1.650918
4590000,0.0324,0.013523,0.002678,0.000431,1.698987
4591000,0.0324,0.013523,0.002678,0.000431,1.813577
4592000,0.0324,0.013523,0.002678,0.000431,1.665374
4593000,0.0324,0.013523,0.002678,0.000431,1.587453
4594000,0.0324,0.013523,0.002678,0.000431,1.856710
4595000,0.0324,0.013523,0.002678,0.000431,1.705804
4596000,0.0324,0.013523,0.002678,0.000431,1.821452
4597000,0.0324,0.013523,0.002678,0.000431,1.709447
4598000,0.0324,0.013523,0.002678,0.000431,1.778907
4599000,0.0324,0.013523,0.002678,0.000431,1.891851
4600000,0.0324,0.013523,0.002678,0.000431,1.927815
4601000,0.0324,0.013523,0.002678,0.000431,1.906895
4602000,0.0324,0.013523,0.002678,0.000431,1.696637
4603000,0.0324,0.013523,0.002678,0.000431,1.729662
4604000,0.0324,0.013523,0.002678,0.000431,1.776321
4605000,0.0324,0.013523,0.002678,0.000431,1.562185
4606000,0.0324,0.013523,0.002678,0.000431,1.676187
4607000,0.0324,0.013523,0.002678,0.000431,1.794420
4608000,0.0324,0.013523,0.002678,0.000431,1.803587
4609000,0.0324,0.013523,0.002678,0.000431,1.685472
4610000,0.0324,0.013523,0.002678,0.000431,2.003503
4611000,0.0324,0.013523,0.002678,0.000431,1.723786
4612000,0.0324,0.013523,0.002678,0.000431,1.779612
4613000,0.0324,0.013523,0.002678,0.000431,1.884917
4614000,0.0324,0.013523,0.002678,0.000431,1.870579
4615000,0.0324,0.013523,0.002678,0.000431,1.901606
4616000,0.0324,0.013523,0.002678,0.000431,1.829914
4617000,0.0324,0.013523,0.002678,0.000431,1.936042
4618000,0.0324,0.013523,0.002678,0.000431,1.782667
4619000,0.0324,0.013523,0.002678,0.000431,1.552665
4620000,0.0324,0.013523,0.002678,0.000431,1.670546
4621000,0.0324,0.013523,0.002678,0.000431,1.837906
4622000,0.0324,0.013523,0.002678,0.000431,1.767154
4623000,0.0324,0.013523,0.002678,0.000431,1.783138
4624000,0.0324,0.013523,0.002678,0.000431,1.729545
4625000,0.0324,0.013523,0.002678,0.000431,1.851069
4626000,0.0324,0.013523,0.002678,0.000431,1.805350
4627000,0.0324,0.013523,0.002678,0.000431,1.762335
4628000,0.0324,0.013523,0.002678,0.000431,1.835203
4629000,0.0324,0.013523,0.002678,0.000431,1.669370
4630000,0.0324,0.013523,0.002678,0.000431,1.658910
4631000,0.0324,0.013523,0.002678,0.000431,1.766331
4632000,0.0324,0.013523,0.002678,0.000431,1.760807
4633000,0.0324,0.013523,0.002678,0.000431,1.746234
4634000,0.0324,0.013523,0.002678,0.000431,1.745411
4635000,0.0324,0.013523,0.002678,0.000431,1.808524
4636000,0.0324,0.013523,0.002678,0.000431,1.461580
4637000,0.0324,0.013523,0.002678,0.000431,1.773500
4638000,0.0324,0.013523,0.002678,0.000431,1.717087
4639000,0.0324,0.013523,0.002678,0.000431,1.752228
4640000,0.0324,0.013523,0.002678,0.000431,1.583105
4641000,0.0324,0.013523,0.002678,0.000431,1.597326
4642000,0.0324,0.013523,0.002678,0.000431,1.530334
4643000,0.0324,0.013523,0.002678,0.000431,1.561950
4644000,0.0324,0.013523,0.002678,0.000431,1.569236
4645000,0.0324,0.013523,0.002678,0.000431,1.806996
4646000,0.0324,0.013523,0.002678,0.000431,1.744118
4647000,0.0324,0.013523,0.002678,0.000431,1.552312
4648000,0.0324,0.013523,0.002678,0.000431,1.891851
4649000,0.0324,0.013523,0.002678,0.000431,1.542440
4650000,0.0324,0.013523,0.002678,0.000431,1.521520
4651000,0.0324,0.013523,0.002678,0.000431,1.770209
4652000,0.0324,0.013523,0.002678,0.000431,1.814518
4653000,0.0324,0.013523,0.002678,0.000431,1.744941
4654000,0.0324,0.013523,0.002678,0.000431,1.760337
4655000,0.0324,0.013523,0.002678,0.000431,1.677245
4656000,0.0324,0.013523,0.002678,0.000431,1.788191
4657000,0.0324,0.013523,0.002678,0.000431,1.798651
4658000,0.0324,0.013523,0.002678,0.000431,1.764921
4659000,0.0324,0.013523,0.002678,0.000431,1.700163
4660000,0.0324,0.013523,0.002678,0.000431,1.772795
4661000,0.0324,0.013523,0.002678,0.000431,1.557836
4662000,0.0324,0.013523,0.002678,0.000431,1.694756
4663000,0.0324,0.013523,0.002678,0.000431,1.793010
4664000,0.0324,0.013523,0.002678,0.000431,1.732836
4665000,0.0324,0.013523,0.002678,0.000431,1.824272
4666000,0.0324,0.013523,0.002678,0.000431,1.817221
4667000,0.0324,0.013523,0.002678,0.000431,1.810757
4668000,0.0324,0.013523,0.002678,0.000431,1.539032
4669000,0.0324,0.013523,0.002678,0.000431,1.719320
4670000,0.0324,0.013523,0.002678,0.000431,1.831442
4671000,0.0324,0.013523,0.002678,0.000431,1.867640
4672000,0.0324,0.013523,0.002678,0.000431,1.786076
4673000,0.0324,0.013523,0.002678,0.000431,1.716617
4674000,0.0324,0.013523,0.002678,0.000431,1.861059
4675000,0.0324,0.013523,0.002678,0.000431,1.640693
4676000,0.0324,0.013523,0.002678,0.000431,1.523753
4677000,0.0324,0.013523,0.002678,0.000431,1.754108
4678000,0.0324,0.013523,0.002678,0.000431,1.866112
4679000,0.0324,0.013523,0.002678,0.000431,1.820629
4680000,0.0324,0.013523,0.002678,0.000431,1.685472
4681000,0.0324,0.013523,0.002678,0.000431,1.761512
4682000,0.0324,0.013523,0.002678,0.000431,1.629881
4683000,0.0324,0.013523,0.002678,0.000431,1.764803
4684000,0.0324,0.013523,0.002678,0.000431,1.715559
4685000,0.0324,0.013523,0.002678,0.000431,1.776086
4686000,0.0324,0.013523,0.002678,0.000431,1.832852
4687000,0.0324,0.013523,0.002678,0.000431,1.795008
4688000,0.0324,0.013523,0.002678,0.000431,1.588746
4689000,0.0324,0.013523,0.002678,0.000431,1.621771
4690000,0.0324,0.013523,0.002678,0.000431,1.668430
4691000,0.0324,0.013523,0.002678,0.000431,1.727547
4692000,0.0324,0.013523,0.002678,0.000431,1.736361
4693000,0.0324,0.013523,0.002678,0.000431,1.590156
4694000,0.0324,0.013523,0.002678,0.000431,1.604142
4695000,0.0324,0.013523,0.002678,0.000431,1.745529
4696000,0.0324,0.013523,0.002678,0.000431,1.662084
4697000,0.0324,0.013523,0.002678,0.000431,1.553840
4698000,0.0324,0.013523,0.002678,0.000431,1.678185
4699000,0.0324,0.013523,0.002678,0.000431,1.563830
4700000,0.0324,0.013523,0.002678,0.000431,1.628941
4701000,0.0324,0.013523,0.002678,0.000431,1.633172
4702000,0.0324,0.013523,0.002678,0.000431,1.703689
4703000,0.0324,0.013523,0.002678,0.000431,1.844487
4704000,0.0324,0.013523,0.002678,0.000431,1.618481
4705000,0.0324,0.013523,0.002678,0.000431,1.823920
4706000,0.0324,0.013523,0.002678,0.000431,1.656677
4707000,0.0324,0.013523,0.002678,0.000431,1.459935
4708000,0.0324,0.013523,0.002678,0.000431,1.582752
4709000,0.0324,0.013523,0.002678,0.000431,1.605317
4710000,0.0324,0.013523,0.002678,0.000431,1.694756
4711000,0.0324,0.013523,0.002678,0.000431,1.701103
4712000,0.0324,0.013523,0.002678,0.000431,1.771385
4713000,0.0324,0.013523,0.002678,0.000431,1.695344
4714000,0.0324,0.013523,0.002678,0.000431,1.702161
4715000,0.0324,0.013523,0.002678,0.000431,1.761983
4716000,0.0324,0.013523,0.002678,0.000431,1.678185
4717000,0.0324,0.013523,0.002678,0.000431,1.789249
4718000,0.0324,0.013523,0.002678,0.000431,1.592624
4719000,0.0324,0.013523,0.002678,0.000431,1.606493
4720000,0.0324,0.013523,0.002678,0.000431,1.689468
4721000,0.0324,0.013523,0.002678,0.000431,1.675834
4722000,0.0324,0.013523,0.002678,0.000431,1.754461
4723000,0.0324,0.013523,0.002678,0.000431,1.576993
4724000,0.0324,0.013523,0.002678,0.000431,1.719672
4725000,0.0324,0.013523,0.002678,0.000431,1.713443
4726000,0.0324,0.013523,0.002678,0.000431,1.714266
4727000,0.0324,0.013523,0.002678,0.000431,1.687000
4728000,0.0324,0.013523,0.002678,0.000431,1.815105
4729000,0.0324,0.013523,0.002678,0.000431,1.647275
4730000,0.0324,0.013523,0.002678,0.000431,1.687587
4731000,0.0324,0.013523,0.002678,0.000431,1.750817
4732000,0.0324,0.013523,0.002678,0.000431,1.613427
4733000,0.0324,0.013523,0.002678,0.000431,1.707802
4734000,0.0324,0.013523,0.002678,0.000431,1.705099
4735000,0.0324,0.013523,0.002678,0.000431,1.708390
4736000,0.0324,0.013523,0.002678,0.000431,1.674424
4737000,0.0324,0.013523,0.002678,0.000431,1.615072
4738000,0.0324,0.013523,0.002678,0.000431,1.490257
4739000,0.0324,0.013523,0.002678,0.000431,1.637520
4740000,0.0324,0.013523,0.002678,0.000431,1.783960
4741000,0.0324,0.013523,0.002678,0.000431,1.799944
4742000,0.0324,0.013523,0.002678,0.000431,1.499072
4743000,0.0324,0.013523,0.002678,0.000431,1.674659
4744000,0.0324,0.013523,0.002678,0.000431,1.739300
4745000,0.0324,0.013523,0.002678,0.000431,1.649273
4746000,0.0324,0.013523,0.002678,0.000431,1.850246
4747000,0.0324,0.013523,0.002678,0.000431,1.810404
4748000,0.0324,0.013523,0.002678,0.000431,1.825683
4749000,0.0324,0.013523,0.002678,0.000431,1.704159
4750000,0.0324,0.013523,0.002678,0.000431,1.702513
4751000,0.0324,0.013523,0.002678,0.000431,1.894672
4752000,0.0324,0.013523,0.002678,0.000431,1.691466
4753000,0.0324,0.013523,0.002678,0.000431,1.698282
4754000,0.0324,0.013523,0.002678,0.000431,1.284583
4755000,0.0324,0.013523,0.002678,0.000431,1.488847
4756000,0.0324,0.013523,0.002678,0.000431,1.548551
4757000,0.0324,0.013523,0.002678,0.000431,1.615660
4758000,0.0324,0.013523,0.002678,0.000431,1.771150
4759000,0.0324,0.013523,0.002678,0.000431,1.677362
4760000,0.0324,0.013523,0.002678,0.000431,1.781492
4761000,0.0324,0.013523,0.002678,0.000431,1.748349
4762000,0.0324,0.013523,0.002678,0.000431,1.779142
4763000,0.0324,0.013523,0.002678,0.000431,1.828856
4764000,0.0324,0.013523,0.002678,0.000431,1.798181
4765000,0.0324,0.013523,0.002678,0.000431,1.684296
4766000,0.0324,0.013523,0.002678,0.000431,1.805703
4767000,0.0324,0.013523,0.002678,0.000431,1.839081
4768000,0.0324,0.013523,0.002678,0.000431,1.780199
4769000,0.0324,0.013523,0.002678,0.000431,1.627178
4770000,0.0324,0.013523,0.002678,0.000431,1.662554
4771000,0.0324,0.013523,0.002678,0.000431,1.732836
4772000,0.0324,0.013523,0.002678,0.000431,1.596855
4773000,0.0324,0.013523,0.002678,0.000431,1.822157
4774000,0.0324,0.013523,0.002678,0.000431,1.701220
4775000,0.0324,0.013523,0.002678,0.000431,1.546083
4776000,0.0324,0.013523,0.002678,0.000431,1.657970
4777000,0.0324,0.013523,0.002678,0.000431,1.708742
4778000,0.0324,0.013523,0.002678,0.000431,1.661848
4779000,0.0324,0.013523,0.002678,0.000431,1.566298
4780000,0.0324,0.013523,0.002678,0.000431,1.678420
4781000,0.0324,0.013523,0.002678,0.000431,1.646335
4782000,0.0324,0.013523,0.002678,0.000431,1.646335
4783000,0.0324,0.013523,0.002678,0.000431,1.717792
4784000,0.0324,0.013523,0.002678,0.000431,1.779494
4785000,0.0324,0.013523,0.002678,0.000431,1.796301
4786000,0.0324,0.013523,0.002678,0.000431,1.785371
4787000,0.0324,0.013523,0.002678,0.000431,1.758574
4788000,0.0324,0.013523,0.002678,0.000431,1.683239
4789000,0.0324,0.013523,0.002678,0.000431,1.747056
4790000,0.0324,0.013523,0.002678,0.000431,1.604025
4791000,0.0324,0.013523,0.002678,0.000431,1.640223
4792000,0.0324,0.013523,0.002678,0.000431,1.682769
4793000,0.0324,0.013523,0.002678,0.000431,1.545613
4794000,0.0324,0.013523,0.002678,0.000431,1.690173
4795000,0.0324,0.013523,0.002678,0.000431,1.693464
4796000,0.0324,0.013523,0.002678,0.000431,1.624592
4797000,0.0324,0.013523,0.002678,0.000431,1.731543
4798000,0.0324,0.013523,0.002678,0.000431,1.715794
4799000,0.0324,0.013523,0.002678,0.000431,1.558424
4800000,0.0324,0.013523,0.002678,0.000431,1.644454
4801000,0.0324,0.013523,0.002678,0.000431,1.569589
4802000,0.0324,0.013523,0.002678,0.000431,1.653386
4803000,0.0324,0.013523,0.002678,0.000431,1.603084
4804000,0.0324,0.013523,0.002678,0.000431,1.628470
4805000,0.0324,0.013523,0.002678,0.000431,1.896317
4806000,0.0324,0.013523,0.002678,0.000431,1.792070
4807000,0.0324,0.013523,0.002678,0.000431,1.768212
4808000,0.0324,0.013523,0.002678,0.000431,1.745999
4809000,0.0324,0.013523,0.002678,0.000431,1.652564
4810000,0.0324,0.013523,0.002678,0.000431,1.615190
4811000,0.0324,0.013523,0.002678,0.000431,1.593330
4812000,0.0324,0.013523,0.002678,0.000431,1.839669
4813000,0.0324,0.013523,0.002678,0.000431,1.657147
4814000,0.0324,0.013523,0.002678,0.000431,1.759397
4815000,0.0324,0.013523,0.002678,0.000431,1.823450
4816000,0.0324,0.013523,0.002678,0.000431,1.555603
4817000,0.0324,0.013523,0.002678,0.000431,1.720142
4818000,0.0324,0.013523,0.002678,0.000431,1.655267
4819000,0.0324,0.013523,0.002678,0.000431,1.684649
4820000,0.0324,0.013523,0.002678,0.000431,1.834732
4821000,0.0324,0.013523,0.002678,0.000431,1.859531
4822000,0.0324,0.013523,0.002678,0.000431,1.605552
4823000,0.0324,0.013523,0.002678,0.000431,1.697930
4824000,0.0324,0.013523,0.002678,0.000431,1.756224
4825000,0.0324,0.013523,0.002678,0.000431,1.749289
4826000,0.0324,0.013523,0.002678,0.000431,1.702396
4827000,0.0324,0.013523,0.002678,0.000431,1.854360
4828000,0.0324,0.013523,0.002678,0.000431,1.693699
4829000,0.0324,0.013523,0.002678,0.000431,1.719085
4830000,0.0324,0.013523,0.002678,0.000431,1.642104
4831000,0.0324,0.013523,0.002678,0.000431,1.716617
4832000,0.0324,0.013523,0.002678,0.000431,1.804645
4833000,0.0324,0.013523,0.002678,0.000431,1.712033
4834000,0.0324,0.013523,0.002678,0.000431,1.670311
4835000,0.0324,0.013523,0.002678,0.000431,1.686177
4836000,0.0324,0.013523,0.002678,0.000431,1.650448
4837000,0.0324,0.013523,0.002678,0.000431,1.598971
4838000,0.0324,0.013523,0.002678,0.000431,1.648333
4839000,0.0324,0.013523,0.002678,0.000431,1.704511
4840000,0.0324,0.013523,0.002678,0.000431,1.800532
4841000,0.0324,0.013523,0.002678,0.000431,1.640928
4842000,0.0324,0.013523,0.002678,0.000431,1.683944
4843000,0.0324,0.013523,0.002678,0.000431,1.526574
4844000,0.0324,0.013523,0.002678,0.000431,1.568414
4845000,0.0324,0.013523,0.002678,0.000431,1.657970
4846000,0.0324,0.013523,0.002678,0.000431,1.618010
4847000,0.0324,0.013523,0.002678,0.000431,1.763158
4848000,0.0324,0.013523,0.002678,0.000431,1.746821
4849000,0.0324,0.013523,0.002678,0.000431,1.717557
4850000,0.0324,0.013523,0.002678,0.000431,1.625650
4851000,0.0324,0.013523,0.002678,0.000431,1.824037
4852000,0.0324,0.013523,0.002678,0.000431,1.716852
4853000,0.0324,0.013523,0.002678,0.000431,1.688057
4854000,0.0324,0.013523,0.002678,0.000431,1.728017
4855000,0.0324,0.013523,0.002678,0.000431,1.530217
4856000,0.0324,0.013523,0.002678,0.000431,1.702513
4857000,0.0324,0.013523,0.002678,0.000431,1.532215
4858000,0.0324,0.013523,0.002678,0.000431,1.613544
4859000,0.0324,0.013523,0.002678,0.000431,1.628823
4860000,0.0324,0.013523,0.002678,0.000431,1.637873
4861000,0.0324,0.013523,0.002678,0.000431,1.695109
4862000,0.0324,0.013523,0.002678,0.000431,1.750935
4863000,0.0324,0.013523,0.002678,0.000431,1.610841
4864000,0.0324,0.013523,0.002678,0.000431,1.914299
4865000,0.0324,0.013523,0.002678,0.000431,1.876572
4866000,0.0324,0.013523,0.002678,0.000431,1.809934
4867000,0.0324,0.013523,0.002678,0.000431,1.806173
4868000,0.0324,0.013523,0.002678,0.000431,1.426557
4869000,0.0324,0.013523,0.002678,0.000431,1.695462
4870000,0.0324,0.013523,0.002678,0.000431,1.547729
4871000,0.0324,0.013523,0.002678,0.000431,1.524928
4872000,0.0324,0.013523,0.002678,0.000431,1.746821
4873000,0.0324,0.013523,0.002678,0.000431,1.631056
4874000,0.0324,0.013523,0.002678,0.000431,1.510355
4875000,0.0324,0.013523,0.002678,0.000431,1.657265
4876000,0.0324,0.013523,0.002678,0.000431,1.679948
4877000,0.0324,0.013523,0.002678,0.000431,1.693464
4878000,0.0324,0.013523,0.002678,0.000431,1.688998
4879000,0.0324,0.013523,0.002678,0.000431,1.573820
4880000,0.0324,0.013523,0.002678,0.000431,1.646805
4881000,0.0324,0.013523,0.002678,0.000431,1.845545
4882000,0.0324,0.013523,0.002678,0.000431,1.635875
4883000,0.0324,0.013523,0.002678,0.000431,1.754343
4884000,0.0324,0.013523,0.002678,0.000431,1.862939
4885000,0.0324,0.013523,0.002678,0.000431,1.911008
4886000,0.0324,0.013523,0.002678,0.000431,1.763863
4887000,0.0324,0.013523,0.002678,0.000431,1.714736
4888000,0.0324,0.013523,0.002678,0.000431,1.721553
4889000,0.0324,0.013523,0.002678,0.000431,1.777144
4890000,0.0324,0.013523,0.002678,0.000431,1.739417
4891000,0.0324,0.013523,0.002678,0.000431,1.674189
4892000,0.0324,0.013523,0.002678,0.000431,1.716499
4893000,0.0324,0.013523,0.002678,0.000431,1.717087
4894000,0.0324,0.013523,0.002678,0.000431,1.819924
4895000,0.0324,0.013523,0.002678,0.000431,1.751523
4896000,0.0324,0.013523,0.002678,0.000431,1.787369
4897000,0.0324,0.013523,0.002678,0.000431,1.727899
4898000,0.0324,0.013523,0.002678,0.000431,1.717909
4899000,0.0324,0.013523,0.002678,0.000431,1.536681
4900000,0.0324,0.013523,0.002678,0.000431,1.520697
4901000,0.0324,0.013523,0.002678,0.000431,1.738007
4902000,0.0324,0.013523,0.002678,0.000431,1.611429
4903000,0.0324,0.013523,0.002678,0.000431,1.663964
4904000,0.0324,0.013523,0.002678,0.000431,1.869873
4905000,0.0324,0.013523,0.002678,0.000431,1.789837
4906000,0.0324,0.013523,0.002678,0.000431,1.675599
4907000,0.0324,0.013523,0.002678,0.000431,1.769034
4908000,0.0324,0.013523,0.002678,0.000431,1.460640
4909000,0.0324,0.013523,0.002678,0.000431,1.815458
4910000,0.0324,0.013523,0.002678,0.000431,1.668548
4911000,0.0324,0.013523,0.002678,0.000431,1.502363
4912000,0.0324,0.013523,0.002678,0.000431,1.510002
4913000,0.0324,0.013523,0.002678,0.000431,1.688880
4914000,0.0324,0.013523,0.002678,0.000431,1.607315
4915000,0.0324,0.013523,0.002678,0.000431,1.602849
4916000,0.0324,0.013523,0.002678,0.000431,1.677362
4917000,0.0324,0.013523,0.002678,0.000431,1.783255
4918000,0.0324,0.013523,0.002678,0.000431,1.671838
4919000,0.0324,0.013523,0.002678,0.000431,1.637403
4920000,0.0324,0.013523,0.002678,0.000431,1.730015
4921000,0.0324,0.013523,0.002678,0.000431,1.735539
4922000,0.0324,0.013523,0.002678,0.000431,1.705569
4923000,0.0324,0.013523,0.002678,0.000431,1.906542
4924000,0.0324,0.013523,0.002678,0.000431,1.597443
4925000,0.0324,0.013523,0.002678,0.000431,1.593917
4926000,0.0324,0.013523,0.002678,0.000431,1.584397
4927000,0.0324,0.013523,0.002678,0.000431,1.680653
4928000,0.0324,0.013523,0.002678,0.000431,1.719555
4929000,0.0324,0.013523,0.002678,0.000431,1.547846
4930000,0.0324,0.013523,0.002678,0.000431,1.756224
4931000,0.0324,0.013523,0.002678,0.000431,1.659380
4932000,0.0324,0.013523,0.002678,0.000431,1.748114
4933000,0.0324,0.013523,0.002678,0.000431,1.796536
4934000,0.0324,0.013523,0.002678,0.000431,1.757281
4935000,0.0324,0.013523,0.002678,0.000431,1.366970
4936000,0.0324,0.013523,0.002678,0.000431,1.771385
4937000,0.0324,0.013523,0.002678,0.000431,1.725666
4938000,0.0324,0.013523,0.002678,0.000431,1.573820
4939000,0.0324,0.013523,0.002678,0.000431,1.523400
4940000,0.0324,0.013523,0.002678,0.000431,1.790777
4941000,0.0324,0.013523,0.002678,0.000431,1.805585
4942000,0.0324,0.013523,0.002678,0.000431,1.557836
4943000,0.0324,0.013523,0.002678,0.000431,1.669370
4944000,0.0324,0.013523,0.002678,0.000431,1.678067
4945000,0.0324,0.013523,0.002678,0.000431,1.692993
4946000,0.0324,0.013523,0.002678,0.000431,1.593095
4947000,0.0324,0.013523,0.002678,0.000431,1.771972
4948000,0.0324,0.013523,0.002678,0.000431,1.658205
4949000,0.0324,0.013523,0.002678,0.000431,1.652094
4950000,0.0324,0.013523,0.002678,0.000431,1.798651
4951000,0.0324,0.013523,0.002678,0.000431,1.789484
4952000,0.0324,0.013523,0.002678,0.000431,1.785136
4953000,0.0324,0.013523,0.002678,0.000431,1.912889
4954000,0.0324,0.013523,0.002678,0.000431,1.712033
4955000,0.0324,0.013523,0.002678,0.000431,1.870461
4956000,0.0324,0.013523,0.002678,0.000431,1.894202
4957000,0.0324,0.013523,0.002678,0.000431,1.821804
4958000,0.0324,0.013523,0.002678,0.000431,1.833322
4959000,0.0324,0.013523,0.002678,0.000431,1.752228
4960000,0.0324,0.013523,0.002678,0.000431,1.659380
4961000,0.0324,0.013523,0.002678,0.000431,1.819219
4962000,0.0324,0.013523,0.002678,0.000431,1.870461
4963000,0.0324,0.013523,0.002678,0.000431,1.672779
4964000,0.0324,0.013523,0.002678,0.000431,1.871284
4965000,0.0324,0.013523,0.002678,0.000431,1.660438
4966000,0.0324,0.013523,0.002678,0.000431,1.475214
4967000,0.0324,0.013523,0.002678,0.000431,1.615425
4968000,0.0324,0.013523,0.002678,0.000431,1.810287
4969000,0.0324,0.013523,0.002678,0.000431,1.806408
4970000,0.0324,0.013523,0.002678,0.000431,1.723198
4971000,0.0324,0.013523,0.002678,0.000431,1.614955
4972000,0.0324,0.013523,0.002678,0.000431,1.659498
4973000,0.0324,0.013523,0.002678,0.000431,1.542087
4974000,0.0324,0.013523,0.002678,0.000431,1.624239
4975000,0.0324,0.013523,0.002678,0.000431,1.738007
4976000,0.0324,0.013523,0.002678,0.000431,1.785253
4977000,0.0324,0.013523,0.002678,0.000431,1.794773
4978000,0.0324,0.013523,0.002678,0.000431,1.768682
4979000,0.0324,0.013523,0.002678,0.000431,1.634464
4980000,0.0324,0.013523,0.002678,0.000431,1.811344
4981000,0.0324,0.013523,0.002678,0.000431,1.765391
4982000,0.0324,0.013523,0.002678,0.000431,1.837201
4983000,0.0324,0.013523,0.002678,0.000431,1.476389
4984000,0.0324,0.013523,0.002678,0.000431,1.728605
4985000,0.0324,0.013523,0.002678,0.000431,1.751875
4986000,0.0324,0.013523,0.002678,0.000431,1.578521
4987000,0.0324,0.013523,0.002678,0.000431,1.623417
4988000,0.0324,0.013523,0.002678,0.000431,1.634817
4989000,0.0324,0.013523,0.002678,0.000431,1.573232
4990000,0.0324,0.013523,0.002678,0.000431,1.628706
4991000,0.0324,0.013523,0.002678,0.000431,1.661966
4992000,0.0324,0.013523,0.002678,0.000431,1.582987
4993000,0.0324,0.013523,0.002678,0.000431,1.605317
4994000,0.0324,0.013523,0.002678,0.000431,1.690760
4995000,0.0324,0.013523,0.002678,0.000431,1.620831
4996000,0.0324,0.013523,0.002678,0.000431,1.648215
4997000,0.0324,0.013523,0.002678,0.000431,1.799827
4998000,0.0324,0.013523,0.002678,0.000431,1.827916
4999000,0.0324,0.013523,0.002678,0.000431,1.754108
