Cycle,Area(mm^2),PeakDynamic(W),SubthresholdLeakage(W),GateLeakage(W),RunTimeDynamic(W)
9000000,0.0324,0.013523,0.002678,0.000431,1.691818
9001000,0.0324,0.013523,0.002678,0.000431,1.665022
9002000,0.0324,0.013523,0.002678,0.000431,1.684766
9003000,0.0324,0.013523,0.002678,0.000431,1.669135
9004000,0.0324,0.013523,0.002678,0.000431,1.616953
9005000,0.0324,0.013523,0.002678,0.000431,1.623417
9006000,0.0324,0.013523,0.002678,0.000431,1.460523
9007000,0.0324,0.013523,0.002678,0.000431,1.548551
9008000,0.0324,0.013523,0.002678,0.000431,1.582517
9009000,0.0324,0.013523,0.002678,0.000431,1.701691
9010000,0.0324,0.013523,0.002678,0.000431,1.587218
9011000,0.0324,0.013523,0.002678,0.000431,1.575230
9012000,0.0324,0.013523,0.002678,0.000431,1.624945
9013000,0.0324,0.013523,0.002678,0.000431,1.609666
9014000,0.0324,0.013523,0.002678,0.000431,1.387185
9015000,0.0324,0.013523,0.002678,0.000431,1.520580
9016000,0.0324,0.013523,0.002678,0.000431,1.645042
9017000,0.0324,0.013523,0.002678,0.000431,1.635287
9018000,0.0324,0.013523,0.002678,0.000431,1.705451
9019000,0.0324,0.013523,0.002678,0.000431,1.551725
9020000,0.0324,0.013523,0.002678,0.000431,1.671956
9021000,0.0324,0.013523,0.002678,0.000431,1.561832
9022000,0.0324,0.013523,0.002678,0.000431,1.581929
9023000,0.0324,0.013523,0.002678,0.000431,1.766919
9024000,0.0324,0.013523,0.002678,0.000431,1.683004
9025000,0.0324,0.013523,0.002678,0.000431,1.677127
9026000,0.0324,0.013523,0.002678,0.000431,1.630586
9027000,0.0324,0.013523,0.002678,0.000431,1.483206
9028000,0.0324,0.013523,0.002678,0.000431,1.657853
9029000,0.0324,0.013523,0.002678,0.000431,1.563360
9030000,0.0324,0.013523,0.002678,0.000431,1.569001
9031000,0.0324,0.013523,0.002678,0.000431,1.588746
9032000,0.0324,0.013523,0.002678,0.000431,1.566886
9033000,0.0324,0.013523,0.002678,0.000431,1.427380
9034000,0.0324,0.013523,0.002678,0.000431,1.645630
9035000,0.0324,0.013523,0.002678,0.000431,1.617188
9036000,0.0324,0.013523,0.002678,0.000431,1.599441
9037000,0.0324,0.013523,0.002678,0.000431,1.627413
9038000,0.0324,0.013523,0.002678,0.000431,1.493078
9039000,0.0324,0.013523,0.002678,0.000431,1.533860
9040000,0.0324,0.013523,0.002678,0.000431,1.727899
9041000,0.0324,0.013523,0.002678,0.000431,1.687587
9042000,0.0324,0.013523,0.002678,0.000431,1.506594
9043000,0.0324,0.013523,0.002678,0.000431,1.674659
9044000,0.0324,0.013523,0.002678,0.000431,1.508474
9045000,0.0324,0.013523,0.002678,0.000431,1.390946
9046000,0.0324,0.013523,0.002678,0.000431,1.576406
9047000,0.0324,0.013523,0.002678,0.000431,1.584632
9048000,0.0324,0.013523,0.002678,0.000431,1.345933
9049000,0.0324,0.013523,0.002678,0.000431,1.581107
9050000,0.0324,0.013523,0.002678,0.000431,1.423619
9051000,0.0324,0.013523,0.002678,0.000431,1.621654
9052000,0.0324,0.013523,0.002678,0.000431,1.492255
9053000,0.0324,0.013523,0.002678,0.000431,1.583575
9054000,0.0324,0.013523,0.002678,0.000431,1.656560
9055000,0.0324,0.013523,0.002678,0.000431,1.600969
9056000,0.0324,0.013523,0.002678,0.000431,1.607786
9057000,0.0324,0.013523,0.002678,0.000431,1.692288
9058000,0.0324,0.013523,0.002678,0.000431,1.357921
9059000,0.0324,0.013523,0.002678,0.000431,1.465694
9060000,0.0324,0.013523,0.002678,0.000431,1.644572
9061000,0.0324,0.013523,0.002678,0.000431,1.508827
9062000,0.0324,0.013523,0.002678,0.000431,1.494253
9063000,0.0324,0.013523,0.002678,0.000431,1.482618
9064000,0.0324,0.013523,0.002678,0.000431,1.662319
9065000,0.0324,0.013523,0.002678,0.000431,1.665022
9066000,0.0324,0.013523,0.002678,0.000431,1.653504
9067000,0.0324,0.013523,0.002678,0.000431,1.607786
9068000,0.0324,0.013523,0.002678,0.000431,1.719202
9069000,0.0324,0.013523,0.002678,0.000431,1.565593
9070000,0.0324,0.013523,0.002678,0.000431,1.638343
9071000,0.0324,0.013523,0.002678,0.000431,1.683944
9072000,0.0324,0.013523,0.002678,0.000431,1.645747
9073000,0.0324,0.013523,0.002678,0.000431,1.607786
9074000,0.0324,0.013523,0.002678,0.000431,1.846955
9075000,0.0324,0.013523,0.002678,0.000431,1.647510
9076000,0.0324,0.013523,0.002678,0.000431,1.666080
9077000,0.0324,0.013523,0.002678,0.000431,1.705451
9078000,0.0324,0.013523,0.002678,0.000431,1.598736
9079000,0.0324,0.013523,0.002678,0.000431,1.458642
9080000,0.0324,0.013523,0.002678,0.000431,1.541265
9081000,0.0324,0.013523,0.002678,0.000431,1.547729
9082000,0.0324,0.013523,0.002678,0.000431,1.630821
9083000,0.0324,0.013523,0.002678,0.000431,1.568884
9084000,0.0324,0.013523,0.002678,0.000431,1.701103
9085000,0.0324,0.013523,0.002678,0.000431,1.502598
9086000,0.0324,0.013523,0.002678,0.000431,1.616835
9087000,0.0324,0.013523,0.002678,0.000431,1.631526
9088000,0.0324,0.013523,0.002678,0.000431,1.579109
9089000,0.0324,0.013523,0.002678,0.000431,1.613192
9090000,0.0324,0.013523,0.002678,0.000431,1.584162
9091000,0.0324,0.013523,0.002678,0.000431,1.539032
9092000,0.0324,0.013523,0.002678,0.000431,1.628000
9093000,0.0324,0.013523,0.002678,0.000431,1.558189
9094000,0.0324,0.013523,0.002678,0.000431,1.507534
9095000,0.0324,0.013523,0.002678,0.000431,1.577581
9096000,0.0324,0.013523,0.002678,0.000431,1.692406
9097000,0.0324,0.013523,0.002678,0.000431,1.593330
9098000,0.0324,0.013523,0.002678,0.000431,1.512470
9099000,0.0324,0.013523,0.002678,0.000431,1.480267
9100000,0.0324,0.013523,0.002678,0.000431,1.603202
9101000,0.0324,0.013523,0.002678,0.000431,1.706627
9102000,0.0324,0.013523,0.002678,0.000431,1.712386
9103000,0.0324,0.013523,0.002678,0.000431,1.614485
9104000,0.0324,0.013523,0.002678,0.000431,1.602262
9105000,0.0324,0.013523,0.002678,0.000431,1.580637
9106000,0.0324,0.013523,0.002678,0.000431,1.523753
9107000,0.0324,0.013523,0.002678,0.000431,1.707332
9108000,0.0324,0.013523,0.002678,0.000431,1.667842
9109000,0.0324,0.013523,0.002678,0.000431,1.650801
9110000,0.0324,0.013523,0.002678,0.000431,1.788779
9111000,0.0324,0.013523,0.002678,0.000431,1.749525
9112000,0.0324,0.013523,0.002678,0.000431,1.627530
9113000,0.0324,0.013523,0.002678,0.000431,1.472276
9114000,0.0324,0.013523,0.002678,0.000431,1.526103
9115000,0.0324,0.013523,0.002678,0.000431,1.487554
9116000,0.0324,0.013523,0.002678,0.000431,1.525046
9117000,0.0324,0.013523,0.002678,0.000431,1.533743
9118000,0.0324,0.013523,0.002678,0.000431,1.587923
9119000,0.0324,0.013523,0.002678,0.000431,1.522695
9120000,0.0324,0.013523,0.002678,0.000431,1.503773
9121000,0.0324,0.013523,0.002678,0.000431,1.590744
9122000,0.0324,0.013523,0.002678,0.000431,1.730250
9123000,0.0324,0.013523,0.002678,0.000431,1.755283
9124000,0.0324,0.013523,0.002678,0.000431,1.537974
9125000,0.0324,0.013523,0.002678,0.000431,1.507181
9126000,0.0324,0.013523,0.002678,0.000431,1.535506
9127000,0.0324,0.013523,0.002678,0.000431,1.635170
9128000,0.0324,0.013523,0.002678,0.000431,1.637285
9129000,0.0324,0.013523,0.002678,0.000431,1.704981
9130000,0.0324,0.013523,0.002678,0.000431,1.707449
9131000,0.0324,0.013523,0.002678,0.000431,1.545613
9132000,0.0324,0.013523,0.002678,0.000431,1.706039
9133000,0.0324,0.013523,0.002678,0.000431,1.724021
9134000,0.0324,0.013523,0.002678,0.000431,1.829796
9135000,0.0324,0.013523,0.002678,0.000431,1.642339
9136000,0.0324,0.013523,0.002678,0.000431,1.551725
9137000,0.0324,0.013523,0.002678,0.000431,1.521637
9138000,0.0324,0.013523,0.002678,0.000431,1.685589
9139000,0.0324,0.013523,0.002678,0.000431,1.739652
9140000,0.0324,0.013523,0.002678,0.000431,1.764686
9141000,0.0324,0.013523,0.002678,0.000431,1.796066
9142000,0.0324,0.013523,0.002678,0.000431,1.732013
9143000,0.0324,0.013523,0.002678,0.000431,1.519404
9144000,0.0324,0.013523,0.002678,0.000431,1.604142
9145000,0.0324,0.013523,0.002678,0.000431,1.768682
9146000,0.0324,0.013523,0.002678,0.000431,1.764333
9147000,0.0324,0.013523,0.002678,0.000431,1.510120
9148000,0.0324,0.013523,0.002678,0.000431,1.689585
9149000,0.0324,0.013523,0.002678,0.000431,1.662554
9150000,0.0324,0.013523,0.002678,0.000431,1.618598
9151000,0.0324,0.013523,0.002678,0.000431,1.722258
9152000,0.0324,0.013523,0.002678,0.000431,1.634935
9153000,0.0324,0.013523,0.002678,0.000431,1.716499
9154000,0.0324,0.013523,0.002678,0.000431,1.548669
9155000,0.0324,0.013523,0.002678,0.000431,1.584280
9156000,0.0324,0.013523,0.002678,0.000431,1.586983
9157000,0.0324,0.013523,0.002678,0.000431,1.774793
9158000,0.0324,0.013523,0.002678,0.000431,1.557366
9159000,0.0324,0.013523,0.002678,0.000431,1.498484
9160000,0.0324,0.013523,0.002678,0.000431,1.571469
9161000,0.0324,0.013523,0.002678,0.000431,1.331007
9162000,0.0324,0.013523,0.002678,0.000431,1.453941
9163000,0.0324,0.013523,0.002678,0.000431,1.566416
9164000,0.0324,0.013523,0.002678,0.000431,1.663141
9165000,0.0324,0.013523,0.002678,0.000431,1.625297
9166000,0.0324,0.013523,0.002678,0.000431,1.643632
9167000,0.0324,0.013523,0.002678,0.000431,1.587453
9168000,0.0324,0.013523,0.002678,0.000431,1.730367
9169000,0.0324,0.013523,0.002678,0.000431,1.490963
9170000,0.0324,0.013523,0.002678,0.000431,1.695814
9171000,0.0324,0.013523,0.002678,0.000431,1.638695
9172000,0.0324,0.013523,0.002678,0.000431,1.599206
9173000,0.0324,0.013523,0.002678,0.000431,1.777144
9174000,0.0324,0.013523,0.002678,0.000431,1.766919
9175000,0.0324,0.013523,0.002678,0.000431,1.877160
9176000,0.0324,0.013523,0.002678,0.000431,1.822157
9177000,0.0324,0.013523,0.002678,0.000431,1.657030
9178000,0.0324,0.013523,0.002678,0.000431,1.724726
9179000,0.0324,0.013523,0.002678,0.000431,1.421621
9180000,0.0324,0.013523,0.002678,0.000431,1.391416
9181000,0.0324,0.013523,0.002678,0.000431,1.572410
9182000,0.0324,0.013523,0.002678,0.000431,1.590039
9183000,0.0324,0.013523,0.002678,0.000431,1.674777
9184000,0.0324,0.013523,0.002678,0.000431,1.752698
9185000,0.0324,0.013523,0.002678,0.000431,1.761042
9186000,0.0324,0.013523,0.002678,0.000431,1.619538
9187000,0.0324,0.013523,0.002678,0.000431,1.602732
9188000,0.0324,0.013523,0.002678,0.000431,1.718732
9189000,0.0324,0.013523,0.002678,0.000431,1.788191
9190000,0.0324,0.013523,0.002678,0.000431,1.704981
9191000,0.0324,0.013523,0.002678,0.000431,1.514938
9192000,0.0324,0.013523,0.002678,0.000431,1.698870
9193000,0.0324,0.013523,0.002678,0.000431,1.557131
9194000,0.0324,0.013523,0.002678,0.000431,1.725549
9195000,0.0324,0.013523,0.002678,0.000431,1.505889
9196000,0.0324,0.013523,0.002678,0.000431,1.515408
9197000,0.0324,0.013523,0.002678,0.000431,1.622359
9198000,0.0324,0.013523,0.002678,0.000431,1.593212
9199000,0.0324,0.013523,0.002678,0.000431,1.698987
9200000,0.0324,0.013523,0.002678,0.000431,1.679830
9201000,0.0324,0.013523,0.002678,0.000431,1.766214
9202000,0.0324,0.013523,0.002678,0.000431,1.654562
9203000,0.0324,0.013523,0.002678,0.000431,1.495546
9204000,0.0324,0.013523,0.002678,0.000431,1.520580
9205000,0.0324,0.013523,0.002678,0.000431,1.801472
9206000,0.0324,0.013523,0.002678,0.000431,1.634935
9207000,0.0324,0.013523,0.002678,0.000431,1.740475
9208000,0.0324,0.013523,0.002678,0.000431,1.578756
9209000,0.0324,0.013523,0.002678,0.000431,1.602379
9210000,0.0324,0.013523,0.002678,0.000431,1.661613
9211000,0.0324,0.013523,0.002678,0.000431,1.622477
9212000,0.0324,0.013523,0.002678,0.000431,1.631761
9213000,0.0324,0.013523,0.002678,0.000431,1.519287
9214000,0.0324,0.013523,0.002678,0.000431,1.616600
9215000,0.0324,0.013523,0.002678,0.000431,1.604025
9216000,0.0324,0.013523,0.002678,0.000431,1.652094
9217000,0.0324,0.013523,0.002678,0.000431,1.715911
9218000,0.0324,0.013523,0.002678,0.000431,1.570764
9219000,0.0324,0.013523,0.002678,0.000431,1.668783
9220000,0.0324,0.013523,0.002678,0.000431,1.589099
9221000,0.0324,0.013523,0.002678,0.000431,1.725666
9222000,0.0324,0.013523,0.002678,0.000431,1.658910
9223000,0.0324,0.013523,0.002678,0.000431,1.823567
9224000,0.0324,0.013523,0.002678,0.000431,1.736949
9225000,0.0324,0.013523,0.002678,0.000431,1.384717
9226000,0.0324,0.013523,0.002678,0.000431,1.719790
9227000,0.0324,0.013523,0.002678,0.000431,1.555133
9228000,0.0324,0.013523,0.002678,0.000431,1.591332
9229000,0.0324,0.013523,0.002678,0.000431,1.808641
9230000,0.0324,0.013523,0.002678,0.000431,1.695344
9231000,0.0324,0.013523,0.002678,0.000431,1.562537
9232000,0.0324,0.013523,0.002678,0.000431,1.695814
9233000,0.0324,0.013523,0.002678,0.000431,1.844370
9234000,0.0324,0.013523,0.002678,0.000431,1.782432
9235000,0.0324,0.013523,0.002678,0.000431,1.822274
9236000,0.0324,0.013523,0.002678,0.000431,1.851421
9237000,0.0324,0.013523,0.002678,0.000431,1.707332
9238000,0.0324,0.013523,0.002678,0.000431,1.646687
9239000,0.0324,0.013523,0.002678,0.000431,1.556543
9240000,0.0324,0.013523,0.002678,0.000431,1.609431
9241000,0.0324,0.013523,0.002678,0.000431,1.612369
9242000,0.0324,0.013523,0.002678,0.000431,1.484734
9243000,0.0324,0.013523,0.002678,0.000431,1.786076
9244000,0.0324,0.013523,0.002678,0.000431,1.564300
9245000,0.0324,0.013523,0.002678,0.000431,1.759632
9246000,0.0324,0.013523,0.002678,0.000431,1.747879
9247000,0.0324,0.013523,0.002678,0.000431,1.453589
9248000,0.0324,0.013523,0.002678,0.000431,1.601204
9249000,0.0324,0.013523,0.002678,0.000431,1.706274
9250000,0.0324,0.013523,0.002678,0.000431,1.634464
9251000,0.0324,0.013523,0.002678,0.000431,1.675599
9252000,0.0324,0.013523,0.002678,0.000431,1.844370
9253000,0.0324,0.013523,0.002678,0.000431,1.700163
9254000,0.0324,0.013523,0.002678,0.000431,1.656677
9255000,0.0324,0.013523,0.002678,0.000431,1.569001
9256000,0.0324,0.013523,0.002678,0.000431,1.577228
9257000,0.0324,0.013523,0.002678,0.000431,1.622477
9258000,0.0324,0.013523,0.002678,0.000431,1.591567
9259000,0.0324,0.013523,0.002678,0.000431,1.599676
9260000,0.0324,0.013523,0.002678,0.000431,1.559834
9261000,0.0324,0.013523,0.002678,0.000431,1.765273
9262000,0.0324,0.013523,0.002678,0.000431,1.595092
9263000,0.0324,0.013523,0.002678,0.000431,1.634699
9264000,0.0324,0.013523,0.002678,0.000431,1.660673
9265000,0.0324,0.013523,0.002678,0.000431,1.807231
9266000,0.0324,0.013523,0.002678,0.000431,1.808171
9267000,0.0324,0.013523,0.002678,0.000431,1.807701
9268000,0.0324,0.013523,0.002678,0.000431,1.784548
9269000,0.0324,0.013523,0.002678,0.000431,1.670075
9270000,0.0324,0.013523,0.002678,0.000431,1.459230
9271000,0.0324,0.013523,0.002678,0.000431,1.692758
9272000,0.0324,0.013523,0.002678,0.000431,1.602967
9273000,0.0324,0.013523,0.002678,0.000431,1.647745
9274000,0.0324,0.013523,0.002678,0.000431,1.580401
9275000,0.0324,0.013523,0.002678,0.000431,1.703924
9276000,0.0324,0.013523,0.002678,0.000431,1.790189
9277000,0.0324,0.013523,0.002678,0.000431,1.669253
9278000,0.0324,0.013523,0.002678,0.000431,1.725196
9279000,0.0324,0.013523,0.002678,0.000431,1.650331
9280000,0.0324,0.013523,0.002678,0.000431,1.642456
9281000,0.0324,0.013523,0.002678,0.000431,1.682651
9282000,0.0324,0.013523,0.002678,0.000431,1.685472
9283000,0.0324,0.013523,0.002678,0.000431,1.563360
9284000,0.0324,0.013523,0.002678,0.000431,1.698400
9285000,0.0324,0.013523,0.002678,0.000431,1.645159
9286000,0.0324,0.013523,0.002678,0.000431,1.684766
9287000,0.0324,0.013523,0.002678,0.000431,1.544438
9288000,0.0324,0.013523,0.002678,0.000431,1.785488
9289000,0.0324,0.013523,0.002678,0.000431,1.595092
9290000,0.0324,0.013523,0.002678,0.000431,1.721788
9291000,0.0324,0.013523,0.002678,0.000431,1.701808
9292000,0.0324,0.013523,0.002678,0.000431,1.783020
9293000,0.0324,0.013523,0.002678,0.000431,1.606493
9294000,0.0324,0.013523,0.002678,0.000431,1.643162
9295000,0.0324,0.013523,0.002678,0.000431,1.617188
9296000,0.0324,0.013523,0.002678,0.000431,1.760102
9297000,0.0324,0.013523,0.002678,0.000431,1.667607
9298000,0.0324,0.013523,0.002678,0.000431,1.631056
9299000,0.0324,0.013523,0.002678,0.000431,1.509885
9300000,0.0324,0.013523,0.002678,0.000431,1.639636
9301000,0.0324,0.013523,0.002678,0.000431,1.644219
9302000,0.0324,0.013523,0.002678,0.000431,1.769269
9303000,0.0324,0.013523,0.002678,0.000431,1.809581
9304000,0.0324,0.013523,0.002678,0.000431,1.762923
9305000,0.0324,0.013523,0.002678,0.000431,1.695227
9306000,0.0324,0.013523,0.002678,0.000431,1.768329
9307000,0.0324,0.013523,0.002678,0.000431,1.585808
9308000,0.0324,0.013523,0.002678,0.000431,1.644924
9309000,0.0324,0.013523,0.002678,0.000431,1.568884
9310000,0.0324,0.013523,0.002678,0.000431,1.680535
9311000,0.0324,0.013523,0.002678,0.000431,1.511883
9312000,0.0324,0.013523,0.002678,0.000431,1.608373
9313000,0.0324,0.013523,0.002678,0.000431,1.800767
9314000,0.0324,0.013523,0.002678,0.000431,1.651271
9315000,0.0324,0.013523,0.002678,0.000431,1.813460
9316000,0.0324,0.013523,0.002678,0.000431,1.690055
9317000,0.0324,0.013523,0.002678,0.000431,1.734246
9318000,0.0324,0.013523,0.002678,0.000431,1.536799
9319000,0.0324,0.013523,0.002678,0.000431,1.742003
9320000,0.0324,0.013523,0.002678,0.000431,1.609196
9321000,0.0324,0.013523,0.002678,0.000431,1.874575
9322000,0.0324,0.013523,0.002678,0.000431,1.856710
9323000,0.0324,0.013523,0.002678,0.000431,1.670075
9324000,0.0324,0.013523,0.002678,0.000431,1.745411
9325000,0.0324,0.013523,0.002678,0.000431,1.789837
9326000,0.0324,0.013523,0.002678,0.000431,1.673249
9327000,0.0324,0.013523,0.002678,0.000431,1.839316
9328000,0.0324,0.013523,0.002678,0.000431,1.804528
9329000,0.0324,0.013523,0.002678,0.000431,1.480150
9330000,0.0324,0.013523,0.002678,0.000431,1.639871
9331000,0.0324,0.013523,0.002678,0.000431,1.462286
9332000,0.0324,0.013523,0.002678,0.000431,1.663729
9333000,0.0324,0.013523,0.002678,0.000431,1.693464
9334000,0.0324,0.013523,0.002678,0.000431,1.521990
9335000,0.0324,0.013523,0.002678,0.000431,1.518699
9336000,0.0324,0.013523,0.002678,0.000431,1.591919
9337000,0.0324,0.013523,0.002678,0.000431,1.586983
9338000,0.0324,0.013523,0.002678,0.000431,1.480385
9339000,0.0324,0.013523,0.002678,0.000431,1.472511
9340000,0.0324,0.013523,0.002678,0.000431,1.685707
9341000,0.0324,0.013523,0.002678,0.000431,1.610136
9342000,0.0324,0.013523,0.002678,0.000431,1.778436
9343000,0.0324,0.013523,0.002678,0.000431,1.621771
9344000,0.0324,0.013523,0.002678,0.000431,1.715911
9345000,0.0324,0.013523,0.002678,0.000431,1.629411
9346000,0.0324,0.013523,0.002678,0.000431,1.475331
9347000,0.0324,0.013523,0.002678,0.000431,1.706744
9348000,0.0324,0.013523,0.002678,0.000431,1.692288
9349000,0.0324,0.013523,0.002678,0.000431,1.565475
9350000,0.0324,0.013523,0.002678,0.000431,1.543968
9351000,0.0324,0.013523,0.002678,0.000431,1.745999
9352000,0.0324,0.013523,0.002678,0.000431,1.875397
9353000,0.0324,0.013523,0.002678,0.000431,1.664434
9354000,0.0324,0.013523,0.002678,0.000431,1.748114
9355000,0.0324,0.013523,0.002678,0.000431,1.704981
9356000,0.0324,0.013523,0.002678,0.000431,1.461110
9357000,0.0324,0.013523,0.002678,0.000431,1.464754
9358000,0.0324,0.013523,0.002678,0.000431,1.582987
9359000,0.0324,0.013523,0.002678,0.000431,1.613074
9360000,0.0324,0.013523,0.002678,0.000431,1.805115
9361000,0.0324,0.013523,0.002678,0.000431,1.822745
9362000,0.0324,0.013523,0.002678,0.000431,1.720965
9363000,0.0324,0.013523,0.002678,0.000431,1.713208
9364000,0.0324,0.013523,0.002678,0.000431,1.574643
9365000,0.0324,0.013523,0.002678,0.000431,1.693346
9366000,0.0324,0.013523,0.002678,0.000431,1.785723
9367000,0.0324,0.013523,0.002678,0.000431,1.718497
9368000,0.0324,0.013523,0.002678,0.000431,1.659263
9369000,0.0324,0.013523,0.002678,0.000431,1.529277
9370000,0.0324,0.013523,0.002678,0.000431,1.437487
9371000,0.0324,0.013523,0.002678,0.000431,1.560069
9372000,0.0324,0.013523,0.002678,0.000431,1.614367
9373000,0.0324,0.013523,0.002678,0.000431,1.708037
9374000,0.0324,0.013523,0.002678,0.000431,1.715324
9375000,0.0324,0.013523,0.002678,0.000431,1.563830
9376000,0.0324,0.013523,0.002678,0.000431,1.843900
9377000,0.0324,0.013523,0.002678,0.000431,1.876102
9378000,0.0324,0.013523,0.002678,0.000431,1.749995
9379000,0.0324,0.013523,0.002678,0.000431,1.349459
9380000,0.0324,0.013523,0.002678,0.000431,1.650448
9381000,0.0324,0.013523,0.002678,0.000431,1.631644
9382000,0.0324,0.013523,0.002678,0.000431,1.603907
9383000,0.0324,0.013523,0.002678,0.000431,1.636933
9384000,0.0324,0.013523,0.002678,0.000431,1.603555
9385000,0.0324,0.013523,0.002678,0.000431,1.713678
9386000,0.0324,0.013523,0.002678,0.000431,1.937100
9387000,0.0324,0.013523,0.002678,0.000431,1.846603
9388000,0.0324,0.013523,0.002678,0.000431,1.652329
9389000,0.0324,0.013523,0.002678,0.000431,1.659851
9390000,0.0324,0.013523,0.002678,0.000431,1.428320
9391000,0.0324,0.013523,0.002678,0.000431,1.543733
9392000,0.0324,0.013523,0.002678,0.000431,1.434667
9393000,0.0324,0.013523,0.002678,0.000431,1.697695
9394000,0.0324,0.013523,0.002678,0.000431,1.770797
9395000,0.0324,0.013523,0.002678,0.000431,1.801707
9396000,0.0324,0.013523,0.002678,0.000431,1.658910
9397000,0.0324,0.013523,0.002678,0.000431,1.673836
9398000,0.0324,0.013523,0.002678,0.000431,1.731073
9399000,0.0324,0.013523,0.002678,0.000431,1.637638
9400000,0.0324,0.013523,0.002678,0.000431,1.451473
9401000,0.0324,0.013523,0.002678,0.000431,1.625180
9402000,0.0324,0.013523,0.002678,0.000431,1.737419
9403000,0.0324,0.013523,0.002678,0.000431,1.650918
9404000,0.0324,0.013523,0.002678,0.000431,1.541852
9405000,0.0324,0.013523,0.002678,0.000431,1.817691
9406000,0.0324,0.013523,0.002678,0.000431,1.831912
9407000,0.0324,0.013523,0.002678,0.000431,1.625062
9408000,0.0324,0.013523,0.002678,0.000431,1.819336
9409000,0.0324,0.013523,0.002678,0.000431,1.709212
9410000,0.0324,0.013523,0.002678,0.000431,1.675247
9411000,0.0324,0.013523,0.002678,0.000431,1.709330
9412000,0.0324,0.013523,0.002678,0.000431,1.584985
9413000,0.0324,0.013523,0.002678,0.000431,1.585103
9414000,0.0324,0.013523,0.002678,0.000431,1.533155
9415000,0.0324,0.013523,0.002678,0.000431,1.807819
9416000,0.0324,0.013523,0.002678,0.000431,1.879276
9417000,0.0324,0.013523,0.002678,0.000431,1.774558
9418000,0.0324,0.013523,0.002678,0.000431,1.567121
9419000,0.0324,0.013523,0.002678,0.000431,1.500835
9420000,0.0324,0.013523,0.002678,0.000431,1.864937
9421000,0.0324,0.013523,0.002678,0.000431,1.617188
9422000,0.0324,0.013523,0.002678,0.000431,1.655855
9423000,0.0324,0.013523,0.002678,0.000431,1.730250
9424000,0.0324,0.013523,0.002678,0.000431,1.697342
9425000,0.0324,0.013523,0.002678,0.000431,1.625767
9426000,0.0324,0.013523,0.002678,0.000431,1.535741
9427000,0.0324,0.013523,0.002678,0.000431,1.827328
9428000,0.0324,0.013523,0.002678,0.000431,1.824272
9429000,0.0324,0.013523,0.002678,0.000431,1.855182
9430000,0.0324,0.013523,0.002678,0.000431,1.773970
9431000,0.0324,0.013523,0.002678,0.000431,1.797358
9432000,0.0324,0.013523,0.002678,0.000431,1.689585
9433000,0.0324,0.013523,0.002678,0.000431,1.687940
9434000,0.0324,0.013523,0.002678,0.000431,1.629646
9435000,0.0324,0.013523,0.002678,0.000431,1.671956
9436000,0.0324,0.013523,0.002678,0.000431,1.660556
9437000,0.0324,0.013523,0.002678,0.000431,1.581459
9438000,0.0324,0.013523,0.002678,0.000431,1.682063
9439000,0.0324,0.013523,0.002678,0.000431,1.740357
9440000,0.0324,0.013523,0.002678,0.000431,1.689115
9441000,0.0324,0.013523,0.002678,0.000431,1.520697
9442000,0.0324,0.013523,0.002678,0.000431,1.655972
9443000,0.0324,0.013523,0.002678,0.000431,1.517524
9444000,0.0324,0.013523,0.002678,0.000431,1.589804
9445000,0.0324,0.013523,0.002678,0.000431,1.581694
9446000,0.0324,0.013523,0.002678,0.000431,1.515408
9447000,0.0324,0.013523,0.002678,0.000431,1.704746
9448000,0.0324,0.013523,0.002678,0.000431,1.703689
9449000,0.0324,0.013523,0.002678,0.000431,1.769034
9450000,0.0324,0.013523,0.002678,0.000431,1.722493
9451000,0.0324,0.013523,0.002678,0.000431,1.688410
9452000,0.0324,0.013523,0.002678,0.000431,1.795831
9453000,0.0324,0.013523,0.002678,0.000431,1.753520
9454000,0.0324,0.013523,0.002678,0.000431,1.650331
9455000,0.0324,0.013523,0.002678,0.000431,1.587101
9456000,0.0324,0.013523,0.002678,0.000431,1.454059
9457000,0.0324,0.013523,0.002678,0.000431,1.647393
9458000,0.0324,0.013523,0.002678,0.000431,1.695579
9459000,0.0324,0.013523,0.002678,0.000431,1.599559
9460000,0.0324,0.013523,0.002678,0.000431,1.587218
9461000,0.0324,0.013523,0.002678,0.000431,1.593800
9462000,0.0324,0.013523,0.002678,0.000431,1.639048
9463000,0.0324,0.013523,0.002678,0.000431,1.526809
9464000,0.0324,0.013523,0.002678,0.000431,1.633877
9465000,0.0324,0.013523,0.002678,0.000431,1.761042
9466000,0.0324,0.013523,0.002678,0.000431,1.671251
9467000,0.0324,0.013523,0.002678,0.000431,1.864820
9468000,0.0324,0.013523,0.002678,0.000431,1.664317
9469000,0.0324,0.013523,0.002678,0.000431,1.754931
9470000,0.0324,0.013523,0.002678,0.000431,1.760690
9471000,0.0324,0.013523,0.002678,0.000431,1.802765
9472000,0.0324,0.013523,0.002678,0.000431,1.503773
9473000,0.0324,0.013523,0.002678,0.000431,1.695227
9474000,0.0324,0.013523,0.002678,0.000431,1.667255
9475000,0.0324,0.013523,0.002678,0.000431,1.627413
9476000,0.0324,0.013523,0.002678,0.000431,1.577933
9477000,0.0324,0.013523,0.002678,0.000431,1.527866
9478000,0.0324,0.013523,0.002678,0.000431,1.696402
9479000,0.0324,0.013523,0.002678,0.000431,1.635170
9480000,0.0324,0.013523,0.002678,0.000431,1.626590
9481000,0.0324,0.013523,0.002678,0.000431,1.586630
9482000,0.0324,0.013523,0.002678,0.000431,1.584750
9483000,0.0324,0.013523,0.002678,0.000431,1.622124
9484000,0.0324,0.013523,0.002678,0.000431,1.696989
9485000,0.0324,0.013523,0.002678,0.000431,1.530922
9486000,0.0324,0.013523,0.002678,0.000431,1.621771
9487000,0.0324,0.013523,0.002678,0.000431,1.765508
9488000,0.0324,0.013523,0.002678,0.000431,1.813812
9489000,0.0324,0.013523,0.002678,0.000431,1.794185
9490000,0.0324,0.013523,0.002678,0.000431,1.578756
9491000,0.0324,0.013523,0.002678,0.000431,1.496721
9492000,0.0324,0.013523,0.002678,0.000431,1.806878
9493000,0.0324,0.013523,0.002678,0.000431,1.629058
9494000,0.0324,0.013523,0.002678,0.000431,1.779494
9495000,0.0324,0.013523,0.002678,0.000431,1.675717
9496000,0.0324,0.013523,0.002678,0.000431,1.649743
9497000,0.0324,0.013523,0.002678,0.000431,1.675599
9498000,0.0324,0.013523,0.002678,0.000431,1.686529
9499000,0.0324,0.013523,0.002678,0.000431,1.617893
9500000,0.0324,0.013523,0.002678,0.000431,1.547023
9501000,0.0324,0.013523,0.002678,0.000431,1.633524
9502000,0.0324,0.013523,0.002678,0.000431,1.752933
9503000,0.0324,0.013523,0.002678,0.000431,1.500952
9504000,0.0324,0.013523,0.002678,0.000431,1.545496
9505000,0.0324,0.013523,0.002678,0.000431,1.572762
9506000,0.0324,0.013523,0.002678,0.000431,1.663024
9507000,0.0324,0.013523,0.002678,0.000431,1.681476
9508000,0.0324,0.013523,0.002678,0.000431,1.646100
9509000,0.0324,0.013523,0.002678,0.000431,1.766331
9510000,0.0324,0.013523,0.002678,0.000431,1.800884
9511000,0.0324,0.013523,0.002678,0.000431,1.738359
9512000,0.0324,0.013523,0.002678,0.000431,1.562185
9513000,0.0324,0.013523,0.002678,0.000431,1.520932
9514000,0.0324,0.013523,0.002678,0.000431,1.634464
9515000,0.0324,0.013523,0.002678,0.000431,1.639636
9516000,0.0324,0.013523,0.002678,0.000431,1.715206
9517000,0.0324,0.013523,0.002678,0.000431,1.447830
9518000,0.0324,0.013523,0.002678,0.000431,1.596973
9519000,0.0324,0.013523,0.002678,0.000431,1.659733
9520000,0.0324,0.013523,0.002678,0.000431,1.500365
9521000,0.0324,0.013523,0.002678,0.000431,1.787604
9522000,0.0324,0.013523,0.002678,0.000431,1.645159
9523000,0.0324,0.013523,0.002678,0.000431,1.731895
9524000,0.0324,0.013523,0.002678,0.000431,1.671486
9525000,0.0324,0.013523,0.002678,0.000431,1.743648
9526000,0.0324,0.013523,0.002678,0.000431,1.556426
9527000,0.0324,0.013523,0.002678,0.000431,1.527044
9528000,0.0324,0.013523,0.002678,0.000431,1.578051
9529000,0.0324,0.013523,0.002678,0.000431,1.570294
9530000,0.0324,0.013523,0.002678,0.000431,1.688175
9531000,0.0324,0.013523,0.002678,0.000431,1.733071
9532000,0.0324,0.013523,0.002678,0.000431,1.777144
9533000,0.0324,0.013523,0.002678,0.000431,1.700985
9534000,0.0324,0.013523,0.002678,0.000431,1.571822
9535000,0.0324,0.013523,0.002678,0.000431,1.692993
9536000,0.0324,0.013523,0.002678,0.000431,1.735539
9537000,0.0324,0.013523,0.002678,0.000431,1.724138
9538000,0.0324,0.013523,0.002678,0.000431,1.783490
9539000,0.0324,0.013523,0.002678,0.000431,1.718967
9540000,0.0324,0.013523,0.002678,0.000431,1.651036
9541000,0.0324,0.013523,0.002678,0.000431,1.615895
9542000,0.0324,0.013523,0.002678,0.000431,1.627413
9543000,0.0324,0.013523,0.002678,0.000431,1.720260
9544000,0.0324,0.013523,0.002678,0.000431,1.662084
9545000,0.0324,0.013523,0.002678,0.000431,1.494136
9546000,0.0324,0.013523,0.002678,0.000431,1.567003
9547000,0.0324,0.013523,0.002678,0.000431,1.697460
9548000,0.0324,0.013523,0.002678,0.000431,1.607903
9549000,0.0324,0.013523,0.002678,0.000431,1.719790
9550000,0.0324,0.013523,0.002678,0.000431,1.677832
9551000,0.0324,0.013523,0.002678,0.000431,1.749289
9552000,0.0324,0.013523,0.002678,0.000431,1.556191
9553000,0.0324,0.013523,0.002678,0.000431,1.594505
9554000,0.0324,0.013523,0.002678,0.000431,1.652329
9555000,0.0324,0.013523,0.002678,0.000431,1.595798
9556000,0.0324,0.013523,0.002678,0.000431,1.727664
9557000,0.0324,0.013523,0.002678,0.000431,1.751640
9558000,0.0324,0.013523,0.002678,0.000431,1.716029
9559000,0.0324,0.013523,0.002678,0.000431,1.597326
9560000,0.0324,0.013523,0.002678,0.000431,1.703689
9561000,0.0324,0.013523,0.002678,0.000431,1.629998
9562000,0.0324,0.013523,0.002678,0.000431,1.739535
9563000,0.0324,0.013523,0.002678,0.000431,1.672309
9564000,0.0324,0.013523,0.002678,0.000431,1.629293
9565000,0.0324,0.013523,0.002678,0.000431,1.553252
9566000,0.0324,0.013523,0.002678,0.000431,1.610959
9567000,0.0324,0.013523,0.002678,0.000431,1.566298
9568000,0.0324,0.013523,0.002678,0.000431,1.677362
9569000,0.0324,0.013523,0.002678,0.000431,1.860824
9570000,0.0324,0.013523,0.002678,0.000431,1.566768
9571000,0.0324,0.013523,0.002678,0.000431,1.530099
9572000,0.0324,0.013523,0.002678,0.000431,1.597208
9573000,0.0324,0.013523,0.002678,0.000431,1.533038
9574000,0.0324,0.013523,0.002678,0.000431,1.759279
9575000,0.0324,0.013523,0.002678,0.000431,1.659851
9576000,0.0324,0.013523,0.002678,0.000431,1.621184
9577000,0.0324,0.013523,0.002678,0.000431,1.618363
9578000,0.0324,0.013523,0.002678,0.000431,1.707802
9579000,0.0324,0.013523,0.002678,0.000431,1.666315
9580000,0.0324,0.013523,0.002678,0.000431,1.732600
9581000,0.0324,0.013523,0.002678,0.000431,1.448300
9582000,0.0324,0.013523,0.002678,0.000431,1.489905
9583000,0.0324,0.013523,0.002678,0.000431,1.640106
9584000,0.0324,0.013523,0.002678,0.000431,1.514703
9585000,0.0324,0.013523,0.002678,0.000431,1.688175
9586000,0.0324,0.013523,0.002678,0.000431,1.597326
9587000,0.0324,0.013523,0.002678,0.000431,1.629528
9588000,0.0324,0.013523,0.002678,0.000431,1.531862
9589000,0.0324,0.013523,0.002678,0.000431,1.838963
9590000,0.0324,0.013523,0.002678,0.000431,1.791600
9591000,0.0324,0.013523,0.002678,0.000431,1.491080
9592000,0.0324,0.013523,0.002678,0.000431,1.515173
9593000,0.0324,0.013523,0.002678,0.000431,1.648568
9594000,0.0324,0.013523,0.002678,0.000431,1.422914
9595000,0.0324,0.013523,0.002678,0.000431,1.556778
9596000,0.0324,0.013523,0.002678,0.000431,1.624945
9597000,0.0324,0.013523,0.002678,0.000431,1.747997
9598000,0.0324,0.013523,0.002678,0.000431,1.634464
9599000,0.0324,0.013523,0.002678,0.000431,1.514821
9600000,0.0324,0.013523,0.002678,0.000431,1.563125
9601000,0.0324,0.013523,0.002678,0.000431,1.529159
9602000,0.0324,0.013523,0.002678,0.000431,1.611899
9603000,0.0324,0.013523,0.002678,0.000431,1.560657
9604000,0.0324,0.013523,0.002678,0.000431,1.635875
9605000,0.0324,0.013523,0.002678,0.000431,1.685472
9606000,0.0324,0.013523,0.002678,0.000431,1.549257
9607000,0.0324,0.013523,0.002678,0.000431,1.622242
9608000,0.0324,0.013523,0.002678,0.000431,1.587218
9609000,0.0324,0.013523,0.002678,0.000431,1.737302
9610000,0.0324,0.013523,0.002678,0.000431,1.797006
9611000,0.0324,0.013523,0.002678,0.000431,1.650096
9612000,0.0324,0.013523,0.002678,0.000431,1.777731
9613000,0.0324,0.013523,0.002678,0.000431,1.894319
9614000,0.0324,0.013523,0.002678,0.000431,1.516936
9615000,0.0324,0.013523,0.002678,0.000431,1.502598
9616000,0.0324,0.013523,0.002678,0.000431,1.652681
9617000,0.0324,0.013523,0.002678,0.000431,1.553370
9618000,0.0324,0.013523,0.002678,0.000431,1.694756
9619000,0.0324,0.013523,0.002678,0.000431,1.568884
9620000,0.0324,0.013523,0.002678,0.000431,1.605435
9621000,0.0324,0.013523,0.002678,0.000431,1.504478
9622000,0.0324,0.013523,0.002678,0.000431,1.523753
9623000,0.0324,0.013523,0.002678,0.000431,1.568414
9624000,0.0324,0.013523,0.002678,0.000431,1.606728
9625000,0.0324,0.013523,0.002678,0.000431,1.562067
9626000,0.0324,0.013523,0.002678,0.000431,1.731778
9627000,0.0324,0.013523,0.002678,0.000431,1.650801
9628000,0.0324,0.013523,0.002678,0.000431,1.647863
9629000,0.0324,0.013523,0.002678,0.000431,1.525398
9630000,0.0324,0.013523,0.002678,0.000431,1.614015
9631000,0.0324,0.013523,0.002678,0.000431,1.666080
9632000,0.0324,0.013523,0.002678,0.000431,1.595210
9633000,0.0324,0.013523,0.002678,0.000431,1.518229
9634000,0.0324,0.013523,0.002678,0.000431,1.641634
9635000,0.0324,0.013523,0.002678,0.000431,1.617070
9636000,0.0324,0.013523,0.002678,0.000431,1.506476
9637000,0.0324,0.013523,0.002678,0.000431,1.631409
9638000,0.0324,0.013523,0.002678,0.000431,1.669488
9639000,0.0324,0.013523,0.002678,0.000431,1.682533
9640000,0.0324,0.013523,0.002678,0.000431,1.679830
9641000,0.0324,0.013523,0.002678,0.000431,1.587923
9642000,0.0324,0.013523,0.002678,0.000431,1.570647
9643000,0.0324,0.013523,0.002678,0.000431,1.742943
9644000,0.0324,0.013523,0.002678,0.000431,1.628706
9645000,0.0324,0.013523,0.002678,0.000431,1.613074
9646000,0.0324,0.013523,0.002678,0.000431,1.560657
9647000,0.0324,0.013523,0.002678,0.000431,1.420328
9648000,0.0324,0.013523,0.002678,0.000431,1.536681
9649000,0.0324,0.013523,0.002678,0.000431,1.556896
9650000,0.0324,0.013523,0.002678,0.000431,1.840374
9651000,0.0324,0.013523,0.002678,0.000431,1.669605
9652000,0.0324,0.013523,0.002678,0.000431,1.786311
9653000,0.0324,0.013523,0.002678,0.000431,1.460758
9654000,0.0324,0.013523,0.002678,0.000431,1.759514
9655000,0.0324,0.013523,0.002678,0.000431,1.665609
9656000,0.0324,0.013523,0.002678,0.000431,1.408693
9657000,0.0324,0.013523,0.002678,0.000431,1.591802
9658000,0.0324,0.013523,0.002678,0.000431,1.560774
9659000,0.0324,0.013523,0.002678,0.000431,1.476977
9660000,0.0324,0.013523,0.002678,0.000431,1.567943
9661000,0.0324,0.013523,0.002678,0.000431,1.534330
9662000,0.0324,0.013523,0.002678,0.000431,1.613897
9663000,0.0324,0.013523,0.002678,0.000431,1.549374
9664000,0.0324,0.013523,0.002678,0.000431,1.584045
9665000,0.0324,0.013523,0.002678,0.000431,1.679713
9666000,0.0324,0.013523,0.002678,0.000431,1.522225
9667000,0.0324,0.013523,0.002678,0.000431,1.586278
9668000,0.0324,0.013523,0.002678,0.000431,1.633994
9669000,0.0324,0.013523,0.002678,0.000431,1.526574
9670000,0.0324,0.013523,0.002678,0.000431,1.483558
9671000,0.0324,0.013523,0.002678,0.000431,1.305856
9672000,0.0324,0.013523,0.002678,0.000431,1.641869
9673000,0.0324,0.013523,0.002678,0.000431,1.589569
9674000,0.0324,0.013523,0.002678,0.000431,1.689115
9675000,0.0324,0.013523,0.002678,0.000431,1.566298
9676000,0.0324,0.013523,0.002678,0.000431,1.450533
9677000,0.0324,0.013523,0.002678,0.000431,1.539972
9678000,0.0324,0.013523,0.002678,0.000431,1.713561
9679000,0.0324,0.013523,0.002678,0.000431,1.732483
9680000,0.0324,0.013523,0.002678,0.000431,1.593095
9681000,0.0324,0.013523,0.002678,0.000431,1.699105
9682000,0.0324,0.013523,0.002678,0.000431,1.454999
9683000,0.0324,0.013523,0.002678,0.000431,1.642104
9684000,0.0324,0.013523,0.002678,0.000431,1.600734
9685000,0.0324,0.013523,0.002678,0.000431,1.526221
9686000,0.0324,0.013523,0.002678,0.000431,1.673954
9687000,0.0324,0.013523,0.002678,0.000431,1.615660
9688000,0.0324,0.013523,0.002678,0.000431,1.638578
9689000,0.0324,0.013523,0.002678,0.000431,1.616248
9690000,0.0324,0.013523,0.002678,0.000431,1.624827
9691000,0.0324,0.013523,0.002678,0.000431,1.411161
9692000,0.0324,0.013523,0.002678,0.000431,1.464166
9693000,0.0324,0.013523,0.002678,0.000431,1.583692
9694000,0.0324,0.013523,0.002678,0.000431,1.166702
9695000,0.0324,0.013523,0.002678,0.000431,1.354512
9696000,0.0324,0.013523,0.002678,0.000431,1.465929
9697000,0.0324,0.013523,0.002678,0.000431,1.568649
9698000,0.0324,0.013523,0.002678,0.000431,1.694874
9699000,0.0324,0.013523,0.002678,0.000431,1.633172
9700000,0.0324,0.013523,0.002678,0.000431,1.481795
9701000,0.0324,0.013523,0.002678,0.000431,1.577933
9702000,0.0324,0.013523,0.002678,0.000431,1.443481
9703000,0.0324,0.013523,0.002678,0.000431,1.510002
9704000,0.0324,0.013523,0.002678,0.000431,1.671956
9705000,0.0324,0.013523,0.002678,0.000431,1.489670
9706000,0.0324,0.013523,0.002678,0.000431,1.675952
9707000,0.0324,0.013523,0.002678,0.000431,1.657265
9708000,0.0324,0.013523,0.002678,0.000431,1.600029
9709000,0.0324,0.013523,0.002678,0.000431,1.587806
9710000,0.0324,0.013523,0.002678,0.000431,1.617893
9711000,0.0324,0.013523,0.002678,0.000431,1.453354
9712000,0.0324,0.013523,0.002678,0.000431,1.613192
9713000,0.0324,0.013523,0.002678,0.000431,1.638813
9714000,0.0324,0.013523,0.002678,0.000431,1.545613
9715000,0.0324,0.013523,0.002678,0.000431,1.599206
9716000,0.0324,0.013523,0.002678,0.000431,1.476154
9717000,0.0324,0.013523,0.002678,0.000431,1.426557
9718000,0.0324,0.013523,0.002678,0.000431,1.556191
9719000,0.0324,0.013523,0.002678,0.000431,1.668430
9720000,0.0324,0.013523,0.002678,0.000431,1.569001
9721000,0.0324,0.013523,0.002678,0.000431,1.502833
9722000,0.0324,0.013523,0.002678,0.000431,1.595445
9723000,0.0324,0.013523,0.002678,0.000431,1.600264
9724000,0.0324,0.013523,0.002678,0.000431,1.604260
9725000,0.0324,0.013523,0.002678,0.000431,1.557483
9726000,0.0324,0.013523,0.002678,0.000431,1.594622
9727000,0.0324,0.013523,0.002678,0.000431,1.472628
9728000,0.0324,0.013523,0.002678,0.000431,1.520580
9729000,0.0324,0.013523,0.002678,0.000431,1.425734
9730000,0.0324,0.013523,0.002678,0.000431,1.682769
9731000,0.0324,0.013523,0.002678,0.000431,1.585808
9732000,0.0324,0.013523,0.002678,0.000431,1.748349
9733000,0.0324,0.013523,0.002678,0.000431,1.608138
9734000,0.0324,0.013523,0.002678,0.000431,1.449475
9735000,0.0324,0.013523,0.002678,0.000431,1.480620
9736000,0.0324,0.013523,0.002678,0.000431,1.489905
9737000,0.0324,0.013523,0.002678,0.000431,1.642221
9738000,0.0324,0.013523,0.002678,0.000431,1.488494
9739000,0.0324,0.013523,0.002678,0.000431,1.449122
9740000,0.0324,0.013523,0.002678,0.000431,1.508122
9741000,0.0324,0.013523,0.002678,0.000431,1.614485
9742000,0.0324,0.013523,0.002678,0.000431,1.504243
9743000,0.0324,0.013523,0.002678,0.000431,1.506711
9744000,0.0324,0.013523,0.002678,0.000431,1.663611
9745000,0.0324,0.013523,0.002678,0.000431,1.633289
9746000,0.0324,0.013523,0.002678,0.000431,1.525398
9747000,0.0324,0.013523,0.002678,0.000431,1.565475
9748000,0.0324,0.013523,0.002678,0.000431,1.378018
9749000,0.0324,0.013523,0.002678,0.000431,1.427850
9750000,0.0324,0.013523,0.002678,0.000431,1.396705
9751000,0.0324,0.013523,0.002678,0.000431,1.600029
9752000,0.0324,0.013523,0.002678,0.000431,1.518699
9753000,0.0324,0.013523,0.002678,0.000431,1.717792
9754000,0.0324,0.013523,0.002678,0.000431,1.620479
9755000,0.0324,0.013523,0.002678,0.000431,1.583575
9756000,0.0324,0.013523,0.002678,0.000431,1.769034
9757000,0.0324,0.013523,0.002678,0.000431,1.567708
9758000,0.0324,0.013523,0.002678,0.000431,1.452531
9759000,0.0324,0.013523,0.002678,0.000431,1.572057
9760000,0.0324,0.013523,0.002678,0.000431,1.435724
9761000,0.0324,0.013523,0.002678,0.000431,1.346520
9762000,0.0324,0.013523,0.002678,0.000431,1.430318
9763000,0.0324,0.013523,0.002678,0.000431,1.592507
9764000,0.0324,0.013523,0.002678,0.000431,1.682063
9765000,0.0324,0.013523,0.002678,0.000431,1.559364
9766000,0.0324,0.013523,0.002678,0.000431,1.676657
9767000,0.0324,0.013523,0.002678,0.000431,1.376608
9768000,0.0324,0.013523,0.002678,0.000431,1.316081
9769000,0.0324,0.013523,0.002678,0.000431,1.653269
9770000,0.0324,0.013523,0.002678,0.000431,1.781727
9771000,0.0324,0.013523,0.002678,0.000431,1.598971
9772000,0.0324,0.013523,0.002678,0.000431,1.593212
9773000,0.0324,0.013523,0.002678,0.000431,1.518347
9774000,0.0324,0.013523,0.002678,0.000431,1.660908
9775000,0.0324,0.013523,0.002678,0.000431,1.533860
9776000,0.0324,0.013523,0.002678,0.000431,1.676304
9777000,0.0324,0.013523,0.002678,0.000431,1.635640
9778000,0.0324,0.013523,0.002678,0.000431,1.453589
9779000,0.0324,0.013523,0.002678,0.000431,1.384129
9780000,0.0324,0.013523,0.002678,0.000431,1.584397
9781000,0.0324,0.013523,0.002678,0.000431,1.494371
9782000,0.0324,0.013523,0.002678,0.000431,1.608491
9783000,0.0324,0.013523,0.002678,0.000431,1.463343
9784000,0.0324,0.013523,0.002678,0.000431,1.524693
9785000,0.0324,0.013523,0.002678,0.000431,1.552312
9786000,0.0324,0.013523,0.002678,0.000431,1.514703
9787000,0.0324,0.013523,0.002678,0.000431,1.547141
9788000,0.0324,0.013523,0.002678,0.000431,1.715794
9789000,0.0324,0.013523,0.002678,0.000431,1.628470
9790000,0.0324,0.013523,0.002678,0.000431,1.559129
9791000,0.0324,0.013523,0.002678,0.000431,1.491668
9792000,0.0324,0.013523,0.002678,0.000431,1.669840
9793000,0.0324,0.013523,0.002678,0.000431,1.844370
9794000,0.0324,0.013523,0.002678,0.000431,1.726607
9795000,0.0324,0.013523,0.002678,0.000431,1.570412
9796000,0.0324,0.013523,0.002678,0.000431,1.650801
9797000,0.0324,0.013523,0.002678,0.000431,1.441953
9798000,0.0324,0.013523,0.002678,0.000431,1.521402
9799000,0.0324,0.013523,0.002678,0.000431,1.660908
9800000,0.0324,0.013523,0.002678,0.000431,1.702396
9801000,0.0324,0.013523,0.002678,0.000431,1.646922
9802000,0.0324,0.013523,0.002678,0.000431,1.431963
9803000,0.0324,0.013523,0.002678,0.000431,1.558659
9804000,0.0324,0.013523,0.002678,0.000431,1.456879
9805000,0.0324,0.013523,0.002678,0.000431,1.378135
9806000,0.0324,0.013523,0.002678,0.000431,1.668900
9807000,0.0324,0.013523,0.002678,0.000431,1.655502
9808000,0.0324,0.013523,0.002678,0.000431,1.523400
9809000,0.0324,0.013523,0.002678,0.000431,1.726724
9810000,0.0324,0.013523,0.002678,0.000431,1.632349
9811000,0.0324,0.013523,0.002678,0.000431,1.475801
9812000,0.0324,0.013523,0.002678,0.000431,1.480150
9813000,0.0324,0.013523,0.002678,0.000431,1.472863
9814000,0.0324,0.013523,0.002678,0.000431,1.432316
9815000,0.0324,0.013523,0.002678,0.000431,1.439015
9816000,0.0324,0.013523,0.002678,0.000431,1.492843
9817000,0.0324,0.013523,0.002678,0.000431,1.749760
9818000,0.0324,0.013523,0.002678,0.000431,1.494958
9819000,0.0324,0.013523,0.002678,0.000431,1.467574
9820000,0.0324,0.013523,0.002678,0.000431,1.580401
9821000,0.0324,0.013523,0.002678,0.000431,1.749172
9822000,0.0324,0.013523,0.002678,0.000431,1.564300
9823000,0.0324,0.013523,0.002678,0.000431,1.621889
9824000,0.0324,0.013523,0.002678,0.000431,1.449828
9825000,0.0324,0.013523,0.002678,0.000431,1.627413
9826000,0.0324,0.013523,0.002678,0.000431,1.447477
9827000,0.0324,0.013523,0.002678,0.000431,1.521050
9828000,0.0324,0.013523,0.002678,0.000431,1.747879
9829000,0.0324,0.013523,0.002678,0.000431,1.558776
9830000,0.0324,0.013523,0.002678,0.000431,1.504008
9831000,0.0324,0.013523,0.002678,0.000431,1.467692
9832000,0.0324,0.013523,0.002678,0.000431,1.562185
9833000,0.0324,0.013523,0.002678,0.000431,1.443599
9834000,0.0324,0.013523,0.002678,0.000431,1.515878
9835000,0.0324,0.013523,0.002678,0.000431,1.535388
9836000,0.0324,0.013523,0.002678,0.000431,1.629998
9837000,0.0324,0.013523,0.002678,0.000431,1.517876
9838000,0.0324,0.013523,0.002678,0.000431,1.680183
9839000,0.0324,0.013523,0.002678,0.000431,1.638695
9840000,0.0324,0.013523,0.002678,0.000431,1.409633
9841000,0.0324,0.013523,0.002678,0.000431,1.439250
9842000,0.0324,0.013523,0.002678,0.000431,1.500247
9843000,0.0324,0.013523,0.002678,0.000431,1.536563
9844000,0.0324,0.013523,0.002678,0.000431,1.765861
9845000,0.0324,0.013523,0.002678,0.000431,1.704041
9846000,0.0324,0.013523,0.002678,0.000431,1.671368
9847000,0.0324,0.013523,0.002678,0.000431,1.555133
9848000,0.0324,0.013523,0.002678,0.000431,1.427262
9849000,0.0324,0.013523,0.002678,0.000431,1.686177
9850000,0.0324,0.013523,0.002678,0.000431,1.624004
9851000,0.0324,0.013523,0.002678,0.000431,1.524341
9852000,0.0324,0.013523,0.002678,0.000431,1.693816
9853000,0.0324,0.013523,0.002678,0.000431,1.544203
9854000,0.0324,0.013523,0.002678,0.000431,1.502010
9855000,0.0324,0.013523,0.002678,0.000431,1.399173
9856000,0.0324,0.013523,0.002678,0.000431,1.484969
9857000,0.0324,0.013523,0.002678,0.000431,1.542440
9858000,0.0324,0.013523,0.002678,0.000431,1.544555
9859000,0.0324,0.013523,0.002678,0.000431,1.547259
9860000,0.0324,0.013523,0.002678,0.000431,1.458760
9861000,0.0324,0.013523,0.002678,0.000431,1.469925
9862000,0.0324,0.013523,0.002678,0.000431,1.734951
9863000,0.0324,0.013523,0.002678,0.000431,1.783490
9864000,0.0324,0.013523,0.002678,0.000431,1.562655
9865000,0.0324,0.013523,0.002678,0.000431,1.518582
9866000,0.0324,0.013523,0.002678,0.000431,1.346873
9867000,0.0324,0.013523,0.002678,0.000431,1.608138
9868000,0.0324,0.013523,0.002678,0.000431,1.422209
9869000,0.0324,0.013523,0.002678,0.000431,1.629763
9870000,0.0324,0.013523,0.002678,0.000431,1.676304
9871000,0.0324,0.013523,0.002678,0.000431,1.600381
9872000,0.0324,0.013523,0.002678,0.000431,1.499425
9873000,0.0324,0.013523,0.002678,0.000431,1.422209
9874000,0.0324,0.013523,0.002678,0.000431,1.494371
9875000,0.0324,0.013523,0.002678,0.000431,1.530922
9876000,0.0324,0.013523,0.002678,0.000431,1.500130
9877000,0.0324,0.013523,0.002678,0.000431,1.592624
9878000,0.0324,0.013523,0.002678,0.000431,1.644924
9879000,0.0324,0.013523,0.002678,0.000431,1.795008
9880000,0.0324,0.013523,0.002678,0.000431,1.361799
9881000,0.0324,0.013523,0.002678,0.000431,1.386362
9882000,0.0324,0.013523,0.002678,0.000431,1.476154
9883000,0.0324,0.013523,0.002678,0.000431,1.498484
9884000,0.0324,0.013523,0.002678,0.000431,1.670781
9885000,0.0324,0.013523,0.002678,0.000431,1.669723
9886000,0.0324,0.013523,0.002678,0.000431,1.433256
9887000,0.0324,0.013523,0.002678,0.000431,1.521990
9888000,0.0324,0.013523,0.002678,0.000431,1.447712
9889000,0.0324,0.013523,0.002678,0.000431,1.677010
9890000,0.0324,0.013523,0.002678,0.000431,1.659615
9891000,0.0324,0.013523,0.002678,0.000431,1.564183
9892000,0.0324,0.013523,0.002678,0.000431,1.589099
9893000,0.0324,0.013523,0.002678,0.000431,1.354277
9894000,0.0324,0.013523,0.002678,0.000431,1.588511
9895000,0.0324,0.013523,0.002678,0.000431,1.429378
9896000,0.0324,0.013523,0.002678,0.000431,1.617423
9897000,0.0324,0.013523,0.002678,0.000431,1.486849
9898000,0.0324,0.013523,0.002678,0.000431,1.559834
9899000,0.0324,0.013523,0.002678,0.000431,1.497074
9900000,0.0324,0.013523,0.002678,0.000431,1.447360
9901000,0.0324,0.013523,0.002678,0.000431,1.362269
9902000,0.0324,0.013523,0.002678,0.000431,1.594857
9903000,0.0324,0.013523,0.002678,0.000431,1.562772
9904000,0.0324,0.013523,0.002678,0.000431,1.653269
9905000,0.0324,0.013523,0.002678,0.000431,1.627413
9906000,0.0324,0.013523,0.002678,0.000431,1.515056
9907000,0.0324,0.013523,0.002678,0.000431,1.455116
9908000,0.0324,0.013523,0.002678,0.000431,1.431023
9909000,0.0324,0.013523,0.002678,0.000431,1.409868
9910000,0.0324,0.013523,0.002678,0.000431,1.534801
9911000,0.0324,0.013523,0.002678,0.000431,1.616835
9912000,0.0324,0.013523,0.002678,0.000431,1.447125
9913000,0.0324,0.013523,0.002678,0.000431,1.412571
9914000,0.0324,0.013523,0.002678,0.000431,1.490492
9915000,0.0324,0.013523,0.002678,0.000431,1.568179
9916000,0.0324,0.013523,0.002678,0.000431,1.552077
9917000,0.0324,0.013523,0.002678,0.000431,1.494723
9918000,0.0324,0.013523,0.002678,0.000431,1.630939
9919000,0.0324,0.013523,0.002678,0.000431,1.791247
9920000,0.0324,0.013523,0.002678,0.000431,1.588158
9921000,0.0324,0.013523,0.002678,0.000431,1.527044
9922000,0.0324,0.013523,0.002678,0.000431,1.461110
9923000,0.0324,0.013523,0.002678,0.000431,1.411866
9924000,0.0324,0.013523,0.002678,0.000431,1.605435
9925000,0.0324,0.013523,0.002678,0.000431,1.602144
9926000,0.0324,0.013523,0.002678,0.000431,1.409163
9927000,0.0324,0.013523,0.002678,0.000431,1.445597
9928000,0.0324,0.013523,0.002678,0.000431,1.558306
9929000,0.0324,0.013523,0.002678,0.000431,1.495076
9930000,0.0324,0.013523,0.002678,0.000431,1.490140
9931000,0.0324,0.013523,0.002678,0.000431,1.551725
9932000,0.0324,0.013523,0.002678,0.000431,1.569001
9933000,0.0324,0.013523,0.002678,0.000431,1.567003
9934000,0.0324,0.013523,0.002678,0.000431,1.701573
9935000,0.0324,0.013523,0.002678,0.000431,1.419740
9936000,0.0324,0.013523,0.002678,0.000431,1.686412
9937000,0.0324,0.013523,0.002678,0.000431,1.451238
9938000,0.0324,0.013523,0.002678,0.000431,1.525163
9939000,0.0324,0.013523,0.002678,0.000431,1.545613
9940000,0.0324,0.013523,0.002678,0.000431,1.629998
9941000,0.0324,0.013523,0.002678,0.000431,1.535741
9942000,0.0324,0.013523,0.002678,0.000431,1.445949
9943000,0.0324,0.013523,0.002678,0.000431,1.621654
9944000,0.0324,0.013523,0.002678,0.000431,1.527984
9945000,0.0324,0.013523,0.002678,0.000431,1.512118
9946000,0.0324,0.013523,0.002678,0.000431,1.652681
9947000,0.0324,0.013523,0.002678,0.000431,1.510942
9948000,0.0324,0.013523,0.002678,0.000431,1.467339
9949000,0.0324,0.013523,0.002678,0.000431,1.674659
9950000,0.0324,0.013523,0.002678,0.000431,1.597678
9951000,0.0324,0.013523,0.002678,0.000431,1.525986
9952000,0.0324,0.013523,0.002678,0.000431,1.489905
9953000,0.0324,0.013523,0.002678,0.000431,1.458407
9954000,0.0324,0.013523,0.002678,0.000431,1.539032
9955000,0.0324,0.013523,0.002678,0.000431,1.478505
9956000,0.0324,0.013523,0.002678,0.000431,1.603437
9957000,0.0324,0.013523,0.002678,0.000431,1.482971
9958000,0.0324,0.013523,0.002678,0.000431,1.386833
9959000,0.0324,0.013523,0.002678,0.000431,1.475331
9960000,0.0324,0.013523,0.002678,0.000431,1.293163
9961000,0.0324,0.013523,0.002678,0.000431,1.526221
9962000,0.0324,0.013523,0.002678,0.000431,1.643044
9963000,0.0324,0.013523,0.002678,0.000431,1.486967
9964000,0.0324,0.013523,0.002678,0.000431,1.560539
9965000,0.0324,0.013523,0.002678,0.000431,1.560304
9966000,0.0324,0.013523,0.002678,0.000431,1.399996
9967000,0.0324,0.013523,0.002678,0.000431,1.428320
9968000,0.0324,0.013523,0.002678,0.000431,1.567003
9969000,0.0324,0.013523,0.002678,0.000431,1.442306
9970000,0.0324,0.013523,0.002678,0.000431,1.352397
9971000,0.0324,0.013523,0.002678,0.000431,1.487554
9972000,0.0324,0.013523,0.002678,0.000431,1.548786
9973000,0.0324,0.013523,0.002678,0.000431,1.527279
9974000,0.0324,0.013523,0.002678,0.000431,1.622242
9975000,0.0324,0.013523,0.002678,0.000431,1.475096
9976000,0.0324,0.013523,0.002678,0.000431,1.322427
9977000,0.0324,0.013523,0.002678,0.000431,1.561244
9978000,0.0324,0.013523,0.002678,0.000431,1.653974
9979000,0.0324,0.013523,0.002678,0.000431,1.425969
9980000,0.0324,0.013523,0.002678,0.000431,1.451003
9981000,0.0324,0.013523,0.002678,0.000431,1.336766
9982000,0.0324,0.013523,0.002678,0.000431,1.497662
9983000,0.0324,0.013523,0.002678,0.000431,1.609196
9984000,0.0324,0.013523,0.002678,0.000431,1.595798
9985000,0.0324,0.013523,0.002678,0.000431,1.565005
9986000,0.0324,0.013523,0.002678,0.000431,1.472393
9987000,0.0324,0.013523,0.002678,0.000431,1.559952
9988000,0.0324,0.013523,0.002678,0.000431,1.611429
9989000,0.0324,0.013523,0.002678,0.000431,1.455587
9990000,0.0324,0.013523,0.002678,0.000431,1.566886
9991000,0.0324,0.013523,0.002678,0.000431,1.465694
9992000,0.0324,0.013523,0.002678,0.000431,1.489200
9993000,0.0324,0.013523,0.002678,0.000431,1.577463
9994000,0.0324,0.013523,0.002678,0.000431,1.606258
9995000,0.0324,0.013523,0.002678,0.000431,1.703101
9996000,0.0324,0.013523,0.002678,0.000431,1.654679
9997000,0.0324,0.013523,0.002678,0.000431,1.575935
9998000,0.0324,0.013523,0.002678,0.000431,1.541500
9999000,0.0324,0.013523,0.002678,0.000431,1.484146
