Cycle,Area(mm^2),PeakDynamic(W),SubthresholdLeakage(W),GateLeakage(W),RunTimeDynamic(W)
19000000,0.0324,0.013523,0.002678,0.000431,0.087441
19001000,0.0324,0.013523,0.002678,0.000431,0.042663
19002000,0.0324,0.013523,0.002678,0.000431,0.057706
19003000,0.0324,0.013523,0.002678,0.000431,0.088734
19004000,0.0324,0.013523,0.002678,0.000431,0.158310
19005000,0.0324,0.013523,0.002678,0.000431,0.168770
19006000,0.0324,0.013523,0.002678,0.000431,0.218132
19007000,0.0324,0.013523,0.002678,0.000431,0.143384
19008000,0.0324,0.013523,0.002678,0.000431,0.111534
19009000,0.0324,0.013523,0.002678,0.000431,0.125168
19010000,0.0324,0.013523,0.002678,0.000431,0.119056
19011000,0.0324,0.013523,0.002678,0.000431,0.106481
19012000,0.0324,0.013523,0.002678,0.000431,0.172884
19013000,0.0324,0.013523,0.002678,0.000431,0.207555
19014000,0.0324,0.013523,0.002678,0.000431,0.094728
19015000,0.0324,0.013523,0.002678,0.000431,0.043368
19016000,0.0324,0.013523,0.002678,0.000431,0.141857
19017000,0.0324,0.013523,0.002678,0.000431,0.057824
19018000,0.0324,0.013523,0.002678,0.000431,0.091907
19019000,0.0324,0.013523,0.002678,0.000431,0.260913
19020000,0.0324,0.013523,0.002678,0.000431,0.131397
19021000,0.0324,0.013523,0.002678,0.000431,0.227417
19022000,0.0324,0.013523,0.002678,0.000431,0.078039
19023000,0.0324,0.013523,0.002678,0.000431,0.172884
19024000,0.0324,0.013523,0.002678,0.000431,0.132924
19025000,0.0324,0.013523,0.002678,0.000431,0.223891
19026000,0.0324,0.013523,0.002678,0.000431,0.207790
19027000,0.0324,0.013523,0.002678,0.000431,0.171826
19028000,0.0324,0.013523,0.002678,0.000431,0.175117
19029000,0.0324,0.013523,0.002678,0.000431,0.246809
19030000,0.0324,0.013523,0.002678,0.000431,0.060409
19031000,0.0324,0.013523,0.002678,0.000431,0.105305
19032000,0.0324,0.013523,0.002678,0.000431,0.102602
19033000,0.0324,0.013523,0.002678,0.000431,0.109889
19034000,0.0324,0.013523,0.002678,0.000431,0.080389
19035000,0.0324,0.013523,0.002678,0.000431,0.061585
19036000,0.0324,0.013523,0.002678,0.000431,0.121054
19037000,0.0324,0.013523,0.002678,0.000431,0.125990
19038000,0.0324,0.013523,0.002678,0.000431,0.097196
19039000,0.0324,0.013523,0.002678,0.000431,0.157723
19040000,0.0324,0.013523,0.002678,0.000431,0.109889
19041000,0.0324,0.013523,0.002678,0.000431,0.081565
19042000,0.0324,0.013523,0.002678,0.000431,0.147968
19043000,0.0324,0.013523,0.002678,0.000431,0.142914
19044000,0.0324,0.013523,0.002678,0.000431,0.155020
19045000,0.0324,0.013523,0.002678,0.000431,0.168300
19046000,0.0324,0.013523,0.002678,0.000431,0.035258
19047000,0.0324,0.013523,0.002678,0.000431,0.087676
19048000,0.0324,0.013523,0.002678,0.000431,0.118351
19049000,0.0324,0.013523,0.002678,0.000431,0.118939
19050000,0.0324,0.013523,0.002678,0.000431,0.107421
19051000,0.0324,0.013523,0.002678,0.000431,0.080977
19052000,0.0324,0.013523,0.002678,0.000431,0.080507
19053000,0.0324,0.013523,0.002678,0.000431,0.077921
19054000,0.0324,0.013523,0.002678,0.000431,0.059939
19055000,0.0324,0.013523,0.002678,0.000431,0.219543
19056000,0.0324,0.013523,0.002678,0.000431,0.103307
19057000,0.0324,0.013523,0.002678,0.000431,0.231178
19058000,0.0324,0.013523,0.002678,0.000431,0.127165
19059000,0.0324,0.013523,0.002678,0.000431,0.236349
19060000,0.0324,0.013523,0.002678,0.000431,0.124345
19061000,0.0324,0.013523,0.002678,0.000431,0.161484
19062000,0.0324,0.013523,0.002678,0.000431,0.114943
19063000,0.0324,0.013523,0.002678,0.000431,0.064993
19064000,0.0324,0.013523,0.002678,0.000431,0.074748
19065000,0.0324,0.013523,0.002678,0.000431,0.089556
19066000,0.0324,0.013523,0.002678,0.000431,0.221188
19067000,0.0324,0.013523,0.002678,0.000431,0.224949
19068000,0.0324,0.013523,0.002678,0.000431,0.072632
19069000,0.0324,0.013523,0.002678,0.000431,0.078509
19070000,0.0324,0.013523,0.002678,0.000431,0.154079
19071000,0.0324,0.013523,0.002678,0.000431,0.173119
19072000,0.0324,0.013523,0.002678,0.000431,0.141621
19073000,0.0324,0.013523,0.002678,0.000431,0.101192
19074000,0.0324,0.013523,0.002678,0.000431,0.058764
19075000,0.0324,0.013523,0.002678,0.000431,0.129869
19076000,0.0324,0.013523,0.002678,0.000431,0.204617
19077000,0.0324,0.013523,0.002678,0.000431,0.170181
19078000,0.0324,0.013523,0.002678,0.000431,0.175235
19079000,0.0324,0.013523,0.002678,0.000431,0.102132
19080000,0.0324,0.013523,0.002678,0.000431,0.086266
19081000,0.0324,0.013523,0.002678,0.000431,0.230825
19082000,0.0324,0.013523,0.002678,0.000431,0.116941
19083000,0.0324,0.013523,0.002678,0.000431,0.129163
19084000,0.0324,0.013523,0.002678,0.000431,0.186517
19085000,0.0324,0.013523,0.002678,0.000431,0.231883
19086000,0.0324,0.013523,0.002678,0.000431,0.075806
19087000,0.0324,0.013523,0.002678,0.000431,0.093552
19088000,0.0324,0.013523,0.002678,0.000431,0.095550
19089000,0.0324,0.013523,0.002678,0.000431,0.125285
19090000,0.0324,0.013523,0.002678,0.000431,0.160661
19091000,0.0324,0.013523,0.002678,0.000431,0.280422
19092000,0.0324,0.013523,0.002678,0.000431,0.120936
19093000,0.0324,0.013523,0.002678,0.000431,0.072045
19094000,0.0324,0.013523,0.002678,0.000431,0.184872
19095000,0.0324,0.013523,0.002678,0.000431,0.112239
19096000,0.0324,0.013523,0.002678,0.000431,0.166067
19097000,0.0324,0.013523,0.002678,0.000431,0.151846
19098000,0.0324,0.013523,0.002678,0.000431,0.149261
19099000,0.0324,0.013523,0.002678,0.000431,0.083327
19100000,0.0324,0.013523,0.002678,0.000431,0.181581
19101000,0.0324,0.013523,0.002678,0.000431,0.078391
19102000,0.0324,0.013523,0.002678,0.000431,0.110594
19103000,0.0324,0.013523,0.002678,0.000431,0.057589
19104000,0.0324,0.013523,0.002678,0.000431,0.142797
19105000,0.0324,0.013523,0.002678,0.000431,0.153139
19106000,0.0324,0.013523,0.002678,0.000431,0.176175
19107000,0.0324,0.013523,0.002678,0.000431,0.184637
19108000,0.0324,0.013523,0.002678,0.000431,0.111534
19109000,0.0324,0.013523,0.002678,0.000431,0.086618
19110000,0.0324,0.013523,0.002678,0.000431,0.091437
19111000,0.0324,0.013523,0.002678,0.000431,0.116941
19112000,0.0324,0.013523,0.002678,0.000431,0.073455
19113000,0.0324,0.013523,0.002678,0.000431,0.123405
19114000,0.0324,0.013523,0.002678,0.000431,0.119291
19115000,0.0324,0.013523,0.002678,0.000431,0.339774
19116000,0.0324,0.013523,0.002678,0.000431,0.153962
19117000,0.0324,0.013523,0.002678,0.000431,0.081565
19118000,0.0324,0.013523,0.002678,0.000431,0.250923
19119000,0.0324,0.013523,0.002678,0.000431,0.044778
19120000,0.0324,0.013523,0.002678,0.000431,0.133277
19121000,0.0324,0.013523,0.002678,0.000431,0.225066
19122000,0.0324,0.013523,0.002678,0.000431,0.120584
19123000,0.0324,0.013523,0.002678,0.000431,0.087794
19124000,0.0324,0.013523,0.002678,0.000431,0.155020
19125000,0.0324,0.013523,0.002678,0.000431,0.095080
19126000,0.0324,0.013523,0.002678,0.000431,0.125285
19127000,0.0324,0.013523,0.002678,0.000431,0.149378
19128000,0.0324,0.013523,0.002678,0.000431,0.119291
19129000,0.0324,0.013523,0.002678,0.000431,0.105540
19130000,0.0324,0.013523,0.002678,0.000431,0.176762
19131000,0.0324,0.013523,0.002678,0.000431,0.101309
19132000,0.0324,0.013523,0.002678,0.000431,0.154550
19133000,0.0324,0.013523,0.002678,0.000431,0.137626
19134000,0.0324,0.013523,0.002678,0.000431,0.235291
19135000,0.0324,0.013523,0.002678,0.000431,0.255036
19136000,0.0324,0.013523,0.002678,0.000431,0.134452
19137000,0.0324,0.013523,0.002678,0.000431,0.095080
19138000,0.0324,0.013523,0.002678,0.000431,0.127753
19139000,0.0324,0.013523,0.002678,0.000431,0.110359
19140000,0.0324,0.013523,0.002678,0.000431,0.119526
19141000,0.0324,0.013523,0.002678,0.000431,0.195097
19142000,0.0324,0.013523,0.002678,0.000431,0.146910
19143000,0.0324,0.013523,0.002678,0.000431,0.037844
19144000,0.0324,0.013523,0.002678,0.000431,0.087794
19145000,0.0324,0.013523,0.002678,0.000431,0.186165
19146000,0.0324,0.013523,0.002678,0.000431,0.113885
19147000,0.0324,0.013523,0.002678,0.000431,0.066051
19148000,0.0324,0.013523,0.002678,0.000431,0.165715
19149000,0.0324,0.013523,0.002678,0.000431,0.105070
19150000,0.0324,0.013523,0.002678,0.000431,0.178760
19151000,0.0324,0.013523,0.002678,0.000431,0.188515
19152000,0.0324,0.013523,0.002678,0.000431,0.073690
19153000,0.0324,0.013523,0.002678,0.000431,0.091437
19154000,0.0324,0.013523,0.002678,0.000431,0.243989
19155000,0.0324,0.013523,0.002678,0.000431,0.115413
19156000,0.0324,0.013523,0.002678,0.000431,0.116705
19157000,0.0324,0.013523,0.002678,0.000431,0.088029
19158000,0.0324,0.013523,0.002678,0.000431,0.219190
19159000,0.0324,0.013523,0.002678,0.000431,0.110947
19160000,0.0324,0.013523,0.002678,0.000431,0.065228
19161000,0.0324,0.013523,0.002678,0.000431,0.152434
19162000,0.0324,0.013523,0.002678,0.000431,0.399126
19163000,0.0324,0.013523,0.002678,0.000431,0.256564
19164000,0.0324,0.013523,0.002678,0.000431,0.191688
19165000,0.0324,0.013523,0.002678,0.000431,0.104718
19166000,0.0324,0.013523,0.002678,0.000431,0.155725
19167000,0.0324,0.013523,0.002678,0.000431,0.265496
19168000,0.0324,0.013523,0.002678,0.000431,0.117998
19169000,0.0324,0.013523,0.002678,0.000431,0.095080
19170000,0.0324,0.013523,0.002678,0.000431,0.125403
19171000,0.0324,0.013523,0.002678,0.000431,0.187810
19172000,0.0324,0.013523,0.002678,0.000431,0.192981
19173000,0.0324,0.013523,0.002678,0.000431,0.247749
19174000,0.0324,0.013523,0.002678,0.000431,0.134570
19175000,0.0324,0.013523,0.002678,0.000431,0.156430
19176000,0.0324,0.013523,0.002678,0.000431,0.194862
19177000,0.0324,0.013523,0.002678,0.000431,0.066286
19178000,0.0324,0.013523,0.002678,0.000431,0.129281
19179000,0.0324,0.013523,0.002678,0.000431,0.093670
19180000,0.0324,0.013523,0.002678,0.000431,0.282303
19181000,0.0324,0.013523,0.002678,0.000431,0.171239
19182000,0.0324,0.013523,0.002678,0.000431,0.170651
19183000,0.0324,0.013523,0.002678,0.000431,0.162659
19184000,0.0324,0.013523,0.002678,0.000431,0.113297
19185000,0.0324,0.013523,0.002678,0.000431,0.164539
19186000,0.0324,0.013523,0.002678,0.000431,0.094963
19187000,0.0324,0.013523,0.002678,0.000431,0.104130
19188000,0.0324,0.013523,0.002678,0.000431,0.286534
19189000,0.0324,0.013523,0.002678,0.000431,0.177585
19190000,0.0324,0.013523,0.002678,0.000431,0.055238
19191000,0.0324,0.013523,0.002678,0.000431,0.131984
19192000,0.0324,0.013523,0.002678,0.000431,0.324260
19193000,0.0324,0.013523,0.002678,0.000431,0.325906
19194000,0.0324,0.013523,0.002678,0.000431,0.041605
19195000,0.0324,0.013523,0.002678,0.000431,0.172061
19196000,0.0324,0.013523,0.002678,0.000431,0.118703
19197000,0.0324,0.013523,0.002678,0.000431,0.117998
19198000,0.0324,0.013523,0.002678,0.000431,0.065111
19199000,0.0324,0.013523,0.002678,0.000431,0.122347
19200000,0.0324,0.013523,0.002678,0.000431,0.127048
19201000,0.0324,0.013523,0.002678,0.000431,0.208260
19202000,0.0324,0.013523,0.002678,0.000431,0.247867
19203000,0.0324,0.013523,0.002678,0.000431,0.087323
19204000,0.0324,0.013523,0.002678,0.000431,0.123522
19205000,0.0324,0.013523,0.002678,0.000431,0.199328
19206000,0.0324,0.013523,0.002678,0.000431,0.173824
19207000,0.0324,0.013523,0.002678,0.000431,0.142679
19208000,0.0324,0.013523,0.002678,0.000431,0.099076
19209000,0.0324,0.013523,0.002678,0.000431,0.084033
19210000,0.0324,0.013523,0.002678,0.000431,0.318031
19211000,0.0324,0.013523,0.002678,0.000431,0.226359
19212000,0.0324,0.013523,0.002678,0.000431,0.196272
19213000,0.0324,0.013523,0.002678,0.000431,0.182639
19214000,0.0324,0.013523,0.002678,0.000431,0.117998
19215000,0.0324,0.013523,0.002678,0.000431,0.091437
19216000,0.0324,0.013523,0.002678,0.000431,0.097431
19217000,0.0324,0.013523,0.002678,0.000431,0.188633
19218000,0.0324,0.013523,0.002678,0.000431,0.198505
19219000,0.0324,0.013523,0.002678,0.000431,0.218602
19220000,0.0324,0.013523,0.002678,0.000431,0.135040
19221000,0.0324,0.013523,0.002678,0.000431,0.130339
19222000,0.0324,0.013523,0.002678,0.000431,0.134687
19223000,0.0324,0.013523,0.002678,0.000431,0.222833
19224000,0.0324,0.013523,0.002678,0.000431,0.149848
19225000,0.0324,0.013523,0.002678,0.000431,0.253156
19226000,0.0324,0.013523,0.002678,0.000431,0.133394
19227000,0.0324,0.013523,0.002678,0.000431,0.173001
19228000,0.0324,0.013523,0.002678,0.000431,0.196860
19229000,0.0324,0.013523,0.002678,0.000431,0.158546
19230000,0.0324,0.013523,0.002678,0.000431,0.146910
19231000,0.0324,0.013523,0.002678,0.000431,0.129399
19232000,0.0324,0.013523,0.002678,0.000431,0.108126
19233000,0.0324,0.013523,0.002678,0.000431,0.082505
19234000,0.0324,0.013523,0.002678,0.000431,0.092965
19235000,0.0324,0.013523,0.002678,0.000431,0.207555
19236000,0.0324,0.013523,0.002678,0.000431,0.083327
19237000,0.0324,0.013523,0.002678,0.000431,0.080272
19238000,0.0324,0.013523,0.002678,0.000431,0.321440
19239000,0.0324,0.013523,0.002678,0.000431,0.216487
19240000,0.0324,0.013523,0.002678,0.000431,0.253156
19241000,0.0324,0.013523,0.002678,0.000431,0.114355
19242000,0.0324,0.013523,0.002678,0.000431,0.204146
19243000,0.0324,0.013523,0.002678,0.000431,0.157253
19244000,0.0324,0.013523,0.002678,0.000431,0.302753
19245000,0.0324,0.013523,0.002678,0.000431,0.246692
19246000,0.0324,0.013523,0.002678,0.000431,0.106833
19247000,0.0324,0.013523,0.002678,0.000431,0.100134
19248000,0.0324,0.013523,0.002678,0.000431,0.175587
19249000,0.0324,0.013523,0.002678,0.000431,0.082622
19250000,0.0324,0.013523,0.002678,0.000431,0.099076
19251000,0.0324,0.013523,0.002678,0.000431,0.219778
19252000,0.0324,0.013523,0.002678,0.000431,0.068519
19253000,0.0324,0.013523,0.002678,0.000431,0.179230
19254000,0.0324,0.013523,0.002678,0.000431,0.065228
19255000,0.0324,0.013523,0.002678,0.000431,0.049832
19256000,0.0324,0.013523,0.002678,0.000431,0.133042
19257000,0.0324,0.013523,0.002678,0.000431,0.179583
19258000,0.0324,0.013523,0.002678,0.000431,0.132572
19259000,0.0324,0.013523,0.002678,0.000431,0.202854
19260000,0.0324,0.013523,0.002678,0.000431,0.098841
19261000,0.0324,0.013523,0.002678,0.000431,0.080389
19262000,0.0324,0.013523,0.002678,0.000431,0.084150
19263000,0.0324,0.013523,0.002678,0.000431,0.198505
19264000,0.0324,0.013523,0.002678,0.000431,0.192511
19265000,0.0324,0.013523,0.002678,0.000431,0.123170
19266000,0.0324,0.013523,0.002678,0.000431,0.168300
19267000,0.0324,0.013523,0.002678,0.000431,0.156548
19268000,0.0324,0.013523,0.002678,0.000431,0.159486
19269000,0.0324,0.013523,0.002678,0.000431,0.088851
19270000,0.0324,0.013523,0.002678,0.000431,0.246927
19271000,0.0324,0.013523,0.002678,0.000431,0.098841
19272000,0.0324,0.013523,0.002678,0.000431,0.200503
19273000,0.0324,0.013523,0.002678,0.000431,0.084150
19274000,0.0324,0.013523,0.002678,0.000431,0.169476
19275000,0.0324,0.013523,0.002678,0.000431,0.134217
19276000,0.0324,0.013523,0.002678,0.000431,0.250335
19277000,0.0324,0.013523,0.002678,0.000431,0.177350
19278000,0.0324,0.013523,0.002678,0.000431,0.203206
19279000,0.0324,0.013523,0.002678,0.000431,0.298287
19280000,0.0324,0.013523,0.002678,0.000431,0.089674
19281000,0.0324,0.013523,0.002678,0.000431,0.051830
19282000,0.0324,0.013523,0.002678,0.000431,0.054886
19283000,0.0324,0.013523,0.002678,0.000431,0.219778
19284000,0.0324,0.013523,0.002678,0.000431,0.258092
19285000,0.0324,0.013523,0.002678,0.000431,0.091554
19286000,0.0324,0.013523,0.002678,0.000431,0.059352
19287000,0.0324,0.013523,0.002678,0.000431,0.086383
19288000,0.0324,0.013523,0.002678,0.000431,0.200973
19289000,0.0324,0.013523,0.002678,0.000431,0.204146
19290000,0.0324,0.013523,0.002678,0.000431,0.140564
19291000,0.0324,0.013523,0.002678,0.000431,0.293350
19292000,0.0324,0.013523,0.002678,0.000431,0.246927
19293000,0.0324,0.013523,0.002678,0.000431,0.159133
19294000,0.0324,0.013523,0.002678,0.000431,0.065346
19295000,0.0324,0.013523,0.002678,0.000431,0.097666
19296000,0.0324,0.013523,0.002678,0.000431,0.159721
19297000,0.0324,0.013523,0.002678,0.000431,0.148556
19298000,0.0324,0.013523,0.002678,0.000431,0.261618
19299000,0.0324,0.013523,0.002678,0.000431,0.107068
19300000,0.0324,0.013523,0.002678,0.000431,0.158193
19301000,0.0324,0.013523,0.002678,0.000431,0.042898
19302000,0.0324,0.013523,0.002678,0.000431,0.145735
19303000,0.0324,0.013523,0.002678,0.000431,0.166537
19304000,0.0324,0.013523,0.002678,0.000431,0.229062
19305000,0.0324,0.013523,0.002678,0.000431,0.114825
19306000,0.0324,0.013523,0.002678,0.000431,0.161601
19307000,0.0324,0.013523,0.002678,0.000431,0.057706
19308000,0.0324,0.013523,0.002678,0.000431,0.132689
19309000,0.0324,0.013523,0.002678,0.000431,0.110476
19310000,0.0324,0.013523,0.002678,0.000431,0.168770
19311000,0.0324,0.013523,0.002678,0.000431,0.142444
19312000,0.0324,0.013523,0.002678,0.000431,0.100839
19313000,0.0324,0.013523,0.002678,0.000431,0.211316
19314000,0.0324,0.013523,0.002678,0.000431,0.121994
19315000,0.0324,0.013523,0.002678,0.000431,0.173942
19316000,0.0324,0.013523,0.002678,0.000431,0.051007
19317000,0.0324,0.013523,0.002678,0.000431,0.195449
19318000,0.0324,0.013523,0.002678,0.000431,0.088616
19319000,0.0324,0.013523,0.002678,0.000431,0.326611
19320000,0.0324,0.013523,0.002678,0.000431,0.079332
19321000,0.0324,0.013523,0.002678,0.000431,0.062055
19322000,0.0324,0.013523,0.002678,0.000431,0.167008
19323000,0.0324,0.013523,0.002678,0.000431,0.243401
19324000,0.0324,0.013523,0.002678,0.000431,0.228240
19325000,0.0324,0.013523,0.002678,0.000431,0.081094
19326000,0.0324,0.013523,0.002678,0.000431,0.050890
19327000,0.0324,0.013523,0.002678,0.000431,0.057824
19328000,0.0324,0.013523,0.002678,0.000431,0.057706
19329000,0.0324,0.013523,0.002678,0.000431,0.199563
19330000,0.0324,0.013523,0.002678,0.000431,0.235526
19331000,0.0324,0.013523,0.002678,0.000431,0.159251
19332000,0.0324,0.013523,0.002678,0.000431,0.120114
19333000,0.0324,0.013523,0.002678,0.000431,0.249982
19334000,0.0324,0.013523,0.002678,0.000431,0.094375
19335000,0.0324,0.013523,0.002678,0.000431,0.137978
19336000,0.0324,0.013523,0.002678,0.000431,0.223656
19337000,0.0324,0.013523,0.002678,0.000431,0.242931
19338000,0.0324,0.013523,0.002678,0.000431,0.158310
19339000,0.0324,0.013523,0.002678,0.000431,0.075101
19340000,0.0324,0.013523,0.002678,0.000431,0.065111
19341000,0.0324,0.013523,0.002678,0.000431,0.042545
19342000,0.0324,0.013523,0.002678,0.000431,0.320029
19343000,0.0324,0.013523,0.002678,0.000431,0.196742
19344000,0.0324,0.013523,0.002678,0.000431,0.132689
19345000,0.0324,0.013523,0.002678,0.000431,0.216017
19346000,0.0324,0.013523,0.002678,0.000431,0.206497
19347000,0.0324,0.013523,0.002678,0.000431,0.120231
19348000,0.0324,0.013523,0.002678,0.000431,0.133865
19349000,0.0324,0.013523,0.002678,0.000431,0.261383
19350000,0.0324,0.013523,0.002678,0.000431,0.260325
19351000,0.0324,0.013523,0.002678,0.000431,0.140564
19352000,0.0324,0.013523,0.002678,0.000431,0.096961
19353000,0.0324,0.013523,0.002678,0.000431,0.153374
19354000,0.0324,0.013523,0.002678,0.000431,0.050067
19355000,0.0324,0.013523,0.002678,0.000431,0.236702
19356000,0.0324,0.013523,0.002678,0.000431,0.225184
19357000,0.0324,0.013523,0.002678,0.000431,0.238465
19358000,0.0324,0.013523,0.002678,0.000431,0.318266
19359000,0.0324,0.013523,0.002678,0.000431,0.119526
19360000,0.0324,0.013523,0.002678,0.000431,0.048892
19361000,0.0324,0.013523,0.002678,0.000431,0.113062
19362000,0.0324,0.013523,0.002678,0.000431,0.285593
19363000,0.0324,0.013523,0.002678,0.000431,0.164304
19364000,0.0324,0.013523,0.002678,0.000431,0.253156
19365000,0.0324,0.013523,0.002678,0.000431,0.155490
19366000,0.0324,0.013523,0.002678,0.000431,0.169123
19367000,0.0324,0.013523,0.002678,0.000431,0.042428
19368000,0.0324,0.013523,0.002678,0.000431,0.198505
19369000,0.0324,0.013523,0.002678,0.000431,0.278424
19370000,0.0324,0.013523,0.002678,0.000431,0.108596
19371000,0.0324,0.013523,0.002678,0.000431,0.170886
19372000,0.0324,0.013523,0.002678,0.000431,0.157135
19373000,0.0324,0.013523,0.002678,0.000431,0.050067
19374000,0.0324,0.013523,0.002678,0.000431,0.084150
19375000,0.0324,0.013523,0.002678,0.000431,0.317091
19376000,0.0324,0.013523,0.002678,0.000431,0.069812
19377000,0.0324,0.013523,0.002678,0.000431,0.378441
19378000,0.0324,0.013523,0.002678,0.000431,0.120349
19379000,0.0324,0.013523,0.002678,0.000431,0.170886
19380000,0.0324,0.013523,0.002678,0.000431,0.056766
19381000,0.0324,0.013523,0.002678,0.000431,0.128223
19382000,0.0324,0.013523,0.002678,0.000431,0.310745
19383000,0.0324,0.013523,0.002678,0.000431,0.194039
19384000,0.0324,0.013523,0.002678,0.000431,0.203794
19385000,0.0324,0.013523,0.002678,0.000431,0.091084
19386000,0.0324,0.013523,0.002678,0.000431,0.084150
19387000,0.0324,0.013523,0.002678,0.000431,0.135392
19388000,0.0324,0.013523,0.002678,0.000431,0.225419
19389000,0.0324,0.013523,0.002678,0.000431,0.057589
19390000,0.0324,0.013523,0.002678,0.000431,0.271490
19391000,0.0324,0.013523,0.002678,0.000431,0.237054
19392000,0.0324,0.013523,0.002678,0.000431,0.108714
19393000,0.0324,0.013523,0.002678,0.000431,0.058999
19394000,0.0324,0.013523,0.002678,0.000431,0.177115
19395000,0.0324,0.013523,0.002678,0.000431,0.151729
19396000,0.0324,0.013523,0.002678,0.000431,0.227182
19397000,0.0324,0.013523,0.002678,0.000431,0.166655
19398000,0.0324,0.013523,0.002678,0.000431,0.072397
19399000,0.0324,0.013523,0.002678,0.000431,0.065228
19400000,0.0324,0.013523,0.002678,0.000431,0.108126
19401000,0.0324,0.013523,0.002678,0.000431,0.240463
19402000,0.0324,0.013523,0.002678,0.000431,0.052065
19403000,0.0324,0.013523,0.002678,0.000431,0.142914
19404000,0.0324,0.013523,0.002678,0.000431,0.174764
19405000,0.0324,0.013523,0.002678,0.000431,0.120349
19406000,0.0324,0.013523,0.002678,0.000431,0.138801
19407000,0.0324,0.013523,0.002678,0.000431,0.297699
19408000,0.0324,0.013523,0.002678,0.000431,0.140329
19409000,0.0324,0.013523,0.002678,0.000431,0.355758
19410000,0.0324,0.013523,0.002678,0.000431,0.155137
19411000,0.0324,0.013523,0.002678,0.000431,0.184284
19412000,0.0324,0.013523,0.002678,0.000431,0.223186
19413000,0.0324,0.013523,0.002678,0.000431,0.148438
19414000,0.0324,0.013523,0.002678,0.000431,0.653809
19415000,0.0324,0.013523,0.002678,0.000431,0.049244
19416000,0.0324,0.013523,0.002678,0.000431,0.153257
19417000,0.0324,0.013523,0.002678,0.000431,0.129163
19418000,0.0324,0.013523,0.002678,0.000431,0.074160
19419000,0.0324,0.013523,0.002678,0.000431,0.112357
19420000,0.0324,0.013523,0.002678,0.000431,0.397950
19421000,0.0324,0.013523,0.002678,0.000431,0.204264
19422000,0.0324,0.013523,0.002678,0.000431,0.228592
19423000,0.0324,0.013523,0.002678,0.000431,0.147263
19424000,0.0324,0.013523,0.002678,0.000431,0.187928
19425000,0.0324,0.013523,0.002678,0.000431,0.086736
19426000,0.0324,0.013523,0.002678,0.000431,0.072045
19427000,0.0324,0.013523,0.002678,0.000431,0.337188
19428000,0.0324,0.013523,0.002678,0.000431,0.087206
19429000,0.0324,0.013523,0.002678,0.000431,0.178290
19430000,0.0324,0.013523,0.002678,0.000431,0.125638
19431000,0.0324,0.013523,0.002678,0.000431,0.304633
19432000,0.0324,0.013523,0.002678,0.000431,0.121289
19433000,0.0324,0.013523,0.002678,0.000431,0.213431
19434000,0.0324,0.013523,0.002678,0.000431,0.087676
19435000,0.0324,0.013523,0.002678,0.000431,0.140329
19436000,0.0324,0.013523,0.002678,0.000431,0.098959
19437000,0.0324,0.013523,0.002678,0.000431,0.147968
19438000,0.0324,0.013523,0.002678,0.000431,0.159956
19439000,0.0324,0.013523,0.002678,0.000431,0.085561
19440000,0.0324,0.013523,0.002678,0.000431,0.191453
19441000,0.0324,0.013523,0.002678,0.000431,0.102955
19442000,0.0324,0.013523,0.002678,0.000431,0.119409
19443000,0.0324,0.013523,0.002678,0.000431,0.210258
19444000,0.0324,0.013523,0.002678,0.000431,0.042545
19445000,0.0324,0.013523,0.002678,0.000431,0.125520
19446000,0.0324,0.013523,0.002678,0.000431,0.151729
19447000,0.0324,0.013523,0.002678,0.000431,0.145735
19448000,0.0324,0.013523,0.002678,0.000431,0.200621
19449000,0.0324,0.013523,0.002678,0.000431,0.075218
19450000,0.0324,0.013523,0.002678,0.000431,0.072750
19451000,0.0324,0.013523,0.002678,0.000431,0.136920
19452000,0.0324,0.013523,0.002678,0.000431,0.341419
19453000,0.0324,0.013523,0.002678,0.000431,0.153492
19454000,0.0324,0.013523,0.002678,0.000431,0.062643
19455000,0.0324,0.013523,0.002678,0.000431,0.090262
19456000,0.0324,0.013523,0.002678,0.000431,0.162541
19457000,0.0324,0.013523,0.002678,0.000431,0.152199
19458000,0.0324,0.013523,0.002678,0.000431,0.059352
19459000,0.0324,0.013523,0.002678,0.000431,0.206850
19460000,0.0324,0.013523,0.002678,0.000431,0.175822
19461000,0.0324,0.013523,0.002678,0.000431,0.118821
19462000,0.0324,0.013523,0.002678,0.000431,0.128928
19463000,0.0324,0.013523,0.002678,0.000431,0.140916
19464000,0.0324,0.013523,0.002678,0.000431,0.132924
19465000,0.0324,0.013523,0.002678,0.000431,0.311685
19466000,0.0324,0.013523,0.002678,0.000431,0.166537
19467000,0.0324,0.013523,0.002678,0.000431,0.106598
19468000,0.0324,0.013523,0.002678,0.000431,0.096843
19469000,0.0324,0.013523,0.002678,0.000431,0.086501
19470000,0.0324,0.013523,0.002678,0.000431,0.158428
19471000,0.0324,0.013523,0.002678,0.000431,0.278659
19472000,0.0324,0.013523,0.002678,0.000431,0.406883
19473000,0.0324,0.013523,0.002678,0.000431,0.191101
19474000,0.0324,0.013523,0.002678,0.000431,0.109419
19475000,0.0324,0.013523,0.002678,0.000431,0.119526
19476000,0.0324,0.013523,0.002678,0.000431,0.173824
19477000,0.0324,0.013523,0.002678,0.000431,0.181464
19478000,0.0324,0.013523,0.002678,0.000431,0.155137
19479000,0.0324,0.013523,0.002678,0.000431,0.243871
19480000,0.0324,0.013523,0.002678,0.000431,0.129046
19481000,0.0324,0.013523,0.002678,0.000431,0.130456
19482000,0.0324,0.013523,0.002678,0.000431,0.127988
19483000,0.0324,0.013523,0.002678,0.000431,0.165127
19484000,0.0324,0.013523,0.002678,0.000431,0.163482
19485000,0.0324,0.013523,0.002678,0.000431,0.128693
19486000,0.0324,0.013523,0.002678,0.000431,0.195919
19487000,0.0324,0.013523,0.002678,0.000431,0.181934
19488000,0.0324,0.013523,0.002678,0.000431,0.091554
19489000,0.0324,0.013523,0.002678,0.000431,0.110006
19490000,0.0324,0.013523,0.002678,0.000431,0.064876
19491000,0.0324,0.013523,0.002678,0.000431,0.392779
19492000,0.0324,0.013523,0.002678,0.000431,0.178173
19493000,0.0324,0.013523,0.002678,0.000431,0.254213
19494000,0.0324,0.013523,0.002678,0.000431,0.052535
19495000,0.0324,0.013523,0.002678,0.000431,0.072867
19496000,0.0324,0.013523,0.002678,0.000431,0.118233
19497000,0.0324,0.013523,0.002678,0.000431,0.056414
19498000,0.0324,0.013523,0.002678,0.000431,0.239522
19499000,0.0324,0.013523,0.002678,0.000431,0.103425
19500000,0.0324,0.013523,0.002678,0.000431,0.215782
19501000,0.0324,0.013523,0.002678,0.000431,0.110241
19502000,0.0324,0.013523,0.002678,0.000431,0.052183
19503000,0.0324,0.013523,0.002678,0.000431,0.163247
19504000,0.0324,0.013523,0.002678,0.000431,0.206497
19505000,0.0324,0.013523,0.002678,0.000431,0.095198
19506000,0.0324,0.013523,0.002678,0.000431,0.089439
19507000,0.0324,0.013523,0.002678,0.000431,0.138801
19508000,0.0324,0.013523,0.002678,0.000431,0.053945
19509000,0.0324,0.013523,0.002678,0.000431,0.077216
19510000,0.0324,0.013523,0.002678,0.000431,0.200738
19511000,0.0324,0.013523,0.002678,0.000431,0.147615
19512000,0.0324,0.013523,0.002678,0.000431,0.143032
19513000,0.0324,0.013523,0.002678,0.000431,0.083915
19514000,0.0324,0.013523,0.002678,0.000431,0.103895
19515000,0.0324,0.013523,0.002678,0.000431,0.087558
19516000,0.0324,0.013523,0.002678,0.000431,0.109889
19517000,0.0324,0.013523,0.002678,0.000431,0.141857
19518000,0.0324,0.013523,0.002678,0.000431,0.094023
19519000,0.0324,0.013523,0.002678,0.000431,0.053945
19520000,0.0324,0.013523,0.002678,0.000431,0.184167
19521000,0.0324,0.013523,0.002678,0.000431,0.124227
19522000,0.0324,0.013523,0.002678,0.000431,0.189926
19523000,0.0324,0.013523,0.002678,0.000431,0.170181
19524000,0.0324,0.013523,0.002678,0.000431,0.127518
19525000,0.0324,0.013523,0.002678,0.000431,0.143619
19526000,0.0324,0.013523,0.002678,0.000431,0.160426
19527000,0.0324,0.013523,0.002678,0.000431,0.126343
19528000,0.0324,0.013523,0.002678,0.000431,0.275839
19529000,0.0324,0.013523,0.002678,0.000431,0.271843
19530000,0.0324,0.013523,0.002678,0.000431,0.066168
19531000,0.0324,0.013523,0.002678,0.000431,0.099194
19532000,0.0324,0.013523,0.002678,0.000431,0.060174
19533000,0.0324,0.013523,0.002678,0.000431,0.188985
19534000,0.0324,0.013523,0.002678,0.000431,0.108831
19535000,0.0324,0.013523,0.002678,0.000431,0.114355
19536000,0.0324,0.013523,0.002678,0.000431,0.122817
19537000,0.0324,0.013523,0.002678,0.000431,0.057471
19538000,0.0324,0.013523,0.002678,0.000431,0.076628
19539000,0.0324,0.013523,0.002678,0.000431,0.192981
19540000,0.0324,0.013523,0.002678,0.000431,0.141739
19541000,0.0324,0.013523,0.002678,0.000431,0.113532
19542000,0.0324,0.013523,0.002678,0.000431,0.162894
19543000,0.0324,0.013523,0.002678,0.000431,0.160308
19544000,0.0324,0.013523,0.002678,0.000431,0.169593
19545000,0.0324,0.013523,0.002678,0.000431,0.200738
19546000,0.0324,0.013523,0.002678,0.000431,0.203324
19547000,0.0324,0.013523,0.002678,0.000431,0.060409
19548000,0.0324,0.013523,0.002678,0.000431,0.062172
19549000,0.0324,0.013523,0.002678,0.000431,0.089321
19550000,0.0324,0.013523,0.002678,0.000431,0.046306
19551000,0.0324,0.013523,0.002678,0.000431,0.206027
19552000,0.0324,0.013523,0.002678,0.000431,0.229533
19553000,0.0324,0.013523,0.002678,0.000431,0.064288
19554000,0.0324,0.013523,0.002678,0.000431,0.158193
19555000,0.0324,0.013523,0.002678,0.000431,0.217427
19556000,0.0324,0.013523,0.002678,0.000431,0.137390
19557000,0.0324,0.013523,0.002678,0.000431,0.132454
19558000,0.0324,0.013523,0.002678,0.000431,0.194274
19559000,0.0324,0.013523,0.002678,0.000431,0.185459
19560000,0.0324,0.013523,0.002678,0.000431,0.051007
19561000,0.0324,0.013523,0.002678,0.000431,0.173354
19562000,0.0324,0.013523,0.002678,0.000431,0.178290
19563000,0.0324,0.013523,0.002678,0.000431,0.121759
19564000,0.0324,0.013523,0.002678,0.000431,0.051712
19565000,0.0324,0.013523,0.002678,0.000431,0.086031
19566000,0.0324,0.013523,0.002678,0.000431,0.035023
19567000,0.0324,0.013523,0.002678,0.000431,0.238935
19568000,0.0324,0.013523,0.002678,0.000431,0.105893
19569000,0.0324,0.013523,0.002678,0.000431,0.230003
19570000,0.0324,0.013523,0.002678,0.000431,0.099664
19571000,0.0324,0.013523,0.002678,0.000431,0.104835
19572000,0.0324,0.013523,0.002678,0.000431,0.148086
19573000,0.0324,0.013523,0.002678,0.000431,0.205792
19574000,0.0324,0.013523,0.002678,0.000431,0.174059
19575000,0.0324,0.013523,0.002678,0.000431,0.189455
19576000,0.0324,0.013523,0.002678,0.000431,0.163129
19577000,0.0324,0.013523,0.002678,0.000431,0.111064
19578000,0.0324,0.013523,0.002678,0.000431,0.123170
19579000,0.0324,0.013523,0.002678,0.000431,0.057706
19580000,0.0324,0.013523,0.002678,0.000431,0.155842
19581000,0.0324,0.013523,0.002678,0.000431,0.219778
19582000,0.0324,0.013523,0.002678,0.000431,0.269140
19583000,0.0324,0.013523,0.002678,0.000431,0.211433
19584000,0.0324,0.013523,0.002678,0.000431,0.121759
19585000,0.0324,0.013523,0.002678,0.000431,0.166537
19586000,0.0324,0.013523,0.002678,0.000431,0.081212
19587000,0.0324,0.013523,0.002678,0.000431,0.271373
19588000,0.0324,0.013523,0.002678,0.000431,0.069342
19589000,0.0324,0.013523,0.002678,0.000431,0.046189
19590000,0.0324,0.013523,0.002678,0.000431,0.116000
19591000,0.0324,0.013523,0.002678,0.000431,0.101192
19592000,0.0324,0.013523,0.002678,0.000431,0.062525
19593000,0.0324,0.013523,0.002678,0.000431,0.105305
19594000,0.0324,0.013523,0.002678,0.000431,0.065228
19595000,0.0324,0.013523,0.002678,0.000431,0.164187
19596000,0.0324,0.013523,0.002678,0.000431,0.093905
19597000,0.0324,0.013523,0.002678,0.000431,0.176292
19598000,0.0324,0.013523,0.002678,0.000431,0.157605
19599000,0.0324,0.013523,0.002678,0.000431,0.092142
19600000,0.0324,0.013523,0.002678,0.000431,0.197330
19601000,0.0324,0.013523,0.002678,0.000431,0.188633
19602000,0.0324,0.013523,0.002678,0.000431,0.162894
19603000,0.0324,0.013523,0.002678,0.000431,0.149026
19604000,0.0324,0.013523,0.002678,0.000431,0.133042
19605000,0.0324,0.013523,0.002678,0.000431,0.038902
19606000,0.0324,0.013523,0.002678,0.000431,0.185812
19607000,0.0324,0.013523,0.002678,0.000431,0.204617
19608000,0.0324,0.013523,0.002678,0.000431,0.138566
19609000,0.0324,0.013523,0.002678,0.000431,0.145617
19610000,0.0324,0.013523,0.002678,0.000431,0.050185
19611000,0.0324,0.013523,0.002678,0.000431,0.035258
19612000,0.0324,0.013523,0.002678,0.000431,0.066638
19613000,0.0324,0.013523,0.002678,0.000431,0.097901
19614000,0.0324,0.013523,0.002678,0.000431,0.358931
19615000,0.0324,0.013523,0.002678,0.000431,0.114237
19616000,0.0324,0.013523,0.002678,0.000431,0.096373
19617000,0.0324,0.013523,0.002678,0.000431,0.101662
19618000,0.0324,0.013523,0.002678,0.000431,0.035023
19619000,0.0324,0.013523,0.002678,0.000431,0.072515
19620000,0.0324,0.013523,0.002678,0.000431,0.138566
19621000,0.0324,0.013523,0.002678,0.000431,0.259620
19622000,0.0324,0.013523,0.002678,0.000431,0.038902
19623000,0.0324,0.013523,0.002678,0.000431,0.095315
19624000,0.0324,0.013523,0.002678,0.000431,0.076628
19625000,0.0324,0.013523,0.002678,0.000431,0.076863
19626000,0.0324,0.013523,0.002678,0.000431,0.133277
19627000,0.0324,0.013523,0.002678,0.000431,0.248220
19628000,0.0324,0.013523,0.002678,0.000431,0.069812
19629000,0.0324,0.013523,0.002678,0.000431,0.095433
19630000,0.0324,0.013523,0.002678,0.000431,0.064641
19631000,0.0324,0.013523,0.002678,0.000431,0.101662
19632000,0.0324,0.013523,0.002678,0.000431,0.118821
19633000,0.0324,0.013523,0.002678,0.000431,0.247162
19634000,0.0324,0.013523,0.002678,0.000431,0.229062
19635000,0.0324,0.013523,0.002678,0.000431,0.163599
19636000,0.0324,0.013523,0.002678,0.000431,0.118233
19637000,0.0324,0.013523,0.002678,0.000431,0.074748
19638000,0.0324,0.013523,0.002678,0.000431,0.266084
19639000,0.0324,0.013523,0.002678,0.000431,0.322615
19640000,0.0324,0.013523,0.002678,0.000431,0.274546
19641000,0.0324,0.013523,0.002678,0.000431,0.141386
19642000,0.0324,0.013523,0.002678,0.000431,0.168418
19643000,0.0324,0.013523,0.002678,0.000431,0.112945
19644000,0.0324,0.013523,0.002678,0.000431,0.107538
19645000,0.0324,0.013523,0.002678,0.000431,0.373505
19646000,0.0324,0.013523,0.002678,0.000431,0.243166
19647000,0.0324,0.013523,0.002678,0.000431,0.267259
19648000,0.0324,0.013523,0.002678,0.000431,0.086148
19649000,0.0324,0.013523,0.002678,0.000431,0.125403
19650000,0.0324,0.013523,0.002678,0.000431,0.050067
19651000,0.0324,0.013523,0.002678,0.000431,0.065581
19652000,0.0324,0.013523,0.002678,0.000431,0.264791
19653000,0.0324,0.013523,0.002678,0.000431,0.173354
19654000,0.0324,0.013523,0.002678,0.000431,0.141034
19655000,0.0324,0.013523,0.002678,0.000431,0.091437
19656000,0.0324,0.013523,0.002678,0.000431,0.076393
19657000,0.0324,0.013523,0.002678,0.000431,0.050302
19658000,0.0324,0.013523,0.002678,0.000431,0.143149
19659000,0.0324,0.013523,0.002678,0.000431,0.118703
19660000,0.0324,0.013523,0.002678,0.000431,0.204734
19661000,0.0324,0.013523,0.002678,0.000431,0.163834
19662000,0.0324,0.013523,0.002678,0.000431,0.095668
19663000,0.0324,0.013523,0.002678,0.000431,0.206262
19664000,0.0324,0.013523,0.002678,0.000431,0.097078
19665000,0.0324,0.013523,0.002678,0.000431,0.153022
19666000,0.0324,0.013523,0.002678,0.000431,0.138096
19667000,0.0324,0.013523,0.002678,0.000431,0.147028
19668000,0.0324,0.013523,0.002678,0.000431,0.057236
19669000,0.0324,0.013523,0.002678,0.000431,0.056649
19670000,0.0324,0.013523,0.002678,0.000431,0.108361
19671000,0.0324,0.013523,0.002678,0.000431,0.147733
19672000,0.0324,0.013523,0.002678,0.000431,0.159721
19673000,0.0324,0.013523,0.002678,0.000431,0.094258
19674000,0.0324,0.013523,0.002678,0.000431,0.102837
19675000,0.0324,0.013523,0.002678,0.000431,0.064876
19676000,0.0324,0.013523,0.002678,0.000431,0.107773
19677000,0.0324,0.013523,0.002678,0.000431,0.188045
19678000,0.0324,0.013523,0.002678,0.000431,0.133159
19679000,0.0324,0.013523,0.002678,0.000431,0.129869
19680000,0.0324,0.013523,0.002678,0.000431,0.076628
19681000,0.0324,0.013523,0.002678,0.000431,0.065228
19682000,0.0324,0.013523,0.002678,0.000431,0.038667
19683000,0.0324,0.013523,0.002678,0.000431,0.084620
19684000,0.0324,0.013523,0.002678,0.000431,0.237289
19685000,0.0324,0.013523,0.002678,0.000431,0.199093
19686000,0.0324,0.013523,0.002678,0.000431,0.168653
19687000,0.0324,0.013523,0.002678,0.000431,0.227770
19688000,0.0324,0.013523,0.002678,0.000431,0.109889
19689000,0.0324,0.013523,0.002678,0.000431,0.070752
19690000,0.0324,0.013523,0.002678,0.000431,0.192511
19691000,0.0324,0.013523,0.002678,0.000431,0.294526
19692000,0.0324,0.013523,0.002678,0.000431,0.132102
19693000,0.0324,0.013523,0.002678,0.000431,0.094728
19694000,0.0324,0.013523,0.002678,0.000431,0.102250
19695000,0.0324,0.013523,0.002678,0.000431,0.153022
19696000,0.0324,0.013523,0.002678,0.000431,0.158663
19697000,0.0324,0.013523,0.002678,0.000431,0.189338
19698000,0.0324,0.013523,0.002678,0.000431,0.202619
19699000,0.0324,0.013523,0.002678,0.000431,0.119761
19700000,0.0324,0.013523,0.002678,0.000431,0.121172
19701000,0.0324,0.013523,0.002678,0.000431,0.057824
19702000,0.0324,0.013523,0.002678,0.000431,0.065346
19703000,0.0324,0.013523,0.002678,0.000431,0.132924
19704000,0.0324,0.013523,0.002678,0.000431,0.253743
19705000,0.0324,0.013523,0.002678,0.000431,0.249865
19706000,0.0324,0.013523,0.002678,0.000431,0.054416
19707000,0.0324,0.013523,0.002678,0.000431,0.144090
19708000,0.0324,0.013523,0.002678,0.000431,0.047129
19709000,0.0324,0.013523,0.002678,0.000431,0.230120
19710000,0.0324,0.013523,0.002678,0.000431,0.269022
19711000,0.0324,0.013523,0.002678,0.000431,0.269022
19712000,0.0324,0.013523,0.002678,0.000431,0.110124
19713000,0.0324,0.013523,0.002678,0.000431,0.063348
19714000,0.0324,0.013523,0.002678,0.000431,0.061232
19715000,0.0324,0.013523,0.002678,0.000431,0.058412
19716000,0.0324,0.013523,0.002678,0.000431,0.177703
19717000,0.0324,0.013523,0.002678,0.000431,0.182874
19718000,0.0324,0.013523,0.002678,0.000431,0.192276
19719000,0.0324,0.013523,0.002678,0.000431,0.320382
19720000,0.0324,0.013523,0.002678,0.000431,0.131632
19721000,0.0324,0.013523,0.002678,0.000431,0.112004
19722000,0.0324,0.013523,0.002678,0.000431,0.080037
19723000,0.0324,0.013523,0.002678,0.000431,0.046541
19724000,0.0324,0.013523,0.002678,0.000431,0.174529
19725000,0.0324,0.013523,0.002678,0.000431,0.142092
19726000,0.0324,0.013523,0.002678,0.000431,0.111887
19727000,0.0324,0.013523,0.002678,0.000431,0.035141
19728000,0.0324,0.013523,0.002678,0.000431,0.042663
19729000,0.0324,0.013523,0.002678,0.000431,0.102837
19730000,0.0324,0.013523,0.002678,0.000431,0.102602
19731000,0.0324,0.013523,0.002678,0.000431,0.200503
19732000,0.0324,0.013523,0.002678,0.000431,0.171356
19733000,0.0324,0.013523,0.002678,0.000431,0.098724
19734000,0.0324,0.013523,0.002678,0.000431,0.091437
19735000,0.0324,0.013523,0.002678,0.000431,0.142209
19736000,0.0324,0.013523,0.002678,0.000431,0.151259
19737000,0.0324,0.013523,0.002678,0.000431,0.173824
19738000,0.0324,0.013523,0.002678,0.000431,0.067226
19739000,0.0324,0.013523,0.002678,0.000431,0.071105
19740000,0.0324,0.013523,0.002678,0.000431,0.103307
19741000,0.0324,0.013523,0.002678,0.000431,0.060880
19742000,0.0324,0.013523,0.002678,0.000431,0.091672
19743000,0.0324,0.013523,0.002678,0.000431,0.202971
19744000,0.0324,0.013523,0.002678,0.000431,0.097196
19745000,0.0324,0.013523,0.002678,0.000431,0.198623
19746000,0.0324,0.013523,0.002678,0.000431,0.078039
19747000,0.0324,0.013523,0.002678,0.000431,0.035023
19748000,0.0324,0.013523,0.002678,0.000431,0.138096
19749000,0.0324,0.013523,0.002678,0.000431,0.127871
19750000,0.0324,0.013523,0.002678,0.000431,0.102837
19751000,0.0324,0.013523,0.002678,0.000431,0.227887
19752000,0.0324,0.013523,0.002678,0.000431,0.053710
19753000,0.0324,0.013523,0.002678,0.000431,0.171826
19754000,0.0324,0.013523,0.002678,0.000431,0.098959
19755000,0.0324,0.013523,0.002678,0.000431,0.077216
19756000,0.0324,0.013523,0.002678,0.000431,0.221188
19757000,0.0324,0.013523,0.002678,0.000431,0.154432
19758000,0.0324,0.013523,0.002678,0.000431,0.160543
19759000,0.0324,0.013523,0.002678,0.000431,0.076158
19760000,0.0324,0.013523,0.002678,0.000431,0.065228
19761000,0.0324,0.013523,0.002678,0.000431,0.103307
19762000,0.0324,0.013523,0.002678,0.000431,0.243166
19763000,0.0324,0.013523,0.002678,0.000431,0.247514
19764000,0.0324,0.013523,0.002678,0.000431,0.042663
19765000,0.0324,0.013523,0.002678,0.000431,0.110359
19766000,0.0324,0.013523,0.002678,0.000431,0.076276
19767000,0.0324,0.013523,0.002678,0.000431,0.098254
19768000,0.0324,0.013523,0.002678,0.000431,0.148086
19769000,0.0324,0.013523,0.002678,0.000431,0.221541
19770000,0.0324,0.013523,0.002678,0.000431,0.107303
19771000,0.0324,0.013523,0.002678,0.000431,0.098254
19772000,0.0324,0.013523,0.002678,0.000431,0.060527
19773000,0.0324,0.013523,0.002678,0.000431,0.117881
19774000,0.0324,0.013523,0.002678,0.000431,0.094610
19775000,0.0324,0.013523,0.002678,0.000431,0.206732
19776000,0.0324,0.013523,0.002678,0.000431,0.059822
19777000,0.0324,0.013523,0.002678,0.000431,0.164539
19778000,0.0324,0.013523,0.002678,0.000431,0.153492
19779000,0.0324,0.013523,0.002678,0.000431,0.054063
19780000,0.0324,0.013523,0.002678,0.000431,0.080154
19781000,0.0324,0.013523,0.002678,0.000431,0.247749
19782000,0.0324,0.013523,0.002678,0.000431,0.112122
19783000,0.0324,0.013523,0.002678,0.000431,0.147733
19784000,0.0324,0.013523,0.002678,0.000431,0.160073
19785000,0.0324,0.013523,0.002678,0.000431,0.038902
19786000,0.0324,0.013523,0.002678,0.000431,0.053358
19787000,0.0324,0.013523,0.002678,0.000431,0.215194
19788000,0.0324,0.013523,0.002678,0.000431,0.264321
19789000,0.0324,0.013523,0.002678,0.000431,0.191806
19790000,0.0324,0.013523,0.002678,0.000431,0.211316
19791000,0.0324,0.013523,0.002678,0.000431,0.035141
19792000,0.0324,0.013523,0.002678,0.000431,0.124462
19793000,0.0324,0.013523,0.002678,0.000431,0.122934
19794000,0.0324,0.013523,0.002678,0.000431,0.164775
19795000,0.0324,0.013523,0.002678,0.000431,0.112827
19796000,0.0324,0.013523,0.002678,0.000431,0.220835
19797000,0.0324,0.013523,0.002678,0.000431,0.046894
19798000,0.0324,0.013523,0.002678,0.000431,0.055356
19799000,0.0324,0.013523,0.002678,0.000431,0.148086
19800000,0.0324,0.013523,0.002678,0.000431,0.224009
19801000,0.0324,0.013523,0.002678,0.000431,0.152669
19802000,0.0324,0.013523,0.002678,0.000431,0.093317
19803000,0.0324,0.013523,0.002678,0.000431,0.160543
19804000,0.0324,0.013523,0.002678,0.000431,0.117998
19805000,0.0324,0.013523,0.002678,0.000431,0.096021
19806000,0.0324,0.013523,0.002678,0.000431,0.200268
19807000,0.0324,0.013523,0.002678,0.000431,0.153374
19808000,0.0324,0.013523,0.002678,0.000431,0.127871
19809000,0.0324,0.013523,0.002678,0.000431,0.050302
19810000,0.0324,0.013523,0.002678,0.000431,0.050067
19811000,0.0324,0.013523,0.002678,0.000431,0.065933
19812000,0.0324,0.013523,0.002678,0.000431,0.082505
19813000,0.0324,0.013523,0.002678,0.000431,0.212844
19814000,0.0324,0.013523,0.002678,0.000431,0.227300
19815000,0.0324,0.013523,0.002678,0.000431,0.126343
19816000,0.0324,0.013523,0.002678,0.000431,0.164892
19817000,0.0324,0.013523,0.002678,0.000431,0.036669
19818000,0.0324,0.013523,0.002678,0.000431,0.138566
19819000,0.0324,0.013523,0.002678,0.000431,0.269845
19820000,0.0324,0.013523,0.002678,0.000431,0.188163
19821000,0.0324,0.013523,0.002678,0.000431,0.271255
19822000,0.0324,0.013523,0.002678,0.000431,0.102837
19823000,0.0324,0.013523,0.002678,0.000431,0.117881
19824000,0.0324,0.013523,0.002678,0.000431,0.051125
19825000,0.0324,0.013523,0.002678,0.000431,0.129163
19826000,0.0324,0.013523,0.002678,0.000431,0.120231
19827000,0.0324,0.013523,0.002678,0.000431,0.231883
19828000,0.0324,0.013523,0.002678,0.000431,0.114002
19829000,0.0324,0.013523,0.002678,0.000431,0.187222
19830000,0.0324,0.013523,0.002678,0.000431,0.099311
19831000,0.0324,0.013523,0.002678,0.000431,0.120936
19832000,0.0324,0.013523,0.002678,0.000431,0.308511
19833000,0.0324,0.013523,0.002678,0.000431,0.141034
19834000,0.0324,0.013523,0.002678,0.000431,0.125285
19835000,0.0324,0.013523,0.002678,0.000431,0.087911
19836000,0.0324,0.013523,0.002678,0.000431,0.071810
19837000,0.0324,0.013523,0.002678,0.000431,0.139388
19838000,0.0324,0.013523,0.002678,0.000431,0.112710
19839000,0.0324,0.013523,0.002678,0.000431,0.127636
19840000,0.0324,0.013523,0.002678,0.000431,0.214136
19841000,0.0324,0.013523,0.002678,0.000431,0.110359
19842000,0.0324,0.013523,0.002678,0.000431,0.110241
19843000,0.0324,0.013523,0.002678,0.000431,0.078861
19844000,0.0324,0.013523,0.002678,0.000431,0.172649
19845000,0.0324,0.013523,0.002678,0.000431,0.272665
19846000,0.0324,0.013523,0.002678,0.000431,0.181816
19847000,0.0324,0.013523,0.002678,0.000431,0.147028
19848000,0.0324,0.013523,0.002678,0.000431,0.095198
19849000,0.0324,0.013523,0.002678,0.000431,0.193569
19850000,0.0324,0.013523,0.002678,0.000431,0.163717
19851000,0.0324,0.013523,0.002678,0.000431,0.220953
19852000,0.0324,0.013523,0.002678,0.000431,0.183344
19853000,0.0324,0.013523,0.002678,0.000431,0.148086
19854000,0.0324,0.013523,0.002678,0.000431,0.125755
19855000,0.0324,0.013523,0.002678,0.000431,0.079919
19856000,0.0324,0.013523,0.002678,0.000431,0.046306
19857000,0.0324,0.013523,0.002678,0.000431,0.205792
19858000,0.0324,0.013523,0.002678,0.000431,0.164657
19859000,0.0324,0.013523,0.002678,0.000431,0.192276
19860000,0.0324,0.013523,0.002678,0.000431,0.123757
19861000,0.0324,0.013523,0.002678,0.000431,0.124110
19862000,0.0324,0.013523,0.002678,0.000431,0.133982
19863000,0.0324,0.013523,0.002678,0.000431,0.104483
19864000,0.0324,0.013523,0.002678,0.000431,0.125638
19865000,0.0324,0.013523,0.002678,0.000431,0.279482
19866000,0.0324,0.013523,0.002678,0.000431,0.227182
19867000,0.0324,0.013523,0.002678,0.000431,0.241520
19868000,0.0324,0.013523,0.002678,0.000431,0.102014
19869000,0.0324,0.013523,0.002678,0.000431,0.041605
19870000,0.0324,0.013523,0.002678,0.000431,0.065933
19871000,0.0324,0.013523,0.002678,0.000431,0.175705
19872000,0.0324,0.013523,0.002678,0.000431,0.146440
19873000,0.0324,0.013523,0.002678,0.000431,0.089321
19874000,0.0324,0.013523,0.002678,0.000431,0.071927
19875000,0.0324,0.013523,0.002678,0.000431,0.076511
19876000,0.0324,0.013523,0.002678,0.000431,0.103072
19877000,0.0324,0.013523,0.002678,0.000431,0.115530
19878000,0.0324,0.013523,0.002678,0.000431,0.144325
19879000,0.0324,0.013523,0.002678,0.000431,0.266671
19880000,0.0324,0.013523,0.002678,0.000431,0.208730
19881000,0.0324,0.013523,0.002678,0.000431,0.042428
19882000,0.0324,0.013523,0.002678,0.000431,0.042545
19883000,0.0324,0.013523,0.002678,0.000431,0.074865
19884000,0.0324,0.013523,0.002678,0.000431,0.200268
19885000,0.0324,0.013523,0.002678,0.000431,0.320029
19886000,0.0324,0.013523,0.002678,0.000431,0.261735
19887000,0.0324,0.013523,0.002678,0.000431,0.053710
19888000,0.0324,0.013523,0.002678,0.000431,0.057471
19889000,0.0324,0.013523,0.002678,0.000431,0.121759
19890000,0.0324,0.013523,0.002678,0.000431,0.065111
19891000,0.0324,0.013523,0.002678,0.000431,0.183461
19892000,0.0324,0.013523,0.002678,0.000431,0.218485
19893000,0.0324,0.013523,0.002678,0.000431,0.125755
19894000,0.0324,0.013523,0.002678,0.000431,0.061820
19895000,0.0324,0.013523,0.002678,0.000431,0.121172
19896000,0.0324,0.013523,0.002678,0.000431,0.142092
19897000,0.0324,0.013523,0.002678,0.000431,0.221188
19898000,0.0324,0.013523,0.002678,0.000431,0.124580
19899000,0.0324,0.013523,0.002678,0.000431,0.194157
19900000,0.0324,0.013523,0.002678,0.000431,0.108243
19901000,0.0324,0.013523,0.002678,0.000431,0.060057
19902000,0.0324,0.013523,0.002678,0.000431,0.168183
19903000,0.0324,0.013523,0.002678,0.000431,0.173237
19904000,0.0324,0.013523,0.002678,0.000431,0.291117
19905000,0.0324,0.013523,0.002678,0.000431,0.174529
19906000,0.0324,0.013523,0.002678,0.000431,0.168183
19907000,0.0324,0.013523,0.002678,0.000431,0.121172
19908000,0.0324,0.013523,0.002678,0.000431,0.083680
19909000,0.0324,0.013523,0.002678,0.000431,0.170768
19910000,0.0324,0.013523,0.002678,0.000431,0.245046
19911000,0.0324,0.013523,0.002678,0.000431,0.201796
19912000,0.0324,0.013523,0.002678,0.000431,0.071222
19913000,0.0324,0.013523,0.002678,0.000431,0.087911
19914000,0.0324,0.013523,0.002678,0.000431,0.117293
19915000,0.0324,0.013523,0.002678,0.000431,0.126225
19916000,0.0324,0.013523,0.002678,0.000431,0.213196
19917000,0.0324,0.013523,0.002678,0.000431,0.108361
19918000,0.0324,0.013523,0.002678,0.000431,0.299227
19919000,0.0324,0.013523,0.002678,0.000431,0.134217
19920000,0.0324,0.013523,0.002678,0.000431,0.144090
19921000,0.0324,0.013523,0.002678,0.000431,0.034906
19922000,0.0324,0.013523,0.002678,0.000431,0.227182
19923000,0.0324,0.013523,0.002678,0.000431,0.136333
19924000,0.0324,0.013523,0.002678,0.000431,0.247279
19925000,0.0324,0.013523,0.002678,0.000431,0.080154
19926000,0.0324,0.013523,0.002678,0.000431,0.095433
19927000,0.0324,0.013523,0.002678,0.000431,0.072867
19928000,0.0324,0.013523,0.002678,0.000431,0.095080
19929000,0.0324,0.013523,0.002678,0.000431,0.253038
19930000,0.0324,0.013523,0.002678,0.000431,0.102955
19931000,0.0324,0.013523,0.002678,0.000431,0.114472
19932000,0.0324,0.013523,0.002678,0.000431,0.050420
19933000,0.0324,0.013523,0.002678,0.000431,0.140799
19934000,0.0324,0.013523,0.002678,0.000431,0.226124
19935000,0.0324,0.013523,0.002678,0.000431,0.171591
19936000,0.0324,0.013523,0.002678,0.000431,0.072280
19937000,0.0324,0.013523,0.002678,0.000431,0.306161
19938000,0.0324,0.013523,0.002678,0.000431,0.133394
19939000,0.0324,0.013523,0.002678,0.000431,0.212373
19940000,0.0324,0.013523,0.002678,0.000431,0.151846
19941000,0.0324,0.013523,0.002678,0.000431,0.084268
19942000,0.0324,0.013523,0.002678,0.000431,0.181934
19943000,0.0324,0.013523,0.002678,0.000431,0.148203
19944000,0.0324,0.013523,0.002678,0.000431,0.124815
19945000,0.0324,0.013523,0.002678,0.000431,0.147028
19946000,0.0324,0.013523,0.002678,0.000431,0.141504
19947000,0.0324,0.013523,0.002678,0.000431,0.034788
19948000,0.0324,0.013523,0.002678,0.000431,0.277367
19949000,0.0324,0.013523,0.002678,0.000431,0.078979
19950000,0.0324,0.013523,0.002678,0.000431,0.261148
19951000,0.0324,0.013523,0.002678,0.000431,0.057941
19952000,0.0324,0.013523,0.002678,0.000431,0.046306
19953000,0.0324,0.013523,0.002678,0.000431,0.148556
19954000,0.0324,0.013523,0.002678,0.000431,0.085678
19955000,0.0324,0.013523,0.002678,0.000431,0.350234
19956000,0.0324,0.013523,0.002678,0.000431,0.161484
19957000,0.0324,0.013523,0.002678,0.000431,0.093200
19958000,0.0324,0.013523,0.002678,0.000431,0.082622
19959000,0.0324,0.013523,0.002678,0.000431,0.059469
19960000,0.0324,0.013523,0.002678,0.000431,0.075688
19961000,0.0324,0.013523,0.002678,0.000431,0.277719
19962000,0.0324,0.013523,0.002678,0.000431,0.149848
19963000,0.0324,0.013523,0.002678,0.000431,0.396540
19964000,0.0324,0.013523,0.002678,0.000431,0.241755
19965000,0.0324,0.013523,0.002678,0.000431,0.085208
19966000,0.0324,0.013523,0.002678,0.000431,0.094258
19967000,0.0324,0.013523,0.002678,0.000431,0.179230
19968000,0.0324,0.013523,0.002678,0.000431,0.290412
19969000,0.0324,0.013523,0.002678,0.000431,0.155960
19970000,0.0324,0.013523,0.002678,0.000431,0.087558
19971000,0.0324,0.013523,0.002678,0.000431,0.147850
19972000,0.0324,0.013523,0.002678,0.000431,0.163364
19973000,0.0324,0.013523,0.002678,0.000431,0.037374
19974000,0.0324,0.013523,0.002678,0.000431,0.319912
19975000,0.0324,0.013523,0.002678,0.000431,0.143502
19976000,0.0324,0.013523,0.002678,0.000431,0.068872
19977000,0.0324,0.013523,0.002678,0.000431,0.204264
19978000,0.0324,0.013523,0.002678,0.000431,0.047599
19979000,0.0324,0.013523,0.002678,0.000431,0.057824
19980000,0.0324,0.013523,0.002678,0.000431,0.117881
19981000,0.0324,0.013523,0.002678,0.000431,0.108361
19982000,0.0324,0.013523,0.002678,0.000431,0.289824
19983000,0.0324,0.013523,0.002678,0.000431,0.110359
19984000,0.0324,0.013523,0.002678,0.000431,0.166067
19985000,0.0324,0.013523,0.002678,0.000431,0.072397
19986000,0.0324,0.013523,0.002678,0.000431,0.058529
19987000,0.0324,0.013523,0.002678,0.000431,0.146440
19988000,0.0324,0.013523,0.002678,0.000431,0.250100
19989000,0.0324,0.013523,0.002678,0.000431,0.307454
19990000,0.0324,0.013523,0.002678,0.000431,0.114237
19991000,0.0324,0.013523,0.002678,0.000431,0.131044
19992000,0.0324,0.013523,0.002678,0.000431,0.035141
19993000,0.0324,0.013523,0.002678,0.000431,0.194627
19994000,0.0324,0.013523,0.002678,0.000431,0.234586
19995000,0.0324,0.013523,0.002678,0.000431,0.351762
19996000,0.0324,0.013523,0.002678,0.000431,0.315328
19997000,0.0324,0.013523,0.002678,0.000431,0.125403
19998000,0.0324,0.013523,0.002678,0.000431,0.034906
19999000,0.0324,0.013523,0.002678,0.000431,0.161014
