Cycle,Area(mm^2),PeakDynamic(W),SubthresholdLeakage(W),GateLeakage(W),RunTimeDynamic(W)
24000000,0.0324,0.013523,0.002678,0.000431,0.098959
24001000,0.0324,0.013523,0.002678,0.000431,0.159486
24002000,0.0324,0.013523,0.002678,0.000431,0.074278
24003000,0.0324,0.013523,0.002678,0.000431,0.072867
24004000,0.0324,0.013523,0.002678,0.000431,0.094845
24005000,0.0324,0.013523,0.002678,0.000431,0.140916
24006000,0.0324,0.013523,0.002678,0.000431,0.137508
24007000,0.0324,0.013523,0.002678,0.000431,0.108243
24008000,0.0324,0.013523,0.002678,0.000431,0.073808
24009000,0.0324,0.013523,0.002678,0.000431,0.066521
24010000,0.0324,0.013523,0.002678,0.000431,0.074043
24011000,0.0324,0.013523,0.002678,0.000431,0.066638
24012000,0.0324,0.013523,0.002678,0.000431,0.062525
24013000,0.0324,0.013523,0.002678,0.000431,0.098136
24014000,0.0324,0.013523,0.002678,0.000431,0.196860
24015000,0.0324,0.013523,0.002678,0.000431,0.048187
24016000,0.0324,0.013523,0.002678,0.000431,0.059587
24017000,0.0324,0.013523,0.002678,0.000431,0.048657
24018000,0.0324,0.013523,0.002678,0.000431,0.119291
24019000,0.0324,0.013523,0.002678,0.000431,0.200268
24020000,0.0324,0.013523,0.002678,0.000431,0.063700
24021000,0.0324,0.013523,0.002678,0.000431,0.138801
24022000,0.0324,0.013523,0.002678,0.000431,0.043015
24023000,0.0324,0.013523,0.002678,0.000431,0.043485
24024000,0.0324,0.013523,0.002678,0.000431,0.047716
24025000,0.0324,0.013523,0.002678,0.000431,0.104718
24026000,0.0324,0.013523,0.002678,0.000431,0.072750
24027000,0.0324,0.013523,0.002678,0.000431,0.095315
24028000,0.0324,0.013523,0.002678,0.000431,0.035258
24029000,0.0324,0.013523,0.002678,0.000431,0.123640
24030000,0.0324,0.013523,0.002678,0.000431,0.080272
24031000,0.0324,0.013523,0.002678,0.000431,0.145852
24032000,0.0324,0.013523,0.002678,0.000431,0.157253
24033000,0.0324,0.013523,0.002678,0.000431,0.101309
24034000,0.0324,0.013523,0.002678,0.000431,0.065698
24035000,0.0324,0.013523,0.002678,0.000431,0.067931
24036000,0.0324,0.013523,0.002678,0.000431,0.247044
24037000,0.0324,0.013523,0.002678,0.000431,0.155725
24038000,0.0324,0.013523,0.002678,0.000431,0.087558
24039000,0.0324,0.013523,0.002678,0.000431,0.132454
24040000,0.0324,0.013523,0.002678,0.000431,0.101309
24041000,0.0324,0.013523,0.002678,0.000431,0.119174
24042000,0.0324,0.013523,0.002678,0.000431,0.066286
24043000,0.0324,0.013523,0.002678,0.000431,0.125403
24044000,0.0324,0.013523,0.002678,0.000431,0.059822
24045000,0.0324,0.013523,0.002678,0.000431,0.111652
24046000,0.0324,0.013523,0.002678,0.000431,0.181934
24047000,0.0324,0.013523,0.002678,0.000431,0.074630
24048000,0.0324,0.013523,0.002678,0.000431,0.083915
24049000,0.0324,0.013523,0.002678,0.000431,0.077686
24050000,0.0324,0.013523,0.002678,0.000431,0.071575
24051000,0.0324,0.013523,0.002678,0.000431,0.076628
24052000,0.0324,0.013523,0.002678,0.000431,0.125403
24053000,0.0324,0.013523,0.002678,0.000431,0.182521
24054000,0.0324,0.013523,0.002678,0.000431,0.077334
24055000,0.0324,0.013523,0.002678,0.000431,0.171826
24056000,0.0324,0.013523,0.002678,0.000431,0.091202
24057000,0.0324,0.013523,0.002678,0.000431,0.064170
24058000,0.0324,0.013523,0.002678,0.000431,0.174529
24059000,0.0324,0.013523,0.002678,0.000431,0.082857
24060000,0.0324,0.013523,0.002678,0.000431,0.090732
24061000,0.0324,0.013523,0.002678,0.000431,0.055238
24062000,0.0324,0.013523,0.002678,0.000431,0.077216
24063000,0.0324,0.013523,0.002678,0.000431,0.111182
24064000,0.0324,0.013523,0.002678,0.000431,0.101779
24065000,0.0324,0.013523,0.002678,0.000431,0.148673
24066000,0.0324,0.013523,0.002678,0.000431,0.098841
24067000,0.0324,0.013523,0.002678,0.000431,0.047951
24068000,0.0324,0.013523,0.002678,0.000431,0.162189
24069000,0.0324,0.013523,0.002678,0.000431,0.051242
24070000,0.0324,0.013523,0.002678,0.000431,0.091319
24071000,0.0324,0.013523,0.002678,0.000431,0.108831
24072000,0.0324,0.013523,0.002678,0.000431,0.071810
24073000,0.0324,0.013523,0.002678,0.000431,0.069812
24074000,0.0324,0.013523,0.002678,0.000431,0.042428
24075000,0.0324,0.013523,0.002678,0.000431,0.048774
24076000,0.0324,0.013523,0.002678,0.000431,0.100369
24077000,0.0324,0.013523,0.002678,0.000431,0.111299
24078000,0.0324,0.013523,0.002678,0.000431,0.057589
24079000,0.0324,0.013523,0.002678,0.000431,0.097196
24080000,0.0324,0.013523,0.002678,0.000431,0.037374
24081000,0.0324,0.013523,0.002678,0.000431,0.067696
24082000,0.0324,0.013523,0.002678,0.000431,0.078274
24083000,0.0324,0.013523,0.002678,0.000431,0.075923
24084000,0.0324,0.013523,0.002678,0.000431,0.106598
24085000,0.0324,0.013523,0.002678,0.000431,0.135040
24086000,0.0324,0.013523,0.002678,0.000431,0.052653
24087000,0.0324,0.013523,0.002678,0.000431,0.082857
24088000,0.0324,0.013523,0.002678,0.000431,0.082270
24089000,0.0324,0.013523,0.002678,0.000431,0.057706
24090000,0.0324,0.013523,0.002678,0.000431,0.130104
24091000,0.0324,0.013523,0.002678,0.000431,0.078039
24092000,0.0324,0.013523,0.002678,0.000431,0.159486
24093000,0.0324,0.013523,0.002678,0.000431,0.063348
24094000,0.0324,0.013523,0.002678,0.000431,0.092495
24095000,0.0324,0.013523,0.002678,0.000431,0.074513
24096000,0.0324,0.013523,0.002678,0.000431,0.067226
24097000,0.0324,0.013523,0.002678,0.000431,0.047599
24098000,0.0324,0.013523,0.002678,0.000431,0.092612
24099000,0.0324,0.013523,0.002678,0.000431,0.085678
24100000,0.0324,0.013523,0.002678,0.000431,0.153492
24101000,0.0324,0.013523,0.002678,0.000431,0.050420
24102000,0.0324,0.013523,0.002678,0.000431,0.063348
24103000,0.0324,0.013523,0.002678,0.000431,0.130221
24104000,0.0324,0.013523,0.002678,0.000431,0.079449
24105000,0.0324,0.013523,0.002678,0.000431,0.067696
24106000,0.0324,0.013523,0.002678,0.000431,0.112710
24107000,0.0324,0.013523,0.002678,0.000431,0.115413
24108000,0.0324,0.013523,0.002678,0.000431,0.076276
24109000,0.0324,0.013523,0.002678,0.000431,0.147968
24110000,0.0324,0.013523,0.002678,0.000431,0.061115
24111000,0.0324,0.013523,0.002678,0.000431,0.065698
24112000,0.0324,0.013523,0.002678,0.000431,0.057589
24113000,0.0324,0.013523,0.002678,0.000431,0.050420
24114000,0.0324,0.013523,0.002678,0.000431,0.036434
24115000,0.0324,0.013523,0.002678,0.000431,0.055003
24116000,0.0324,0.013523,0.002678,0.000431,0.099899
24117000,0.0324,0.013523,0.002678,0.000431,0.114590
24118000,0.0324,0.013523,0.002678,0.000431,0.064170
24119000,0.0324,0.013523,0.002678,0.000431,0.090614
24120000,0.0324,0.013523,0.002678,0.000431,0.074630
24121000,0.0324,0.013523,0.002678,0.000431,0.035141
24122000,0.0324,0.013523,0.002678,0.000431,0.159368
24123000,0.0324,0.013523,0.002678,0.000431,0.084033
24124000,0.0324,0.013523,0.002678,0.000431,0.061115
24125000,0.0324,0.013523,0.002678,0.000431,0.130104
24126000,0.0324,0.013523,0.002678,0.000431,0.102367
24127000,0.0324,0.013523,0.002678,0.000431,0.055121
24128000,0.0324,0.013523,0.002678,0.000431,0.051007
24129000,0.0324,0.013523,0.002678,0.000431,0.123875
24130000,0.0324,0.013523,0.002678,0.000431,0.069224
24131000,0.0324,0.013523,0.002678,0.000431,0.070987
24132000,0.0324,0.013523,0.002678,0.000431,0.122464
24133000,0.0324,0.013523,0.002678,0.000431,0.144090
24134000,0.0324,0.013523,0.002678,0.000431,0.038314
24135000,0.0324,0.013523,0.002678,0.000431,0.083680
24136000,0.0324,0.013523,0.002678,0.000431,0.079684
24137000,0.0324,0.013523,0.002678,0.000431,0.042075
24138000,0.0324,0.013523,0.002678,0.000431,0.053593
24139000,0.0324,0.013523,0.002678,0.000431,0.053358
24140000,0.0324,0.013523,0.002678,0.000431,0.041135
24141000,0.0324,0.013523,0.002678,0.000431,0.138683
24142000,0.0324,0.013523,0.002678,0.000431,0.136450
24143000,0.0324,0.013523,0.002678,0.000431,0.084033
24144000,0.0324,0.013523,0.002678,0.000431,0.047364
24145000,0.0324,0.013523,0.002678,0.000431,0.093552
24146000,0.0324,0.013523,0.002678,0.000431,0.048069
24147000,0.0324,0.013523,0.002678,0.000431,0.100957
24148000,0.0324,0.013523,0.002678,0.000431,0.140329
24149000,0.0324,0.013523,0.002678,0.000431,0.137038
24150000,0.0324,0.013523,0.002678,0.000431,0.119879
24151000,0.0324,0.013523,0.002678,0.000431,0.055238
24152000,0.0324,0.013523,0.002678,0.000431,0.231531
24153000,0.0324,0.013523,0.002678,0.000431,0.102485
24154000,0.0324,0.013523,0.002678,0.000431,0.060409
24155000,0.0324,0.013523,0.002678,0.000431,0.161484
24156000,0.0324,0.013523,0.002678,0.000431,0.115413
24157000,0.0324,0.013523,0.002678,0.000431,0.062290
24158000,0.0324,0.013523,0.002678,0.000431,0.104600
24159000,0.0324,0.013523,0.002678,0.000431,0.149848
24160000,0.0324,0.013523,0.002678,0.000431,0.039960
24161000,0.0324,0.013523,0.002678,0.000431,0.117293
24162000,0.0324,0.013523,0.002678,0.000431,0.074865
24163000,0.0324,0.013523,0.002678,0.000431,0.112357
24164000,0.0324,0.013523,0.002678,0.000431,0.099781
24165000,0.0324,0.013523,0.002678,0.000431,0.078626
24166000,0.0324,0.013523,0.002678,0.000431,0.057824
24167000,0.0324,0.013523,0.002678,0.000431,0.070047
24168000,0.0324,0.013523,0.002678,0.000431,0.182991
24169000,0.0324,0.013523,0.002678,0.000431,0.045718
24170000,0.0324,0.013523,0.002678,0.000431,0.102955
24171000,0.0324,0.013523,0.002678,0.000431,0.081447
24172000,0.0324,0.013523,0.002678,0.000431,0.041370
24173000,0.0324,0.013523,0.002678,0.000431,0.069107
24174000,0.0324,0.013523,0.002678,0.000431,0.109066
24175000,0.0324,0.013523,0.002678,0.000431,0.056296
24176000,0.0324,0.013523,0.002678,0.000431,0.085325
24177000,0.0324,0.013523,0.002678,0.000431,0.076863
24178000,0.0324,0.013523,0.002678,0.000431,0.084738
24179000,0.0324,0.013523,0.002678,0.000431,0.060880
24180000,0.0324,0.013523,0.002678,0.000431,0.064993
24181000,0.0324,0.013523,0.002678,0.000431,0.147380
24182000,0.0324,0.013523,0.002678,0.000431,0.041723
24183000,0.0324,0.013523,0.002678,0.000431,0.060057
24184000,0.0324,0.013523,0.002678,0.000431,0.101779
24185000,0.0324,0.013523,0.002678,0.000431,0.038784
24186000,0.0324,0.013523,0.002678,0.000431,0.057824
24187000,0.0324,0.013523,0.002678,0.000431,0.119761
24188000,0.0324,0.013523,0.002678,0.000431,0.086971
24189000,0.0324,0.013523,0.002678,0.000431,0.041135
24190000,0.0324,0.013523,0.002678,0.000431,0.056414
24191000,0.0324,0.013523,0.002678,0.000431,0.059587
24192000,0.0324,0.013523,0.002678,0.000431,0.037256
24193000,0.0324,0.013523,0.002678,0.000431,0.037609
24194000,0.0324,0.013523,0.002678,0.000431,0.052653
24195000,0.0324,0.013523,0.002678,0.000431,0.037962
24196000,0.0324,0.013523,0.002678,0.000431,0.091319
24197000,0.0324,0.013523,0.002678,0.000431,0.169946
24198000,0.0324,0.013523,0.002678,0.000431,0.084973
24199000,0.0324,0.013523,0.002678,0.000431,0.066168
24200000,0.0324,0.013523,0.002678,0.000431,0.096021
24201000,0.0324,0.013523,0.002678,0.000431,0.045601
24202000,0.0324,0.013523,0.002678,0.000431,0.036199
24203000,0.0324,0.013523,0.002678,0.000431,0.062878
24204000,0.0324,0.013523,0.002678,0.000431,0.122112
24205000,0.0324,0.013523,0.002678,0.000431,0.051242
24206000,0.0324,0.013523,0.002678,0.000431,0.044778
24207000,0.0324,0.013523,0.002678,0.000431,0.068754
24208000,0.0324,0.013523,0.002678,0.000431,0.041135
24209000,0.0324,0.013523,0.002678,0.000431,0.040430
24210000,0.0324,0.013523,0.002678,0.000431,0.064288
24211000,0.0324,0.013523,0.002678,0.000431,0.065463
24212000,0.0324,0.013523,0.002678,0.000431,0.129986
24213000,0.0324,0.013523,0.002678,0.000431,0.083563
24214000,0.0324,0.013523,0.002678,0.000431,0.126695
24215000,0.0324,0.013523,0.002678,0.000431,0.043485
24216000,0.0324,0.013523,0.002678,0.000431,0.073573
24217000,0.0324,0.013523,0.002678,0.000431,0.080037
24218000,0.0324,0.013523,0.002678,0.000431,0.091672
24219000,0.0324,0.013523,0.002678,0.000431,0.073338
24220000,0.0324,0.013523,0.002678,0.000431,0.074748
24221000,0.0324,0.013523,0.002678,0.000431,0.053828
24222000,0.0324,0.013523,0.002678,0.000431,0.039372
24223000,0.0324,0.013523,0.002678,0.000431,0.121524
24224000,0.0324,0.013523,0.002678,0.000431,0.050067
24225000,0.0324,0.013523,0.002678,0.000431,0.054886
24226000,0.0324,0.013523,0.002678,0.000431,0.098136
24227000,0.0324,0.013523,0.002678,0.000431,0.072397
24228000,0.0324,0.013523,0.002678,0.000431,0.084620
24229000,0.0324,0.013523,0.002678,0.000431,0.074160
24230000,0.0324,0.013523,0.002678,0.000431,0.051595
24231000,0.0324,0.013523,0.002678,0.000431,0.067461
24232000,0.0324,0.013523,0.002678,0.000431,0.080742
24233000,0.0324,0.013523,0.002678,0.000431,0.078274
24234000,0.0324,0.013523,0.002678,0.000431,0.041958
24235000,0.0324,0.013523,0.002678,0.000431,0.070164
24236000,0.0324,0.013523,0.002678,0.000431,0.105423
24237000,0.0324,0.013523,0.002678,0.000431,0.096491
24238000,0.0324,0.013523,0.002678,0.000431,0.135040
24239000,0.0324,0.013523,0.002678,0.000431,0.119879
24240000,0.0324,0.013523,0.002678,0.000431,0.087794
24241000,0.0324,0.013523,0.002678,0.000431,0.041487
24242000,0.0324,0.013523,0.002678,0.000431,0.055591
24243000,0.0324,0.013523,0.002678,0.000431,0.047481
24244000,0.0324,0.013523,0.002678,0.000431,0.108479
24245000,0.0324,0.013523,0.002678,0.000431,0.076276
24246000,0.0324,0.013523,0.002678,0.000431,0.053593
24247000,0.0324,0.013523,0.002678,0.000431,0.041135
24248000,0.0324,0.013523,0.002678,0.000431,0.070047
24249000,0.0324,0.013523,0.002678,0.000431,0.055121
24250000,0.0324,0.013523,0.002678,0.000431,0.062407
24251000,0.0324,0.013523,0.002678,0.000431,0.159603
24252000,0.0324,0.013523,0.002678,0.000431,0.061232
24253000,0.0324,0.013523,0.002678,0.000431,0.039842
24254000,0.0324,0.013523,0.002678,0.000431,0.041958
24255000,0.0324,0.013523,0.002678,0.000431,0.100016
24256000,0.0324,0.013523,0.002678,0.000431,0.068401
24257000,0.0324,0.013523,0.002678,0.000431,0.118351
24258000,0.0324,0.013523,0.002678,0.000431,0.223068
24259000,0.0324,0.013523,0.002678,0.000431,0.108596
24260000,0.0324,0.013523,0.002678,0.000431,0.050302
24261000,0.0324,0.013523,0.002678,0.000431,0.042663
24262000,0.0324,0.013523,0.002678,0.000431,0.035141
24263000,0.0324,0.013523,0.002678,0.000431,0.051125
24264000,0.0324,0.013523,0.002678,0.000431,0.092730
24265000,0.0324,0.013523,0.002678,0.000431,0.086031
24266000,0.0324,0.013523,0.002678,0.000431,0.059234
24267000,0.0324,0.013523,0.002678,0.000431,0.082740
24268000,0.0324,0.013523,0.002678,0.000431,0.070399
24269000,0.0324,0.013523,0.002678,0.000431,0.078626
24270000,0.0324,0.013523,0.002678,0.000431,0.050655
24271000,0.0324,0.013523,0.002678,0.000431,0.053828
24272000,0.0324,0.013523,0.002678,0.000431,0.062172
24273000,0.0324,0.013523,0.002678,0.000431,0.091437
24274000,0.0324,0.013523,0.002678,0.000431,0.038079
24275000,0.0324,0.013523,0.002678,0.000431,0.055121
24276000,0.0324,0.013523,0.002678,0.000431,0.164539
24277000,0.0324,0.013523,0.002678,0.000431,0.157488
24278000,0.0324,0.013523,0.002678,0.000431,0.080154
24279000,0.0324,0.013523,0.002678,0.000431,0.063700
24280000,0.0324,0.013523,0.002678,0.000431,0.077451
24281000,0.0324,0.013523,0.002678,0.000431,0.088616
24282000,0.0324,0.013523,0.002678,0.000431,0.050302
24283000,0.0324,0.013523,0.002678,0.000431,0.083210
24284000,0.0324,0.013523,0.002678,0.000431,0.048774
24285000,0.0324,0.013523,0.002678,0.000431,0.112710
24286000,0.0324,0.013523,0.002678,0.000431,0.154785
24287000,0.0324,0.013523,0.002678,0.000431,0.051360
24288000,0.0324,0.013523,0.002678,0.000431,0.037374
24289000,0.0324,0.013523,0.002678,0.000431,0.090732
24290000,0.0324,0.013523,0.002678,0.000431,0.166537
24291000,0.0324,0.013523,0.002678,0.000431,0.057354
24292000,0.0324,0.013523,0.002678,0.000431,0.049597
24293000,0.0324,0.013523,0.002678,0.000431,0.039725
24294000,0.0324,0.013523,0.002678,0.000431,0.055591
24295000,0.0324,0.013523,0.002678,0.000431,0.038314
24296000,0.0324,0.013523,0.002678,0.000431,0.116705
24297000,0.0324,0.013523,0.002678,0.000431,0.066286
24298000,0.0324,0.013523,0.002678,0.000431,0.045248
24299000,0.0324,0.013523,0.002678,0.000431,0.089674
24300000,0.0324,0.013523,0.002678,0.000431,0.067696
24301000,0.0324,0.013523,0.002678,0.000431,0.043368
24302000,0.0324,0.013523,0.002678,0.000431,0.057354
24303000,0.0324,0.013523,0.002678,0.000431,0.090732
24304000,0.0324,0.013523,0.002678,0.000431,0.049244
24305000,0.0324,0.013523,0.002678,0.000431,0.056296
24306000,0.0324,0.013523,0.002678,0.000431,0.049714
24307000,0.0324,0.013523,0.002678,0.000431,0.054063
24308000,0.0324,0.013523,0.002678,0.000431,0.075923
24309000,0.0324,0.013523,0.002678,0.000431,0.061820
24310000,0.0324,0.013523,0.002678,0.000431,0.084973
24311000,0.0324,0.013523,0.002678,0.000431,0.041487
24312000,0.0324,0.013523,0.002678,0.000431,0.048892
24313000,0.0324,0.013523,0.002678,0.000431,0.085678
24314000,0.0324,0.013523,0.002678,0.000431,0.041252
24315000,0.0324,0.013523,0.002678,0.000431,0.061467
24316000,0.0324,0.013523,0.002678,0.000431,0.080389
24317000,0.0324,0.013523,0.002678,0.000431,0.046776
24318000,0.0324,0.013523,0.002678,0.000431,0.040195
24319000,0.0324,0.013523,0.002678,0.000431,0.063348
24320000,0.0324,0.013523,0.002678,0.000431,0.087323
24321000,0.0324,0.013523,0.002678,0.000431,0.115295
24322000,0.0324,0.013523,0.002678,0.000431,0.100016
24323000,0.0324,0.013523,0.002678,0.000431,0.090967
24324000,0.0324,0.013523,0.002678,0.000431,0.153022
24325000,0.0324,0.013523,0.002678,0.000431,0.081682
24326000,0.0324,0.013523,0.002678,0.000431,0.103307
24327000,0.0324,0.013523,0.002678,0.000431,0.109889
24328000,0.0324,0.013523,0.002678,0.000431,0.060292
24329000,0.0324,0.013523,0.002678,0.000431,0.071457
24330000,0.0324,0.013523,0.002678,0.000431,0.052418
24331000,0.0324,0.013523,0.002678,0.000431,0.074983
24332000,0.0324,0.013523,0.002678,0.000431,0.041017
24333000,0.0324,0.013523,0.002678,0.000431,0.076981
24334000,0.0324,0.013523,0.002678,0.000431,0.053828
24335000,0.0324,0.013523,0.002678,0.000431,0.060057
24336000,0.0324,0.013523,0.002678,0.000431,0.066638
24337000,0.0324,0.013523,0.002678,0.000431,0.051007
24338000,0.0324,0.013523,0.002678,0.000431,0.036786
24339000,0.0324,0.013523,0.002678,0.000431,0.041017
24340000,0.0324,0.013523,0.002678,0.000431,0.048539
24341000,0.0324,0.013523,0.002678,0.000431,0.042075
24342000,0.0324,0.013523,0.002678,0.000431,0.142444
24343000,0.0324,0.013523,0.002678,0.000431,0.062055
24344000,0.0324,0.013523,0.002678,0.000431,0.090967
24345000,0.0324,0.013523,0.002678,0.000431,0.037727
24346000,0.0324,0.013523,0.002678,0.000431,0.045013
24347000,0.0324,0.013523,0.002678,0.000431,0.060409
24348000,0.0324,0.013523,0.002678,0.000431,0.070752
24349000,0.0324,0.013523,0.002678,0.000431,0.075806
24350000,0.0324,0.013523,0.002678,0.000431,0.056766
24351000,0.0324,0.013523,0.002678,0.000431,0.135040
24352000,0.0324,0.013523,0.002678,0.000431,0.073573
24353000,0.0324,0.013523,0.002678,0.000431,0.062407
24354000,0.0324,0.013523,0.002678,0.000431,0.079214
24355000,0.0324,0.013523,0.002678,0.000431,0.064288
24356000,0.0324,0.013523,0.002678,0.000431,0.055003
24357000,0.0324,0.013523,0.002678,0.000431,0.067696
24358000,0.0324,0.013523,0.002678,0.000431,0.047834
24359000,0.0324,0.013523,0.002678,0.000431,0.071927
24360000,0.0324,0.013523,0.002678,0.000431,0.037256
24361000,0.0324,0.013523,0.002678,0.000431,0.068166
24362000,0.0324,0.013523,0.002678,0.000431,0.063348
24363000,0.0324,0.013523,0.002678,0.000431,0.048422
24364000,0.0324,0.013523,0.002678,0.000431,0.041958
24365000,0.0324,0.013523,0.002678,0.000431,0.049362
24366000,0.0324,0.013523,0.002678,0.000431,0.049597
24367000,0.0324,0.013523,0.002678,0.000431,0.073573
24368000,0.0324,0.013523,0.002678,0.000431,0.079096
24369000,0.0324,0.013523,0.002678,0.000431,0.052183
24370000,0.0324,0.013523,0.002678,0.000431,0.073220
24371000,0.0324,0.013523,0.002678,0.000431,0.074278
24372000,0.0324,0.013523,0.002678,0.000431,0.087323
24373000,0.0324,0.013523,0.002678,0.000431,0.063230
24374000,0.0324,0.013523,0.002678,0.000431,0.063465
24375000,0.0324,0.013523,0.002678,0.000431,0.056178
24376000,0.0324,0.013523,0.002678,0.000431,0.065581
24377000,0.0324,0.013523,0.002678,0.000431,0.037491
24378000,0.0324,0.013523,0.002678,0.000431,0.074043
24379000,0.0324,0.013523,0.002678,0.000431,0.058647
24380000,0.0324,0.013523,0.002678,0.000431,0.086266
24381000,0.0324,0.013523,0.002678,0.000431,0.072397
24382000,0.0324,0.013523,0.002678,0.000431,0.038549
24383000,0.0324,0.013523,0.002678,0.000431,0.081565
24384000,0.0324,0.013523,0.002678,0.000431,0.070517
24385000,0.0324,0.013523,0.002678,0.000431,0.180288
24386000,0.0324,0.013523,0.002678,0.000431,0.136685
24387000,0.0324,0.013523,0.002678,0.000431,0.056414
24388000,0.0324,0.013523,0.002678,0.000431,0.041605
24389000,0.0324,0.013523,0.002678,0.000431,0.052183
24390000,0.0324,0.013523,0.002678,0.000431,0.056766
24391000,0.0324,0.013523,0.002678,0.000431,0.058647
24392000,0.0324,0.013523,0.002678,0.000431,0.051007
24393000,0.0324,0.013523,0.002678,0.000431,0.060409
24394000,0.0324,0.013523,0.002678,0.000431,0.070047
24395000,0.0324,0.013523,0.002678,0.000431,0.045836
24396000,0.0324,0.013523,0.002678,0.000431,0.052418
24397000,0.0324,0.013523,0.002678,0.000431,0.036904
24398000,0.0324,0.013523,0.002678,0.000431,0.044661
24399000,0.0324,0.013523,0.002678,0.000431,0.119174
24400000,0.0324,0.013523,0.002678,0.000431,0.107773
24401000,0.0324,0.013523,0.002678,0.000431,0.063348
24402000,0.0324,0.013523,0.002678,0.000431,0.053828
24403000,0.0324,0.013523,0.002678,0.000431,0.049244
24404000,0.0324,0.013523,0.002678,0.000431,0.090144
24405000,0.0324,0.013523,0.002678,0.000431,0.050772
24406000,0.0324,0.013523,0.002678,0.000431,0.069694
24407000,0.0324,0.013523,0.002678,0.000431,0.048187
24408000,0.0324,0.013523,0.002678,0.000431,0.037491
24409000,0.0324,0.013523,0.002678,0.000431,0.084033
24410000,0.0324,0.013523,0.002678,0.000431,0.044191
24411000,0.0324,0.013523,0.002678,0.000431,0.038902
24412000,0.0324,0.013523,0.002678,0.000431,0.041370
24413000,0.0324,0.013523,0.002678,0.000431,0.049009
24414000,0.0324,0.013523,0.002678,0.000431,0.043838
24415000,0.0324,0.013523,0.002678,0.000431,0.025856
24416000,0.0324,0.013523,0.002678,0.000431,0.062995
24417000,0.0324,0.013523,0.002678,0.000431,0.025856
24418000,0.0324,0.013523,0.002678,0.000431,0.031380
24419000,0.0324,0.013523,0.002678,0.000431,0.071457
24420000,0.0324,0.013523,0.002678,0.000431,0.055943
24421000,0.0324,0.013523,0.002678,0.000431,0.046071
24422000,0.0324,0.013523,0.002678,0.000431,0.029147
24423000,0.0324,0.013523,0.002678,0.000431,0.042075
24424000,0.0324,0.013523,0.002678,0.000431,0.025974
24425000,0.0324,0.013523,0.002678,0.000431,0.044191
24426000,0.0324,0.013523,0.002678,0.000431,0.029970
24427000,0.0324,0.013523,0.002678,0.000431,0.026796
24428000,0.0324,0.013523,0.002678,0.000431,0.026914
24429000,0.0324,0.013523,0.002678,0.000431,0.026914
24430000,0.0324,0.013523,0.002678,0.000431,0.026914
24431000,0.0324,0.013523,0.002678,0.000431,0.060762
24432000,0.0324,0.013523,0.002678,0.000431,0.060762
24433000,0.0324,0.013523,0.002678,0.000431,0.029617
24434000,0.0324,0.013523,0.002678,0.000431,0.072045
24435000,0.0324,0.013523,0.002678,0.000431,0.030557
24436000,0.0324,0.013523,0.002678,0.000431,0.026914
24437000,0.0324,0.013523,0.002678,0.000431,0.030322
24438000,0.0324,0.013523,0.002678,0.000431,0.039607
24439000,0.0324,0.013523,0.002678,0.000431,0.111064
24440000,0.0324,0.013523,0.002678,0.000431,0.047599
24441000,0.0324,0.013523,0.002678,0.000431,0.029382
24442000,0.0324,0.013523,0.002678,0.000431,0.029382
24443000,0.0324,0.013523,0.002678,0.000431,0.032555
24444000,0.0324,0.013523,0.002678,0.000431,0.028089
24445000,0.0324,0.013523,0.002678,0.000431,0.043603
24446000,0.0324,0.013523,0.002678,0.000431,0.075101
24447000,0.0324,0.013523,0.002678,0.000431,0.099546
24448000,0.0324,0.013523,0.002678,0.000431,0.031380
24449000,0.0324,0.013523,0.002678,0.000431,0.024681
24450000,0.0324,0.013523,0.002678,0.000431,0.042663
24451000,0.0324,0.013523,0.002678,0.000431,0.051477
24452000,0.0324,0.013523,0.002678,0.000431,0.046071
24453000,0.0324,0.013523,0.002678,0.000431,0.048422
24454000,0.0324,0.013523,0.002678,0.000431,0.035846
24455000,0.0324,0.013523,0.002678,0.000431,0.039254
24456000,0.0324,0.013523,0.002678,0.000431,0.025504
24457000,0.0324,0.013523,0.002678,0.000431,0.040430
24458000,0.0324,0.013523,0.002678,0.000431,0.053240
24459000,0.0324,0.013523,0.002678,0.000431,0.043603
24460000,0.0324,0.013523,0.002678,0.000431,0.073808
24461000,0.0324,0.013523,0.002678,0.000431,0.039842
24462000,0.0324,0.013523,0.002678,0.000431,0.024916
24463000,0.0324,0.013523,0.002678,0.000431,0.040782
24464000,0.0324,0.013523,0.002678,0.000431,0.028089
24465000,0.0324,0.013523,0.002678,0.000431,0.060762
24466000,0.0324,0.013523,0.002678,0.000431,0.027267
24467000,0.0324,0.013523,0.002678,0.000431,0.030792
24468000,0.0324,0.013523,0.002678,0.000431,0.075688
24469000,0.0324,0.013523,0.002678,0.000431,0.017277
24470000,0.0324,0.013523,0.002678,0.000431,0.070517
24471000,0.0324,0.013523,0.002678,0.000431,0.034436
24472000,0.0324,0.013523,0.002678,0.000431,0.051007
24473000,0.0324,0.013523,0.002678,0.000431,0.097431
24474000,0.0324,0.013523,0.002678,0.000431,0.054063
24475000,0.0324,0.013523,0.002678,0.000431,0.248455
24476000,0.0324,0.013523,0.002678,0.000431,0.182286
24477000,0.0324,0.013523,0.002678,0.000431,0.036316
24478000,0.0324,0.013523,0.002678,0.000431,0.020450
24479000,0.0324,0.013523,0.002678,0.000431,0.012693
24480000,0.0324,0.013523,0.002678,0.000431,0.133394
24481000,0.0324,0.013523,0.002678,0.000431,0.034788
24482000,0.0324,0.013523,0.002678,0.000431,0.022800
24483000,0.0324,0.013523,0.002678,0.000431,0.133512
24484000,0.0324,0.013523,0.002678,0.000431,0.166772
24485000,0.0324,0.013523,0.002678,0.000431,0.012928
24486000,0.0324,0.013523,0.002678,0.000431,0.020450
24487000,0.0324,0.013523,0.002678,0.000431,0.088146
24488000,0.0324,0.013523,0.002678,0.000431,0.138331
24489000,0.0324,0.013523,0.002678,0.000431,0.215664
24490000,0.0324,0.013523,0.002678,0.000431,0.068989
24491000,0.0324,0.013523,0.002678,0.000431,0.077686
24492000,0.0324,0.013523,0.002678,0.000431,0.019627
24493000,0.0324,0.013523,0.002678,0.000431,0.039019
24494000,0.0324,0.013523,0.002678,0.000431,0.014573
24495000,0.0324,0.013523,0.002678,0.000431,0.014691
24496000,0.0324,0.013523,0.002678,0.000431,0.047951
24497000,0.0324,0.013523,0.002678,0.000431,0.035494
24498000,0.0324,0.013523,0.002678,0.000431,0.012928
24499000,0.0324,0.013523,0.002678,0.000431,0.029029
24500000,0.0324,0.013523,0.002678,0.000431,0.022448
24501000,0.0324,0.013523,0.002678,0.000431,0.012693
24502000,0.0324,0.013523,0.002678,0.000431,0.031498
24503000,0.0324,0.013523,0.002678,0.000431,0.024211
24504000,0.0324,0.013523,0.002678,0.000431,0.020685
24505000,0.0324,0.013523,0.002678,0.000431,0.012105
24506000,0.0324,0.013523,0.002678,0.000431,0.011753
24507000,0.0324,0.013523,0.002678,0.000431,0.029500
24508000,0.0324,0.013523,0.002678,0.000431,0.015396
24509000,0.0324,0.013523,0.002678,0.000431,0.022918
24510000,0.0324,0.013523,0.002678,0.000431,0.026796
24511000,0.0324,0.013523,0.002678,0.000431,0.030440
24512000,0.0324,0.013523,0.002678,0.000431,0.026679
24513000,0.0324,0.013523,0.002678,0.000431,0.011635
24514000,0.0324,0.013523,0.002678,0.000431,0.011753
24515000,0.0324,0.013523,0.002678,0.000431,0.011518
24516000,0.0324,0.013523,0.002678,0.000431,0.026326
24517000,0.0324,0.013523,0.002678,0.000431,0.019040
24518000,0.0324,0.013523,0.002678,0.000431,0.036904
24519000,0.0324,0.013523,0.002678,0.000431,0.030557
24520000,0.0324,0.013523,0.002678,0.000431,0.034318
24521000,0.0324,0.013523,0.002678,0.000431,0.011635
24522000,0.0324,0.013523,0.002678,0.000431,0.011635
24523000,0.0324,0.013523,0.002678,0.000431,0.034671
24524000,0.0324,0.013523,0.002678,0.000431,0.012928
24525000,0.0324,0.013523,0.002678,0.000431,0.012811
24526000,0.0324,0.013523,0.002678,0.000431,0.020332
24527000,0.0324,0.013523,0.002678,0.000431,0.019862
24528000,0.0324,0.013523,0.002678,0.000431,0.026796
24529000,0.0324,0.013523,0.002678,0.000431,0.034083
24530000,0.0324,0.013523,0.002678,0.000431,0.010695
24531000,0.0324,0.013523,0.002678,0.000431,0.010578
24532000,0.0324,0.013523,0.002678,0.000431,0.010578
24533000,0.0324,0.013523,0.002678,0.000431,0.025621
24534000,0.0324,0.013523,0.002678,0.000431,0.010578
24535000,0.0324,0.013523,0.002678,0.000431,0.025621
24536000,0.0324,0.013523,0.002678,0.000431,0.010578
24537000,0.0324,0.013523,0.002678,0.000431,0.010578
24538000,0.0324,0.013523,0.002678,0.000431,0.024563
24539000,0.0324,0.013523,0.002678,0.000431,0.047011
24540000,0.0324,0.013523,0.002678,0.000431,0.009285
24541000,0.0324,0.013523,0.002678,0.000431,0.031380
24542000,0.0324,0.013523,0.002678,0.000431,0.012693
24543000,0.0324,0.013523,0.002678,0.000431,0.013163
24544000,0.0324,0.013523,0.002678,0.000431,0.016571
24545000,0.0324,0.013523,0.002678,0.000431,0.008227
24546000,0.0324,0.013523,0.002678,0.000431,0.023271
24547000,0.0324,0.013523,0.002678,0.000431,0.019275
24548000,0.0324,0.013523,0.002678,0.000431,0.094728
24549000,0.0324,0.013523,0.002678,0.000431,0.014691
24550000,0.0324,0.013523,0.002678,0.000431,0.007052
24551000,0.0324,0.013523,0.002678,0.000431,0.007052
24552000,0.0324,0.013523,0.002678,0.000431,0.029617
24553000,0.0324,0.013523,0.002678,0.000431,0.007052
24554000,0.0324,0.013523,0.002678,0.000431,0.021860
24555000,0.0324,0.013523,0.002678,0.000431,0.056061
24556000,0.0324,0.013523,0.002678,0.000431,0.032790
24557000,0.0324,0.013523,0.002678,0.000431,0.007052
24558000,0.0324,0.013523,0.002678,0.000431,0.007052
24559000,0.0324,0.013523,0.002678,0.000431,0.007052
24560000,0.0324,0.013523,0.002678,0.000431,0.006817
24561000,0.0324,0.013523,0.002678,0.000431,0.149496
24562000,0.0324,0.013523,0.002678,0.000431,0.104835
24563000,0.0324,0.013523,0.002678,0.000431,0.007052
24564000,0.0324,0.013523,0.002678,0.000431,0.006934
24565000,0.0324,0.013523,0.002678,0.000431,0.021978
24566000,0.0324,0.013523,0.002678,0.000431,0.022095
24567000,0.0324,0.013523,0.002678,0.000431,0.013751
24568000,0.0324,0.013523,0.002678,0.000431,0.051007
24569000,0.0324,0.013523,0.002678,0.000431,0.058529
24570000,0.0324,0.013523,0.002678,0.000431,0.008109
24571000,0.0324,0.013523,0.002678,0.000431,0.025386
24572000,0.0324,0.013523,0.002678,0.000431,0.015631
24573000,0.0324,0.013523,0.002678,0.000431,0.020920
24574000,0.0324,0.013523,0.002678,0.000431,0.013398
24575000,0.0324,0.013523,0.002678,0.000431,0.005524
24576000,0.0324,0.013523,0.002678,0.000431,0.005759
24577000,0.0324,0.013523,0.002678,0.000431,0.005876
24578000,0.0324,0.013523,0.002678,0.000431,0.013398
24579000,0.0324,0.013523,0.002678,0.000431,0.051007
24580000,0.0324,0.013523,0.002678,0.000431,0.028324
24581000,0.0324,0.013523,0.002678,0.000431,0.009402
24582000,0.0324,0.013523,0.002678,0.000431,0.008462
24583000,0.0324,0.013523,0.002678,0.000431,0.004701
24584000,0.0324,0.013523,0.002678,0.000431,0.013751
24585000,0.0324,0.013523,0.002678,0.000431,0.019510
24586000,0.0324,0.013523,0.002678,0.000431,0.006464
24587000,0.0324,0.013523,0.002678,0.000431,0.004701
24588000,0.0324,0.013523,0.002678,0.000431,0.004701
24589000,0.0324,0.013523,0.002678,0.000431,0.004701
24590000,0.0324,0.013523,0.002678,0.000431,0.008462
24591000,0.0324,0.013523,0.002678,0.000431,0.015984
24592000,0.0324,0.013523,0.002678,0.000431,0.007757
24593000,0.0324,0.013523,0.002678,0.000431,0.004701
24594000,0.0324,0.013523,0.002678,0.000431,0.015279
24595000,0.0324,0.013523,0.002678,0.000431,0.004584
24596000,0.0324,0.013523,0.002678,0.000431,0.004349
24597000,0.0324,0.013523,0.002678,0.000431,0.012223
24598000,0.0324,0.013523,0.002678,0.000431,0.019745
24599000,0.0324,0.013523,0.002678,0.000431,0.004701
24600000,0.0324,0.013523,0.002678,0.000431,0.009167
24601000,0.0324,0.013523,0.002678,0.000431,0.004701
24602000,0.0324,0.013523,0.002678,0.000431,0.087794
24603000,0.0324,0.013523,0.002678,0.000431,0.034436
24604000,0.0324,0.013523,0.002678,0.000431,0.022448
24605000,0.0324,0.013523,0.002678,0.000431,0.009520
24606000,0.0324,0.013523,0.002678,0.000431,0.016924
24607000,0.0324,0.013523,0.002678,0.000431,0.007522
24608000,0.0324,0.013523,0.002678,0.000431,0.004701
24609000,0.0324,0.013523,0.002678,0.000431,0.027267
24610000,0.0324,0.013523,0.002678,0.000431,0.004701
24611000,0.0324,0.013523,0.002678,0.000431,0.004701
24612000,0.0324,0.013523,0.002678,0.000431,0.009167
24613000,0.0324,0.013523,0.002678,0.000431,0.004701
24614000,0.0324,0.013523,0.002678,0.000431,0.004701
24615000,0.0324,0.013523,0.002678,0.000431,0.008932
24616000,0.0324,0.013523,0.002678,0.000431,0.004466
24617000,0.0324,0.013523,0.002678,0.000431,0.004701
24618000,0.0324,0.013523,0.002678,0.000431,0.004701
24619000,0.0324,0.013523,0.002678,0.000431,0.005289
24620000,0.0324,0.013523,0.002678,0.000431,0.011635
24621000,0.0324,0.013523,0.002678,0.000431,0.015044
24622000,0.0324,0.013523,0.002678,0.000431,0.004701
24623000,0.0324,0.013523,0.002678,0.000431,0.004701
24624000,0.0324,0.013523,0.002678,0.000431,0.004701
24625000,0.0324,0.013523,0.002678,0.000431,0.039489
24626000,0.0324,0.013523,0.002678,0.000431,0.098254
24627000,0.0324,0.013523,0.002678,0.000431,0.022330
24628000,0.0324,0.013523,0.002678,0.000431,0.004701
24629000,0.0324,0.013523,0.002678,0.000431,0.016336
24630000,0.0324,0.013523,0.002678,0.000431,0.004819
24631000,0.0324,0.013523,0.002678,0.000431,0.004701
24632000,0.0324,0.013523,0.002678,0.000431,0.004701
24633000,0.0324,0.013523,0.002678,0.000431,0.004701
24634000,0.0324,0.013523,0.002678,0.000431,0.007404
24635000,0.0324,0.013523,0.002678,0.000431,0.004936
24636000,0.0324,0.013523,0.002678,0.000431,0.022565
24637000,0.0324,0.013523,0.002678,0.000431,0.004584
24638000,0.0324,0.013523,0.002678,0.000431,0.019745
24639000,0.0324,0.013523,0.002678,0.000431,0.019745
24640000,0.0324,0.013523,0.002678,0.000431,0.091672
24641000,0.0324,0.013523,0.002678,0.000431,0.004701
24642000,0.0324,0.013523,0.002678,0.000431,0.004701
24643000,0.0324,0.013523,0.002678,0.000431,0.004701
24644000,0.0324,0.013523,0.002678,0.000431,0.004701
24645000,0.0324,0.013523,0.002678,0.000431,0.031733
24646000,0.0324,0.013523,0.002678,0.000431,0.011635
24647000,0.0324,0.013523,0.002678,0.000431,0.008345
24648000,0.0324,0.013523,0.002678,0.000431,0.031733
24649000,0.0324,0.013523,0.002678,0.000431,0.004701
24650000,0.0324,0.013523,0.002678,0.000431,0.007757
24651000,0.0324,0.013523,0.002678,0.000431,0.031498
24652000,0.0324,0.013523,0.002678,0.000431,0.064876
24653000,0.0324,0.013523,0.002678,0.000431,0.093200
24654000,0.0324,0.013523,0.002678,0.000431,0.044308
24655000,0.0324,0.013523,0.002678,0.000431,0.049362
24656000,0.0324,0.013523,0.002678,0.000431,0.085561
24657000,0.0324,0.013523,0.002678,0.000431,0.081800
24658000,0.0324,0.013523,0.002678,0.000431,0.060057
24659000,0.0324,0.013523,0.002678,0.000431,0.004819
24660000,0.0324,0.013523,0.002678,0.000431,0.009755
24661000,0.0324,0.013523,0.002678,0.000431,0.091554
24662000,0.0324,0.013523,0.002678,0.000431,0.122817
24663000,0.0324,0.013523,0.002678,0.000431,0.004584
24664000,0.0324,0.013523,0.002678,0.000431,0.004584
24665000,0.0324,0.013523,0.002678,0.000431,0.114590
24666000,0.0324,0.013523,0.002678,0.000431,0.022565
24667000,0.0324,0.013523,0.002678,0.000431,0.034788
24668000,0.0324,0.013523,0.002678,0.000431,0.027267
24669000,0.0324,0.013523,0.002678,0.000431,0.004701
24670000,0.0324,0.013523,0.002678,0.000431,0.004701
24671000,0.0324,0.013523,0.002678,0.000431,0.004701
24672000,0.0324,0.013523,0.002678,0.000431,0.034788
24673000,0.0324,0.013523,0.002678,0.000431,0.004701
24674000,0.0324,0.013523,0.002678,0.000431,0.147380
24675000,0.0324,0.013523,0.002678,0.000431,0.004701
24676000,0.0324,0.013523,0.002678,0.000431,0.004701
24677000,0.0324,0.013523,0.002678,0.000431,0.004701
24678000,0.0324,0.013523,0.002678,0.000431,0.051947
24679000,0.0324,0.013523,0.002678,0.000431,0.010107
24680000,0.0324,0.013523,0.002678,0.000431,0.017512
24681000,0.0324,0.013523,0.002678,0.000431,0.073455
24682000,0.0324,0.013523,0.002678,0.000431,0.013398
24683000,0.0324,0.013523,0.002678,0.000431,0.004701
24684000,0.0324,0.013523,0.002678,0.000431,0.004701
24685000,0.0324,0.013523,0.002678,0.000431,0.064876
24686000,0.0324,0.013523,0.002678,0.000431,0.004466
24687000,0.0324,0.013523,0.002678,0.000431,0.072867
24688000,0.0324,0.013523,0.002678,0.000431,0.019275
24689000,0.0324,0.013523,0.002678,0.000431,0.004701
24690000,0.0324,0.013523,0.002678,0.000431,0.004701
24691000,0.0324,0.013523,0.002678,0.000431,0.015984
24692000,0.0324,0.013523,0.002678,0.000431,0.023506
24693000,0.0324,0.013523,0.002678,0.000431,0.004701
24694000,0.0324,0.013523,0.002678,0.000431,0.049362
24695000,0.0324,0.013523,0.002678,0.000431,0.005171
24696000,0.0324,0.013523,0.002678,0.000431,0.004701
24697000,0.0324,0.013523,0.002678,0.000431,0.004701
24698000,0.0324,0.013523,0.002678,0.000431,0.004701
24699000,0.0324,0.013523,0.002678,0.000431,0.004701
24700000,0.0324,0.013523,0.002678,0.000431,0.004936
24701000,0.0324,0.013523,0.002678,0.000431,0.139623
24702000,0.0324,0.013523,0.002678,0.000431,0.004584
24703000,0.0324,0.013523,0.002678,0.000431,0.004584
24704000,0.0324,0.013523,0.002678,0.000431,0.008462
24705000,0.0324,0.013523,0.002678,0.000431,0.008462
24706000,0.0324,0.013523,0.002678,0.000431,0.004701
24707000,0.0324,0.013523,0.002678,0.000431,0.037727
24708000,0.0324,0.013523,0.002678,0.000431,0.061937
24709000,0.0324,0.013523,0.002678,0.000431,0.004701
24710000,0.0324,0.013523,0.002678,0.000431,0.004701
24711000,0.0324,0.013523,0.002678,0.000431,0.004701
24712000,0.0324,0.013523,0.002678,0.000431,0.004701
24713000,0.0324,0.013523,0.002678,0.000431,0.015984
24714000,0.0324,0.013523,0.002678,0.000431,0.038432
24715000,0.0324,0.013523,0.002678,0.000431,0.004584
24716000,0.0324,0.013523,0.002678,0.000431,0.004701
24717000,0.0324,0.013523,0.002678,0.000431,0.004701
24718000,0.0324,0.013523,0.002678,0.000431,0.004701
24719000,0.0324,0.013523,0.002678,0.000431,0.004701
24720000,0.0324,0.013523,0.002678,0.000431,0.013281
24721000,0.0324,0.013523,0.002678,0.000431,0.018687
24722000,0.0324,0.013523,0.002678,0.000431,0.004701
24723000,0.0324,0.013523,0.002678,0.000431,0.004584
24724000,0.0324,0.013523,0.002678,0.000431,0.027149
24725000,0.0324,0.013523,0.002678,0.000431,0.004701
24726000,0.0324,0.013523,0.002678,0.000431,0.004466
24727000,0.0324,0.013523,0.002678,0.000431,0.087441
24728000,0.0324,0.013523,0.002678,0.000431,0.004701
24729000,0.0324,0.013523,0.002678,0.000431,0.004701
24730000,0.0324,0.013523,0.002678,0.000431,0.004701
24731000,0.0324,0.013523,0.002678,0.000431,0.004701
24732000,0.0324,0.013523,0.002678,0.000431,0.004701
24733000,0.0324,0.013523,0.002678,0.000431,0.019745
24734000,0.0324,0.013523,0.002678,0.000431,0.012223
24735000,0.0324,0.013523,0.002678,0.000431,0.004701
24736000,0.0324,0.013523,0.002678,0.000431,0.004701
24737000,0.0324,0.013523,0.002678,0.000431,0.027502
24738000,0.0324,0.013523,0.002678,0.000431,0.004701
24739000,0.0324,0.013523,0.002678,0.000431,0.004701
24740000,0.0324,0.013523,0.002678,0.000431,0.172061
24741000,0.0324,0.013523,0.002678,0.000431,0.062525
24742000,0.0324,0.013523,0.002678,0.000431,0.004701
24743000,0.0324,0.013523,0.002678,0.000431,0.004701
24744000,0.0324,0.013523,0.002678,0.000431,0.087676
24745000,0.0324,0.013523,0.002678,0.000431,0.004701
24746000,0.0324,0.013523,0.002678,0.000431,0.027267
24747000,0.0324,0.013523,0.002678,0.000431,0.087676
24748000,0.0324,0.013523,0.002678,0.000431,0.004701
24749000,0.0324,0.013523,0.002678,0.000431,0.004701
24750000,0.0324,0.013523,0.002678,0.000431,0.021155
24751000,0.0324,0.013523,0.002678,0.000431,0.104365
24752000,0.0324,0.013523,0.002678,0.000431,0.004701
24753000,0.0324,0.013523,0.002678,0.000431,0.115648
24754000,0.0324,0.013523,0.002678,0.000431,0.041723
24755000,0.0324,0.013523,0.002678,0.000431,0.045013
24756000,0.0324,0.013523,0.002678,0.000431,0.004701
24757000,0.0324,0.013523,0.002678,0.000431,0.004701
24758000,0.0324,0.013523,0.002678,0.000431,0.004701
24759000,0.0324,0.013523,0.002678,0.000431,0.004701
24760000,0.0324,0.013523,0.002678,0.000431,0.080389
24761000,0.0324,0.013523,0.002678,0.000431,0.050067
24762000,0.0324,0.013523,0.002678,0.000431,0.004701
24763000,0.0324,0.013523,0.002678,0.000431,0.004701
24764000,0.0324,0.013523,0.002678,0.000431,0.004701
24765000,0.0324,0.013523,0.002678,0.000431,0.004701
24766000,0.0324,0.013523,0.002678,0.000431,0.030440
24767000,0.0324,0.013523,0.002678,0.000431,0.091790
24768000,0.0324,0.013523,0.002678,0.000431,0.019745
24769000,0.0324,0.013523,0.002678,0.000431,0.008932
24770000,0.0324,0.013523,0.002678,0.000431,0.004584
24771000,0.0324,0.013523,0.002678,0.000431,0.004584
24772000,0.0324,0.013523,0.002678,0.000431,0.004701
24773000,0.0324,0.013523,0.002678,0.000431,0.058647
24774000,0.0324,0.013523,0.002678,0.000431,0.044543
24775000,0.0324,0.013523,0.002678,0.000431,0.004701
24776000,0.0324,0.013523,0.002678,0.000431,0.019745
24777000,0.0324,0.013523,0.002678,0.000431,0.004701
24778000,0.0324,0.013523,0.002678,0.000431,0.004701
24779000,0.0324,0.013523,0.002678,0.000431,0.008932
24780000,0.0324,0.013523,0.002678,0.000431,0.027267
24781000,0.0324,0.013523,0.002678,0.000431,0.053358
24782000,0.0324,0.013523,0.002678,0.000431,0.004701
24783000,0.0324,0.013523,0.002678,0.000431,0.013868
24784000,0.0324,0.013523,0.002678,0.000431,0.078509
24785000,0.0324,0.013523,0.002678,0.000431,0.052183
24786000,0.0324,0.013523,0.002678,0.000431,0.140329
24787000,0.0324,0.013523,0.002678,0.000431,0.012458
24788000,0.0324,0.013523,0.002678,0.000431,0.004701
24789000,0.0324,0.013523,0.002678,0.000431,0.004701
24790000,0.0324,0.013523,0.002678,0.000431,0.006111
24791000,0.0324,0.013523,0.002678,0.000431,0.021625
24792000,0.0324,0.013523,0.002678,0.000431,0.004701
24793000,0.0324,0.013523,0.002678,0.000431,0.064876
24794000,0.0324,0.013523,0.002678,0.000431,0.004701
24795000,0.0324,0.013523,0.002678,0.000431,0.004701
24796000,0.0324,0.013523,0.002678,0.000431,0.042310
24797000,0.0324,0.013523,0.002678,0.000431,0.054063
24798000,0.0324,0.013523,0.002678,0.000431,0.019980
24799000,0.0324,0.013523,0.002678,0.000431,0.009990
24800000,0.0324,0.013523,0.002678,0.000431,0.009990
24801000,0.0324,0.013523,0.002678,0.000431,0.004701
24802000,0.0324,0.013523,0.002678,0.000431,0.008462
24803000,0.0324,0.013523,0.002678,0.000431,0.023506
24804000,0.0324,0.013523,0.002678,0.000431,0.034788
24805000,0.0324,0.013523,0.002678,0.000431,0.018099
24806000,0.0324,0.013523,0.002678,0.000431,0.013868
24807000,0.0324,0.013523,0.002678,0.000431,0.038784
24808000,0.0324,0.013523,0.002678,0.000431,0.004701
24809000,0.0324,0.013523,0.002678,0.000431,0.085208
24810000,0.0324,0.013523,0.002678,0.000431,0.059469
24811000,0.0324,0.013523,0.002678,0.000431,0.004584
24812000,0.0324,0.013523,0.002678,0.000431,0.022683
24813000,0.0324,0.013523,0.002678,0.000431,0.080742
24814000,0.0324,0.013523,0.002678,0.000431,0.012223
24815000,0.0324,0.013523,0.002678,0.000431,0.004701
24816000,0.0324,0.013523,0.002678,0.000431,0.089674
24817000,0.0324,0.013523,0.002678,0.000431,0.055121
24818000,0.0324,0.013523,0.002678,0.000431,0.004701
24819000,0.0324,0.013523,0.002678,0.000431,0.019745
24820000,0.0324,0.013523,0.002678,0.000431,0.027267
24821000,0.0324,0.013523,0.002678,0.000431,0.004701
24822000,0.0324,0.013523,0.002678,0.000431,0.008932
24823000,0.0324,0.013523,0.002678,0.000431,0.050067
24824000,0.0324,0.013523,0.002678,0.000431,0.004701
24825000,0.0324,0.013523,0.002678,0.000431,0.004936
24826000,0.0324,0.013523,0.002678,0.000431,0.008932
24827000,0.0324,0.013523,0.002678,0.000431,0.064641
24828000,0.0324,0.013523,0.002678,0.000431,0.012223
24829000,0.0324,0.013523,0.002678,0.000431,0.023741
24830000,0.0324,0.013523,0.002678,0.000431,0.012223
24831000,0.0324,0.013523,0.002678,0.000431,0.004701
24832000,0.0324,0.013523,0.002678,0.000431,0.019980
24833000,0.0324,0.013523,0.002678,0.000431,0.029500
24834000,0.0324,0.013523,0.002678,0.000431,0.009755
24835000,0.0324,0.013523,0.002678,0.000431,0.112945
24836000,0.0324,0.013523,0.002678,0.000431,0.102367
24837000,0.0324,0.013523,0.002678,0.000431,0.004701
24838000,0.0324,0.013523,0.002678,0.000431,0.004701
24839000,0.0324,0.013523,0.002678,0.000431,0.004701
24840000,0.0324,0.013523,0.002678,0.000431,0.019745
24841000,0.0324,0.013523,0.002678,0.000431,0.004701
24842000,0.0324,0.013523,0.002678,0.000431,0.075688
24843000,0.0324,0.013523,0.002678,0.000431,0.038079
24844000,0.0324,0.013523,0.002678,0.000431,0.004701
24845000,0.0324,0.013523,0.002678,0.000431,0.004701
24846000,0.0324,0.013523,0.002678,0.000431,0.203441
24847000,0.0324,0.013523,0.002678,0.000431,0.083563
24848000,0.0324,0.013523,0.002678,0.000431,0.004701
24849000,0.0324,0.013523,0.002678,0.000431,0.004701
24850000,0.0324,0.013523,0.002678,0.000431,0.004701
24851000,0.0324,0.013523,0.002678,0.000431,0.004701
24852000,0.0324,0.013523,0.002678,0.000431,0.084385
24853000,0.0324,0.013523,0.002678,0.000431,0.045131
24854000,0.0324,0.013523,0.002678,0.000431,0.004701
24855000,0.0324,0.013523,0.002678,0.000431,0.004701
24856000,0.0324,0.013523,0.002678,0.000431,0.004701
24857000,0.0324,0.013523,0.002678,0.000431,0.004701
24858000,0.0324,0.013523,0.002678,0.000431,0.004701
24859000,0.0324,0.013523,0.002678,0.000431,0.023506
24860000,0.0324,0.013523,0.002678,0.000431,0.015984
24861000,0.0324,0.013523,0.002678,0.000431,0.004701
24862000,0.0324,0.013523,0.002678,0.000431,0.004701
24863000,0.0324,0.013523,0.002678,0.000431,0.004701
24864000,0.0324,0.013523,0.002678,0.000431,0.004701
24865000,0.0324,0.013523,0.002678,0.000431,0.021978
24866000,0.0324,0.013523,0.002678,0.000431,0.062643
24867000,0.0324,0.013523,0.002678,0.000431,0.004349
24868000,0.0324,0.013523,0.002678,0.000431,0.004466
24869000,0.0324,0.013523,0.002678,0.000431,0.004584
24870000,0.0324,0.013523,0.002678,0.000431,0.004701
24871000,0.0324,0.013523,0.002678,0.000431,0.004701
24872000,0.0324,0.013523,0.002678,0.000431,0.104835
24873000,0.0324,0.013523,0.002678,0.000431,0.009872
24874000,0.0324,0.013523,0.002678,0.000431,0.004701
24875000,0.0324,0.013523,0.002678,0.000431,0.004701
24876000,0.0324,0.013523,0.002678,0.000431,0.004701
24877000,0.0324,0.013523,0.002678,0.000431,0.004701
24878000,0.0324,0.013523,0.002678,0.000431,0.004701
24879000,0.0324,0.013523,0.002678,0.000431,0.087323
24880000,0.0324,0.013523,0.002678,0.000431,0.004584
24881000,0.0324,0.013523,0.002678,0.000431,0.004701
24882000,0.0324,0.013523,0.002678,0.000431,0.004701
24883000,0.0324,0.013523,0.002678,0.000431,0.004701
24884000,0.0324,0.013523,0.002678,0.000431,0.004701
24885000,0.0324,0.013523,0.002678,0.000431,0.030087
24886000,0.0324,0.013523,0.002678,0.000431,0.077098
24887000,0.0324,0.013523,0.002678,0.000431,0.004701
24888000,0.0324,0.013523,0.002678,0.000431,0.004701
24889000,0.0324,0.013523,0.002678,0.000431,0.004701
24890000,0.0324,0.013523,0.002678,0.000431,0.004701
24891000,0.0324,0.013523,0.002678,0.000431,0.004701
24892000,0.0324,0.013523,0.002678,0.000431,0.064876
24893000,0.0324,0.013523,0.002678,0.000431,0.004701
24894000,0.0324,0.013523,0.002678,0.000431,0.004701
24895000,0.0324,0.013523,0.002678,0.000431,0.004701
24896000,0.0324,0.013523,0.002678,0.000431,0.004701
24897000,0.0324,0.013523,0.002678,0.000431,0.004701
24898000,0.0324,0.013523,0.002678,0.000431,0.008227
24899000,0.0324,0.013523,0.002678,0.000431,0.061115
24900000,0.0324,0.013523,0.002678,0.000431,0.004701
24901000,0.0324,0.013523,0.002678,0.000431,0.004701
24902000,0.0324,0.013523,0.002678,0.000431,0.004701
24903000,0.0324,0.013523,0.002678,0.000431,0.004701
24904000,0.0324,0.013523,0.002678,0.000431,0.004701
24905000,0.0324,0.013523,0.002678,0.000431,0.050772
24906000,0.0324,0.013523,0.002678,0.000431,0.026326
24907000,0.0324,0.013523,0.002678,0.000431,0.004466
24908000,0.0324,0.013523,0.002678,0.000431,0.004466
24909000,0.0324,0.013523,0.002678,0.000431,0.004701
24910000,0.0324,0.013523,0.002678,0.000431,0.004701
24911000,0.0324,0.013523,0.002678,0.000431,0.004701
24912000,0.0324,0.013523,0.002678,0.000431,0.069107
24913000,0.0324,0.013523,0.002678,0.000431,0.015514
24914000,0.0324,0.013523,0.002678,0.000431,0.004701
24915000,0.0324,0.013523,0.002678,0.000431,0.004701
24916000,0.0324,0.013523,0.002678,0.000431,0.004701
24917000,0.0324,0.013523,0.002678,0.000431,0.004701
24918000,0.0324,0.013523,0.002678,0.000431,0.053593
24919000,0.0324,0.013523,0.002678,0.000431,0.053475
24920000,0.0324,0.013523,0.002678,0.000431,0.004584
24921000,0.0324,0.013523,0.002678,0.000431,0.004701
24922000,0.0324,0.013523,0.002678,0.000431,0.004701
24923000,0.0324,0.013523,0.002678,0.000431,0.004701
24924000,0.0324,0.013523,0.002678,0.000431,0.004701
24925000,0.0324,0.013523,0.002678,0.000431,0.072397
24926000,0.0324,0.013523,0.002678,0.000431,0.004701
24927000,0.0324,0.013523,0.002678,0.000431,0.004701
24928000,0.0324,0.013523,0.002678,0.000431,0.004701
24929000,0.0324,0.013523,0.002678,0.000431,0.004701
24930000,0.0324,0.013523,0.002678,0.000431,0.004701
24931000,0.0324,0.013523,0.002678,0.000431,0.040195
24932000,0.0324,0.013523,0.002678,0.000431,0.089556
24933000,0.0324,0.013523,0.002678,0.000431,0.004466
24934000,0.0324,0.013523,0.002678,0.000431,0.004701
24935000,0.0324,0.013523,0.002678,0.000431,0.004701
24936000,0.0324,0.013523,0.002678,0.000431,0.004701
24937000,0.0324,0.013523,0.002678,0.000431,0.004701
24938000,0.0324,0.013523,0.002678,0.000431,0.040430
24939000,0.0324,0.013523,0.002678,0.000431,0.029147
24940000,0.0324,0.013523,0.002678,0.000431,0.004701
24941000,0.0324,0.013523,0.002678,0.000431,0.004701
24942000,0.0324,0.013523,0.002678,0.000431,0.004701
24943000,0.0324,0.013523,0.002678,0.000431,0.004701
24944000,0.0324,0.013523,0.002678,0.000431,0.006111
24945000,0.0324,0.013523,0.002678,0.000431,0.153727
24946000,0.0324,0.013523,0.002678,0.000431,0.004701
24947000,0.0324,0.013523,0.002678,0.000431,0.004701
24948000,0.0324,0.013523,0.002678,0.000431,0.004466
24949000,0.0324,0.013523,0.002678,0.000431,0.004701
24950000,0.0324,0.013523,0.002678,0.000431,0.004701
24951000,0.0324,0.013523,0.002678,0.000431,0.048187
24952000,0.0324,0.013523,0.002678,0.000431,0.074043
24953000,0.0324,0.013523,0.002678,0.000431,0.004701
24954000,0.0324,0.013523,0.002678,0.000431,0.004701
24955000,0.0324,0.013523,0.002678,0.000431,0.004701
24956000,0.0324,0.013523,0.002678,0.000431,0.004701
24957000,0.0324,0.013523,0.002678,0.000431,0.004701
24958000,0.0324,0.013523,0.002678,0.000431,0.057354
24959000,0.0324,0.013523,0.002678,0.000431,0.004701
24960000,0.0324,0.013523,0.002678,0.000431,0.004466
24961000,0.0324,0.013523,0.002678,0.000431,0.004701
24962000,0.0324,0.013523,0.002678,0.000431,0.004701
24963000,0.0324,0.013523,0.002678,0.000431,0.004701
24964000,0.0324,0.013523,0.002678,0.000431,0.004701
24965000,0.0324,0.013523,0.002678,0.000431,0.012223
24966000,0.0324,0.013523,0.002678,0.000431,0.004701
24967000,0.0324,0.013523,0.002678,0.000431,0.004701
24968000,0.0324,0.013523,0.002678,0.000431,0.004701
24969000,0.0324,0.013523,0.002678,0.000431,0.004701
24970000,0.0324,0.013523,0.002678,0.000431,0.004701
24971000,0.0324,0.013523,0.002678,0.000431,0.068401
24972000,0.0324,0.013523,0.002678,0.000431,0.008462
24973000,0.0324,0.013523,0.002678,0.000431,0.004466
24974000,0.0324,0.013523,0.002678,0.000431,0.004701
24975000,0.0324,0.013523,0.002678,0.000431,0.004701
24976000,0.0324,0.013523,0.002678,0.000431,0.004701
24977000,0.0324,0.013523,0.002678,0.000431,0.018217
24978000,0.0324,0.013523,0.002678,0.000431,0.013751
24979000,0.0324,0.013523,0.002678,0.000431,0.004701
24980000,0.0324,0.013523,0.002678,0.000431,0.004701
24981000,0.0324,0.013523,0.002678,0.000431,0.004701
24982000,0.0324,0.013523,0.002678,0.000431,0.004701
24983000,0.0324,0.013523,0.002678,0.000431,0.004701
24984000,0.0324,0.013523,0.002678,0.000431,0.036434
24985000,0.0324,0.013523,0.002678,0.000431,0.040665
24986000,0.0324,0.013523,0.002678,0.000431,0.004701
24987000,0.0324,0.013523,0.002678,0.000431,0.004701
24988000,0.0324,0.013523,0.002678,0.000431,0.004466
24989000,0.0324,0.013523,0.002678,0.000431,0.004701
24990000,0.0324,0.013523,0.002678,0.000431,0.012223
24991000,0.0324,0.013523,0.002678,0.000431,0.042310
24992000,0.0324,0.013523,0.002678,0.000431,0.004701
24993000,0.0324,0.013523,0.002678,0.000431,0.004701
24994000,0.0324,0.013523,0.002678,0.000431,0.004701
24995000,0.0324,0.013523,0.002678,0.000431,0.004701
24996000,0.0324,0.013523,0.002678,0.000431,0.004701
24997000,0.0324,0.013523,0.002678,0.000431,0.051125
24998000,0.0324,0.013523,0.002678,0.000431,0.041017
24999000,0.0324,0.013523,0.002678,0.000431,0.004701
