Cycle,Area(mm^2),PeakDynamic(W),SubthresholdLeakage(W),GateLeakage(W),RunTimeDynamic(W)
30000000,0.0324,0.013523,0.002678,0.000431,0.004701
30001000,0.0324,0.013523,0.002678,0.000431,0.004701
30002000,0.0324,0.013523,0.002678,0.000431,0.004701
30003000,0.0324,0.013523,0.002678,0.000431,0.019745
30004000,0.0324,0.013523,0.002678,0.000431,0.004701
30005000,0.0324,0.013523,0.002678,0.000431,0.034788
30006000,0.0324,0.013523,0.002678,0.000431,0.004701
30007000,0.0324,0.013523,0.002678,0.000431,0.004701
30008000,0.0324,0.013523,0.002678,0.000431,0.004701
30009000,0.0324,0.013523,0.002678,0.000431,0.008345
30010000,0.0324,0.013523,0.002678,0.000431,0.008580
30011000,0.0324,0.013523,0.002678,0.000431,0.004701
30012000,0.0324,0.013523,0.002678,0.000431,0.064641
30013000,0.0324,0.013523,0.002678,0.000431,0.004701
30014000,0.0324,0.013523,0.002678,0.000431,0.004584
30015000,0.0324,0.013523,0.002678,0.000431,0.004584
30016000,0.0324,0.013523,0.002678,0.000431,0.012223
30017000,0.0324,0.013523,0.002678,0.000431,0.004701
30018000,0.0324,0.013523,0.002678,0.000431,0.080977
30019000,0.0324,0.013523,0.002678,0.000431,0.086618
30020000,0.0324,0.013523,0.002678,0.000431,0.004701
30021000,0.0324,0.013523,0.002678,0.000431,0.004584
30022000,0.0324,0.013523,0.002678,0.000431,0.012105
30023000,0.0324,0.013523,0.002678,0.000431,0.027502
30024000,0.0324,0.013523,0.002678,0.000431,0.004701
30025000,0.0324,0.013523,0.002678,0.000431,0.040077
30026000,0.0324,0.013523,0.002678,0.000431,0.029735
30027000,0.0324,0.013523,0.002678,0.000431,0.004701
30028000,0.0324,0.013523,0.002678,0.000431,0.004701
30029000,0.0324,0.013523,0.002678,0.000431,0.027267
30030000,0.0324,0.013523,0.002678,0.000431,0.057354
30031000,0.0324,0.013523,0.002678,0.000431,0.110829
30032000,0.0324,0.013523,0.002678,0.000431,0.063348
30033000,0.0324,0.013523,0.002678,0.000431,0.004701
30034000,0.0324,0.013523,0.002678,0.000431,0.004701
30035000,0.0324,0.013523,0.002678,0.000431,0.004701
30036000,0.0324,0.013523,0.002678,0.000431,0.183344
30037000,0.0324,0.013523,0.002678,0.000431,0.043485
30038000,0.0324,0.013523,0.002678,0.000431,0.057706
30039000,0.0324,0.013523,0.002678,0.000431,0.214489
30040000,0.0324,0.013523,0.002678,0.000431,0.004701
30041000,0.0324,0.013523,0.002678,0.000431,0.004701
30042000,0.0324,0.013523,0.002678,0.000431,0.004701
30043000,0.0324,0.013523,0.002678,0.000431,0.183579
30044000,0.0324,0.013523,0.002678,0.000431,0.148321
30045000,0.0324,0.013523,0.002678,0.000431,0.004701
30046000,0.0324,0.013523,0.002678,0.000431,0.004701
30047000,0.0324,0.013523,0.002678,0.000431,0.004701
30048000,0.0324,0.013523,0.002678,0.000431,0.004701
30049000,0.0324,0.013523,0.002678,0.000431,0.004701
30050000,0.0324,0.013523,0.002678,0.000431,0.062995
30051000,0.0324,0.013523,0.002678,0.000431,0.006347
30052000,0.0324,0.013523,0.002678,0.000431,0.142914
30053000,0.0324,0.013523,0.002678,0.000431,0.008697
30054000,0.0324,0.013523,0.002678,0.000431,0.004701
30055000,0.0324,0.013523,0.002678,0.000431,0.004701
30056000,0.0324,0.013523,0.002678,0.000431,0.012223
30057000,0.0324,0.013523,0.002678,0.000431,0.102250
30058000,0.0324,0.013523,0.002678,0.000431,0.008462
30059000,0.0324,0.013523,0.002678,0.000431,0.008462
30060000,0.0324,0.013523,0.002678,0.000431,0.004701
30061000,0.0324,0.013523,0.002678,0.000431,0.004701
30062000,0.0324,0.013523,0.002678,0.000431,0.004701
30063000,0.0324,0.013523,0.002678,0.000431,0.049244
30064000,0.0324,0.013523,0.002678,0.000431,0.012811
30065000,0.0324,0.013523,0.002678,0.000431,0.012223
30066000,0.0324,0.013523,0.002678,0.000431,0.004701
30067000,0.0324,0.013523,0.002678,0.000431,0.004701
30068000,0.0324,0.013523,0.002678,0.000431,0.004701
30069000,0.0324,0.013523,0.002678,0.000431,0.004466
30070000,0.0324,0.013523,0.002678,0.000431,0.012223
30071000,0.0324,0.013523,0.002678,0.000431,0.015984
30072000,0.0324,0.013523,0.002678,0.000431,0.015984
30073000,0.0324,0.013523,0.002678,0.000431,0.004584
30074000,0.0324,0.013523,0.002678,0.000431,0.004584
30075000,0.0324,0.013523,0.002678,0.000431,0.004701
30076000,0.0324,0.013523,0.002678,0.000431,0.019745
30077000,0.0324,0.013523,0.002678,0.000431,0.004701
30078000,0.0324,0.013523,0.002678,0.000431,0.019275
30079000,0.0324,0.013523,0.002678,0.000431,0.004936
30080000,0.0324,0.013523,0.002678,0.000431,0.004701
30081000,0.0324,0.013523,0.002678,0.000431,0.004701
30082000,0.0324,0.013523,0.002678,0.000431,0.004701
30083000,0.0324,0.013523,0.002678,0.000431,0.027267
30084000,0.0324,0.013523,0.002678,0.000431,0.004701
30085000,0.0324,0.013523,0.002678,0.000431,0.004466
30086000,0.0324,0.013523,0.002678,0.000431,0.004701
30087000,0.0324,0.013523,0.002678,0.000431,0.004701
30088000,0.0324,0.013523,0.002678,0.000431,0.004701
30089000,0.0324,0.013523,0.002678,0.000431,0.004701
30090000,0.0324,0.013523,0.002678,0.000431,0.004701
30091000,0.0324,0.013523,0.002678,0.000431,0.012223
30092000,0.0324,0.013523,0.002678,0.000431,0.004701
30093000,0.0324,0.013523,0.002678,0.000431,0.004701
30094000,0.0324,0.013523,0.002678,0.000431,0.004701
30095000,0.0324,0.013523,0.002678,0.000431,0.004701
30096000,0.0324,0.013523,0.002678,0.000431,0.012223
30097000,0.0324,0.013523,0.002678,0.000431,0.020332
30098000,0.0324,0.013523,0.002678,0.000431,0.026679
30099000,0.0324,0.013523,0.002678,0.000431,0.004701
30100000,0.0324,0.013523,0.002678,0.000431,0.004701
30101000,0.0324,0.013523,0.002678,0.000431,0.004466
30102000,0.0324,0.013523,0.002678,0.000431,0.012223
30103000,0.0324,0.013523,0.002678,0.000431,0.012223
30104000,0.0324,0.013523,0.002678,0.000431,0.027267
30105000,0.0324,0.013523,0.002678,0.000431,0.004701
30106000,0.0324,0.013523,0.002678,0.000431,0.004701
30107000,0.0324,0.013523,0.002678,0.000431,0.004701
30108000,0.0324,0.013523,0.002678,0.000431,0.019040
30109000,0.0324,0.013523,0.002678,0.000431,0.020450
30110000,0.0324,0.013523,0.002678,0.000431,0.012811
30111000,0.0324,0.013523,0.002678,0.000431,0.011635
30112000,0.0324,0.013523,0.002678,0.000431,0.004701
30113000,0.0324,0.013523,0.002678,0.000431,0.004584
30114000,0.0324,0.013523,0.002678,0.000431,0.004584
30115000,0.0324,0.013523,0.002678,0.000431,0.034788
30116000,0.0324,0.013523,0.002678,0.000431,0.005171
30117000,0.0324,0.013523,0.002678,0.000431,0.079332
30118000,0.0324,0.013523,0.002678,0.000431,0.004349
30119000,0.0324,0.013523,0.002678,0.000431,0.004701
30120000,0.0324,0.013523,0.002678,0.000431,0.004701
30121000,0.0324,0.013523,0.002678,0.000431,0.012223
30122000,0.0324,0.013523,0.002678,0.000431,0.012223
30123000,0.0324,0.013523,0.002678,0.000431,0.046541
30124000,0.0324,0.013523,0.002678,0.000431,0.143384
30125000,0.0324,0.013523,0.002678,0.000431,0.004701
30126000,0.0324,0.013523,0.002678,0.000431,0.004701
30127000,0.0324,0.013523,0.002678,0.000431,0.004701
30128000,0.0324,0.013523,0.002678,0.000431,0.072397
30129000,0.0324,0.013523,0.002678,0.000431,0.004701
30130000,0.0324,0.013523,0.002678,0.000431,0.087206
30131000,0.0324,0.013523,0.002678,0.000431,0.019510
30132000,0.0324,0.013523,0.002678,0.000431,0.004701
30133000,0.0324,0.013523,0.002678,0.000431,0.004701
30134000,0.0324,0.013523,0.002678,0.000431,0.015984
30135000,0.0324,0.013523,0.002678,0.000431,0.015984
30136000,0.0324,0.013523,0.002678,0.000431,0.004701
30137000,0.0324,0.013523,0.002678,0.000431,0.019745
30138000,0.0324,0.013523,0.002678,0.000431,0.004466
30139000,0.0324,0.013523,0.002678,0.000431,0.004701
30140000,0.0324,0.013523,0.002678,0.000431,0.004701
30141000,0.0324,0.013523,0.002678,0.000431,0.118233
30142000,0.0324,0.013523,0.002678,0.000431,0.123405
30143000,0.0324,0.013523,0.002678,0.000431,0.066638
30144000,0.0324,0.013523,0.002678,0.000431,0.018217
30145000,0.0324,0.013523,0.002678,0.000431,0.057589
30146000,0.0324,0.013523,0.002678,0.000431,0.004584
30147000,0.0324,0.013523,0.002678,0.000431,0.004584
30148000,0.0324,0.013523,0.002678,0.000431,0.004701
30149000,0.0324,0.013523,0.002678,0.000431,0.004584
30150000,0.0324,0.013523,0.002678,0.000431,0.004466
30151000,0.0324,0.013523,0.002678,0.000431,0.004584
30152000,0.0324,0.013523,0.002678,0.000431,0.019745
30153000,0.0324,0.013523,0.002678,0.000431,0.004701
30154000,0.0324,0.013523,0.002678,0.000431,0.022918
30155000,0.0324,0.013523,0.002678,0.000431,0.107068
30156000,0.0324,0.013523,0.002678,0.000431,0.050185
30157000,0.0324,0.013523,0.002678,0.000431,0.069812
30158000,0.0324,0.013523,0.002678,0.000431,0.006699
30159000,0.0324,0.013523,0.002678,0.000431,0.004701
30160000,0.0324,0.013523,0.002678,0.000431,0.004701
30161000,0.0324,0.013523,0.002678,0.000431,0.004701
30162000,0.0324,0.013523,0.002678,0.000431,0.004701
30163000,0.0324,0.013523,0.002678,0.000431,0.012458
30164000,0.0324,0.013523,0.002678,0.000431,0.027384
30165000,0.0324,0.013523,0.002678,0.000431,0.008345
30166000,0.0324,0.013523,0.002678,0.000431,0.015984
30167000,0.0324,0.013523,0.002678,0.000431,0.012223
30168000,0.0324,0.013523,0.002678,0.000431,0.004701
30169000,0.0324,0.013523,0.002678,0.000431,0.012223
30170000,0.0324,0.013523,0.002678,0.000431,0.004701
30171000,0.0324,0.013523,0.002678,0.000431,0.012223
30172000,0.0324,0.013523,0.002678,0.000431,0.004701
30173000,0.0324,0.013523,0.002678,0.000431,0.004701
30174000,0.0324,0.013523,0.002678,0.000431,0.004701
30175000,0.0324,0.013523,0.002678,0.000431,0.009637
30176000,0.0324,0.013523,0.002678,0.000431,0.022330
30177000,0.0324,0.013523,0.002678,0.000431,0.012223
30178000,0.0324,0.013523,0.002678,0.000431,0.004466
30179000,0.0324,0.013523,0.002678,0.000431,0.004701
30180000,0.0324,0.013523,0.002678,0.000431,0.004701
30181000,0.0324,0.013523,0.002678,0.000431,0.004701
30182000,0.0324,0.013523,0.002678,0.000431,0.004701
30183000,0.0324,0.013523,0.002678,0.000431,0.004936
30184000,0.0324,0.013523,0.002678,0.000431,0.011988
30185000,0.0324,0.013523,0.002678,0.000431,0.027267
30186000,0.0324,0.013523,0.002678,0.000431,0.004701
30187000,0.0324,0.013523,0.002678,0.000431,0.004701
30188000,0.0324,0.013523,0.002678,0.000431,0.004701
30189000,0.0324,0.013523,0.002678,0.000431,0.012223
30190000,0.0324,0.013523,0.002678,0.000431,0.012105
30191000,0.0324,0.013523,0.002678,0.000431,0.027149
30192000,0.0324,0.013523,0.002678,0.000431,0.027267
30193000,0.0324,0.013523,0.002678,0.000431,0.004701
30194000,0.0324,0.013523,0.002678,0.000431,0.004701
30195000,0.0324,0.013523,0.002678,0.000431,0.012223
30196000,0.0324,0.013523,0.002678,0.000431,0.012223
30197000,0.0324,0.013523,0.002678,0.000431,0.004701
30198000,0.0324,0.013523,0.002678,0.000431,0.004701
30199000,0.0324,0.013523,0.002678,0.000431,0.004701
30200000,0.0324,0.013523,0.002678,0.000431,0.004701
30201000,0.0324,0.013523,0.002678,0.000431,0.004701
30202000,0.0324,0.013523,0.002678,0.000431,0.004701
30203000,0.0324,0.013523,0.002678,0.000431,0.019745
30204000,0.0324,0.013523,0.002678,0.000431,0.004701
30205000,0.0324,0.013523,0.002678,0.000431,0.004466
30206000,0.0324,0.013523,0.002678,0.000431,0.004701
30207000,0.0324,0.013523,0.002678,0.000431,0.012223
30208000,0.0324,0.013523,0.002678,0.000431,0.004701
30209000,0.0324,0.013523,0.002678,0.000431,0.004701
30210000,0.0324,0.013523,0.002678,0.000431,0.004701
30211000,0.0324,0.013523,0.002678,0.000431,0.004701
30212000,0.0324,0.013523,0.002678,0.000431,0.004701
30213000,0.0324,0.013523,0.002678,0.000431,0.004701
30214000,0.0324,0.013523,0.002678,0.000431,0.004701
30215000,0.0324,0.013523,0.002678,0.000431,0.004701
30216000,0.0324,0.013523,0.002678,0.000431,0.004701
30217000,0.0324,0.013523,0.002678,0.000431,0.004701
30218000,0.0324,0.013523,0.002678,0.000431,0.004466
30219000,0.0324,0.013523,0.002678,0.000431,0.004701
30220000,0.0324,0.013523,0.002678,0.000431,0.004701
30221000,0.0324,0.013523,0.002678,0.000431,0.004701
30222000,0.0324,0.013523,0.002678,0.000431,0.012223
30223000,0.0324,0.013523,0.002678,0.000431,0.004701
30224000,0.0324,0.013523,0.002678,0.000431,0.004584
30225000,0.0324,0.013523,0.002678,0.000431,0.004584
30226000,0.0324,0.013523,0.002678,0.000431,0.012223
30227000,0.0324,0.013523,0.002678,0.000431,0.004701
30228000,0.0324,0.013523,0.002678,0.000431,0.004701
30229000,0.0324,0.013523,0.002678,0.000431,0.004701
30230000,0.0324,0.013523,0.002678,0.000431,0.004701
30231000,0.0324,0.013523,0.002678,0.000431,0.011988
30232000,0.0324,0.013523,0.002678,0.000431,0.004701
30233000,0.0324,0.013523,0.002678,0.000431,0.004701
30234000,0.0324,0.013523,0.002678,0.000431,0.004701
30235000,0.0324,0.013523,0.002678,0.000431,0.004701
30236000,0.0324,0.013523,0.002678,0.000431,0.004701
30237000,0.0324,0.013523,0.002678,0.000431,0.020332
30238000,0.0324,0.013523,0.002678,0.000431,0.011635
30239000,0.0324,0.013523,0.002678,0.000431,0.012223
30240000,0.0324,0.013523,0.002678,0.000431,0.004701
30241000,0.0324,0.013523,0.002678,0.000431,0.004701
30242000,0.0324,0.013523,0.002678,0.000431,0.004701
30243000,0.0324,0.013523,0.002678,0.000431,0.004701
30244000,0.0324,0.013523,0.002678,0.000431,0.027267
30245000,0.0324,0.013523,0.002678,0.000431,0.004466
30246000,0.0324,0.013523,0.002678,0.000431,0.004701
30247000,0.0324,0.013523,0.002678,0.000431,0.012223
30248000,0.0324,0.013523,0.002678,0.000431,0.004701
30249000,0.0324,0.013523,0.002678,0.000431,0.004701
30250000,0.0324,0.013523,0.002678,0.000431,0.012223
30251000,0.0324,0.013523,0.002678,0.000431,0.004701
30252000,0.0324,0.013523,0.002678,0.000431,0.012223
30253000,0.0324,0.013523,0.002678,0.000431,0.064876
30254000,0.0324,0.013523,0.002678,0.000431,0.004701
30255000,0.0324,0.013523,0.002678,0.000431,0.004701
30256000,0.0324,0.013523,0.002678,0.000431,0.004701
30257000,0.0324,0.013523,0.002678,0.000431,0.004701
30258000,0.0324,0.013523,0.002678,0.000431,0.004584
30259000,0.0324,0.013523,0.002678,0.000431,0.004584
30260000,0.0324,0.013523,0.002678,0.000431,0.012223
30261000,0.0324,0.013523,0.002678,0.000431,0.004701
30262000,0.0324,0.013523,0.002678,0.000431,0.004701
30263000,0.0324,0.013523,0.002678,0.000431,0.004701
30264000,0.0324,0.013523,0.002678,0.000431,0.004584
30265000,0.0324,0.013523,0.002678,0.000431,0.025621
30266000,0.0324,0.013523,0.002678,0.000431,0.036316
30267000,0.0324,0.013523,0.002678,0.000431,0.004701
30268000,0.0324,0.013523,0.002678,0.000431,0.004701
30269000,0.0324,0.013523,0.002678,0.000431,0.004701
30270000,0.0324,0.013523,0.002678,0.000431,0.004701
30271000,0.0324,0.013523,0.002678,0.000431,0.004466
30272000,0.0324,0.013523,0.002678,0.000431,0.004701
30273000,0.0324,0.013523,0.002678,0.000431,0.004701
30274000,0.0324,0.013523,0.002678,0.000431,0.004701
30275000,0.0324,0.013523,0.002678,0.000431,0.004701
30276000,0.0324,0.013523,0.002678,0.000431,0.004701
30277000,0.0324,0.013523,0.002678,0.000431,0.004701
30278000,0.0324,0.013523,0.002678,0.000431,0.034788
30279000,0.0324,0.013523,0.002678,0.000431,0.051007
30280000,0.0324,0.013523,0.002678,0.000431,0.018569
30281000,0.0324,0.013523,0.002678,0.000431,0.004701
30282000,0.0324,0.013523,0.002678,0.000431,0.004701
30283000,0.0324,0.013523,0.002678,0.000431,0.004701
30284000,0.0324,0.013523,0.002678,0.000431,0.027737
30285000,0.0324,0.013523,0.002678,0.000431,0.011518
30286000,0.0324,0.013523,0.002678,0.000431,0.034788
30287000,0.0324,0.013523,0.002678,0.000431,0.057354
30288000,0.0324,0.013523,0.002678,0.000431,0.004701
30289000,0.0324,0.013523,0.002678,0.000431,0.004701
30290000,0.0324,0.013523,0.002678,0.000431,0.004701
30291000,0.0324,0.013523,0.002678,0.000431,0.004701
30292000,0.0324,0.013523,0.002678,0.000431,0.028442
30293000,0.0324,0.013523,0.002678,0.000431,0.052418
30294000,0.0324,0.013523,0.002678,0.000431,0.015984
30295000,0.0324,0.013523,0.002678,0.000431,0.004701
30296000,0.0324,0.013523,0.002678,0.000431,0.004701
30297000,0.0324,0.013523,0.002678,0.000431,0.066874
30298000,0.0324,0.013523,0.002678,0.000431,0.147615
30299000,0.0324,0.013523,0.002678,0.000431,0.032790
30300000,0.0324,0.013523,0.002678,0.000431,0.004701
30301000,0.0324,0.013523,0.002678,0.000431,0.004701
30302000,0.0324,0.013523,0.002678,0.000431,0.004466
30303000,0.0324,0.013523,0.002678,0.000431,0.004466
30304000,0.0324,0.013523,0.002678,0.000431,0.042310
30305000,0.0324,0.013523,0.002678,0.000431,0.004701
30306000,0.0324,0.013523,0.002678,0.000431,0.004701
30307000,0.0324,0.013523,0.002678,0.000431,0.034788
30308000,0.0324,0.013523,0.002678,0.000431,0.004701
30309000,0.0324,0.013523,0.002678,0.000431,0.004701
30310000,0.0324,0.013523,0.002678,0.000431,0.037962
30311000,0.0324,0.013523,0.002678,0.000431,0.076746
30312000,0.0324,0.013523,0.002678,0.000431,0.004701
30313000,0.0324,0.013523,0.002678,0.000431,0.004701
30314000,0.0324,0.013523,0.002678,0.000431,0.004701
30315000,0.0324,0.013523,0.002678,0.000431,0.004701
30316000,0.0324,0.013523,0.002678,0.000431,0.019862
30317000,0.0324,0.013523,0.002678,0.000431,0.004819
30318000,0.0324,0.013523,0.002678,0.000431,0.004701
30319000,0.0324,0.013523,0.002678,0.000431,0.012223
30320000,0.0324,0.013523,0.002678,0.000431,0.013398
30321000,0.0324,0.013523,0.002678,0.000431,0.018805
30322000,0.0324,0.013523,0.002678,0.000431,0.004701
30323000,0.0324,0.013523,0.002678,0.000431,0.019275
30324000,0.0324,0.013523,0.002678,0.000431,0.080154
30325000,0.0324,0.013523,0.002678,0.000431,0.011988
30326000,0.0324,0.013523,0.002678,0.000431,0.049832
30327000,0.0324,0.013523,0.002678,0.000431,0.034788
30328000,0.0324,0.013523,0.002678,0.000431,0.004701
30329000,0.0324,0.013523,0.002678,0.000431,0.004701
30330000,0.0324,0.013523,0.002678,0.000431,0.004701
30331000,0.0324,0.013523,0.002678,0.000431,0.004701
30332000,0.0324,0.013523,0.002678,0.000431,0.004701
30333000,0.0324,0.013523,0.002678,0.000431,0.008109
30334000,0.0324,0.013523,0.002678,0.000431,0.023858
30335000,0.0324,0.013523,0.002678,0.000431,0.004701
30336000,0.0324,0.013523,0.002678,0.000431,0.004701
30337000,0.0324,0.013523,0.002678,0.000431,0.004466
30338000,0.0324,0.013523,0.002678,0.000431,0.004466
30339000,0.0324,0.013523,0.002678,0.000431,0.027267
30340000,0.0324,0.013523,0.002678,0.000431,0.004701
30341000,0.0324,0.013523,0.002678,0.000431,0.064876
30342000,0.0324,0.013523,0.002678,0.000431,0.019510
30343000,0.0324,0.013523,0.002678,0.000431,0.004701
30344000,0.0324,0.013523,0.002678,0.000431,0.004701
30345000,0.0324,0.013523,0.002678,0.000431,0.057706
30346000,0.0324,0.013523,0.002678,0.000431,0.011870
30347000,0.0324,0.013523,0.002678,0.000431,0.004701
30348000,0.0324,0.013523,0.002678,0.000431,0.004701
30349000,0.0324,0.013523,0.002678,0.000431,0.004701
30350000,0.0324,0.013523,0.002678,0.000431,0.004701
30351000,0.0324,0.013523,0.002678,0.000431,0.012223
30352000,0.0324,0.013523,0.002678,0.000431,0.004701
30353000,0.0324,0.013523,0.002678,0.000431,0.004701
30354000,0.0324,0.013523,0.002678,0.000431,0.087206
30355000,0.0324,0.013523,0.002678,0.000431,0.004701
30356000,0.0324,0.013523,0.002678,0.000431,0.050067
30357000,0.0324,0.013523,0.002678,0.000431,0.004701
30358000,0.0324,0.013523,0.002678,0.000431,0.004701
30359000,0.0324,0.013523,0.002678,0.000431,0.034788
30360000,0.0324,0.013523,0.002678,0.000431,0.004701
30361000,0.0324,0.013523,0.002678,0.000431,0.004701
30362000,0.0324,0.013523,0.002678,0.000431,0.012223
30363000,0.0324,0.013523,0.002678,0.000431,0.042075
30364000,0.0324,0.013523,0.002678,0.000431,0.019980
30365000,0.0324,0.013523,0.002678,0.000431,0.004701
30366000,0.0324,0.013523,0.002678,0.000431,0.012223
30367000,0.0324,0.013523,0.002678,0.000431,0.010695
30368000,0.0324,0.013523,0.002678,0.000431,0.103542
30369000,0.0324,0.013523,0.002678,0.000431,0.004349
30370000,0.0324,0.013523,0.002678,0.000431,0.004584
30371000,0.0324,0.013523,0.002678,0.000431,0.004701
30372000,0.0324,0.013523,0.002678,0.000431,0.004701
30373000,0.0324,0.013523,0.002678,0.000431,0.057589
30374000,0.0324,0.013523,0.002678,0.000431,0.038079
30375000,0.0324,0.013523,0.002678,0.000431,0.084150
30376000,0.0324,0.013523,0.002678,0.000431,0.046306
30377000,0.0324,0.013523,0.002678,0.000431,0.031027
30378000,0.0324,0.013523,0.002678,0.000431,0.019745
30379000,0.0324,0.013523,0.002678,0.000431,0.012458
30380000,0.0324,0.013523,0.002678,0.000431,0.004701
30381000,0.0324,0.013523,0.002678,0.000431,0.034671
30382000,0.0324,0.013523,0.002678,0.000431,0.109889
30383000,0.0324,0.013523,0.002678,0.000431,0.136920
30384000,0.0324,0.013523,0.002678,0.000431,0.067814
30385000,0.0324,0.013523,0.002678,0.000431,0.004584
30386000,0.0324,0.013523,0.002678,0.000431,0.004584
30387000,0.0324,0.013523,0.002678,0.000431,0.004701
30388000,0.0324,0.013523,0.002678,0.000431,0.004701
30389000,0.0324,0.013523,0.002678,0.000431,0.004701
30390000,0.0324,0.013523,0.002678,0.000431,0.034671
30391000,0.0324,0.013523,0.002678,0.000431,0.057471
30392000,0.0324,0.013523,0.002678,0.000431,0.019745
30393000,0.0324,0.013523,0.002678,0.000431,0.064876
30394000,0.0324,0.013523,0.002678,0.000431,0.004701
30395000,0.0324,0.013523,0.002678,0.000431,0.004701
30396000,0.0324,0.013523,0.002678,0.000431,0.004701
30397000,0.0324,0.013523,0.002678,0.000431,0.073103
30398000,0.0324,0.013523,0.002678,0.000431,0.004701
30399000,0.0324,0.013523,0.002678,0.000431,0.012223
30400000,0.0324,0.013523,0.002678,0.000431,0.012223
30401000,0.0324,0.013523,0.002678,0.000431,0.087911
30402000,0.0324,0.013523,0.002678,0.000431,0.079449
30403000,0.0324,0.013523,0.002678,0.000431,0.040077
30404000,0.0324,0.013523,0.002678,0.000431,0.014456
30405000,0.0324,0.013523,0.002678,0.000431,0.004701
30406000,0.0324,0.013523,0.002678,0.000431,0.004701
30407000,0.0324,0.013523,0.002678,0.000431,0.004701
30408000,0.0324,0.013523,0.002678,0.000431,0.042545
30409000,0.0324,0.013523,0.002678,0.000431,0.012458
30410000,0.0324,0.013523,0.002678,0.000431,0.027502
30411000,0.0324,0.013523,0.002678,0.000431,0.004701
30412000,0.0324,0.013523,0.002678,0.000431,0.012458
30413000,0.0324,0.013523,0.002678,0.000431,0.004701
30414000,0.0324,0.013523,0.002678,0.000431,0.011400
30415000,0.0324,0.013523,0.002678,0.000431,0.051125
30416000,0.0324,0.013523,0.002678,0.000431,0.039725
30417000,0.0324,0.013523,0.002678,0.000431,0.138213
30418000,0.0324,0.013523,0.002678,0.000431,0.016689
30419000,0.0324,0.013523,0.002678,0.000431,0.027031
30420000,0.0324,0.013523,0.002678,0.000431,0.007757
30421000,0.0324,0.013523,0.002678,0.000431,0.016454
30422000,0.0324,0.013523,0.002678,0.000431,0.004701
30423000,0.0324,0.013523,0.002678,0.000431,0.012223
30424000,0.0324,0.013523,0.002678,0.000431,0.012223
30425000,0.0324,0.013523,0.002678,0.000431,0.004701
30426000,0.0324,0.013523,0.002678,0.000431,0.012458
30427000,0.0324,0.013523,0.002678,0.000431,0.012223
30428000,0.0324,0.013523,0.002678,0.000431,0.027502
30429000,0.0324,0.013523,0.002678,0.000431,0.004701
30430000,0.0324,0.013523,0.002678,0.000431,0.049832
30431000,0.0324,0.013523,0.002678,0.000431,0.004701
30432000,0.0324,0.013523,0.002678,0.000431,0.013046
30433000,0.0324,0.013523,0.002678,0.000431,0.037256
30434000,0.0324,0.013523,0.002678,0.000431,0.027267
30435000,0.0324,0.013523,0.002678,0.000431,0.008462
30436000,0.0324,0.013523,0.002678,0.000431,0.004701
30437000,0.0324,0.013523,0.002678,0.000431,0.023506
30438000,0.0324,0.013523,0.002678,0.000431,0.035964
30439000,0.0324,0.013523,0.002678,0.000431,0.105540
30440000,0.0324,0.013523,0.002678,0.000431,0.004701
30441000,0.0324,0.013523,0.002678,0.000431,0.004701
30442000,0.0324,0.013523,0.002678,0.000431,0.004701
30443000,0.0324,0.013523,0.002678,0.000431,0.004701
30444000,0.0324,0.013523,0.002678,0.000431,0.004701
30445000,0.0324,0.013523,0.002678,0.000431,0.014456
30446000,0.0324,0.013523,0.002678,0.000431,0.009990
30447000,0.0324,0.013523,0.002678,0.000431,0.004701
30448000,0.0324,0.013523,0.002678,0.000431,0.064876
30449000,0.0324,0.013523,0.002678,0.000431,0.004701
30450000,0.0324,0.013523,0.002678,0.000431,0.047951
30451000,0.0324,0.013523,0.002678,0.000431,0.104365
30452000,0.0324,0.013523,0.002678,0.000431,0.012223
30453000,0.0324,0.013523,0.002678,0.000431,0.061115
30454000,0.0324,0.013523,0.002678,0.000431,0.025386
30455000,0.0324,0.013523,0.002678,0.000431,0.047951
30456000,0.0324,0.013523,0.002678,0.000431,0.095198
30457000,0.0324,0.013523,0.002678,0.000431,0.004466
30458000,0.0324,0.013523,0.002678,0.000431,0.004701
30459000,0.0324,0.013523,0.002678,0.000431,0.056296
30460000,0.0324,0.013523,0.002678,0.000431,0.036081
30461000,0.0324,0.013523,0.002678,0.000431,0.004701
30462000,0.0324,0.013523,0.002678,0.000431,0.012223
30463000,0.0324,0.013523,0.002678,0.000431,0.004701
30464000,0.0324,0.013523,0.002678,0.000431,0.004701
30465000,0.0324,0.013523,0.002678,0.000431,0.004936
30466000,0.0324,0.013523,0.002678,0.000431,0.004466
30467000,0.0324,0.013523,0.002678,0.000431,0.027267
30468000,0.0324,0.013523,0.002678,0.000431,0.004701
30469000,0.0324,0.013523,0.002678,0.000431,0.019745
30470000,0.0324,0.013523,0.002678,0.000431,0.004701
30471000,0.0324,0.013523,0.002678,0.000431,0.004584
30472000,0.0324,0.013523,0.002678,0.000431,0.004584
30473000,0.0324,0.013523,0.002678,0.000431,0.004701
30474000,0.0324,0.013523,0.002678,0.000431,0.027267
30475000,0.0324,0.013523,0.002678,0.000431,0.042310
30476000,0.0324,0.013523,0.002678,0.000431,0.004701
30477000,0.0324,0.013523,0.002678,0.000431,0.004701
30478000,0.0324,0.013523,0.002678,0.000431,0.012223
30479000,0.0324,0.013523,0.002678,0.000431,0.004701
30480000,0.0324,0.013523,0.002678,0.000431,0.042310
30481000,0.0324,0.013523,0.002678,0.000431,0.004701
30482000,0.0324,0.013523,0.002678,0.000431,0.004701
30483000,0.0324,0.013523,0.002678,0.000431,0.004701
30484000,0.0324,0.013523,0.002678,0.000431,0.004701
30485000,0.0324,0.013523,0.002678,0.000431,0.012223
30486000,0.0324,0.013523,0.002678,0.000431,0.012223
30487000,0.0324,0.013523,0.002678,0.000431,0.012105
30488000,0.0324,0.013523,0.002678,0.000431,0.124932
30489000,0.0324,0.013523,0.002678,0.000431,0.004701
30490000,0.0324,0.013523,0.002678,0.000431,0.004701
30491000,0.0324,0.013523,0.002678,0.000431,0.004701
30492000,0.0324,0.013523,0.002678,0.000431,0.004701
30493000,0.0324,0.013523,0.002678,0.000431,0.035258
30494000,0.0324,0.013523,0.002678,0.000431,0.004701
30495000,0.0324,0.013523,0.002678,0.000431,0.004701
30496000,0.0324,0.013523,0.002678,0.000431,0.004701
30497000,0.0324,0.013523,0.002678,0.000431,0.012105
30498000,0.0324,0.013523,0.002678,0.000431,0.033025
30499000,0.0324,0.013523,0.002678,0.000431,0.071222
30500000,0.0324,0.013523,0.002678,0.000431,0.030087
30501000,0.0324,0.013523,0.002678,0.000431,0.004701
30502000,0.0324,0.013523,0.002678,0.000431,0.004701
30503000,0.0324,0.013523,0.002678,0.000431,0.004701
30504000,0.0324,0.013523,0.002678,0.000431,0.004701
30505000,0.0324,0.013523,0.002678,0.000431,0.019745
30506000,0.0324,0.013523,0.002678,0.000431,0.004466
30507000,0.0324,0.013523,0.002678,0.000431,0.042310
30508000,0.0324,0.013523,0.002678,0.000431,0.019745
30509000,0.0324,0.013523,0.002678,0.000431,0.004701
30510000,0.0324,0.013523,0.002678,0.000431,0.004701
30511000,0.0324,0.013523,0.002678,0.000431,0.004701
30512000,0.0324,0.013523,0.002678,0.000431,0.011988
30513000,0.0324,0.013523,0.002678,0.000431,0.004701
30514000,0.0324,0.013523,0.002678,0.000431,0.004701
30515000,0.0324,0.013523,0.002678,0.000431,0.049832
30516000,0.0324,0.013523,0.002678,0.000431,0.004701
30517000,0.0324,0.013523,0.002678,0.000431,0.004701
30518000,0.0324,0.013523,0.002678,0.000431,0.012223
30519000,0.0324,0.013523,0.002678,0.000431,0.019745
30520000,0.0324,0.013523,0.002678,0.000431,0.087206
30521000,0.0324,0.013523,0.002678,0.000431,0.004701
30522000,0.0324,0.013523,0.002678,0.000431,0.004701
30523000,0.0324,0.013523,0.002678,0.000431,0.018922
30524000,0.0324,0.013523,0.002678,0.000431,0.073220
30525000,0.0324,0.013523,0.002678,0.000431,0.072985
30526000,0.0324,0.013523,0.002678,0.000431,0.015631
30527000,0.0324,0.013523,0.002678,0.000431,0.015984
30528000,0.0324,0.013523,0.002678,0.000431,0.004701
30529000,0.0324,0.013523,0.002678,0.000431,0.004701
30530000,0.0324,0.013523,0.002678,0.000431,0.013281
30531000,0.0324,0.013523,0.002678,0.000431,0.072162
30532000,0.0324,0.013523,0.002678,0.000431,0.011400
30533000,0.0324,0.013523,0.002678,0.000431,0.035023
30534000,0.0324,0.013523,0.002678,0.000431,0.004701
30535000,0.0324,0.013523,0.002678,0.000431,0.004701
30536000,0.0324,0.013523,0.002678,0.000431,0.025151
30537000,0.0324,0.013523,0.002678,0.000431,0.021860
30538000,0.0324,0.013523,0.002678,0.000431,0.004701
30539000,0.0324,0.013523,0.002678,0.000431,0.029852
30540000,0.0324,0.013523,0.002678,0.000431,0.054298
30541000,0.0324,0.013523,0.002678,0.000431,0.004701
30542000,0.0324,0.013523,0.002678,0.000431,0.004701
30543000,0.0324,0.013523,0.002678,0.000431,0.143619
30544000,0.0324,0.013523,0.002678,0.000431,0.076041
30545000,0.0324,0.013523,0.002678,0.000431,0.117176
30546000,0.0324,0.013523,0.002678,0.000431,0.004701
30547000,0.0324,0.013523,0.002678,0.000431,0.004701
30548000,0.0324,0.013523,0.002678,0.000431,0.004701
30549000,0.0324,0.013523,0.002678,0.000431,0.008462
30550000,0.0324,0.013523,0.002678,0.000431,0.046071
30551000,0.0324,0.013523,0.002678,0.000431,0.025974
30552000,0.0324,0.013523,0.002678,0.000431,0.042310
30553000,0.0324,0.013523,0.002678,0.000431,0.034201
30554000,0.0324,0.013523,0.002678,0.000431,0.021625
30555000,0.0324,0.013523,0.002678,0.000431,0.004701
30556000,0.0324,0.013523,0.002678,0.000431,0.009637
30557000,0.0324,0.013523,0.002678,0.000431,0.044896
30558000,0.0324,0.013523,0.002678,0.000431,0.023506
30559000,0.0324,0.013523,0.002678,0.000431,0.009872
30560000,0.0324,0.013523,0.002678,0.000431,0.025856
30561000,0.0324,0.013523,0.002678,0.000431,0.004701
30562000,0.0324,0.013523,0.002678,0.000431,0.004701
30563000,0.0324,0.013523,0.002678,0.000431,0.087441
30564000,0.0324,0.013523,0.002678,0.000431,0.049832
30565000,0.0324,0.013523,0.002678,0.000431,0.064758
30566000,0.0324,0.013523,0.002678,0.000431,0.004584
30567000,0.0324,0.013523,0.002678,0.000431,0.004701
30568000,0.0324,0.013523,0.002678,0.000431,0.004349
30569000,0.0324,0.013523,0.002678,0.000431,0.056884
30570000,0.0324,0.013523,0.002678,0.000431,0.125403
30571000,0.0324,0.013523,0.002678,0.000431,0.008462
30572000,0.0324,0.013523,0.002678,0.000431,0.008345
30573000,0.0324,0.013523,0.002678,0.000431,0.004584
30574000,0.0324,0.013523,0.002678,0.000431,0.004701
30575000,0.0324,0.013523,0.002678,0.000431,0.004701
30576000,0.0324,0.013523,0.002678,0.000431,0.004701
30577000,0.0324,0.013523,0.002678,0.000431,0.042545
30578000,0.0324,0.013523,0.002678,0.000431,0.042780
30579000,0.0324,0.013523,0.002678,0.000431,0.004701
30580000,0.0324,0.013523,0.002678,0.000431,0.004584
30581000,0.0324,0.013523,0.002678,0.000431,0.004584
30582000,0.0324,0.013523,0.002678,0.000431,0.019275
30583000,0.0324,0.013523,0.002678,0.000431,0.054298
30584000,0.0324,0.013523,0.002678,0.000431,0.008462
30585000,0.0324,0.013523,0.002678,0.000431,0.012223
30586000,0.0324,0.013523,0.002678,0.000431,0.004701
30587000,0.0324,0.013523,0.002678,0.000431,0.004701
30588000,0.0324,0.013523,0.002678,0.000431,0.004701
30589000,0.0324,0.013523,0.002678,0.000431,0.021743
30590000,0.0324,0.013523,0.002678,0.000431,0.025269
30591000,0.0324,0.013523,0.002678,0.000431,0.012223
30592000,0.0324,0.013523,0.002678,0.000431,0.004701
30593000,0.0324,0.013523,0.002678,0.000431,0.004701
30594000,0.0324,0.013523,0.002678,0.000431,0.004701
30595000,0.0324,0.013523,0.002678,0.000431,0.012223
30596000,0.0324,0.013523,0.002678,0.000431,0.064876
30597000,0.0324,0.013523,0.002678,0.000431,0.008462
30598000,0.0324,0.013523,0.002678,0.000431,0.008462
30599000,0.0324,0.013523,0.002678,0.000431,0.004701
30600000,0.0324,0.013523,0.002678,0.000431,0.004701
30601000,0.0324,0.013523,0.002678,0.000431,0.004466
30602000,0.0324,0.013523,0.002678,0.000431,0.015749
30603000,0.0324,0.013523,0.002678,0.000431,0.008697
30604000,0.0324,0.013523,0.002678,0.000431,0.004701
30605000,0.0324,0.013523,0.002678,0.000431,0.004701
30606000,0.0324,0.013523,0.002678,0.000431,0.004701
30607000,0.0324,0.013523,0.002678,0.000431,0.004701
30608000,0.0324,0.013523,0.002678,0.000431,0.004701
30609000,0.0324,0.013523,0.002678,0.000431,0.034553
30610000,0.0324,0.013523,0.002678,0.000431,0.044661
30611000,0.0324,0.013523,0.002678,0.000431,0.017394
30612000,0.0324,0.013523,0.002678,0.000431,0.004584
30613000,0.0324,0.013523,0.002678,0.000431,0.004584
30614000,0.0324,0.013523,0.002678,0.000431,0.016454
30615000,0.0324,0.013523,0.002678,0.000431,0.083210
30616000,0.0324,0.013523,0.002678,0.000431,0.014456
30617000,0.0324,0.013523,0.002678,0.000431,0.043838
30618000,0.0324,0.013523,0.002678,0.000431,0.008462
30619000,0.0324,0.013523,0.002678,0.000431,0.004701
30620000,0.0324,0.013523,0.002678,0.000431,0.004701
30621000,0.0324,0.013523,0.002678,0.000431,0.056178
30622000,0.0324,0.013523,0.002678,0.000431,0.028207
30623000,0.0324,0.013523,0.002678,0.000431,0.064876
30624000,0.0324,0.013523,0.002678,0.000431,0.004701
30625000,0.0324,0.013523,0.002678,0.000431,0.004701
30626000,0.0324,0.013523,0.002678,0.000431,0.004701
30627000,0.0324,0.013523,0.002678,0.000431,0.023506
30628000,0.0324,0.013523,0.002678,0.000431,0.076158
30629000,0.0324,0.013523,0.002678,0.000431,0.012223
30630000,0.0324,0.013523,0.002678,0.000431,0.012223
30631000,0.0324,0.013523,0.002678,0.000431,0.004701
30632000,0.0324,0.013523,0.002678,0.000431,0.004701
30633000,0.0324,0.013523,0.002678,0.000431,0.004701
30634000,0.0324,0.013523,0.002678,0.000431,0.057354
30635000,0.0324,0.013523,0.002678,0.000431,0.049832
30636000,0.0324,0.013523,0.002678,0.000431,0.004701
30637000,0.0324,0.013523,0.002678,0.000431,0.004701
30638000,0.0324,0.013523,0.002678,0.000431,0.004701
30639000,0.0324,0.013523,0.002678,0.000431,0.004701
30640000,0.0324,0.013523,0.002678,0.000431,0.042193
30641000,0.0324,0.013523,0.002678,0.000431,0.031498
30642000,0.0324,0.013523,0.002678,0.000431,0.011635
30643000,0.0324,0.013523,0.002678,0.000431,0.008462
30644000,0.0324,0.013523,0.002678,0.000431,0.004701
30645000,0.0324,0.013523,0.002678,0.000431,0.004701
30646000,0.0324,0.013523,0.002678,0.000431,0.004701
30647000,0.0324,0.013523,0.002678,0.000431,0.042545
30648000,0.0324,0.013523,0.002678,0.000431,0.027267
30649000,0.0324,0.013523,0.002678,0.000431,0.057119
30650000,0.0324,0.013523,0.002678,0.000431,0.004701
30651000,0.0324,0.013523,0.002678,0.000431,0.004701
30652000,0.0324,0.013523,0.002678,0.000431,0.004701
30653000,0.0324,0.013523,0.002678,0.000431,0.012223
30654000,0.0324,0.013523,0.002678,0.000431,0.034788
30655000,0.0324,0.013523,0.002678,0.000431,0.012223
30656000,0.0324,0.013523,0.002678,0.000431,0.004701
30657000,0.0324,0.013523,0.002678,0.000431,0.004701
30658000,0.0324,0.013523,0.002678,0.000431,0.004701
30659000,0.0324,0.013523,0.002678,0.000431,0.012223
30660000,0.0324,0.013523,0.002678,0.000431,0.027267
30661000,0.0324,0.013523,0.002678,0.000431,0.112710
30662000,0.0324,0.013523,0.002678,0.000431,0.099781
30663000,0.0324,0.013523,0.002678,0.000431,0.004701
30664000,0.0324,0.013523,0.002678,0.000431,0.004701
30665000,0.0324,0.013523,0.002678,0.000431,0.004701
30666000,0.0324,0.013523,0.002678,0.000431,0.027267
30667000,0.0324,0.013523,0.002678,0.000431,0.041135
30668000,0.0324,0.013523,0.002678,0.000431,0.020685
30669000,0.0324,0.013523,0.002678,0.000431,0.004701
30670000,0.0324,0.013523,0.002678,0.000431,0.004701
30671000,0.0324,0.013523,0.002678,0.000431,0.004701
30672000,0.0324,0.013523,0.002678,0.000431,0.020920
30673000,0.0324,0.013523,0.002678,0.000431,0.011048
30674000,0.0324,0.013523,0.002678,0.000431,0.004701
30675000,0.0324,0.013523,0.002678,0.000431,0.004701
30676000,0.0324,0.013523,0.002678,0.000431,0.004701
30677000,0.0324,0.013523,0.002678,0.000431,0.004701
30678000,0.0324,0.013523,0.002678,0.000431,0.004701
30679000,0.0324,0.013523,0.002678,0.000431,0.042310
30680000,0.0324,0.013523,0.002678,0.000431,0.034671
30681000,0.0324,0.013523,0.002678,0.000431,0.027031
30682000,0.0324,0.013523,0.002678,0.000431,0.004584
30683000,0.0324,0.013523,0.002678,0.000431,0.004701
30684000,0.0324,0.013523,0.002678,0.000431,0.004701
30685000,0.0324,0.013523,0.002678,0.000431,0.043250
30686000,0.0324,0.013523,0.002678,0.000431,0.026326
30687000,0.0324,0.013523,0.002678,0.000431,0.031027
30688000,0.0324,0.013523,0.002678,0.000431,0.015984
30689000,0.0324,0.013523,0.002678,0.000431,0.004701
30690000,0.0324,0.013523,0.002678,0.000431,0.004701
30691000,0.0324,0.013523,0.002678,0.000431,0.004701
30692000,0.0324,0.013523,0.002678,0.000431,0.065111
30693000,0.0324,0.013523,0.002678,0.000431,0.004701
30694000,0.0324,0.013523,0.002678,0.000431,0.004466
30695000,0.0324,0.013523,0.002678,0.000431,0.004701
30696000,0.0324,0.013523,0.002678,0.000431,0.004701
30697000,0.0324,0.013523,0.002678,0.000431,0.004701
30698000,0.0324,0.013523,0.002678,0.000431,0.032438
30699000,0.0324,0.013523,0.002678,0.000431,0.007052
30700000,0.0324,0.013523,0.002678,0.000431,0.004701
30701000,0.0324,0.013523,0.002678,0.000431,0.004701
30702000,0.0324,0.013523,0.002678,0.000431,0.004701
30703000,0.0324,0.013523,0.002678,0.000431,0.004701
30704000,0.0324,0.013523,0.002678,0.000431,0.004701
30705000,0.0324,0.013523,0.002678,0.000431,0.057354
30706000,0.0324,0.013523,0.002678,0.000431,0.027267
30707000,0.0324,0.013523,0.002678,0.000431,0.027267
30708000,0.0324,0.013523,0.002678,0.000431,0.004466
30709000,0.0324,0.013523,0.002678,0.000431,0.004701
30710000,0.0324,0.013523,0.002678,0.000431,0.004701
30711000,0.0324,0.013523,0.002678,0.000431,0.032673
30712000,0.0324,0.013523,0.002678,0.000431,0.014338
30713000,0.0324,0.013523,0.002678,0.000431,0.027502
30714000,0.0324,0.013523,0.002678,0.000431,0.004701
30715000,0.0324,0.013523,0.002678,0.000431,0.004701
30716000,0.0324,0.013523,0.002678,0.000431,0.004701
30717000,0.0324,0.013523,0.002678,0.000431,0.008462
30718000,0.0324,0.013523,0.002678,0.000431,0.132102
30719000,0.0324,0.013523,0.002678,0.000431,0.015984
30720000,0.0324,0.013523,0.002678,0.000431,0.004701
30721000,0.0324,0.013523,0.002678,0.000431,0.004466
30722000,0.0324,0.013523,0.002678,0.000431,0.004701
30723000,0.0324,0.013523,0.002678,0.000431,0.004701
30724000,0.0324,0.013523,0.002678,0.000431,0.034788
30725000,0.0324,0.013523,0.002678,0.000431,0.095198
30726000,0.0324,0.013523,0.002678,0.000431,0.057354
30727000,0.0324,0.013523,0.002678,0.000431,0.004701
30728000,0.0324,0.013523,0.002678,0.000431,0.004701
30729000,0.0324,0.013523,0.002678,0.000431,0.004466
30730000,0.0324,0.013523,0.002678,0.000431,0.004701
30731000,0.0324,0.013523,0.002678,0.000431,0.036434
30732000,0.0324,0.013523,0.002678,0.000431,0.063230
30733000,0.0324,0.013523,0.002678,0.000431,0.019510
30734000,0.0324,0.013523,0.002678,0.000431,0.004701
30735000,0.0324,0.013523,0.002678,0.000431,0.004701
30736000,0.0324,0.013523,0.002678,0.000431,0.004701
30737000,0.0324,0.013523,0.002678,0.000431,0.019862
30738000,0.0324,0.013523,0.002678,0.000431,0.065228
30739000,0.0324,0.013523,0.002678,0.000431,0.027267
30740000,0.0324,0.013523,0.002678,0.000431,0.004701
30741000,0.0324,0.013523,0.002678,0.000431,0.004701
30742000,0.0324,0.013523,0.002678,0.000431,0.004701
30743000,0.0324,0.013523,0.002678,0.000431,0.033966
30744000,0.0324,0.013523,0.002678,0.000431,0.025034
30745000,0.0324,0.013523,0.002678,0.000431,0.117293
30746000,0.0324,0.013523,0.002678,0.000431,0.037374
30747000,0.0324,0.013523,0.002678,0.000431,0.004701
30748000,0.0324,0.013523,0.002678,0.000431,0.004701
30749000,0.0324,0.013523,0.002678,0.000431,0.008462
30750000,0.0324,0.013523,0.002678,0.000431,0.035846
30751000,0.0324,0.013523,0.002678,0.000431,0.029852
30752000,0.0324,0.013523,0.002678,0.000431,0.079802
30753000,0.0324,0.013523,0.002678,0.000431,0.004701
30754000,0.0324,0.013523,0.002678,0.000431,0.004701
30755000,0.0324,0.013523,0.002678,0.000431,0.004701
30756000,0.0324,0.013523,0.002678,0.000431,0.012223
30757000,0.0324,0.013523,0.002678,0.000431,0.004701
30758000,0.0324,0.013523,0.002678,0.000431,0.054063
30759000,0.0324,0.013523,0.002678,0.000431,0.067931
30760000,0.0324,0.013523,0.002678,0.000431,0.004701
30761000,0.0324,0.013523,0.002678,0.000431,0.004466
30762000,0.0324,0.013523,0.002678,0.000431,0.025504
30763000,0.0324,0.013523,0.002678,0.000431,0.051595
30764000,0.0324,0.013523,0.002678,0.000431,0.004701
30765000,0.0324,0.013523,0.002678,0.000431,0.032203
30766000,0.0324,0.013523,0.002678,0.000431,0.014809
30767000,0.0324,0.013523,0.002678,0.000431,0.004701
30768000,0.0324,0.013523,0.002678,0.000431,0.004701
30769000,0.0324,0.013523,0.002678,0.000431,0.087206
30770000,0.0324,0.013523,0.002678,0.000431,0.009755
30771000,0.0324,0.013523,0.002678,0.000431,0.171944
30772000,0.0324,0.013523,0.002678,0.000431,0.087206
30773000,0.0324,0.013523,0.002678,0.000431,0.004701
30774000,0.0324,0.013523,0.002678,0.000431,0.004701
30775000,0.0324,0.013523,0.002678,0.000431,0.006817
30776000,0.0324,0.013523,0.002678,0.000431,0.010107
30777000,0.0324,0.013523,0.002678,0.000431,0.004701
30778000,0.0324,0.013523,0.002678,0.000431,0.004701
30779000,0.0324,0.013523,0.002678,0.000431,0.004701
30780000,0.0324,0.013523,0.002678,0.000431,0.004701
30781000,0.0324,0.013523,0.002678,0.000431,0.004701
30782000,0.0324,0.013523,0.002678,0.000431,0.053593
30783000,0.0324,0.013523,0.002678,0.000431,0.008462
30784000,0.0324,0.013523,0.002678,0.000431,0.004701
30785000,0.0324,0.013523,0.002678,0.000431,0.012105
30786000,0.0324,0.013523,0.002678,0.000431,0.004231
30787000,0.0324,0.013523,0.002678,0.000431,0.004584
30788000,0.0324,0.013523,0.002678,0.000431,0.004701
30789000,0.0324,0.013523,0.002678,0.000431,0.102132
30790000,0.0324,0.013523,0.002678,0.000431,0.034436
30791000,0.0324,0.013523,0.002678,0.000431,0.012693
30792000,0.0324,0.013523,0.002678,0.000431,0.004701
30793000,0.0324,0.013523,0.002678,0.000431,0.004701
30794000,0.0324,0.013523,0.002678,0.000431,0.004701
30795000,0.0324,0.013523,0.002678,0.000431,0.004701
30796000,0.0324,0.013523,0.002678,0.000431,0.012223
30797000,0.0324,0.013523,0.002678,0.000431,0.019745
30798000,0.0324,0.013523,0.002678,0.000431,0.019745
30799000,0.0324,0.013523,0.002678,0.000431,0.004701
30800000,0.0324,0.013523,0.002678,0.000431,0.004701
30801000,0.0324,0.013523,0.002678,0.000431,0.019745
30802000,0.0324,0.013523,0.002678,0.000431,0.012223
30803000,0.0324,0.013523,0.002678,0.000431,0.004701
30804000,0.0324,0.013523,0.002678,0.000431,0.012223
30805000,0.0324,0.013523,0.002678,0.000431,0.008462
30806000,0.0324,0.013523,0.002678,0.000431,0.008462
30807000,0.0324,0.013523,0.002678,0.000431,0.004701
30808000,0.0324,0.013523,0.002678,0.000431,0.019980
30809000,0.0324,0.013523,0.002678,0.000431,0.079684
30810000,0.0324,0.013523,0.002678,0.000431,0.019745
30811000,0.0324,0.013523,0.002678,0.000431,0.012223
30812000,0.0324,0.013523,0.002678,0.000431,0.004701
30813000,0.0324,0.013523,0.002678,0.000431,0.004701
30814000,0.0324,0.013523,0.002678,0.000431,0.079919
30815000,0.0324,0.013523,0.002678,0.000431,0.039489
30816000,0.0324,0.013523,0.002678,0.000431,0.045131
30817000,0.0324,0.013523,0.002678,0.000431,0.028677
30818000,0.0324,0.013523,0.002678,0.000431,0.018099
30819000,0.0324,0.013523,0.002678,0.000431,0.004701
30820000,0.0324,0.013523,0.002678,0.000431,0.015984
30821000,0.0324,0.013523,0.002678,0.000431,0.015749
30822000,0.0324,0.013523,0.002678,0.000431,0.049832
30823000,0.0324,0.013523,0.002678,0.000431,0.005171
30824000,0.0324,0.013523,0.002678,0.000431,0.019745
30825000,0.0324,0.013523,0.002678,0.000431,0.004701
30826000,0.0324,0.013523,0.002678,0.000431,0.004349
30827000,0.0324,0.013523,0.002678,0.000431,0.012105
30828000,0.0324,0.013523,0.002678,0.000431,0.004701
30829000,0.0324,0.013523,0.002678,0.000431,0.004701
30830000,0.0324,0.013523,0.002678,0.000431,0.057354
30831000,0.0324,0.013523,0.002678,0.000431,0.004701
30832000,0.0324,0.013523,0.002678,0.000431,0.004701
30833000,0.0324,0.013523,0.002678,0.000431,0.033731
30834000,0.0324,0.013523,0.002678,0.000431,0.005759
30835000,0.0324,0.013523,0.002678,0.000431,0.065111
30836000,0.0324,0.013523,0.002678,0.000431,0.064876
30837000,0.0324,0.013523,0.002678,0.000431,0.004701
30838000,0.0324,0.013523,0.002678,0.000431,0.004701
30839000,0.0324,0.013523,0.002678,0.000431,0.004701
30840000,0.0324,0.013523,0.002678,0.000431,0.065346
30841000,0.0324,0.013523,0.002678,0.000431,0.004936
30842000,0.0324,0.013523,0.002678,0.000431,0.004701
30843000,0.0324,0.013523,0.002678,0.000431,0.004701
30844000,0.0324,0.013523,0.002678,0.000431,0.004701
30845000,0.0324,0.013523,0.002678,0.000431,0.004701
30846000,0.0324,0.013523,0.002678,0.000431,0.012105
30847000,0.0324,0.013523,0.002678,0.000431,0.004584
30848000,0.0324,0.013523,0.002678,0.000431,0.034788
30849000,0.0324,0.013523,0.002678,0.000431,0.023506
30850000,0.0324,0.013523,0.002678,0.000431,0.015984
30851000,0.0324,0.013523,0.002678,0.000431,0.012223
30852000,0.0324,0.013523,0.002678,0.000431,0.004701
30853000,0.0324,0.013523,0.002678,0.000431,0.019745
30854000,0.0324,0.013523,0.002678,0.000431,0.019745
30855000,0.0324,0.013523,0.002678,0.000431,0.004701
30856000,0.0324,0.013523,0.002678,0.000431,0.004701
30857000,0.0324,0.013523,0.002678,0.000431,0.004466
30858000,0.0324,0.013523,0.002678,0.000431,0.004701
30859000,0.0324,0.013523,0.002678,0.000431,0.004701
30860000,0.0324,0.013523,0.002678,0.000431,0.019745
30861000,0.0324,0.013523,0.002678,0.000431,0.004701
30862000,0.0324,0.013523,0.002678,0.000431,0.248925
30863000,0.0324,0.013523,0.002678,0.000431,0.023976
30864000,0.0324,0.013523,0.002678,0.000431,0.004701
30865000,0.0324,0.013523,0.002678,0.000431,0.018217
30866000,0.0324,0.013523,0.002678,0.000431,0.020802
30867000,0.0324,0.013523,0.002678,0.000431,0.011988
30868000,0.0324,0.013523,0.002678,0.000431,0.004701
30869000,0.0324,0.013523,0.002678,0.000431,0.004701
30870000,0.0324,0.013523,0.002678,0.000431,0.008462
30871000,0.0324,0.013523,0.002678,0.000431,0.008462
30872000,0.0324,0.013523,0.002678,0.000431,0.042545
30873000,0.0324,0.013523,0.002678,0.000431,0.035141
30874000,0.0324,0.013523,0.002678,0.000431,0.019627
30875000,0.0324,0.013523,0.002678,0.000431,0.132337
30876000,0.0324,0.013523,0.002678,0.000431,0.004701
30877000,0.0324,0.013523,0.002678,0.000431,0.004701
30878000,0.0324,0.013523,0.002678,0.000431,0.011870
30879000,0.0324,0.013523,0.002678,0.000431,0.005054
30880000,0.0324,0.013523,0.002678,0.000431,0.042310
30881000,0.0324,0.013523,0.002678,0.000431,0.015161
30882000,0.0324,0.013523,0.002678,0.000431,0.017042
30883000,0.0324,0.013523,0.002678,0.000431,0.004701
30884000,0.0324,0.013523,0.002678,0.000431,0.004701
30885000,0.0324,0.013523,0.002678,0.000431,0.004701
30886000,0.0324,0.013523,0.002678,0.000431,0.004584
30887000,0.0324,0.013523,0.002678,0.000431,0.008109
30888000,0.0324,0.013523,0.002678,0.000431,0.015984
30889000,0.0324,0.013523,0.002678,0.000431,0.004701
30890000,0.0324,0.013523,0.002678,0.000431,0.004701
30891000,0.0324,0.013523,0.002678,0.000431,0.019745
30892000,0.0324,0.013523,0.002678,0.000431,0.004701
30893000,0.0324,0.013523,0.002678,0.000431,0.004701
30894000,0.0324,0.013523,0.002678,0.000431,0.015984
30895000,0.0324,0.013523,0.002678,0.000431,0.012223
30896000,0.0324,0.013523,0.002678,0.000431,0.023506
30897000,0.0324,0.013523,0.002678,0.000431,0.004466
30898000,0.0324,0.013523,0.002678,0.000431,0.004701
30899000,0.0324,0.013523,0.002678,0.000431,0.004701
30900000,0.0324,0.013523,0.002678,0.000431,0.004701
30901000,0.0324,0.013523,0.002678,0.000431,0.004701
30902000,0.0324,0.013523,0.002678,0.000431,0.004701
30903000,0.0324,0.013523,0.002678,0.000431,0.012223
30904000,0.0324,0.013523,0.002678,0.000431,0.004701
30905000,0.0324,0.013523,0.002678,0.000431,0.008462
30906000,0.0324,0.013523,0.002678,0.000431,0.015984
30907000,0.0324,0.013523,0.002678,0.000431,0.019510
30908000,0.0324,0.013523,0.002678,0.000431,0.004701
30909000,0.0324,0.013523,0.002678,0.000431,0.004701
30910000,0.0324,0.013523,0.002678,0.000431,0.017629
30911000,0.0324,0.013523,0.002678,0.000431,0.074278
30912000,0.0324,0.013523,0.002678,0.000431,0.004701
30913000,0.0324,0.013523,0.002678,0.000431,0.012223
30914000,0.0324,0.013523,0.002678,0.000431,0.027502
30915000,0.0324,0.013523,0.002678,0.000431,0.004701
30916000,0.0324,0.013523,0.002678,0.000431,0.004701
30917000,0.0324,0.013523,0.002678,0.000431,0.012223
30918000,0.0324,0.013523,0.002678,0.000431,0.004701
30919000,0.0324,0.013523,0.002678,0.000431,0.004701
30920000,0.0324,0.013523,0.002678,0.000431,0.027267
30921000,0.0324,0.013523,0.002678,0.000431,0.004701
30922000,0.0324,0.013523,0.002678,0.000431,0.004701
30923000,0.0324,0.013523,0.002678,0.000431,0.009520
30924000,0.0324,0.013523,0.002678,0.000431,0.014926
30925000,0.0324,0.013523,0.002678,0.000431,0.019745
30926000,0.0324,0.013523,0.002678,0.000431,0.012105
30927000,0.0324,0.013523,0.002678,0.000431,0.011870
30928000,0.0324,0.013523,0.002678,0.000431,0.004701
30929000,0.0324,0.013523,0.002678,0.000431,0.004701
30930000,0.0324,0.013523,0.002678,0.000431,0.004701
30931000,0.0324,0.013523,0.002678,0.000431,0.012223
30932000,0.0324,0.013523,0.002678,0.000431,0.004701
30933000,0.0324,0.013523,0.002678,0.000431,0.004701
30934000,0.0324,0.013523,0.002678,0.000431,0.004701
30935000,0.0324,0.013523,0.002678,0.000431,0.004701
30936000,0.0324,0.013523,0.002678,0.000431,0.012223
30937000,0.0324,0.013523,0.002678,0.000431,0.012223
30938000,0.0324,0.013523,0.002678,0.000431,0.094728
30939000,0.0324,0.013523,0.002678,0.000431,0.012223
30940000,0.0324,0.013523,0.002678,0.000431,0.004701
30941000,0.0324,0.013523,0.002678,0.000431,0.004701
30942000,0.0324,0.013523,0.002678,0.000431,0.004584
30943000,0.0324,0.013523,0.002678,0.000431,0.049714
30944000,0.0324,0.013523,0.002678,0.000431,0.004701
30945000,0.0324,0.013523,0.002678,0.000431,0.009520
30946000,0.0324,0.013523,0.002678,0.000431,0.007404
30947000,0.0324,0.013523,0.002678,0.000431,0.004466
30948000,0.0324,0.013523,0.002678,0.000431,0.004701
30949000,0.0324,0.013523,0.002678,0.000431,0.004701
30950000,0.0324,0.013523,0.002678,0.000431,0.004701
30951000,0.0324,0.013523,0.002678,0.000431,0.004701
30952000,0.0324,0.013523,0.002678,0.000431,0.004701
30953000,0.0324,0.013523,0.002678,0.000431,0.004701
30954000,0.0324,0.013523,0.002678,0.000431,0.004701
30955000,0.0324,0.013523,0.002678,0.000431,0.004701
30956000,0.0324,0.013523,0.002678,0.000431,0.004701
30957000,0.0324,0.013523,0.002678,0.000431,0.004701
30958000,0.0324,0.013523,0.002678,0.000431,0.004701
30959000,0.0324,0.013523,0.002678,0.000431,0.012223
30960000,0.0324,0.013523,0.002678,0.000431,0.004701
30961000,0.0324,0.013523,0.002678,0.000431,0.004701
30962000,0.0324,0.013523,0.002678,0.000431,0.019745
30963000,0.0324,0.013523,0.002678,0.000431,0.004701
30964000,0.0324,0.013523,0.002678,0.000431,0.004701
30965000,0.0324,0.013523,0.002678,0.000431,0.012223
30966000,0.0324,0.013523,0.002678,0.000431,0.019745
30967000,0.0324,0.013523,0.002678,0.000431,0.004466
30968000,0.0324,0.013523,0.002678,0.000431,0.004701
30969000,0.0324,0.013523,0.002678,0.000431,0.004701
30970000,0.0324,0.013523,0.002678,0.000431,0.042545
30971000,0.0324,0.013523,0.002678,0.000431,0.004584
30972000,0.0324,0.013523,0.002678,0.000431,0.016689
30973000,0.0324,0.013523,0.002678,0.000431,0.139506
30974000,0.0324,0.013523,0.002678,0.000431,0.015984
30975000,0.0324,0.013523,0.002678,0.000431,0.012223
30976000,0.0324,0.013523,0.002678,0.000431,0.027267
30977000,0.0324,0.013523,0.002678,0.000431,0.027267
30978000,0.0324,0.013523,0.002678,0.000431,0.004701
30979000,0.0324,0.013523,0.002678,0.000431,0.004701
30980000,0.0324,0.013523,0.002678,0.000431,0.012223
30981000,0.0324,0.013523,0.002678,0.000431,0.004701
30982000,0.0324,0.013523,0.002678,0.000431,0.004584
30983000,0.0324,0.013523,0.002678,0.000431,0.012105
30984000,0.0324,0.013523,0.002678,0.000431,0.004701
30985000,0.0324,0.013523,0.002678,0.000431,0.004701
30986000,0.0324,0.013523,0.002678,0.000431,0.004701
30987000,0.0324,0.013523,0.002678,0.000431,0.004466
30988000,0.0324,0.013523,0.002678,0.000431,0.004701
30989000,0.0324,0.013523,0.002678,0.000431,0.004701
30990000,0.0324,0.013523,0.002678,0.000431,0.012576
30991000,0.0324,0.013523,0.002678,0.000431,0.026914
30992000,0.0324,0.013523,0.002678,0.000431,0.004701
30993000,0.0324,0.013523,0.002678,0.000431,0.004701
30994000,0.0324,0.013523,0.002678,0.000431,0.004701
30995000,0.0324,0.013523,0.002678,0.000431,0.004701
30996000,0.0324,0.013523,0.002678,0.000431,0.004701
30997000,0.0324,0.013523,0.002678,0.000431,0.025504
30998000,0.0324,0.013523,0.002678,0.000431,0.029029
30999000,0.0324,0.013523,0.002678,0.000431,0.004701
