Cycle,Area(mm^2),PeakDynamic(W),SubthresholdLeakage(W),GateLeakage(W),RunTimeDynamic(W)
5000000,0.0324,0.013523,0.002678,0.000431,0.065111
5001000,0.0324,0.013523,0.002678,0.000431,0.057589
5002000,0.0324,0.013523,0.002678,0.000431,0.268434
5003000,0.0324,0.013523,0.002678,0.000431,0.119996
5004000,0.0324,0.013523,0.002678,0.000431,0.197447
5005000,0.0324,0.013523,0.002678,0.000431,0.221776
5006000,0.0324,0.013523,0.002678,0.000431,0.250805
5007000,0.0324,0.013523,0.002678,0.000431,0.063818
5008000,0.0324,0.013523,0.002678,0.000431,0.087206
5009000,0.0324,0.013523,0.002678,0.000431,0.109654
5010000,0.0324,0.013523,0.002678,0.000431,0.303223
5011000,0.0324,0.013523,0.002678,0.000431,0.387138
5012000,0.0324,0.013523,0.002678,0.000431,0.109771
5013000,0.0324,0.013523,0.002678,0.000431,0.045366
5014000,0.0324,0.013523,0.002678,0.000431,0.154902
5015000,0.0324,0.013523,0.002678,0.000431,0.152552
5016000,0.0324,0.013523,0.002678,0.000431,0.186517
5017000,0.0324,0.013523,0.002678,0.000431,0.127401
5018000,0.0324,0.013523,0.002678,0.000431,0.158663
5019000,0.0324,0.013523,0.002678,0.000431,0.038197
5020000,0.0324,0.013523,0.002678,0.000431,0.042428
5021000,0.0324,0.013523,0.002678,0.000431,0.117881
5022000,0.0324,0.013523,0.002678,0.000431,0.136333
5023000,0.0324,0.013523,0.002678,0.000431,0.073103
5024000,0.0324,0.013523,0.002678,0.000431,0.098136
5025000,0.0324,0.013523,0.002678,0.000431,0.112592
5026000,0.0324,0.013523,0.002678,0.000431,0.101897
5027000,0.0324,0.013523,0.002678,0.000431,0.121172
5028000,0.0324,0.013523,0.002678,0.000431,0.094963
5029000,0.0324,0.013523,0.002678,0.000431,0.178408
5030000,0.0324,0.013523,0.002678,0.000431,0.182991
5031000,0.0324,0.013523,0.002678,0.000431,0.058529
5032000,0.0324,0.013523,0.002678,0.000431,0.154432
5033000,0.0324,0.013523,0.002678,0.000431,0.161131
5034000,0.0324,0.013523,0.002678,0.000431,0.252333
5035000,0.0324,0.013523,0.002678,0.000431,0.069107
5036000,0.0324,0.013523,0.002678,0.000431,0.088734
5037000,0.0324,0.013523,0.002678,0.000431,0.150083
5038000,0.0324,0.013523,0.002678,0.000431,0.118116
5039000,0.0324,0.013523,0.002678,0.000431,0.120819
5040000,0.0324,0.013523,0.002678,0.000431,0.174882
5041000,0.0324,0.013523,0.002678,0.000431,0.193099
5042000,0.0324,0.013523,0.002678,0.000431,0.129986
5043000,0.0324,0.013523,0.002678,0.000431,0.159251
5044000,0.0324,0.013523,0.002678,0.000431,0.144442
5045000,0.0324,0.013523,0.002678,0.000431,0.050420
5046000,0.0324,0.013523,0.002678,0.000431,0.072867
5047000,0.0324,0.013523,0.002678,0.000431,0.167713
5048000,0.0324,0.013523,0.002678,0.000431,0.095198
5049000,0.0324,0.013523,0.002678,0.000431,0.221423
5050000,0.0324,0.013523,0.002678,0.000431,0.289119
5051000,0.0324,0.013523,0.002678,0.000431,0.082152
5052000,0.0324,0.013523,0.002678,0.000431,0.048304
5053000,0.0324,0.013523,0.002678,0.000431,0.168535
5054000,0.0324,0.013523,0.002678,0.000431,0.136685
5055000,0.0324,0.013523,0.002678,0.000431,0.182404
5056000,0.0324,0.013523,0.002678,0.000431,0.270197
5057000,0.0324,0.013523,0.002678,0.000431,0.152081
5058000,0.0324,0.013523,0.002678,0.000431,0.046306
5059000,0.0324,0.013523,0.002678,0.000431,0.128106
5060000,0.0324,0.013523,0.002678,0.000431,0.160308
5061000,0.0324,0.013523,0.002678,0.000431,0.080389
5062000,0.0324,0.013523,0.002678,0.000431,0.098724
5063000,0.0324,0.013523,0.002678,0.000431,0.107186
5064000,0.0324,0.013523,0.002678,0.000431,0.035258
5065000,0.0324,0.013523,0.002678,0.000431,0.039372
5066000,0.0324,0.013523,0.002678,0.000431,0.144207
5067000,0.0324,0.013523,0.002678,0.000431,0.193569
5068000,0.0324,0.013523,0.002678,0.000431,0.076628
5069000,0.0324,0.013523,0.002678,0.000431,0.307571
5070000,0.0324,0.013523,0.002678,0.000431,0.097196
5071000,0.0324,0.013523,0.002678,0.000431,0.171004
5072000,0.0324,0.013523,0.002678,0.000431,0.158663
5073000,0.0324,0.013523,0.002678,0.000431,0.167478
5074000,0.0324,0.013523,0.002678,0.000431,0.163247
5075000,0.0324,0.013523,0.002678,0.000431,0.140564
5076000,0.0324,0.013523,0.002678,0.000431,0.072397
5077000,0.0324,0.013523,0.002678,0.000431,0.086383
5078000,0.0324,0.013523,0.002678,0.000431,0.082152
5079000,0.0324,0.013523,0.002678,0.000431,0.115413
5080000,0.0324,0.013523,0.002678,0.000431,0.063700
5081000,0.0324,0.013523,0.002678,0.000431,0.125050
5082000,0.0324,0.013523,0.002678,0.000431,0.275251
5083000,0.0324,0.013523,0.002678,0.000431,0.073573
5084000,0.0324,0.013523,0.002678,0.000431,0.057824
5085000,0.0324,0.013523,0.002678,0.000431,0.063465
5086000,0.0324,0.013523,0.002678,0.000431,0.085325
5087000,0.0324,0.013523,0.002678,0.000431,0.102367
5088000,0.0324,0.013523,0.002678,0.000431,0.145382
5089000,0.0324,0.013523,0.002678,0.000431,0.226477
5090000,0.0324,0.013523,0.002678,0.000431,0.121877
5091000,0.0324,0.013523,0.002678,0.000431,0.178995
5092000,0.0324,0.013523,0.002678,0.000431,0.161719
5093000,0.0324,0.013523,0.002678,0.000431,0.099781
5094000,0.0324,0.013523,0.002678,0.000431,0.090849
5095000,0.0324,0.013523,0.002678,0.000431,0.200386
5096000,0.0324,0.013523,0.002678,0.000431,0.110241
5097000,0.0324,0.013523,0.002678,0.000431,0.036786
5098000,0.0324,0.013523,0.002678,0.000431,0.260678
5099000,0.0324,0.013523,0.002678,0.000431,0.154902
5100000,0.0324,0.013523,0.002678,0.000431,0.189338
5101000,0.0324,0.013523,0.002678,0.000431,0.074278
5102000,0.0324,0.013523,0.002678,0.000431,0.091554
5103000,0.0324,0.013523,0.002678,0.000431,0.178760
5104000,0.0324,0.013523,0.002678,0.000431,0.081565
5105000,0.0324,0.013523,0.002678,0.000431,0.125873
5106000,0.0324,0.013523,0.002678,0.000431,0.177820
5107000,0.0324,0.013523,0.002678,0.000431,0.206850
5108000,0.0324,0.013523,0.002678,0.000431,0.345885
5109000,0.0324,0.013523,0.002678,0.000431,0.112004
5110000,0.0324,0.013523,0.002678,0.000431,0.062995
5111000,0.0324,0.013523,0.002678,0.000431,0.120584
5112000,0.0324,0.013523,0.002678,0.000431,0.314976
5113000,0.0324,0.013523,0.002678,0.000431,0.126930
5114000,0.0324,0.013523,0.002678,0.000431,0.192159
5115000,0.0324,0.013523,0.002678,0.000431,0.143854
5116000,0.0324,0.013523,0.002678,0.000431,0.057354
5117000,0.0324,0.013523,0.002678,0.000431,0.095668
5118000,0.0324,0.013523,0.002678,0.000431,0.147145
5119000,0.0324,0.013523,0.002678,0.000431,0.258562
5120000,0.0324,0.013523,0.002678,0.000431,0.256094
5121000,0.0324,0.013523,0.002678,0.000431,0.229885
5122000,0.0324,0.013523,0.002678,0.000431,0.078626
5123000,0.0324,0.013523,0.002678,0.000431,0.042780
5124000,0.0324,0.013523,0.002678,0.000431,0.110359
5125000,0.0324,0.013523,0.002678,0.000431,0.205792
5126000,0.0324,0.013523,0.002678,0.000431,0.179113
5127000,0.0324,0.013523,0.002678,0.000431,0.180523
5128000,0.0324,0.013523,0.002678,0.000431,0.193334
5129000,0.0324,0.013523,0.002678,0.000431,0.053828
5130000,0.0324,0.013523,0.002678,0.000431,0.138331
5131000,0.0324,0.013523,0.002678,0.000431,0.078861
5132000,0.0324,0.013523,0.002678,0.000431,0.091907
5133000,0.0324,0.013523,0.002678,0.000431,0.136450
5134000,0.0324,0.013523,0.002678,0.000431,0.205557
5135000,0.0324,0.013523,0.002678,0.000431,0.116941
5136000,0.0324,0.013523,0.002678,0.000431,0.047599
5137000,0.0324,0.013523,0.002678,0.000431,0.069342
5138000,0.0324,0.013523,0.002678,0.000431,0.163012
5139000,0.0324,0.013523,0.002678,0.000431,0.102014
5140000,0.0324,0.013523,0.002678,0.000431,0.235762
5141000,0.0324,0.013523,0.002678,0.000431,0.064993
5142000,0.0324,0.013523,0.002678,0.000431,0.042193
5143000,0.0324,0.013523,0.002678,0.000431,0.093670
5144000,0.0324,0.013523,0.002678,0.000431,0.200738
5145000,0.0324,0.013523,0.002678,0.000431,0.139153
5146000,0.0324,0.013523,0.002678,0.000431,0.159721
5147000,0.0324,0.013523,0.002678,0.000431,0.120701
5148000,0.0324,0.013523,0.002678,0.000431,0.049597
5149000,0.0324,0.013523,0.002678,0.000431,0.084620
5150000,0.0324,0.013523,0.002678,0.000431,0.111417
5151000,0.0324,0.013523,0.002678,0.000431,0.057589
5152000,0.0324,0.013523,0.002678,0.000431,0.072867
5153000,0.0324,0.013523,0.002678,0.000431,0.292293
5154000,0.0324,0.013523,0.002678,0.000431,0.101192
5155000,0.0324,0.013523,0.002678,0.000431,0.035376
5156000,0.0324,0.013523,0.002678,0.000431,0.055473
5157000,0.0324,0.013523,0.002678,0.000431,0.112592
5158000,0.0324,0.013523,0.002678,0.000431,0.204499
5159000,0.0324,0.013523,0.002678,0.000431,0.105893
5160000,0.0324,0.013523,0.002678,0.000431,0.076628
5161000,0.0324,0.013523,0.002678,0.000431,0.076628
5162000,0.0324,0.013523,0.002678,0.000431,0.121759
5163000,0.0324,0.013523,0.002678,0.000431,0.334485
5164000,0.0324,0.013523,0.002678,0.000431,0.118821
5165000,0.0324,0.013523,0.002678,0.000431,0.152081
5166000,0.0324,0.013523,0.002678,0.000431,0.315328
5167000,0.0324,0.013523,0.002678,0.000431,0.035258
5168000,0.0324,0.013523,0.002678,0.000431,0.073455
5169000,0.0324,0.013523,0.002678,0.000431,0.049244
5170000,0.0324,0.013523,0.002678,0.000431,0.136803
5171000,0.0324,0.013523,0.002678,0.000431,0.082740
5172000,0.0324,0.013523,0.002678,0.000431,0.265614
5173000,0.0324,0.013523,0.002678,0.000431,0.187928
5174000,0.0324,0.013523,0.002678,0.000431,0.077334
5175000,0.0324,0.013523,0.002678,0.000431,0.162659
5176000,0.0324,0.013523,0.002678,0.000431,0.143502
5177000,0.0324,0.013523,0.002678,0.000431,0.136685
5178000,0.0324,0.013523,0.002678,0.000431,0.109066
5179000,0.0324,0.013523,0.002678,0.000431,0.076276
5180000,0.0324,0.013523,0.002678,0.000431,0.034788
5181000,0.0324,0.013523,0.002678,0.000431,0.110006
5182000,0.0324,0.013523,0.002678,0.000431,0.140564
5183000,0.0324,0.013523,0.002678,0.000431,0.140916
5184000,0.0324,0.013523,0.002678,0.000431,0.099546
5185000,0.0324,0.013523,0.002678,0.000431,0.210846
5186000,0.0324,0.013523,0.002678,0.000431,0.171591
5187000,0.0324,0.013523,0.002678,0.000431,0.108831
5188000,0.0324,0.013523,0.002678,0.000431,0.112827
5189000,0.0324,0.013523,0.002678,0.000431,0.259267
5190000,0.0324,0.013523,0.002678,0.000431,0.105775
5191000,0.0324,0.013523,0.002678,0.000431,0.128693
5192000,0.0324,0.013523,0.002678,0.000431,0.227182
5193000,0.0324,0.013523,0.002678,0.000431,0.081917
5194000,0.0324,0.013523,0.002678,0.000431,0.066168
5195000,0.0324,0.013523,0.002678,0.000431,0.142679
5196000,0.0324,0.013523,0.002678,0.000431,0.201208
5197000,0.0324,0.013523,0.002678,0.000431,0.163599
5198000,0.0324,0.013523,0.002678,0.000431,0.223421
5199000,0.0324,0.013523,0.002678,0.000431,0.042663
5200000,0.0324,0.013523,0.002678,0.000431,0.080977
5201000,0.0324,0.013523,0.002678,0.000431,0.113885
5202000,0.0324,0.013523,0.002678,0.000431,0.159368
5203000,0.0324,0.013523,0.002678,0.000431,0.117998
5204000,0.0324,0.013523,0.002678,0.000431,0.099194
5205000,0.0324,0.013523,0.002678,0.000431,0.264673
5206000,0.0324,0.013523,0.002678,0.000431,0.034788
5207000,0.0324,0.013523,0.002678,0.000431,0.054298
5208000,0.0324,0.013523,0.002678,0.000431,0.125285
5209000,0.0324,0.013523,0.002678,0.000431,0.131397
5210000,0.0324,0.013523,0.002678,0.000431,0.088851
5211000,0.0324,0.013523,0.002678,0.000431,0.170651
5212000,0.0324,0.013523,0.002678,0.000431,0.136333
5213000,0.0324,0.013523,0.002678,0.000431,0.057824
5214000,0.0324,0.013523,0.002678,0.000431,0.050302
5215000,0.0324,0.013523,0.002678,0.000431,0.271020
5216000,0.0324,0.013523,0.002678,0.000431,0.149613
5217000,0.0324,0.013523,0.002678,0.000431,0.089792
5218000,0.0324,0.013523,0.002678,0.000431,0.107186
5219000,0.0324,0.013523,0.002678,0.000431,0.036316
5220000,0.0324,0.013523,0.002678,0.000431,0.042780
5221000,0.0324,0.013523,0.002678,0.000431,0.176997
5222000,0.0324,0.013523,0.002678,0.000431,0.179466
5223000,0.0324,0.013523,0.002678,0.000431,0.068636
5224000,0.0324,0.013523,0.002678,0.000431,0.182874
5225000,0.0324,0.013523,0.002678,0.000431,0.095315
5226000,0.0324,0.013523,0.002678,0.000431,0.122934
5227000,0.0324,0.013523,0.002678,0.000431,0.068401
5228000,0.0324,0.013523,0.002678,0.000431,0.119996
5229000,0.0324,0.013523,0.002678,0.000431,0.097196
5230000,0.0324,0.013523,0.002678,0.000431,0.178995
5231000,0.0324,0.013523,0.002678,0.000431,0.057471
5232000,0.0324,0.013523,0.002678,0.000431,0.035023
5233000,0.0324,0.013523,0.002678,0.000431,0.149378
5234000,0.0324,0.013523,0.002678,0.000431,0.147263
5235000,0.0324,0.013523,0.002678,0.000431,0.147968
5236000,0.0324,0.013523,0.002678,0.000431,0.147263
5237000,0.0324,0.013523,0.002678,0.000431,0.170886
5238000,0.0324,0.013523,0.002678,0.000431,0.059352
5239000,0.0324,0.013523,0.002678,0.000431,0.088499
5240000,0.0324,0.013523,0.002678,0.000431,0.249395
5241000,0.0324,0.013523,0.002678,0.000431,0.135628
5242000,0.0324,0.013523,0.002678,0.000431,0.096256
5243000,0.0324,0.013523,0.002678,0.000431,0.181346
5244000,0.0324,0.013523,0.002678,0.000431,0.101074
5245000,0.0324,0.013523,0.002678,0.000431,0.105305
5246000,0.0324,0.013523,0.002678,0.000431,0.094610
5247000,0.0324,0.013523,0.002678,0.000431,0.077216
5248000,0.0324,0.013523,0.002678,0.000431,0.200621
5249000,0.0324,0.013523,0.002678,0.000431,0.133394
5250000,0.0324,0.013523,0.002678,0.000431,0.179583
5251000,0.0324,0.013523,0.002678,0.000431,0.071105
5252000,0.0324,0.013523,0.002678,0.000431,0.055591
5253000,0.0324,0.013523,0.002678,0.000431,0.136685
5254000,0.0324,0.013523,0.002678,0.000431,0.089556
5255000,0.0324,0.013523,0.002678,0.000431,0.092847
5256000,0.0324,0.013523,0.002678,0.000431,0.140329
5257000,0.0324,0.013523,0.002678,0.000431,0.107303
5258000,0.0324,0.013523,0.002678,0.000431,0.067344
5259000,0.0324,0.013523,0.002678,0.000431,0.163717
5260000,0.0324,0.013523,0.002678,0.000431,0.120231
5261000,0.0324,0.013523,0.002678,0.000431,0.112710
5262000,0.0324,0.013523,0.002678,0.000431,0.140799
5263000,0.0324,0.013523,0.002678,0.000431,0.095433
5264000,0.0324,0.013523,0.002678,0.000431,0.087911
5265000,0.0324,0.013523,0.002678,0.000431,0.065698
5266000,0.0324,0.013523,0.002678,0.000431,0.114943
5267000,0.0324,0.013523,0.002678,0.000431,0.143502
5268000,0.0324,0.013523,0.002678,0.000431,0.072750
5269000,0.0324,0.013523,0.002678,0.000431,0.174294
5270000,0.0324,0.013523,0.002678,0.000431,0.106951
5271000,0.0324,0.013523,0.002678,0.000431,0.065111
5272000,0.0324,0.013523,0.002678,0.000431,0.213549
5273000,0.0324,0.013523,0.002678,0.000431,0.174647
5274000,0.0324,0.013523,0.002678,0.000431,0.115765
5275000,0.0324,0.013523,0.002678,0.000431,0.045954
5276000,0.0324,0.013523,0.002678,0.000431,0.225302
5277000,0.0324,0.013523,0.002678,0.000431,0.074278
5278000,0.0324,0.013523,0.002678,0.000431,0.078626
5279000,0.0324,0.013523,0.002678,0.000431,0.153374
5280000,0.0324,0.013523,0.002678,0.000431,0.171121
5281000,0.0324,0.013523,0.002678,0.000431,0.147615
5282000,0.0324,0.013523,0.002678,0.000431,0.179113
5283000,0.0324,0.013523,0.002678,0.000431,0.106716
5284000,0.0324,0.013523,0.002678,0.000431,0.104365
5285000,0.0324,0.013523,0.002678,0.000431,0.125050
5286000,0.0324,0.013523,0.002678,0.000431,0.087911
5287000,0.0324,0.013523,0.002678,0.000431,0.085443
5288000,0.0324,0.013523,0.002678,0.000431,0.147145
5289000,0.0324,0.013523,0.002678,0.000431,0.122347
5290000,0.0324,0.013523,0.002678,0.000431,0.079919
5291000,0.0324,0.013523,0.002678,0.000431,0.126930
5292000,0.0324,0.013523,0.002678,0.000431,0.192511
5293000,0.0324,0.013523,0.002678,0.000431,0.117998
5294000,0.0324,0.013523,0.002678,0.000431,0.120466
5295000,0.0324,0.013523,0.002678,0.000431,0.136920
5296000,0.0324,0.013523,0.002678,0.000431,0.151611
5297000,0.0324,0.013523,0.002678,0.000431,0.072867
5298000,0.0324,0.013523,0.002678,0.000431,0.214724
5299000,0.0324,0.013523,0.002678,0.000431,0.127048
5300000,0.0324,0.013523,0.002678,0.000431,0.127871
5301000,0.0324,0.013523,0.002678,0.000431,0.051477
5302000,0.0324,0.013523,0.002678,0.000431,0.072750
5303000,0.0324,0.013523,0.002678,0.000431,0.095668
5304000,0.0324,0.013523,0.002678,0.000431,0.118939
5305000,0.0324,0.013523,0.002678,0.000431,0.116118
5306000,0.0324,0.013523,0.002678,0.000431,0.100252
5307000,0.0324,0.013523,0.002678,0.000431,0.056296
5308000,0.0324,0.013523,0.002678,0.000431,0.045718
5309000,0.0324,0.013523,0.002678,0.000431,0.110006
5310000,0.0324,0.013523,0.002678,0.000431,0.101544
5311000,0.0324,0.013523,0.002678,0.000431,0.121524
5312000,0.0324,0.013523,0.002678,0.000431,0.134335
5313000,0.0324,0.013523,0.002678,0.000431,0.172296
5314000,0.0324,0.013523,0.002678,0.000431,0.132454
5315000,0.0324,0.013523,0.002678,0.000431,0.105775
5316000,0.0324,0.013523,0.002678,0.000431,0.129399
5317000,0.0324,0.013523,0.002678,0.000431,0.128928
5318000,0.0324,0.013523,0.002678,0.000431,0.080859
5319000,0.0324,0.013523,0.002678,0.000431,0.090967
5320000,0.0324,0.013523,0.002678,0.000431,0.133865
5321000,0.0324,0.013523,0.002678,0.000431,0.183697
5322000,0.0324,0.013523,0.002678,0.000431,0.092847
5323000,0.0324,0.013523,0.002678,0.000431,0.181581
5324000,0.0324,0.013523,0.002678,0.000431,0.056531
5325000,0.0324,0.013523,0.002678,0.000431,0.079919
5326000,0.0324,0.013523,0.002678,0.000431,0.149261
5327000,0.0324,0.013523,0.002678,0.000431,0.177938
5328000,0.0324,0.013523,0.002678,0.000431,0.140681
5329000,0.0324,0.013523,0.002678,0.000431,0.061702
5330000,0.0324,0.013523,0.002678,0.000431,0.076393
5331000,0.0324,0.013523,0.002678,0.000431,0.060527
5332000,0.0324,0.013523,0.002678,0.000431,0.225889
5333000,0.0324,0.013523,0.002678,0.000431,0.094610
5334000,0.0324,0.013523,0.002678,0.000431,0.128576
5335000,0.0324,0.013523,0.002678,0.000431,0.045836
5336000,0.0324,0.013523,0.002678,0.000431,0.148791
5337000,0.0324,0.013523,0.002678,0.000431,0.099664
5338000,0.0324,0.013523,0.002678,0.000431,0.131749
5339000,0.0324,0.013523,0.002678,0.000431,0.120701
5340000,0.0324,0.013523,0.002678,0.000431,0.072985
5341000,0.0324,0.013523,0.002678,0.000431,0.057941
5342000,0.0324,0.013523,0.002678,0.000431,0.102132
5343000,0.0324,0.013523,0.002678,0.000431,0.125873
5344000,0.0324,0.013523,0.002678,0.000431,0.080624
5345000,0.0324,0.013523,0.002678,0.000431,0.176057
5346000,0.0324,0.013523,0.002678,0.000431,0.098254
5347000,0.0324,0.013523,0.002678,0.000431,0.214959
5348000,0.0324,0.013523,0.002678,0.000431,0.132454
5349000,0.0324,0.013523,0.002678,0.000431,0.153844
5350000,0.0324,0.013523,0.002678,0.000431,0.085325
5351000,0.0324,0.013523,0.002678,0.000431,0.190043
5352000,0.0324,0.013523,0.002678,0.000431,0.118703
5353000,0.0324,0.013523,0.002678,0.000431,0.238230
5354000,0.0324,0.013523,0.002678,0.000431,0.139271
5355000,0.0324,0.013523,0.002678,0.000431,0.078391
5356000,0.0324,0.013523,0.002678,0.000431,0.108243
5357000,0.0324,0.013523,0.002678,0.000431,0.076863
5358000,0.0324,0.013523,0.002678,0.000431,0.159721
5359000,0.0324,0.013523,0.002678,0.000431,0.057941
5360000,0.0324,0.013523,0.002678,0.000431,0.098371
5361000,0.0324,0.013523,0.002678,0.000431,0.090027
5362000,0.0324,0.013523,0.002678,0.000431,0.070517
5363000,0.0324,0.013523,0.002678,0.000431,0.129634
5364000,0.0324,0.013523,0.002678,0.000431,0.084738
5365000,0.0324,0.013523,0.002678,0.000431,0.081917
5366000,0.0324,0.013523,0.002678,0.000431,0.125520
5367000,0.0324,0.013523,0.002678,0.000431,0.065346
5368000,0.0324,0.013523,0.002678,0.000431,0.155490
5369000,0.0324,0.013523,0.002678,0.000431,0.193334
5370000,0.0324,0.013523,0.002678,0.000431,0.141269
5371000,0.0324,0.013523,0.002678,0.000431,0.177468
5372000,0.0324,0.013523,0.002678,0.000431,0.112239
5373000,0.0324,0.013523,0.002678,0.000431,0.183579
5374000,0.0324,0.013523,0.002678,0.000431,0.072985
5375000,0.0324,0.013523,0.002678,0.000431,0.080272
5376000,0.0324,0.013523,0.002678,0.000431,0.197447
5377000,0.0324,0.013523,0.002678,0.000431,0.098606
5378000,0.0324,0.013523,0.002678,0.000431,0.076276
5379000,0.0324,0.013523,0.002678,0.000431,0.131867
5380000,0.0324,0.013523,0.002678,0.000431,0.115765
5381000,0.0324,0.013523,0.002678,0.000431,0.035611
5382000,0.0324,0.013523,0.002678,0.000431,0.090732
5383000,0.0324,0.013523,0.002678,0.000431,0.060997
5384000,0.0324,0.013523,0.002678,0.000431,0.136568
5385000,0.0324,0.013523,0.002678,0.000431,0.249160
5386000,0.0324,0.013523,0.002678,0.000431,0.110712
5387000,0.0324,0.013523,0.002678,0.000431,0.065816
5388000,0.0324,0.013523,0.002678,0.000431,0.038902
5389000,0.0324,0.013523,0.002678,0.000431,0.151729
5390000,0.0324,0.013523,0.002678,0.000431,0.188280
5391000,0.0324,0.013523,0.002678,0.000431,0.076511
5392000,0.0324,0.013523,0.002678,0.000431,0.202148
5393000,0.0324,0.013523,0.002678,0.000431,0.059352
5394000,0.0324,0.013523,0.002678,0.000431,0.049949
5395000,0.0324,0.013523,0.002678,0.000431,0.137861
5396000,0.0324,0.013523,0.002678,0.000431,0.116705
5397000,0.0324,0.013523,0.002678,0.000431,0.255741
5398000,0.0324,0.013523,0.002678,0.000431,0.191688
5399000,0.0324,0.013523,0.002678,0.000431,0.132454
5400000,0.0324,0.013523,0.002678,0.000431,0.124227
5401000,0.0324,0.013523,0.002678,0.000431,0.041252
5402000,0.0324,0.013523,0.002678,0.000431,0.135863
5403000,0.0324,0.013523,0.002678,0.000431,0.103660
5404000,0.0324,0.013523,0.002678,0.000431,0.134922
5405000,0.0324,0.013523,0.002678,0.000431,0.149848
5406000,0.0324,0.013523,0.002678,0.000431,0.035258
5407000,0.0324,0.013523,0.002678,0.000431,0.042545
5408000,0.0324,0.013523,0.002678,0.000431,0.125755
5409000,0.0324,0.013523,0.002678,0.000431,0.139506
5410000,0.0324,0.013523,0.002678,0.000431,0.058294
5411000,0.0324,0.013523,0.002678,0.000431,0.095433
5412000,0.0324,0.013523,0.002678,0.000431,0.039137
5413000,0.0324,0.013523,0.002678,0.000431,0.051242
5414000,0.0324,0.013523,0.002678,0.000431,0.095198
5415000,0.0324,0.013523,0.002678,0.000431,0.072045
5416000,0.0324,0.013523,0.002678,0.000431,0.070047
5417000,0.0324,0.013523,0.002678,0.000431,0.111652
5418000,0.0324,0.013523,0.002678,0.000431,0.179348
5419000,0.0324,0.013523,0.002678,0.000431,0.068284
5420000,0.0324,0.013523,0.002678,0.000431,0.074160
5421000,0.0324,0.013523,0.002678,0.000431,0.162777
5422000,0.0324,0.013523,0.002678,0.000431,0.057354
5423000,0.0324,0.013523,0.002678,0.000431,0.079684
5424000,0.0324,0.013523,0.002678,0.000431,0.154902
5425000,0.0324,0.013523,0.002678,0.000431,0.090497
5426000,0.0324,0.013523,0.002678,0.000431,0.086266
5427000,0.0324,0.013523,0.002678,0.000431,0.139859
5428000,0.0324,0.013523,0.002678,0.000431,0.217545
5429000,0.0324,0.013523,0.002678,0.000431,0.082622
5430000,0.0324,0.013523,0.002678,0.000431,0.102602
5431000,0.0324,0.013523,0.002678,0.000431,0.196390
5432000,0.0324,0.013523,0.002678,0.000431,0.108714
5433000,0.0324,0.013523,0.002678,0.000431,0.118233
5434000,0.0324,0.013523,0.002678,0.000431,0.091907
5435000,0.0324,0.013523,0.002678,0.000431,0.050067
5436000,0.0324,0.013523,0.002678,0.000431,0.087323
5437000,0.0324,0.013523,0.002678,0.000431,0.150671
5438000,0.0324,0.013523,0.002678,0.000431,0.054416
5439000,0.0324,0.013523,0.002678,0.000431,0.120349
5440000,0.0324,0.013523,0.002678,0.000431,0.104718
5441000,0.0324,0.013523,0.002678,0.000431,0.086618
5442000,0.0324,0.013523,0.002678,0.000431,0.055708
5443000,0.0324,0.013523,0.002678,0.000431,0.115648
5444000,0.0324,0.013523,0.002678,0.000431,0.071692
5445000,0.0324,0.013523,0.002678,0.000431,0.134570
5446000,0.0324,0.013523,0.002678,0.000431,0.197800
5447000,0.0324,0.013523,0.002678,0.000431,0.184754
5448000,0.0324,0.013523,0.002678,0.000431,0.146440
5449000,0.0324,0.013523,0.002678,0.000431,0.100722
5450000,0.0324,0.013523,0.002678,0.000431,0.131984
5451000,0.0324,0.013523,0.002678,0.000431,0.102132
5452000,0.0324,0.013523,0.002678,0.000431,0.126343
5453000,0.0324,0.013523,0.002678,0.000431,0.231060
5454000,0.0324,0.013523,0.002678,0.000431,0.132337
5455000,0.0324,0.013523,0.002678,0.000431,0.122464
5456000,0.0324,0.013523,0.002678,0.000431,0.093082
5457000,0.0324,0.013523,0.002678,0.000431,0.153962
5458000,0.0324,0.013523,0.002678,0.000431,0.103777
5459000,0.0324,0.013523,0.002678,0.000431,0.122699
5460000,0.0324,0.013523,0.002678,0.000431,0.161014
5461000,0.0324,0.013523,0.002678,0.000431,0.065228
5462000,0.0324,0.013523,0.002678,0.000431,0.189690
5463000,0.0324,0.013523,0.002678,0.000431,0.200973
5464000,0.0324,0.013523,0.002678,0.000431,0.054768
5465000,0.0324,0.013523,0.002678,0.000431,0.164892
5466000,0.0324,0.013523,0.002678,0.000431,0.125873
5467000,0.0324,0.013523,0.002678,0.000431,0.101897
5468000,0.0324,0.013523,0.002678,0.000431,0.054063
5469000,0.0324,0.013523,0.002678,0.000431,0.099311
5470000,0.0324,0.013523,0.002678,0.000431,0.149143
5471000,0.0324,0.013523,0.002678,0.000431,0.133982
5472000,0.0324,0.013523,0.002678,0.000431,0.186400
5473000,0.0324,0.013523,0.002678,0.000431,0.126460
5474000,0.0324,0.013523,0.002678,0.000431,0.085796
5475000,0.0324,0.013523,0.002678,0.000431,0.102720
5476000,0.0324,0.013523,0.002678,0.000431,0.107538
5477000,0.0324,0.013523,0.002678,0.000431,0.129986
5478000,0.0324,0.013523,0.002678,0.000431,0.235879
5479000,0.0324,0.013523,0.002678,0.000431,0.128928
5480000,0.0324,0.013523,0.002678,0.000431,0.155020
5481000,0.0324,0.013523,0.002678,0.000431,0.092142
5482000,0.0324,0.013523,0.002678,0.000431,0.133747
5483000,0.0324,0.013523,0.002678,0.000431,0.081682
5484000,0.0324,0.013523,0.002678,0.000431,0.108714
5485000,0.0324,0.013523,0.002678,0.000431,0.112122
5486000,0.0324,0.013523,0.002678,0.000431,0.118821
5487000,0.0324,0.013523,0.002678,0.000431,0.053828
5488000,0.0324,0.013523,0.002678,0.000431,0.074160
5489000,0.0324,0.013523,0.002678,0.000431,0.080272
5490000,0.0324,0.013523,0.002678,0.000431,0.055121
5491000,0.0324,0.013523,0.002678,0.000431,0.140916
5492000,0.0324,0.013523,0.002678,0.000431,0.083680
5493000,0.0324,0.013523,0.002678,0.000431,0.069107
5494000,0.0324,0.013523,0.002678,0.000431,0.084033
5495000,0.0324,0.013523,0.002678,0.000431,0.042545
5496000,0.0324,0.013523,0.002678,0.000431,0.068872
5497000,0.0324,0.013523,0.002678,0.000431,0.094610
5498000,0.0324,0.013523,0.002678,0.000431,0.083563
5499000,0.0324,0.013523,0.002678,0.000431,0.123757
5500000,0.0324,0.013523,0.002678,0.000431,0.057824
5501000,0.0324,0.013523,0.002678,0.000431,0.098606
5502000,0.0324,0.013523,0.002678,0.000431,0.138331
5503000,0.0324,0.013523,0.002678,0.000431,0.093200
5504000,0.0324,0.013523,0.002678,0.000431,0.070517
5505000,0.0324,0.013523,0.002678,0.000431,0.069812
5506000,0.0324,0.013523,0.002678,0.000431,0.112004
5507000,0.0324,0.013523,0.002678,0.000431,0.083798
5508000,0.0324,0.013523,0.002678,0.000431,0.070987
5509000,0.0324,0.013523,0.002678,0.000431,0.147850
5510000,0.0324,0.013523,0.002678,0.000431,0.129163
5511000,0.0324,0.013523,0.002678,0.000431,0.087558
5512000,0.0324,0.013523,0.002678,0.000431,0.130691
5513000,0.0324,0.013523,0.002678,0.000431,0.110476
5514000,0.0324,0.013523,0.002678,0.000431,0.135392
5515000,0.0324,0.013523,0.002678,0.000431,0.066403
5516000,0.0324,0.013523,0.002678,0.000431,0.068284
5517000,0.0324,0.013523,0.002678,0.000431,0.113415
5518000,0.0324,0.013523,0.002678,0.000431,0.080037
5519000,0.0324,0.013523,0.002678,0.000431,0.077921
5520000,0.0324,0.013523,0.002678,0.000431,0.053710
5521000,0.0324,0.013523,0.002678,0.000431,0.106833
5522000,0.0324,0.013523,0.002678,0.000431,0.060880
5523000,0.0324,0.013523,0.002678,0.000431,0.085561
5524000,0.0324,0.013523,0.002678,0.000431,0.152199
5525000,0.0324,0.013523,0.002678,0.000431,0.076746
5526000,0.0324,0.013523,0.002678,0.000431,0.070047
5527000,0.0324,0.013523,0.002678,0.000431,0.176997
5528000,0.0324,0.013523,0.002678,0.000431,0.115178
5529000,0.0324,0.013523,0.002678,0.000431,0.078039
5530000,0.0324,0.013523,0.002678,0.000431,0.085325
5531000,0.0324,0.013523,0.002678,0.000431,0.089556
5532000,0.0324,0.013523,0.002678,0.000431,0.127636
5533000,0.0324,0.013523,0.002678,0.000431,0.046071
5534000,0.0324,0.013523,0.002678,0.000431,0.161719
5535000,0.0324,0.013523,0.002678,0.000431,0.074043
5536000,0.0324,0.013523,0.002678,0.000431,0.101662
5537000,0.0324,0.013523,0.002678,0.000431,0.045366
5538000,0.0324,0.013523,0.002678,0.000431,0.055121
5539000,0.0324,0.013523,0.002678,0.000431,0.093200
5540000,0.0324,0.013523,0.002678,0.000431,0.062643
5541000,0.0324,0.013523,0.002678,0.000431,0.136803
5542000,0.0324,0.013523,0.002678,0.000431,0.128811
5543000,0.0324,0.013523,0.002678,0.000431,0.054768
5544000,0.0324,0.013523,0.002678,0.000431,0.036434
5545000,0.0324,0.013523,0.002678,0.000431,0.035964
5546000,0.0324,0.013523,0.002678,0.000431,0.069577
5547000,0.0324,0.013523,0.002678,0.000431,0.113767
5548000,0.0324,0.013523,0.002678,0.000431,0.064758
5549000,0.0324,0.013523,0.002678,0.000431,0.084150
5550000,0.0324,0.013523,0.002678,0.000431,0.079684
5551000,0.0324,0.013523,0.002678,0.000431,0.042310
5552000,0.0324,0.013523,0.002678,0.000431,0.097901
5553000,0.0324,0.013523,0.002678,0.000431,0.126225
5554000,0.0324,0.013523,0.002678,0.000431,0.110712
5555000,0.0324,0.013523,0.002678,0.000431,0.050420
5556000,0.0324,0.013523,0.002678,0.000431,0.127401
5557000,0.0324,0.013523,0.002678,0.000431,0.078391
5558000,0.0324,0.013523,0.002678,0.000431,0.079919
5559000,0.0324,0.013523,0.002678,0.000431,0.057706
5560000,0.0324,0.013523,0.002678,0.000431,0.038667
5561000,0.0324,0.013523,0.002678,0.000431,0.076628
5562000,0.0324,0.013523,0.002678,0.000431,0.120584
5563000,0.0324,0.013523,0.002678,0.000431,0.224361
5564000,0.0324,0.013523,0.002678,0.000431,0.141269
5565000,0.0324,0.013523,0.002678,0.000431,0.054180
5566000,0.0324,0.013523,0.002678,0.000431,0.096726
5567000,0.0324,0.013523,0.002678,0.000431,0.065463
5568000,0.0324,0.013523,0.002678,0.000431,0.035258
5569000,0.0324,0.013523,0.002678,0.000431,0.104718
5570000,0.0324,0.013523,0.002678,0.000431,0.092965
5571000,0.0324,0.013523,0.002678,0.000431,0.058412
5572000,0.0324,0.013523,0.002678,0.000431,0.058176
5573000,0.0324,0.013523,0.002678,0.000431,0.071692
5574000,0.0324,0.013523,0.002678,0.000431,0.065581
5575000,0.0324,0.013523,0.002678,0.000431,0.068872
5576000,0.0324,0.013523,0.002678,0.000431,0.102485
5577000,0.0324,0.013523,0.002678,0.000431,0.085090
5578000,0.0324,0.013523,0.002678,0.000431,0.090967
5579000,0.0324,0.013523,0.002678,0.000431,0.078391
5580000,0.0324,0.013523,0.002678,0.000431,0.067579
5581000,0.0324,0.013523,0.002678,0.000431,0.041958
5582000,0.0324,0.013523,0.002678,0.000431,0.218250
5583000,0.0324,0.013523,0.002678,0.000431,0.371742
5584000,0.0324,0.013523,0.002678,0.000431,0.153844
5585000,0.0324,0.013523,0.002678,0.000431,0.064288
5586000,0.0324,0.013523,0.002678,0.000431,0.054063
5587000,0.0324,0.013523,0.002678,0.000431,0.057236
5588000,0.0324,0.013523,0.002678,0.000431,0.088734
5589000,0.0324,0.013523,0.002678,0.000431,0.058764
5590000,0.0324,0.013523,0.002678,0.000431,0.052418
5591000,0.0324,0.013523,0.002678,0.000431,0.147733
5592000,0.0324,0.013523,0.002678,0.000431,0.293233
5593000,0.0324,0.013523,0.002678,0.000431,0.042428
5594000,0.0324,0.013523,0.002678,0.000431,0.061467
5595000,0.0324,0.013523,0.002678,0.000431,0.064405
5596000,0.0324,0.013523,0.002678,0.000431,0.049597
5597000,0.0324,0.013523,0.002678,0.000431,0.060292
5598000,0.0324,0.013523,0.002678,0.000431,0.103895
5599000,0.0324,0.013523,0.002678,0.000431,0.171944
5600000,0.0324,0.013523,0.002678,0.000431,0.056766
5601000,0.0324,0.013523,0.002678,0.000431,0.053945
5602000,0.0324,0.013523,0.002678,0.000431,0.076393
5603000,0.0324,0.013523,0.002678,0.000431,0.042663
5604000,0.0324,0.013523,0.002678,0.000431,0.034906
5605000,0.0324,0.013523,0.002678,0.000431,0.154902
5606000,0.0324,0.013523,0.002678,0.000431,0.319677
5607000,0.0324,0.013523,0.002678,0.000431,0.085913
5608000,0.0324,0.013523,0.002678,0.000431,0.186517
5609000,0.0324,0.013523,0.002678,0.000431,0.220600
5610000,0.0324,0.013523,0.002678,0.000431,0.105893
5611000,0.0324,0.013523,0.002678,0.000431,0.084150
5612000,0.0324,0.013523,0.002678,0.000431,0.228357
5613000,0.0324,0.013523,0.002678,0.000431,0.412054
5614000,0.0324,0.013523,0.002678,0.000431,0.336601
5615000,0.0324,0.013523,0.002678,0.000431,0.126343
5616000,0.0324,0.013523,0.002678,0.000431,0.046541
5617000,0.0324,0.013523,0.002678,0.000431,0.035023
5618000,0.0324,0.013523,0.002678,0.000431,0.071340
5619000,0.0324,0.013523,0.002678,0.000431,0.235997
5620000,0.0324,0.013523,0.002678,0.000431,0.278542
5621000,0.0324,0.013523,0.002678,0.000431,0.089909
5622000,0.0324,0.013523,0.002678,0.000431,0.044896
5623000,0.0324,0.013523,0.002678,0.000431,0.038079
5624000,0.0324,0.013523,0.002678,0.000431,0.109889
5625000,0.0324,0.013523,0.002678,0.000431,0.079567
5626000,0.0324,0.013523,0.002678,0.000431,0.042545
5627000,0.0324,0.013523,0.002678,0.000431,0.042310
5628000,0.0324,0.013523,0.002678,0.000431,0.061820
5629000,0.0324,0.013523,0.002678,0.000431,0.240933
5630000,0.0324,0.013523,0.002678,0.000431,0.176645
5631000,0.0324,0.013523,0.002678,0.000431,0.042663
5632000,0.0324,0.013523,0.002678,0.000431,0.140446
5633000,0.0324,0.013523,0.002678,0.000431,0.215194
5634000,0.0324,0.013523,0.002678,0.000431,0.061350
5635000,0.0324,0.013523,0.002678,0.000431,0.053593
5636000,0.0324,0.013523,0.002678,0.000431,0.079214
5637000,0.0324,0.013523,0.002678,0.000431,0.064876
5638000,0.0324,0.013523,0.002678,0.000431,0.035258
5639000,0.0324,0.013523,0.002678,0.000431,0.044543
5640000,0.0324,0.013523,0.002678,0.000431,0.069812
5641000,0.0324,0.013523,0.002678,0.000431,0.065228
5642000,0.0324,0.013523,0.002678,0.000431,0.223304
5643000,0.0324,0.013523,0.002678,0.000431,0.108126
5644000,0.0324,0.013523,0.002678,0.000431,0.058294
5645000,0.0324,0.013523,0.002678,0.000431,0.035023
5646000,0.0324,0.013523,0.002678,0.000431,0.054886
5647000,0.0324,0.013523,0.002678,0.000431,0.097783
5648000,0.0324,0.013523,0.002678,0.000431,0.049479
5649000,0.0324,0.013523,0.002678,0.000431,0.057589
5650000,0.0324,0.013523,0.002678,0.000431,0.049832
5651000,0.0324,0.013523,0.002678,0.000431,0.035258
5652000,0.0324,0.013523,0.002678,0.000431,0.121524
5653000,0.0324,0.013523,0.002678,0.000431,0.131749
5654000,0.0324,0.013523,0.002678,0.000431,0.234821
5655000,0.0324,0.013523,0.002678,0.000431,0.234116
5656000,0.0324,0.013523,0.002678,0.000431,0.305456
5657000,0.0324,0.013523,0.002678,0.000431,0.370096
5658000,0.0324,0.013523,0.002678,0.000431,0.203441
5659000,0.0324,0.013523,0.002678,0.000431,0.078509
5660000,0.0324,0.013523,0.002678,0.000431,0.060645
5661000,0.0324,0.013523,0.002678,0.000431,0.127988
5662000,0.0324,0.013523,0.002678,0.000431,0.260325
5663000,0.0324,0.013523,0.002678,0.000431,0.199680
5664000,0.0324,0.013523,0.002678,0.000431,0.046659
5665000,0.0324,0.013523,0.002678,0.000431,0.057589
5666000,0.0324,0.013523,0.002678,0.000431,0.067696
5667000,0.0324,0.013523,0.002678,0.000431,0.064288
5668000,0.0324,0.013523,0.002678,0.000431,0.068754
5669000,0.0324,0.013523,0.002678,0.000431,0.328374
5670000,0.0324,0.013523,0.002678,0.000431,0.455304
5671000,0.0324,0.013523,0.002678,0.000431,0.161719
5672000,0.0324,0.013523,0.002678,0.000431,0.099076
5673000,0.0324,0.013523,0.002678,0.000431,0.057706
5674000,0.0324,0.013523,0.002678,0.000431,0.055356
5675000,0.0324,0.013523,0.002678,0.000431,0.165832
5676000,0.0324,0.013523,0.002678,0.000431,0.397950
5677000,0.0324,0.013523,0.002678,0.000431,0.451191
5678000,0.0324,0.013523,0.002678,0.000431,0.099311
5679000,0.0324,0.013523,0.002678,0.000431,0.118468
5680000,0.0324,0.013523,0.002678,0.000431,0.234351
5681000,0.0324,0.013523,0.002678,0.000431,0.143149
5682000,0.0324,0.013523,0.002678,0.000431,0.035141
5683000,0.0324,0.013523,0.002678,0.000431,0.110124
5684000,0.0324,0.013523,0.002678,0.000431,0.065228
5685000,0.0324,0.013523,0.002678,0.000431,0.062760
5686000,0.0324,0.013523,0.002678,0.000431,0.218720
5687000,0.0324,0.013523,0.002678,0.000431,0.362809
5688000,0.0324,0.013523,0.002678,0.000431,0.310392
5689000,0.0324,0.013523,0.002678,0.000431,0.374327
5690000,0.0324,0.013523,0.002678,0.000431,0.197212
5691000,0.0324,0.013523,0.002678,0.000431,0.042663
5692000,0.0324,0.013523,0.002678,0.000431,0.057824
5693000,0.0324,0.013523,0.002678,0.000431,0.065698
5694000,0.0324,0.013523,0.002678,0.000431,0.218015
5695000,0.0324,0.013523,0.002678,0.000431,0.159133
5696000,0.0324,0.013523,0.002678,0.000431,0.126578
5697000,0.0324,0.013523,0.002678,0.000431,0.221658
5698000,0.0324,0.013523,0.002678,0.000431,0.221306
5699000,0.0324,0.013523,0.002678,0.000431,0.046776
5700000,0.0324,0.013523,0.002678,0.000431,0.045836
5701000,0.0324,0.013523,0.002678,0.000431,0.095433
5702000,0.0324,0.013523,0.002678,0.000431,0.069107
5703000,0.0324,0.013523,0.002678,0.000431,0.042075
5704000,0.0324,0.013523,0.002678,0.000431,0.161131
5705000,0.0324,0.013523,0.002678,0.000431,0.137861
5706000,0.0324,0.013523,0.002678,0.000431,0.109184
5707000,0.0324,0.013523,0.002678,0.000431,0.088381
5708000,0.0324,0.013523,0.002678,0.000431,0.072750
5709000,0.0324,0.013523,0.002678,0.000431,0.042780
5710000,0.0324,0.013523,0.002678,0.000431,0.067579
5711000,0.0324,0.013523,0.002678,0.000431,0.145500
5712000,0.0324,0.013523,0.002678,0.000431,0.213196
5713000,0.0324,0.013523,0.002678,0.000431,0.111534
5714000,0.0324,0.013523,0.002678,0.000431,0.056884
5715000,0.0324,0.013523,0.002678,0.000431,0.232823
5716000,0.0324,0.013523,0.002678,0.000431,0.137743
5717000,0.0324,0.013523,0.002678,0.000431,0.225419
5718000,0.0324,0.013523,0.002678,0.000431,0.281950
5719000,0.0324,0.013523,0.002678,0.000431,0.242343
5720000,0.0324,0.013523,0.002678,0.000431,0.203324
5721000,0.0324,0.013523,0.002678,0.000431,0.204499
5722000,0.0324,0.013523,0.002678,0.000431,0.067344
5723000,0.0324,0.013523,0.002678,0.000431,0.042663
5724000,0.0324,0.013523,0.002678,0.000431,0.095315
5725000,0.0324,0.013523,0.002678,0.000431,0.199915
5726000,0.0324,0.013523,0.002678,0.000431,0.458948
5727000,0.0324,0.013523,0.002678,0.000431,0.245634
5728000,0.0324,0.013523,0.002678,0.000431,0.160896
5729000,0.0324,0.013523,0.002678,0.000431,0.076511
5730000,0.0324,0.013523,0.002678,0.000431,0.057471
5731000,0.0324,0.013523,0.002678,0.000431,0.061350
5732000,0.0324,0.013523,0.002678,0.000431,0.076628
5733000,0.0324,0.013523,0.002678,0.000431,0.065111
5734000,0.0324,0.013523,0.002678,0.000431,0.057824
5735000,0.0324,0.013523,0.002678,0.000431,0.111769
5736000,0.0324,0.013523,0.002678,0.000431,0.241403
5737000,0.0324,0.013523,0.002678,0.000431,0.162306
5738000,0.0324,0.013523,0.002678,0.000431,0.081330
5739000,0.0324,0.013523,0.002678,0.000431,0.245281
5740000,0.0324,0.013523,0.002678,0.000431,0.200621
5741000,0.0324,0.013523,0.002678,0.000431,0.255271
5742000,0.0324,0.013523,0.002678,0.000431,0.207085
5743000,0.0324,0.013523,0.002678,0.000431,0.210375
5744000,0.0324,0.013523,0.002678,0.000431,0.158898
5745000,0.0324,0.013523,0.002678,0.000431,0.040312
5746000,0.0324,0.013523,0.002678,0.000431,0.285358
5747000,0.0324,0.013523,0.002678,0.000431,0.144442
5748000,0.0324,0.013523,0.002678,0.000431,0.111534
5749000,0.0324,0.013523,0.002678,0.000431,0.043368
5750000,0.0324,0.013523,0.002678,0.000431,0.065111
5751000,0.0324,0.013523,0.002678,0.000431,0.042545
5752000,0.0324,0.013523,0.002678,0.000431,0.126813
5753000,0.0324,0.013523,0.002678,0.000431,0.069342
5754000,0.0324,0.013523,0.002678,0.000431,0.123052
5755000,0.0324,0.013523,0.002678,0.000431,0.061585
5756000,0.0324,0.013523,0.002678,0.000431,0.065346
5757000,0.0324,0.013523,0.002678,0.000431,0.035258
5758000,0.0324,0.013523,0.002678,0.000431,0.035023
5759000,0.0324,0.013523,0.002678,0.000431,0.114825
5760000,0.0324,0.013523,0.002678,0.000431,0.401946
5761000,0.0324,0.013523,0.002678,0.000431,0.386668
5762000,0.0324,0.013523,0.002678,0.000431,0.348589
5763000,0.0324,0.013523,0.002678,0.000431,0.279364
5764000,0.0324,0.013523,0.002678,0.000431,0.222128
5765000,0.0324,0.013523,0.002678,0.000431,0.137038
5766000,0.0324,0.013523,0.002678,0.000431,0.067696
5767000,0.0324,0.013523,0.002678,0.000431,0.080389
5768000,0.0324,0.013523,0.002678,0.000431,0.232823
5769000,0.0324,0.013523,0.002678,0.000431,0.391486
5770000,0.0324,0.013523,0.002678,0.000431,0.298992
5771000,0.0324,0.013523,0.002678,0.000431,0.035258
5772000,0.0324,0.013523,0.002678,0.000431,0.042780
5773000,0.0324,0.013523,0.002678,0.000431,0.095550
5774000,0.0324,0.013523,0.002678,0.000431,0.104365
5775000,0.0324,0.013523,0.002678,0.000431,0.248807
5776000,0.0324,0.013523,0.002678,0.000431,0.254331
5777000,0.0324,0.013523,0.002678,0.000431,0.176880
5778000,0.0324,0.013523,0.002678,0.000431,0.042663
5779000,0.0324,0.013523,0.002678,0.000431,0.035258
5780000,0.0324,0.013523,0.002678,0.000431,0.326963
5781000,0.0324,0.013523,0.002678,0.000431,0.188280
5782000,0.0324,0.013523,0.002678,0.000431,0.275721
5783000,0.0324,0.013523,0.002678,0.000431,0.313213
5784000,0.0324,0.013523,0.002678,0.000431,0.233881
5785000,0.0324,0.013523,0.002678,0.000431,0.342242
5786000,0.0324,0.013523,0.002678,0.000431,0.273723
5787000,0.0324,0.013523,0.002678,0.000431,0.186282
5788000,0.0324,0.013523,0.002678,0.000431,0.064993
5789000,0.0324,0.013523,0.002678,0.000431,0.084033
5790000,0.0324,0.013523,0.002678,0.000431,0.111769
5791000,0.0324,0.013523,0.002678,0.000431,0.184519
5792000,0.0324,0.013523,0.002678,0.000431,0.285946
5793000,0.0324,0.013523,0.002678,0.000431,0.185695
5794000,0.0324,0.013523,0.002678,0.000431,0.400654
5795000,0.0324,0.013523,0.002678,0.000431,0.310980
5796000,0.0324,0.013523,0.002678,0.000431,0.087911
5797000,0.0324,0.013523,0.002678,0.000431,0.055003
5798000,0.0324,0.013523,0.002678,0.000431,0.119056
5799000,0.0324,0.013523,0.002678,0.000431,0.104012
5800000,0.0324,0.013523,0.002678,0.000431,0.226477
5801000,0.0324,0.013523,0.002678,0.000431,0.241403
5802000,0.0324,0.013523,0.002678,0.000431,0.214959
5803000,0.0324,0.013523,0.002678,0.000431,0.083445
5804000,0.0324,0.013523,0.002678,0.000431,0.151964
5805000,0.0324,0.013523,0.002678,0.000431,0.083915
5806000,0.0324,0.013523,0.002678,0.000431,0.083915
5807000,0.0324,0.013523,0.002678,0.000431,0.076511
5808000,0.0324,0.013523,0.002678,0.000431,0.301342
5809000,0.0324,0.013523,0.002678,0.000431,0.274781
5810000,0.0324,0.013523,0.002678,0.000431,0.117998
5811000,0.0324,0.013523,0.002678,0.000431,0.072632
5812000,0.0324,0.013523,0.002678,0.000431,0.061585
5813000,0.0324,0.013523,0.002678,0.000431,0.094845
5814000,0.0324,0.013523,0.002678,0.000431,0.121994
5815000,0.0324,0.013523,0.002678,0.000431,0.200621
5816000,0.0324,0.013523,0.002678,0.000431,0.072632
5817000,0.0324,0.013523,0.002678,0.000431,0.326376
5818000,0.0324,0.013523,0.002678,0.000431,0.081447
5819000,0.0324,0.013523,0.002678,0.000431,0.098019
5820000,0.0324,0.013523,0.002678,0.000431,0.127048
5821000,0.0324,0.013523,0.002678,0.000431,0.059939
5822000,0.0324,0.013523,0.002678,0.000431,0.087676
5823000,0.0324,0.013523,0.002678,0.000431,0.049009
5824000,0.0324,0.013523,0.002678,0.000431,0.310274
5825000,0.0324,0.013523,0.002678,0.000431,0.217662
5826000,0.0324,0.013523,0.002678,0.000431,0.237054
5827000,0.0324,0.013523,0.002678,0.000431,0.073338
5828000,0.0324,0.013523,0.002678,0.000431,0.181816
5829000,0.0324,0.013523,0.002678,0.000431,0.053710
5830000,0.0324,0.013523,0.002678,0.000431,0.048187
5831000,0.0324,0.013523,0.002678,0.000431,0.165362
5832000,0.0324,0.013523,0.002678,0.000431,0.109301
5833000,0.0324,0.013523,0.002678,0.000431,0.146440
5834000,0.0324,0.013523,0.002678,0.000431,0.076863
5835000,0.0324,0.013523,0.002678,0.000431,0.085090
5836000,0.0324,0.013523,0.002678,0.000431,0.110476
5837000,0.0324,0.013523,0.002678,0.000431,0.080389
5838000,0.0324,0.013523,0.002678,0.000431,0.065111
5839000,0.0324,0.013523,0.002678,0.000431,0.085678
5840000,0.0324,0.013523,0.002678,0.000431,0.082270
5841000,0.0324,0.013523,0.002678,0.000431,0.162189
5842000,0.0324,0.013523,0.002678,0.000431,0.076746
5843000,0.0324,0.013523,0.002678,0.000431,0.086618
5844000,0.0324,0.013523,0.002678,0.000431,0.262793
5845000,0.0324,0.013523,0.002678,0.000431,0.185459
5846000,0.0324,0.013523,0.002678,0.000431,0.201091
5847000,0.0324,0.013523,0.002678,0.000431,0.252803
5848000,0.0324,0.013523,0.002678,0.000431,0.168770
5849000,0.0324,0.013523,0.002678,0.000431,0.229180
5850000,0.0324,0.013523,0.002678,0.000431,0.224244
5851000,0.0324,0.013523,0.002678,0.000431,0.094140
5852000,0.0324,0.013523,0.002678,0.000431,0.136685
5853000,0.0324,0.013523,0.002678,0.000431,0.096843
5854000,0.0324,0.013523,0.002678,0.000431,0.146323
5855000,0.0324,0.013523,0.002678,0.000431,0.053593
5856000,0.0324,0.013523,0.002678,0.000431,0.050067
5857000,0.0324,0.013523,0.002678,0.000431,0.091437
5858000,0.0324,0.013523,0.002678,0.000431,0.080389
5859000,0.0324,0.013523,0.002678,0.000431,0.258680
5860000,0.0324,0.013523,0.002678,0.000431,0.070752
5861000,0.0324,0.013523,0.002678,0.000431,0.260325
5862000,0.0324,0.013523,0.002678,0.000431,0.109654
5863000,0.0324,0.013523,0.002678,0.000431,0.139036
5864000,0.0324,0.013523,0.002678,0.000431,0.062995
5865000,0.0324,0.013523,0.002678,0.000431,0.071575
5866000,0.0324,0.013523,0.002678,0.000431,0.192864
5867000,0.0324,0.013523,0.002678,0.000431,0.163129
5868000,0.0324,0.013523,0.002678,0.000431,0.174647
5869000,0.0324,0.013523,0.002678,0.000431,0.192864
5870000,0.0324,0.013523,0.002678,0.000431,0.107303
5871000,0.0324,0.013523,0.002678,0.000431,0.150201
5872000,0.0324,0.013523,0.002678,0.000431,0.080272
5873000,0.0324,0.013523,0.002678,0.000431,0.086383
5874000,0.0324,0.013523,0.002678,0.000431,0.218602
5875000,0.0324,0.013523,0.002678,0.000431,0.360576
5876000,0.0324,0.013523,0.002678,0.000431,0.106716
5877000,0.0324,0.013523,0.002678,0.000431,0.080389
5878000,0.0324,0.013523,0.002678,0.000431,0.050420
5879000,0.0324,0.013523,0.002678,0.000431,0.117176
5880000,0.0324,0.013523,0.002678,0.000431,0.058059
5881000,0.0324,0.013523,0.002678,0.000431,0.229180
5882000,0.0324,0.013523,0.002678,0.000431,0.215782
5883000,0.0324,0.013523,0.002678,0.000431,0.072515
5884000,0.0324,0.013523,0.002678,0.000431,0.079332
5885000,0.0324,0.013523,0.002678,0.000431,0.163834
5886000,0.0324,0.013523,0.002678,0.000431,0.104247
5887000,0.0324,0.013523,0.002678,0.000431,0.078861
5888000,0.0324,0.013523,0.002678,0.000431,0.327198
5889000,0.0324,0.013523,0.002678,0.000431,0.273841
5890000,0.0324,0.013523,0.002678,0.000431,0.164069
5891000,0.0324,0.013523,0.002678,0.000431,0.133630
5892000,0.0324,0.013523,0.002678,0.000431,0.202971
5893000,0.0324,0.013523,0.002678,0.000431,0.147968
5894000,0.0324,0.013523,0.002678,0.000431,0.204499
5895000,0.0324,0.013523,0.002678,0.000431,0.188163
5896000,0.0324,0.013523,0.002678,0.000431,0.140916
5897000,0.0324,0.013523,0.002678,0.000431,0.146205
5898000,0.0324,0.013523,0.002678,0.000431,0.068989
5899000,0.0324,0.013523,0.002678,0.000431,0.271020
5900000,0.0324,0.013523,0.002678,0.000431,0.321440
5901000,0.0324,0.013523,0.002678,0.000431,0.238935
5902000,0.0324,0.013523,0.002678,0.000431,0.123522
5903000,0.0324,0.013523,0.002678,0.000431,0.184872
5904000,0.0324,0.013523,0.002678,0.000431,0.177115
5905000,0.0324,0.013523,0.002678,0.000431,0.234351
5906000,0.0324,0.013523,0.002678,0.000431,0.193451
5907000,0.0324,0.013523,0.002678,0.000431,0.180641
5908000,0.0324,0.013523,0.002678,0.000431,0.061585
5909000,0.0324,0.013523,0.002678,0.000431,0.294996
5910000,0.0324,0.013523,0.002678,0.000431,0.068166
5911000,0.0324,0.013523,0.002678,0.000431,0.057589
5912000,0.0324,0.013523,0.002678,0.000431,0.127636
5913000,0.0324,0.013523,0.002678,0.000431,0.116588
5914000,0.0324,0.013523,0.002678,0.000431,0.213784
5915000,0.0324,0.013523,0.002678,0.000431,0.136450
5916000,0.0324,0.013523,0.002678,0.000431,0.163247
5917000,0.0324,0.013523,0.002678,0.000431,0.129163
5918000,0.0324,0.013523,0.002678,0.000431,0.243283
5919000,0.0324,0.013523,0.002678,0.000431,0.214019
5920000,0.0324,0.013523,0.002678,0.000431,0.121877
5921000,0.0324,0.013523,0.002678,0.000431,0.091672
5922000,0.0324,0.013523,0.002678,0.000431,0.168065
5923000,0.0324,0.013523,0.002678,0.000431,0.289824
5924000,0.0324,0.013523,0.002678,0.000431,0.218602
5925000,0.0324,0.013523,0.002678,0.000431,0.210846
5926000,0.0324,0.013523,0.002678,0.000431,0.274076
5927000,0.0324,0.013523,0.002678,0.000431,0.066521
5928000,0.0324,0.013523,0.002678,0.000431,0.062055
5929000,0.0324,0.013523,0.002678,0.000431,0.149848
5930000,0.0324,0.013523,0.002678,0.000431,0.242578
5931000,0.0324,0.013523,0.002678,0.000431,0.249630
5932000,0.0324,0.013523,0.002678,0.000431,0.243636
5933000,0.0324,0.013523,0.002678,0.000431,0.212021
5934000,0.0324,0.013523,0.002678,0.000431,0.114237
5935000,0.0324,0.013523,0.002678,0.000431,0.135745
5936000,0.0324,0.013523,0.002678,0.000431,0.076511
5937000,0.0324,0.013523,0.002678,0.000431,0.233411
5938000,0.0324,0.013523,0.002678,0.000431,0.214842
5939000,0.0324,0.013523,0.002678,0.000431,0.154785
5940000,0.0324,0.013523,0.002678,0.000431,0.092730
5941000,0.0324,0.013523,0.002678,0.000431,0.086266
5942000,0.0324,0.013523,0.002678,0.000431,0.105540
5943000,0.0324,0.013523,0.002678,0.000431,0.123640
5944000,0.0324,0.013523,0.002678,0.000431,0.163129
5945000,0.0324,0.013523,0.002678,0.000431,0.053593
5946000,0.0324,0.013523,0.002678,0.000431,0.090967
5947000,0.0324,0.013523,0.002678,0.000431,0.406530
5948000,0.0324,0.013523,0.002678,0.000431,0.155725
5949000,0.0324,0.013523,0.002678,0.000431,0.046541
5950000,0.0324,0.013523,0.002678,0.000431,0.217662
5951000,0.0324,0.013523,0.002678,0.000431,0.230355
5952000,0.0324,0.013523,0.002678,0.000431,0.269610
5953000,0.0324,0.013523,0.002678,0.000431,0.084268
5954000,0.0324,0.013523,0.002678,0.000431,0.167243
5955000,0.0324,0.013523,0.002678,0.000431,0.207672
5956000,0.0324,0.013523,0.002678,0.000431,0.054416
5957000,0.0324,0.013523,0.002678,0.000431,0.076511
5958000,0.0324,0.013523,0.002678,0.000431,0.122229
5959000,0.0324,0.013523,0.002678,0.000431,0.170181
5960000,0.0324,0.013523,0.002678,0.000431,0.115060
5961000,0.0324,0.013523,0.002678,0.000431,0.154667
5962000,0.0324,0.013523,0.002678,0.000431,0.087794
5963000,0.0324,0.013523,0.002678,0.000431,0.064993
5964000,0.0324,0.013523,0.002678,0.000431,0.111887
5965000,0.0324,0.013523,0.002678,0.000431,0.116235
5966000,0.0324,0.013523,0.002678,0.000431,0.184402
5967000,0.0324,0.013523,0.002678,0.000431,0.300990
5968000,0.0324,0.013523,0.002678,0.000431,0.188985
5969000,0.0324,0.013523,0.002678,0.000431,0.117411
5970000,0.0324,0.013523,0.002678,0.000431,0.075923
5971000,0.0324,0.013523,0.002678,0.000431,0.085913
5972000,0.0324,0.013523,0.002678,0.000431,0.202266
5973000,0.0324,0.013523,0.002678,0.000431,0.300402
5974000,0.0324,0.013523,0.002678,0.000431,0.167360
5975000,0.0324,0.013523,0.002678,0.000431,0.191924
5976000,0.0324,0.013523,0.002678,0.000431,0.088264
5977000,0.0324,0.013523,0.002678,0.000431,0.042545
5978000,0.0324,0.013523,0.002678,0.000431,0.053593
5979000,0.0324,0.013523,0.002678,0.000431,0.117998
5980000,0.0324,0.013523,0.002678,0.000431,0.368216
5981000,0.0324,0.013523,0.002678,0.000431,0.163012
5982000,0.0324,0.013523,0.002678,0.000431,0.347178
5983000,0.0324,0.013523,0.002678,0.000431,0.099664
5984000,0.0324,0.013523,0.002678,0.000431,0.068636
5985000,0.0324,0.013523,0.002678,0.000431,0.101544
5986000,0.0324,0.013523,0.002678,0.000431,0.112004
5987000,0.0324,0.013523,0.002678,0.000431,0.232588
5988000,0.0324,0.013523,0.002678,0.000431,0.167243
5989000,0.0324,0.013523,0.002678,0.000431,0.170416
5990000,0.0324,0.013523,0.002678,0.000431,0.173942
5991000,0.0324,0.013523,0.002678,0.000431,0.196507
5992000,0.0324,0.013523,0.002678,0.000431,0.279717
5993000,0.0324,0.013523,0.002678,0.000431,0.212961
5994000,0.0324,0.013523,0.002678,0.000431,0.103777
5995000,0.0324,0.013523,0.002678,0.000431,0.228827
5996000,0.0324,0.013523,0.002678,0.000431,0.200503
5997000,0.0324,0.013523,0.002678,0.000431,0.306161
5998000,0.0324,0.013523,0.002678,0.000431,0.254566
5999000,0.0324,0.013523,0.002678,0.000431,0.221893
