Cycle,Area(mm^2),PeakDynamic(W),SubthresholdLeakage(W),GateLeakage(W),RunTimeDynamic(W)
4000000,0.0324,0.013523,0.002678,0.000431,0.073338
4001000,0.0324,0.013523,0.002678,0.000431,0.179348
4002000,0.0324,0.013523,0.002678,0.000431,0.146793
4003000,0.0324,0.013523,0.002678,0.000431,0.200738
4004000,0.0324,0.013523,0.002678,0.000431,0.109889
4005000,0.0324,0.013523,0.002678,0.000431,0.120936
4006000,0.0324,0.013523,0.002678,0.000431,0.177232
4007000,0.0324,0.013523,0.002678,0.000431,0.103190
4008000,0.0324,0.013523,0.002678,0.000431,0.126108
4009000,0.0324,0.013523,0.002678,0.000431,0.071457
4010000,0.0324,0.013523,0.002678,0.000431,0.228592
4011000,0.0324,0.013523,0.002678,0.000431,0.273841
4012000,0.0324,0.013523,0.002678,0.000431,0.164657
4013000,0.0324,0.013523,0.002678,0.000431,0.170651
4014000,0.0324,0.013523,0.002678,0.000431,0.068989
4015000,0.0324,0.013523,0.002678,0.000431,0.050185
4016000,0.0324,0.013523,0.002678,0.000431,0.190278
4017000,0.0324,0.013523,0.002678,0.000431,0.081212
4018000,0.0324,0.013523,0.002678,0.000431,0.120349
4019000,0.0324,0.013523,0.002678,0.000431,0.120349
4020000,0.0324,0.013523,0.002678,0.000431,0.136803
4021000,0.0324,0.013523,0.002678,0.000431,0.155490
4022000,0.0324,0.013523,0.002678,0.000431,0.189926
4023000,0.0324,0.013523,0.002678,0.000431,0.302047
4024000,0.0324,0.013523,0.002678,0.000431,0.067579
4025000,0.0324,0.013523,0.002678,0.000431,0.125638
4026000,0.0324,0.013523,0.002678,0.000431,0.183461
4027000,0.0324,0.013523,0.002678,0.000431,0.236467
4028000,0.0324,0.013523,0.002678,0.000431,0.151611
4029000,0.0324,0.013523,0.002678,0.000431,0.155607
4030000,0.0324,0.013523,0.002678,0.000431,0.329196
4031000,0.0324,0.013523,0.002678,0.000431,0.143619
4032000,0.0324,0.013523,0.002678,0.000431,0.113062
4033000,0.0324,0.013523,0.002678,0.000431,0.179701
4034000,0.0324,0.013523,0.002678,0.000431,0.156430
4035000,0.0324,0.013523,0.002678,0.000431,0.117058
4036000,0.0324,0.013523,0.002678,0.000431,0.061585
4037000,0.0324,0.013523,0.002678,0.000431,0.163012
4038000,0.0324,0.013523,0.002678,0.000431,0.154667
4039000,0.0324,0.013523,0.002678,0.000431,0.212491
4040000,0.0324,0.013523,0.002678,0.000431,0.141151
4041000,0.0324,0.013523,0.002678,0.000431,0.212021
4042000,0.0324,0.013523,0.002678,0.000431,0.061467
4043000,0.0324,0.013523,0.002678,0.000431,0.199915
4044000,0.0324,0.013523,0.002678,0.000431,0.219073
4045000,0.0324,0.013523,0.002678,0.000431,0.233528
4046000,0.0324,0.013523,0.002678,0.000431,0.053710
4047000,0.0324,0.013523,0.002678,0.000431,0.147968
4048000,0.0324,0.013523,0.002678,0.000431,0.086736
4049000,0.0324,0.013523,0.002678,0.000431,0.142209
4050000,0.0324,0.013523,0.002678,0.000431,0.090967
4051000,0.0324,0.013523,0.002678,0.000431,0.206262
4052000,0.0324,0.013523,0.002678,0.000431,0.115530
4053000,0.0324,0.013523,0.002678,0.000431,0.148673
4054000,0.0324,0.013523,0.002678,0.000431,0.362104
4055000,0.0324,0.013523,0.002678,0.000431,0.223539
4056000,0.0324,0.013523,0.002678,0.000431,0.174412
4057000,0.0324,0.013523,0.002678,0.000431,0.214724
4058000,0.0324,0.013523,0.002678,0.000431,0.095550
4059000,0.0324,0.013523,0.002678,0.000431,0.089204
4060000,0.0324,0.013523,0.002678,0.000431,0.112710
4061000,0.0324,0.013523,0.002678,0.000431,0.103190
4062000,0.0324,0.013523,0.002678,0.000431,0.058764
4063000,0.0324,0.013523,0.002678,0.000431,0.113415
4064000,0.0324,0.013523,0.002678,0.000431,0.313330
4065000,0.0324,0.013523,0.002678,0.000431,0.079214
4066000,0.0324,0.013523,0.002678,0.000431,0.072985
4067000,0.0324,0.013523,0.002678,0.000431,0.156900
4068000,0.0324,0.013523,0.002678,0.000431,0.235762
4069000,0.0324,0.013523,0.002678,0.000431,0.070634
4070000,0.0324,0.013523,0.002678,0.000431,0.078626
4071000,0.0324,0.013523,0.002678,0.000431,0.142327
4072000,0.0324,0.013523,0.002678,0.000431,0.169711
4073000,0.0324,0.013523,0.002678,0.000431,0.149026
4074000,0.0324,0.013523,0.002678,0.000431,0.238465
4075000,0.0324,0.013523,0.002678,0.000431,0.152787
4076000,0.0324,0.013523,0.002678,0.000431,0.124580
4077000,0.0324,0.013523,0.002678,0.000431,0.219778
4078000,0.0324,0.013523,0.002678,0.000431,0.102132
4079000,0.0324,0.013523,0.002678,0.000431,0.207672
4080000,0.0324,0.013523,0.002678,0.000431,0.165950
4081000,0.0324,0.013523,0.002678,0.000431,0.080507
4082000,0.0324,0.013523,0.002678,0.000431,0.114825
4083000,0.0324,0.013523,0.002678,0.000431,0.130691
4084000,0.0324,0.013523,0.002678,0.000431,0.165832
4085000,0.0324,0.013523,0.002678,0.000431,0.079684
4086000,0.0324,0.013523,0.002678,0.000431,0.093435
4087000,0.0324,0.013523,0.002678,0.000431,0.159133
4088000,0.0324,0.013523,0.002678,0.000431,0.219543
4089000,0.0324,0.013523,0.002678,0.000431,0.063348
4090000,0.0324,0.013523,0.002678,0.000431,0.202266
4091000,0.0324,0.013523,0.002678,0.000431,0.149848
4092000,0.0324,0.013523,0.002678,0.000431,0.090967
4093000,0.0324,0.013523,0.002678,0.000431,0.152669
4094000,0.0324,0.013523,0.002678,0.000431,0.178525
4095000,0.0324,0.013523,0.002678,0.000431,0.154432
4096000,0.0324,0.013523,0.002678,0.000431,0.194157
4097000,0.0324,0.013523,0.002678,0.000431,0.094493
4098000,0.0324,0.013523,0.002678,0.000431,0.034906
4099000,0.0324,0.013523,0.002678,0.000431,0.176057
4100000,0.0324,0.013523,0.002678,0.000431,0.312037
4101000,0.0324,0.013523,0.002678,0.000431,0.079449
4102000,0.0324,0.013523,0.002678,0.000431,0.129163
4103000,0.0324,0.013523,0.002678,0.000431,0.112474
4104000,0.0324,0.013523,0.002678,0.000431,0.131044
4105000,0.0324,0.013523,0.002678,0.000431,0.136098
4106000,0.0324,0.013523,0.002678,0.000431,0.220953
4107000,0.0324,0.013523,0.002678,0.000431,0.079567
4108000,0.0324,0.013523,0.002678,0.000431,0.163482
4109000,0.0324,0.013523,0.002678,0.000431,0.145382
4110000,0.0324,0.013523,0.002678,0.000431,0.067226
4111000,0.0324,0.013523,0.002678,0.000431,0.060409
4112000,0.0324,0.013523,0.002678,0.000431,0.105188
4113000,0.0324,0.013523,0.002678,0.000431,0.180288
4114000,0.0324,0.013523,0.002678,0.000431,0.200621
4115000,0.0324,0.013523,0.002678,0.000431,0.147850
4116000,0.0324,0.013523,0.002678,0.000431,0.092612
4117000,0.0324,0.013523,0.002678,0.000431,0.205674
4118000,0.0324,0.013523,0.002678,0.000431,0.196977
4119000,0.0324,0.013523,0.002678,0.000431,0.196507
4120000,0.0324,0.013523,0.002678,0.000431,0.139153
4121000,0.0324,0.013523,0.002678,0.000431,0.138213
4122000,0.0324,0.013523,0.002678,0.000431,0.181111
4123000,0.0324,0.013523,0.002678,0.000431,0.099076
4124000,0.0324,0.013523,0.002678,0.000431,0.038784
4125000,0.0324,0.013523,0.002678,0.000431,0.129163
4126000,0.0324,0.013523,0.002678,0.000431,0.132924
4127000,0.0324,0.013523,0.002678,0.000431,0.087676
4128000,0.0324,0.013523,0.002678,0.000431,0.170063
4129000,0.0324,0.013523,0.002678,0.000431,0.163482
4130000,0.0324,0.013523,0.002678,0.000431,0.244576
4131000,0.0324,0.013523,0.002678,0.000431,0.119409
4132000,0.0324,0.013523,0.002678,0.000431,0.276426
4133000,0.0324,0.013523,0.002678,0.000431,0.241520
4134000,0.0324,0.013523,0.002678,0.000431,0.279717
4135000,0.0324,0.013523,0.002678,0.000431,0.263968
4136000,0.0324,0.013523,0.002678,0.000431,0.146205
4137000,0.0324,0.013523,0.002678,0.000431,0.147968
4138000,0.0324,0.013523,0.002678,0.000431,0.182169
4139000,0.0324,0.013523,0.002678,0.000431,0.168065
4140000,0.0324,0.013523,0.002678,0.000431,0.333898
4141000,0.0324,0.013523,0.002678,0.000431,0.206850
4142000,0.0324,0.013523,0.002678,0.000431,0.178290
4143000,0.0324,0.013523,0.002678,0.000431,0.132924
4144000,0.0324,0.013523,0.002678,0.000431,0.161719
4145000,0.0324,0.013523,0.002678,0.000431,0.164657
4146000,0.0324,0.013523,0.002678,0.000431,0.087911
4147000,0.0324,0.013523,0.002678,0.000431,0.206262
4148000,0.0324,0.013523,0.002678,0.000431,0.159486
4149000,0.0324,0.013523,0.002678,0.000431,0.103425
4150000,0.0324,0.013523,0.002678,0.000431,0.125168
4151000,0.0324,0.013523,0.002678,0.000431,0.199093
4152000,0.0324,0.013523,0.002678,0.000431,0.106716
4153000,0.0324,0.013523,0.002678,0.000431,0.166537
4154000,0.0324,0.013523,0.002678,0.000431,0.222128
4155000,0.0324,0.013523,0.002678,0.000431,0.200503
4156000,0.0324,0.013523,0.002678,0.000431,0.120114
4157000,0.0324,0.013523,0.002678,0.000431,0.104953
4158000,0.0324,0.013523,0.002678,0.000431,0.118351
4159000,0.0324,0.013523,0.002678,0.000431,0.149026
4160000,0.0324,0.013523,0.002678,0.000431,0.152317
4161000,0.0324,0.013523,0.002678,0.000431,0.050185
4162000,0.0324,0.013523,0.002678,0.000431,0.077451
4163000,0.0324,0.013523,0.002678,0.000431,0.139859
4164000,0.0324,0.013523,0.002678,0.000431,0.271138
4165000,0.0324,0.013523,0.002678,0.000431,0.149143
4166000,0.0324,0.013523,0.002678,0.000431,0.191101
4167000,0.0324,0.013523,0.002678,0.000431,0.254919
4168000,0.0324,0.013523,0.002678,0.000431,0.110476
4169000,0.0324,0.013523,0.002678,0.000431,0.157253
4170000,0.0324,0.013523,0.002678,0.000431,0.056178
4171000,0.0324,0.013523,0.002678,0.000431,0.099429
4172000,0.0324,0.013523,0.002678,0.000431,0.098136
4173000,0.0324,0.013523,0.002678,0.000431,0.098019
4174000,0.0324,0.013523,0.002678,0.000431,0.195449
4175000,0.0324,0.013523,0.002678,0.000431,0.076628
4176000,0.0324,0.013523,0.002678,0.000431,0.076393
4177000,0.0324,0.013523,0.002678,0.000431,0.180993
4178000,0.0324,0.013523,0.002678,0.000431,0.134570
4179000,0.0324,0.013523,0.002678,0.000431,0.153727
4180000,0.0324,0.013523,0.002678,0.000431,0.225302
4181000,0.0324,0.013523,0.002678,0.000431,0.208848
4182000,0.0324,0.013523,0.002678,0.000431,0.091790
4183000,0.0324,0.013523,0.002678,0.000431,0.113415
4184000,0.0324,0.013523,0.002678,0.000431,0.097313
4185000,0.0324,0.013523,0.002678,0.000431,0.074160
4186000,0.0324,0.013523,0.002678,0.000431,0.118233
4187000,0.0324,0.013523,0.002678,0.000431,0.133747
4188000,0.0324,0.013523,0.002678,0.000431,0.063583
4189000,0.0324,0.013523,0.002678,0.000431,0.035141
4190000,0.0324,0.013523,0.002678,0.000431,0.162777
4191000,0.0324,0.013523,0.002678,0.000431,0.169593
4192000,0.0324,0.013523,0.002678,0.000431,0.190513
4193000,0.0324,0.013523,0.002678,0.000431,0.140916
4194000,0.0324,0.013523,0.002678,0.000431,0.109889
4195000,0.0324,0.013523,0.002678,0.000431,0.088146
4196000,0.0324,0.013523,0.002678,0.000431,0.139976
4197000,0.0324,0.013523,0.002678,0.000431,0.098959
4198000,0.0324,0.013523,0.002678,0.000431,0.097783
4199000,0.0324,0.013523,0.002678,0.000431,0.183814
4200000,0.0324,0.013523,0.002678,0.000431,0.117411
4201000,0.0324,0.013523,0.002678,0.000431,0.072045
4202000,0.0324,0.013523,0.002678,0.000431,0.043250
4203000,0.0324,0.013523,0.002678,0.000431,0.215429
4204000,0.0324,0.013523,0.002678,0.000431,0.098489
4205000,0.0324,0.013523,0.002678,0.000431,0.145382
4206000,0.0324,0.013523,0.002678,0.000431,0.197682
4207000,0.0324,0.013523,0.002678,0.000431,0.101192
4208000,0.0324,0.013523,0.002678,0.000431,0.302988
4209000,0.0324,0.013523,0.002678,0.000431,0.172531
4210000,0.0324,0.013523,0.002678,0.000431,0.150671
4211000,0.0324,0.013523,0.002678,0.000431,0.232236
4212000,0.0324,0.013523,0.002678,0.000431,0.184754
4213000,0.0324,0.013523,0.002678,0.000431,0.198858
4214000,0.0324,0.013523,0.002678,0.000431,0.114002
4215000,0.0324,0.013523,0.002678,0.000431,0.038902
4216000,0.0324,0.013523,0.002678,0.000431,0.151611
4217000,0.0324,0.013523,0.002678,0.000431,0.087911
4218000,0.0324,0.013523,0.002678,0.000431,0.228592
4219000,0.0324,0.013523,0.002678,0.000431,0.082857
4220000,0.0324,0.013523,0.002678,0.000431,0.073103
4221000,0.0324,0.013523,0.002678,0.000431,0.072750
4222000,0.0324,0.013523,0.002678,0.000431,0.174177
4223000,0.0324,0.013523,0.002678,0.000431,0.141386
4224000,0.0324,0.013523,0.002678,0.000431,0.198623
4225000,0.0324,0.013523,0.002678,0.000431,0.304045
4226000,0.0324,0.013523,0.002678,0.000431,0.329667
4227000,0.0324,0.013523,0.002678,0.000431,0.094610
4228000,0.0324,0.013523,0.002678,0.000431,0.123052
4229000,0.0324,0.013523,0.002678,0.000431,0.151141
4230000,0.0324,0.013523,0.002678,0.000431,0.160073
4231000,0.0324,0.013523,0.002678,0.000431,0.254919
4232000,0.0324,0.013523,0.002678,0.000431,0.170768
4233000,0.0324,0.013523,0.002678,0.000431,0.086031
4234000,0.0324,0.013523,0.002678,0.000431,0.173824
4235000,0.0324,0.013523,0.002678,0.000431,0.376913
4236000,0.0324,0.013523,0.002678,0.000431,0.091790
4237000,0.0324,0.013523,0.002678,0.000431,0.161836
4238000,0.0324,0.013523,0.002678,0.000431,0.152434
4239000,0.0324,0.013523,0.002678,0.000431,0.095080
4240000,0.0324,0.013523,0.002678,0.000431,0.072750
4241000,0.0324,0.013523,0.002678,0.000431,0.150083
4242000,0.0324,0.013523,0.002678,0.000431,0.096961
4243000,0.0324,0.013523,0.002678,0.000431,0.205674
4244000,0.0324,0.013523,0.002678,0.000431,0.220835
4245000,0.0324,0.013523,0.002678,0.000431,0.148908
4246000,0.0324,0.013523,0.002678,0.000431,0.050185
4247000,0.0324,0.013523,0.002678,0.000431,0.098841
4248000,0.0324,0.013523,0.002678,0.000431,0.148673
4249000,0.0324,0.013523,0.002678,0.000431,0.088616
4250000,0.0324,0.013523,0.002678,0.000431,0.090732
4251000,0.0324,0.013523,0.002678,0.000431,0.089674
4252000,0.0324,0.013523,0.002678,0.000431,0.097666
4253000,0.0324,0.013523,0.002678,0.000431,0.098841
4254000,0.0324,0.013523,0.002678,0.000431,0.072985
4255000,0.0324,0.013523,0.002678,0.000431,0.063113
4256000,0.0324,0.013523,0.002678,0.000431,0.148556
4257000,0.0324,0.013523,0.002678,0.000431,0.166420
4258000,0.0324,0.013523,0.002678,0.000431,0.195684
4259000,0.0324,0.013523,0.002678,0.000431,0.072632
4260000,0.0324,0.013523,0.002678,0.000431,0.108831
4261000,0.0324,0.013523,0.002678,0.000431,0.127871
4262000,0.0324,0.013523,0.002678,0.000431,0.147498
4263000,0.0324,0.013523,0.002678,0.000431,0.167125
4264000,0.0324,0.013523,0.002678,0.000431,0.071457
4265000,0.0324,0.013523,0.002678,0.000431,0.246339
4266000,0.0324,0.013523,0.002678,0.000431,0.154902
4267000,0.0324,0.013523,0.002678,0.000431,0.144560
4268000,0.0324,0.013523,0.002678,0.000431,0.075101
4269000,0.0324,0.013523,0.002678,0.000431,0.173472
4270000,0.0324,0.013523,0.002678,0.000431,0.208965
4271000,0.0324,0.013523,0.002678,0.000431,0.149261
4272000,0.0324,0.013523,0.002678,0.000431,0.049597
4273000,0.0324,0.013523,0.002678,0.000431,0.064053
4274000,0.0324,0.013523,0.002678,0.000431,0.219425
4275000,0.0324,0.013523,0.002678,0.000431,0.164187
4276000,0.0324,0.013523,0.002678,0.000431,0.069694
4277000,0.0324,0.013523,0.002678,0.000431,0.090967
4278000,0.0324,0.013523,0.002678,0.000431,0.095080
4279000,0.0324,0.013523,0.002678,0.000431,0.102837
4280000,0.0324,0.013523,0.002678,0.000431,0.177585
4281000,0.0324,0.013523,0.002678,0.000431,0.186987
4282000,0.0324,0.013523,0.002678,0.000431,0.194392
4283000,0.0324,0.013523,0.002678,0.000431,0.183109
4284000,0.0324,0.013523,0.002678,0.000431,0.050420
4285000,0.0324,0.013523,0.002678,0.000431,0.091437
4286000,0.0324,0.013523,0.002678,0.000431,0.125168
4287000,0.0324,0.013523,0.002678,0.000431,0.174647
4288000,0.0324,0.013523,0.002678,0.000431,0.155842
4289000,0.0324,0.013523,0.002678,0.000431,0.165245
4290000,0.0324,0.013523,0.002678,0.000431,0.081565
4291000,0.0324,0.013523,0.002678,0.000431,0.038549
4292000,0.0324,0.013523,0.002678,0.000431,0.050067
4293000,0.0324,0.013523,0.002678,0.000431,0.072750
4294000,0.0324,0.013523,0.002678,0.000431,0.069577
4295000,0.0324,0.013523,0.002678,0.000431,0.143149
4296000,0.0324,0.013523,0.002678,0.000431,0.257739
4297000,0.0324,0.013523,0.002678,0.000431,0.084150
4298000,0.0324,0.013523,0.002678,0.000431,0.042780
4299000,0.0324,0.013523,0.002678,0.000431,0.089321
4300000,0.0324,0.013523,0.002678,0.000431,0.171591
4301000,0.0324,0.013523,0.002678,0.000431,0.183109
4302000,0.0324,0.013523,0.002678,0.000431,0.246104
4303000,0.0324,0.013523,0.002678,0.000431,0.167243
4304000,0.0324,0.013523,0.002678,0.000431,0.065933
4305000,0.0324,0.013523,0.002678,0.000431,0.135157
4306000,0.0324,0.013523,0.002678,0.000431,0.199915
4307000,0.0324,0.013523,0.002678,0.000431,0.194627
4308000,0.0324,0.013523,0.002678,0.000431,0.146558
4309000,0.0324,0.013523,0.002678,0.000431,0.155842
4310000,0.0324,0.013523,0.002678,0.000431,0.103895
4311000,0.0324,0.013523,0.002678,0.000431,0.041370
4312000,0.0324,0.013523,0.002678,0.000431,0.159603
4313000,0.0324,0.013523,0.002678,0.000431,0.046541
4314000,0.0324,0.013523,0.002678,0.000431,0.095315
4315000,0.0324,0.013523,0.002678,0.000431,0.064993
4316000,0.0324,0.013523,0.002678,0.000431,0.076511
4317000,0.0324,0.013523,0.002678,0.000431,0.132924
4318000,0.0324,0.013523,0.002678,0.000431,0.045954
4319000,0.0324,0.013523,0.002678,0.000431,0.200621
4320000,0.0324,0.013523,0.002678,0.000431,0.161366
4321000,0.0324,0.013523,0.002678,0.000431,0.289707
4322000,0.0324,0.013523,0.002678,0.000431,0.104835
4323000,0.0324,0.013523,0.002678,0.000431,0.133042
4324000,0.0324,0.013523,0.002678,0.000431,0.110712
4325000,0.0324,0.013523,0.002678,0.000431,0.188750
4326000,0.0324,0.013523,0.002678,0.000431,0.099311
4327000,0.0324,0.013523,0.002678,0.000431,0.131397
4328000,0.0324,0.013523,0.002678,0.000431,0.254684
4329000,0.0324,0.013523,0.002678,0.000431,0.068519
4330000,0.0324,0.013523,0.002678,0.000431,0.122347
4331000,0.0324,0.013523,0.002678,0.000431,0.070282
4332000,0.0324,0.013523,0.002678,0.000431,0.120349
4333000,0.0324,0.013523,0.002678,0.000431,0.232706
4334000,0.0324,0.013523,0.002678,0.000431,0.153962
4335000,0.0324,0.013523,0.002678,0.000431,0.095198
4336000,0.0324,0.013523,0.002678,0.000431,0.087911
4337000,0.0324,0.013523,0.002678,0.000431,0.087911
4338000,0.0324,0.013523,0.002678,0.000431,0.117881
4339000,0.0324,0.013523,0.002678,0.000431,0.047599
4340000,0.0324,0.013523,0.002678,0.000431,0.206967
4341000,0.0324,0.013523,0.002678,0.000431,0.328609
4342000,0.0324,0.013523,0.002678,0.000431,0.208142
4343000,0.0324,0.013523,0.002678,0.000431,0.113767
4344000,0.0324,0.013523,0.002678,0.000431,0.175587
4345000,0.0324,0.013523,0.002678,0.000431,0.103190
4346000,0.0324,0.013523,0.002678,0.000431,0.159368
4347000,0.0324,0.013523,0.002678,0.000431,0.134217
4348000,0.0324,0.013523,0.002678,0.000431,0.114002
4349000,0.0324,0.013523,0.002678,0.000431,0.057824
4350000,0.0324,0.013523,0.002678,0.000431,0.035141
4351000,0.0324,0.013523,0.002678,0.000431,0.231648
4352000,0.0324,0.013523,0.002678,0.000431,0.122112
4353000,0.0324,0.013523,0.002678,0.000431,0.173354
4354000,0.0324,0.013523,0.002678,0.000431,0.123170
4355000,0.0324,0.013523,0.002678,0.000431,0.090614
4356000,0.0324,0.013523,0.002678,0.000431,0.057706
4357000,0.0324,0.013523,0.002678,0.000431,0.095433
4358000,0.0324,0.013523,0.002678,0.000431,0.061115
4359000,0.0324,0.013523,0.002678,0.000431,0.227535
4360000,0.0324,0.013523,0.002678,0.000431,0.136215
4361000,0.0324,0.013523,0.002678,0.000431,0.069459
4362000,0.0324,0.013523,0.002678,0.000431,0.046306
4363000,0.0324,0.013523,0.002678,0.000431,0.090144
4364000,0.0324,0.013523,0.002678,0.000431,0.210728
4365000,0.0324,0.013523,0.002678,0.000431,0.136685
4366000,0.0324,0.013523,0.002678,0.000431,0.199680
4367000,0.0324,0.013523,0.002678,0.000431,0.167713
4368000,0.0324,0.013523,0.002678,0.000431,0.087676
4369000,0.0324,0.013523,0.002678,0.000431,0.041723
4370000,0.0324,0.013523,0.002678,0.000431,0.103190
4371000,0.0324,0.013523,0.002678,0.000431,0.072867
4372000,0.0324,0.013523,0.002678,0.000431,0.065111
4373000,0.0324,0.013523,0.002678,0.000431,0.087794
4374000,0.0324,0.013523,0.002678,0.000431,0.064993
4375000,0.0324,0.013523,0.002678,0.000431,0.069577
4376000,0.0324,0.013523,0.002678,0.000431,0.130456
4377000,0.0324,0.013523,0.002678,0.000431,0.201678
4378000,0.0324,0.013523,0.002678,0.000431,0.159956
4379000,0.0324,0.013523,0.002678,0.000431,0.191688
4380000,0.0324,0.013523,0.002678,0.000431,0.127871
4381000,0.0324,0.013523,0.002678,0.000431,0.042545
4382000,0.0324,0.013523,0.002678,0.000431,0.056414
4383000,0.0324,0.013523,0.002678,0.000431,0.104130
4384000,0.0324,0.013523,0.002678,0.000431,0.155372
4385000,0.0324,0.013523,0.002678,0.000431,0.274781
4386000,0.0324,0.013523,0.002678,0.000431,0.161484
4387000,0.0324,0.013523,0.002678,0.000431,0.134922
4388000,0.0324,0.013523,0.002678,0.000431,0.035141
4389000,0.0324,0.013523,0.002678,0.000431,0.091554
4390000,0.0324,0.013523,0.002678,0.000431,0.109184
4391000,0.0324,0.013523,0.002678,0.000431,0.169358
4392000,0.0324,0.013523,0.002678,0.000431,0.172766
4393000,0.0324,0.013523,0.002678,0.000431,0.132807
4394000,0.0324,0.013523,0.002678,0.000431,0.091672
4395000,0.0324,0.013523,0.002678,0.000431,0.042545
4396000,0.0324,0.013523,0.002678,0.000431,0.215664
4397000,0.0324,0.013523,0.002678,0.000431,0.117411
4398000,0.0324,0.013523,0.002678,0.000431,0.165010
4399000,0.0324,0.013523,0.002678,0.000431,0.117528
4400000,0.0324,0.013523,0.002678,0.000431,0.067226
4401000,0.0324,0.013523,0.002678,0.000431,0.068872
4402000,0.0324,0.013523,0.002678,0.000431,0.169241
4403000,0.0324,0.013523,0.002678,0.000431,0.084150
4404000,0.0324,0.013523,0.002678,0.000431,0.088029
4405000,0.0324,0.013523,0.002678,0.000431,0.283596
4406000,0.0324,0.013523,0.002678,0.000431,0.093435
4407000,0.0324,0.013523,0.002678,0.000431,0.117411
4408000,0.0324,0.013523,0.002678,0.000431,0.105070
4409000,0.0324,0.013523,0.002678,0.000431,0.148673
4410000,0.0324,0.013523,0.002678,0.000431,0.066521
4411000,0.0324,0.013523,0.002678,0.000431,0.176175
4412000,0.0324,0.013523,0.002678,0.000431,0.319089
4413000,0.0324,0.013523,0.002678,0.000431,0.079567
4414000,0.0324,0.013523,0.002678,0.000431,0.042193
4415000,0.0324,0.013523,0.002678,0.000431,0.163012
4416000,0.0324,0.013523,0.002678,0.000431,0.072515
4417000,0.0324,0.013523,0.002678,0.000431,0.195332
4418000,0.0324,0.013523,0.002678,0.000431,0.156665
4419000,0.0324,0.013523,0.002678,0.000431,0.103072
4420000,0.0324,0.013523,0.002678,0.000431,0.098841
4421000,0.0324,0.013523,0.002678,0.000431,0.061585
4422000,0.0324,0.013523,0.002678,0.000431,0.069107
4423000,0.0324,0.013523,0.002678,0.000431,0.144560
4424000,0.0324,0.013523,0.002678,0.000431,0.166537
4425000,0.0324,0.013523,0.002678,0.000431,0.200621
4426000,0.0324,0.013523,0.002678,0.000431,0.098959
4427000,0.0324,0.013523,0.002678,0.000431,0.084503
4428000,0.0324,0.013523,0.002678,0.000431,0.085796
4429000,0.0324,0.013523,0.002678,0.000431,0.103777
4430000,0.0324,0.013523,0.002678,0.000431,0.150554
4431000,0.0324,0.013523,0.002678,0.000431,0.107773
4432000,0.0324,0.013523,0.002678,0.000431,0.102837
4433000,0.0324,0.013523,0.002678,0.000431,0.095080
4434000,0.0324,0.013523,0.002678,0.000431,0.095668
4435000,0.0324,0.013523,0.002678,0.000431,0.076041
4436000,0.0324,0.013523,0.002678,0.000431,0.186400
4437000,0.0324,0.013523,0.002678,0.000431,0.197917
4438000,0.0324,0.013523,0.002678,0.000431,0.121054
4439000,0.0324,0.013523,0.002678,0.000431,0.105423
4440000,0.0324,0.013523,0.002678,0.000431,0.069342
4441000,0.0324,0.013523,0.002678,0.000431,0.061350
4442000,0.0324,0.013523,0.002678,0.000431,0.074160
4443000,0.0324,0.013523,0.002678,0.000431,0.239052
4444000,0.0324,0.013523,0.002678,0.000431,0.161249
4445000,0.0324,0.013523,0.002678,0.000431,0.049479
4446000,0.0324,0.013523,0.002678,0.000431,0.068519
4447000,0.0324,0.013523,0.002678,0.000431,0.212138
4448000,0.0324,0.013523,0.002678,0.000431,0.170181
4449000,0.0324,0.013523,0.002678,0.000431,0.203206
4450000,0.0324,0.013523,0.002678,0.000431,0.202031
4451000,0.0324,0.013523,0.002678,0.000431,0.121759
4452000,0.0324,0.013523,0.002678,0.000431,0.129399
4453000,0.0324,0.013523,0.002678,0.000431,0.191218
4454000,0.0324,0.013523,0.002678,0.000431,0.123052
4455000,0.0324,0.013523,0.002678,0.000431,0.065463
4456000,0.0324,0.013523,0.002678,0.000431,0.215782
4457000,0.0324,0.013523,0.002678,0.000431,0.204499
4458000,0.0324,0.013523,0.002678,0.000431,0.190983
4459000,0.0324,0.013523,0.002678,0.000431,0.066051
4460000,0.0324,0.013523,0.002678,0.000431,0.142209
4461000,0.0324,0.013523,0.002678,0.000431,0.120701
4462000,0.0324,0.013523,0.002678,0.000431,0.095668
4463000,0.0324,0.013523,0.002678,0.000431,0.270667
4464000,0.0324,0.013523,0.002678,0.000431,0.085913
4465000,0.0324,0.013523,0.002678,0.000431,0.057824
4466000,0.0324,0.013523,0.002678,0.000431,0.084620
4467000,0.0324,0.013523,0.002678,0.000431,0.165715
4468000,0.0324,0.013523,0.002678,0.000431,0.073338
4469000,0.0324,0.013523,0.002678,0.000431,0.142914
4470000,0.0324,0.013523,0.002678,0.000431,0.257622
4471000,0.0324,0.013523,0.002678,0.000431,0.065346
4472000,0.0324,0.013523,0.002678,0.000431,0.065346
4473000,0.0324,0.013523,0.002678,0.000431,0.077569
4474000,0.0324,0.013523,0.002678,0.000431,0.158428
4475000,0.0324,0.013523,0.002678,0.000431,0.156900
4476000,0.0324,0.013523,0.002678,0.000431,0.293585
4477000,0.0324,0.013523,0.002678,0.000431,0.091672
4478000,0.0324,0.013523,0.002678,0.000431,0.049009
4479000,0.0324,0.013523,0.002678,0.000431,0.109771
4480000,0.0324,0.013523,0.002678,0.000431,0.171826
4481000,0.0324,0.013523,0.002678,0.000431,0.083915
4482000,0.0324,0.013523,0.002678,0.000431,0.163364
4483000,0.0324,0.013523,0.002678,0.000431,0.144090
4484000,0.0324,0.013523,0.002678,0.000431,0.072867
4485000,0.0324,0.013523,0.002678,0.000431,0.069107
4486000,0.0324,0.013523,0.002678,0.000431,0.083915
4487000,0.0324,0.013523,0.002678,0.000431,0.101074
4488000,0.0324,0.013523,0.002678,0.000431,0.108243
4489000,0.0324,0.013523,0.002678,0.000431,0.174647
4490000,0.0324,0.013523,0.002678,0.000431,0.102602
4491000,0.0324,0.013523,0.002678,0.000431,0.065111
4492000,0.0324,0.013523,0.002678,0.000431,0.149026
4493000,0.0324,0.013523,0.002678,0.000431,0.075336
4494000,0.0324,0.013523,0.002678,0.000431,0.146205
4495000,0.0324,0.013523,0.002678,0.000431,0.225066
4496000,0.0324,0.013523,0.002678,0.000431,0.139859
4497000,0.0324,0.013523,0.002678,0.000431,0.095080
4498000,0.0324,0.013523,0.002678,0.000431,0.081212
4499000,0.0324,0.013523,0.002678,0.000431,0.230590
4500000,0.0324,0.013523,0.002678,0.000431,0.188515
4501000,0.0324,0.013523,0.002678,0.000431,0.053593
4502000,0.0324,0.013523,0.002678,0.000431,0.157723
4503000,0.0324,0.013523,0.002678,0.000431,0.096021
4504000,0.0324,0.013523,0.002678,0.000431,0.089439
4505000,0.0324,0.013523,0.002678,0.000431,0.129986
4506000,0.0324,0.013523,0.002678,0.000431,0.089439
4507000,0.0324,0.013523,0.002678,0.000431,0.246222
4508000,0.0324,0.013523,0.002678,0.000431,0.337306
4509000,0.0324,0.013523,0.002678,0.000431,0.185224
4510000,0.0324,0.013523,0.002678,0.000431,0.144325
4511000,0.0324,0.013523,0.002678,0.000431,0.087911
4512000,0.0324,0.013523,0.002678,0.000431,0.159368
4513000,0.0324,0.013523,0.002678,0.000431,0.151259
4514000,0.0324,0.013523,0.002678,0.000431,0.221541
4515000,0.0324,0.013523,0.002678,0.000431,0.281833
4516000,0.0324,0.013523,0.002678,0.000431,0.068872
4517000,0.0324,0.013523,0.002678,0.000431,0.069107
4518000,0.0324,0.013523,0.002678,0.000431,0.068989
4519000,0.0324,0.013523,0.002678,0.000431,0.090262
4520000,0.0324,0.013523,0.002678,0.000431,0.175705
4521000,0.0324,0.013523,0.002678,0.000431,0.219073
4522000,0.0324,0.013523,0.002678,0.000431,0.080389
4523000,0.0324,0.013523,0.002678,0.000431,0.099546
4524000,0.0324,0.013523,0.002678,0.000431,0.180288
4525000,0.0324,0.013523,0.002678,0.000431,0.062878
4526000,0.0324,0.013523,0.002678,0.000431,0.127871
4527000,0.0324,0.013523,0.002678,0.000431,0.233411
4528000,0.0324,0.013523,0.002678,0.000431,0.161131
4529000,0.0324,0.013523,0.002678,0.000431,0.116941
4530000,0.0324,0.013523,0.002678,0.000431,0.134687
4531000,0.0324,0.013523,0.002678,0.000431,0.174294
4532000,0.0324,0.013523,0.002678,0.000431,0.074043
4533000,0.0324,0.013523,0.002678,0.000431,0.068754
4534000,0.0324,0.013523,0.002678,0.000431,0.287004
4535000,0.0324,0.013523,0.002678,0.000431,0.197095
4536000,0.0324,0.013523,0.002678,0.000431,0.080977
4537000,0.0324,0.013523,0.002678,0.000431,0.095550
4538000,0.0324,0.013523,0.002678,0.000431,0.061232
4539000,0.0324,0.013523,0.002678,0.000431,0.102014
4540000,0.0324,0.013523,0.002678,0.000431,0.196742
4541000,0.0324,0.013523,0.002678,0.000431,0.106716
4542000,0.0324,0.013523,0.002678,0.000431,0.065346
4543000,0.0324,0.013523,0.002678,0.000431,0.039019
4544000,0.0324,0.013523,0.002678,0.000431,0.149496
4545000,0.0324,0.013523,0.002678,0.000431,0.067344
4546000,0.0324,0.013523,0.002678,0.000431,0.159251
4547000,0.0324,0.013523,0.002678,0.000431,0.171004
4548000,0.0324,0.013523,0.002678,0.000431,0.171239
4549000,0.0324,0.013523,0.002678,0.000431,0.076158
4550000,0.0324,0.013523,0.002678,0.000431,0.169123
4551000,0.0324,0.013523,0.002678,0.000431,0.067109
4552000,0.0324,0.013523,0.002678,0.000431,0.199093
4553000,0.0324,0.013523,0.002678,0.000431,0.176057
4554000,0.0324,0.013523,0.002678,0.000431,0.072397
4555000,0.0324,0.013523,0.002678,0.000431,0.054063
4556000,0.0324,0.013523,0.002678,0.000431,0.056414
4557000,0.0324,0.013523,0.002678,0.000431,0.147968
4558000,0.0324,0.013523,0.002678,0.000431,0.122934
4559000,0.0324,0.013523,0.002678,0.000431,0.244929
4560000,0.0324,0.013523,0.002678,0.000431,0.122229
4561000,0.0324,0.013523,0.002678,0.000431,0.088851
4562000,0.0324,0.013523,0.002678,0.000431,0.072750
4563000,0.0324,0.013523,0.002678,0.000431,0.231766
4564000,0.0324,0.013523,0.002678,0.000431,0.048657
4565000,0.0324,0.013523,0.002678,0.000431,0.148321
4566000,0.0324,0.013523,0.002678,0.000431,0.237995
4567000,0.0324,0.013523,0.002678,0.000431,0.065228
4568000,0.0324,0.013523,0.002678,0.000431,0.042428
4569000,0.0324,0.013523,0.002678,0.000431,0.113650
4570000,0.0324,0.013523,0.002678,0.000431,0.131749
4571000,0.0324,0.013523,0.002678,0.000431,0.082035
4572000,0.0324,0.013523,0.002678,0.000431,0.224596
4573000,0.0324,0.013523,0.002678,0.000431,0.169123
4574000,0.0324,0.013523,0.002678,0.000431,0.125755
4575000,0.0324,0.013523,0.002678,0.000431,0.076393
4576000,0.0324,0.013523,0.002678,0.000431,0.133630
4577000,0.0324,0.013523,0.002678,0.000431,0.075453
4578000,0.0324,0.013523,0.002678,0.000431,0.102132
4579000,0.0324,0.013523,0.002678,0.000431,0.271843
4580000,0.0324,0.013523,0.002678,0.000431,0.093082
4581000,0.0324,0.013523,0.002678,0.000431,0.101544
4582000,0.0324,0.013523,0.002678,0.000431,0.221658
4583000,0.0324,0.013523,0.002678,0.000431,0.177703
4584000,0.0324,0.013523,0.002678,0.000431,0.198388
4585000,0.0324,0.013523,0.002678,0.000431,0.256094
4586000,0.0324,0.013523,0.002678,0.000431,0.232353
4587000,0.0324,0.013523,0.002678,0.000431,0.124815
4588000,0.0324,0.013523,0.002678,0.000431,0.149026
4589000,0.0324,0.013523,0.002678,0.000431,0.101427
4590000,0.0324,0.013523,0.002678,0.000431,0.187693
4591000,0.0324,0.013523,0.002678,0.000431,0.193569
4592000,0.0324,0.013523,0.002678,0.000431,0.289942
4593000,0.0324,0.013523,0.002678,0.000431,0.096373
4594000,0.0324,0.013523,0.002678,0.000431,0.084268
4595000,0.0324,0.013523,0.002678,0.000431,0.202266
4596000,0.0324,0.013523,0.002678,0.000431,0.063348
4597000,0.0324,0.013523,0.002678,0.000431,0.108949
4598000,0.0324,0.013523,0.002678,0.000431,0.296994
4599000,0.0324,0.013523,0.002678,0.000431,0.195567
4600000,0.0324,0.013523,0.002678,0.000431,0.107068
4601000,0.0324,0.013523,0.002678,0.000431,0.042193
4602000,0.0324,0.013523,0.002678,0.000431,0.117881
4603000,0.0324,0.013523,0.002678,0.000431,0.102720
4604000,0.0324,0.013523,0.002678,0.000431,0.226007
4605000,0.0324,0.013523,0.002678,0.000431,0.182639
4606000,0.0324,0.013523,0.002678,0.000431,0.065463
4607000,0.0324,0.013523,0.002678,0.000431,0.080154
4608000,0.0324,0.013523,0.002678,0.000431,0.207555
4609000,0.0324,0.013523,0.002678,0.000431,0.132219
4610000,0.0324,0.013523,0.002678,0.000431,0.099076
4611000,0.0324,0.013523,0.002678,0.000431,0.201443
4612000,0.0324,0.013523,0.002678,0.000431,0.155842
4613000,0.0324,0.013523,0.002678,0.000431,0.091554
4614000,0.0324,0.013523,0.002678,0.000431,0.110124
4615000,0.0324,0.013523,0.002678,0.000431,0.156195
4616000,0.0324,0.013523,0.002678,0.000431,0.151964
4617000,0.0324,0.013523,0.002678,0.000431,0.296876
4618000,0.0324,0.013523,0.002678,0.000431,0.183697
4619000,0.0324,0.013523,0.002678,0.000431,0.038902
4620000,0.0324,0.013523,0.002678,0.000431,0.066638
4621000,0.0324,0.013523,0.002678,0.000431,0.101662
4622000,0.0324,0.013523,0.002678,0.000431,0.209553
4623000,0.0324,0.013523,0.002678,0.000431,0.170063
4624000,0.0324,0.013523,0.002678,0.000431,0.382437
4625000,0.0324,0.013523,0.002678,0.000431,0.145265
4626000,0.0324,0.013523,0.002678,0.000431,0.048422
4627000,0.0324,0.013523,0.002678,0.000431,0.161014
4628000,0.0324,0.013523,0.002678,0.000431,0.098136
4629000,0.0324,0.013523,0.002678,0.000431,0.088264
4630000,0.0324,0.013523,0.002678,0.000431,0.218250
4631000,0.0324,0.013523,0.002678,0.000431,0.058999
4632000,0.0324,0.013523,0.002678,0.000431,0.038902
4633000,0.0324,0.013523,0.002678,0.000431,0.053828
4634000,0.0324,0.013523,0.002678,0.000431,0.126343
4635000,0.0324,0.013523,0.002678,0.000431,0.294408
4636000,0.0324,0.013523,0.002678,0.000431,0.145030
4637000,0.0324,0.013523,0.002678,0.000431,0.225654
4638000,0.0324,0.013523,0.002678,0.000431,0.283243
4639000,0.0324,0.013523,0.002678,0.000431,0.038432
4640000,0.0324,0.013523,0.002678,0.000431,0.291117
4641000,0.0324,0.013523,0.002678,0.000431,0.118586
4642000,0.0324,0.013523,0.002678,0.000431,0.158781
4643000,0.0324,0.013523,0.002678,0.000431,0.219543
4644000,0.0324,0.013523,0.002678,0.000431,0.155372
4645000,0.0324,0.013523,0.002678,0.000431,0.117528
4646000,0.0324,0.013523,0.002678,0.000431,0.056296
4647000,0.0324,0.013523,0.002678,0.000431,0.183932
4648000,0.0324,0.013523,0.002678,0.000431,0.147733
4649000,0.0324,0.013523,0.002678,0.000431,0.175940
4650000,0.0324,0.013523,0.002678,0.000431,0.114943
4651000,0.0324,0.013523,0.002678,0.000431,0.148321
4652000,0.0324,0.013523,0.002678,0.000431,0.036081
4653000,0.0324,0.013523,0.002678,0.000431,0.193099
4654000,0.0324,0.013523,0.002678,0.000431,0.222598
4655000,0.0324,0.013523,0.002678,0.000431,0.167478
4656000,0.0324,0.013523,0.002678,0.000431,0.186635
4657000,0.0324,0.013523,0.002678,0.000431,0.140681
4658000,0.0324,0.013523,0.002678,0.000431,0.113180
4659000,0.0324,0.013523,0.002678,0.000431,0.061702
4660000,0.0324,0.013523,0.002678,0.000431,0.096373
4661000,0.0324,0.013523,0.002678,0.000431,0.152669
4662000,0.0324,0.013523,0.002678,0.000431,0.101074
4663000,0.0324,0.013523,0.002678,0.000431,0.205557
4664000,0.0324,0.013523,0.002678,0.000431,0.142797
4665000,0.0324,0.013523,0.002678,0.000431,0.051712
4666000,0.0324,0.013523,0.002678,0.000431,0.189926
4667000,0.0324,0.013523,0.002678,0.000431,0.097431
4668000,0.0324,0.013523,0.002678,0.000431,0.221306
4669000,0.0324,0.013523,0.002678,0.000431,0.269727
4670000,0.0324,0.013523,0.002678,0.000431,0.076276
4671000,0.0324,0.013523,0.002678,0.000431,0.122229
4672000,0.0324,0.013523,0.002678,0.000431,0.128106
4673000,0.0324,0.013523,0.002678,0.000431,0.235409
4674000,0.0324,0.013523,0.002678,0.000431,0.073103
4675000,0.0324,0.013523,0.002678,0.000431,0.274781
4676000,0.0324,0.013523,0.002678,0.000431,0.129516
4677000,0.0324,0.013523,0.002678,0.000431,0.082035
4678000,0.0324,0.013523,0.002678,0.000431,0.081330
4679000,0.0324,0.013523,0.002678,0.000431,0.189926
4680000,0.0324,0.013523,0.002678,0.000431,0.092730
4681000,0.0324,0.013523,0.002678,0.000431,0.288532
4682000,0.0324,0.013523,0.002678,0.000431,0.117058
4683000,0.0324,0.013523,0.002678,0.000431,0.046541
4684000,0.0324,0.013523,0.002678,0.000431,0.080507
4685000,0.0324,0.013523,0.002678,0.000431,0.117998
4686000,0.0324,0.013523,0.002678,0.000431,0.140094
4687000,0.0324,0.013523,0.002678,0.000431,0.126108
4688000,0.0324,0.013523,0.002678,0.000431,0.355875
4689000,0.0324,0.013523,0.002678,0.000431,0.121877
4690000,0.0324,0.013523,0.002678,0.000431,0.084973
4691000,0.0324,0.013523,0.002678,0.000431,0.045954
4692000,0.0324,0.013523,0.002678,0.000431,0.129399
4693000,0.0324,0.013523,0.002678,0.000431,0.256799
4694000,0.0324,0.013523,0.002678,0.000431,0.147968
4695000,0.0324,0.013523,0.002678,0.000431,0.214489
4696000,0.0324,0.013523,0.002678,0.000431,0.189573
4697000,0.0324,0.013523,0.002678,0.000431,0.050302
4698000,0.0324,0.013523,0.002678,0.000431,0.189455
4699000,0.0324,0.013523,0.002678,0.000431,0.144325
4700000,0.0324,0.013523,0.002678,0.000431,0.327198
4701000,0.0324,0.013523,0.002678,0.000431,0.201561
4702000,0.0324,0.013523,0.002678,0.000431,0.104953
4703000,0.0324,0.013523,0.002678,0.000431,0.100604
4704000,0.0324,0.013523,0.002678,0.000431,0.059117
4705000,0.0324,0.013523,0.002678,0.000431,0.326141
4706000,0.0324,0.013523,0.002678,0.000431,0.111064
4707000,0.0324,0.013523,0.002678,0.000431,0.182404
4708000,0.0324,0.013523,0.002678,0.000431,0.091202
4709000,0.0324,0.013523,0.002678,0.000431,0.087441
4710000,0.0324,0.013523,0.002678,0.000431,0.102837
4711000,0.0324,0.013523,0.002678,0.000431,0.210611
4712000,0.0324,0.013523,0.002678,0.000431,0.130456
4713000,0.0324,0.013523,0.002678,0.000431,0.160191
4714000,0.0324,0.013523,0.002678,0.000431,0.226477
4715000,0.0324,0.013523,0.002678,0.000431,0.108243
4716000,0.0324,0.013523,0.002678,0.000431,0.266907
4717000,0.0324,0.013523,0.002678,0.000431,0.091202
4718000,0.0324,0.013523,0.002678,0.000431,0.249512
4719000,0.0324,0.013523,0.002678,0.000431,0.174059
4720000,0.0324,0.013523,0.002678,0.000431,0.209200
4721000,0.0324,0.013523,0.002678,0.000431,0.183932
4722000,0.0324,0.013523,0.002678,0.000431,0.088029
4723000,0.0324,0.013523,0.002678,0.000431,0.075218
4724000,0.0324,0.013523,0.002678,0.000431,0.227535
4725000,0.0324,0.013523,0.002678,0.000431,0.117998
4726000,0.0324,0.013523,0.002678,0.000431,0.104483
4727000,0.0324,0.013523,0.002678,0.000431,0.244576
4728000,0.0324,0.013523,0.002678,0.000431,0.151611
4729000,0.0324,0.013523,0.002678,0.000431,0.070752
4730000,0.0324,0.013523,0.002678,0.000431,0.181111
4731000,0.0324,0.013523,0.002678,0.000431,0.140916
4732000,0.0324,0.013523,0.002678,0.000431,0.151141
4733000,0.0324,0.013523,0.002678,0.000431,0.194157
4734000,0.0324,0.013523,0.002678,0.000431,0.106245
4735000,0.0324,0.013523,0.002678,0.000431,0.065816
4736000,0.0324,0.013523,0.002678,0.000431,0.137508
4737000,0.0324,0.013523,0.002678,0.000431,0.117293
4738000,0.0324,0.013523,0.002678,0.000431,0.148908
4739000,0.0324,0.013523,0.002678,0.000431,0.256917
4740000,0.0324,0.013523,0.002678,0.000431,0.350704
4741000,0.0324,0.013523,0.002678,0.000431,0.204264
4742000,0.0324,0.013523,0.002678,0.000431,0.089556
4743000,0.0324,0.013523,0.002678,0.000431,0.150671
4744000,0.0324,0.013523,0.002678,0.000431,0.197565
4745000,0.0324,0.013523,0.002678,0.000431,0.151846
4746000,0.0324,0.013523,0.002678,0.000431,0.236584
4747000,0.0324,0.013523,0.002678,0.000431,0.262793
4748000,0.0324,0.013523,0.002678,0.000431,0.090614
4749000,0.0324,0.013523,0.002678,0.000431,0.121524
4750000,0.0324,0.013523,0.002678,0.000431,0.208730
4751000,0.0324,0.013523,0.002678,0.000431,0.186165
4752000,0.0324,0.013523,0.002678,0.000431,0.149026
4753000,0.0324,0.013523,0.002678,0.000431,0.343182
4754000,0.0324,0.013523,0.002678,0.000431,0.143854
4755000,0.0324,0.013523,0.002678,0.000431,0.042780
4756000,0.0324,0.013523,0.002678,0.000431,0.185695
4757000,0.0324,0.013523,0.002678,0.000431,0.170298
4758000,0.0324,0.013523,0.002678,0.000431,0.194509
4759000,0.0324,0.013523,0.002678,0.000431,0.251628
4760000,0.0324,0.013523,0.002678,0.000431,0.117411
4761000,0.0324,0.013523,0.002678,0.000431,0.046424
4762000,0.0324,0.013523,0.002678,0.000431,0.103190
4763000,0.0324,0.013523,0.002678,0.000431,0.083563
4764000,0.0324,0.013523,0.002678,0.000431,0.102485
4765000,0.0324,0.013523,0.002678,0.000431,0.301460
4766000,0.0324,0.013523,0.002678,0.000431,0.175587
4767000,0.0324,0.013523,0.002678,0.000431,0.225302
4768000,0.0324,0.013523,0.002678,0.000431,0.054298
4769000,0.0324,0.013523,0.002678,0.000431,0.128811
4770000,0.0324,0.013523,0.002678,0.000431,0.144442
4771000,0.0324,0.013523,0.002678,0.000431,0.117646
4772000,0.0324,0.013523,0.002678,0.000431,0.270785
4773000,0.0324,0.013523,0.002678,0.000431,0.130926
4774000,0.0324,0.013523,0.002678,0.000431,0.083798
4775000,0.0324,0.013523,0.002678,0.000431,0.085090
4776000,0.0324,0.013523,0.002678,0.000431,0.165597
4777000,0.0324,0.013523,0.002678,0.000431,0.110476
4778000,0.0324,0.013523,0.002678,0.000431,0.268904
4779000,0.0324,0.013523,0.002678,0.000431,0.224596
4780000,0.0324,0.013523,0.002678,0.000431,0.304163
4781000,0.0324,0.013523,0.002678,0.000431,0.221188
4782000,0.0324,0.013523,0.002678,0.000431,0.288414
4783000,0.0324,0.013523,0.002678,0.000431,0.143502
4784000,0.0324,0.013523,0.002678,0.000431,0.140329
4785000,0.0324,0.013523,0.002678,0.000431,0.283478
4786000,0.0324,0.013523,0.002678,0.000431,0.076628
4787000,0.0324,0.013523,0.002678,0.000431,0.200033
4788000,0.0324,0.013523,0.002678,0.000431,0.196860
4789000,0.0324,0.013523,0.002678,0.000431,0.178760
4790000,0.0324,0.013523,0.002678,0.000431,0.065346
4791000,0.0324,0.013523,0.002678,0.000431,0.185577
4792000,0.0324,0.013523,0.002678,0.000431,0.245164
4793000,0.0324,0.013523,0.002678,0.000431,0.148086
4794000,0.0324,0.013523,0.002678,0.000431,0.068049
4795000,0.0324,0.013523,0.002678,0.000431,0.266319
4796000,0.0324,0.013523,0.002678,0.000431,0.139153
4797000,0.0324,0.013523,0.002678,0.000431,0.110006
4798000,0.0324,0.013523,0.002678,0.000431,0.280775
4799000,0.0324,0.013523,0.002678,0.000431,0.077921
4800000,0.0324,0.013523,0.002678,0.000431,0.116470
4801000,0.0324,0.013523,0.002678,0.000431,0.094728
4802000,0.0324,0.013523,0.002678,0.000431,0.152552
4803000,0.0324,0.013523,0.002678,0.000431,0.136333
4804000,0.0324,0.013523,0.002678,0.000431,0.243989
4805000,0.0324,0.013523,0.002678,0.000431,0.270197
4806000,0.0324,0.013523,0.002678,0.000431,0.153257
4807000,0.0324,0.013523,0.002678,0.000431,0.145030
4808000,0.0324,0.013523,0.002678,0.000431,0.237877
4809000,0.0324,0.013523,0.002678,0.000431,0.133747
4810000,0.0324,0.013523,0.002678,0.000431,0.152434
4811000,0.0324,0.013523,0.002678,0.000431,0.368451
4812000,0.0324,0.013523,0.002678,0.000431,0.100839
4813000,0.0324,0.013523,0.002678,0.000431,0.050302
4814000,0.0324,0.013523,0.002678,0.000431,0.222128
4815000,0.0324,0.013523,0.002678,0.000431,0.229533
4816000,0.0324,0.013523,0.002678,0.000431,0.193569
4817000,0.0324,0.013523,0.002678,0.000431,0.201208
4818000,0.0324,0.013523,0.002678,0.000431,0.106598
4819000,0.0324,0.013523,0.002678,0.000431,0.077569
4820000,0.0324,0.013523,0.002678,0.000431,0.114472
4821000,0.0324,0.013523,0.002678,0.000431,0.125755
4822000,0.0324,0.013523,0.002678,0.000431,0.244576
4823000,0.0324,0.013523,0.002678,0.000431,0.227182
4824000,0.0324,0.013523,0.002678,0.000431,0.189573
4825000,0.0324,0.013523,0.002678,0.000431,0.081917
4826000,0.0324,0.013523,0.002678,0.000431,0.081800
4827000,0.0324,0.013523,0.002678,0.000431,0.062407
4828000,0.0324,0.013523,0.002678,0.000431,0.208260
4829000,0.0324,0.013523,0.002678,0.000431,0.186282
4830000,0.0324,0.013523,0.002678,0.000431,0.226829
4831000,0.0324,0.013523,0.002678,0.000431,0.189220
4832000,0.0324,0.013523,0.002678,0.000431,0.096021
4833000,0.0324,0.013523,0.002678,0.000431,0.080624
4834000,0.0324,0.013523,0.002678,0.000431,0.142914
4835000,0.0324,0.013523,0.002678,0.000431,0.160073
4836000,0.0324,0.013523,0.002678,0.000431,0.135275
4837000,0.0324,0.013523,0.002678,0.000431,0.175235
4838000,0.0324,0.013523,0.002678,0.000431,0.087441
4839000,0.0324,0.013523,0.002678,0.000431,0.092965
4840000,0.0324,0.013523,0.002678,0.000431,0.272665
4841000,0.0324,0.013523,0.002678,0.000431,0.143149
4842000,0.0324,0.013523,0.002678,0.000431,0.214724
4843000,0.0324,0.013523,0.002678,0.000431,0.303928
4844000,0.0324,0.013523,0.002678,0.000431,0.089909
4845000,0.0324,0.013523,0.002678,0.000431,0.045954
4846000,0.0324,0.013523,0.002678,0.000431,0.144090
4847000,0.0324,0.013523,0.002678,0.000431,0.204499
4848000,0.0324,0.013523,0.002678,0.000431,0.350234
4849000,0.0324,0.013523,0.002678,0.000431,0.099781
4850000,0.0324,0.013523,0.002678,0.000431,0.158546
4851000,0.0324,0.013523,0.002678,0.000431,0.125403
4852000,0.0324,0.013523,0.002678,0.000431,0.035023
4853000,0.0324,0.013523,0.002678,0.000431,0.234351
4854000,0.0324,0.013523,0.002678,0.000431,0.158428
4855000,0.0324,0.013523,0.002678,0.000431,0.247044
4856000,0.0324,0.013523,0.002678,0.000431,0.323203
4857000,0.0324,0.013523,0.002678,0.000431,0.201561
4858000,0.0324,0.013523,0.002678,0.000431,0.061115
4859000,0.0324,0.013523,0.002678,0.000431,0.160073
4860000,0.0324,0.013523,0.002678,0.000431,0.106010
4861000,0.0324,0.013523,0.002678,0.000431,0.192276
4862000,0.0324,0.013523,0.002678,0.000431,0.237995
4863000,0.0324,0.013523,0.002678,0.000431,0.185224
4864000,0.0324,0.013523,0.002678,0.000431,0.153374
4865000,0.0324,0.013523,0.002678,0.000431,0.062760
4866000,0.0324,0.013523,0.002678,0.000431,0.326023
4867000,0.0324,0.013523,0.002678,0.000431,0.147380
4868000,0.0324,0.013523,0.002678,0.000431,0.349176
4869000,0.0324,0.013523,0.002678,0.000431,0.182521
4870000,0.0324,0.013523,0.002678,0.000431,0.133512
4871000,0.0324,0.013523,0.002678,0.000431,0.134922
4872000,0.0324,0.013523,0.002678,0.000431,0.076158
4873000,0.0324,0.013523,0.002678,0.000431,0.121524
4874000,0.0324,0.013523,0.002678,0.000431,0.113062
4875000,0.0324,0.013523,0.002678,0.000431,0.220013
4876000,0.0324,0.013523,0.002678,0.000431,0.249747
4877000,0.0324,0.013523,0.002678,0.000431,0.061232
4878000,0.0324,0.013523,0.002678,0.000431,0.035023
4879000,0.0324,0.013523,0.002678,0.000431,0.152787
4880000,0.0324,0.013523,0.002678,0.000431,0.137038
4881000,0.0324,0.013523,0.002678,0.000431,0.113297
4882000,0.0324,0.013523,0.002678,0.000431,0.197447
4883000,0.0324,0.013523,0.002678,0.000431,0.188398
4884000,0.0324,0.013523,0.002678,0.000431,0.054768
4885000,0.0324,0.013523,0.002678,0.000431,0.111182
4886000,0.0324,0.013523,0.002678,0.000431,0.233058
4887000,0.0324,0.013523,0.002678,0.000431,0.241991
4888000,0.0324,0.013523,0.002678,0.000431,0.189338
4889000,0.0324,0.013523,0.002678,0.000431,0.184167
4890000,0.0324,0.013523,0.002678,0.000431,0.061937
4891000,0.0324,0.013523,0.002678,0.000431,0.046189
4892000,0.0324,0.013523,0.002678,0.000431,0.169358
4893000,0.0324,0.013523,0.002678,0.000431,0.251980
4894000,0.0324,0.013523,0.002678,0.000431,0.332017
4895000,0.0324,0.013523,0.002678,0.000431,0.225772
4896000,0.0324,0.013523,0.002678,0.000431,0.171004
4897000,0.0324,0.013523,0.002678,0.000431,0.049949
4898000,0.0324,0.013523,0.002678,0.000431,0.188868
4899000,0.0324,0.013523,0.002678,0.000431,0.114355
4900000,0.0324,0.013523,0.002678,0.000431,0.142679
4901000,0.0324,0.013523,0.002678,0.000431,0.430388
4902000,0.0324,0.013523,0.002678,0.000431,0.120584
4903000,0.0324,0.013523,0.002678,0.000431,0.119644
4904000,0.0324,0.013523,0.002678,0.000431,0.089674
4905000,0.0324,0.013523,0.002678,0.000431,0.209905
4906000,0.0324,0.013523,0.002678,0.000431,0.151611
4907000,0.0324,0.013523,0.002678,0.000431,0.068872
4908000,0.0324,0.013523,0.002678,0.000431,0.147380
4909000,0.0324,0.013523,0.002678,0.000431,0.152904
4910000,0.0324,0.013523,0.002678,0.000431,0.035258
4911000,0.0324,0.013523,0.002678,0.000431,0.207437
4912000,0.0324,0.013523,0.002678,0.000431,0.231766
4913000,0.0324,0.013523,0.002678,0.000431,0.177820
4914000,0.0324,0.013523,0.002678,0.000431,0.186282
4915000,0.0324,0.013523,0.002678,0.000431,0.144560
4916000,0.0324,0.013523,0.002678,0.000431,0.057471
4917000,0.0324,0.013523,0.002678,0.000431,0.076628
4918000,0.0324,0.013523,0.002678,0.000431,0.314270
4919000,0.0324,0.013523,0.002678,0.000431,0.142092
4920000,0.0324,0.013523,0.002678,0.000431,0.371272
4921000,0.0324,0.013523,0.002678,0.000431,0.215429
4922000,0.0324,0.013523,0.002678,0.000431,0.050185
4923000,0.0324,0.013523,0.002678,0.000431,0.042545
4924000,0.0324,0.013523,0.002678,0.000431,0.149261
4925000,0.0324,0.013523,0.002678,0.000431,0.288179
4926000,0.0324,0.013523,0.002678,0.000431,0.231060
4927000,0.0324,0.013523,0.002678,0.000431,0.204734
4928000,0.0324,0.013523,0.002678,0.000431,0.244459
4929000,0.0324,0.013523,0.002678,0.000431,0.122934
4930000,0.0324,0.013523,0.002678,0.000431,0.136920
4931000,0.0324,0.013523,0.002678,0.000431,0.185695
4932000,0.0324,0.013523,0.002678,0.000431,0.095785
4933000,0.0324,0.013523,0.002678,0.000431,0.132454
4934000,0.0324,0.013523,0.002678,0.000431,0.092495
4935000,0.0324,0.013523,0.002678,0.000431,0.107891
4936000,0.0324,0.013523,0.002678,0.000431,0.038902
4937000,0.0324,0.013523,0.002678,0.000431,0.177350
4938000,0.0324,0.013523,0.002678,0.000431,0.214136
4939000,0.0324,0.013523,0.002678,0.000431,0.128106
4940000,0.0324,0.013523,0.002678,0.000431,0.240228
4941000,0.0324,0.013523,0.002678,0.000431,0.099076
4942000,0.0324,0.013523,0.002678,0.000431,0.174059
4943000,0.0324,0.013523,0.002678,0.000431,0.050537
4944000,0.0324,0.013523,0.002678,0.000431,0.110241
4945000,0.0324,0.013523,0.002678,0.000431,0.090144
4946000,0.0324,0.013523,0.002678,0.000431,0.196390
4947000,0.0324,0.013523,0.002678,0.000431,0.138331
4948000,0.0324,0.013523,0.002678,0.000431,0.139976
4949000,0.0324,0.013523,0.002678,0.000431,0.082387
4950000,0.0324,0.013523,0.002678,0.000431,0.105893
4951000,0.0324,0.013523,0.002678,0.000431,0.054063
4952000,0.0324,0.013523,0.002678,0.000431,0.192981
4953000,0.0324,0.013523,0.002678,0.000431,0.223304
4954000,0.0324,0.013523,0.002678,0.000431,0.159486
4955000,0.0324,0.013523,0.002678,0.000431,0.065228
4956000,0.0324,0.013523,0.002678,0.000431,0.125520
4957000,0.0324,0.013523,0.002678,0.000431,0.140564
4958000,0.0324,0.013523,0.002678,0.000431,0.102837
4959000,0.0324,0.013523,0.002678,0.000431,0.380674
4960000,0.0324,0.013523,0.002678,0.000431,0.227300
4961000,0.0324,0.013523,0.002678,0.000431,0.118351
4962000,0.0324,0.013523,0.002678,0.000431,0.120584
4963000,0.0324,0.013523,0.002678,0.000431,0.216252
4964000,0.0324,0.013523,0.002678,0.000431,0.081447
4965000,0.0324,0.013523,0.002678,0.000431,0.159133
4966000,0.0324,0.013523,0.002678,0.000431,0.260678
4967000,0.0324,0.013523,0.002678,0.000431,0.148086
4968000,0.0324,0.013523,0.002678,0.000431,0.061232
4969000,0.0324,0.013523,0.002678,0.000431,0.091790
4970000,0.0324,0.013523,0.002678,0.000431,0.143854
4971000,0.0324,0.013523,0.002678,0.000431,0.167948
4972000,0.0324,0.013523,0.002678,0.000431,0.176762
4973000,0.0324,0.013523,0.002678,0.000431,0.123757
4974000,0.0324,0.013523,0.002678,0.000431,0.145617
4975000,0.0324,0.013523,0.002678,0.000431,0.067696
4976000,0.0324,0.013523,0.002678,0.000431,0.156430
4977000,0.0324,0.013523,0.002678,0.000431,0.133042
4978000,0.0324,0.013523,0.002678,0.000431,0.185107
4979000,0.0324,0.013523,0.002678,0.000431,0.081917
4980000,0.0324,0.013523,0.002678,0.000431,0.060997
4981000,0.0324,0.013523,0.002678,0.000431,0.065346
4982000,0.0324,0.013523,0.002678,0.000431,0.172884
4983000,0.0324,0.013523,0.002678,0.000431,0.227535
4984000,0.0324,0.013523,0.002678,0.000431,0.129281
4985000,0.0324,0.013523,0.002678,0.000431,0.200503
4986000,0.0324,0.013523,0.002678,0.000431,0.110006
4987000,0.0324,0.013523,0.002678,0.000431,0.095433
4988000,0.0324,0.013523,0.002678,0.000431,0.086853
4989000,0.0324,0.013523,0.002678,0.000431,0.207202
4990000,0.0324,0.013523,0.002678,0.000431,0.168065
4991000,0.0324,0.013523,0.002678,0.000431,0.137743
4992000,0.0324,0.013523,0.002678,0.000431,0.160191
4993000,0.0324,0.013523,0.002678,0.000431,0.075453
4994000,0.0324,0.013523,0.002678,0.000431,0.057824
4995000,0.0324,0.013523,0.002678,0.000431,0.179466
4996000,0.0324,0.013523,0.002678,0.000431,0.165245
4997000,0.0324,0.013523,0.002678,0.000431,0.190396
4998000,0.0324,0.013523,0.002678,0.000431,0.220718
4999000,0.0324,0.013523,0.002678,0.000431,0.187340
