Cycle,Area(mm^2),PeakDynamic(W),SubthresholdLeakage(W),GateLeakage(W),RunTimeDynamic(W)
11000000,0.0324,0.013523,0.002678,0.000431,0.004701
11001000,0.0324,0.013523,0.002678,0.000431,0.004701
11002000,0.0324,0.013523,0.002678,0.000431,0.004701
11003000,0.0324,0.013523,0.002678,0.000431,0.012223
11004000,0.0324,0.013523,0.002678,0.000431,0.014691
11005000,0.0324,0.013523,0.002678,0.000431,0.032320
11006000,0.0324,0.013523,0.002678,0.000431,0.026561
11007000,0.0324,0.013523,0.002678,0.000431,0.072867
11008000,0.0324,0.013523,0.002678,0.000431,0.004701
11009000,0.0324,0.013523,0.002678,0.000431,0.004701
11010000,0.0324,0.013523,0.002678,0.000431,0.042310
11011000,0.0324,0.013523,0.002678,0.000431,0.012223
11012000,0.0324,0.013523,0.002678,0.000431,0.012223
11013000,0.0324,0.013523,0.002678,0.000431,0.027267
11014000,0.0324,0.013523,0.002678,0.000431,0.004701
11015000,0.0324,0.013523,0.002678,0.000431,0.004701
11016000,0.0324,0.013523,0.002678,0.000431,0.004701
11017000,0.0324,0.013523,0.002678,0.000431,0.015866
11018000,0.0324,0.013523,0.002678,0.000431,0.038432
11019000,0.0324,0.013523,0.002678,0.000431,0.004701
11020000,0.0324,0.013523,0.002678,0.000431,0.004701
11021000,0.0324,0.013523,0.002678,0.000431,0.004701
11022000,0.0324,0.013523,0.002678,0.000431,0.004466
11023000,0.0324,0.013523,0.002678,0.000431,0.012223
11024000,0.0324,0.013523,0.002678,0.000431,0.012223
11025000,0.0324,0.013523,0.002678,0.000431,0.027267
11026000,0.0324,0.013523,0.002678,0.000431,0.004701
11027000,0.0324,0.013523,0.002678,0.000431,0.004701
11028000,0.0324,0.013523,0.002678,0.000431,0.004701
11029000,0.0324,0.013523,0.002678,0.000431,0.026091
11030000,0.0324,0.013523,0.002678,0.000431,0.072985
11031000,0.0324,0.013523,0.002678,0.000431,0.072750
11032000,0.0324,0.013523,0.002678,0.000431,0.027267
11033000,0.0324,0.013523,0.002678,0.000431,0.004701
11034000,0.0324,0.013523,0.002678,0.000431,0.004701
11035000,0.0324,0.013523,0.002678,0.000431,0.004701
11036000,0.0324,0.013523,0.002678,0.000431,0.004701
11037000,0.0324,0.013523,0.002678,0.000431,0.064876
11038000,0.0324,0.013523,0.002678,0.000431,0.004466
11039000,0.0324,0.013523,0.002678,0.000431,0.042310
11040000,0.0324,0.013523,0.002678,0.000431,0.004701
11041000,0.0324,0.013523,0.002678,0.000431,0.004701
11042000,0.0324,0.013523,0.002678,0.000431,0.004701
11043000,0.0324,0.013523,0.002678,0.000431,0.057354
11044000,0.0324,0.013523,0.002678,0.000431,0.012223
11045000,0.0324,0.013523,0.002678,0.000431,0.019862
11046000,0.0324,0.013523,0.002678,0.000431,0.034671
11047000,0.0324,0.013523,0.002678,0.000431,0.004466
11048000,0.0324,0.013523,0.002678,0.000431,0.049832
11049000,0.0324,0.013523,0.002678,0.000431,0.020802
11050000,0.0324,0.013523,0.002678,0.000431,0.041252
11051000,0.0324,0.013523,0.002678,0.000431,0.004701
11052000,0.0324,0.013523,0.002678,0.000431,0.004701
11053000,0.0324,0.013523,0.002678,0.000431,0.004701
11054000,0.0324,0.013523,0.002678,0.000431,0.015984
11055000,0.0324,0.013523,0.002678,0.000431,0.023506
11056000,0.0324,0.013523,0.002678,0.000431,0.064876
11057000,0.0324,0.013523,0.002678,0.000431,0.004701
11058000,0.0324,0.013523,0.002678,0.000431,0.004466
11059000,0.0324,0.013523,0.002678,0.000431,0.012223
11060000,0.0324,0.013523,0.002678,0.000431,0.004701
11061000,0.0324,0.013523,0.002678,0.000431,0.004701
11062000,0.0324,0.013523,0.002678,0.000431,0.056178
11063000,0.0324,0.013523,0.002678,0.000431,0.035964
11064000,0.0324,0.013523,0.002678,0.000431,0.023036
11065000,0.0324,0.013523,0.002678,0.000431,0.038784
11066000,0.0324,0.013523,0.002678,0.000431,0.004701
11067000,0.0324,0.013523,0.002678,0.000431,0.023858
11068000,0.0324,0.013523,0.002678,0.000431,0.045718
11069000,0.0324,0.013523,0.002678,0.000431,0.034788
11070000,0.0324,0.013523,0.002678,0.000431,0.004701
11071000,0.0324,0.013523,0.002678,0.000431,0.016101
11072000,0.0324,0.013523,0.002678,0.000431,0.015866
11073000,0.0324,0.013523,0.002678,0.000431,0.004701
11074000,0.0324,0.013523,0.002678,0.000431,0.004701
11075000,0.0324,0.013523,0.002678,0.000431,0.043133
11076000,0.0324,0.013523,0.002678,0.000431,0.026444
11077000,0.0324,0.013523,0.002678,0.000431,0.004701
11078000,0.0324,0.013523,0.002678,0.000431,0.004466
11079000,0.0324,0.013523,0.002678,0.000431,0.004701
11080000,0.0324,0.013523,0.002678,0.000431,0.004701
11081000,0.0324,0.013523,0.002678,0.000431,0.004701
11082000,0.0324,0.013523,0.002678,0.000431,0.057354
11083000,0.0324,0.013523,0.002678,0.000431,0.004701
11084000,0.0324,0.013523,0.002678,0.000431,0.027267
11085000,0.0324,0.013523,0.002678,0.000431,0.004701
11086000,0.0324,0.013523,0.002678,0.000431,0.004701
11087000,0.0324,0.013523,0.002678,0.000431,0.008227
11088000,0.0324,0.013523,0.002678,0.000431,0.061467
11089000,0.0324,0.013523,0.002678,0.000431,0.049479
11090000,0.0324,0.013523,0.002678,0.000431,0.012223
11091000,0.0324,0.013523,0.002678,0.000431,0.004701
11092000,0.0324,0.013523,0.002678,0.000431,0.004701
11093000,0.0324,0.013523,0.002678,0.000431,0.004701
11094000,0.0324,0.013523,0.002678,0.000431,0.066756
11095000,0.0324,0.013523,0.002678,0.000431,0.033143
11096000,0.0324,0.013523,0.002678,0.000431,0.008462
11097000,0.0324,0.013523,0.002678,0.000431,0.008462
11098000,0.0324,0.013523,0.002678,0.000431,0.004466
11099000,0.0324,0.013523,0.002678,0.000431,0.004466
11100000,0.0324,0.013523,0.002678,0.000431,0.055591
11101000,0.0324,0.013523,0.002678,0.000431,0.051595
11102000,0.0324,0.013523,0.002678,0.000431,0.004701
11103000,0.0324,0.013523,0.002678,0.000431,0.027267
11104000,0.0324,0.013523,0.002678,0.000431,0.004701
11105000,0.0324,0.013523,0.002678,0.000431,0.004701
11106000,0.0324,0.013523,0.002678,0.000431,0.004701
11107000,0.0324,0.013523,0.002678,0.000431,0.019980
11108000,0.0324,0.013523,0.002678,0.000431,0.019745
11109000,0.0324,0.013523,0.002678,0.000431,0.017512
11110000,0.0324,0.013523,0.002678,0.000431,0.006934
11111000,0.0324,0.013523,0.002678,0.000431,0.004701
11112000,0.0324,0.013523,0.002678,0.000431,0.004701
11113000,0.0324,0.013523,0.002678,0.000431,0.041017
11114000,0.0324,0.013523,0.002678,0.000431,0.051125
11115000,0.0324,0.013523,0.002678,0.000431,0.102720
11116000,0.0324,0.013523,0.002678,0.000431,0.042310
11117000,0.0324,0.013523,0.002678,0.000431,0.004701
11118000,0.0324,0.013523,0.002678,0.000431,0.004584
11119000,0.0324,0.013523,0.002678,0.000431,0.004584
11120000,0.0324,0.013523,0.002678,0.000431,0.042310
11121000,0.0324,0.013523,0.002678,0.000431,0.016689
11122000,0.0324,0.013523,0.002678,0.000431,0.054063
11123000,0.0324,0.013523,0.002678,0.000431,0.018569
11124000,0.0324,0.013523,0.002678,0.000431,0.004701
11125000,0.0324,0.013523,0.002678,0.000431,0.004701
11126000,0.0324,0.013523,0.002678,0.000431,0.011400
11127000,0.0324,0.013523,0.002678,0.000431,0.028089
11128000,0.0324,0.013523,0.002678,0.000431,0.004701
11129000,0.0324,0.013523,0.002678,0.000431,0.040782
11130000,0.0324,0.013523,0.002678,0.000431,0.036316
11131000,0.0324,0.013523,0.002678,0.000431,0.004701
11132000,0.0324,0.013523,0.002678,0.000431,0.004701
11133000,0.0324,0.013523,0.002678,0.000431,0.050067
11134000,0.0324,0.013523,0.002678,0.000431,0.004701
11135000,0.0324,0.013523,0.002678,0.000431,0.004936
11136000,0.0324,0.013523,0.002678,0.000431,0.080389
11137000,0.0324,0.013523,0.002678,0.000431,0.004701
11138000,0.0324,0.013523,0.002678,0.000431,0.004466
11139000,0.0324,0.013523,0.002678,0.000431,0.038784
11140000,0.0324,0.013523,0.002678,0.000431,0.008345
11141000,0.0324,0.013523,0.002678,0.000431,0.042193
11142000,0.0324,0.013523,0.002678,0.000431,0.004584
11143000,0.0324,0.013523,0.002678,0.000431,0.019627
11144000,0.0324,0.013523,0.002678,0.000431,0.004701
11145000,0.0324,0.013523,0.002678,0.000431,0.004701
11146000,0.0324,0.013523,0.002678,0.000431,0.027267
11147000,0.0324,0.013523,0.002678,0.000431,0.004701
11148000,0.0324,0.013523,0.002678,0.000431,0.004701
11149000,0.0324,0.013523,0.002678,0.000431,0.072632
11150000,0.0324,0.013523,0.002678,0.000431,0.004701
11151000,0.0324,0.013523,0.002678,0.000431,0.004701
11152000,0.0324,0.013523,0.002678,0.000431,0.038432
11153000,0.0324,0.013523,0.002678,0.000431,0.016101
11154000,0.0324,0.013523,0.002678,0.000431,0.049832
11155000,0.0324,0.013523,0.002678,0.000431,0.008462
11156000,0.0324,0.013523,0.002678,0.000431,0.015984
11157000,0.0324,0.013523,0.002678,0.000431,0.004701
11158000,0.0324,0.013523,0.002678,0.000431,0.004701
11159000,0.0324,0.013523,0.002678,0.000431,0.004701
11160000,0.0324,0.013523,0.002678,0.000431,0.004701
11161000,0.0324,0.013523,0.002678,0.000431,0.004701
11162000,0.0324,0.013523,0.002678,0.000431,0.004936
11163000,0.0324,0.013523,0.002678,0.000431,0.004466
11164000,0.0324,0.013523,0.002678,0.000431,0.004701
11165000,0.0324,0.013523,0.002678,0.000431,0.049832
11166000,0.0324,0.013523,0.002678,0.000431,0.004701
11167000,0.0324,0.013523,0.002678,0.000431,0.004701
11168000,0.0324,0.013523,0.002678,0.000431,0.027267
11169000,0.0324,0.013523,0.002678,0.000431,0.027031
11170000,0.0324,0.013523,0.002678,0.000431,0.004701
11171000,0.0324,0.013523,0.002678,0.000431,0.072632
11172000,0.0324,0.013523,0.002678,0.000431,0.019980
11173000,0.0324,0.013523,0.002678,0.000431,0.004701
11174000,0.0324,0.013523,0.002678,0.000431,0.004701
11175000,0.0324,0.013523,0.002678,0.000431,0.004701
11176000,0.0324,0.013523,0.002678,0.000431,0.004701
11177000,0.0324,0.013523,0.002678,0.000431,0.008462
11178000,0.0324,0.013523,0.002678,0.000431,0.085796
11179000,0.0324,0.013523,0.002678,0.000431,0.025151
11180000,0.0324,0.013523,0.002678,0.000431,0.004701
11181000,0.0324,0.013523,0.002678,0.000431,0.070164
11182000,0.0324,0.013523,0.002678,0.000431,0.006817
11183000,0.0324,0.013523,0.002678,0.000431,0.004584
11184000,0.0324,0.013523,0.002678,0.000431,0.034553
11185000,0.0324,0.013523,0.002678,0.000431,0.012223
11186000,0.0324,0.013523,0.002678,0.000431,0.004701
11187000,0.0324,0.013523,0.002678,0.000431,0.004701
11188000,0.0324,0.013523,0.002678,0.000431,0.034906
11189000,0.0324,0.013523,0.002678,0.000431,0.004819
11190000,0.0324,0.013523,0.002678,0.000431,0.012223
11191000,0.0324,0.013523,0.002678,0.000431,0.075336
11192000,0.0324,0.013523,0.002678,0.000431,0.053828
11193000,0.0324,0.013523,0.002678,0.000431,0.042898
11194000,0.0324,0.013523,0.002678,0.000431,0.042310
11195000,0.0324,0.013523,0.002678,0.000431,0.004701
11196000,0.0324,0.013523,0.002678,0.000431,0.004701
11197000,0.0324,0.013523,0.002678,0.000431,0.019745
11198000,0.0324,0.013523,0.002678,0.000431,0.004701
11199000,0.0324,0.013523,0.002678,0.000431,0.004701
11200000,0.0324,0.013523,0.002678,0.000431,0.005641
11201000,0.0324,0.013523,0.002678,0.000431,0.011283
11202000,0.0324,0.013523,0.002678,0.000431,0.004701
11203000,0.0324,0.013523,0.002678,0.000431,0.039137
11204000,0.0324,0.013523,0.002678,0.000431,0.019275
11205000,0.0324,0.013523,0.002678,0.000431,0.008580
11206000,0.0324,0.013523,0.002678,0.000431,0.004701
11207000,0.0324,0.013523,0.002678,0.000431,0.057589
11208000,0.0324,0.013523,0.002678,0.000431,0.004701
11209000,0.0324,0.013523,0.002678,0.000431,0.004466
11210000,0.0324,0.013523,0.002678,0.000431,0.062290
11211000,0.0324,0.013523,0.002678,0.000431,0.015279
11212000,0.0324,0.013523,0.002678,0.000431,0.004701
11213000,0.0324,0.013523,0.002678,0.000431,0.019745
11214000,0.0324,0.013523,0.002678,0.000431,0.019745
11215000,0.0324,0.013523,0.002678,0.000431,0.004701
11216000,0.0324,0.013523,0.002678,0.000431,0.021743
11217000,0.0324,0.013523,0.002678,0.000431,0.055356
11218000,0.0324,0.013523,0.002678,0.000431,0.012105
11219000,0.0324,0.013523,0.002678,0.000431,0.004584
11220000,0.0324,0.013523,0.002678,0.000431,0.035023
11221000,0.0324,0.013523,0.002678,0.000431,0.004701
11222000,0.0324,0.013523,0.002678,0.000431,0.005406
11223000,0.0324,0.013523,0.002678,0.000431,0.026326
11224000,0.0324,0.013523,0.002678,0.000431,0.004584
11225000,0.0324,0.013523,0.002678,0.000431,0.049714
11226000,0.0324,0.013523,0.002678,0.000431,0.004936
11227000,0.0324,0.013523,0.002678,0.000431,0.004701
11228000,0.0324,0.013523,0.002678,0.000431,0.004701
11229000,0.0324,0.013523,0.002678,0.000431,0.016219
11230000,0.0324,0.013523,0.002678,0.000431,0.015984
11231000,0.0324,0.013523,0.002678,0.000431,0.057824
11232000,0.0324,0.013523,0.002678,0.000431,0.004701
11233000,0.0324,0.013523,0.002678,0.000431,0.057354
11234000,0.0324,0.013523,0.002678,0.000431,0.004701
11235000,0.0324,0.013523,0.002678,0.000431,0.015984
11236000,0.0324,0.013523,0.002678,0.000431,0.023506
11237000,0.0324,0.013523,0.002678,0.000431,0.046071
11238000,0.0324,0.013523,0.002678,0.000431,0.008462
11239000,0.0324,0.013523,0.002678,0.000431,0.004701
11240000,0.0324,0.013523,0.002678,0.000431,0.012223
11241000,0.0324,0.013523,0.002678,0.000431,0.004701
11242000,0.0324,0.013523,0.002678,0.000431,0.027267
11243000,0.0324,0.013523,0.002678,0.000431,0.017512
11244000,0.0324,0.013523,0.002678,0.000431,0.006934
11245000,0.0324,0.013523,0.002678,0.000431,0.004701
11246000,0.0324,0.013523,0.002678,0.000431,0.004701
11247000,0.0324,0.013523,0.002678,0.000431,0.012223
11248000,0.0324,0.013523,0.002678,0.000431,0.025269
11249000,0.0324,0.013523,0.002678,0.000431,0.011400
11250000,0.0324,0.013523,0.002678,0.000431,0.029617
11251000,0.0324,0.013523,0.002678,0.000431,0.004701
11252000,0.0324,0.013523,0.002678,0.000431,0.004701
11253000,0.0324,0.013523,0.002678,0.000431,0.012223
11254000,0.0324,0.013523,0.002678,0.000431,0.004701
11255000,0.0324,0.013523,0.002678,0.000431,0.034788
11256000,0.0324,0.013523,0.002678,0.000431,0.004701
11257000,0.0324,0.013523,0.002678,0.000431,0.057471
11258000,0.0324,0.013523,0.002678,0.000431,0.004819
11259000,0.0324,0.013523,0.002678,0.000431,0.004466
11260000,0.0324,0.013523,0.002678,0.000431,0.004701
11261000,0.0324,0.013523,0.002678,0.000431,0.004701
11262000,0.0324,0.013523,0.002678,0.000431,0.004701
11263000,0.0324,0.013523,0.002678,0.000431,0.019745
11264000,0.0324,0.013523,0.002678,0.000431,0.004584
11265000,0.0324,0.013523,0.002678,0.000431,0.057236
11266000,0.0324,0.013523,0.002678,0.000431,0.004701
11267000,0.0324,0.013523,0.002678,0.000431,0.004701
11268000,0.0324,0.013523,0.002678,0.000431,0.004701
11269000,0.0324,0.013523,0.002678,0.000431,0.004701
11270000,0.0324,0.013523,0.002678,0.000431,0.102485
11271000,0.0324,0.013523,0.002678,0.000431,0.027502
11272000,0.0324,0.013523,0.002678,0.000431,0.012223
11273000,0.0324,0.013523,0.002678,0.000431,0.004701
11274000,0.0324,0.013523,0.002678,0.000431,0.019745
11275000,0.0324,0.013523,0.002678,0.000431,0.004701
11276000,0.0324,0.013523,0.002678,0.000431,0.057354
11277000,0.0324,0.013523,0.002678,0.000431,0.012223
11278000,0.0324,0.013523,0.002678,0.000431,0.004701
11279000,0.0324,0.013523,0.002678,0.000431,0.004701
11280000,0.0324,0.013523,0.002678,0.000431,0.015984
11281000,0.0324,0.013523,0.002678,0.000431,0.031027
11282000,0.0324,0.013523,0.002678,0.000431,0.004701
11283000,0.0324,0.013523,0.002678,0.000431,0.004701
11284000,0.0324,0.013523,0.002678,0.000431,0.004466
11285000,0.0324,0.013523,0.002678,0.000431,0.004701
11286000,0.0324,0.013523,0.002678,0.000431,0.004701
11287000,0.0324,0.013523,0.002678,0.000431,0.012223
11288000,0.0324,0.013523,0.002678,0.000431,0.070282
11289000,0.0324,0.013523,0.002678,0.000431,0.036786
11290000,0.0324,0.013523,0.002678,0.000431,0.034906
11291000,0.0324,0.013523,0.002678,0.000431,0.004701
11292000,0.0324,0.013523,0.002678,0.000431,0.004701
11293000,0.0324,0.013523,0.002678,0.000431,0.004701
11294000,0.0324,0.013523,0.002678,0.000431,0.006817
11295000,0.0324,0.013523,0.002678,0.000431,0.017864
11296000,0.0324,0.013523,0.002678,0.000431,0.012223
11297000,0.0324,0.013523,0.002678,0.000431,0.004701
11298000,0.0324,0.013523,0.002678,0.000431,0.004701
11299000,0.0324,0.013523,0.002678,0.000431,0.004466
11300000,0.0324,0.013523,0.002678,0.000431,0.004701
11301000,0.0324,0.013523,0.002678,0.000431,0.042545
11302000,0.0324,0.013523,0.002678,0.000431,0.105540
11303000,0.0324,0.013523,0.002678,0.000431,0.016689
11304000,0.0324,0.013523,0.002678,0.000431,0.004701
11305000,0.0324,0.013523,0.002678,0.000431,0.004466
11306000,0.0324,0.013523,0.002678,0.000431,0.004701
11307000,0.0324,0.013523,0.002678,0.000431,0.012223
11308000,0.0324,0.013523,0.002678,0.000431,0.019275
11309000,0.0324,0.013523,0.002678,0.000431,0.005171
11310000,0.0324,0.013523,0.002678,0.000431,0.004701
11311000,0.0324,0.013523,0.002678,0.000431,0.004701
11312000,0.0324,0.013523,0.002678,0.000431,0.004701
11313000,0.0324,0.013523,0.002678,0.000431,0.004701
11314000,0.0324,0.013523,0.002678,0.000431,0.057354
11315000,0.0324,0.013523,0.002678,0.000431,0.019980
11316000,0.0324,0.013523,0.002678,0.000431,0.004701
11317000,0.0324,0.013523,0.002678,0.000431,0.004701
11318000,0.0324,0.013523,0.002678,0.000431,0.004701
11319000,0.0324,0.013523,0.002678,0.000431,0.004701
11320000,0.0324,0.013523,0.002678,0.000431,0.034788
11321000,0.0324,0.013523,0.002678,0.000431,0.004701
11322000,0.0324,0.013523,0.002678,0.000431,0.049832
11323000,0.0324,0.013523,0.002678,0.000431,0.064876
11324000,0.0324,0.013523,0.002678,0.000431,0.004466
11325000,0.0324,0.013523,0.002678,0.000431,0.004701
11326000,0.0324,0.013523,0.002678,0.000431,0.011518
11327000,0.0324,0.013523,0.002678,0.000431,0.065581
11328000,0.0324,0.013523,0.002678,0.000431,0.034788
11329000,0.0324,0.013523,0.002678,0.000431,0.004466
11330000,0.0324,0.013523,0.002678,0.000431,0.004936
11331000,0.0324,0.013523,0.002678,0.000431,0.004701
11332000,0.0324,0.013523,0.002678,0.000431,0.004701
11333000,0.0324,0.013523,0.002678,0.000431,0.064170
11334000,0.0324,0.013523,0.002678,0.000431,0.058059
11335000,0.0324,0.013523,0.002678,0.000431,0.004701
11336000,0.0324,0.013523,0.002678,0.000431,0.004701
11337000,0.0324,0.013523,0.002678,0.000431,0.004701
11338000,0.0324,0.013523,0.002678,0.000431,0.004701
11339000,0.0324,0.013523,0.002678,0.000431,0.004584
11340000,0.0324,0.013523,0.002678,0.000431,0.012576
11341000,0.0324,0.013523,0.002678,0.000431,0.019745
11342000,0.0324,0.013523,0.002678,0.000431,0.049832
11343000,0.0324,0.013523,0.002678,0.000431,0.004701
11344000,0.0324,0.013523,0.002678,0.000431,0.004701
11345000,0.0324,0.013523,0.002678,0.000431,0.004466
11346000,0.0324,0.013523,0.002678,0.000431,0.102485
11347000,0.0324,0.013523,0.002678,0.000431,0.004701
11348000,0.0324,0.013523,0.002678,0.000431,0.004701
11349000,0.0324,0.013523,0.002678,0.000431,0.004701
11350000,0.0324,0.013523,0.002678,0.000431,0.004701
11351000,0.0324,0.013523,0.002678,0.000431,0.004701
11352000,0.0324,0.013523,0.002678,0.000431,0.023506
11353000,0.0324,0.013523,0.002678,0.000431,0.008462
11354000,0.0324,0.013523,0.002678,0.000431,0.051712
11355000,0.0324,0.013523,0.002678,0.000431,0.059117
11356000,0.0324,0.013523,0.002678,0.000431,0.038667
11357000,0.0324,0.013523,0.002678,0.000431,0.004701
11358000,0.0324,0.013523,0.002678,0.000431,0.027267
11359000,0.0324,0.013523,0.002678,0.000431,0.034788
11360000,0.0324,0.013523,0.002678,0.000431,0.004701
11361000,0.0324,0.013523,0.002678,0.000431,0.102485
11362000,0.0324,0.013523,0.002678,0.000431,0.012223
11363000,0.0324,0.013523,0.002678,0.000431,0.004701
11364000,0.0324,0.013523,0.002678,0.000431,0.004701
11365000,0.0324,0.013523,0.002678,0.000431,0.015984
11366000,0.0324,0.013523,0.002678,0.000431,0.008462
11367000,0.0324,0.013523,0.002678,0.000431,0.006347
11368000,0.0324,0.013523,0.002678,0.000431,0.018099
11369000,0.0324,0.013523,0.002678,0.000431,0.004701
11370000,0.0324,0.013523,0.002678,0.000431,0.079919
11371000,0.0324,0.013523,0.002678,0.000431,0.004701
11372000,0.0324,0.013523,0.002678,0.000431,0.057119
11373000,0.0324,0.013523,0.002678,0.000431,0.004701
11374000,0.0324,0.013523,0.002678,0.000431,0.019745
11375000,0.0324,0.013523,0.002678,0.000431,0.004701
11376000,0.0324,0.013523,0.002678,0.000431,0.006111
11377000,0.0324,0.013523,0.002678,0.000431,0.033143
11378000,0.0324,0.013523,0.002678,0.000431,0.004701
11379000,0.0324,0.013523,0.002678,0.000431,0.004466
11380000,0.0324,0.013523,0.002678,0.000431,0.012223
11381000,0.0324,0.013523,0.002678,0.000431,0.012223
11382000,0.0324,0.013523,0.002678,0.000431,0.004701
11383000,0.0324,0.013523,0.002678,0.000431,0.004701
11384000,0.0324,0.013523,0.002678,0.000431,0.004701
11385000,0.0324,0.013523,0.002678,0.000431,0.012223
11386000,0.0324,0.013523,0.002678,0.000431,0.006229
11387000,0.0324,0.013523,0.002678,0.000431,0.010695
11388000,0.0324,0.013523,0.002678,0.000431,0.004701
11389000,0.0324,0.013523,0.002678,0.000431,0.012105
11390000,0.0324,0.013523,0.002678,0.000431,0.004584
11391000,0.0324,0.013523,0.002678,0.000431,0.012223
11392000,0.0324,0.013523,0.002678,0.000431,0.004701
11393000,0.0324,0.013523,0.002678,0.000431,0.042310
11394000,0.0324,0.013523,0.002678,0.000431,0.004701
11395000,0.0324,0.013523,0.002678,0.000431,0.004701
11396000,0.0324,0.013523,0.002678,0.000431,0.004701
11397000,0.0324,0.013523,0.002678,0.000431,0.005994
11398000,0.0324,0.013523,0.002678,0.000431,0.048539
11399000,0.0324,0.013523,0.002678,0.000431,0.004701
11400000,0.0324,0.013523,0.002678,0.000431,0.004466
11401000,0.0324,0.013523,0.002678,0.000431,0.004701
11402000,0.0324,0.013523,0.002678,0.000431,0.085678
11403000,0.0324,0.013523,0.002678,0.000431,0.028794
11404000,0.0324,0.013523,0.002678,0.000431,0.012223
11405000,0.0324,0.013523,0.002678,0.000431,0.034788
11406000,0.0324,0.013523,0.002678,0.000431,0.014809
11407000,0.0324,0.013523,0.002678,0.000431,0.009637
11408000,0.0324,0.013523,0.002678,0.000431,0.004701
11409000,0.0324,0.013523,0.002678,0.000431,0.034318
11410000,0.0324,0.013523,0.002678,0.000431,0.005406
11411000,0.0324,0.013523,0.002678,0.000431,0.019745
11412000,0.0324,0.013523,0.002678,0.000431,0.004701
11413000,0.0324,0.013523,0.002678,0.000431,0.027267
11414000,0.0324,0.013523,0.002678,0.000431,0.004701
11415000,0.0324,0.013523,0.002678,0.000431,0.008462
11416000,0.0324,0.013523,0.002678,0.000431,0.008462
11417000,0.0324,0.013523,0.002678,0.000431,0.042075
11418000,0.0324,0.013523,0.002678,0.000431,0.012223
11419000,0.0324,0.013523,0.002678,0.000431,0.019745
11420000,0.0324,0.013523,0.002678,0.000431,0.004701
11421000,0.0324,0.013523,0.002678,0.000431,0.004466
11422000,0.0324,0.013523,0.002678,0.000431,0.004701
11423000,0.0324,0.013523,0.002678,0.000431,0.004701
11424000,0.0324,0.013523,0.002678,0.000431,0.004701
11425000,0.0324,0.013523,0.002678,0.000431,0.023036
11426000,0.0324,0.013523,0.002678,0.000431,0.031498
11427000,0.0324,0.013523,0.002678,0.000431,0.004701
11428000,0.0324,0.013523,0.002678,0.000431,0.027267
11429000,0.0324,0.013523,0.002678,0.000431,0.004584
11430000,0.0324,0.013523,0.002678,0.000431,0.072515
11431000,0.0324,0.013523,0.002678,0.000431,0.012223
11432000,0.0324,0.013523,0.002678,0.000431,0.027267
11433000,0.0324,0.013523,0.002678,0.000431,0.004701
11434000,0.0324,0.013523,0.002678,0.000431,0.004701
11435000,0.0324,0.013523,0.002678,0.000431,0.004701
11436000,0.0324,0.013523,0.002678,0.000431,0.004701
11437000,0.0324,0.013523,0.002678,0.000431,0.027267
11438000,0.0324,0.013523,0.002678,0.000431,0.004701
11439000,0.0324,0.013523,0.002678,0.000431,0.004701
11440000,0.0324,0.013523,0.002678,0.000431,0.004466
11441000,0.0324,0.013523,0.002678,0.000431,0.004701
11442000,0.0324,0.013523,0.002678,0.000431,0.004701
11443000,0.0324,0.013523,0.002678,0.000431,0.095198
11444000,0.0324,0.013523,0.002678,0.000431,0.004701
11445000,0.0324,0.013523,0.002678,0.000431,0.139859
11446000,0.0324,0.013523,0.002678,0.000431,0.004701
11447000,0.0324,0.013523,0.002678,0.000431,0.004701
11448000,0.0324,0.013523,0.002678,0.000431,0.004701
11449000,0.0324,0.013523,0.002678,0.000431,0.087441
11450000,0.0324,0.013523,0.002678,0.000431,0.004701
11451000,0.0324,0.013523,0.002678,0.000431,0.004701
11452000,0.0324,0.013523,0.002678,0.000431,0.004701
11453000,0.0324,0.013523,0.002678,0.000431,0.004701
11454000,0.0324,0.013523,0.002678,0.000431,0.004701
11455000,0.0324,0.013523,0.002678,0.000431,0.019862
11456000,0.0324,0.013523,0.002678,0.000431,0.019745
11457000,0.0324,0.013523,0.002678,0.000431,0.004584
11458000,0.0324,0.013523,0.002678,0.000431,0.004701
11459000,0.0324,0.013523,0.002678,0.000431,0.004701
11460000,0.0324,0.013523,0.002678,0.000431,0.008932
11461000,0.0324,0.013523,0.002678,0.000431,0.007757
11462000,0.0324,0.013523,0.002678,0.000431,0.042310
11463000,0.0324,0.013523,0.002678,0.000431,0.004701
11464000,0.0324,0.013523,0.002678,0.000431,0.025269
11465000,0.0324,0.013523,0.002678,0.000431,0.021743
11466000,0.0324,0.013523,0.002678,0.000431,0.004701
11467000,0.0324,0.013523,0.002678,0.000431,0.042428
11468000,0.0324,0.013523,0.002678,0.000431,0.012105
11469000,0.0324,0.013523,0.002678,0.000431,0.004701
11470000,0.0324,0.013523,0.002678,0.000431,0.004701
11471000,0.0324,0.013523,0.002678,0.000431,0.012223
11472000,0.0324,0.013523,0.002678,0.000431,0.004701
11473000,0.0324,0.013523,0.002678,0.000431,0.004936
11474000,0.0324,0.013523,0.002678,0.000431,0.004701
11475000,0.0324,0.013523,0.002678,0.000431,0.012223
11476000,0.0324,0.013523,0.002678,0.000431,0.004701
11477000,0.0324,0.013523,0.002678,0.000431,0.019745
11478000,0.0324,0.013523,0.002678,0.000431,0.004701
11479000,0.0324,0.013523,0.002678,0.000431,0.017159
11480000,0.0324,0.013523,0.002678,0.000431,0.059704
11481000,0.0324,0.013523,0.002678,0.000431,0.027267
11482000,0.0324,0.013523,0.002678,0.000431,0.019745
11483000,0.0324,0.013523,0.002678,0.000431,0.004701
11484000,0.0324,0.013523,0.002678,0.000431,0.004701
11485000,0.0324,0.013523,0.002678,0.000431,0.004701
11486000,0.0324,0.013523,0.002678,0.000431,0.034788
11487000,0.0324,0.013523,0.002678,0.000431,0.042310
11488000,0.0324,0.013523,0.002678,0.000431,0.035023
11489000,0.0324,0.013523,0.002678,0.000431,0.004701
11490000,0.0324,0.013523,0.002678,0.000431,0.019745
11491000,0.0324,0.013523,0.002678,0.000431,0.004701
11492000,0.0324,0.013523,0.002678,0.000431,0.004701
11493000,0.0324,0.013523,0.002678,0.000431,0.004701
11494000,0.0324,0.013523,0.002678,0.000431,0.102485
11495000,0.0324,0.013523,0.002678,0.000431,0.004701
11496000,0.0324,0.013523,0.002678,0.000431,0.004701
11497000,0.0324,0.013523,0.002678,0.000431,0.004466
11498000,0.0324,0.013523,0.002678,0.000431,0.004701
11499000,0.0324,0.013523,0.002678,0.000431,0.004701
11500000,0.0324,0.013523,0.002678,0.000431,0.005759
11501000,0.0324,0.013523,0.002678,0.000431,0.026091
11502000,0.0324,0.013523,0.002678,0.000431,0.004466
11503000,0.0324,0.013523,0.002678,0.000431,0.004584
11504000,0.0324,0.013523,0.002678,0.000431,0.004701
11505000,0.0324,0.013523,0.002678,0.000431,0.004701
11506000,0.0324,0.013523,0.002678,0.000431,0.008462
11507000,0.0324,0.013523,0.002678,0.000431,0.053828
11508000,0.0324,0.013523,0.002678,0.000431,0.023271
11509000,0.0324,0.013523,0.002678,0.000431,0.031027
11510000,0.0324,0.013523,0.002678,0.000431,0.004701
11511000,0.0324,0.013523,0.002678,0.000431,0.004701
11512000,0.0324,0.013523,0.002678,0.000431,0.004701
11513000,0.0324,0.013523,0.002678,0.000431,0.120114
11514000,0.0324,0.013523,0.002678,0.000431,0.024916
11515000,0.0324,0.013523,0.002678,0.000431,0.094963
11516000,0.0324,0.013523,0.002678,0.000431,0.004701
11517000,0.0324,0.013523,0.002678,0.000431,0.004701
11518000,0.0324,0.013523,0.002678,0.000431,0.004466
11519000,0.0324,0.013523,0.002678,0.000431,0.049832
11520000,0.0324,0.013523,0.002678,0.000431,0.027267
11521000,0.0324,0.013523,0.002678,0.000431,0.004701
11522000,0.0324,0.013523,0.002678,0.000431,0.004701
11523000,0.0324,0.013523,0.002678,0.000431,0.004701
11524000,0.0324,0.013523,0.002678,0.000431,0.004701
11525000,0.0324,0.013523,0.002678,0.000431,0.011165
11526000,0.0324,0.013523,0.002678,0.000431,0.028324
11527000,0.0324,0.013523,0.002678,0.000431,0.004701
11528000,0.0324,0.013523,0.002678,0.000431,0.042310
11529000,0.0324,0.013523,0.002678,0.000431,0.004701
11530000,0.0324,0.013523,0.002678,0.000431,0.004701
11531000,0.0324,0.013523,0.002678,0.000431,0.004701
11532000,0.0324,0.013523,0.002678,0.000431,0.004701
11533000,0.0324,0.013523,0.002678,0.000431,0.004701
11534000,0.0324,0.013523,0.002678,0.000431,0.004701
11535000,0.0324,0.013523,0.002678,0.000431,0.004701
11536000,0.0324,0.013523,0.002678,0.000431,0.004701
11537000,0.0324,0.013523,0.002678,0.000431,0.004466
11538000,0.0324,0.013523,0.002678,0.000431,0.027149
11539000,0.0324,0.013523,0.002678,0.000431,0.100134
11540000,0.0324,0.013523,0.002678,0.000431,0.026444
11541000,0.0324,0.013523,0.002678,0.000431,0.030440
11542000,0.0324,0.013523,0.002678,0.000431,0.004584
11543000,0.0324,0.013523,0.002678,0.000431,0.004701
11544000,0.0324,0.013523,0.002678,0.000431,0.004701
11545000,0.0324,0.013523,0.002678,0.000431,0.012223
11546000,0.0324,0.013523,0.002678,0.000431,0.064876
11547000,0.0324,0.013523,0.002678,0.000431,0.019745
11548000,0.0324,0.013523,0.002678,0.000431,0.004466
11549000,0.0324,0.013523,0.002678,0.000431,0.004701
11550000,0.0324,0.013523,0.002678,0.000431,0.004701
11551000,0.0324,0.013523,0.002678,0.000431,0.004701
11552000,0.0324,0.013523,0.002678,0.000431,0.004701
11553000,0.0324,0.013523,0.002678,0.000431,0.020920
11554000,0.0324,0.013523,0.002678,0.000431,0.041370
11555000,0.0324,0.013523,0.002678,0.000431,0.004701
11556000,0.0324,0.013523,0.002678,0.000431,0.004701
11557000,0.0324,0.013523,0.002678,0.000431,0.004701
11558000,0.0324,0.013523,0.002678,0.000431,0.057471
11559000,0.0324,0.013523,0.002678,0.000431,0.072515
11560000,0.0324,0.013523,0.002678,0.000431,0.080154
11561000,0.0324,0.013523,0.002678,0.000431,0.004701
11562000,0.0324,0.013523,0.002678,0.000431,0.004701
11563000,0.0324,0.013523,0.002678,0.000431,0.004701
11564000,0.0324,0.013523,0.002678,0.000431,0.011870
11565000,0.0324,0.013523,0.002678,0.000431,0.056766
11566000,0.0324,0.013523,0.002678,0.000431,0.025621
11567000,0.0324,0.013523,0.002678,0.000431,0.007287
11568000,0.0324,0.013523,0.002678,0.000431,0.004701
11569000,0.0324,0.013523,0.002678,0.000431,0.004701
11570000,0.0324,0.013523,0.002678,0.000431,0.004701
11571000,0.0324,0.013523,0.002678,0.000431,0.023976
11572000,0.0324,0.013523,0.002678,0.000431,0.023271
11573000,0.0324,0.013523,0.002678,0.000431,0.004701
11574000,0.0324,0.013523,0.002678,0.000431,0.004701
11575000,0.0324,0.013523,0.002678,0.000431,0.004701
11576000,0.0324,0.013523,0.002678,0.000431,0.004701
11577000,0.0324,0.013523,0.002678,0.000431,0.109771
11578000,0.0324,0.013523,0.002678,0.000431,0.087441
11579000,0.0324,0.013523,0.002678,0.000431,0.004701
11580000,0.0324,0.013523,0.002678,0.000431,0.004701
11581000,0.0324,0.013523,0.002678,0.000431,0.004701
11582000,0.0324,0.013523,0.002678,0.000431,0.004701
11583000,0.0324,0.013523,0.002678,0.000431,0.004701
11584000,0.0324,0.013523,0.002678,0.000431,0.029147
11585000,0.0324,0.013523,0.002678,0.000431,0.014691
11586000,0.0324,0.013523,0.002678,0.000431,0.007757
11587000,0.0324,0.013523,0.002678,0.000431,0.004584
11588000,0.0324,0.013523,0.002678,0.000431,0.004466
11589000,0.0324,0.013523,0.002678,0.000431,0.004701
11590000,0.0324,0.013523,0.002678,0.000431,0.102485
11591000,0.0324,0.013523,0.002678,0.000431,0.012223
11592000,0.0324,0.013523,0.002678,0.000431,0.072397
11593000,0.0324,0.013523,0.002678,0.000431,0.004701
11594000,0.0324,0.013523,0.002678,0.000431,0.004701
11595000,0.0324,0.013523,0.002678,0.000431,0.004701
11596000,0.0324,0.013523,0.002678,0.000431,0.017159
11597000,0.0324,0.013523,0.002678,0.000431,0.037374
11598000,0.0324,0.013523,0.002678,0.000431,0.050067
11599000,0.0324,0.013523,0.002678,0.000431,0.004701
11600000,0.0324,0.013523,0.002678,0.000431,0.004701
11601000,0.0324,0.013523,0.002678,0.000431,0.004701
11602000,0.0324,0.013523,0.002678,0.000431,0.004701
11603000,0.0324,0.013523,0.002678,0.000431,0.019745
11604000,0.0324,0.013523,0.002678,0.000431,0.033378
11605000,0.0324,0.013523,0.002678,0.000431,0.104600
11606000,0.0324,0.013523,0.002678,0.000431,0.004701
11607000,0.0324,0.013523,0.002678,0.000431,0.004701
11608000,0.0324,0.013523,0.002678,0.000431,0.004701
11609000,0.0324,0.013523,0.002678,0.000431,0.011988
11610000,0.0324,0.013523,0.002678,0.000431,0.045248
11611000,0.0324,0.013523,0.002678,0.000431,0.099311
11612000,0.0324,0.013523,0.002678,0.000431,0.004701
11613000,0.0324,0.013523,0.002678,0.000431,0.004701
11614000,0.0324,0.013523,0.002678,0.000431,0.004701
11615000,0.0324,0.013523,0.002678,0.000431,0.004584
11616000,0.0324,0.013523,0.002678,0.000431,0.034906
11617000,0.0324,0.013523,0.002678,0.000431,0.011988
11618000,0.0324,0.013523,0.002678,0.000431,0.011988
11619000,0.0324,0.013523,0.002678,0.000431,0.004701
11620000,0.0324,0.013523,0.002678,0.000431,0.004701
11621000,0.0324,0.013523,0.002678,0.000431,0.004701
11622000,0.0324,0.013523,0.002678,0.000431,0.057354
11623000,0.0324,0.013523,0.002678,0.000431,0.004701
11624000,0.0324,0.013523,0.002678,0.000431,0.004701
11625000,0.0324,0.013523,0.002678,0.000431,0.004701
11626000,0.0324,0.013523,0.002678,0.000431,0.004701
11627000,0.0324,0.013523,0.002678,0.000431,0.004701
11628000,0.0324,0.013523,0.002678,0.000431,0.004701
11629000,0.0324,0.013523,0.002678,0.000431,0.087441
11630000,0.0324,0.013523,0.002678,0.000431,0.027267
11631000,0.0324,0.013523,0.002678,0.000431,0.004701
11632000,0.0324,0.013523,0.002678,0.000431,0.004701
11633000,0.0324,0.013523,0.002678,0.000431,0.004701
11634000,0.0324,0.013523,0.002678,0.000431,0.004701
11635000,0.0324,0.013523,0.002678,0.000431,0.072397
11636000,0.0324,0.013523,0.002678,0.000431,0.004701
11637000,0.0324,0.013523,0.002678,0.000431,0.064876
11638000,0.0324,0.013523,0.002678,0.000431,0.004701
11639000,0.0324,0.013523,0.002678,0.000431,0.004701
11640000,0.0324,0.013523,0.002678,0.000431,0.004701
11641000,0.0324,0.013523,0.002678,0.000431,0.012223
11642000,0.0324,0.013523,0.002678,0.000431,0.012223
11643000,0.0324,0.013523,0.002678,0.000431,0.012223
11644000,0.0324,0.013523,0.002678,0.000431,0.004701
11645000,0.0324,0.013523,0.002678,0.000431,0.004701
11646000,0.0324,0.013523,0.002678,0.000431,0.004701
11647000,0.0324,0.013523,0.002678,0.000431,0.004701
11648000,0.0324,0.013523,0.002678,0.000431,0.004701
11649000,0.0324,0.013523,0.002678,0.000431,0.019745
11650000,0.0324,0.013523,0.002678,0.000431,0.019510
11651000,0.0324,0.013523,0.002678,0.000431,0.004701
11652000,0.0324,0.013523,0.002678,0.000431,0.004701
11653000,0.0324,0.013523,0.002678,0.000431,0.033496
11654000,0.0324,0.013523,0.002678,0.000431,0.105070
11655000,0.0324,0.013523,0.002678,0.000431,0.018217
11656000,0.0324,0.013523,0.002678,0.000431,0.027031
11657000,0.0324,0.013523,0.002678,0.000431,0.004584
11658000,0.0324,0.013523,0.002678,0.000431,0.004584
11659000,0.0324,0.013523,0.002678,0.000431,0.004701
11660000,0.0324,0.013523,0.002678,0.000431,0.034788
11661000,0.0324,0.013523,0.002678,0.000431,0.004701
11662000,0.0324,0.013523,0.002678,0.000431,0.012811
11663000,0.0324,0.013523,0.002678,0.000431,0.041723
11664000,0.0324,0.013523,0.002678,0.000431,0.004701
11665000,0.0324,0.013523,0.002678,0.000431,0.004701
11666000,0.0324,0.013523,0.002678,0.000431,0.004701
11667000,0.0324,0.013523,0.002678,0.000431,0.055708
11668000,0.0324,0.013523,0.002678,0.000431,0.102485
11669000,0.0324,0.013523,0.002678,0.000431,0.037139
11670000,0.0324,0.013523,0.002678,0.000431,0.004701
11671000,0.0324,0.013523,0.002678,0.000431,0.004701
11672000,0.0324,0.013523,0.002678,0.000431,0.004701
11673000,0.0324,0.013523,0.002678,0.000431,0.087206
11674000,0.0324,0.013523,0.002678,0.000431,0.021508
11675000,0.0324,0.013523,0.002678,0.000431,0.033731
11676000,0.0324,0.013523,0.002678,0.000431,0.004584
11677000,0.0324,0.013523,0.002678,0.000431,0.004584
11678000,0.0324,0.013523,0.002678,0.000431,0.004701
11679000,0.0324,0.013523,0.002678,0.000431,0.033378
11680000,0.0324,0.013523,0.002678,0.000431,0.043720
11681000,0.0324,0.013523,0.002678,0.000431,0.019745
11682000,0.0324,0.013523,0.002678,0.000431,0.004701
11683000,0.0324,0.013523,0.002678,0.000431,0.004701
11684000,0.0324,0.013523,0.002678,0.000431,0.004701
11685000,0.0324,0.013523,0.002678,0.000431,0.004701
11686000,0.0324,0.013523,0.002678,0.000431,0.033848
11687000,0.0324,0.013523,0.002678,0.000431,0.066286
11688000,0.0324,0.013523,0.002678,0.000431,0.057354
11689000,0.0324,0.013523,0.002678,0.000431,0.004701
11690000,0.0324,0.013523,0.002678,0.000431,0.004701
11691000,0.0324,0.013523,0.002678,0.000431,0.004701
11692000,0.0324,0.013523,0.002678,0.000431,0.004701
11693000,0.0324,0.013523,0.002678,0.000431,0.049597
11694000,0.0324,0.013523,0.002678,0.000431,0.118468
11695000,0.0324,0.013523,0.002678,0.000431,0.018334
11696000,0.0324,0.013523,0.002678,0.000431,0.004701
11697000,0.0324,0.013523,0.002678,0.000431,0.004584
11698000,0.0324,0.013523,0.002678,0.000431,0.006582
11699000,0.0324,0.013523,0.002678,0.000431,0.009990
11700000,0.0324,0.013523,0.002678,0.000431,0.053005
11701000,0.0324,0.013523,0.002678,0.000431,0.009050
11702000,0.0324,0.013523,0.002678,0.000431,0.004584
11703000,0.0324,0.013523,0.002678,0.000431,0.004584
11704000,0.0324,0.013523,0.002678,0.000431,0.004701
11705000,0.0324,0.013523,0.002678,0.000431,0.004936
11706000,0.0324,0.013523,0.002678,0.000431,0.004701
11707000,0.0324,0.013523,0.002678,0.000431,0.057354
11708000,0.0324,0.013523,0.002678,0.000431,0.004701
11709000,0.0324,0.013523,0.002678,0.000431,0.004701
11710000,0.0324,0.013523,0.002678,0.000431,0.004701
11711000,0.0324,0.013523,0.002678,0.000431,0.046541
11712000,0.0324,0.013523,0.002678,0.000431,0.023271
11713000,0.0324,0.013523,0.002678,0.000431,0.019745
11714000,0.0324,0.013523,0.002678,0.000431,0.004701
11715000,0.0324,0.013523,0.002678,0.000431,0.004701
11716000,0.0324,0.013523,0.002678,0.000431,0.004701
11717000,0.0324,0.013523,0.002678,0.000431,0.004701
11718000,0.0324,0.013523,0.002678,0.000431,0.004701
11719000,0.0324,0.013523,0.002678,0.000431,0.015396
11720000,0.0324,0.013523,0.002678,0.000431,0.069224
11721000,0.0324,0.013523,0.002678,0.000431,0.004701
11722000,0.0324,0.013523,0.002678,0.000431,0.004701
11723000,0.0324,0.013523,0.002678,0.000431,0.004701
11724000,0.0324,0.013523,0.002678,0.000431,0.049127
11725000,0.0324,0.013523,0.002678,0.000431,0.012928
11726000,0.0324,0.013523,0.002678,0.000431,0.025856
11727000,0.0324,0.013523,0.002678,0.000431,0.021155
11728000,0.0324,0.013523,0.002678,0.000431,0.004701
11729000,0.0324,0.013523,0.002678,0.000431,0.004701
11730000,0.0324,0.013523,0.002678,0.000431,0.008580
11731000,0.0324,0.013523,0.002678,0.000431,0.128693
11732000,0.0324,0.013523,0.002678,0.000431,0.019392
11733000,0.0324,0.013523,0.002678,0.000431,0.050185
11734000,0.0324,0.013523,0.002678,0.000431,0.004701
11735000,0.0324,0.013523,0.002678,0.000431,0.004701
11736000,0.0324,0.013523,0.002678,0.000431,0.004701
11737000,0.0324,0.013523,0.002678,0.000431,0.060645
11738000,0.0324,0.013523,0.002678,0.000431,0.023741
11739000,0.0324,0.013523,0.002678,0.000431,0.034553
11740000,0.0324,0.013523,0.002678,0.000431,0.004701
11741000,0.0324,0.013523,0.002678,0.000431,0.004701
11742000,0.0324,0.013523,0.002678,0.000431,0.004701
11743000,0.0324,0.013523,0.002678,0.000431,0.004466
11744000,0.0324,0.013523,0.002678,0.000431,0.027267
11745000,0.0324,0.013523,0.002678,0.000431,0.004701
11746000,0.0324,0.013523,0.002678,0.000431,0.004701
11747000,0.0324,0.013523,0.002678,0.000431,0.004701
11748000,0.0324,0.013523,0.002678,0.000431,0.004701
11749000,0.0324,0.013523,0.002678,0.000431,0.004701
11750000,0.0324,0.013523,0.002678,0.000431,0.049832
11751000,0.0324,0.013523,0.002678,0.000431,0.012223
11752000,0.0324,0.013523,0.002678,0.000431,0.102485
11753000,0.0324,0.013523,0.002678,0.000431,0.004701
11754000,0.0324,0.013523,0.002678,0.000431,0.004701
11755000,0.0324,0.013523,0.002678,0.000431,0.004701
11756000,0.0324,0.013523,0.002678,0.000431,0.014103
11757000,0.0324,0.013523,0.002678,0.000431,0.017864
11758000,0.0324,0.013523,0.002678,0.000431,0.015396
11759000,0.0324,0.013523,0.002678,0.000431,0.061702
11760000,0.0324,0.013523,0.002678,0.000431,0.004701
11761000,0.0324,0.013523,0.002678,0.000431,0.004701
11762000,0.0324,0.013523,0.002678,0.000431,0.004701
11763000,0.0324,0.013523,0.002678,0.000431,0.057589
11764000,0.0324,0.013523,0.002678,0.000431,0.004701
11765000,0.0324,0.013523,0.002678,0.000431,0.027031
11766000,0.0324,0.013523,0.002678,0.000431,0.004701
11767000,0.0324,0.013523,0.002678,0.000431,0.004701
11768000,0.0324,0.013523,0.002678,0.000431,0.004701
11769000,0.0324,0.013523,0.002678,0.000431,0.039489
11770000,0.0324,0.013523,0.002678,0.000431,0.119761
11771000,0.0324,0.013523,0.002678,0.000431,0.027031
11772000,0.0324,0.013523,0.002678,0.000431,0.095080
11773000,0.0324,0.013523,0.002678,0.000431,0.004701
11774000,0.0324,0.013523,0.002678,0.000431,0.004701
11775000,0.0324,0.013523,0.002678,0.000431,0.004584
11776000,0.0324,0.013523,0.002678,0.000431,0.004584
11777000,0.0324,0.013523,0.002678,0.000431,0.012340
11778000,0.0324,0.013523,0.002678,0.000431,0.012576
11779000,0.0324,0.013523,0.002678,0.000431,0.004584
11780000,0.0324,0.013523,0.002678,0.000431,0.004584
11781000,0.0324,0.013523,0.002678,0.000431,0.004701
11782000,0.0324,0.013523,0.002678,0.000431,0.019745
11783000,0.0324,0.013523,0.002678,0.000431,0.004701
11784000,0.0324,0.013523,0.002678,0.000431,0.057354
11785000,0.0324,0.013523,0.002678,0.000431,0.004584
11786000,0.0324,0.013523,0.002678,0.000431,0.004584
11787000,0.0324,0.013523,0.002678,0.000431,0.004701
11788000,0.0324,0.013523,0.002678,0.000431,0.004701
11789000,0.0324,0.013523,0.002678,0.000431,0.034788
11790000,0.0324,0.013523,0.002678,0.000431,0.004701
11791000,0.0324,0.013523,0.002678,0.000431,0.027502
11792000,0.0324,0.013523,0.002678,0.000431,0.004701
11793000,0.0324,0.013523,0.002678,0.000431,0.004701
11794000,0.0324,0.013523,0.002678,0.000431,0.004701
11795000,0.0324,0.013523,0.002678,0.000431,0.083563
11796000,0.0324,0.013523,0.002678,0.000431,0.016336
11797000,0.0324,0.013523,0.002678,0.000431,0.053593
11798000,0.0324,0.013523,0.002678,0.000431,0.008462
11799000,0.0324,0.013523,0.002678,0.000431,0.004701
11800000,0.0324,0.013523,0.002678,0.000431,0.004466
11801000,0.0324,0.013523,0.002678,0.000431,0.004701
11802000,0.0324,0.013523,0.002678,0.000431,0.027267
11803000,0.0324,0.013523,0.002678,0.000431,0.034788
11804000,0.0324,0.013523,0.002678,0.000431,0.004701
11805000,0.0324,0.013523,0.002678,0.000431,0.004701
11806000,0.0324,0.013523,0.002678,0.000431,0.004701
11807000,0.0324,0.013523,0.002678,0.000431,0.004701
11808000,0.0324,0.013523,0.002678,0.000431,0.057589
11809000,0.0324,0.013523,0.002678,0.000431,0.012223
11810000,0.0324,0.013523,0.002678,0.000431,0.027267
11811000,0.0324,0.013523,0.002678,0.000431,0.004701
11812000,0.0324,0.013523,0.002678,0.000431,0.004701
11813000,0.0324,0.013523,0.002678,0.000431,0.004701
11814000,0.0324,0.013523,0.002678,0.000431,0.029382
11815000,0.0324,0.013523,0.002678,0.000431,0.112592
11816000,0.0324,0.013523,0.002678,0.000431,0.014809
11817000,0.0324,0.013523,0.002678,0.000431,0.004701
11818000,0.0324,0.013523,0.002678,0.000431,0.004701
11819000,0.0324,0.013523,0.002678,0.000431,0.004701
11820000,0.0324,0.013523,0.002678,0.000431,0.004701
11821000,0.0324,0.013523,0.002678,0.000431,0.034788
11822000,0.0324,0.013523,0.002678,0.000431,0.037374
11823000,0.0324,0.013523,0.002678,0.000431,0.024681
11824000,0.0324,0.013523,0.002678,0.000431,0.004701
11825000,0.0324,0.013523,0.002678,0.000431,0.004701
11826000,0.0324,0.013523,0.002678,0.000431,0.004466
11827000,0.0324,0.013523,0.002678,0.000431,0.012223
11828000,0.0324,0.013523,0.002678,0.000431,0.008462
11829000,0.0324,0.013523,0.002678,0.000431,0.064876
11830000,0.0324,0.013523,0.002678,0.000431,0.015984
11831000,0.0324,0.013523,0.002678,0.000431,0.004701
11832000,0.0324,0.013523,0.002678,0.000431,0.004701
11833000,0.0324,0.013523,0.002678,0.000431,0.004701
11834000,0.0324,0.013523,0.002678,0.000431,0.102250
11835000,0.0324,0.013523,0.002678,0.000431,0.037609
11836000,0.0324,0.013523,0.002678,0.000431,0.113650
11837000,0.0324,0.013523,0.002678,0.000431,0.005524
11838000,0.0324,0.013523,0.002678,0.000431,0.004701
11839000,0.0324,0.013523,0.002678,0.000431,0.004701
11840000,0.0324,0.013523,0.002678,0.000431,0.012223
11841000,0.0324,0.013523,0.002678,0.000431,0.019510
11842000,0.0324,0.013523,0.002678,0.000431,0.015044
11843000,0.0324,0.013523,0.002678,0.000431,0.047011
11844000,0.0324,0.013523,0.002678,0.000431,0.004466
11845000,0.0324,0.013523,0.002678,0.000431,0.004701
11846000,0.0324,0.013523,0.002678,0.000431,0.004701
11847000,0.0324,0.013523,0.002678,0.000431,0.042193
11848000,0.0324,0.013523,0.002678,0.000431,0.034553
11849000,0.0324,0.013523,0.002678,0.000431,0.004819
11850000,0.0324,0.013523,0.002678,0.000431,0.004701
11851000,0.0324,0.013523,0.002678,0.000431,0.004701
11852000,0.0324,0.013523,0.002678,0.000431,0.004701
11853000,0.0324,0.013523,0.002678,0.000431,0.012223
11854000,0.0324,0.013523,0.002678,0.000431,0.004701
11855000,0.0324,0.013523,0.002678,0.000431,0.109771
11856000,0.0324,0.013523,0.002678,0.000431,0.087206
11857000,0.0324,0.013523,0.002678,0.000431,0.004701
11858000,0.0324,0.013523,0.002678,0.000431,0.004701
11859000,0.0324,0.013523,0.002678,0.000431,0.004701
11860000,0.0324,0.013523,0.002678,0.000431,0.072397
11861000,0.0324,0.013523,0.002678,0.000431,0.027267
11862000,0.0324,0.013523,0.002678,0.000431,0.004466
11863000,0.0324,0.013523,0.002678,0.000431,0.004701
11864000,0.0324,0.013523,0.002678,0.000431,0.004701
11865000,0.0324,0.013523,0.002678,0.000431,0.004701
11866000,0.0324,0.013523,0.002678,0.000431,0.042310
11867000,0.0324,0.013523,0.002678,0.000431,0.004701
11868000,0.0324,0.013523,0.002678,0.000431,0.008462
11869000,0.0324,0.013523,0.002678,0.000431,0.008462
11870000,0.0324,0.013523,0.002678,0.000431,0.004701
11871000,0.0324,0.013523,0.002678,0.000431,0.004701
11872000,0.0324,0.013523,0.002678,0.000431,0.011165
11873000,0.0324,0.013523,0.002678,0.000431,0.043368
11874000,0.0324,0.013523,0.002678,0.000431,0.049832
11875000,0.0324,0.013523,0.002678,0.000431,0.004701
11876000,0.0324,0.013523,0.002678,0.000431,0.004701
11877000,0.0324,0.013523,0.002678,0.000431,0.004701
11878000,0.0324,0.013523,0.002678,0.000431,0.004466
11879000,0.0324,0.013523,0.002678,0.000431,0.064758
11880000,0.0324,0.013523,0.002678,0.000431,0.009637
11881000,0.0324,0.013523,0.002678,0.000431,0.041252
11882000,0.0324,0.013523,0.002678,0.000431,0.008462
11883000,0.0324,0.013523,0.002678,0.000431,0.004701
11884000,0.0324,0.013523,0.002678,0.000431,0.004466
11885000,0.0324,0.013523,0.002678,0.000431,0.004701
11886000,0.0324,0.013523,0.002678,0.000431,0.064876
11887000,0.0324,0.013523,0.002678,0.000431,0.034788
11888000,0.0324,0.013523,0.002678,0.000431,0.004701
11889000,0.0324,0.013523,0.002678,0.000431,0.004466
11890000,0.0324,0.013523,0.002678,0.000431,0.004701
11891000,0.0324,0.013523,0.002678,0.000431,0.004701
11892000,0.0324,0.013523,0.002678,0.000431,0.004701
11893000,0.0324,0.013523,0.002678,0.000431,0.019745
11894000,0.0324,0.013523,0.002678,0.000431,0.064876
11895000,0.0324,0.013523,0.002678,0.000431,0.004701
11896000,0.0324,0.013523,0.002678,0.000431,0.004701
11897000,0.0324,0.013523,0.002678,0.000431,0.004701
11898000,0.0324,0.013523,0.002678,0.000431,0.024211
11899000,0.0324,0.013523,0.002678,0.000431,0.082975
11900000,0.0324,0.013523,0.002678,0.000431,0.027854
11901000,0.0324,0.013523,0.002678,0.000431,0.011635
11902000,0.0324,0.013523,0.002678,0.000431,0.004466
11903000,0.0324,0.013523,0.002678,0.000431,0.004701
11904000,0.0324,0.013523,0.002678,0.000431,0.004701
11905000,0.0324,0.013523,0.002678,0.000431,0.046071
11906000,0.0324,0.013523,0.002678,0.000431,0.040312
11907000,0.0324,0.013523,0.002678,0.000431,0.017747
11908000,0.0324,0.013523,0.002678,0.000431,0.004701
11909000,0.0324,0.013523,0.002678,0.000431,0.004701
11910000,0.0324,0.013523,0.002678,0.000431,0.004701
11911000,0.0324,0.013523,0.002678,0.000431,0.019745
11912000,0.0324,0.013523,0.002678,0.000431,0.027267
11913000,0.0324,0.013523,0.002678,0.000431,0.004701
11914000,0.0324,0.013523,0.002678,0.000431,0.027267
11915000,0.0324,0.013523,0.002678,0.000431,0.004701
11916000,0.0324,0.013523,0.002678,0.000431,0.004701
11917000,0.0324,0.013523,0.002678,0.000431,0.004701
11918000,0.0324,0.013523,0.002678,0.000431,0.004701
11919000,0.0324,0.013523,0.002678,0.000431,0.004701
11920000,0.0324,0.013523,0.002678,0.000431,0.004701
11921000,0.0324,0.013523,0.002678,0.000431,0.004701
11922000,0.0324,0.013523,0.002678,0.000431,0.004701
11923000,0.0324,0.013523,0.002678,0.000431,0.004701
11924000,0.0324,0.013523,0.002678,0.000431,0.079684
11925000,0.0324,0.013523,0.002678,0.000431,0.029265
11926000,0.0324,0.013523,0.002678,0.000431,0.079567
11927000,0.0324,0.013523,0.002678,0.000431,0.018099
11928000,0.0324,0.013523,0.002678,0.000431,0.004701
11929000,0.0324,0.013523,0.002678,0.000431,0.004466
11930000,0.0324,0.013523,0.002678,0.000431,0.016924
11931000,0.0324,0.013523,0.002678,0.000431,0.045131
11932000,0.0324,0.013523,0.002678,0.000431,0.004701
11933000,0.0324,0.013523,0.002678,0.000431,0.079684
11934000,0.0324,0.013523,0.002678,0.000431,0.004701
11935000,0.0324,0.013523,0.002678,0.000431,0.004701
11936000,0.0324,0.013523,0.002678,0.000431,0.004701
11937000,0.0324,0.013523,0.002678,0.000431,0.095198
11938000,0.0324,0.013523,0.002678,0.000431,0.008462
11939000,0.0324,0.013523,0.002678,0.000431,0.015984
11940000,0.0324,0.013523,0.002678,0.000431,0.004701
11941000,0.0324,0.013523,0.002678,0.000431,0.004701
11942000,0.0324,0.013523,0.002678,0.000431,0.004701
11943000,0.0324,0.013523,0.002678,0.000431,0.004466
11944000,0.0324,0.013523,0.002678,0.000431,0.012223
11945000,0.0324,0.013523,0.002678,0.000431,0.074748
11946000,0.0324,0.013523,0.002678,0.000431,0.062643
11947000,0.0324,0.013523,0.002678,0.000431,0.004584
11948000,0.0324,0.013523,0.002678,0.000431,0.004701
11949000,0.0324,0.013523,0.002678,0.000431,0.004701
11950000,0.0324,0.013523,0.002678,0.000431,0.057354
11951000,0.0324,0.013523,0.002678,0.000431,0.008462
11952000,0.0324,0.013523,0.002678,0.000431,0.015984
11953000,0.0324,0.013523,0.002678,0.000431,0.004701
11954000,0.0324,0.013523,0.002678,0.000431,0.004701
11955000,0.0324,0.013523,0.002678,0.000431,0.004701
11956000,0.0324,0.013523,0.002678,0.000431,0.004701
11957000,0.0324,0.013523,0.002678,0.000431,0.004466
11958000,0.0324,0.013523,0.002678,0.000431,0.007639
11959000,0.0324,0.013523,0.002678,0.000431,0.069224
11960000,0.0324,0.013523,0.002678,0.000431,0.004701
11961000,0.0324,0.013523,0.002678,0.000431,0.004701
11962000,0.0324,0.013523,0.002678,0.000431,0.004701
11963000,0.0324,0.013523,0.002678,0.000431,0.042310
11964000,0.0324,0.013523,0.002678,0.000431,0.027502
11965000,0.0324,0.013523,0.002678,0.000431,0.034788
11966000,0.0324,0.013523,0.002678,0.000431,0.004701
11967000,0.0324,0.013523,0.002678,0.000431,0.004701
11968000,0.0324,0.013523,0.002678,0.000431,0.004701
11969000,0.0324,0.013523,0.002678,0.000431,0.010813
11970000,0.0324,0.013523,0.002678,0.000431,0.021155
11971000,0.0324,0.013523,0.002678,0.000431,0.008580
11972000,0.0324,0.013523,0.002678,0.000431,0.008580
11973000,0.0324,0.013523,0.002678,0.000431,0.004701
11974000,0.0324,0.013523,0.002678,0.000431,0.004701
11975000,0.0324,0.013523,0.002678,0.000431,0.004701
11976000,0.0324,0.013523,0.002678,0.000431,0.064876
11977000,0.0324,0.013523,0.002678,0.000431,0.019745
11978000,0.0324,0.013523,0.002678,0.000431,0.004701
11979000,0.0324,0.013523,0.002678,0.000431,0.004701
11980000,0.0324,0.013523,0.002678,0.000431,0.004701
11981000,0.0324,0.013523,0.002678,0.000431,0.004701
11982000,0.0324,0.013523,0.002678,0.000431,0.064876
11983000,0.0324,0.013523,0.002678,0.000431,0.012223
11984000,0.0324,0.013523,0.002678,0.000431,0.011753
11985000,0.0324,0.013523,0.002678,0.000431,0.004701
11986000,0.0324,0.013523,0.002678,0.000431,0.004584
11987000,0.0324,0.013523,0.002678,0.000431,0.004584
11988000,0.0324,0.013523,0.002678,0.000431,0.019745
11989000,0.0324,0.013523,0.002678,0.000431,0.019745
11990000,0.0324,0.013523,0.002678,0.000431,0.019745
11991000,0.0324,0.013523,0.002678,0.000431,0.034788
11992000,0.0324,0.013523,0.002678,0.000431,0.004466
11993000,0.0324,0.013523,0.002678,0.000431,0.004701
11994000,0.0324,0.013523,0.002678,0.000431,0.004701
11995000,0.0324,0.013523,0.002678,0.000431,0.064876
11996000,0.0324,0.013523,0.002678,0.000431,0.039372
11997000,0.0324,0.013523,0.002678,0.000431,0.058059
11998000,0.0324,0.013523,0.002678,0.000431,0.014456
11999000,0.0324,0.013523,0.002678,0.000431,0.004701
