Cycle,Area(mm^2),PeakDynamic(W),SubthresholdLeakage(W),GateLeakage(W),RunTimeDynamic(W)
1000,0.0324,0.013523,0.002678,0.000431,0.011165
2000,0.0324,0.013523,0.002678,0.000431,0.000000
3000,0.0324,0.013523,0.002678,0.000431,0.000000
4000,0.0324,0.013523,0.002678,0.000431,0.000000
5000,0.0324,0.013523,0.002678,0.000431,0.000000
6000,0.0324,0.013523,0.002678,0.000431,0.953036
7000,0.0324,0.013523,0.002678,0.000431,1.144254
8000,0.0324,0.013523,0.002678,0.000431,0.481983
9000,0.0324,0.013523,0.002678,0.000431,0.507722
10000,0.0324,0.013523,0.002678,0.000431,0.493618
11000,0.0324,0.013523,0.002678,0.000431,0.503726
12000,0.0324,0.013523,0.002678,0.000431,0.507839
13000,0.0324,0.013523,0.002678,0.000431,0.506076
14000,0.0324,0.013523,0.002678,0.000431,0.513363
15000,0.0324,0.013523,0.002678,0.000431,0.513363
16000,0.0324,0.013523,0.002678,0.000431,0.521708
17000,0.0324,0.013523,0.002678,0.000431,0.531110
18000,0.0324,0.013523,0.002678,0.000431,0.539337
19000,0.0324,0.013523,0.002678,0.000431,0.577651
20000,0.0324,0.013523,0.002678,0.000431,0.670498
21000,0.0324,0.013523,0.002678,0.000431,0.736314
22000,0.0324,0.013523,0.002678,0.000431,0.773453
23000,0.0324,0.013523,0.002678,0.000431,0.699880
24000,0.0324,0.013523,0.002678,0.000431,0.612674
25000,0.0324,0.013523,0.002678,0.000431,0.608561
26000,0.0324,0.013523,0.002678,0.000431,0.614672
27000,0.0324,0.013523,0.002678,0.000431,0.650989
28000,0.0324,0.013523,0.002678,0.000431,0.675552
29000,0.0324,0.013523,0.002678,0.000431,0.723974
30000,0.0324,0.013523,0.002678,0.000431,0.942223
31000,0.0324,0.013523,0.002678,0.000431,1.231813
32000,0.0324,0.013523,0.002678,0.000431,1.266014
33000,0.0324,0.013523,0.002678,0.000431,0.874292
34000,0.0324,0.013523,0.002678,0.000431,1.065040
35000,0.0324,0.013523,0.002678,0.000431,1.198317
36000,0.0324,0.013523,0.002678,0.000431,1.181393
37000,0.0324,0.013523,0.002678,0.000431,1.061515
38000,0.0324,0.013523,0.002678,0.000431,1.006159
39000,0.0324,0.013523,0.002678,0.000431,0.936582
40000,0.0324,0.013523,0.002678,0.000431,1.103825
41000,0.0324,0.013523,0.002678,0.000431,1.152481
42000,0.0324,0.013523,0.002678,0.000431,1.195262
43000,0.0324,0.013523,0.002678,0.000431,1.183391
44000,0.0324,0.013523,0.002678,0.000431,1.200198
45000,0.0324,0.013523,0.002678,0.000431,1.180571
46000,0.0324,0.013523,0.002678,0.000431,1.230638
47000,0.0324,0.013523,0.002678,0.000431,1.157418
48000,0.0324,0.013523,0.002678,0.000431,1.197965
49000,0.0324,0.013523,0.002678,0.000431,1.282350
50000,0.0324,0.013523,0.002678,0.000431,1.274358
51000,0.0324,0.013523,0.002678,0.000431,1.272948
52000,0.0324,0.013523,0.002678,0.000431,1.209600
53000,0.0324,0.013523,0.002678,0.000431,1.295983
54000,0.0324,0.013523,0.002678,0.000431,1.244506
55000,0.0324,0.013523,0.002678,0.000431,1.197612
56000,0.0324,0.013523,0.002678,0.000431,1.270127
57000,0.0324,0.013523,0.002678,0.000431,1.186212
58000,0.0324,0.013523,0.002678,0.000431,1.246269
59000,0.0324,0.013523,0.002678,0.000431,1.181276
60000,0.0324,0.013523,0.002678,0.000431,1.211598
61000,0.0324,0.013523,0.002678,0.000431,1.237337
62000,0.0324,0.013523,0.002678,0.000431,1.254966
63000,0.0324,0.013523,0.002678,0.000431,1.168818
64000,0.0324,0.013523,0.002678,0.000431,1.177515
65000,0.0324,0.013523,0.002678,0.000431,1.195379
66000,0.0324,0.013523,0.002678,0.000431,1.209953
67000,0.0324,0.013523,0.002678,0.000431,1.230050
68000,0.0324,0.013523,0.002678,0.000431,1.235809
69000,0.0324,0.013523,0.002678,0.000431,1.332299
70000,0.0324,0.013523,0.002678,0.000431,1.250147
71000,0.0324,0.013523,0.002678,0.000431,1.327716
72000,0.0324,0.013523,0.002678,0.000431,1.405520
73000,0.0324,0.013523,0.002678,0.000431,1.441248
74000,0.0324,0.013523,0.002678,0.000431,1.382366
75000,0.0324,0.013523,0.002678,0.000431,1.489670
76000,0.0324,0.013523,0.002678,0.000431,1.448300
77000,0.0324,0.013523,0.002678,0.000431,1.468985
78000,0.0324,0.013523,0.002678,0.000431,1.374962
79000,0.0324,0.013523,0.002678,0.000431,1.433726
80000,0.0324,0.013523,0.002678,0.000431,1.348048
81000,0.0324,0.013523,0.002678,0.000431,1.305973
82000,0.0324,0.013523,0.002678,0.000431,1.298334
83000,0.0324,0.013523,0.002678,0.000431,1.286346
84000,0.0324,0.013523,0.002678,0.000431,1.186329
85000,0.0324,0.013523,0.002678,0.000431,1.198787
86000,0.0324,0.013523,0.002678,0.000431,1.157300
87000,0.0324,0.013523,0.002678,0.000431,1.152599
88000,0.0324,0.013523,0.002678,0.000431,1.145665
89000,0.0324,0.013523,0.002678,0.000431,1.172579
90000,0.0324,0.013523,0.002678,0.000431,1.070212
91000,0.0324,0.013523,0.002678,0.000431,1.185272
92000,0.0324,0.013523,0.002678,0.000431,1.093130
93000,0.0324,0.013523,0.002678,0.000431,1.022025
94000,0.0324,0.013523,0.002678,0.000431,1.051877
95000,0.0324,0.013523,0.002678,0.000431,1.067744
96000,0.0324,0.013523,0.002678,0.000431,1.024728
97000,0.0324,0.013523,0.002678,0.000431,1.054698
98000,0.0324,0.013523,0.002678,0.000431,0.976189
99000,0.0324,0.013523,0.002678,0.000431,0.930001
100000,0.0324,0.013523,0.002678,0.000431,0.947747
101000,0.0324,0.013523,0.002678,0.000431,0.925534
102000,0.0324,0.013523,0.002678,0.000431,0.860306
103000,0.0324,0.013523,0.002678,0.000431,0.713514
104000,0.0324,0.013523,0.002678,0.000431,0.729968
105000,0.0324,0.013523,0.002678,0.000431,0.617023
106000,0.0324,0.013523,0.002678,0.000431,0.659333
107000,0.0324,0.013523,0.002678,0.000431,0.623252
108000,0.0324,0.013523,0.002678,0.000431,0.589169
109000,0.0324,0.013523,0.002678,0.000431,0.739957
110000,0.0324,0.013523,0.002678,0.000431,0.703876
111000,0.0324,0.013523,0.002678,0.000431,0.752298
112000,0.0324,0.013523,0.002678,0.000431,0.791435
113000,0.0324,0.013523,0.002678,0.000431,0.698117
114000,0.0324,0.013523,0.002678,0.000431,0.585878
115000,0.0324,0.013523,0.002678,0.000431,0.659333
116000,0.0324,0.013523,0.002678,0.000431,0.784736
117000,0.0324,0.013523,0.002678,0.000431,0.648991
118000,0.0324,0.013523,0.002678,0.000431,0.671203
119000,0.0324,0.013523,0.002678,0.000431,0.849729
120000,0.0324,0.013523,0.002678,0.000431,0.703641
121000,0.0324,0.013523,0.002678,0.000431,0.699528
122000,0.0324,0.013523,0.002678,0.000431,0.915192
123000,0.0324,0.013523,0.002678,0.000431,0.758174
124000,0.0324,0.013523,0.002678,0.000431,0.727264
125000,0.0324,0.013523,0.002678,0.000431,0.753473
126000,0.0324,0.013523,0.002678,0.000431,0.774863
127000,0.0324,0.013523,0.002678,0.000431,0.797194
128000,0.0324,0.013523,0.002678,0.000431,0.831629
129000,0.0324,0.013523,0.002678,0.000431,0.836918
130000,0.0324,0.013523,0.002678,0.000431,0.930941
131000,0.0324,0.013523,0.002678,0.000431,1.049527
132000,0.0324,0.013523,0.002678,0.000431,0.912371
133000,0.0324,0.013523,0.002678,0.000431,0.907435
134000,0.0324,0.013523,0.002678,0.000431,0.972546
135000,0.0324,0.013523,0.002678,0.000431,0.902734
136000,0.0324,0.013523,0.002678,0.000431,0.862304
137000,0.0324,0.013523,0.002678,0.000431,1.000047
138000,0.0324,0.013523,0.002678,0.000431,0.939990
139000,0.0324,0.013523,0.002678,0.000431,0.951508
140000,0.0324,0.013523,0.002678,0.000431,0.880051
141000,0.0324,0.013523,0.002678,0.000431,0.968197
142000,0.0324,0.013523,0.002678,0.000431,1.040947
143000,0.0324,0.013523,0.002678,0.000431,1.051172
144000,0.0324,0.013523,0.002678,0.000431,1.024611
145000,0.0324,0.013523,0.002678,0.000431,0.977364
146000,0.0324,0.013523,0.002678,0.000431,1.034718
147000,0.0324,0.013523,0.002678,0.000431,1.185742
148000,0.0324,0.013523,0.002678,0.000431,1.202078
149000,0.0324,0.013523,0.002678,0.000431,1.029077
150000,0.0324,0.013523,0.002678,0.000431,1.072680
151000,0.0324,0.013523,0.002678,0.000431,1.161531
152000,0.0324,0.013523,0.002678,0.000431,1.158945
153000,0.0324,0.013523,0.002678,0.000431,1.166232
154000,0.0324,0.013523,0.002678,0.000431,1.197847
155000,0.0324,0.013523,0.002678,0.000431,1.162236
156000,0.0324,0.013523,0.002678,0.000431,1.121924
157000,0.0324,0.013523,0.002678,0.000431,1.202548
158000,0.0324,0.013523,0.002678,0.000431,1.191736
159000,0.0324,0.013523,0.002678,0.000431,1.145077
160000,0.0324,0.013523,0.002678,0.000431,1.283878
161000,0.0324,0.013523,0.002678,0.000431,1.380016
162000,0.0324,0.013523,0.002678,0.000431,1.366853
163000,0.0324,0.013523,0.002678,0.000431,1.237572
164000,0.0324,0.013523,0.002678,0.000431,1.238865
165000,0.0324,0.013523,0.002678,0.000431,1.237572
166000,0.0324,0.013523,0.002678,0.000431,1.281057
167000,0.0324,0.013523,0.002678,0.000431,1.163411
168000,0.0324,0.013523,0.002678,0.000431,1.333357
169000,0.0324,0.013523,0.002678,0.000431,1.205016
170000,0.0324,0.013523,0.002678,0.000431,1.323720
171000,0.0324,0.013523,0.002678,0.000431,1.249912
172000,0.0324,0.013523,0.002678,0.000431,1.199023
173000,0.0324,0.013523,0.002678,0.000431,1.272125
174000,0.0324,0.013523,0.002678,0.000431,1.229345
175000,0.0324,0.013523,0.002678,0.000431,1.075265
176000,0.0324,0.013523,0.002678,0.000431,1.239570
177000,0.0324,0.013523,0.002678,0.000431,1.040477
178000,0.0324,0.013523,0.002678,0.000431,1.018969
179000,0.0324,0.013523,0.002678,0.000431,0.996874
180000,0.0324,0.013523,0.002678,0.000431,1.038832
181000,0.0324,0.013523,0.002678,0.000431,1.092777
182000,0.0324,0.013523,0.002678,0.000431,1.052347
183000,0.0324,0.013523,0.002678,0.000431,1.148838
184000,0.0324,0.013523,0.002678,0.000431,1.028959
185000,0.0324,0.013523,0.002678,0.000431,1.040830
186000,0.0324,0.013523,0.002678,0.000431,1.105940
187000,0.0324,0.013523,0.002678,0.000431,0.951626
188000,0.0324,0.013523,0.002678,0.000431,1.069506
189000,0.0324,0.013523,0.002678,0.000431,1.048704
190000,0.0324,0.013523,0.002678,0.000431,0.745011
191000,0.0324,0.013523,0.002678,0.000431,0.833627
192000,0.0324,0.013523,0.002678,0.000431,0.903439
193000,0.0324,0.013523,0.002678,0.000431,0.838916
194000,0.0324,0.013523,0.002678,0.000431,0.839739
195000,0.0324,0.013523,0.002678,0.000431,0.801072
196000,0.0324,0.013523,0.002678,0.000431,0.910373
197000,0.0324,0.013523,0.002678,0.000431,0.757352
198000,0.0324,0.013523,0.002678,0.000431,0.910961
199000,0.0324,0.013523,0.002678,0.000431,0.702113
200000,0.0324,0.013523,0.002678,0.000431,0.659921
201000,0.0324,0.013523,0.002678,0.000431,0.703524
202000,0.0324,0.013523,0.002678,0.000431,0.776391
203000,0.0324,0.013523,0.002678,0.000431,0.769457
204000,0.0324,0.013523,0.002678,0.000431,0.766166
205000,0.0324,0.013523,0.002678,0.000431,0.767459
206000,0.0324,0.013523,0.002678,0.000431,0.845380
207000,0.0324,0.013523,0.002678,0.000431,0.761935
208000,0.0324,0.013523,0.002678,0.000431,0.788144
209000,0.0324,0.013523,0.002678,0.000431,0.856663
210000,0.0324,0.013523,0.002678,0.000431,0.953741
211000,0.0324,0.013523,0.002678,0.000431,1.035658
212000,0.0324,0.013523,0.002678,0.000431,1.114872
213000,0.0324,0.013523,0.002678,0.000431,1.043650
214000,0.0324,0.013523,0.002678,0.000431,1.138143
215000,0.0324,0.013523,0.002678,0.000431,1.059869
216000,0.0324,0.013523,0.002678,0.000431,1.075618
217000,0.0324,0.013523,0.002678,0.000431,1.090309
218000,0.0324,0.013523,0.002678,0.000431,1.057166
219000,0.0324,0.013523,0.002678,0.000431,0.937640
220000,0.0324,0.013523,0.002678,0.000431,0.987824
221000,0.0324,0.013523,0.002678,0.000431,0.865007
222000,0.0324,0.013523,0.002678,0.000431,0.813765
223000,0.0324,0.013523,0.002678,0.000431,0.884047
224000,0.0324,0.013523,0.002678,0.000431,0.723503
225000,0.0324,0.013523,0.002678,0.000431,0.693534
226000,0.0324,0.013523,0.002678,0.000431,0.649813
227000,0.0324,0.013523,0.002678,0.000431,0.815528
228000,0.0324,0.013523,0.002678,0.000431,0.686482
229000,0.0324,0.013523,0.002678,0.000431,0.750770
230000,0.0324,0.013523,0.002678,0.000431,0.660743
231000,0.0324,0.013523,0.002678,0.000431,0.530992
232000,0.0324,0.013523,0.002678,0.000431,0.494559
233000,0.0324,0.013523,0.002678,0.000431,0.432739
234000,0.0324,0.013523,0.002678,0.000431,0.451778
235000,0.0324,0.013523,0.002678,0.000431,0.409938
236000,0.0324,0.013523,0.002678,0.000431,0.307219
237000,0.0324,0.013523,0.002678,0.000431,0.281598
238000,0.0324,0.013523,0.002678,0.000431,0.111652
239000,0.0324,0.013523,0.002678,0.000431,0.257622
240000,0.0324,0.013523,0.002678,0.000431,0.179583
241000,0.0324,0.013523,0.002678,0.000431,0.118468
242000,0.0324,0.013523,0.002678,0.000431,0.053123
243000,0.0324,0.013523,0.002678,0.000431,0.031968
244000,0.0324,0.013523,0.002678,0.000431,0.105658
245000,0.0324,0.013523,0.002678,0.000431,0.031733
246000,0.0324,0.013523,0.002678,0.000431,0.043133
247000,0.0324,0.013523,0.002678,0.000431,0.042545
248000,0.0324,0.013523,0.002678,0.000431,0.007757
249000,0.0324,0.013523,0.002678,0.000431,0.008227
250000,0.0324,0.013523,0.002678,0.000431,0.026091
251000,0.0324,0.013523,0.002678,0.000431,0.011635
252000,0.0324,0.013523,0.002678,0.000431,0.007404
253000,0.0324,0.013523,0.002678,0.000431,0.008345
254000,0.0324,0.013523,0.002678,0.000431,0.040077
255000,0.0324,0.013523,0.002678,0.000431,0.036551
256000,0.0324,0.013523,0.002678,0.000431,0.008227
257000,0.0324,0.013523,0.002678,0.000431,0.019980
258000,0.0324,0.013523,0.002678,0.000431,0.012223
259000,0.0324,0.013523,0.002678,0.000431,0.004819
260000,0.0324,0.013523,0.002678,0.000431,0.017394
261000,0.0324,0.013523,0.002678,0.000431,0.014573
262000,0.0324,0.013523,0.002678,0.000431,0.026091
263000,0.0324,0.013523,0.002678,0.000431,0.003878
264000,0.0324,0.013523,0.002678,0.000431,0.004113
265000,0.0324,0.013523,0.002678,0.000431,0.004466
266000,0.0324,0.013523,0.002678,0.000431,0.003761
267000,0.0324,0.013523,0.002678,0.000431,0.003643
268000,0.0324,0.013523,0.002678,0.000431,0.003878
269000,0.0324,0.013523,0.002678,0.000431,0.003643
270000,0.0324,0.013523,0.002678,0.000431,0.004113
271000,0.0324,0.013523,0.002678,0.000431,0.025386
272000,0.0324,0.013523,0.002678,0.000431,0.003643
273000,0.0324,0.013523,0.002678,0.000431,0.002938
274000,0.0324,0.013523,0.002678,0.000431,0.002938
275000,0.0324,0.013523,0.002678,0.000431,0.003408
276000,0.0324,0.013523,0.002678,0.000431,0.002821
277000,0.0324,0.013523,0.002678,0.000431,0.003056
278000,0.0324,0.013523,0.002678,0.000431,0.003526
279000,0.0324,0.013523,0.002678,0.000431,0.002938
280000,0.0324,0.013523,0.002678,0.000431,0.002821
281000,0.0324,0.013523,0.002678,0.000431,0.002938
282000,0.0324,0.013523,0.002678,0.000431,0.003056
283000,0.0324,0.013523,0.002678,0.000431,0.002821
284000,0.0324,0.013523,0.002678,0.000431,0.002938
285000,0.0324,0.013523,0.002678,0.000431,0.003291
286000,0.0324,0.013523,0.002678,0.000431,0.003291
287000,0.0324,0.013523,0.002678,0.000431,0.002938
288000,0.0324,0.013523,0.002678,0.000431,0.003056
289000,0.0324,0.013523,0.002678,0.000431,0.003878
290000,0.0324,0.013523,0.002678,0.000431,0.002821
291000,0.0324,0.013523,0.002678,0.000431,0.003173
292000,0.0324,0.013523,0.002678,0.000431,0.002938
293000,0.0324,0.013523,0.002678,0.000431,0.003291
294000,0.0324,0.013523,0.002678,0.000431,0.002938
295000,0.0324,0.013523,0.002678,0.000431,0.003173
296000,0.0324,0.013523,0.002678,0.000431,0.002703
297000,0.0324,0.013523,0.002678,0.000431,0.003173
298000,0.0324,0.013523,0.002678,0.000431,0.003761
299000,0.0324,0.013523,0.002678,0.000431,0.002821
300000,0.0324,0.013523,0.002678,0.000431,0.002938
301000,0.0324,0.013523,0.002678,0.000431,0.003173
302000,0.0324,0.013523,0.002678,0.000431,0.002821
303000,0.0324,0.013523,0.002678,0.000431,0.003173
304000,0.0324,0.013523,0.002678,0.000431,0.002938
305000,0.0324,0.013523,0.002678,0.000431,0.003291
306000,0.0324,0.013523,0.002678,0.000431,0.003291
307000,0.0324,0.013523,0.002678,0.000431,0.002703
308000,0.0324,0.013523,0.002678,0.000431,0.003291
309000,0.0324,0.013523,0.002678,0.000431,0.002938
310000,0.0324,0.013523,0.002678,0.000431,0.003056
311000,0.0324,0.013523,0.002678,0.000431,0.003056
312000,0.0324,0.013523,0.002678,0.000431,0.003643
313000,0.0324,0.013523,0.002678,0.000431,0.003291
314000,0.0324,0.013523,0.002678,0.000431,0.003761
315000,0.0324,0.013523,0.002678,0.000431,0.054180
316000,0.0324,0.013523,0.002678,0.000431,0.017512
317000,0.0324,0.013523,0.002678,0.000431,0.001880
318000,0.0324,0.013523,0.002678,0.000431,0.001645
319000,0.0324,0.013523,0.002678,0.000431,0.001998
320000,0.0324,0.013523,0.002678,0.000431,0.001410
321000,0.0324,0.013523,0.002678,0.000431,0.002116
322000,0.0324,0.013523,0.002678,0.000431,0.001410
323000,0.0324,0.013523,0.002678,0.000431,0.001998
324000,0.0324,0.013523,0.002678,0.000431,0.001763
325000,0.0324,0.013523,0.002678,0.000431,0.001880
326000,0.0324,0.013523,0.002678,0.000431,0.001880
327000,0.0324,0.013523,0.002678,0.000431,0.001763
328000,0.0324,0.013523,0.002678,0.000431,0.001998
329000,0.0324,0.013523,0.002678,0.000431,0.001410
330000,0.0324,0.013523,0.002678,0.000431,0.002116
331000,0.0324,0.013523,0.002678,0.000431,0.001410
332000,0.0324,0.013523,0.002678,0.000431,0.001645
333000,0.0324,0.013523,0.002678,0.000431,0.002116
334000,0.0324,0.013523,0.002678,0.000431,0.001880
335000,0.0324,0.013523,0.002678,0.000431,0.002116
336000,0.0324,0.013523,0.002678,0.000431,0.001528
337000,0.0324,0.013523,0.002678,0.000431,0.001998
338000,0.0324,0.013523,0.002678,0.000431,0.001645
339000,0.0324,0.013523,0.002678,0.000431,0.001645
340000,0.0324,0.013523,0.002678,0.000431,0.001880
341000,0.0324,0.013523,0.002678,0.000431,0.001880
342000,0.0324,0.013523,0.002678,0.000431,0.001645
343000,0.0324,0.013523,0.002678,0.000431,0.001880
344000,0.0324,0.013523,0.002678,0.000431,0.001880
345000,0.0324,0.013523,0.002678,0.000431,0.001880
346000,0.0324,0.013523,0.002678,0.000431,0.001880
347000,0.0324,0.013523,0.002678,0.000431,0.001528
348000,0.0324,0.013523,0.002678,0.000431,0.001998
349000,0.0324,0.013523,0.002678,0.000431,0.001528
350000,0.0324,0.013523,0.002678,0.000431,0.001763
351000,0.0324,0.013523,0.002678,0.000431,0.001645
352000,0.0324,0.013523,0.002678,0.000431,0.002116
353000,0.0324,0.013523,0.002678,0.000431,0.001645
354000,0.0324,0.013523,0.002678,0.000431,0.001528
355000,0.0324,0.013523,0.002678,0.000431,0.001998
356000,0.0324,0.013523,0.002678,0.000431,0.001763
357000,0.0324,0.013523,0.002678,0.000431,0.001998
358000,0.0324,0.013523,0.002678,0.000431,0.001528
359000,0.0324,0.013523,0.002678,0.000431,0.001763
360000,0.0324,0.013523,0.002678,0.000431,0.001880
361000,0.0324,0.013523,0.002678,0.000431,0.001645
362000,0.0324,0.013523,0.002678,0.000431,0.001998
363000,0.0324,0.013523,0.002678,0.000431,0.001528
364000,0.0324,0.013523,0.002678,0.000431,0.001880
365000,0.0324,0.013523,0.002678,0.000431,0.001763
366000,0.0324,0.013523,0.002678,0.000431,0.001880
367000,0.0324,0.013523,0.002678,0.000431,0.001763
368000,0.0324,0.013523,0.002678,0.000431,0.001880
369000,0.0324,0.013523,0.002678,0.000431,0.001645
370000,0.0324,0.013523,0.002678,0.000431,0.001880
371000,0.0324,0.013523,0.002678,0.000431,0.001645
372000,0.0324,0.013523,0.002678,0.000431,0.001880
373000,0.0324,0.013523,0.002678,0.000431,0.001763
374000,0.0324,0.013523,0.002678,0.000431,0.001528
375000,0.0324,0.013523,0.002678,0.000431,0.002116
376000,0.0324,0.013523,0.002678,0.000431,0.001645
377000,0.0324,0.013523,0.002678,0.000431,0.001763
378000,0.0324,0.013523,0.002678,0.000431,0.001763
379000,0.0324,0.013523,0.002678,0.000431,0.001880
380000,0.0324,0.013523,0.002678,0.000431,0.001645
381000,0.0324,0.013523,0.002678,0.000431,0.002116
382000,0.0324,0.013523,0.002678,0.000431,0.001645
383000,0.0324,0.013523,0.002678,0.000431,0.001880
384000,0.0324,0.013523,0.002678,0.000431,0.001528
385000,0.0324,0.013523,0.002678,0.000431,0.002116
386000,0.0324,0.013523,0.002678,0.000431,0.001645
387000,0.0324,0.013523,0.002678,0.000431,0.001998
388000,0.0324,0.013523,0.002678,0.000431,0.001410
389000,0.0324,0.013523,0.002678,0.000431,0.002116
390000,0.0324,0.013523,0.002678,0.000431,0.001410
391000,0.0324,0.013523,0.002678,0.000431,0.002116
392000,0.0324,0.013523,0.002678,0.000431,0.001645
393000,0.0324,0.013523,0.002678,0.000431,0.001880
394000,0.0324,0.013523,0.002678,0.000431,0.001998
395000,0.0324,0.013523,0.002678,0.000431,0.001763
396000,0.0324,0.013523,0.002678,0.000431,0.001880
397000,0.0324,0.013523,0.002678,0.000431,0.001645
398000,0.0324,0.013523,0.002678,0.000431,0.001880
399000,0.0324,0.013523,0.002678,0.000431,0.001645
400000,0.0324,0.013523,0.002678,0.000431,0.001880
401000,0.0324,0.013523,0.002678,0.000431,0.001645
402000,0.0324,0.013523,0.002678,0.000431,0.001998
403000,0.0324,0.013523,0.002678,0.000431,0.001528
404000,0.0324,0.013523,0.002678,0.000431,0.001998
405000,0.0324,0.013523,0.002678,0.000431,0.001763
406000,0.0324,0.013523,0.002678,0.000431,0.001645
407000,0.0324,0.013523,0.002678,0.000431,0.001880
408000,0.0324,0.013523,0.002678,0.000431,0.002116
409000,0.0324,0.013523,0.002678,0.000431,0.001880
410000,0.0324,0.013523,0.002678,0.000431,0.001763
411000,0.0324,0.013523,0.002678,0.000431,0.001998
412000,0.0324,0.013523,0.002678,0.000431,0.001410
413000,0.0324,0.013523,0.002678,0.000431,0.001998
414000,0.0324,0.013523,0.002678,0.000431,0.001763
415000,0.0324,0.013523,0.002678,0.000431,0.001528
416000,0.0324,0.013523,0.002678,0.000431,0.001998
417000,0.0324,0.013523,0.002678,0.000431,0.001645
418000,0.0324,0.013523,0.002678,0.000431,0.001880
419000,0.0324,0.013523,0.002678,0.000431,0.001763
420000,0.0324,0.013523,0.002678,0.000431,0.001998
421000,0.0324,0.013523,0.002678,0.000431,0.001528
422000,0.0324,0.013523,0.002678,0.000431,0.001880
423000,0.0324,0.013523,0.002678,0.000431,0.001763
424000,0.0324,0.013523,0.002678,0.000431,0.001528
425000,0.0324,0.013523,0.002678,0.000431,0.001998
426000,0.0324,0.013523,0.002678,0.000431,0.001645
427000,0.0324,0.013523,0.002678,0.000431,0.001880
428000,0.0324,0.013523,0.002678,0.000431,0.001763
429000,0.0324,0.013523,0.002678,0.000431,0.001998
430000,0.0324,0.013523,0.002678,0.000431,0.001528
431000,0.0324,0.013523,0.002678,0.000431,0.001880
432000,0.0324,0.013523,0.002678,0.000431,0.001763
433000,0.0324,0.013523,0.002678,0.000431,0.001645
434000,0.0324,0.013523,0.002678,0.000431,0.001880
435000,0.0324,0.013523,0.002678,0.000431,0.001763
436000,0.0324,0.013523,0.002678,0.000431,0.001763
437000,0.0324,0.013523,0.002678,0.000431,0.001763
438000,0.0324,0.013523,0.002678,0.000431,0.001998
439000,0.0324,0.013523,0.002678,0.000431,0.001763
440000,0.0324,0.013523,0.002678,0.000431,0.001763
441000,0.0324,0.013523,0.002678,0.000431,0.001645
442000,0.0324,0.013523,0.002678,0.000431,0.002116
443000,0.0324,0.013523,0.002678,0.000431,0.001528
444000,0.0324,0.013523,0.002678,0.000431,0.001763
445000,0.0324,0.013523,0.002678,0.000431,0.001763
446000,0.0324,0.013523,0.002678,0.000431,0.001645
447000,0.0324,0.013523,0.002678,0.000431,0.002116
448000,0.0324,0.013523,0.002678,0.000431,0.001528
449000,0.0324,0.013523,0.002678,0.000431,0.001880
450000,0.0324,0.013523,0.002678,0.000431,0.001880
451000,0.0324,0.013523,0.002678,0.000431,0.001763
452000,0.0324,0.013523,0.002678,0.000431,0.001763
453000,0.0324,0.013523,0.002678,0.000431,0.001880
454000,0.0324,0.013523,0.002678,0.000431,0.001880
455000,0.0324,0.013523,0.002678,0.000431,0.001645
456000,0.0324,0.013523,0.002678,0.000431,0.001645
457000,0.0324,0.013523,0.002678,0.000431,0.001880
458000,0.0324,0.013523,0.002678,0.000431,0.001645
459000,0.0324,0.013523,0.002678,0.000431,0.001880
460000,0.0324,0.013523,0.002678,0.000431,0.001880
461000,0.0324,0.013523,0.002678,0.000431,0.001528
462000,0.0324,0.013523,0.002678,0.000431,0.001998
463000,0.0324,0.013523,0.002678,0.000431,0.001410
464000,0.0324,0.013523,0.002678,0.000431,0.002116
465000,0.0324,0.013523,0.002678,0.000431,0.001410
466000,0.0324,0.013523,0.002678,0.000431,0.001998
467000,0.0324,0.013523,0.002678,0.000431,0.001763
468000,0.0324,0.013523,0.002678,0.000431,0.001645
469000,0.0324,0.013523,0.002678,0.000431,0.001880
470000,0.0324,0.013523,0.002678,0.000431,0.002116
471000,0.0324,0.013523,0.002678,0.000431,0.001645
472000,0.0324,0.013523,0.002678,0.000431,0.001998
473000,0.0324,0.013523,0.002678,0.000431,0.001528
474000,0.0324,0.013523,0.002678,0.000431,0.001880
475000,0.0324,0.013523,0.002678,0.000431,0.001645
476000,0.0324,0.013523,0.002678,0.000431,0.001880
477000,0.0324,0.013523,0.002678,0.000431,0.001880
478000,0.0324,0.013523,0.002678,0.000431,0.001410
479000,0.0324,0.013523,0.002678,0.000431,0.001998
480000,0.0324,0.013523,0.002678,0.000431,0.001763
481000,0.0324,0.013523,0.002678,0.000431,0.001998
482000,0.0324,0.013523,0.002678,0.000431,0.001528
483000,0.0324,0.013523,0.002678,0.000431,0.001998
484000,0.0324,0.013523,0.002678,0.000431,0.001528
485000,0.0324,0.013523,0.002678,0.000431,0.001645
486000,0.0324,0.013523,0.002678,0.000431,0.002116
487000,0.0324,0.013523,0.002678,0.000431,0.001410
488000,0.0324,0.013523,0.002678,0.000431,0.002116
489000,0.0324,0.013523,0.002678,0.000431,0.001645
490000,0.0324,0.013523,0.002678,0.000431,0.001998
491000,0.0324,0.013523,0.002678,0.000431,0.001528
492000,0.0324,0.013523,0.002678,0.000431,0.001998
493000,0.0324,0.013523,0.002678,0.000431,0.001528
494000,0.0324,0.013523,0.002678,0.000431,0.001880
495000,0.0324,0.013523,0.002678,0.000431,0.001763
496000,0.0324,0.013523,0.002678,0.000431,0.001880
497000,0.0324,0.013523,0.002678,0.000431,0.001763
498000,0.0324,0.013523,0.002678,0.000431,0.001645
499000,0.0324,0.013523,0.002678,0.000431,0.002116
500000,0.0324,0.013523,0.002678,0.000431,0.001410
501000,0.0324,0.013523,0.002678,0.000431,0.001880
502000,0.0324,0.013523,0.002678,0.000431,0.001645
503000,0.0324,0.013523,0.002678,0.000431,0.001645
504000,0.0324,0.013523,0.002678,0.000431,0.001880
505000,0.0324,0.013523,0.002678,0.000431,0.001645
506000,0.0324,0.013523,0.002678,0.000431,0.002116
507000,0.0324,0.013523,0.002678,0.000431,0.001410
508000,0.0324,0.013523,0.002678,0.000431,0.001998
509000,0.0324,0.013523,0.002678,0.000431,0.001410
510000,0.0324,0.013523,0.002678,0.000431,0.001998
511000,0.0324,0.013523,0.002678,0.000431,0.001645
512000,0.0324,0.013523,0.002678,0.000431,0.001998
513000,0.0324,0.013523,0.002678,0.000431,0.001528
514000,0.0324,0.013523,0.002678,0.000431,0.001998
515000,0.0324,0.013523,0.002678,0.000431,0.001763
516000,0.0324,0.013523,0.002678,0.000431,0.001763
517000,0.0324,0.013523,0.002678,0.000431,0.001763
518000,0.0324,0.013523,0.002678,0.000431,0.001998
519000,0.0324,0.013523,0.002678,0.000431,0.001763
520000,0.0324,0.013523,0.002678,0.000431,0.001410
521000,0.0324,0.013523,0.002678,0.000431,0.002116
522000,0.0324,0.013523,0.002678,0.000431,0.001410
523000,0.0324,0.013523,0.002678,0.000431,0.001998
524000,0.0324,0.013523,0.002678,0.000431,0.001763
525000,0.0324,0.013523,0.002678,0.000431,0.001880
526000,0.0324,0.013523,0.002678,0.000431,0.001763
527000,0.0324,0.013523,0.002678,0.000431,0.001645
528000,0.0324,0.013523,0.002678,0.000431,0.001998
529000,0.0324,0.013523,0.002678,0.000431,0.001645
530000,0.0324,0.013523,0.002678,0.000431,0.001998
531000,0.0324,0.013523,0.002678,0.000431,0.001528
532000,0.0324,0.013523,0.002678,0.000431,0.001645
533000,0.0324,0.013523,0.002678,0.000431,0.001880
534000,0.0324,0.013523,0.002678,0.000431,0.001645
535000,0.0324,0.013523,0.002678,0.000431,0.002116
536000,0.0324,0.013523,0.002678,0.000431,0.001410
537000,0.0324,0.013523,0.002678,0.000431,0.002116
538000,0.0324,0.013523,0.002678,0.000431,0.001645
539000,0.0324,0.013523,0.002678,0.000431,0.001763
540000,0.0324,0.013523,0.002678,0.000431,0.001763
541000,0.0324,0.013523,0.002678,0.000431,0.001528
542000,0.0324,0.013523,0.002678,0.000431,0.001998
543000,0.0324,0.013523,0.002678,0.000431,0.001528
544000,0.0324,0.013523,0.002678,0.000431,0.002233
545000,0.0324,0.013523,0.002678,0.000431,0.001880
546000,0.0324,0.013523,0.002678,0.000431,0.001645
547000,0.0324,0.013523,0.002678,0.000431,0.002116
548000,0.0324,0.013523,0.002678,0.000431,0.001528
549000,0.0324,0.013523,0.002678,0.000431,0.001998
550000,0.0324,0.013523,0.002678,0.000431,0.001528
551000,0.0324,0.013523,0.002678,0.000431,0.001763
552000,0.0324,0.013523,0.002678,0.000431,0.001645
553000,0.0324,0.013523,0.002678,0.000431,0.001880
554000,0.0324,0.013523,0.002678,0.000431,0.001880
555000,0.0324,0.013523,0.002678,0.000431,0.001410
556000,0.0324,0.013523,0.002678,0.000431,0.002116
557000,0.0324,0.013523,0.002678,0.000431,0.001645
558000,0.0324,0.013523,0.002678,0.000431,0.002116
559000,0.0324,0.013523,0.002678,0.000431,0.001528
560000,0.0324,0.013523,0.002678,0.000431,0.001763
561000,0.0324,0.013523,0.002678,0.000431,0.001645
562000,0.0324,0.013523,0.002678,0.000431,0.001880
563000,0.0324,0.013523,0.002678,0.000431,0.001880
564000,0.0324,0.013523,0.002678,0.000431,0.001645
565000,0.0324,0.013523,0.002678,0.000431,0.001880
566000,0.0324,0.013523,0.002678,0.000431,0.001528
567000,0.0324,0.013523,0.002678,0.000431,0.001998
568000,0.0324,0.013523,0.002678,0.000431,0.001880
569000,0.0324,0.013523,0.002678,0.000431,0.001410
570000,0.0324,0.013523,0.002678,0.000431,0.002116
571000,0.0324,0.013523,0.002678,0.000431,0.001410
572000,0.0324,0.013523,0.002678,0.000431,0.002116
573000,0.0324,0.013523,0.002678,0.000431,0.001645
574000,0.0324,0.013523,0.002678,0.000431,0.001880
575000,0.0324,0.013523,0.002678,0.000431,0.001645
576000,0.0324,0.013523,0.002678,0.000431,0.001763
577000,0.0324,0.013523,0.002678,0.000431,0.002116
578000,0.0324,0.013523,0.002678,0.000431,0.001528
579000,0.0324,0.013523,0.002678,0.000431,0.001880
580000,0.0324,0.013523,0.002678,0.000431,0.001645
581000,0.0324,0.013523,0.002678,0.000431,0.001880
582000,0.0324,0.013523,0.002678,0.000431,0.001528
583000,0.0324,0.013523,0.002678,0.000431,0.002233
584000,0.0324,0.013523,0.002678,0.000431,0.001528
585000,0.0324,0.013523,0.002678,0.000431,0.001998
586000,0.0324,0.013523,0.002678,0.000431,0.001645
587000,0.0324,0.013523,0.002678,0.000431,0.001880
588000,0.0324,0.013523,0.002678,0.000431,0.001880
589000,0.0324,0.013523,0.002678,0.000431,0.001410
590000,0.0324,0.013523,0.002678,0.000431,0.002116
591000,0.0324,0.013523,0.002678,0.000431,0.001410
592000,0.0324,0.013523,0.002678,0.000431,0.002351
593000,0.0324,0.013523,0.002678,0.000431,0.001645
594000,0.0324,0.013523,0.002678,0.000431,0.001645
595000,0.0324,0.013523,0.002678,0.000431,0.001998
596000,0.0324,0.013523,0.002678,0.000431,0.001763
597000,0.0324,0.013523,0.002678,0.000431,0.001880
598000,0.0324,0.013523,0.002678,0.000431,0.001645
599000,0.0324,0.013523,0.002678,0.000431,0.001998
600000,0.0324,0.013523,0.002678,0.000431,0.001528
601000,0.0324,0.013523,0.002678,0.000431,0.001880
602000,0.0324,0.013523,0.002678,0.000431,0.023858
603000,0.0324,0.013523,0.002678,0.000431,0.001175
604000,0.0324,0.013523,0.002678,0.000431,0.001175
605000,0.0324,0.013523,0.002678,0.000431,0.001175
606000,0.0324,0.013523,0.002678,0.000431,0.001410
607000,0.0324,0.013523,0.002678,0.000431,0.000940
608000,0.0324,0.013523,0.002678,0.000431,0.001175
609000,0.0324,0.013523,0.002678,0.000431,0.001175
610000,0.0324,0.013523,0.002678,0.000431,0.001175
611000,0.0324,0.013523,0.002678,0.000431,0.001293
612000,0.0324,0.013523,0.002678,0.000431,0.001058
613000,0.0324,0.013523,0.002678,0.000431,0.001410
614000,0.0324,0.013523,0.002678,0.000431,0.000940
615000,0.0324,0.013523,0.002678,0.000431,0.001528
616000,0.0324,0.013523,0.002678,0.000431,0.001528
617000,0.0324,0.013523,0.002678,0.000431,0.000940
618000,0.0324,0.013523,0.002678,0.000431,0.001175
619000,0.0324,0.013523,0.002678,0.000431,0.001175
620000,0.0324,0.013523,0.002678,0.000431,0.001175
621000,0.0324,0.013523,0.002678,0.000431,0.001410
622000,0.0324,0.013523,0.002678,0.000431,0.000940
623000,0.0324,0.013523,0.002678,0.000431,0.001410
624000,0.0324,0.013523,0.002678,0.000431,0.000940
625000,0.0324,0.013523,0.002678,0.000431,0.001410
626000,0.0324,0.013523,0.002678,0.000431,0.001175
627000,0.0324,0.013523,0.002678,0.000431,0.001175
628000,0.0324,0.013523,0.002678,0.000431,0.001175
629000,0.0324,0.013523,0.002678,0.000431,0.000940
630000,0.0324,0.013523,0.002678,0.000431,0.001645
631000,0.0324,0.013523,0.002678,0.000431,0.001410
632000,0.0324,0.013523,0.002678,0.000431,0.001175
633000,0.0324,0.013523,0.002678,0.000431,0.001293
634000,0.0324,0.013523,0.002678,0.000431,0.023976
