Cycle,Area(mm^2),PeakDynamic(W),SubthresholdLeakage(W),GateLeakage(W),RunTimeDynamic(W)
7000000,0.0324,0.013523,0.002678,0.000431,0.000588
7001000,0.0324,0.013523,0.002678,0.000431,0.000705
7002000,0.0324,0.013523,0.002678,0.000431,0.000705
7003000,0.0324,0.013523,0.002678,0.000431,0.000705
7004000,0.0324,0.013523,0.002678,0.000431,0.000470
7005000,0.0324,0.013523,0.002678,0.000431,0.000705
7006000,0.0324,0.013523,0.002678,0.000431,0.000705
7007000,0.0324,0.013523,0.002678,0.000431,0.000705
7008000,0.0324,0.013523,0.002678,0.000431,0.000705
7009000,0.0324,0.013523,0.002678,0.000431,0.000588
7010000,0.0324,0.013523,0.002678,0.000431,0.000588
7011000,0.0324,0.013523,0.002678,0.000431,0.000705
7012000,0.0324,0.013523,0.002678,0.000431,0.000705
7013000,0.0324,0.013523,0.002678,0.000431,0.000705
7014000,0.0324,0.013523,0.002678,0.000431,0.000705
7015000,0.0324,0.013523,0.002678,0.000431,0.000705
7016000,0.0324,0.013523,0.002678,0.000431,0.000705
7017000,0.0324,0.013523,0.002678,0.000431,0.000705
7018000,0.0324,0.013523,0.002678,0.000431,0.000705
7019000,0.0324,0.013523,0.002678,0.000431,0.000705
7020000,0.0324,0.013523,0.002678,0.000431,0.000588
7021000,0.0324,0.013523,0.002678,0.000431,0.000823
7022000,0.0324,0.013523,0.002678,0.000431,0.000705
7023000,0.0324,0.013523,0.002678,0.000431,0.000470
7024000,0.0324,0.013523,0.002678,0.000431,0.000705
7025000,0.0324,0.013523,0.002678,0.000431,0.000705
7026000,0.0324,0.013523,0.002678,0.000431,0.000705
7027000,0.0324,0.013523,0.002678,0.000431,0.000588
7028000,0.0324,0.013523,0.002678,0.000431,0.000588
7029000,0.0324,0.013523,0.002678,0.000431,0.000705
7030000,0.0324,0.013523,0.002678,0.000431,0.000705
7031000,0.0324,0.013523,0.002678,0.000431,0.000705
7032000,0.0324,0.013523,0.002678,0.000431,0.000705
7033000,0.0324,0.013523,0.002678,0.000431,0.000588
7034000,0.0324,0.013523,0.002678,0.000431,0.000588
7035000,0.0324,0.013523,0.002678,0.000431,0.000705
7036000,0.0324,0.013523,0.002678,0.000431,0.000705
7037000,0.0324,0.013523,0.002678,0.000431,0.000705
7038000,0.0324,0.013523,0.002678,0.000431,0.000705
7039000,0.0324,0.013523,0.002678,0.000431,0.000823
7040000,0.0324,0.013523,0.002678,0.000431,0.000705
7041000,0.0324,0.013523,0.002678,0.000431,0.000588
7042000,0.0324,0.013523,0.002678,0.000431,0.000705
7043000,0.0324,0.013523,0.002678,0.000431,0.000588
7044000,0.0324,0.013523,0.002678,0.000431,0.000588
7045000,0.0324,0.013523,0.002678,0.000431,0.000705
7046000,0.0324,0.013523,0.002678,0.000431,0.000823
7047000,0.0324,0.013523,0.002678,0.000431,0.000588
7048000,0.0324,0.013523,0.002678,0.000431,0.000705
7049000,0.0324,0.013523,0.002678,0.000431,0.000588
7050000,0.0324,0.013523,0.002678,0.000431,0.000823
7051000,0.0324,0.013523,0.002678,0.000431,0.000705
7052000,0.0324,0.013523,0.002678,0.000431,0.000705
7053000,0.0324,0.013523,0.002678,0.000431,0.000705
7054000,0.0324,0.013523,0.002678,0.000431,0.000588
7055000,0.0324,0.013523,0.002678,0.000431,0.000823
7056000,0.0324,0.013523,0.002678,0.000431,0.000470
7057000,0.0324,0.013523,0.002678,0.000431,0.000705
7058000,0.0324,0.013523,0.002678,0.000431,0.000705
7059000,0.0324,0.013523,0.002678,0.000431,0.000705
7060000,0.0324,0.013523,0.002678,0.000431,0.000705
7061000,0.0324,0.013523,0.002678,0.000431,0.000705
7062000,0.0324,0.013523,0.002678,0.000431,0.000588
7063000,0.0324,0.013523,0.002678,0.000431,0.000588
7064000,0.0324,0.013523,0.002678,0.000431,0.000705
7065000,0.0324,0.013523,0.002678,0.000431,0.000470
7066000,0.0324,0.013523,0.002678,0.000431,0.000940
7067000,0.0324,0.013523,0.002678,0.000431,0.000470
7068000,0.0324,0.013523,0.002678,0.000431,0.000823
7069000,0.0324,0.013523,0.002678,0.000431,0.000470
7070000,0.0324,0.013523,0.002678,0.000431,0.000705
7071000,0.0324,0.013523,0.002678,0.000431,0.000823
7072000,0.0324,0.013523,0.002678,0.000431,0.000705
7073000,0.0324,0.013523,0.002678,0.000431,0.000470
7074000,0.0324,0.013523,0.002678,0.000431,0.000705
7075000,0.0324,0.013523,0.002678,0.000431,0.000705
7076000,0.0324,0.013523,0.002678,0.000431,0.000705
7077000,0.0324,0.013523,0.002678,0.000431,0.000588
7078000,0.0324,0.013523,0.002678,0.000431,0.000823
7079000,0.0324,0.013523,0.002678,0.000431,0.000705
7080000,0.0324,0.013523,0.002678,0.000431,0.000588
7081000,0.0324,0.013523,0.002678,0.000431,0.000823
7082000,0.0324,0.013523,0.002678,0.000431,0.000588
7083000,0.0324,0.013523,0.002678,0.000431,0.000588
7084000,0.0324,0.013523,0.002678,0.000431,0.000940
7085000,0.0324,0.013523,0.002678,0.000431,0.000705
7086000,0.0324,0.013523,0.002678,0.000431,0.000705
7087000,0.0324,0.013523,0.002678,0.000431,0.000588
7088000,0.0324,0.013523,0.002678,0.000431,0.000705
7089000,0.0324,0.013523,0.002678,0.000431,0.000705
7090000,0.0324,0.013523,0.002678,0.000431,0.000705
7091000,0.0324,0.013523,0.002678,0.000431,0.000588
7092000,0.0324,0.013523,0.002678,0.000431,0.000705
7093000,0.0324,0.013523,0.002678,0.000431,0.000705
7094000,0.0324,0.013523,0.002678,0.000431,0.000705
7095000,0.0324,0.013523,0.002678,0.000431,0.000588
7096000,0.0324,0.013523,0.002678,0.000431,0.000823
7097000,0.0324,0.013523,0.002678,0.000431,0.000588
7098000,0.0324,0.013523,0.002678,0.000431,0.000705
7099000,0.0324,0.013523,0.002678,0.000431,0.000588
7100000,0.0324,0.013523,0.002678,0.000431,0.000823
7101000,0.0324,0.013523,0.002678,0.000431,0.000588
7102000,0.0324,0.013523,0.002678,0.000431,0.000705
7103000,0.0324,0.013523,0.002678,0.000431,0.000705
7104000,0.0324,0.013523,0.002678,0.000431,0.000705
7105000,0.0324,0.013523,0.002678,0.000431,0.000705
7106000,0.0324,0.013523,0.002678,0.000431,0.000470
7107000,0.0324,0.013523,0.002678,0.000431,0.000705
7108000,0.0324,0.013523,0.002678,0.000431,0.000470
7109000,0.0324,0.013523,0.002678,0.000431,0.000823
7110000,0.0324,0.013523,0.002678,0.000431,0.000823
7111000,0.0324,0.013523,0.002678,0.000431,0.000588
7112000,0.0324,0.013523,0.002678,0.000431,0.000705
7113000,0.0324,0.013523,0.002678,0.000431,0.000588
7114000,0.0324,0.013523,0.002678,0.000431,0.000940
7115000,0.0324,0.013523,0.002678,0.000431,0.000705
7116000,0.0324,0.013523,0.002678,0.000431,0.000588
7117000,0.0324,0.013523,0.002678,0.000431,0.000823
7118000,0.0324,0.013523,0.002678,0.000431,0.000588
7119000,0.0324,0.013523,0.002678,0.000431,0.000705
7120000,0.0324,0.013523,0.002678,0.000431,0.000705
7121000,0.0324,0.013523,0.002678,0.000431,0.000470
7122000,0.0324,0.013523,0.002678,0.000431,0.000705
7123000,0.0324,0.013523,0.002678,0.000431,0.000823
7124000,0.0324,0.013523,0.002678,0.000431,0.000705
7125000,0.0324,0.013523,0.002678,0.000431,0.000705
7126000,0.0324,0.013523,0.002678,0.000431,0.000588
7127000,0.0324,0.013523,0.002678,0.000431,0.000705
7128000,0.0324,0.013523,0.002678,0.000431,0.000705
7129000,0.0324,0.013523,0.002678,0.000431,0.000823
7130000,0.0324,0.013523,0.002678,0.000431,0.000705
7131000,0.0324,0.013523,0.002678,0.000431,0.000705
7132000,0.0324,0.013523,0.002678,0.000431,0.000470
7133000,0.0324,0.013523,0.002678,0.000431,0.000705
7134000,0.0324,0.013523,0.002678,0.000431,0.000705
7135000,0.0324,0.013523,0.002678,0.000431,0.000705
7136000,0.0324,0.013523,0.002678,0.000431,0.000705
7137000,0.0324,0.013523,0.002678,0.000431,0.000705
7138000,0.0324,0.013523,0.002678,0.000431,0.000588
7139000,0.0324,0.013523,0.002678,0.000431,0.000588
7140000,0.0324,0.013523,0.002678,0.000431,0.000588
7141000,0.0324,0.013523,0.002678,0.000431,0.000705
7142000,0.0324,0.013523,0.002678,0.000431,0.000588
7143000,0.0324,0.013523,0.002678,0.000431,0.000705
7144000,0.0324,0.013523,0.002678,0.000431,0.000705
7145000,0.0324,0.013523,0.002678,0.000431,0.000705
7146000,0.0324,0.013523,0.002678,0.000431,0.000705
7147000,0.0324,0.013523,0.002678,0.000431,0.000705
7148000,0.0324,0.013523,0.002678,0.000431,0.000705
7149000,0.0324,0.013523,0.002678,0.000431,0.000470
7150000,0.0324,0.013523,0.002678,0.000431,0.000823
7151000,0.0324,0.013523,0.002678,0.000431,0.000588
7152000,0.0324,0.013523,0.002678,0.000431,0.000470
7153000,0.0324,0.013523,0.002678,0.000431,0.000823
7154000,0.0324,0.013523,0.002678,0.000431,0.000588
7155000,0.0324,0.013523,0.002678,0.000431,0.000705
7156000,0.0324,0.013523,0.002678,0.000431,0.000705
7157000,0.0324,0.013523,0.002678,0.000431,0.000705
7158000,0.0324,0.013523,0.002678,0.000431,0.000705
7159000,0.0324,0.013523,0.002678,0.000431,0.000705
7160000,0.0324,0.013523,0.002678,0.000431,0.000705
7161000,0.0324,0.013523,0.002678,0.000431,0.000705
7162000,0.0324,0.013523,0.002678,0.000431,0.000588
7163000,0.0324,0.013523,0.002678,0.000431,0.000705
7164000,0.0324,0.013523,0.002678,0.000431,0.000588
7165000,0.0324,0.013523,0.002678,0.000431,0.000823
7166000,0.0324,0.013523,0.002678,0.000431,0.000588
7167000,0.0324,0.013523,0.002678,0.000431,0.000705
7168000,0.0324,0.013523,0.002678,0.000431,0.000823
7169000,0.0324,0.013523,0.002678,0.000431,0.000705
7170000,0.0324,0.013523,0.002678,0.000431,0.000588
7171000,0.0324,0.013523,0.002678,0.000431,0.000705
7172000,0.0324,0.013523,0.002678,0.000431,0.000705
