Cycle,Area(mm^2),PeakDynamic(W),SubthresholdLeakage(W),GateLeakage(W),RunTimeDynamic(W)
3000000,0.0324,0.013523,0.002678,0.000431,0.519945
3001000,0.0324,0.013523,0.002678,0.000431,0.516889
3002000,0.0324,0.013523,0.002678,0.000431,0.522648
3003000,0.0324,0.013523,0.002678,0.000431,0.456597
3004000,0.0324,0.013523,0.002678,0.000431,0.446019
3005000,0.0324,0.013523,0.002678,0.000431,0.494794
3006000,0.0324,0.013523,0.002678,0.000431,0.513246
3007000,0.0324,0.013523,0.002678,0.000431,0.499965
3008000,0.0324,0.013523,0.002678,0.000431,0.497144
3009000,0.0324,0.013523,0.002678,0.000431,0.639353
3010000,0.0324,0.013523,0.002678,0.000431,0.610559
3011000,0.0324,0.013523,0.002678,0.000431,0.629598
3012000,0.0324,0.013523,0.002678,0.000431,0.569894
3013000,0.0324,0.013523,0.002678,0.000431,0.548269
3014000,0.0324,0.013523,0.002678,0.000431,0.582587
3015000,0.0324,0.013523,0.002678,0.000431,0.595398
3016000,0.0324,0.013523,0.002678,0.000431,0.669911
3017000,0.0324,0.013523,0.002678,0.000431,0.570834
3018000,0.0324,0.013523,0.002678,0.000431,0.520767
3019000,0.0324,0.013523,0.002678,0.000431,0.579179
3020000,0.0324,0.013523,0.002678,0.000431,0.617376
3021000,0.0324,0.013523,0.002678,0.000431,0.642056
3022000,0.0324,0.013523,0.002678,0.000431,0.559787
3023000,0.0324,0.013523,0.002678,0.000431,0.559317
3024000,0.0324,0.013523,0.002678,0.000431,0.598336
3025000,0.0324,0.013523,0.002678,0.000431,0.689303
3026000,0.0324,0.013523,0.002678,0.000431,0.623017
3027000,0.0324,0.013523,0.002678,0.000431,0.552735
3028000,0.0324,0.013523,0.002678,0.000431,0.583880
3029000,0.0324,0.013523,0.002678,0.000431,0.624075
3030000,0.0324,0.013523,0.002678,0.000431,0.525116
3031000,0.0324,0.013523,0.002678,0.000431,0.495851
3032000,0.0324,0.013523,0.002678,0.000431,0.621489
3033000,0.0324,0.013523,0.002678,0.000431,0.586466
3034000,0.0324,0.013523,0.002678,0.000431,0.560492
3035000,0.0324,0.013523,0.002678,0.000431,0.530875
3036000,0.0324,0.013523,0.002678,0.000431,0.577416
3037000,0.0324,0.013523,0.002678,0.000431,0.613380
3038000,0.0324,0.013523,0.002678,0.000431,0.618198
3039000,0.0324,0.013523,0.002678,0.000431,0.548151
3040000,0.0324,0.013523,0.002678,0.000431,0.491268
3041000,0.0324,0.013523,0.002678,0.000431,0.512423
3042000,0.0324,0.013523,0.002678,0.000431,0.525704
3043000,0.0324,0.013523,0.002678,0.000431,0.469055
3044000,0.0324,0.013523,0.002678,0.000431,0.402887
3045000,0.0324,0.013523,0.002678,0.000431,0.431211
3046000,0.0324,0.013523,0.002678,0.000431,0.530640
3047000,0.0324,0.013523,0.002678,0.000431,0.499965
3048000,0.0324,0.013523,0.002678,0.000431,0.406530
3049000,0.0324,0.013523,0.002678,0.000431,0.467292
3050000,0.0324,0.013523,0.002678,0.000431,0.589286
3051000,0.0324,0.013523,0.002678,0.000431,0.586113
3052000,0.0324,0.013523,0.002678,0.000431,0.515244
3053000,0.0324,0.013523,0.002678,0.000431,0.492678
3054000,0.0324,0.013523,0.002678,0.000431,0.489975
3055000,0.0324,0.013523,0.002678,0.000431,0.528172
3056000,0.0324,0.013523,0.002678,0.000431,0.637238
3057000,0.0324,0.013523,0.002678,0.000431,0.624075
3058000,0.0324,0.013523,0.002678,0.000431,0.595515
3059000,0.0324,0.013523,0.002678,0.000431,0.616670
3060000,0.0324,0.013523,0.002678,0.000431,0.695297
3061000,0.0324,0.013523,0.002678,0.000431,0.758879
3062000,0.0324,0.013523,0.002678,0.000431,0.826458
3063000,0.0324,0.013523,0.002678,0.000431,0.853490
3064000,0.0324,0.013523,0.002678,0.000431,0.897445
3065000,0.0324,0.013523,0.002678,0.000431,0.952331
3066000,0.0324,0.013523,0.002678,0.000431,0.953154
3067000,0.0324,0.013523,0.002678,0.000431,0.977717
3068000,0.0324,0.013523,0.002678,0.000431,0.970313
3069000,0.0324,0.013523,0.002678,0.000431,0.898150
3070000,0.0324,0.013523,0.002678,0.000431,0.927180
3071000,0.0324,0.013523,0.002678,0.000431,0.874762
3072000,0.0324,0.013523,0.002678,0.000431,0.836331
3073000,0.0324,0.013523,0.002678,0.000431,0.907318
3074000,0.0324,0.013523,0.002678,0.000431,0.806596
3075000,0.0324,0.013523,0.002678,0.000431,0.647463
3076000,0.0324,0.013523,0.002678,0.000431,0.655220
3077000,0.0324,0.013523,0.002678,0.000431,0.662271
3078000,0.0324,0.013523,0.002678,0.000431,0.606563
3079000,0.0324,0.013523,0.002678,0.000431,0.519240
3080000,0.0324,0.013523,0.002678,0.000431,0.459888
3081000,0.0324,0.013523,0.002678,0.000431,0.441553
3082000,0.0324,0.013523,0.002678,0.000431,0.418400
3083000,0.0324,0.013523,0.002678,0.000431,0.426980
3084000,0.0324,0.013523,0.002678,0.000431,0.433209
3085000,0.0324,0.013523,0.002678,0.000431,0.501140
3086000,0.0324,0.013523,0.002678,0.000431,0.432034
3087000,0.0324,0.013523,0.002678,0.000431,0.464354
3088000,0.0324,0.013523,0.002678,0.000431,0.604212
3089000,0.0324,0.013523,0.002678,0.000431,0.751358
3090000,0.0324,0.013523,0.002678,0.000431,0.685659
3091000,0.0324,0.013523,0.002678,0.000431,0.667443
3092000,0.0324,0.013523,0.002678,0.000431,0.733376
3093000,0.0324,0.013523,0.002678,0.000431,0.736079
3094000,0.0324,0.013523,0.002678,0.000431,0.770750
3095000,0.0324,0.013523,0.002678,0.000431,0.735374
3096000,0.0324,0.013523,0.002678,0.000431,0.692829
3097000,0.0324,0.013523,0.002678,0.000431,0.706579
3098000,0.0324,0.013523,0.002678,0.000431,0.745364
3099000,0.0324,0.013523,0.002678,0.000431,0.689068
3100000,0.0324,0.013523,0.002678,0.000431,0.643702
3101000,0.0324,0.013523,0.002678,0.000431,0.614555
3102000,0.0324,0.013523,0.002678,0.000431,0.634770
3103000,0.0324,0.013523,0.002678,0.000431,0.645465
3104000,0.0324,0.013523,0.002678,0.000431,0.616200
3105000,0.0324,0.013523,0.002678,0.000431,0.583998
3106000,0.0324,0.013523,0.002678,0.000431,0.578826
3107000,0.0324,0.013523,0.002678,0.000431,0.558376
3108000,0.0324,0.013523,0.002678,0.000431,0.511130
3109000,0.0324,0.013523,0.002678,0.000431,0.504548
3110000,0.0324,0.013523,0.002678,0.000431,0.528994
3111000,0.0324,0.013523,0.002678,0.000431,0.532520
3112000,0.0324,0.013523,0.002678,0.000431,0.554615
3113000,0.0324,0.013523,0.002678,0.000431,0.488447
3114000,0.0324,0.013523,0.002678,0.000431,0.438498
3115000,0.0324,0.013523,0.002678,0.000431,0.538984
3116000,0.0324,0.013523,0.002678,0.000431,0.550972
3117000,0.0324,0.013523,0.002678,0.000431,0.508544
3118000,0.0324,0.013523,0.002678,0.000431,0.504313
3119000,0.0324,0.013523,0.002678,0.000431,0.446842
3120000,0.0324,0.013523,0.002678,0.000431,0.479515
3121000,0.0324,0.013523,0.002678,0.000431,0.509602
3122000,0.0324,0.013523,0.002678,0.000431,0.494324
3123000,0.0324,0.013523,0.002678,0.000431,0.451661
3124000,0.0324,0.013523,0.002678,0.000431,0.548974
3125000,0.0324,0.013523,0.002678,0.000431,0.623369
3126000,0.0324,0.013523,0.002678,0.000431,0.621607
3127000,0.0324,0.013523,0.002678,0.000431,0.545566
3128000,0.0324,0.013523,0.002678,0.000431,0.563548
3129000,0.0324,0.013523,0.002678,0.000431,0.637825
3130000,0.0324,0.013523,0.002678,0.000431,0.656630
3131000,0.0324,0.013523,0.002678,0.000431,0.644054
3132000,0.0324,0.013523,0.002678,0.000431,0.694239
3133000,0.0324,0.013523,0.002678,0.000431,0.673436
3134000,0.0324,0.013523,0.002678,0.000431,0.702701
3135000,0.0324,0.013523,0.002678,0.000431,0.735256
3136000,0.0324,0.013523,0.002678,0.000431,0.798839
3137000,0.0324,0.013523,0.002678,0.000431,0.771220
3138000,0.0324,0.013523,0.002678,0.000431,0.706579
3139000,0.0324,0.013523,0.002678,0.000431,0.688128
3140000,0.0324,0.013523,0.002678,0.000431,0.680371
3141000,0.0324,0.013523,0.002678,0.000431,0.709635
3142000,0.0324,0.013523,0.002678,0.000431,0.694944
3143000,0.0324,0.013523,0.002678,0.000431,0.720918
3144000,0.0324,0.013523,0.002678,0.000431,0.655807
3145000,0.0324,0.013523,0.002678,0.000431,0.689420
3146000,0.0324,0.013523,0.002678,0.000431,0.653692
3147000,0.0324,0.013523,0.002678,0.000431,0.693651
3148000,0.0324,0.013523,0.002678,0.000431,0.626190
3149000,0.0324,0.013523,0.002678,0.000431,0.629246
3150000,0.0324,0.013523,0.002678,0.000431,0.599629
3151000,0.0324,0.013523,0.002678,0.000431,0.612204
3152000,0.0324,0.013523,0.002678,0.000431,0.627953
3153000,0.0324,0.013523,0.002678,0.000431,0.625015
3154000,0.0324,0.013523,0.002678,0.000431,0.542745
3155000,0.0324,0.013523,0.002678,0.000431,0.662506
3156000,0.0324,0.013523,0.002678,0.000431,0.821640
3157000,0.0324,0.013523,0.002678,0.000431,0.782268
3158000,0.0324,0.013523,0.002678,0.000431,0.686600
3159000,0.0324,0.013523,0.002678,0.000431,0.750770
3160000,0.0324,0.013523,0.002678,0.000431,0.804128
3161000,0.0324,0.013523,0.002678,0.000431,0.823873
3162000,0.0324,0.013523,0.002678,0.000431,0.925064
3163000,0.0324,0.013523,0.002678,0.000431,0.883812
3164000,0.0324,0.013523,0.002678,0.000431,0.764403
3165000,0.0324,0.013523,0.002678,0.000431,0.826223
3166000,0.0324,0.013523,0.002678,0.000431,0.868063
3167000,0.0324,0.013523,0.002678,0.000431,0.765696
3168000,0.0324,0.013523,0.002678,0.000431,0.689185
3169000,0.0324,0.013523,0.002678,0.000431,0.718567
3170000,0.0324,0.013523,0.002678,0.000431,0.774158
3171000,0.0324,0.013523,0.002678,0.000431,0.745481
3172000,0.0324,0.013523,0.002678,0.000431,0.668030
3173000,0.0324,0.013523,0.002678,0.000431,0.675552
3174000,0.0324,0.013523,0.002678,0.000431,0.666620
3175000,0.0324,0.013523,0.002678,0.000431,0.588229
3176000,0.0324,0.013523,0.002678,0.000431,0.591989
3177000,0.0324,0.013523,0.002678,0.000431,0.599864
3178000,0.0324,0.013523,0.002678,0.000431,0.525704
3179000,0.0324,0.013523,0.002678,0.000431,0.566838
3180000,0.0324,0.013523,0.002678,0.000431,0.567191
3181000,0.0324,0.013523,0.002678,0.000431,0.563313
3182000,0.0324,0.013523,0.002678,0.000431,0.597396
3183000,0.0324,0.013523,0.002678,0.000431,0.538749
3184000,0.0324,0.013523,0.002678,0.000431,0.618433
3185000,0.0324,0.013523,0.002678,0.000431,0.601157
3186000,0.0324,0.013523,0.002678,0.000431,0.617963
3187000,0.0324,0.013523,0.002678,0.000431,0.578944
3188000,0.0324,0.013523,0.002678,0.000431,0.633829
3189000,0.0324,0.013523,0.002678,0.000431,0.576123
3190000,0.0324,0.013523,0.002678,0.000431,0.631009
3191000,0.0324,0.013523,0.002678,0.000431,0.721270
3192000,0.0324,0.013523,0.002678,0.000431,0.698588
3193000,0.0324,0.013523,0.002678,0.000431,0.682016
3194000,0.0324,0.013523,0.002678,0.000431,0.808711
3195000,0.0324,0.013523,0.002678,0.000431,0.818466
3196000,0.0324,0.013523,0.002678,0.000431,0.826341
3197000,0.0324,0.013523,0.002678,0.000431,0.914722
3198000,0.0324,0.013523,0.002678,0.000431,0.884635
3199000,0.0324,0.013523,0.002678,0.000431,0.829631
3200000,0.0324,0.013523,0.002678,0.000431,0.913076
3201000,0.0324,0.013523,0.002678,0.000431,0.864655
3202000,0.0324,0.013523,0.002678,0.000431,0.852667
3203000,0.0324,0.013523,0.002678,0.000431,0.859836
3204000,0.0324,0.013523,0.002678,0.000431,0.949393
3205000,0.0324,0.013523,0.002678,0.000431,0.842207
3206000,0.0324,0.013523,0.002678,0.000431,0.822462
3207000,0.0324,0.013523,0.002678,0.000431,0.823520
3208000,0.0324,0.013523,0.002678,0.000431,0.934937
3209000,0.0324,0.013523,0.002678,0.000431,0.920128
3210000,0.0324,0.013523,0.002678,0.000431,0.827751
3211000,0.0324,0.013523,0.002678,0.000431,0.871824
3212000,0.0324,0.013523,0.002678,0.000431,0.967610
3213000,0.0324,0.013523,0.002678,0.000431,0.803070
3214000,0.0324,0.013523,0.002678,0.000431,0.743718
3215000,0.0324,0.013523,0.002678,0.000431,0.766049
3216000,0.0324,0.013523,0.002678,0.000431,0.735374
3217000,0.0324,0.013523,0.002678,0.000431,0.716804
3218000,0.0324,0.013523,0.002678,0.000431,0.700350
3219000,0.0324,0.013523,0.002678,0.000431,0.622194
3220000,0.0324,0.013523,0.002678,0.000431,0.602097
3221000,0.0324,0.013523,0.002678,0.000431,0.644525
3222000,0.0324,0.013523,0.002678,0.000431,0.711751
3223000,0.0324,0.013523,0.002678,0.000431,0.625838
3224000,0.0324,0.013523,0.002678,0.000431,0.597513
3225000,0.0324,0.013523,0.002678,0.000431,0.655925
3226000,0.0324,0.013523,0.002678,0.000431,0.643232
3227000,0.0324,0.013523,0.002678,0.000431,0.658628
3228000,0.0324,0.013523,0.002678,0.000431,0.582117
3229000,0.0324,0.013523,0.002678,0.000431,0.506311
3230000,0.0324,0.013523,0.002678,0.000431,0.522530
3231000,0.0324,0.013523,0.002678,0.000431,0.561785
3232000,0.0324,0.013523,0.002678,0.000431,0.544861
3233000,0.0324,0.013523,0.002678,0.000431,0.489505
3234000,0.0324,0.013523,0.002678,0.000431,0.504548
3235000,0.0324,0.013523,0.002678,0.000431,0.453894
3236000,0.0324,0.013523,0.002678,0.000431,0.426275
3237000,0.0324,0.013523,0.002678,0.000431,0.465764
3238000,0.0324,0.013523,0.002678,0.000431,0.484686
3239000,0.0324,0.013523,0.002678,0.000431,0.471641
3240000,0.0324,0.013523,0.002678,0.000431,0.536869
3241000,0.0324,0.013523,0.002678,0.000431,0.472463
3242000,0.0324,0.013523,0.002678,0.000431,0.436500
3243000,0.0324,0.013523,0.002678,0.000431,0.433679
3244000,0.0324,0.013523,0.002678,0.000431,0.516066
3245000,0.0324,0.013523,0.002678,0.000431,0.582587
3246000,0.0324,0.013523,0.002678,0.000431,0.530522
3247000,0.0324,0.013523,0.002678,0.000431,0.444962
3248000,0.0324,0.013523,0.002678,0.000431,0.656747
3249000,0.0324,0.013523,0.002678,0.000431,0.734081
3250000,0.0324,0.013523,0.002678,0.000431,0.700115
3251000,0.0324,0.013523,0.002678,0.000431,0.658628
3252000,0.0324,0.013523,0.002678,0.000431,0.672849
3253000,0.0324,0.013523,0.002678,0.000431,0.617963
3254000,0.0324,0.013523,0.002678,0.000431,0.678608
3255000,0.0324,0.013523,0.002678,0.000431,0.686835
3256000,0.0324,0.013523,0.002678,0.000431,0.672849
3257000,0.0324,0.013523,0.002678,0.000431,0.631832
3258000,0.0324,0.013523,0.002678,0.000431,0.572480
3259000,0.0324,0.013523,0.002678,0.000431,0.538984
3260000,0.0324,0.013523,0.002678,0.000431,0.494088
3261000,0.0324,0.013523,0.002678,0.000431,0.469055
3262000,0.0324,0.013523,0.002678,0.000431,0.490915
3263000,0.0324,0.013523,0.002678,0.000431,0.552618
3264000,0.0324,0.013523,0.002678,0.000431,0.457772
3265000,0.0324,0.013523,0.002678,0.000431,0.387961
3266000,0.0324,0.013523,0.002678,0.000431,0.486919
3267000,0.0324,0.013523,0.002678,0.000431,0.585996
3268000,0.0324,0.013523,0.002678,0.000431,0.656747
3269000,0.0324,0.013523,0.002678,0.000431,0.658628
3270000,0.0324,0.013523,0.002678,0.000431,0.632537
3271000,0.0324,0.013523,0.002678,0.000431,0.642409
3272000,0.0324,0.013523,0.002678,0.000431,0.754884
3273000,0.0324,0.013523,0.002678,0.000431,0.987119
3274000,0.0324,0.013523,0.002678,0.000431,0.921656
3275000,0.0324,0.013523,0.002678,0.000431,0.785323
3276000,0.0324,0.013523,0.002678,0.000431,0.764756
3277000,0.0324,0.013523,0.002678,0.000431,0.832805
3278000,0.0324,0.013523,0.002678,0.000431,0.799309
3279000,0.0324,0.013523,0.002678,0.000431,0.847731
3280000,0.0324,0.013523,0.002678,0.000431,0.803775
3281000,0.0324,0.013523,0.002678,0.000431,0.730085
3282000,0.0324,0.013523,0.002678,0.000431,0.694474
3283000,0.0324,0.013523,0.002678,0.000431,0.734434
3284000,0.0324,0.013523,0.002678,0.000431,0.733963
3285000,0.0324,0.013523,0.002678,0.000431,0.708342
3286000,0.0324,0.013523,0.002678,0.000431,0.779682
3287000,0.0324,0.013523,0.002678,0.000431,0.788262
3288000,0.0324,0.013523,0.002678,0.000431,0.794255
3289000,0.0324,0.013523,0.002678,0.000431,0.776509
3290000,0.0324,0.013523,0.002678,0.000431,0.694827
3291000,0.0324,0.013523,0.002678,0.000431,0.641351
3292000,0.0324,0.013523,0.002678,0.000431,0.781092
3293000,0.0324,0.013523,0.002678,0.000431,0.784031
3294000,0.0324,0.013523,0.002678,0.000431,0.668265
3295000,0.0324,0.013523,0.002678,0.000431,0.622547
3296000,0.0324,0.013523,0.002678,0.000431,0.636650
3297000,0.0324,0.013523,0.002678,0.000431,0.629598
3298000,0.0324,0.013523,0.002678,0.000431,0.577533
3299000,0.0324,0.013523,0.002678,0.000431,0.522883
3300000,0.0324,0.013523,0.002678,0.000431,0.489505
3301000,0.0324,0.013523,0.002678,0.000431,0.515361
3302000,0.0324,0.013523,0.002678,0.000431,0.453189
3303000,0.0324,0.013523,0.002678,0.000431,0.480220
3304000,0.0324,0.013523,0.002678,0.000431,0.517829
3305000,0.0324,0.013523,0.002678,0.000431,0.455892
3306000,0.0324,0.013523,0.002678,0.000431,0.408881
3307000,0.0324,0.013523,0.002678,0.000431,0.403827
3308000,0.0324,0.013523,0.002678,0.000431,0.389253
3309000,0.0324,0.013523,0.002678,0.000431,0.359871
3310000,0.0324,0.013523,0.002678,0.000431,0.339774
3311000,0.0324,0.013523,0.002678,0.000431,0.319207
3312000,0.0324,0.013523,0.002678,0.000431,0.274781
3313000,0.0324,0.013523,0.002678,0.000431,0.302635
3314000,0.0324,0.013523,0.002678,0.000431,0.353995
3315000,0.0324,0.013523,0.002678,0.000431,0.415697
3316000,0.0324,0.013523,0.002678,0.000431,0.342947
3317000,0.0324,0.013523,0.002678,0.000431,0.363750
3318000,0.0324,0.013523,0.002678,0.000431,0.368333
3319000,0.0324,0.013523,0.002678,0.000431,0.429095
3320000,0.0324,0.013523,0.002678,0.000431,0.485509
3321000,0.0324,0.013523,0.002678,0.000431,0.414522
3322000,0.0324,0.013523,0.002678,0.000431,0.396540
3323000,0.0324,0.013523,0.002678,0.000431,0.519240
3324000,0.0324,0.013523,0.002678,0.000431,0.701761
3325000,0.0324,0.013523,0.002678,0.000431,0.641234
3326000,0.0324,0.013523,0.002678,0.000431,0.701643
3327000,0.0324,0.013523,0.002678,0.000431,0.862422
3328000,0.0324,0.013523,0.002678,0.000431,0.789084
3329000,0.0324,0.013523,0.002678,0.000431,0.798369
3330000,0.0324,0.013523,0.002678,0.000431,0.871824
3331000,0.0324,0.013523,0.002678,0.000431,0.860894
3332000,0.0324,0.013523,0.002678,0.000431,0.812120
3333000,0.0324,0.013523,0.002678,0.000431,0.829866
3334000,0.0324,0.013523,0.002678,0.000431,0.798604
3335000,0.0324,0.013523,0.002678,0.000431,0.694592
3336000,0.0324,0.013523,0.002678,0.000431,0.649813
3337000,0.0324,0.013523,0.002678,0.000431,0.692946
3338000,0.0324,0.013523,0.002678,0.000431,0.756176
3339000,0.0324,0.013523,0.002678,0.000431,0.688480
3340000,0.0324,0.013523,0.002678,0.000431,0.594458
3341000,0.0324,0.013523,0.002678,0.000431,0.616670
3342000,0.0324,0.013523,0.002678,0.000431,0.651694
3343000,0.0324,0.013523,0.002678,0.000431,0.707402
3344000,0.0324,0.013523,0.002678,0.000431,0.638883
3345000,0.0324,0.013523,0.002678,0.000431,0.663799
3346000,0.0324,0.013523,0.002678,0.000431,0.641351
3347000,0.0324,0.013523,0.002678,0.000431,0.666972
3348000,0.0324,0.013523,0.002678,0.000431,0.719978
3349000,0.0324,0.013523,0.002678,0.000431,0.703171
3350000,0.0324,0.013523,0.002678,0.000431,0.784148
3351000,0.0324,0.013523,0.002678,0.000431,0.940461
3352000,0.0324,0.013523,0.002678,0.000431,0.902029
3353000,0.0324,0.013523,0.002678,0.000431,0.852432
3354000,0.0324,0.013523,0.002678,0.000431,0.891569
3355000,0.0324,0.013523,0.002678,0.000431,0.895565
3356000,0.0324,0.013523,0.002678,0.000431,0.939990
3357000,0.0324,0.013523,0.002678,0.000431,0.894154
3358000,0.0324,0.013523,0.002678,0.000431,0.809417
3359000,0.0324,0.013523,0.002678,0.000431,0.695297
3360000,0.0324,0.013523,0.002678,0.000431,0.700703
3361000,0.0324,0.013523,0.002678,0.000431,0.673201
3362000,0.0324,0.013523,0.002678,0.000431,0.572950
3363000,0.0324,0.013523,0.002678,0.000431,0.636063
3364000,0.0324,0.013523,0.002678,0.000431,0.647228
3365000,0.0324,0.013523,0.002678,0.000431,0.608796
3366000,0.0324,0.013523,0.002678,0.000431,0.635592
3367000,0.0324,0.013523,0.002678,0.000431,0.575418
3368000,0.0324,0.013523,0.002678,0.000431,0.543568
3369000,0.0324,0.013523,0.002678,0.000431,0.611499
3370000,0.0324,0.013523,0.002678,0.000431,0.652281
3371000,0.0324,0.013523,0.002678,0.000431,0.564488
3372000,0.0324,0.013523,0.002678,0.000431,0.518182
3373000,0.0324,0.013523,0.002678,0.000431,0.482571
3374000,0.0324,0.013523,0.002678,0.000431,0.620431
3375000,0.0324,0.013523,0.002678,0.000431,0.566251
3376000,0.0324,0.013523,0.002678,0.000431,0.530522
3377000,0.0324,0.013523,0.002678,0.000431,0.673201
3378000,0.0324,0.013523,0.002678,0.000431,0.697882
3379000,0.0324,0.013523,0.002678,0.000431,0.684602
3380000,0.0324,0.013523,0.002678,0.000431,0.617493
3381000,0.0324,0.013523,0.002678,0.000431,0.742426
3382000,0.0324,0.013523,0.002678,0.000431,0.801777
3383000,0.0324,0.013523,0.002678,0.000431,0.794843
3384000,0.0324,0.013523,0.002678,0.000431,0.760760
3385000,0.0324,0.013523,0.002678,0.000431,0.728205
3386000,0.0324,0.013523,0.002678,0.000431,0.655220
3387000,0.0324,0.013523,0.002678,0.000431,0.605153
3388000,0.0324,0.013523,0.002678,0.000431,0.625132
3389000,0.0324,0.013523,0.002678,0.000431,0.615143
3390000,0.0324,0.013523,0.002678,0.000431,0.533578
3391000,0.0324,0.013523,0.002678,0.000431,0.462356
3392000,0.0324,0.013523,0.002678,0.000431,0.437087
3393000,0.0324,0.013523,0.002678,0.000431,0.429448
3394000,0.0324,0.013523,0.002678,0.000431,0.488565
3395000,0.0324,0.013523,0.002678,0.000431,0.472698
3396000,0.0324,0.013523,0.002678,0.000431,0.481395
3397000,0.0324,0.013523,0.002678,0.000431,0.476694
3398000,0.0324,0.013523,0.002678,0.000431,0.441788
3399000,0.0324,0.013523,0.002678,0.000431,0.504901
3400000,0.0324,0.013523,0.002678,0.000431,0.484334
3401000,0.0324,0.013523,0.002678,0.000431,0.473286
3402000,0.0324,0.013523,0.002678,0.000431,0.543215
3403000,0.0324,0.013523,0.002678,0.000431,0.542628
3404000,0.0324,0.013523,0.002678,0.000431,0.528994
3405000,0.0324,0.013523,0.002678,0.000431,0.488330
3406000,0.0324,0.013523,0.002678,0.000431,0.568014
3407000,0.0324,0.013523,0.002678,0.000431,0.600569
3408000,0.0324,0.013523,0.002678,0.000431,0.649343
3409000,0.0324,0.013523,0.002678,0.000431,0.680371
3410000,0.0324,0.013523,0.002678,0.000431,0.580942
3411000,0.0324,0.013523,0.002678,0.000431,0.562137
3412000,0.0324,0.013523,0.002678,0.000431,0.648285
3413000,0.0324,0.013523,0.002678,0.000431,0.660391
3414000,0.0324,0.013523,0.002678,0.000431,0.583175
3415000,0.0324,0.013523,0.002678,0.000431,0.530640
3416000,0.0324,0.013523,0.002678,0.000431,0.506899
3417000,0.0324,0.013523,0.002678,0.000431,0.628071
3418000,0.0324,0.013523,0.002678,0.000431,0.717392
3419000,0.0324,0.013523,0.002678,0.000431,0.681546
3420000,0.0324,0.013523,0.002678,0.000431,0.720683
3421000,0.0324,0.013523,0.002678,0.000431,0.726089
3422000,0.0324,0.013523,0.002678,0.000431,0.718920
3423000,0.0324,0.013523,0.002678,0.000431,0.848083
3424000,0.0324,0.013523,0.002678,0.000431,0.892979
3425000,0.0324,0.013523,0.002678,0.000431,0.858778
3426000,0.0324,0.013523,0.002678,0.000431,0.896270
3427000,0.0324,0.013523,0.002678,0.000431,0.931176
3428000,0.0324,0.013523,0.002678,0.000431,0.867005
3429000,0.0324,0.013523,0.002678,0.000431,0.880874
3430000,0.0324,0.013523,0.002678,0.000431,0.791905
3431000,0.0324,0.013523,0.002678,0.000431,0.795783
3432000,0.0324,0.013523,0.002678,0.000431,0.819054
3433000,0.0324,0.013523,0.002678,0.000431,0.729968
3434000,0.0324,0.013523,0.002678,0.000431,0.673201
3435000,0.0324,0.013523,0.002678,0.000431,0.700233
3436000,0.0324,0.013523,0.002678,0.000431,0.735021
3437000,0.0324,0.013523,0.002678,0.000431,0.730085
3438000,0.0324,0.013523,0.002678,0.000431,0.693769
3439000,0.0324,0.013523,0.002678,0.000431,0.787321
3440000,0.0324,0.013523,0.002678,0.000431,0.804480
3441000,0.0324,0.013523,0.002678,0.000431,0.788379
3442000,0.0324,0.013523,0.002678,0.000431,0.739370
3443000,0.0324,0.013523,0.002678,0.000431,0.769104
3444000,0.0324,0.013523,0.002678,0.000431,0.699763
3445000,0.0324,0.013523,0.002678,0.000431,0.709048
3446000,0.0324,0.013523,0.002678,0.000431,0.766284
3447000,0.0324,0.013523,0.002678,0.000431,0.716922
3448000,0.0324,0.013523,0.002678,0.000431,0.663564
3449000,0.0324,0.013523,0.002678,0.000431,0.627013
3450000,0.0324,0.013523,0.002678,0.000431,0.558729
3451000,0.0324,0.013523,0.002678,0.000431,0.613732
3452000,0.0324,0.013523,0.002678,0.000431,0.672496
3453000,0.0324,0.013523,0.002678,0.000431,0.649343
3454000,0.0324,0.013523,0.002678,0.000431,0.595515
3455000,0.0324,0.013523,0.002678,0.000431,0.562725
3456000,0.0324,0.013523,0.002678,0.000431,0.567191
3457000,0.0324,0.013523,0.002678,0.000431,0.536399
3458000,0.0324,0.013523,0.002678,0.000431,0.487154
3459000,0.0324,0.013523,0.002678,0.000431,0.466469
3460000,0.0324,0.013523,0.002678,0.000431,0.492090
3461000,0.0324,0.013523,0.002678,0.000431,0.513598
3462000,0.0324,0.013523,0.002678,0.000431,0.571540
3463000,0.0324,0.013523,0.002678,0.000431,0.459888
3464000,0.0324,0.013523,0.002678,0.000431,0.528524
3465000,0.0324,0.013523,0.002678,0.000431,0.552382
3466000,0.0324,0.013523,0.002678,0.000431,0.483628
3467000,0.0324,0.013523,0.002678,0.000431,0.477399
3468000,0.0324,0.013523,0.002678,0.000431,0.521825
3469000,0.0324,0.013523,0.002678,0.000431,0.512893
3470000,0.0324,0.013523,0.002678,0.000431,0.457420
3471000,0.0324,0.013523,0.002678,0.000431,0.512893
3472000,0.0324,0.013523,0.002678,0.000431,0.513363
3473000,0.0324,0.013523,0.002678,0.000431,0.453424
3474000,0.0324,0.013523,0.002678,0.000431,0.463061
3475000,0.0324,0.013523,0.002678,0.000431,0.538397
3476000,0.0324,0.013523,0.002678,0.000431,0.442494
3477000,0.0324,0.013523,0.002678,0.000431,0.483628
3478000,0.0324,0.013523,0.002678,0.000431,0.560727
3479000,0.0324,0.013523,0.002678,0.000431,0.485744
3480000,0.0324,0.013523,0.002678,0.000431,0.452836
3481000,0.0324,0.013523,0.002678,0.000431,0.516184
3482000,0.0324,0.013523,0.002678,0.000431,0.536751
3483000,0.0324,0.013523,0.002678,0.000431,0.556849
3484000,0.0324,0.013523,0.002678,0.000431,0.541570
3485000,0.0324,0.013523,0.002678,0.000431,0.479633
3486000,0.0324,0.013523,0.002678,0.000431,0.601627
3487000,0.0324,0.013523,0.002678,0.000431,0.617023
3488000,0.0324,0.013523,0.002678,0.000431,0.662859
3489000,0.0324,0.013523,0.002678,0.000431,0.684367
3490000,0.0324,0.013523,0.002678,0.000431,0.725501
3491000,0.0324,0.013523,0.002678,0.000431,0.825871
3492000,0.0324,0.013523,0.002678,0.000431,0.819171
3493000,0.0324,0.013523,0.002678,0.000431,0.772278
3494000,0.0324,0.013523,0.002678,0.000431,0.803540
3495000,0.0324,0.013523,0.002678,0.000431,0.827986
3496000,0.0324,0.013523,0.002678,0.000431,0.805068
3497000,0.0324,0.013523,0.002678,0.000431,0.789437
3498000,0.0324,0.013523,0.002678,0.000431,0.851139
3499000,0.0324,0.013523,0.002678,0.000431,0.833745
3500000,0.0324,0.013523,0.002678,0.000431,0.767812
3501000,0.0324,0.013523,0.002678,0.000431,0.734316
3502000,0.0324,0.013523,0.002678,0.000431,0.771573
3503000,0.0324,0.013523,0.002678,0.000431,0.732553
3504000,0.0324,0.013523,0.002678,0.000431,0.735844
3505000,0.0324,0.013523,0.002678,0.000431,0.785088
3506000,0.0324,0.013523,0.002678,0.000431,0.807419
3507000,0.0324,0.013523,0.002678,0.000431,0.790965
3508000,0.0324,0.013523,0.002678,0.000431,0.799309
3509000,0.0324,0.013523,0.002678,0.000431,0.727499
3510000,0.0324,0.013523,0.002678,0.000431,0.715041
3511000,0.0324,0.013523,0.002678,0.000431,0.675552
3512000,0.0324,0.013523,0.002678,0.000431,0.715982
3513000,0.0324,0.013523,0.002678,0.000431,0.663799
3514000,0.0324,0.013523,0.002678,0.000431,0.665092
3515000,0.0324,0.013523,0.002678,0.000431,0.727970
3516000,0.0324,0.013523,0.002678,0.000431,0.698470
3517000,0.0324,0.013523,0.002678,0.000431,0.661449
3518000,0.0324,0.013523,0.002678,0.000431,0.611029
3519000,0.0324,0.013523,0.002678,0.000431,0.639823
3520000,0.0324,0.013523,0.002678,0.000431,0.753238
3521000,0.0324,0.013523,0.002678,0.000431,0.688598
3522000,0.0324,0.013523,0.002678,0.000431,0.602567
3523000,0.0324,0.013523,0.002678,0.000431,0.611852
3524000,0.0324,0.013523,0.002678,0.000431,0.620784
3525000,0.0324,0.013523,0.002678,0.000431,0.591872
3526000,0.0324,0.013523,0.002678,0.000431,0.593400
3527000,0.0324,0.013523,0.002678,0.000431,0.555438
3528000,0.0324,0.013523,0.002678,0.000431,0.443904
3529000,0.0324,0.013523,0.002678,0.000431,0.449780
3530000,0.0324,0.013523,0.002678,0.000431,0.451661
3531000,0.0324,0.013523,0.002678,0.000431,0.526879
3532000,0.0324,0.013523,0.002678,0.000431,0.611852
3533000,0.0324,0.013523,0.002678,0.000431,0.511953
3534000,0.0324,0.013523,0.002678,0.000431,0.461533
3535000,0.0324,0.013523,0.002678,0.000431,0.466704
3536000,0.0324,0.013523,0.002678,0.000431,0.469760
3537000,0.0324,0.013523,0.002678,0.000431,0.453776
3538000,0.0324,0.013523,0.002678,0.000431,0.476577
3539000,0.0324,0.013523,0.002678,0.000431,0.431799
3540000,0.0324,0.013523,0.002678,0.000431,0.439203
3541000,0.0324,0.013523,0.002678,0.000431,0.404885
3542000,0.0324,0.013523,0.002678,0.000431,0.514538
3543000,0.0324,0.013523,0.002678,0.000431,0.573890
3544000,0.0324,0.013523,0.002678,0.000431,0.532050
3545000,0.0324,0.013523,0.002678,0.000431,0.523235
3546000,0.0324,0.013523,0.002678,0.000431,0.549209
3547000,0.0324,0.013523,0.002678,0.000431,0.625132
3548000,0.0324,0.013523,0.002678,0.000431,0.583998
3549000,0.0324,0.013523,0.002678,0.000431,0.588699
3550000,0.0324,0.013523,0.002678,0.000431,0.648873
3551000,0.0324,0.013523,0.002678,0.000431,0.607033
3552000,0.0324,0.013523,0.002678,0.000431,0.556143
3553000,0.0324,0.013523,0.002678,0.000431,0.546036
3554000,0.0324,0.013523,0.002678,0.000431,0.562607
3555000,0.0324,0.013523,0.002678,0.000431,0.667678
3556000,0.0324,0.013523,0.002678,0.000431,0.646052
3557000,0.0324,0.013523,0.002678,0.000431,0.640646
3558000,0.0324,0.013523,0.002678,0.000431,0.680136
3559000,0.0324,0.013523,0.002678,0.000431,0.671909
3560000,0.0324,0.013523,0.002678,0.000431,0.712808
3561000,0.0324,0.013523,0.002678,0.000431,0.760877
3562000,0.0324,0.013523,0.002678,0.000431,0.818936
3563000,0.0324,0.013523,0.002678,0.000431,0.694357
3564000,0.0324,0.013523,0.002678,0.000431,0.774393
3565000,0.0324,0.013523,0.002678,0.000431,0.759350
3566000,0.0324,0.013523,0.002678,0.000431,0.651224
3567000,0.0324,0.013523,0.002678,0.000431,0.649813
3568000,0.0324,0.013523,0.002678,0.000431,0.674259
3569000,0.0324,0.013523,0.002678,0.000431,0.620079
3570000,0.0324,0.013523,0.002678,0.000431,0.595633
3571000,0.0324,0.013523,0.002678,0.000431,0.640764
3572000,0.0324,0.013523,0.002678,0.000431,0.560374
3573000,0.0324,0.013523,0.002678,0.000431,0.518182
3574000,0.0324,0.013523,0.002678,0.000431,0.560257
3575000,0.0324,0.013523,0.002678,0.000431,0.665445
3576000,0.0324,0.013523,0.002678,0.000431,0.721506
3577000,0.0324,0.013523,0.002678,0.000431,0.629246
3578000,0.0324,0.013523,0.002678,0.000431,0.578004
3579000,0.0324,0.013523,0.002678,0.000431,0.625250
3580000,0.0324,0.013523,0.002678,0.000431,0.614672
3581000,0.0324,0.013523,0.002678,0.000431,0.563783
3582000,0.0324,0.013523,0.002678,0.000431,0.593047
3583000,0.0324,0.013523,0.002678,0.000431,0.557554
3584000,0.0324,0.013523,0.002678,0.000431,0.515361
3585000,0.0324,0.013523,0.002678,0.000431,0.513128
3586000,0.0324,0.013523,0.002678,0.000431,0.482806
3587000,0.0324,0.013523,0.002678,0.000431,0.555791
3588000,0.0324,0.013523,0.002678,0.000431,0.656042
3589000,0.0324,0.013523,0.002678,0.000431,0.681428
3590000,0.0324,0.013523,0.002678,0.000431,0.604447
3591000,0.0324,0.013523,0.002678,0.000431,0.634065
3592000,0.0324,0.013523,0.002678,0.000431,0.716687
3593000,0.0324,0.013523,0.002678,0.000431,0.780152
3594000,0.0324,0.013523,0.002678,0.000431,0.800484
3595000,0.0324,0.013523,0.002678,0.000431,0.717392
3596000,0.0324,0.013523,0.002678,0.000431,0.741015
3597000,0.0324,0.013523,0.002678,0.000431,0.750888
3598000,0.0324,0.013523,0.002678,0.000431,0.697530
3599000,0.0324,0.013523,0.002678,0.000431,0.660038
3600000,0.0324,0.013523,0.002678,0.000431,0.606563
3601000,0.0324,0.013523,0.002678,0.000431,0.591519
3602000,0.0324,0.013523,0.002678,0.000431,0.584820
3603000,0.0324,0.013523,0.002678,0.000431,0.558611
3604000,0.0324,0.013523,0.002678,0.000431,0.481513
3605000,0.0324,0.013523,0.002678,0.000431,0.434384
3606000,0.0324,0.013523,0.002678,0.000431,0.449310
3607000,0.0324,0.013523,0.002678,0.000431,0.487507
3608000,0.0324,0.013523,0.002678,0.000431,0.498319
3609000,0.0324,0.013523,0.002678,0.000431,0.573890
3610000,0.0324,0.013523,0.002678,0.000431,0.514656
3611000,0.0324,0.013523,0.002678,0.000431,0.575888
3612000,0.0324,0.013523,0.002678,0.000431,0.533225
3613000,0.0324,0.013523,0.002678,0.000431,0.504901
3614000,0.0324,0.013523,0.002678,0.000431,0.529935
3615000,0.0324,0.013523,0.002678,0.000431,0.611734
3616000,0.0324,0.013523,0.002678,0.000431,0.551560
3617000,0.0324,0.013523,0.002678,0.000431,0.557201
3618000,0.0324,0.013523,0.002678,0.000431,0.520297
3619000,0.0324,0.013523,0.002678,0.000431,0.487037
3620000,0.0324,0.013523,0.002678,0.000431,0.555908
3621000,0.0324,0.013523,0.002678,0.000431,0.587406
3622000,0.0324,0.013523,0.002678,0.000431,0.607621
3623000,0.0324,0.013523,0.002678,0.000431,0.560492
3624000,0.0324,0.013523,0.002678,0.000431,0.619844
3625000,0.0324,0.013523,0.002678,0.000431,0.701761
3626000,0.0324,0.013523,0.002678,0.000431,0.652046
3627000,0.0324,0.013523,0.002678,0.000431,0.663212
3628000,0.0324,0.013523,0.002678,0.000431,0.632419
3629000,0.0324,0.013523,0.002678,0.000431,0.655102
3630000,0.0324,0.013523,0.002678,0.000431,0.607621
3631000,0.0324,0.013523,0.002678,0.000431,0.628306
3632000,0.0324,0.013523,0.002678,0.000431,0.664504
3633000,0.0324,0.013523,0.002678,0.000431,0.624780
3634000,0.0324,0.013523,0.002678,0.000431,0.628893
3635000,0.0324,0.013523,0.002678,0.000431,0.751358
3636000,0.0324,0.013523,0.002678,0.000431,0.626190
3637000,0.0324,0.013523,0.002678,0.000431,0.611499
3638000,0.0324,0.013523,0.002678,0.000431,0.800837
3639000,0.0324,0.013523,0.002678,0.000431,0.751240
3640000,0.0324,0.013523,0.002678,0.000431,0.689890
3641000,0.0324,0.013523,0.002678,0.000431,0.717510
3642000,0.0324,0.013523,0.002678,0.000431,0.873234
3643000,0.0324,0.013523,0.002678,0.000431,0.815058
3644000,0.0324,0.013523,0.002678,0.000431,0.764873
3645000,0.0324,0.013523,0.002678,0.000431,0.933409
3646000,0.0324,0.013523,0.002678,0.000431,0.849494
3647000,0.0324,0.013523,0.002678,0.000431,0.815528
3648000,0.0324,0.013523,0.002678,0.000431,0.873940
3649000,0.0324,0.013523,0.002678,0.000431,0.880051
3650000,0.0324,0.013523,0.002678,0.000431,0.819289
3651000,0.0324,0.013523,0.002678,0.000431,0.802600
3652000,0.0324,0.013523,0.002678,0.000431,0.807301
3653000,0.0324,0.013523,0.002678,0.000431,0.843147
3654000,0.0324,0.013523,0.002678,0.000431,0.831159
3655000,0.0324,0.013523,0.002678,0.000431,0.769339
3656000,0.0324,0.013523,0.002678,0.000431,0.795666
3657000,0.0324,0.013523,0.002678,0.000431,0.710458
3658000,0.0324,0.013523,0.002678,0.000431,0.685659
3659000,0.0324,0.013523,0.002678,0.000431,0.695767
3660000,0.0324,0.013523,0.002678,0.000431,0.736197
3661000,0.0324,0.013523,0.002678,0.000431,0.679078
3662000,0.0324,0.013523,0.002678,0.000431,0.648991
3663000,0.0324,0.013523,0.002678,0.000431,0.685072
3664000,0.0324,0.013523,0.002678,0.000431,0.679548
3665000,0.0324,0.013523,0.002678,0.000431,0.602097
3666000,0.0324,0.013523,0.002678,0.000431,0.564488
3667000,0.0324,0.013523,0.002678,0.000431,0.528877
3668000,0.0324,0.013523,0.002678,0.000431,0.532990
3669000,0.0324,0.013523,0.002678,0.000431,0.506429
3670000,0.0324,0.013523,0.002678,0.000431,0.427097
3671000,0.0324,0.013523,0.002678,0.000431,0.437205
3672000,0.0324,0.013523,0.002678,0.000431,0.558729
3673000,0.0324,0.013523,0.002678,0.000431,0.505489
3674000,0.0324,0.013523,0.002678,0.000431,0.458242
3675000,0.0324,0.013523,0.002678,0.000431,0.471993
3676000,0.0324,0.013523,0.002678,0.000431,0.513363
3677000,0.0324,0.013523,0.002678,0.000431,0.469173
3678000,0.0324,0.013523,0.002678,0.000431,0.440966
3679000,0.0324,0.013523,0.002678,0.000431,0.494324
3680000,0.0324,0.013523,0.002678,0.000431,0.494911
3681000,0.0324,0.013523,0.002678,0.000431,0.489387
3682000,0.0324,0.013523,0.002678,0.000431,0.462003
3683000,0.0324,0.013523,0.002678,0.000431,0.432269
3684000,0.0324,0.013523,0.002678,0.000431,0.392779
3685000,0.0324,0.013523,0.002678,0.000431,0.469408
3686000,0.0324,0.013523,0.002678,0.000431,0.543215
3687000,0.0324,0.013523,0.002678,0.000431,0.488095
3688000,0.0324,0.013523,0.002678,0.000431,0.471993
3689000,0.0324,0.013523,0.002678,0.000431,0.595750
3690000,0.0324,0.013523,0.002678,0.000431,0.625955
3691000,0.0324,0.013523,0.002678,0.000431,0.589639
3692000,0.0324,0.013523,0.002678,0.000431,0.779094
3693000,0.0324,0.013523,0.002678,0.000431,0.784031
3694000,0.0324,0.013523,0.002678,0.000431,0.700115
3695000,0.0324,0.013523,0.002678,0.000431,0.659921
3696000,0.0324,0.013523,0.002678,0.000431,0.788262
3697000,0.0324,0.013523,0.002678,0.000431,0.765696
3698000,0.0324,0.013523,0.002678,0.000431,0.820934
3699000,0.0324,0.013523,0.002678,0.000431,0.832100
3700000,0.0324,0.013523,0.002678,0.000431,0.821052
3701000,0.0324,0.013523,0.002678,0.000431,0.777214
3702000,0.0324,0.013523,0.002678,0.000431,0.758644
3703000,0.0324,0.013523,0.002678,0.000431,0.801425
3704000,0.0324,0.013523,0.002678,0.000431,0.858661
3705000,0.0324,0.013523,0.002678,0.000431,0.774628
3706000,0.0324,0.013523,0.002678,0.000431,0.868298
3707000,0.0324,0.013523,0.002678,0.000431,0.905555
3708000,0.0324,0.013523,0.002678,0.000431,0.916837
3709000,0.0324,0.013523,0.002678,0.000431,0.778154
3710000,0.0324,0.013523,0.002678,0.000431,0.838564
3711000,0.0324,0.013523,0.002678,0.000431,0.908493
3712000,0.0324,0.013523,0.002678,0.000431,0.812355
3713000,0.0324,0.013523,0.002678,0.000431,0.746892
3714000,0.0324,0.013523,0.002678,0.000431,0.704817
3715000,0.0324,0.013523,0.002678,0.000431,0.651694
3716000,0.0324,0.013523,0.002678,0.000431,0.698235
3717000,0.0324,0.013523,0.002678,0.000431,0.664387
3718000,0.0324,0.013523,0.002678,0.000431,0.595750
3719000,0.0324,0.013523,0.002678,0.000431,0.577298
3720000,0.0324,0.013523,0.002678,0.000431,0.619021
3721000,0.0324,0.013523,0.002678,0.000431,0.665210
3722000,0.0324,0.013523,0.002678,0.000431,0.692241
3723000,0.0324,0.013523,0.002678,0.000431,0.740428
3724000,0.0324,0.013523,0.002678,0.000431,0.814940
3725000,0.0324,0.013523,0.002678,0.000431,0.784148
3726000,0.0324,0.013523,0.002678,0.000431,0.781680
3727000,0.0324,0.013523,0.002678,0.000431,0.828926
3728000,0.0324,0.013523,0.002678,0.000431,0.908728
3729000,0.0324,0.013523,0.002678,0.000431,0.951743
3730000,0.0324,0.013523,0.002678,0.000431,0.842677
3731000,0.0324,0.013523,0.002678,0.000431,0.808241
3732000,0.0324,0.013523,0.002678,0.000431,0.757822
3733000,0.0324,0.013523,0.002678,0.000431,0.701408
3734000,0.0324,0.013523,0.002678,0.000431,0.660508
3735000,0.0324,0.013523,0.002678,0.000431,0.626073
3736000,0.0324,0.013523,0.002678,0.000431,0.632772
3737000,0.0324,0.013523,0.002678,0.000431,0.640646
3738000,0.0324,0.013523,0.002678,0.000431,0.610324
3739000,0.0324,0.013523,0.002678,0.000431,0.542275
3740000,0.0324,0.013523,0.002678,0.000431,0.531580
3741000,0.0324,0.013523,0.002678,0.000431,0.541687
3742000,0.0324,0.013523,0.002678,0.000431,0.562137
3743000,0.0324,0.013523,0.002678,0.000431,0.546506
3744000,0.0324,0.013523,0.002678,0.000431,0.541217
3745000,0.0324,0.013523,0.002678,0.000431,0.527937
3746000,0.0324,0.013523,0.002678,0.000431,0.583880
3747000,0.0324,0.013523,0.002678,0.000431,0.605388
3748000,0.0324,0.013523,0.002678,0.000431,0.709870
3749000,0.0324,0.013523,0.002678,0.000431,0.631596
3750000,0.0324,0.013523,0.002678,0.000431,0.607268
3751000,0.0324,0.013523,0.002678,0.000431,0.669793
3752000,0.0324,0.013523,0.002678,0.000431,0.631832
3753000,0.0324,0.013523,0.002678,0.000431,0.682839
3754000,0.0324,0.013523,0.002678,0.000431,0.663212
3755000,0.0324,0.013523,0.002678,0.000431,0.594810
3756000,0.0324,0.013523,0.002678,0.000431,0.572245
3757000,0.0324,0.013523,0.002678,0.000431,0.604800
3758000,0.0324,0.013523,0.002678,0.000431,0.584468
3759000,0.0324,0.013523,0.002678,0.000431,0.590932
3760000,0.0324,0.013523,0.002678,0.000431,0.556143
3761000,0.0324,0.013523,0.002678,0.000431,0.534048
3762000,0.0324,0.013523,0.002678,0.000431,0.598101
3763000,0.0324,0.013523,0.002678,0.000431,0.546153
3764000,0.0324,0.013523,0.002678,0.000431,0.440731
3765000,0.0324,0.013523,0.002678,0.000431,0.439790
3766000,0.0324,0.013523,0.002678,0.000431,0.478575
3767000,0.0324,0.013523,0.002678,0.000431,0.525469
3768000,0.0324,0.013523,0.002678,0.000431,0.455069
3769000,0.0324,0.013523,0.002678,0.000431,0.487977
3770000,0.0324,0.013523,0.002678,0.000431,0.648991
3771000,0.0324,0.013523,0.002678,0.000431,0.694592
3772000,0.0324,0.013523,0.002678,0.000431,0.777096
3773000,0.0324,0.013523,0.002678,0.000431,0.728440
3774000,0.0324,0.013523,0.002678,0.000431,0.821052
3775000,0.0324,0.013523,0.002678,0.000431,0.858543
3776000,0.0324,0.013523,0.002678,0.000431,0.873940
3777000,0.0324,0.013523,0.002678,0.000431,0.988647
3778000,0.0324,0.013523,0.002678,0.000431,1.044943
3779000,0.0324,0.013523,0.002678,0.000431,0.864067
3780000,0.0324,0.013523,0.002678,0.000431,0.831747
3781000,0.0324,0.013523,0.002678,0.000431,0.915780
3782000,0.0324,0.013523,0.002678,0.000431,0.904849
3783000,0.0324,0.013523,0.002678,0.000431,0.812707
3784000,0.0324,0.013523,0.002678,0.000431,0.866653
3785000,0.0324,0.013523,0.002678,0.000431,0.767459
3786000,0.0324,0.013523,0.002678,0.000431,0.737372
3787000,0.0324,0.013523,0.002678,0.000431,0.742308
3788000,0.0324,0.013523,0.002678,0.000431,0.736197
3789000,0.0324,0.013523,0.002678,0.000431,0.663094
3790000,0.0324,0.013523,0.002678,0.000431,0.626073
3791000,0.0324,0.013523,0.002678,0.000431,0.644172
3792000,0.0324,0.013523,0.002678,0.000431,0.693651
3793000,0.0324,0.013523,0.002678,0.000431,0.627836
3794000,0.0324,0.013523,0.002678,0.000431,0.553440
3795000,0.0324,0.013523,0.002678,0.000431,0.582587
3796000,0.0324,0.013523,0.002678,0.000431,0.606680
3797000,0.0324,0.013523,0.002678,0.000431,0.594340
3798000,0.0324,0.013523,0.002678,0.000431,0.709400
3799000,0.0324,0.013523,0.002678,0.000431,0.625367
3800000,0.0324,0.013523,0.002678,0.000431,0.515361
3801000,0.0324,0.013523,0.002678,0.000431,0.539102
3802000,0.0324,0.013523,0.002678,0.000431,0.554615
3803000,0.0324,0.013523,0.002678,0.000431,0.560139
3804000,0.0324,0.013523,0.002678,0.000431,0.620549
3805000,0.0324,0.013523,0.002678,0.000431,0.708812
3806000,0.0324,0.013523,0.002678,0.000431,0.659216
3807000,0.0324,0.013523,0.002678,0.000431,0.661214
3808000,0.0324,0.013523,0.002678,0.000431,0.745246
3809000,0.0324,0.013523,0.002678,0.000431,0.709635
3810000,0.0324,0.013523,0.002678,0.000431,0.679548
3811000,0.0324,0.013523,0.002678,0.000431,0.677550
3812000,0.0324,0.013523,0.002678,0.000431,0.660038
3813000,0.0324,0.013523,0.002678,0.000431,0.608326
3814000,0.0324,0.013523,0.002678,0.000431,0.590344
3815000,0.0324,0.013523,0.002678,0.000431,0.651811
3816000,0.0324,0.013523,0.002678,0.000431,0.613027
3817000,0.0324,0.013523,0.002678,0.000431,0.524646
3818000,0.0324,0.013523,0.002678,0.000431,0.515831
3819000,0.0324,0.013523,0.002678,0.000431,0.555673
3820000,0.0324,0.013523,0.002678,0.000431,0.570364
3821000,0.0324,0.013523,0.002678,0.000431,0.655102
3822000,0.0324,0.013523,0.002678,0.000431,0.599511
3823000,0.0324,0.013523,0.002678,0.000431,0.572362
3824000,0.0324,0.013523,0.002678,0.000431,0.539572
3825000,0.0324,0.013523,0.002678,0.000431,0.582822
3826000,0.0324,0.013523,0.002678,0.000431,0.588699
3827000,0.0324,0.013523,0.002678,0.000431,0.593517
3828000,0.0324,0.013523,0.002678,0.000431,0.662859
3829000,0.0324,0.013523,0.002678,0.000431,0.700115
3830000,0.0324,0.013523,0.002678,0.000431,0.626778
3831000,0.0324,0.013523,0.002678,0.000431,0.581529
3832000,0.0324,0.013523,0.002678,0.000431,0.603155
3833000,0.0324,0.013523,0.002678,0.000431,0.584233
3834000,0.0324,0.013523,0.002678,0.000431,0.646640
3835000,0.0324,0.013523,0.002678,0.000431,0.634065
3836000,0.0324,0.013523,0.002678,0.000431,0.556731
3837000,0.0324,0.013523,0.002678,0.000431,0.510542
3838000,0.0324,0.013523,0.002678,0.000431,0.509015
3839000,0.0324,0.013523,0.002678,0.000431,0.537926
3840000,0.0324,0.013523,0.002678,0.000431,0.550620
3841000,0.0324,0.013523,0.002678,0.000431,0.505019
3842000,0.0324,0.013523,0.002678,0.000431,0.480103
3843000,0.0324,0.013523,0.002678,0.000431,0.566251
3844000,0.0324,0.013523,0.002678,0.000431,0.553910
3845000,0.0324,0.013523,0.002678,0.000431,0.470818
3846000,0.0324,0.013523,0.002678,0.000431,0.439203
3847000,0.0324,0.013523,0.002678,0.000431,0.414287
3848000,0.0324,0.013523,0.002678,0.000431,0.396658
3849000,0.0324,0.013523,0.002678,0.000431,0.488917
3850000,0.0324,0.013523,0.002678,0.000431,0.434737
3851000,0.0324,0.013523,0.002678,0.000431,0.440143
3852000,0.0324,0.013523,0.002678,0.000431,0.448370
3853000,0.0324,0.013523,0.002678,0.000431,0.408998
3854000,0.0324,0.013523,0.002678,0.000431,0.419693
3855000,0.0324,0.013523,0.002678,0.000431,0.544273
3856000,0.0324,0.013523,0.002678,0.000431,0.569189
3857000,0.0324,0.013523,0.002678,0.000431,0.594458
3858000,0.0324,0.013523,0.002678,0.000431,0.638531
3859000,0.0324,0.013523,0.002678,0.000431,0.685542
3860000,0.0324,0.013523,0.002678,0.000431,0.662859
3861000,0.0324,0.013523,0.002678,0.000431,0.786851
3862000,0.0324,0.013523,0.002678,0.000431,0.812002
3863000,0.0324,0.013523,0.002678,0.000431,0.796136
3864000,0.0324,0.013523,0.002678,0.000431,0.859601
3865000,0.0324,0.013523,0.002678,0.000431,0.866770
3866000,0.0324,0.013523,0.002678,0.000431,0.743718
3867000,0.0324,0.013523,0.002678,0.000431,0.818584
3868000,0.0324,0.013523,0.002678,0.000431,0.734199
3869000,0.0324,0.013523,0.002678,0.000431,0.681076
3870000,0.0324,0.013523,0.002678,0.000431,0.631596
3871000,0.0324,0.013523,0.002678,0.000431,0.651341
3872000,0.0324,0.013523,0.002678,0.000431,0.759702
3873000,0.0324,0.013523,0.002678,0.000431,0.796136
3874000,0.0324,0.013523,0.002678,0.000431,0.711516
3875000,0.0324,0.013523,0.002678,0.000431,0.630186
3876000,0.0324,0.013523,0.002678,0.000431,0.699528
3877000,0.0324,0.013523,0.002678,0.000431,0.779447
3878000,0.0324,0.013523,0.002678,0.000431,0.822462
3879000,0.0324,0.013523,0.002678,0.000431,0.802482
3880000,0.0324,0.013523,0.002678,0.000431,0.726677
3881000,0.0324,0.013523,0.002678,0.000431,0.770632
3882000,0.0324,0.013523,0.002678,0.000431,0.785323
3883000,0.0324,0.013523,0.002678,0.000431,0.755589
3884000,0.0324,0.013523,0.002678,0.000431,0.771808
3885000,0.0324,0.013523,0.002678,0.000431,0.822462
3886000,0.0324,0.013523,0.002678,0.000431,0.781445
3887000,0.0324,0.013523,0.002678,0.000431,0.733611
3888000,0.0324,0.013523,0.002678,0.000431,0.774276
3889000,0.0324,0.013523,0.002678,0.000431,0.724796
3890000,0.0324,0.013523,0.002678,0.000431,0.742073
3891000,0.0324,0.013523,0.002678,0.000431,0.687422
3892000,0.0324,0.013523,0.002678,0.000431,0.679901
3893000,0.0324,0.013523,0.002678,0.000431,0.709988
3894000,0.0324,0.013523,0.002678,0.000431,0.673672
3895000,0.0324,0.013523,0.002678,0.000431,0.647110
3896000,0.0324,0.013523,0.002678,0.000431,0.620431
3897000,0.0324,0.013523,0.002678,0.000431,0.714571
3898000,0.0324,0.013523,0.002678,0.000431,0.736784
3899000,0.0324,0.013523,0.002678,0.000431,0.656630
3900000,0.0324,0.013523,0.002678,0.000431,0.660391
3901000,0.0324,0.013523,0.002678,0.000431,0.665445
3902000,0.0324,0.013523,0.002678,0.000431,0.639471
3903000,0.0324,0.013523,0.002678,0.000431,0.588816
3904000,0.0324,0.013523,0.002678,0.000431,0.547564
3905000,0.0324,0.013523,0.002678,0.000431,0.501140
3906000,0.0324,0.013523,0.002678,0.000431,0.461651
3907000,0.0324,0.013523,0.002678,0.000431,0.453306
3908000,0.0324,0.013523,0.002678,0.000431,0.538749
3909000,0.0324,0.013523,0.002678,0.000431,0.589639
3910000,0.0324,0.013523,0.002678,0.000431,0.554615
3911000,0.0324,0.013523,0.002678,0.000431,0.541570
3912000,0.0324,0.013523,0.002678,0.000431,0.609266
3913000,0.0324,0.013523,0.002678,0.000431,0.600099
3914000,0.0324,0.013523,0.002678,0.000431,0.694004
3915000,0.0324,0.013523,0.002678,0.000431,0.743718
3916000,0.0324,0.013523,0.002678,0.000431,0.794726
3917000,0.0324,0.013523,0.002678,0.000431,0.743953
3918000,0.0324,0.013523,0.002678,0.000431,0.782738
3919000,0.0324,0.013523,0.002678,0.000431,0.776391
3920000,0.0324,0.013523,0.002678,0.000431,0.772278
3921000,0.0324,0.013523,0.002678,0.000431,0.769692
3922000,0.0324,0.013523,0.002678,0.000431,0.800014
3923000,0.0324,0.013523,0.002678,0.000431,0.732436
3924000,0.0324,0.013523,0.002678,0.000431,0.786851
3925000,0.0324,0.013523,0.002678,0.000431,0.733493
3926000,0.0324,0.013523,0.002678,0.000431,0.643937
3927000,0.0324,0.013523,0.002678,0.000431,0.637825
3928000,0.0324,0.013523,0.002678,0.000431,0.639001
3929000,0.0324,0.013523,0.002678,0.000431,0.597866
3930000,0.0324,0.013523,0.002678,0.000431,0.718332
3931000,0.0324,0.013523,0.002678,0.000431,0.680958
3932000,0.0324,0.013523,0.002678,0.000431,0.552030
3933000,0.0324,0.013523,0.002678,0.000431,0.579531
3934000,0.0324,0.013523,0.002678,0.000431,0.648521
3935000,0.0324,0.013523,0.002678,0.000431,0.614672
3936000,0.0324,0.013523,0.002678,0.000431,0.574360
3937000,0.0324,0.013523,0.002678,0.000431,0.551795
3938000,0.0324,0.013523,0.002678,0.000431,0.536986
3939000,0.0324,0.013523,0.002678,0.000431,0.553440
3940000,0.0324,0.013523,0.002678,0.000431,0.507252
3941000,0.0324,0.013523,0.002678,0.000431,0.449663
3942000,0.0324,0.013523,0.002678,0.000431,0.509015
3943000,0.0324,0.013523,0.002678,0.000431,0.433444
3944000,0.0324,0.013523,0.002678,0.000431,0.454129
3945000,0.0324,0.013523,0.002678,0.000431,0.449075
3946000,0.0324,0.013523,0.002678,0.000431,0.420163
3947000,0.0324,0.013523,0.002678,0.000431,0.548269
3948000,0.0324,0.013523,0.002678,0.000431,0.586113
3949000,0.0324,0.013523,0.002678,0.000431,0.551325
3950000,0.0324,0.013523,0.002678,0.000431,0.640411
3951000,0.0324,0.013523,0.002678,0.000431,0.677667
3952000,0.0324,0.013523,0.002678,0.000431,0.682839
3953000,0.0324,0.013523,0.002678,0.000431,0.624075
3954000,0.0324,0.013523,0.002678,0.000431,0.709753
3955000,0.0324,0.013523,0.002678,0.000431,0.655337
3956000,0.0324,0.013523,0.002678,0.000431,0.589169
3957000,0.0324,0.013523,0.002678,0.000431,0.608914
3958000,0.0324,0.013523,0.002678,0.000431,0.547211
3959000,0.0324,0.013523,0.002678,0.000431,0.556966
3960000,0.0324,0.013523,0.002678,0.000431,0.566368
3961000,0.0324,0.013523,0.002678,0.000431,0.468115
3962000,0.0324,0.013523,0.002678,0.000431,0.432974
3963000,0.0324,0.013523,0.002678,0.000431,0.428743
3964000,0.0324,0.013523,0.002678,0.000431,0.454011
3965000,0.0324,0.013523,0.002678,0.000431,0.467527
3966000,0.0324,0.013523,0.002678,0.000431,0.389606
3967000,0.0324,0.013523,0.002678,0.000431,0.357756
3968000,0.0324,0.013523,0.002678,0.000431,0.489270
3969000,0.0324,0.013523,0.002678,0.000431,0.505136
3970000,0.0324,0.013523,0.002678,0.000431,0.483981
3971000,0.0324,0.013523,0.002678,0.000431,0.459535
3972000,0.0324,0.013523,0.002678,0.000431,0.517947
3973000,0.0324,0.013523,0.002678,0.000431,0.570482
3974000,0.0324,0.013523,0.002678,0.000431,0.560139
3975000,0.0324,0.013523,0.002678,0.000431,0.552382
3976000,0.0324,0.013523,0.002678,0.000431,0.564488
3977000,0.0324,0.013523,0.002678,0.000431,0.613380
3978000,0.0324,0.013523,0.002678,0.000431,0.644995
3979000,0.0324,0.013523,0.002678,0.000431,0.614202
3980000,0.0324,0.013523,0.002678,0.000431,0.560492
3981000,0.0324,0.013523,0.002678,0.000431,0.608678
3982000,0.0324,0.013523,0.002678,0.000431,0.591284
3983000,0.0324,0.013523,0.002678,0.000431,0.565898
3984000,0.0324,0.013523,0.002678,0.000431,0.572480
3985000,0.0324,0.013523,0.002678,0.000431,0.494441
3986000,0.0324,0.013523,0.002678,0.000431,0.434502
3987000,0.0324,0.013523,0.002678,0.000431,0.424982
3988000,0.0324,0.013523,0.002678,0.000431,0.409468
3989000,0.0324,0.013523,0.002678,0.000431,0.385963
3990000,0.0324,0.013523,0.002678,0.000431,0.386903
3991000,0.0324,0.013523,0.002678,0.000431,0.396070
3992000,0.0324,0.013523,0.002678,0.000431,0.491033
3993000,0.0324,0.013523,0.002678,0.000431,0.600334
3994000,0.0324,0.013523,0.002678,0.000431,0.530992
3995000,0.0324,0.013523,0.002678,0.000431,0.551560
3996000,0.0324,0.013523,0.002678,0.000431,0.582940
3997000,0.0324,0.013523,0.002678,0.000431,0.568719
3998000,0.0324,0.013523,0.002678,0.000431,0.548974
3999000,0.0324,0.013523,0.002678,0.000431,0.602802
