Cycle,Area(mm^2),PeakDynamic(W),SubthresholdLeakage(W),GateLeakage(W),RunTimeDynamic(W)
4000000,0.0324,0.013523,0.002678,0.000431,0.726442
4001000,0.0324,0.013523,0.002678,0.000431,0.706814
4002000,0.0324,0.013523,0.002678,0.000431,0.675787
4003000,0.0324,0.013523,0.002678,0.000431,0.669088
4004000,0.0324,0.013523,0.002678,0.000431,0.715864
4005000,0.0324,0.013523,0.002678,0.000431,0.778389
4006000,0.0324,0.013523,0.002678,0.000431,0.858896
4007000,0.0324,0.013523,0.002678,0.000431,0.865478
4008000,0.0324,0.013523,0.002678,0.000431,0.850081
4009000,0.0324,0.013523,0.002678,0.000431,0.835390
4010000,0.0324,0.013523,0.002678,0.000431,1.022260
4011000,0.0324,0.013523,0.002678,0.000431,1.085725
4012000,0.0324,0.013523,0.002678,0.000431,0.986767
4013000,0.0324,0.013523,0.002678,0.000431,0.876760
4014000,0.0324,0.013523,0.002678,0.000431,0.894272
4015000,0.0324,0.013523,0.002678,0.000431,0.879228
4016000,0.0324,0.013523,0.002678,0.000431,0.891686
4017000,0.0324,0.013523,0.002678,0.000431,0.879463
4018000,0.0324,0.013523,0.002678,0.000431,0.747244
4019000,0.0324,0.013523,0.002678,0.000431,0.725031
4020000,0.0324,0.013523,0.002678,0.000431,0.642997
4021000,0.0324,0.013523,0.002678,0.000431,0.668853
4022000,0.0324,0.013523,0.002678,0.000431,0.717510
4023000,0.0324,0.013523,0.002678,0.000431,0.682604
4024000,0.0324,0.013523,0.002678,0.000431,0.649108
4025000,0.0324,0.013523,0.002678,0.000431,0.674612
4026000,0.0324,0.013523,0.002678,0.000431,0.749125
4027000,0.0324,0.013523,0.002678,0.000431,0.728675
4028000,0.0324,0.013523,0.002678,0.000431,0.639823
4029000,0.0324,0.013523,0.002678,0.000431,0.634300
4030000,0.0324,0.013523,0.002678,0.000431,0.617140
4031000,0.0324,0.013523,0.002678,0.000431,0.686952
4032000,0.0324,0.013523,0.002678,0.000431,0.641469
4033000,0.0324,0.013523,0.002678,0.000431,0.589051
4034000,0.0324,0.013523,0.002678,0.000431,0.508544
4035000,0.0324,0.013523,0.002678,0.000431,0.564605
4036000,0.0324,0.013523,0.002678,0.000431,0.590697
4037000,0.0324,0.013523,0.002678,0.000431,0.529229
4038000,0.0324,0.013523,0.002678,0.000431,0.524763
4039000,0.0324,0.013523,0.002678,0.000431,0.474696
4040000,0.0324,0.013523,0.002678,0.000431,0.436265
4041000,0.0324,0.013523,0.002678,0.000431,0.405942
4042000,0.0324,0.013523,0.002678,0.000431,0.416167
4043000,0.0324,0.013523,0.002678,0.000431,0.434619
4044000,0.0324,0.013523,0.002678,0.000431,0.449780
4045000,0.0324,0.013523,0.002678,0.000431,0.380791
4046000,0.0324,0.013523,0.002678,0.000431,0.327669
4047000,0.0324,0.013523,0.002678,0.000431,0.359636
4048000,0.0324,0.013523,0.002678,0.000431,0.360459
4049000,0.0324,0.013523,0.002678,0.000431,0.323203
4050000,0.0324,0.013523,0.002678,0.000431,0.313095
4051000,0.0324,0.013523,0.002678,0.000431,0.284653
4052000,0.0324,0.013523,0.002678,0.000431,0.260090
4053000,0.0324,0.013523,0.002678,0.000431,0.272078
4054000,0.0324,0.013523,0.002678,0.000431,0.301460
4055000,0.0324,0.013523,0.002678,0.000431,0.255389
4056000,0.0324,0.013523,0.002678,0.000431,0.228475
4057000,0.0324,0.013523,0.002678,0.000431,0.218367
4058000,0.0324,0.013523,0.002678,0.000431,0.229062
4059000,0.0324,0.013523,0.002678,0.000431,0.239640
4060000,0.0324,0.013523,0.002678,0.000431,0.323203
4061000,0.0324,0.013523,0.002678,0.000431,0.319207
4062000,0.0324,0.013523,0.002678,0.000431,0.299932
4063000,0.0324,0.013523,0.002678,0.000431,0.281833
4064000,0.0324,0.013523,0.002678,0.000431,0.423219
4065000,0.0324,0.013523,0.002678,0.000431,0.568954
4066000,0.0324,0.013523,0.002678,0.000431,0.505136
4067000,0.0324,0.013523,0.002678,0.000431,0.504196
4068000,0.0324,0.013523,0.002678,0.000431,0.515479
4069000,0.0324,0.013523,0.002678,0.000431,0.574125
4070000,0.0324,0.013523,0.002678,0.000431,0.688715
4071000,0.0324,0.013523,0.002678,0.000431,0.639588
4072000,0.0324,0.013523,0.002678,0.000431,0.612674
4073000,0.0324,0.013523,0.002678,0.000431,0.687892
4074000,0.0324,0.013523,0.002678,0.000431,0.782738
4075000,0.0324,0.013523,0.002678,0.000431,0.789202
4076000,0.0324,0.013523,0.002678,0.000431,0.808241
4077000,0.0324,0.013523,0.002678,0.000431,0.815411
4078000,0.0324,0.013523,0.002678,0.000431,0.783443
4079000,0.0324,0.013523,0.002678,0.000431,0.941166
4080000,0.0324,0.013523,0.002678,0.000431,0.875115
4081000,0.0324,0.013523,0.002678,0.000431,0.808124
4082000,0.0324,0.013523,0.002678,0.000431,0.810592
4083000,0.0324,0.013523,0.002678,0.000431,0.796136
4084000,0.0324,0.013523,0.002678,0.000431,0.728205
4085000,0.0324,0.013523,0.002678,0.000431,0.769457
4086000,0.0324,0.013523,0.002678,0.000431,0.777566
4087000,0.0324,0.013523,0.002678,0.000431,0.710575
4088000,0.0324,0.013523,0.002678,0.000431,0.628541
4089000,0.0324,0.013523,0.002678,0.000431,0.629481
4090000,0.0324,0.013523,0.002678,0.000431,0.627013
4091000,0.0324,0.013523,0.002678,0.000431,0.679195
4092000,0.0324,0.013523,0.002678,0.000431,0.709635
4093000,0.0324,0.013523,0.002678,0.000431,0.747479
4094000,0.0324,0.013523,0.002678,0.000431,0.619609
4095000,0.0324,0.013523,0.002678,0.000431,0.604095
4096000,0.0324,0.013523,0.002678,0.000431,0.676140
4097000,0.0324,0.013523,0.002678,0.000431,0.676962
4098000,0.0324,0.013523,0.002678,0.000431,0.683896
4099000,0.0324,0.013523,0.002678,0.000431,0.694592
4100000,0.0324,0.013523,0.002678,0.000431,0.720095
4101000,0.0324,0.013523,0.002678,0.000431,0.674024
4102000,0.0324,0.013523,0.002678,0.000431,0.708930
4103000,0.0324,0.013523,0.002678,0.000431,0.679783
4104000,0.0324,0.013523,0.002678,0.000431,0.768047
4105000,0.0324,0.013523,0.002678,0.000431,0.702819
4106000,0.0324,0.013523,0.002678,0.000431,0.701173
4107000,0.0324,0.013523,0.002678,0.000431,0.645112
4108000,0.0324,0.013523,0.002678,0.000431,0.643349
4109000,0.0324,0.013523,0.002678,0.000431,0.658863
4110000,0.0324,0.013523,0.002678,0.000431,0.631714
4111000,0.0324,0.013523,0.002678,0.000431,0.552147
4112000,0.0324,0.013523,0.002678,0.000431,0.515479
4113000,0.0324,0.013523,0.002678,0.000431,0.651341
4114000,0.0324,0.013523,0.002678,0.000431,0.628541
4115000,0.0324,0.013523,0.002678,0.000431,0.525351
4116000,0.0324,0.013523,0.002678,0.000431,0.482923
4117000,0.0324,0.013523,0.002678,0.000431,0.560022
4118000,0.0324,0.013523,0.002678,0.000431,0.546153
4119000,0.0324,0.013523,0.002678,0.000431,0.575653
4120000,0.0324,0.013523,0.002678,0.000431,0.522883
4121000,0.0324,0.013523,0.002678,0.000431,0.465529
4122000,0.0324,0.013523,0.002678,0.000431,0.509602
4123000,0.0324,0.013523,0.002678,0.000431,0.522530
4124000,0.0324,0.013523,0.002678,0.000431,0.517712
4125000,0.0324,0.013523,0.002678,0.000431,0.522648
4126000,0.0324,0.013523,0.002678,0.000431,0.532285
4127000,0.0324,0.013523,0.002678,0.000431,0.507252
4128000,0.0324,0.013523,0.002678,0.000431,0.624427
4129000,0.0324,0.013523,0.002678,0.000431,0.667560
4130000,0.0324,0.013523,0.002678,0.000431,0.572715
4131000,0.0324,0.013523,0.002678,0.000431,0.535341
4132000,0.0324,0.013523,0.002678,0.000431,0.549562
4133000,0.0324,0.013523,0.002678,0.000431,0.522413
4134000,0.0324,0.013523,0.002678,0.000431,0.607856
4135000,0.0324,0.013523,0.002678,0.000431,0.602332
4136000,0.0324,0.013523,0.002678,0.000431,0.598101
4137000,0.0324,0.013523,0.002678,0.000431,0.585525
4138000,0.0324,0.013523,0.002678,0.000431,0.781797
4139000,0.0324,0.013523,0.002678,0.000431,0.768047
4140000,0.0324,0.013523,0.002678,0.000431,0.764168
4141000,0.0324,0.013523,0.002678,0.000431,0.784971
4142000,0.0324,0.013523,0.002678,0.000431,0.837036
4143000,0.0324,0.013523,0.002678,0.000431,0.763933
4144000,0.0324,0.013523,0.002678,0.000431,0.760760
4145000,0.0324,0.013523,0.002678,0.000431,0.721976
4146000,0.0324,0.013523,0.002678,0.000431,0.711398
4147000,0.0324,0.013523,0.002678,0.000431,0.753121
4148000,0.0324,0.013523,0.002678,0.000431,0.767106
4149000,0.0324,0.013523,0.002678,0.000431,0.708577
4150000,0.0324,0.013523,0.002678,0.000431,0.728440
4151000,0.0324,0.013523,0.002678,0.000431,0.680136
4152000,0.0324,0.013523,0.002678,0.000431,0.771573
4153000,0.0324,0.013523,0.002678,0.000431,0.795196
4154000,0.0324,0.013523,0.002678,0.000431,0.728205
4155000,0.0324,0.013523,0.002678,0.000431,0.652164
4156000,0.0324,0.013523,0.002678,0.000431,0.647815
4157000,0.0324,0.013523,0.002678,0.000431,0.610676
4158000,0.0324,0.013523,0.002678,0.000431,0.598571
4159000,0.0324,0.013523,0.002678,0.000431,0.650283
4160000,0.0324,0.013523,0.002678,0.000431,0.649461
4161000,0.0324,0.013523,0.002678,0.000431,0.531580
4162000,0.0324,0.013523,0.002678,0.000431,0.548974
4163000,0.0324,0.013523,0.002678,0.000431,0.558259
4164000,0.0324,0.013523,0.002678,0.000431,0.600922
4165000,0.0324,0.013523,0.002678,0.000431,0.526291
4166000,0.0324,0.013523,0.002678,0.000431,0.520062
4167000,0.0324,0.013523,0.002678,0.000431,0.497849
4168000,0.0324,0.013523,0.002678,0.000431,0.464706
4169000,0.0324,0.013523,0.002678,0.000431,0.495969
4170000,0.0324,0.013523,0.002678,0.000431,0.652987
4171000,0.0324,0.013523,0.002678,0.000431,0.608443
4172000,0.0324,0.013523,0.002678,0.000431,0.490093
4173000,0.0324,0.013523,0.002678,0.000431,0.679078
4174000,0.0324,0.013523,0.002678,0.000431,0.653457
4175000,0.0324,0.013523,0.002678,0.000431,0.648756
4176000,0.0324,0.013523,0.002678,0.000431,0.638531
4177000,0.0324,0.013523,0.002678,0.000431,0.691301
4178000,0.0324,0.013523,0.002678,0.000431,0.723033
4179000,0.0324,0.013523,0.002678,0.000431,0.739370
4180000,0.0324,0.013523,0.002678,0.000431,0.881931
4181000,0.0324,0.013523,0.002678,0.000431,0.921891
4182000,0.0324,0.013523,0.002678,0.000431,0.810122
4183000,0.0324,0.013523,0.002678,0.000431,0.835273
4184000,0.0324,0.013523,0.002678,0.000431,0.868063
4185000,0.0324,0.013523,0.002678,0.000431,0.822932
4186000,0.0324,0.013523,0.002678,0.000431,0.876995
4187000,0.0324,0.013523,0.002678,0.000431,0.886985
4188000,0.0324,0.013523,0.002678,0.000431,0.760290
4189000,0.0324,0.013523,0.002678,0.000431,0.701761
4190000,0.0324,0.013523,0.002678,0.000431,0.775568
4191000,0.0324,0.013523,0.002678,0.000431,0.816233
4192000,0.0324,0.013523,0.002678,0.000431,0.786264
4193000,0.0324,0.013523,0.002678,0.000431,0.752886
4194000,0.0324,0.013523,0.002678,0.000431,0.761583
4195000,0.0324,0.013523,0.002678,0.000431,0.769457
4196000,0.0324,0.013523,0.002678,0.000431,0.777566
4197000,0.0324,0.013523,0.002678,0.000431,0.734904
4198000,0.0324,0.013523,0.002678,0.000431,0.699998
4199000,0.0324,0.013523,0.002678,0.000431,0.690361
4200000,0.0324,0.013523,0.002678,0.000431,0.757234
4201000,0.0324,0.013523,0.002678,0.000431,0.632654
4202000,0.0324,0.013523,0.002678,0.000431,0.591989
4203000,0.0324,0.013523,0.002678,0.000431,0.541922
4204000,0.0324,0.013523,0.002678,0.000431,0.548151
4205000,0.0324,0.013523,0.002678,0.000431,0.590579
4206000,0.0324,0.013523,0.002678,0.000431,0.605153
4207000,0.0324,0.013523,0.002678,0.000431,0.564018
4208000,0.0324,0.013523,0.002678,0.000431,0.485274
4209000,0.0324,0.013523,0.002678,0.000431,0.559434
4210000,0.0324,0.013523,0.002678,0.000431,0.586231
4211000,0.0324,0.013523,0.002678,0.000431,0.545448
4212000,0.0324,0.013523,0.002678,0.000431,0.527466
4213000,0.0324,0.013523,0.002678,0.000431,0.543333
4214000,0.0324,0.013523,0.002678,0.000431,0.554498
4215000,0.0324,0.013523,0.002678,0.000431,0.498672
4216000,0.0324,0.013523,0.002678,0.000431,0.551442
4217000,0.0324,0.013523,0.002678,0.000431,0.553323
4218000,0.0324,0.013523,0.002678,0.000431,0.596456
4219000,0.0324,0.013523,0.002678,0.000431,0.604330
4220000,0.0324,0.013523,0.002678,0.000431,0.559552
4221000,0.0324,0.013523,0.002678,0.000431,0.475284
4222000,0.0324,0.013523,0.002678,0.000431,0.497614
4223000,0.0324,0.013523,0.002678,0.000431,0.487507
4224000,0.0324,0.013523,0.002678,0.000431,0.496439
4225000,0.0324,0.013523,0.002678,0.000431,0.542628
4226000,0.0324,0.013523,0.002678,0.000431,0.454011
4227000,0.0324,0.013523,0.002678,0.000431,0.450956
4228000,0.0324,0.013523,0.002678,0.000431,0.524763
4229000,0.0324,0.013523,0.002678,0.000431,0.595750
4230000,0.0324,0.013523,0.002678,0.000431,0.539102
4231000,0.0324,0.013523,0.002678,0.000431,0.511130
4232000,0.0324,0.013523,0.002678,0.000431,0.569071
4233000,0.0324,0.013523,0.002678,0.000431,0.580472
4234000,0.0324,0.013523,0.002678,0.000431,0.568484
4235000,0.0324,0.013523,0.002678,0.000431,0.554733
4236000,0.0324,0.013523,0.002678,0.000431,0.586818
4237000,0.0324,0.013523,0.002678,0.000431,0.579061
4238000,0.0324,0.013523,0.002678,0.000431,0.584350
4239000,0.0324,0.013523,0.002678,0.000431,0.552735
4240000,0.0324,0.013523,0.002678,0.000431,0.543450
4241000,0.0324,0.013523,0.002678,0.000431,0.540277
4242000,0.0324,0.013523,0.002678,0.000431,0.566251
4243000,0.0324,0.013523,0.002678,0.000431,0.747244
4244000,0.0324,0.013523,0.002678,0.000431,0.783443
4245000,0.0324,0.013523,0.002678,0.000431,0.741838
4246000,0.0324,0.013523,0.002678,0.000431,0.809064
4247000,0.0324,0.013523,0.002678,0.000431,0.813295
4248000,0.0324,0.013523,0.002678,0.000431,0.865125
4249000,0.0324,0.013523,0.002678,0.000431,0.984651
4250000,0.0324,0.013523,0.002678,0.000431,1.009567
4251000,0.0324,0.013523,0.002678,0.000431,0.856663
4252000,0.0324,0.013523,0.002678,0.000431,0.827986
4253000,0.0324,0.013523,0.002678,0.000431,0.853490
4254000,0.0324,0.013523,0.002678,0.000431,0.777566
4255000,0.0324,0.013523,0.002678,0.000431,0.726794
4256000,0.0324,0.013523,0.002678,0.000431,0.773453
4257000,0.0324,0.013523,0.002678,0.000431,0.822110
4258000,0.0324,0.013523,0.002678,0.000431,0.770985
4259000,0.0324,0.013523,0.002678,0.000431,0.670263
4260000,0.0324,0.013523,0.002678,0.000431,0.695297
4261000,0.0324,0.013523,0.002678,0.000431,0.686365
4262000,0.0324,0.013523,0.002678,0.000431,0.682721
4263000,0.0324,0.013523,0.002678,0.000431,0.680136
4264000,0.0324,0.013523,0.002678,0.000431,0.650989
4265000,0.0324,0.013523,0.002678,0.000431,0.552735
4266000,0.0324,0.013523,0.002678,0.000431,0.536046
4267000,0.0324,0.013523,0.002678,0.000431,0.571187
4268000,0.0324,0.013523,0.002678,0.000431,0.615260
4269000,0.0324,0.013523,0.002678,0.000431,0.625367
4270000,0.0324,0.013523,0.002678,0.000431,0.579884
4271000,0.0324,0.013523,0.002678,0.000431,0.543568
4272000,0.0324,0.013523,0.002678,0.000431,0.543685
4273000,0.0324,0.013523,0.002678,0.000431,0.534871
4274000,0.0324,0.013523,0.002678,0.000431,0.472816
4275000,0.0324,0.013523,0.002678,0.000431,0.442611
4276000,0.0324,0.013523,0.002678,0.000431,0.396188
4277000,0.0324,0.013523,0.002678,0.000431,0.363867
4278000,0.0324,0.013523,0.002678,0.000431,0.346473
4279000,0.0324,0.013523,0.002678,0.000431,0.390664
4280000,0.0324,0.013523,0.002678,0.000431,0.404297
4281000,0.0324,0.013523,0.002678,0.000431,0.373270
4282000,0.0324,0.013523,0.002678,0.000431,0.412759
4283000,0.0324,0.013523,0.002678,0.000431,0.434972
4284000,0.0324,0.013523,0.002678,0.000431,0.390664
4285000,0.0324,0.013523,0.002678,0.000431,0.390781
4286000,0.0324,0.013523,0.002678,0.000431,0.418400
4287000,0.0324,0.013523,0.002678,0.000431,0.460593
4288000,0.0324,0.013523,0.002678,0.000431,0.428273
4289000,0.0324,0.013523,0.002678,0.000431,0.497614
4290000,0.0324,0.013523,0.002678,0.000431,0.606563
4291000,0.0324,0.013523,0.002678,0.000431,0.461533
4292000,0.0324,0.013523,0.002678,0.000431,0.453659
4293000,0.0324,0.013523,0.002678,0.000431,0.482571
4294000,0.0324,0.013523,0.002678,0.000431,0.507134
4295000,0.0324,0.013523,0.002678,0.000431,0.453541
4296000,0.0324,0.013523,0.002678,0.000431,0.462356
4297000,0.0324,0.013523,0.002678,0.000431,0.492090
4298000,0.0324,0.013523,0.002678,0.000431,0.500317
4299000,0.0324,0.013523,0.002678,0.000431,0.450015
4300000,0.0324,0.013523,0.002678,0.000431,0.447900
4301000,0.0324,0.013523,0.002678,0.000431,0.547094
4302000,0.0324,0.013523,0.002678,0.000431,0.488917
4303000,0.0324,0.013523,0.002678,0.000431,0.517242
4304000,0.0324,0.013523,0.002678,0.000431,0.620549
4305000,0.0324,0.013523,0.002678,0.000431,0.670146
4306000,0.0324,0.013523,0.002678,0.000431,0.572715
4307000,0.0324,0.013523,0.002678,0.000431,0.626895
4308000,0.0324,0.013523,0.002678,0.000431,0.731848
4309000,0.0324,0.013523,0.002678,0.000431,0.742896
4310000,0.0324,0.013523,0.002678,0.000431,0.714571
4311000,0.0324,0.013523,0.002678,0.000431,0.771690
4312000,0.0324,0.013523,0.002678,0.000431,0.711633
4313000,0.0324,0.013523,0.002678,0.000431,0.739370
4314000,0.0324,0.013523,0.002678,0.000431,0.801777
4315000,0.0324,0.013523,0.002678,0.000431,0.768517
4316000,0.0324,0.013523,0.002678,0.000431,0.673084
4317000,0.0324,0.013523,0.002678,0.000431,0.665092
4318000,0.0324,0.013523,0.002678,0.000431,0.682016
4319000,0.0324,0.013523,0.002678,0.000431,0.730438
4320000,0.0324,0.013523,0.002678,0.000431,0.767342
4321000,0.0324,0.013523,0.002678,0.000431,0.707755
4322000,0.0324,0.013523,0.002678,0.000431,0.644877
4323000,0.0324,0.013523,0.002678,0.000431,0.616905
4324000,0.0324,0.013523,0.002678,0.000431,0.740192
4325000,0.0324,0.013523,0.002678,0.000431,0.799544
4326000,0.0324,0.013523,0.002678,0.000431,0.687187
4327000,0.0324,0.013523,0.002678,0.000431,0.655102
4328000,0.0324,0.013523,0.002678,0.000431,0.594105
4329000,0.0324,0.013523,0.002678,0.000431,0.572127
4330000,0.0324,0.013523,0.002678,0.000431,0.572950
4331000,0.0324,0.013523,0.002678,0.000431,0.626543
4332000,0.0324,0.013523,0.002678,0.000431,0.491268
4333000,0.0324,0.013523,0.002678,0.000431,0.458007
4334000,0.0324,0.013523,0.002678,0.000431,0.489387
4335000,0.0324,0.013523,0.002678,0.000431,0.476459
4336000,0.0324,0.013523,0.002678,0.000431,0.507369
4337000,0.0324,0.013523,0.002678,0.000431,0.586231
4338000,0.0324,0.013523,0.002678,0.000431,0.616670
4339000,0.0324,0.013523,0.002678,0.000431,0.609971
4340000,0.0324,0.013523,0.002678,0.000431,0.663212
4341000,0.0324,0.013523,0.002678,0.000431,0.693769
4342000,0.0324,0.013523,0.002678,0.000431,0.697530
4343000,0.0324,0.013523,0.002678,0.000431,0.731730
4344000,0.0324,0.013523,0.002678,0.000431,0.674729
4345000,0.0324,0.013523,0.002678,0.000431,0.646993
4346000,0.0324,0.013523,0.002678,0.000431,0.677903
4347000,0.0324,0.013523,0.002678,0.000431,0.660626
4348000,0.0324,0.013523,0.002678,0.000431,0.566838
4349000,0.0324,0.013523,0.002678,0.000431,0.550267
4350000,0.0324,0.013523,0.002678,0.000431,0.633477
4351000,0.0324,0.013523,0.002678,0.000431,0.691301
4352000,0.0324,0.013523,0.002678,0.000431,0.709165
4353000,0.0324,0.013523,0.002678,0.000431,0.569777
4354000,0.0324,0.013523,0.002678,0.000431,0.563078
4355000,0.0324,0.013523,0.002678,0.000431,0.591872
4356000,0.0324,0.013523,0.002678,0.000431,0.577063
4357000,0.0324,0.013523,0.002678,0.000431,0.610559
4358000,0.0324,0.013523,0.002678,0.000431,0.552030
4359000,0.0324,0.013523,0.002678,0.000431,0.471523
4360000,0.0324,0.013523,0.002678,0.000431,0.428860
4361000,0.0324,0.013523,0.002678,0.000431,0.432151
4362000,0.0324,0.013523,0.002678,0.000431,0.415932
4363000,0.0324,0.013523,0.002678,0.000431,0.367276
4364000,0.0324,0.013523,0.002678,0.000431,0.360929
4365000,0.0324,0.013523,0.002678,0.000431,0.457890
4366000,0.0324,0.013523,0.002678,0.000431,0.551912
4367000,0.0324,0.013523,0.002678,0.000431,0.507957
4368000,0.0324,0.013523,0.002678,0.000431,0.481630
4369000,0.0324,0.013523,0.002678,0.000431,0.537574
4370000,0.0324,0.013523,0.002678,0.000431,0.572480
4371000,0.0324,0.013523,0.002678,0.000431,0.627836
4372000,0.0324,0.013523,0.002678,0.000431,0.680253
4373000,0.0324,0.013523,0.002678,0.000431,0.672496
4374000,0.0324,0.013523,0.002678,0.000431,0.713161
4375000,0.0324,0.013523,0.002678,0.000431,0.659216
4376000,0.0324,0.013523,0.002678,0.000431,0.617846
4377000,0.0324,0.013523,0.002678,0.000431,0.624545
4378000,0.0324,0.013523,0.002678,0.000431,0.614672
4379000,0.0324,0.013523,0.002678,0.000431,0.585055
4380000,0.0324,0.013523,0.002678,0.000431,0.557671
4381000,0.0324,0.013523,0.002678,0.000431,0.599981
4382000,0.0324,0.013523,0.002678,0.000431,0.503256
4383000,0.0324,0.013523,0.002678,0.000431,0.499142
4384000,0.0324,0.013523,0.002678,0.000431,0.492326
4385000,0.0324,0.013523,0.002678,0.000431,0.417695
4386000,0.0324,0.013523,0.002678,0.000431,0.422866
4387000,0.0324,0.013523,0.002678,0.000431,0.484686
4388000,0.0324,0.013523,0.002678,0.000431,0.506076
4389000,0.0324,0.013523,0.002678,0.000431,0.526409
4390000,0.0324,0.013523,0.002678,0.000431,0.485509
4391000,0.0324,0.013523,0.002678,0.000431,0.486097
4392000,0.0324,0.013523,0.002678,0.000431,0.544743
4393000,0.0324,0.013523,0.002678,0.000431,0.539807
4394000,0.0324,0.013523,0.002678,0.000431,0.574948
4395000,0.0324,0.013523,0.002678,0.000431,0.725619
4396000,0.0324,0.013523,0.002678,0.000431,0.641234
4397000,0.0324,0.013523,0.002678,0.000431,0.617023
4398000,0.0324,0.013523,0.002678,0.000431,0.681076
4399000,0.0324,0.013523,0.002678,0.000431,0.675434
4400000,0.0324,0.013523,0.002678,0.000431,0.615260
4401000,0.0324,0.013523,0.002678,0.000431,0.716687
4402000,0.0324,0.013523,0.002678,0.000431,0.738547
4403000,0.0324,0.013523,0.002678,0.000431,0.771690
4404000,0.0324,0.013523,0.002678,0.000431,0.802130
4405000,0.0324,0.013523,0.002678,0.000431,0.703524
4406000,0.0324,0.013523,0.002678,0.000431,0.671439
4407000,0.0324,0.013523,0.002678,0.000431,0.739487
4408000,0.0324,0.013523,0.002678,0.000431,0.673319
4409000,0.0324,0.013523,0.002678,0.000431,0.689773
4410000,0.0324,0.013523,0.002678,0.000431,0.627130
4411000,0.0324,0.013523,0.002678,0.000431,0.556143
4412000,0.0324,0.013523,0.002678,0.000431,0.517594
4413000,0.0324,0.013523,0.002678,0.000431,0.488800
4414000,0.0324,0.013523,0.002678,0.000431,0.613732
4415000,0.0324,0.013523,0.002678,0.000431,0.721976
4416000,0.0324,0.013523,0.002678,0.000431,0.723856
4417000,0.0324,0.013523,0.002678,0.000431,0.668265
4418000,0.0324,0.013523,0.002678,0.000431,0.747714
4419000,0.0324,0.013523,0.002678,0.000431,0.739252
4420000,0.0324,0.013523,0.002678,0.000431,0.824108
4421000,0.0324,0.013523,0.002678,0.000431,0.980890
4422000,0.0324,0.013523,0.002678,0.000431,0.993113
4423000,0.0324,0.013523,0.002678,0.000431,0.917660
4424000,0.0324,0.013523,0.002678,0.000431,0.904262
4425000,0.0324,0.013523,0.002678,0.000431,0.991115
4426000,0.0324,0.013523,0.002678,0.000431,1.146605
4427000,0.0324,0.013523,0.002678,0.000431,1.204311
4428000,0.0324,0.013523,0.002678,0.000431,1.080084
4429000,0.0324,0.013523,0.002678,0.000431,1.021555
4430000,0.0324,0.013523,0.002678,0.000431,1.060222
4431000,0.0324,0.013523,0.002678,0.000431,1.117928
4432000,0.0324,0.013523,0.002678,0.000431,1.040830
4433000,0.0324,0.013523,0.002678,0.000431,0.982888
4434000,0.0324,0.013523,0.002678,0.000431,0.935407
4435000,0.0324,0.013523,0.002678,0.000431,0.879346
4436000,0.0324,0.013523,0.002678,0.000431,0.890041
4437000,0.0324,0.013523,0.002678,0.000431,0.891569
4438000,0.0324,0.013523,0.002678,0.000431,0.816938
4439000,0.0324,0.013523,0.002678,0.000431,0.718450
4440000,0.0324,0.013523,0.002678,0.000431,0.684484
4441000,0.0324,0.013523,0.002678,0.000431,0.664974
4442000,0.0324,0.013523,0.002678,0.000431,0.742661
4443000,0.0324,0.013523,0.002678,0.000431,0.779447
4444000,0.0324,0.013523,0.002678,0.000431,0.681546
4445000,0.0324,0.013523,0.002678,0.000431,0.600451
4446000,0.0324,0.013523,0.002678,0.000431,0.579179
4447000,0.0324,0.013523,0.002678,0.000431,0.600099
4448000,0.0324,0.013523,0.002678,0.000431,0.610911
4449000,0.0324,0.013523,0.002678,0.000431,0.676375
4450000,0.0324,0.013523,0.002678,0.000431,0.676962
4451000,0.0324,0.013523,0.002678,0.000431,0.658628
4452000,0.0324,0.013523,0.002678,0.000431,0.579884
4453000,0.0324,0.013523,0.002678,0.000431,0.651576
4454000,0.0324,0.013523,0.002678,0.000431,0.625367
4455000,0.0324,0.013523,0.002678,0.000431,0.624427
4456000,0.0324,0.013523,0.002678,0.000431,0.665445
4457000,0.0324,0.013523,0.002678,0.000431,0.699175
4458000,0.0324,0.013523,0.002678,0.000431,0.586348
4459000,0.0324,0.013523,0.002678,0.000431,0.616788
4460000,0.0324,0.013523,0.002678,0.000431,0.614672
4461000,0.0324,0.013523,0.002678,0.000431,0.655572
4462000,0.0324,0.013523,0.002678,0.000431,0.631596
4463000,0.0324,0.013523,0.002678,0.000431,0.658981
4464000,0.0324,0.013523,0.002678,0.000431,0.638531
4465000,0.0324,0.013523,0.002678,0.000431,0.637825
4466000,0.0324,0.013523,0.002678,0.000431,0.627248
4467000,0.0324,0.013523,0.002678,0.000431,0.602567
4468000,0.0324,0.013523,0.002678,0.000431,0.585996
4469000,0.0324,0.013523,0.002678,0.000431,0.661449
4470000,0.0324,0.013523,0.002678,0.000431,0.612204
4471000,0.0324,0.013523,0.002678,0.000431,0.591167
4472000,0.0324,0.013523,0.002678,0.000431,0.581765
4473000,0.0324,0.013523,0.002678,0.000431,0.608443
4474000,0.0324,0.013523,0.002678,0.000431,0.667560
4475000,0.0324,0.013523,0.002678,0.000431,0.634417
4476000,0.0324,0.013523,0.002678,0.000431,0.635592
4477000,0.0324,0.013523,0.002678,0.000431,0.645700
4478000,0.0324,0.013523,0.002678,0.000431,0.683779
4479000,0.0324,0.013523,0.002678,0.000431,0.769222
4480000,0.0324,0.013523,0.002678,0.000431,0.701761
4481000,0.0324,0.013523,0.002678,0.000431,0.640764
4482000,0.0324,0.013523,0.002678,0.000431,0.630539
4483000,0.0324,0.013523,0.002678,0.000431,0.624662
4484000,0.0324,0.013523,0.002678,0.000431,0.672966
4485000,0.0324,0.013523,0.002678,0.000431,0.655337
4486000,0.0324,0.013523,0.002678,0.000431,0.693534
4487000,0.0324,0.013523,0.002678,0.000431,0.661801
4488000,0.0324,0.013523,0.002678,0.000431,0.572715
4489000,0.0324,0.013523,0.002678,0.000431,0.548386
4490000,0.0324,0.013523,0.002678,0.000431,0.719508
4491000,0.0324,0.013523,0.002678,0.000431,0.678608
4492000,0.0324,0.013523,0.002678,0.000431,0.663682
4493000,0.0324,0.013523,0.002678,0.000431,0.658393
4494000,0.0324,0.013523,0.002678,0.000431,0.743953
4495000,0.0324,0.013523,0.002678,0.000431,0.714689
4496000,0.0324,0.013523,0.002678,0.000431,0.723386
4497000,0.0324,0.013523,0.002678,0.000431,0.809299
4498000,0.0324,0.013523,0.002678,0.000431,0.748772
4499000,0.0324,0.013523,0.002678,0.000431,0.684719
4500000,0.0324,0.013523,0.002678,0.000431,0.677197
4501000,0.0324,0.013523,0.002678,0.000431,0.704229
4502000,0.0324,0.013523,0.002678,0.000431,0.841032
4503000,0.0324,0.013523,0.002678,0.000431,0.721270
4504000,0.0324,0.013523,0.002678,0.000431,0.660391
4505000,0.0324,0.013523,0.002678,0.000431,0.713984
4506000,0.0324,0.013523,0.002678,0.000431,0.692123
4507000,0.0324,0.013523,0.002678,0.000431,0.651106
4508000,0.0324,0.013523,0.002678,0.000431,0.669441
4509000,0.0324,0.013523,0.002678,0.000431,0.717274
4510000,0.0324,0.013523,0.002678,0.000431,0.661684
4511000,0.0324,0.013523,0.002678,0.000431,0.594222
4512000,0.0324,0.013523,0.002678,0.000431,0.586466
4513000,0.0324,0.013523,0.002678,0.000431,0.612204
4514000,0.0324,0.013523,0.002678,0.000431,0.673201
4515000,0.0324,0.013523,0.002678,0.000431,0.681428
4516000,0.0324,0.013523,0.002678,0.000431,0.601862
4517000,0.0324,0.013523,0.002678,0.000431,0.576593
4518000,0.0324,0.013523,0.002678,0.000431,0.593282
4519000,0.0324,0.013523,0.002678,0.000431,0.583057
4520000,0.0324,0.013523,0.002678,0.000431,0.569777
4521000,0.0324,0.013523,0.002678,0.000431,0.524646
4522000,0.0324,0.013523,0.002678,0.000431,0.526409
4523000,0.0324,0.013523,0.002678,0.000431,0.487977
4524000,0.0324,0.013523,0.002678,0.000431,0.456715
4525000,0.0324,0.013523,0.002678,0.000431,0.473756
4526000,0.0324,0.013523,0.002678,0.000431,0.524646
4527000,0.0324,0.013523,0.002678,0.000431,0.508544
4528000,0.0324,0.013523,0.002678,0.000431,0.541335
4529000,0.0324,0.013523,0.002678,0.000431,0.535811
4530000,0.0324,0.013523,0.002678,0.000431,0.559904
4531000,0.0324,0.013523,0.002678,0.000431,0.511600
4532000,0.0324,0.013523,0.002678,0.000431,0.600804
4533000,0.0324,0.013523,0.002678,0.000431,0.665445
4534000,0.0324,0.013523,0.002678,0.000431,0.634535
4535000,0.0324,0.013523,0.002678,0.000431,0.573302
4536000,0.0324,0.013523,0.002678,0.000431,0.599041
4537000,0.0324,0.013523,0.002678,0.000431,0.594105
4538000,0.0324,0.013523,0.002678,0.000431,0.571657
4539000,0.0324,0.013523,0.002678,0.000431,0.533343
4540000,0.0324,0.013523,0.002678,0.000431,0.594222
4541000,0.0324,0.013523,0.002678,0.000431,0.559669
4542000,0.0324,0.013523,0.002678,0.000431,0.473874
4543000,0.0324,0.013523,0.002678,0.000431,0.425805
4544000,0.0324,0.013523,0.002678,0.000431,0.448488
4545000,0.0324,0.013523,0.002678,0.000431,0.432269
4546000,0.0324,0.013523,0.002678,0.000431,0.492090
4547000,0.0324,0.013523,0.002678,0.000431,0.491738
4548000,0.0324,0.013523,0.002678,0.000431,0.412171
4549000,0.0324,0.013523,0.002678,0.000431,0.423219
4550000,0.0324,0.013523,0.002678,0.000431,0.544273
4551000,0.0324,0.013523,0.002678,0.000431,0.623487
4552000,0.0324,0.013523,0.002678,0.000431,0.591519
4553000,0.0324,0.013523,0.002678,0.000431,0.577181
4554000,0.0324,0.013523,0.002678,0.000431,0.603272
4555000,0.0324,0.013523,0.002678,0.000431,0.605270
4556000,0.0324,0.013523,0.002678,0.000431,0.648991
4557000,0.0324,0.013523,0.002678,0.000431,0.613615
4558000,0.0324,0.013523,0.002678,0.000431,0.560022
4559000,0.0324,0.013523,0.002678,0.000431,0.558847
4560000,0.0324,0.013523,0.002678,0.000431,0.582470
4561000,0.0324,0.013523,0.002678,0.000431,0.550855
4562000,0.0324,0.013523,0.002678,0.000431,0.497497
4563000,0.0324,0.013523,0.002678,0.000431,0.473874
4564000,0.0324,0.013523,0.002678,0.000431,0.518417
4565000,0.0324,0.013523,0.002678,0.000431,0.552853
4566000,0.0324,0.013523,0.002678,0.000431,0.629481
4567000,0.0324,0.013523,0.002678,0.000431,0.569542
4568000,0.0324,0.013523,0.002678,0.000431,0.585996
4569000,0.0324,0.013523,0.002678,0.000431,0.572010
4570000,0.0324,0.013523,0.002678,0.000431,0.620431
4571000,0.0324,0.013523,0.002678,0.000431,0.631596
4572000,0.0324,0.013523,0.002678,0.000431,0.699998
4573000,0.0324,0.013523,0.002678,0.000431,0.751828
4574000,0.0324,0.013523,0.002678,0.000431,0.686952
4575000,0.0324,0.013523,0.002678,0.000431,0.731378
4576000,0.0324,0.013523,0.002678,0.000431,0.754884
4577000,0.0324,0.013523,0.002678,0.000431,0.766754
4578000,0.0324,0.013523,0.002678,0.000431,0.799192
4579000,0.0324,0.013523,0.002678,0.000431,0.788144
4580000,0.0324,0.013523,0.002678,0.000431,0.756999
4581000,0.0324,0.013523,0.002678,0.000431,0.768869
4582000,0.0324,0.013523,0.002678,0.000431,0.773806
4583000,0.0324,0.013523,0.002678,0.000431,0.690831
4584000,0.0324,0.013523,0.002678,0.000431,0.702819
4585000,0.0324,0.013523,0.002678,0.000431,0.884987
4586000,0.0324,0.013523,0.002678,0.000431,0.723621
4587000,0.0324,0.013523,0.002678,0.000431,0.640411
4588000,0.0324,0.013523,0.002678,0.000431,0.708225
4589000,0.0324,0.013523,0.002678,0.000431,0.743601
4590000,0.0324,0.013523,0.002678,0.000431,0.789907
4591000,0.0324,0.013523,0.002678,0.000431,0.712221
4592000,0.0324,0.013523,0.002678,0.000431,0.692006
4593000,0.0324,0.013523,0.002678,0.000431,0.638766
4594000,0.0324,0.013523,0.002678,0.000431,0.643819
4595000,0.0324,0.013523,0.002678,0.000431,0.662624
4596000,0.0324,0.013523,0.002678,0.000431,0.645817
4597000,0.0324,0.013523,0.002678,0.000431,0.637120
4598000,0.0324,0.013523,0.002678,0.000431,0.625250
4599000,0.0324,0.013523,0.002678,0.000431,0.624310
4600000,0.0324,0.013523,0.002678,0.000431,0.682134
4601000,0.0324,0.013523,0.002678,0.000431,0.677550
4602000,0.0324,0.013523,0.002678,0.000431,0.624662
4603000,0.0324,0.013523,0.002678,0.000431,0.575065
4604000,0.0324,0.013523,0.002678,0.000431,0.591167
4605000,0.0324,0.013523,0.002678,0.000431,0.568484
4606000,0.0324,0.013523,0.002678,0.000431,0.532873
4607000,0.0324,0.013523,0.002678,0.000431,0.459653
4608000,0.0324,0.013523,0.002678,0.000431,0.439673
4609000,0.0324,0.013523,0.002678,0.000431,0.385492
4610000,0.0324,0.013523,0.002678,0.000431,0.376678
4611000,0.0324,0.013523,0.002678,0.000431,0.353642
4612000,0.0324,0.013523,0.002678,0.000431,0.341772
4613000,0.0324,0.013523,0.002678,0.000431,0.311332
4614000,0.0324,0.013523,0.002678,0.000431,0.301930
4615000,0.0324,0.013523,0.002678,0.000431,0.285123
4616000,0.0324,0.013523,0.002678,0.000431,0.269375
4617000,0.0324,0.013523,0.002678,0.000431,0.263968
4618000,0.0324,0.013523,0.002678,0.000431,0.251040
4619000,0.0324,0.013523,0.002678,0.000431,0.239522
4620000,0.0324,0.013523,0.002678,0.000431,0.230238
4621000,0.0324,0.013523,0.002678,0.000431,0.218485
4622000,0.0324,0.013523,0.002678,0.000431,0.217192
4623000,0.0324,0.013523,0.002678,0.000431,0.211198
4624000,0.0324,0.013523,0.002678,0.000431,0.201796
4625000,0.0324,0.013523,0.002678,0.000431,0.203206
4626000,0.0324,0.013523,0.002678,0.000431,0.191453
4627000,0.0324,0.013523,0.002678,0.000431,0.186282
4628000,0.0324,0.013523,0.002678,0.000431,0.185224
4629000,0.0324,0.013523,0.002678,0.000431,0.175705
4630000,0.0324,0.013523,0.002678,0.000431,0.171474
4631000,0.0324,0.013523,0.002678,0.000431,0.166537
4632000,0.0324,0.013523,0.002678,0.000431,0.166420
4633000,0.0324,0.013523,0.002678,0.000431,0.161601
4634000,0.0324,0.013523,0.002678,0.000431,0.159486
4635000,0.0324,0.013523,0.002678,0.000431,0.154432
4636000,0.0324,0.013523,0.002678,0.000431,0.150789
4637000,0.0324,0.013523,0.002678,0.000431,0.149613
4638000,0.0324,0.013523,0.002678,0.000431,0.144912
4639000,0.0324,0.013523,0.002678,0.000431,0.145030
4640000,0.0324,0.013523,0.002678,0.000431,0.143032
4641000,0.0324,0.013523,0.002678,0.000431,0.137626
4642000,0.0324,0.013523,0.002678,0.000431,0.135392
4643000,0.0324,0.013523,0.002678,0.000431,0.136333
4644000,0.0324,0.013523,0.002678,0.000431,0.129634
4645000,0.0324,0.013523,0.002678,0.000431,0.130456
4646000,0.0324,0.013523,0.002678,0.000431,0.125050
4647000,0.0324,0.013523,0.002678,0.000431,0.126108
4648000,0.0324,0.013523,0.002678,0.000431,0.126695
4649000,0.0324,0.013523,0.002678,0.000431,0.123287
4650000,0.0324,0.013523,0.002678,0.000431,0.121759
4651000,0.0324,0.013523,0.002678,0.000431,0.120819
4652000,0.0324,0.013523,0.002678,0.000431,0.120466
4653000,0.0324,0.013523,0.002678,0.000431,0.117646
4654000,0.0324,0.013523,0.002678,0.000431,0.112239
4655000,0.0324,0.013523,0.002678,0.000431,0.115060
4656000,0.0324,0.013523,0.002678,0.000431,0.108949
4657000,0.0324,0.013523,0.002678,0.000431,0.106716
4658000,0.0324,0.013523,0.002678,0.000431,0.107891
4659000,0.0324,0.013523,0.002678,0.000431,0.102485
4660000,0.0324,0.013523,0.002678,0.000431,0.105540
4661000,0.0324,0.013523,0.002678,0.000431,0.099899
4662000,0.0324,0.013523,0.002678,0.000431,0.102367
4663000,0.0324,0.013523,0.002678,0.000431,0.099194
4664000,0.0324,0.013523,0.002678,0.000431,0.097078
4665000,0.0324,0.013523,0.002678,0.000431,0.094023
4666000,0.0324,0.013523,0.002678,0.000431,0.094375
4667000,0.0324,0.013523,0.002678,0.000431,0.092260
4668000,0.0324,0.013523,0.002678,0.000431,0.090497
4669000,0.0324,0.013523,0.002678,0.000431,0.090849
4670000,0.0324,0.013523,0.002678,0.000431,0.091319
4671000,0.0324,0.013523,0.002678,0.000431,0.091437
4672000,0.0324,0.013523,0.002678,0.000431,0.090379
4673000,0.0324,0.013523,0.002678,0.000431,0.085796
4674000,0.0324,0.013523,0.002678,0.000431,0.085796
4675000,0.0324,0.013523,0.002678,0.000431,0.084385
4676000,0.0324,0.013523,0.002678,0.000431,0.084738
4677000,0.0324,0.013523,0.002678,0.000431,0.080272
4678000,0.0324,0.013523,0.002678,0.000431,0.081800
4679000,0.0324,0.013523,0.002678,0.000431,0.080742
4680000,0.0324,0.013523,0.002678,0.000431,0.077569
4681000,0.0324,0.013523,0.002678,0.000431,0.077334
4682000,0.0324,0.013523,0.002678,0.000431,0.076158
4683000,0.0324,0.013523,0.002678,0.000431,0.076276
4684000,0.0324,0.013523,0.002678,0.000431,0.073808
4685000,0.0324,0.013523,0.002678,0.000431,0.076863
4686000,0.0324,0.013523,0.002678,0.000431,0.074865
4687000,0.0324,0.013523,0.002678,0.000431,0.076393
4688000,0.0324,0.013523,0.002678,0.000431,0.073338
4689000,0.0324,0.013523,0.002678,0.000431,0.070869
4690000,0.0324,0.013523,0.002678,0.000431,0.073690
4691000,0.0324,0.013523,0.002678,0.000431,0.068754
4692000,0.0324,0.013523,0.002678,0.000431,0.070752
4693000,0.0324,0.013523,0.002678,0.000431,0.069694
4694000,0.0324,0.013523,0.002678,0.000431,0.067696
4695000,0.0324,0.013523,0.002678,0.000431,0.068166
4696000,0.0324,0.013523,0.002678,0.000431,0.068401
4697000,0.0324,0.013523,0.002678,0.000431,0.066638
4698000,0.0324,0.013523,0.002678,0.000431,0.064993
4699000,0.0324,0.013523,0.002678,0.000431,0.066168
4700000,0.0324,0.013523,0.002678,0.000431,0.066638
4701000,0.0324,0.013523,0.002678,0.000431,0.065816
4702000,0.0324,0.013523,0.002678,0.000431,0.065346
4703000,0.0324,0.013523,0.002678,0.000431,0.065698
4704000,0.0324,0.013523,0.002678,0.000431,0.065933
4705000,0.0324,0.013523,0.002678,0.000431,0.063348
4706000,0.0324,0.013523,0.002678,0.000431,0.065816
4707000,0.0324,0.013523,0.002678,0.000431,0.063583
4708000,0.0324,0.013523,0.002678,0.000431,0.061350
4709000,0.0324,0.013523,0.002678,0.000431,0.064170
4710000,0.0324,0.013523,0.002678,0.000431,0.061115
4711000,0.0324,0.013523,0.002678,0.000431,0.062290
4712000,0.0324,0.013523,0.002678,0.000431,0.060527
4713000,0.0324,0.013523,0.002678,0.000431,0.060880
4714000,0.0324,0.013523,0.002678,0.000431,0.059234
4715000,0.0324,0.013523,0.002678,0.000431,0.059587
4716000,0.0324,0.013523,0.002678,0.000431,0.058176
4717000,0.0324,0.013523,0.002678,0.000431,0.057236
4718000,0.0324,0.013523,0.002678,0.000431,0.055591
4719000,0.0324,0.013523,0.002678,0.000431,0.059469
4720000,0.0324,0.013523,0.002678,0.000431,0.058412
4721000,0.0324,0.013523,0.002678,0.000431,0.059117
4722000,0.0324,0.013523,0.002678,0.000431,0.056766
4723000,0.0324,0.013523,0.002678,0.000431,0.056884
4724000,0.0324,0.013523,0.002678,0.000431,0.056531
4725000,0.0324,0.013523,0.002678,0.000431,0.056061
4726000,0.0324,0.013523,0.002678,0.000431,0.055356
4727000,0.0324,0.013523,0.002678,0.000431,0.055121
4728000,0.0324,0.013523,0.002678,0.000431,0.055121
4729000,0.0324,0.013523,0.002678,0.000431,0.056061
4730000,0.0324,0.013523,0.002678,0.000431,0.055708
4731000,0.0324,0.013523,0.002678,0.000431,0.053358
4732000,0.0324,0.013523,0.002678,0.000431,0.055708
4733000,0.0324,0.013523,0.002678,0.000431,0.054886
4734000,0.0324,0.013523,0.002678,0.000431,0.053710
4735000,0.0324,0.013523,0.002678,0.000431,0.054063
4736000,0.0324,0.013523,0.002678,0.000431,0.053710
4737000,0.0324,0.013523,0.002678,0.000431,0.051712
4738000,0.0324,0.013523,0.002678,0.000431,0.050772
4739000,0.0324,0.013523,0.002678,0.000431,0.052065
4740000,0.0324,0.013523,0.002678,0.000431,0.052183
4741000,0.0324,0.013523,0.002678,0.000431,0.050185
4742000,0.0324,0.013523,0.002678,0.000431,0.048657
4743000,0.0324,0.013523,0.002678,0.000431,0.048304
4744000,0.0324,0.013523,0.002678,0.000431,0.046071
4745000,0.0324,0.013523,0.002678,0.000431,0.048539
4746000,0.0324,0.013523,0.002678,0.000431,0.049362
4747000,0.0324,0.013523,0.002678,0.000431,0.047129
4748000,0.0324,0.013523,0.002678,0.000431,0.048422
4749000,0.0324,0.013523,0.002678,0.000431,0.047834
4750000,0.0324,0.013523,0.002678,0.000431,0.047834
4751000,0.0324,0.013523,0.002678,0.000431,0.047951
4752000,0.0324,0.013523,0.002678,0.000431,0.045718
4753000,0.0324,0.013523,0.002678,0.000431,0.047716
4754000,0.0324,0.013523,0.002678,0.000431,0.045954
4755000,0.0324,0.013523,0.002678,0.000431,0.046189
4756000,0.0324,0.013523,0.002678,0.000431,0.045013
4757000,0.0324,0.013523,0.002678,0.000431,0.044073
4758000,0.0324,0.013523,0.002678,0.000431,0.044543
4759000,0.0324,0.013523,0.002678,0.000431,0.044426
4760000,0.0324,0.013523,0.002678,0.000431,0.044896
4761000,0.0324,0.013523,0.002678,0.000431,0.045131
4762000,0.0324,0.013523,0.002678,0.000431,0.043250
4763000,0.0324,0.013523,0.002678,0.000431,0.045366
4764000,0.0324,0.013523,0.002678,0.000431,0.043603
4765000,0.0324,0.013523,0.002678,0.000431,0.040782
4766000,0.0324,0.013523,0.002678,0.000431,0.042193
4767000,0.0324,0.013523,0.002678,0.000431,0.040195
4768000,0.0324,0.013523,0.002678,0.000431,0.041017
4769000,0.0324,0.013523,0.002678,0.000431,0.039607
4770000,0.0324,0.013523,0.002678,0.000431,0.041370
4771000,0.0324,0.013523,0.002678,0.000431,0.041017
4772000,0.0324,0.013523,0.002678,0.000431,0.042780
4773000,0.0324,0.013523,0.002678,0.000431,0.040312
4774000,0.0324,0.013523,0.002678,0.000431,0.040195
4775000,0.0324,0.013523,0.002678,0.000431,0.040430
4776000,0.0324,0.013523,0.002678,0.000431,0.040900
4777000,0.0324,0.013523,0.002678,0.000431,0.040195
4778000,0.0324,0.013523,0.002678,0.000431,0.039254
4779000,0.0324,0.013523,0.002678,0.000431,0.041135
4780000,0.0324,0.013523,0.002678,0.000431,0.039842
4781000,0.0324,0.013523,0.002678,0.000431,0.039372
4782000,0.0324,0.013523,0.002678,0.000431,0.041487
4783000,0.0324,0.013523,0.002678,0.000431,0.039842
4784000,0.0324,0.013523,0.002678,0.000431,0.040077
4785000,0.0324,0.013523,0.002678,0.000431,0.040900
4786000,0.0324,0.013523,0.002678,0.000431,0.038197
4787000,0.0324,0.013523,0.002678,0.000431,0.039607
4788000,0.0324,0.013523,0.002678,0.000431,0.038079
4789000,0.0324,0.013523,0.002678,0.000431,0.037021
4790000,0.0324,0.013523,0.002678,0.000431,0.037374
4791000,0.0324,0.013523,0.002678,0.000431,0.038314
4792000,0.0324,0.013523,0.002678,0.000431,0.036669
4793000,0.0324,0.013523,0.002678,0.000431,0.036669
4794000,0.0324,0.013523,0.002678,0.000431,0.036199
4795000,0.0324,0.013523,0.002678,0.000431,0.037139
4796000,0.0324,0.013523,0.002678,0.000431,0.037139
4797000,0.0324,0.013523,0.002678,0.000431,0.036786
4798000,0.0324,0.013523,0.002678,0.000431,0.036786
4799000,0.0324,0.013523,0.002678,0.000431,0.035846
4800000,0.0324,0.013523,0.002678,0.000431,0.035729
4801000,0.0324,0.013523,0.002678,0.000431,0.032673
4802000,0.0324,0.013523,0.002678,0.000431,0.033260
4803000,0.0324,0.013523,0.002678,0.000431,0.032908
4804000,0.0324,0.013523,0.002678,0.000431,0.033025
4805000,0.0324,0.013523,0.002678,0.000431,0.033143
4806000,0.0324,0.013523,0.002678,0.000431,0.032085
4807000,0.0324,0.013523,0.002678,0.000431,0.033260
4808000,0.0324,0.013523,0.002678,0.000431,0.033378
4809000,0.0324,0.013523,0.002678,0.000431,0.033378
4810000,0.0324,0.013523,0.002678,0.000431,0.032320
4811000,0.0324,0.013523,0.002678,0.000431,0.033378
4812000,0.0324,0.013523,0.002678,0.000431,0.032673
4813000,0.0324,0.013523,0.002678,0.000431,0.033613
4814000,0.0324,0.013523,0.002678,0.000431,0.032908
4815000,0.0324,0.013523,0.002678,0.000431,0.032203
4816000,0.0324,0.013523,0.002678,0.000431,0.032203
4817000,0.0324,0.013523,0.002678,0.000431,0.032908
4818000,0.0324,0.013523,0.002678,0.000431,0.031968
4819000,0.0324,0.013523,0.002678,0.000431,0.032555
4820000,0.0324,0.013523,0.002678,0.000431,0.032438
4821000,0.0324,0.013523,0.002678,0.000431,0.030910
4822000,0.0324,0.013523,0.002678,0.000431,0.031850
4823000,0.0324,0.013523,0.002678,0.000431,0.031968
4824000,0.0324,0.013523,0.002678,0.000431,0.031615
4825000,0.0324,0.013523,0.002678,0.000431,0.031733
4826000,0.0324,0.013523,0.002678,0.000431,0.030675
4827000,0.0324,0.013523,0.002678,0.000431,0.030557
4828000,0.0324,0.013523,0.002678,0.000431,0.032438
4829000,0.0324,0.013523,0.002678,0.000431,0.031380
4830000,0.0324,0.013523,0.002678,0.000431,0.029029
4831000,0.0324,0.013523,0.002678,0.000431,0.030675
4832000,0.0324,0.013523,0.002678,0.000431,0.030792
4833000,0.0324,0.013523,0.002678,0.000431,0.031262
4834000,0.0324,0.013523,0.002678,0.000431,0.030792
4835000,0.0324,0.013523,0.002678,0.000431,0.030910
4836000,0.0324,0.013523,0.002678,0.000431,0.030557
4837000,0.0324,0.013523,0.002678,0.000431,0.030440
4838000,0.0324,0.013523,0.002678,0.000431,0.031027
4839000,0.0324,0.013523,0.002678,0.000431,0.030087
4840000,0.0324,0.013523,0.002678,0.000431,0.030322
4841000,0.0324,0.013523,0.002678,0.000431,0.030557
4842000,0.0324,0.013523,0.002678,0.000431,0.030675
4843000,0.0324,0.013523,0.002678,0.000431,0.030792
4844000,0.0324,0.013523,0.002678,0.000431,0.029735
4845000,0.0324,0.013523,0.002678,0.000431,0.029735
4846000,0.0324,0.013523,0.002678,0.000431,0.030910
4847000,0.0324,0.013523,0.002678,0.000431,0.030087
4848000,0.0324,0.013523,0.002678,0.000431,0.029265
4849000,0.0324,0.013523,0.002678,0.000431,0.030675
4850000,0.0324,0.013523,0.002678,0.000431,0.030322
4851000,0.0324,0.013523,0.002678,0.000431,0.029852
4852000,0.0324,0.013523,0.002678,0.000431,0.029382
4853000,0.0324,0.013523,0.002678,0.000431,0.030675
4854000,0.0324,0.013523,0.002678,0.000431,0.029970
4855000,0.0324,0.013523,0.002678,0.000431,0.030792
4856000,0.0324,0.013523,0.002678,0.000431,0.029265
4857000,0.0324,0.013523,0.002678,0.000431,0.028677
4858000,0.0324,0.013523,0.002678,0.000431,0.028324
4859000,0.0324,0.013523,0.002678,0.000431,0.029852
4860000,0.0324,0.013523,0.002678,0.000431,0.029382
4861000,0.0324,0.013523,0.002678,0.000431,0.029852
4862000,0.0324,0.013523,0.002678,0.000431,0.028794
4863000,0.0324,0.013523,0.002678,0.000431,0.028559
4864000,0.0324,0.013523,0.002678,0.000431,0.028794
4865000,0.0324,0.013523,0.002678,0.000431,0.027267
4866000,0.0324,0.013523,0.002678,0.000431,0.027854
4867000,0.0324,0.013523,0.002678,0.000431,0.027619
4868000,0.0324,0.013523,0.002678,0.000431,0.029029
4869000,0.0324,0.013523,0.002678,0.000431,0.028912
4870000,0.0324,0.013523,0.002678,0.000431,0.027972
4871000,0.0324,0.013523,0.002678,0.000431,0.028089
4872000,0.0324,0.013523,0.002678,0.000431,0.027737
4873000,0.0324,0.013523,0.002678,0.000431,0.027384
4874000,0.0324,0.013523,0.002678,0.000431,0.029029
4875000,0.0324,0.013523,0.002678,0.000431,0.028794
4876000,0.0324,0.013523,0.002678,0.000431,0.027384
4877000,0.0324,0.013523,0.002678,0.000431,0.028324
4878000,0.0324,0.013523,0.002678,0.000431,0.027384
4879000,0.0324,0.013523,0.002678,0.000431,0.026796
4880000,0.0324,0.013523,0.002678,0.000431,0.027384
4881000,0.0324,0.013523,0.002678,0.000431,0.028794
4882000,0.0324,0.013523,0.002678,0.000431,0.027267
4883000,0.0324,0.013523,0.002678,0.000431,0.027384
4884000,0.0324,0.013523,0.002678,0.000431,0.026091
4885000,0.0324,0.013523,0.002678,0.000431,0.027972
4886000,0.0324,0.013523,0.002678,0.000431,0.027854
4887000,0.0324,0.013523,0.002678,0.000431,0.028442
4888000,0.0324,0.013523,0.002678,0.000431,0.027384
4889000,0.0324,0.013523,0.002678,0.000431,0.026914
4890000,0.0324,0.013523,0.002678,0.000431,0.027384
4891000,0.0324,0.013523,0.002678,0.000431,0.027737
4892000,0.0324,0.013523,0.002678,0.000431,0.027502
4893000,0.0324,0.013523,0.002678,0.000431,0.027267
4894000,0.0324,0.013523,0.002678,0.000431,0.027737
4895000,0.0324,0.013523,0.002678,0.000431,0.027737
4896000,0.0324,0.013523,0.002678,0.000431,0.027854
4897000,0.0324,0.013523,0.002678,0.000431,0.028559
4898000,0.0324,0.013523,0.002678,0.000431,0.027619
4899000,0.0324,0.013523,0.002678,0.000431,0.027619
4900000,0.0324,0.013523,0.002678,0.000431,0.028089
4901000,0.0324,0.013523,0.002678,0.000431,0.028207
4902000,0.0324,0.013523,0.002678,0.000431,0.027149
4903000,0.0324,0.013523,0.002678,0.000431,0.026679
4904000,0.0324,0.013523,0.002678,0.000431,0.026914
4905000,0.0324,0.013523,0.002678,0.000431,0.025739
4906000,0.0324,0.013523,0.002678,0.000431,0.027384
4907000,0.0324,0.013523,0.002678,0.000431,0.025621
4908000,0.0324,0.013523,0.002678,0.000431,0.025386
4909000,0.0324,0.013523,0.002678,0.000431,0.026561
4910000,0.0324,0.013523,0.002678,0.000431,0.027384
4911000,0.0324,0.013523,0.002678,0.000431,0.026796
4912000,0.0324,0.013523,0.002678,0.000431,0.025739
4913000,0.0324,0.013523,0.002678,0.000431,0.026561
4914000,0.0324,0.013523,0.002678,0.000431,0.026091
4915000,0.0324,0.013523,0.002678,0.000431,0.026561
4916000,0.0324,0.013523,0.002678,0.000431,0.024563
4917000,0.0324,0.013523,0.002678,0.000431,0.026209
4918000,0.0324,0.013523,0.002678,0.000431,0.024916
4919000,0.0324,0.013523,0.002678,0.000431,0.026091
4920000,0.0324,0.013523,0.002678,0.000431,0.026091
4921000,0.0324,0.013523,0.002678,0.000431,0.026561
4922000,0.0324,0.013523,0.002678,0.000431,0.026796
4923000,0.0324,0.013523,0.002678,0.000431,0.025856
4924000,0.0324,0.013523,0.002678,0.000431,0.025386
4925000,0.0324,0.013523,0.002678,0.000431,0.024798
4926000,0.0324,0.013523,0.002678,0.000431,0.025739
4927000,0.0324,0.013523,0.002678,0.000431,0.024916
4928000,0.0324,0.013523,0.002678,0.000431,0.024916
4929000,0.0324,0.013523,0.002678,0.000431,0.024328
4930000,0.0324,0.013523,0.002678,0.000431,0.025739
4931000,0.0324,0.013523,0.002678,0.000431,0.024681
4932000,0.0324,0.013523,0.002678,0.000431,0.024093
4933000,0.0324,0.013523,0.002678,0.000431,0.023388
4934000,0.0324,0.013523,0.002678,0.000431,0.025386
4935000,0.0324,0.013523,0.002678,0.000431,0.024916
4936000,0.0324,0.013523,0.002678,0.000431,0.024093
4937000,0.0324,0.013523,0.002678,0.000431,0.024798
4938000,0.0324,0.013523,0.002678,0.000431,0.026091
4939000,0.0324,0.013523,0.002678,0.000431,0.024211
4940000,0.0324,0.013523,0.002678,0.000431,0.024563
4941000,0.0324,0.013523,0.002678,0.000431,0.024681
4942000,0.0324,0.013523,0.002678,0.000431,0.023036
4943000,0.0324,0.013523,0.002678,0.000431,0.024093
4944000,0.0324,0.013523,0.002678,0.000431,0.024446
4945000,0.0324,0.013523,0.002678,0.000431,0.023623
4946000,0.0324,0.013523,0.002678,0.000431,0.023271
4947000,0.0324,0.013523,0.002678,0.000431,0.024093
4948000,0.0324,0.013523,0.002678,0.000431,0.024681
4949000,0.0324,0.013523,0.002678,0.000431,0.023153
4950000,0.0324,0.013523,0.002678,0.000431,0.024211
4951000,0.0324,0.013523,0.002678,0.000431,0.023271
4952000,0.0324,0.013523,0.002678,0.000431,0.024563
4953000,0.0324,0.013523,0.002678,0.000431,0.024211
4954000,0.0324,0.013523,0.002678,0.000431,0.024563
4955000,0.0324,0.013523,0.002678,0.000431,0.024093
4956000,0.0324,0.013523,0.002678,0.000431,0.023858
4957000,0.0324,0.013523,0.002678,0.000431,0.023741
4958000,0.0324,0.013523,0.002678,0.000431,0.023976
4959000,0.0324,0.013523,0.002678,0.000431,0.023741
4960000,0.0324,0.013523,0.002678,0.000431,0.023506
4961000,0.0324,0.013523,0.002678,0.000431,0.023036
4962000,0.0324,0.013523,0.002678,0.000431,0.024093
4963000,0.0324,0.013523,0.002678,0.000431,0.022683
4964000,0.0324,0.013523,0.002678,0.000431,0.024328
4965000,0.0324,0.013523,0.002678,0.000431,0.023388
4966000,0.0324,0.013523,0.002678,0.000431,0.023506
4967000,0.0324,0.013523,0.002678,0.000431,0.023271
4968000,0.0324,0.013523,0.002678,0.000431,0.023388
4969000,0.0324,0.013523,0.002678,0.000431,0.023153
4970000,0.0324,0.013523,0.002678,0.000431,0.023741
4971000,0.0324,0.013523,0.002678,0.000431,0.022330
4972000,0.0324,0.013523,0.002678,0.000431,0.023271
4973000,0.0324,0.013523,0.002678,0.000431,0.022213
4974000,0.0324,0.013523,0.002678,0.000431,0.023388
4975000,0.0324,0.013523,0.002678,0.000431,0.024211
4976000,0.0324,0.013523,0.002678,0.000431,0.021390
4977000,0.0324,0.013523,0.002678,0.000431,0.022448
4978000,0.0324,0.013523,0.002678,0.000431,0.023036
4979000,0.0324,0.013523,0.002678,0.000431,0.022448
4980000,0.0324,0.013523,0.002678,0.000431,0.022330
4981000,0.0324,0.013523,0.002678,0.000431,0.022330
4982000,0.0324,0.013523,0.002678,0.000431,0.021508
4983000,0.0324,0.013523,0.002678,0.000431,0.021978
4984000,0.0324,0.013523,0.002678,0.000431,0.021978
4985000,0.0324,0.013523,0.002678,0.000431,0.022565
4986000,0.0324,0.013523,0.002678,0.000431,0.022448
4987000,0.0324,0.013523,0.002678,0.000431,0.021273
4988000,0.0324,0.013523,0.002678,0.000431,0.022095
4989000,0.0324,0.013523,0.002678,0.000431,0.022213
4990000,0.0324,0.013523,0.002678,0.000431,0.021860
4991000,0.0324,0.013523,0.002678,0.000431,0.021860
4992000,0.0324,0.013523,0.002678,0.000431,0.022683
4993000,0.0324,0.013523,0.002678,0.000431,0.021978
4994000,0.0324,0.013523,0.002678,0.000431,0.022213
4995000,0.0324,0.013523,0.002678,0.000431,0.022095
4996000,0.0324,0.013523,0.002678,0.000431,0.021978
4997000,0.0324,0.013523,0.002678,0.000431,0.022330
4998000,0.0324,0.013523,0.002678,0.000431,0.022565
4999000,0.0324,0.013523,0.002678,0.000431,0.022330
