Cycle,Area(mm^2),PeakDynamic(W),SubthresholdLeakage(W),GateLeakage(W),RunTimeDynamic(W)
1000000,0.0324,0.013523,0.002678,0.000431,0.985474
1001000,0.0324,0.013523,0.002678,0.000431,1.101474
1002000,0.0324,0.013523,0.002678,0.000431,1.039772
1003000,0.0324,0.013523,0.002678,0.000431,1.049762
1004000,0.0324,0.013523,0.002678,0.000431,0.967022
1005000,0.0324,0.013523,0.002678,0.000431,1.013328
1006000,0.0324,0.013523,0.002678,0.000431,1.155890
1007000,0.0324,0.013523,0.002678,0.000431,1.108643
1008000,0.0324,0.013523,0.002678,0.000431,1.004631
1009000,0.0324,0.013523,0.002678,0.000431,0.969725
1010000,0.0324,0.013523,0.002678,0.000431,0.986179
1011000,0.0324,0.013523,0.002678,0.000431,1.015208
1012000,0.0324,0.013523,0.002678,0.000431,0.952096
1013000,0.0324,0.013523,0.002678,0.000431,0.821404
1014000,0.0324,0.013523,0.002678,0.000431,0.776626
1015000,0.0324,0.013523,0.002678,0.000431,0.816821
1016000,0.0324,0.013523,0.002678,0.000431,0.816586
1017000,0.0324,0.013523,0.002678,0.000431,0.787439
1018000,0.0324,0.013523,0.002678,0.000431,0.806243
1019000,0.0324,0.013523,0.002678,0.000431,0.733376
1020000,0.0324,0.013523,0.002678,0.000431,0.742073
1021000,0.0324,0.013523,0.002678,0.000431,0.777449
1022000,0.0324,0.013523,0.002678,0.000431,0.747127
1023000,0.0324,0.013523,0.002678,0.000431,0.740192
1024000,0.0324,0.013523,0.002678,0.000431,0.731848
1025000,0.0324,0.013523,0.002678,0.000431,0.809064
1026000,0.0324,0.013523,0.002678,0.000431,0.741015
1027000,0.0324,0.013523,0.002678,0.000431,0.683544
1028000,0.0324,0.013523,0.002678,0.000431,0.774393
1029000,0.0324,0.013523,0.002678,0.000431,0.882519
1030000,0.0324,0.013523,0.002678,0.000431,0.875938
1031000,0.0324,0.013523,0.002678,0.000431,0.817526
1032000,0.0324,0.013523,0.002678,0.000431,0.900266
1033000,0.0324,0.013523,0.002678,0.000431,0.935642
1034000,0.0324,0.013523,0.002678,0.000431,0.970900
1035000,0.0324,0.013523,0.002678,0.000431,1.039302
1036000,0.0324,0.013523,0.002678,0.000431,0.931646
1037000,0.0324,0.013523,0.002678,0.000431,0.898503
1038000,0.0324,0.013523,0.002678,0.000431,0.961498
1039000,0.0324,0.013523,0.002678,0.000431,0.923301
1040000,0.0324,0.013523,0.002678,0.000431,0.781092
1041000,0.0324,0.013523,0.002678,0.000431,0.844793
1042000,0.0324,0.013523,0.002678,0.000431,0.841737
1043000,0.0324,0.013523,0.002678,0.000431,0.735726
1044000,0.0324,0.013523,0.002678,0.000431,0.697060
1045000,0.0324,0.013523,0.002678,0.000431,0.682134
1046000,0.0324,0.013523,0.002678,0.000431,0.639118
1047000,0.0324,0.013523,0.002678,0.000431,0.632889
1048000,0.0324,0.013523,0.002678,0.000431,0.596456
1049000,0.0324,0.013523,0.002678,0.000431,0.529229
1050000,0.0324,0.013523,0.002678,0.000431,0.572715
1051000,0.0324,0.013523,0.002678,0.000431,0.670498
1052000,0.0324,0.013523,0.002678,0.000431,0.776979
1053000,0.0324,0.013523,0.002678,0.000431,0.713279
1054000,0.0324,0.013523,0.002678,0.000431,0.663799
1055000,0.0324,0.013523,0.002678,0.000431,0.697060
1056000,0.0324,0.013523,0.002678,0.000431,0.785676
1057000,0.0324,0.013523,0.002678,0.000431,0.891569
1058000,0.0324,0.013523,0.002678,0.000431,0.827986
1059000,0.0324,0.013523,0.002678,0.000431,0.796606
1060000,0.0324,0.013523,0.002678,0.000431,0.901794
1061000,0.0324,0.013523,0.002678,0.000431,1.007217
1062000,0.0324,0.013523,0.002678,0.000431,0.918013
1063000,0.0324,0.013523,0.002678,0.000431,0.852197
1064000,0.0324,0.013523,0.002678,0.000431,0.830219
1065000,0.0324,0.013523,0.002678,0.000431,0.882519
1066000,0.0324,0.013523,0.002678,0.000431,0.855018
1067000,0.0324,0.013523,0.002678,0.000431,0.806008
1068000,0.0324,0.013523,0.002678,0.000431,0.837741
1069000,0.0324,0.013523,0.002678,0.000431,0.721741
1070000,0.0324,0.013523,0.002678,0.000431,0.680136
1071000,0.0324,0.013523,0.002678,0.000431,0.690596
1072000,0.0324,0.013523,0.002678,0.000431,0.674612
1073000,0.0324,0.013523,0.002678,0.000431,0.651576
1074000,0.0324,0.013523,0.002678,0.000431,0.626660
1075000,0.0324,0.013523,0.002678,0.000431,0.604212
1076000,0.0324,0.013523,0.002678,0.000431,0.637825
1077000,0.0324,0.013523,0.002678,0.000431,0.665562
1078000,0.0324,0.013523,0.002678,0.000431,0.629128
1079000,0.0324,0.013523,0.002678,0.000431,0.664269
1080000,0.0324,0.013523,0.002678,0.000431,0.671439
1081000,0.0324,0.013523,0.002678,0.000431,0.849494
1082000,0.0324,0.013523,0.002678,0.000431,1.002986
1083000,0.0324,0.013523,0.002678,0.000431,1.048704
1084000,0.0324,0.013523,0.002678,0.000431,1.044943
1085000,0.0324,0.013523,0.002678,0.000431,1.067626
1086000,0.0324,0.013523,0.002678,0.000431,1.228052
1087000,0.0324,0.013523,0.002678,0.000431,1.194204
1088000,0.0324,0.013523,0.002678,0.000431,1.091014
1089000,0.0324,0.013523,0.002678,0.000431,1.135087
1090000,0.0324,0.013523,0.002678,0.000431,1.163529
1091000,0.0324,0.013523,0.002678,0.000431,1.161296
1092000,0.0324,0.013523,0.002678,0.000431,1.182216
1093000,0.0324,0.013523,0.002678,0.000431,1.173166
1094000,0.0324,0.013523,0.002678,0.000431,1.106645
1095000,0.0324,0.013523,0.002678,0.000431,1.124040
1096000,0.0324,0.013523,0.002678,0.000431,1.181746
1097000,0.0324,0.013523,0.002678,0.000431,1.216417
1098000,0.0324,0.013523,0.002678,0.000431,1.192088
1099000,0.0324,0.013523,0.002678,0.000431,1.231343
1100000,0.0324,0.013523,0.002678,0.000431,1.218062
1101000,0.0324,0.013523,0.002678,0.000431,1.215829
1102000,0.0324,0.013523,0.002678,0.000431,1.219237
1103000,0.0324,0.013523,0.002678,0.000431,1.099829
1104000,0.0324,0.013523,0.002678,0.000431,0.991703
1105000,0.0324,0.013523,0.002678,0.000431,0.969960
1106000,0.0324,0.013523,0.002678,0.000431,0.865125
1107000,0.0324,0.013523,0.002678,0.000431,0.760290
1108000,0.0324,0.013523,0.002678,0.000431,0.765931
1109000,0.0324,0.013523,0.002678,0.000431,0.741250
1110000,0.0324,0.013523,0.002678,0.000431,0.745364
1111000,0.0324,0.013523,0.002678,0.000431,0.783090
1112000,0.0324,0.013523,0.002678,0.000431,0.849611
1113000,0.0324,0.013523,0.002678,0.000431,0.827633
1114000,0.0324,0.013523,0.002678,0.000431,0.829161
1115000,0.0324,0.013523,0.002678,0.000431,0.833510
1116000,0.0324,0.013523,0.002678,0.000431,0.843500
1117000,0.0324,0.013523,0.002678,0.000431,0.925534
1118000,0.0324,0.013523,0.002678,0.000431,0.866888
1119000,0.0324,0.013523,0.002678,0.000431,0.782973
1120000,0.0324,0.013523,0.002678,0.000431,0.740663
1121000,0.0324,0.013523,0.002678,0.000431,0.751005
1122000,0.0324,0.013523,0.002678,0.000431,0.813413
1123000,0.0324,0.013523,0.002678,0.000431,0.820229
1124000,0.0324,0.013523,0.002678,0.000431,0.766519
1125000,0.0324,0.013523,0.002678,0.000431,0.830572
1126000,0.0324,0.013523,0.002678,0.000431,0.783090
1127000,0.0324,0.013523,0.002678,0.000431,0.685894
1128000,0.0324,0.013523,0.002678,0.000431,0.705874
1129000,0.0324,0.013523,0.002678,0.000431,0.748772
1130000,0.0324,0.013523,0.002678,0.000431,0.695532
1131000,0.0324,0.013523,0.002678,0.000431,0.728205
1132000,0.0324,0.013523,0.002678,0.000431,0.720330
1133000,0.0324,0.013523,0.002678,0.000431,0.616670
1134000,0.0324,0.013523,0.002678,0.000431,0.625603
1135000,0.0324,0.013523,0.002678,0.000431,0.744659
1136000,0.0324,0.013523,0.002678,0.000431,0.740898
1137000,0.0324,0.013523,0.002678,0.000431,0.703759
1138000,0.0324,0.013523,0.002678,0.000431,0.715512
1139000,0.0324,0.013523,0.002678,0.000431,0.699880
1140000,0.0324,0.013523,0.002678,0.000431,0.792022
1141000,0.0324,0.013523,0.002678,0.000431,0.750065
1142000,0.0324,0.013523,0.002678,0.000431,0.743366
1143000,0.0324,0.013523,0.002678,0.000431,0.731730
1144000,0.0324,0.013523,0.002678,0.000431,0.766166
1145000,0.0324,0.013523,0.002678,0.000431,0.822345
1146000,0.0324,0.013523,0.002678,0.000431,0.854077
1147000,0.0324,0.013523,0.002678,0.000431,0.912019
1148000,0.0324,0.013523,0.002678,0.000431,0.898620
1149000,0.0324,0.013523,0.002678,0.000431,0.834685
1150000,0.0324,0.013523,0.002678,0.000431,0.830454
1151000,0.0324,0.013523,0.002678,0.000431,0.856310
1152000,0.0324,0.013523,0.002678,0.000431,0.885575
1153000,0.0324,0.013523,0.002678,0.000431,0.856663
1154000,0.0324,0.013523,0.002678,0.000431,0.799192
1155000,0.0324,0.013523,0.002678,0.000431,0.751240
1156000,0.0324,0.013523,0.002678,0.000431,0.929765
1157000,0.0324,0.013523,0.002678,0.000431,0.979362
1158000,0.0324,0.013523,0.002678,0.000431,0.930353
1159000,0.0324,0.013523,0.002678,0.000431,0.823873
1160000,0.0324,0.013523,0.002678,0.000431,0.831747
1161000,0.0324,0.013523,0.002678,0.000431,0.997109
1162000,0.0324,0.013523,0.002678,0.000431,1.081377
1163000,0.0324,0.013523,0.002678,0.000431,0.974074
1164000,0.0324,0.013523,0.002678,0.000431,0.944574
1165000,0.0324,0.013523,0.002678,0.000431,0.930118
1166000,0.0324,0.013523,0.002678,0.000431,1.000047
1167000,0.0324,0.013523,0.002678,0.000431,1.118398
1168000,0.0324,0.013523,0.002678,0.000431,1.044590
1169000,0.0324,0.013523,0.002678,0.000431,0.914839
1170000,0.0324,0.013523,0.002678,0.000431,0.906377
1171000,0.0324,0.013523,0.002678,0.000431,0.903909
1172000,0.0324,0.013523,0.002678,0.000431,0.878406
1173000,0.0324,0.013523,0.002678,0.000431,0.830337
1174000,0.0324,0.013523,0.002678,0.000431,0.880991
1175000,0.0324,0.013523,0.002678,0.000431,0.955269
1176000,0.0324,0.013523,0.002678,0.000431,0.944809
1177000,0.0324,0.013523,0.002678,0.000431,0.854900
1178000,0.0324,0.013523,0.002678,0.000431,0.785911
1179000,0.0324,0.013523,0.002678,0.000431,0.870884
1180000,0.0324,0.013523,0.002678,0.000431,0.982653
1181000,0.0324,0.013523,0.002678,0.000431,0.980655
1182000,0.0324,0.013523,0.002678,0.000431,0.909433
1183000,0.0324,0.013523,0.002678,0.000431,0.829279
1184000,0.0324,0.013523,0.002678,0.000431,0.981948
1185000,0.0324,0.013523,0.002678,0.000431,1.110759
1186000,0.0324,0.013523,0.002678,0.000431,1.133089
1187000,0.0324,0.013523,0.002678,0.000431,1.021672
1188000,0.0324,0.013523,0.002678,0.000431,0.918130
1189000,0.0324,0.013523,0.002678,0.000431,0.932116
1190000,0.0324,0.013523,0.002678,0.000431,0.932586
1191000,0.0324,0.013523,0.002678,0.000431,0.956914
1192000,0.0324,0.013523,0.002678,0.000431,0.849494
1193000,0.0324,0.013523,0.002678,0.000431,0.769692
1194000,0.0324,0.013523,0.002678,0.000431,0.721976
1195000,0.0324,0.013523,0.002678,0.000431,0.662389
1196000,0.0324,0.013523,0.002678,0.000431,0.640999
1197000,0.0324,0.013523,0.002678,0.000431,0.699058
1198000,0.0324,0.013523,0.002678,0.000431,0.781092
1199000,0.0324,0.013523,0.002678,0.000431,0.810122
1200000,0.0324,0.013523,0.002678,0.000431,0.740310
1201000,0.0324,0.013523,0.002678,0.000431,0.688245
1202000,0.0324,0.013523,0.002678,0.000431,0.717862
1203000,0.0324,0.013523,0.002678,0.000431,0.752886
1204000,0.0324,0.013523,0.002678,0.000431,0.831747
1205000,0.0324,0.013523,0.002678,0.000431,0.839974
1206000,0.0324,0.013523,0.002678,0.000431,0.689068
1207000,0.0324,0.013523,0.002678,0.000431,0.697412
1208000,0.0324,0.013523,0.002678,0.000431,0.688010
1209000,0.0324,0.013523,0.002678,0.000431,0.752533
1210000,0.0324,0.013523,0.002678,0.000431,0.831277
1211000,0.0324,0.013523,0.002678,0.000431,0.770045
1212000,0.0324,0.013523,0.002678,0.000431,0.687892
1213000,0.0324,0.013523,0.002678,0.000431,0.708695
1214000,0.0324,0.013523,0.002678,0.000431,0.771102
1215000,0.0324,0.013523,0.002678,0.000431,0.757939
1216000,0.0324,0.013523,0.002678,0.000431,0.824108
1217000,0.0324,0.013523,0.002678,0.000431,0.796371
1218000,0.0324,0.013523,0.002678,0.000431,0.893684
1219000,0.0324,0.013523,0.002678,0.000431,1.023788
1220000,0.0324,0.013523,0.002678,0.000431,0.965964
1221000,0.0324,0.013523,0.002678,0.000431,1.055991
1222000,0.0324,0.013523,0.002678,0.000431,1.193734
1223000,0.0324,0.013523,0.002678,0.000431,1.080084
1224000,0.0324,0.013523,0.002678,0.000431,1.005689
1225000,0.0324,0.013523,0.002678,0.000431,1.101944
1226000,0.0324,0.013523,0.002678,0.000431,1.090309
1227000,0.0324,0.013523,0.002678,0.000431,1.143432
1228000,0.0324,0.013523,0.002678,0.000431,1.074208
1229000,0.0324,0.013523,0.002678,0.000431,0.956562
1230000,0.0324,0.013523,0.002678,0.000431,0.896270
1231000,0.0324,0.013523,0.002678,0.000431,0.926005
1232000,0.0324,0.013523,0.002678,0.000431,0.976542
1233000,0.0324,0.013523,0.002678,0.000431,0.976777
1234000,0.0324,0.013523,0.002678,0.000431,0.884987
1235000,0.0324,0.013523,0.002678,0.000431,0.807889
1236000,0.0324,0.013523,0.002678,0.000431,0.850081
1237000,0.0324,0.013523,0.002678,0.000431,0.836801
1238000,0.0324,0.013523,0.002678,0.000431,0.809299
1239000,0.0324,0.013523,0.002678,0.000431,0.820229
1240000,0.0324,0.013523,0.002678,0.000431,0.864772
1241000,0.0324,0.013523,0.002678,0.000431,0.813295
1242000,0.0324,0.013523,0.002678,0.000431,0.861011
1243000,0.0324,0.013523,0.002678,0.000431,0.995464
1244000,0.0324,0.013523,0.002678,0.000431,1.000752
1245000,0.0324,0.013523,0.002678,0.000431,0.878876
1246000,0.0324,0.013523,0.002678,0.000431,0.927650
1247000,0.0324,0.013523,0.002678,0.000431,0.973956
1248000,0.0324,0.013523,0.002678,0.000431,0.898385
1249000,0.0324,0.013523,0.002678,0.000431,0.845498
1250000,0.0324,0.013523,0.002678,0.000431,0.872882
1251000,0.0324,0.013523,0.002678,0.000431,0.843147
1252000,0.0324,0.013523,0.002678,0.000431,0.802953
1253000,0.0324,0.013523,0.002678,0.000431,0.759702
1254000,0.0324,0.013523,0.002678,0.000431,0.806008
1255000,0.0324,0.013523,0.002678,0.000431,0.745481
1256000,0.0324,0.013523,0.002678,0.000431,0.787909
1257000,0.0324,0.013523,0.002678,0.000431,0.814470
1258000,0.0324,0.013523,0.002678,0.000431,0.886162
1259000,0.0324,0.013523,0.002678,0.000431,0.854312
1260000,0.0324,0.013523,0.002678,0.000431,0.803893
1261000,0.0324,0.013523,0.002678,0.000431,0.843500
1262000,0.0324,0.013523,0.002678,0.000431,0.863832
1263000,0.0324,0.013523,0.002678,0.000431,0.895800
1264000,0.0324,0.013523,0.002678,0.000431,0.844087
1265000,0.0324,0.013523,0.002678,0.000431,0.819759
1266000,0.0324,0.013523,0.002678,0.000431,0.740428
1267000,0.0324,0.013523,0.002678,0.000431,0.700350
1268000,0.0324,0.013523,0.002678,0.000431,0.676492
1269000,0.0324,0.013523,0.002678,0.000431,0.676375
1270000,0.0324,0.013523,0.002678,0.000431,0.653457
1271000,0.0324,0.013523,0.002678,0.000431,0.653809
1272000,0.0324,0.013523,0.002678,0.000431,0.578944
1273000,0.0324,0.013523,0.002678,0.000431,0.518417
1274000,0.0324,0.013523,0.002678,0.000431,0.539219
1275000,0.0324,0.013523,0.002678,0.000431,0.538397
1276000,0.0324,0.013523,0.002678,0.000431,0.570247
1277000,0.0324,0.013523,0.002678,0.000431,0.683896
1278000,0.0324,0.013523,0.002678,0.000431,0.764638
1279000,0.0324,0.013523,0.002678,0.000431,0.702231
1280000,0.0324,0.013523,0.002678,0.000431,0.610794
1281000,0.0324,0.013523,0.002678,0.000431,0.649696
1282000,0.0324,0.013523,0.002678,0.000431,0.680958
1283000,0.0324,0.013523,0.002678,0.000431,0.759232
1284000,0.0324,0.013523,0.002678,0.000431,0.724796
1285000,0.0324,0.013523,0.002678,0.000431,0.600804
1286000,0.0324,0.013523,0.002678,0.000431,0.561785
1287000,0.0324,0.013523,0.002678,0.000431,0.633124
1288000,0.0324,0.013523,0.002678,0.000431,0.635357
1289000,0.0324,0.013523,0.002678,0.000431,0.649226
1290000,0.0324,0.013523,0.002678,0.000431,0.706932
1291000,0.0324,0.013523,0.002678,0.000431,0.616435
1292000,0.0324,0.013523,0.002678,0.000431,0.584585
1293000,0.0324,0.013523,0.002678,0.000431,0.675082
1294000,0.0324,0.013523,0.002678,0.000431,0.699410
1295000,0.0324,0.013523,0.002678,0.000431,0.698940
1296000,0.0324,0.013523,0.002678,0.000431,0.668030
1297000,0.0324,0.013523,0.002678,0.000431,0.624897
1298000,0.0324,0.013523,0.002678,0.000431,0.561315
1299000,0.0324,0.013523,0.002678,0.000431,0.602920
1300000,0.0324,0.013523,0.002678,0.000431,0.669441
1301000,0.0324,0.013523,0.002678,0.000431,0.577181
1302000,0.0324,0.013523,0.002678,0.000431,0.456127
1303000,0.0324,0.013523,0.002678,0.000431,0.481395
1304000,0.0324,0.013523,0.002678,0.000431,0.444021
1305000,0.0324,0.013523,0.002678,0.000431,0.480690
1306000,0.0324,0.013523,0.002678,0.000431,0.610559
1307000,0.0324,0.013523,0.002678,0.000431,0.603390
1308000,0.0324,0.013523,0.002678,0.000431,0.503021
1309000,0.0324,0.013523,0.002678,0.000431,0.556143
1310000,0.0324,0.013523,0.002678,0.000431,0.620196
1311000,0.0324,0.013523,0.002678,0.000431,0.582822
1312000,0.0324,0.013523,0.002678,0.000431,0.624427
1313000,0.0324,0.013523,0.002678,0.000431,0.551442
1314000,0.0324,0.013523,0.002678,0.000431,0.518182
1315000,0.0324,0.013523,0.002678,0.000431,0.574125
1316000,0.0324,0.013523,0.002678,0.000431,0.565781
1317000,0.0324,0.013523,0.002678,0.000431,0.565781
1318000,0.0324,0.013523,0.002678,0.000431,0.643937
1319000,0.0324,0.013523,0.002678,0.000431,0.744306
1320000,0.0324,0.013523,0.002678,0.000431,0.693769
1321000,0.0324,0.013523,0.002678,0.000431,0.727499
1322000,0.0324,0.013523,0.002678,0.000431,0.878406
1323000,0.0324,0.013523,0.002678,0.000431,0.883224
1324000,0.0324,0.013523,0.002678,0.000431,0.805891
1325000,0.0324,0.013523,0.002678,0.000431,0.891686
1326000,0.0324,0.013523,0.002678,0.000431,0.959500
1327000,0.0324,0.013523,0.002678,0.000431,0.908493
1328000,0.0324,0.013523,0.002678,0.000431,0.871119
1329000,0.0324,0.013523,0.002678,0.000431,0.849964
1330000,0.0324,0.013523,0.002678,0.000431,0.863597
1331000,0.0324,0.013523,0.002678,0.000431,0.934114
1332000,0.0324,0.013523,0.002678,0.000431,1.003221
1333000,0.0324,0.013523,0.002678,0.000431,0.815881
1334000,0.0324,0.013523,0.002678,0.000431,0.744659
1335000,0.0324,0.013523,0.002678,0.000431,0.847261
1336000,0.0324,0.013523,0.002678,0.000431,0.818819
1337000,0.0324,0.013523,0.002678,0.000431,0.835625
1338000,0.0324,0.013523,0.002678,0.000431,0.764403
1339000,0.0324,0.013523,0.002678,0.000431,0.676727
1340000,0.0324,0.013523,0.002678,0.000431,0.633124
1341000,0.0324,0.013523,0.002678,0.000431,0.627365
1342000,0.0324,0.013523,0.002678,0.000431,0.571775
1343000,0.0324,0.013523,0.002678,0.000431,0.524411
1344000,0.0324,0.013523,0.002678,0.000431,0.465647
1345000,0.0324,0.013523,0.002678,0.000431,0.482923
1346000,0.0324,0.013523,0.002678,0.000431,0.479985
1347000,0.0324,0.013523,0.002678,0.000431,0.430271
1348000,0.0324,0.013523,0.002678,0.000431,0.483158
1349000,0.0324,0.013523,0.002678,0.000431,0.705522
1350000,0.0324,0.013523,0.002678,0.000431,0.687657
1351000,0.0324,0.013523,0.002678,0.000431,0.674377
1352000,0.0324,0.013523,0.002678,0.000431,0.684719
1353000,0.0324,0.013523,0.002678,0.000431,0.720683
1354000,0.0324,0.013523,0.002678,0.000431,0.735609
1355000,0.0324,0.013523,0.002678,0.000431,0.841032
1356000,0.0324,0.013523,0.002678,0.000431,0.874880
1357000,0.0324,0.013523,0.002678,0.000431,0.861011
1358000,0.0324,0.013523,0.002678,0.000431,0.808476
1359000,0.0324,0.013523,0.002678,0.000431,0.812237
1360000,0.0324,0.013523,0.002678,0.000431,0.816586
1361000,0.0324,0.013523,0.002678,0.000431,0.819524
1362000,0.0324,0.013523,0.002678,0.000431,0.795313
1363000,0.0324,0.013523,0.002678,0.000431,0.767459
1364000,0.0324,0.013523,0.002678,0.000431,0.704346
1365000,0.0324,0.013523,0.002678,0.000431,0.767106
1366000,0.0324,0.013523,0.002678,0.000431,0.676492
1367000,0.0324,0.013523,0.002678,0.000431,0.658393
1368000,0.0324,0.013523,0.002678,0.000431,0.669793
1369000,0.0324,0.013523,0.002678,0.000431,0.660508
1370000,0.0324,0.013523,0.002678,0.000431,0.640764
1371000,0.0324,0.013523,0.002678,0.000431,0.674024
1372000,0.0324,0.013523,0.002678,0.000431,0.614437
1373000,0.0324,0.013523,0.002678,0.000431,0.667795
1374000,0.0324,0.013523,0.002678,0.000431,0.654985
1375000,0.0324,0.013523,0.002678,0.000431,0.559434
1376000,0.0324,0.013523,0.002678,0.000431,0.592695
1377000,0.0324,0.013523,0.002678,0.000431,0.615495
1378000,0.0324,0.013523,0.002678,0.000431,0.599276
1379000,0.0324,0.013523,0.002678,0.000431,0.636063
1380000,0.0324,0.013523,0.002678,0.000431,0.643937
1381000,0.0324,0.013523,0.002678,0.000431,0.580354
1382000,0.0324,0.013523,0.002678,0.000431,0.582352
1383000,0.0324,0.013523,0.002678,0.000431,0.675082
1384000,0.0324,0.013523,0.002678,0.000431,0.739487
1385000,0.0324,0.013523,0.002678,0.000431,0.737959
1386000,0.0324,0.013523,0.002678,0.000431,0.733023
1387000,0.0324,0.013523,0.002678,0.000431,0.818701
1388000,0.0324,0.013523,0.002678,0.000431,0.964789
1389000,0.0324,0.013523,0.002678,0.000431,0.982771
1390000,0.0324,0.013523,0.002678,0.000431,0.938933
1391000,0.0324,0.013523,0.002678,0.000431,0.907083
1392000,0.0324,0.013523,0.002678,0.000431,0.913312
1393000,0.0324,0.013523,0.002678,0.000431,0.862892
1394000,0.0324,0.013523,0.002678,0.000431,0.910608
1395000,0.0324,0.013523,0.002678,0.000431,0.845028
1396000,0.0324,0.013523,0.002678,0.000431,0.773218
1397000,0.0324,0.013523,0.002678,0.000431,0.768399
1398000,0.0324,0.013523,0.002678,0.000431,0.765461
1399000,0.0324,0.013523,0.002678,0.000431,0.714806
1400000,0.0324,0.013523,0.002678,0.000431,0.672849
1401000,0.0324,0.013523,0.002678,0.000431,0.674612
1402000,0.0324,0.013523,0.002678,0.000431,0.613497
1403000,0.0324,0.013523,0.002678,0.000431,0.708342
1404000,0.0324,0.013523,0.002678,0.000431,0.703406
1405000,0.0324,0.013523,0.002678,0.000431,0.631949
1406000,0.0324,0.013523,0.002678,0.000431,0.672966
1407000,0.0324,0.013523,0.002678,0.000431,0.715512
1408000,0.0324,0.013523,0.002678,0.000431,0.601039
1409000,0.0324,0.013523,0.002678,0.000431,0.671086
1410000,0.0324,0.013523,0.002678,0.000431,0.807301
1411000,0.0324,0.013523,0.002678,0.000431,0.686835
1412000,0.0324,0.013523,0.002678,0.000431,0.621254
1413000,0.0324,0.013523,0.002678,0.000431,0.661919
1414000,0.0324,0.013523,0.002678,0.000431,0.613732
1415000,0.0324,0.013523,0.002678,0.000431,0.553793
1416000,0.0324,0.013523,0.002678,0.000431,0.575771
1417000,0.0324,0.013523,0.002678,0.000431,0.594340
1418000,0.0324,0.013523,0.002678,0.000431,0.604918
1419000,0.0324,0.013523,0.002678,0.000431,0.470818
1420000,0.0324,0.013523,0.002678,0.000431,0.513833
1421000,0.0324,0.013523,0.002678,0.000431,0.481278
1422000,0.0324,0.013523,0.002678,0.000431,0.454011
1423000,0.0324,0.013523,0.002678,0.000431,0.449780
1424000,0.0324,0.013523,0.002678,0.000431,0.605153
1425000,0.0324,0.013523,0.002678,0.000431,0.655102
1426000,0.0324,0.013523,0.002678,0.000431,0.643584
1427000,0.0324,0.013523,0.002678,0.000431,0.579649
1428000,0.0324,0.013523,0.002678,0.000431,0.677785
1429000,0.0324,0.013523,0.002678,0.000431,0.793550
1430000,0.0324,0.013523,0.002678,0.000431,0.959383
1431000,0.0324,0.013523,0.002678,0.000431,0.841267
1432000,0.0324,0.013523,0.002678,0.000431,0.798486
1433000,0.0324,0.013523,0.002678,0.000431,0.824695
1434000,0.0324,0.013523,0.002678,0.000431,0.890511
1435000,0.0324,0.013523,0.002678,0.000431,0.947630
1436000,0.0324,0.013523,0.002678,0.000431,1.023788
1437000,0.0324,0.013523,0.002678,0.000431,1.027901
1438000,0.0324,0.013523,0.002678,0.000431,0.930471
1439000,0.0324,0.013523,0.002678,0.000431,1.030722
1440000,0.0324,0.013523,0.002678,0.000431,0.954681
1441000,0.0324,0.013523,0.002678,0.000431,1.086078
1442000,0.0324,0.013523,0.002678,0.000431,1.178220
1443000,0.0324,0.013523,0.002678,0.000431,1.136733
1444000,0.0324,0.013523,0.002678,0.000431,1.032955
1445000,0.0324,0.013523,0.002678,0.000431,0.999930
1446000,0.0324,0.013523,0.002678,0.000431,1.082787
1447000,0.0324,0.013523,0.002678,0.000431,1.146722
1448000,0.0324,0.013523,0.002678,0.000431,0.981830
1449000,0.0324,0.013523,0.002678,0.000431,0.967492
1450000,0.0324,0.013523,0.002678,0.000431,0.926592
1451000,0.0324,0.013523,0.002678,0.000431,0.929648
1452000,0.0324,0.013523,0.002678,0.000431,0.934819
1453000,0.0324,0.013523,0.002678,0.000431,0.922596
1454000,0.0324,0.013523,0.002678,0.000431,0.787086
1455000,0.0324,0.013523,0.002678,0.000431,0.799427
1456000,0.0324,0.013523,0.002678,0.000431,0.849259
1457000,0.0324,0.013523,0.002678,0.000431,0.904262
1458000,0.0324,0.013523,0.002678,0.000431,0.834333
1459000,0.0324,0.013523,0.002678,0.000431,0.743718
1460000,0.0324,0.013523,0.002678,0.000431,0.708460
1461000,0.0324,0.013523,0.002678,0.000431,0.772043
1462000,0.0324,0.013523,0.002678,0.000431,0.747009
1463000,0.0324,0.013523,0.002678,0.000431,0.793903
1464000,0.0324,0.013523,0.002678,0.000431,0.747597
1465000,0.0324,0.013523,0.002678,0.000431,0.676140
1466000,0.0324,0.013523,0.002678,0.000431,0.793550
1467000,0.0324,0.013523,0.002678,0.000431,1.013093
1468000,0.0324,0.013523,0.002678,0.000431,0.959265
1469000,0.0324,0.013523,0.002678,0.000431,0.869709
1470000,0.0324,0.013523,0.002678,0.000431,0.891804
1471000,0.0324,0.013523,0.002678,0.000431,1.021202
1472000,0.0324,0.013523,0.002678,0.000431,1.020380
1473000,0.0324,0.013523,0.002678,0.000431,0.963966
1474000,0.0324,0.013523,0.002678,0.000431,1.034366
1475000,0.0324,0.013523,0.002678,0.000431,0.961498
1476000,0.0324,0.013523,0.002678,0.000431,0.868651
1477000,0.0324,0.013523,0.002678,0.000431,0.852432
1478000,0.0324,0.013523,0.002678,0.000431,0.900618
1479000,0.0324,0.013523,0.002678,0.000431,0.887455
1480000,0.0324,0.013523,0.002678,0.000431,0.929413
1481000,0.0324,0.013523,0.002678,0.000431,0.984651
1482000,0.0324,0.013523,0.002678,0.000431,0.862304
1483000,0.0324,0.013523,0.002678,0.000431,0.815881
1484000,0.0324,0.013523,0.002678,0.000431,0.898268
1485000,0.0324,0.013523,0.002678,0.000431,0.841149
1486000,0.0324,0.013523,0.002678,0.000431,0.785911
1487000,0.0324,0.013523,0.002678,0.000431,0.790142
1488000,0.0324,0.013523,0.002678,0.000431,0.775921
1489000,0.0324,0.013523,0.002678,0.000431,0.764286
1490000,0.0324,0.013523,0.002678,0.000431,0.701643
1491000,0.0324,0.013523,0.002678,0.000431,0.693299
1492000,0.0324,0.013523,0.002678,0.000431,0.701173
1493000,0.0324,0.013523,0.002678,0.000431,0.647345
1494000,0.0324,0.013523,0.002678,0.000431,0.653104
1495000,0.0324,0.013523,0.002678,0.000431,0.821992
1496000,0.0324,0.013523,0.002678,0.000431,0.807301
1497000,0.0324,0.013523,0.002678,0.000431,0.816116
1498000,0.0324,0.013523,0.002678,0.000431,0.792022
1499000,0.0324,0.013523,0.002678,0.000431,0.806361
1500000,0.0324,0.013523,0.002678,0.000431,0.857838
1501000,0.0324,0.013523,0.002678,0.000431,0.925417
1502000,0.0324,0.013523,0.002678,0.000431,0.858308
1503000,0.0324,0.013523,0.002678,0.000431,0.847848
1504000,0.0324,0.013523,0.002678,0.000431,0.875350
1505000,0.0324,0.013523,0.002678,0.000431,0.918483
1506000,0.0324,0.013523,0.002678,0.000431,0.896740
1507000,0.0324,0.013523,0.002678,0.000431,0.862892
1508000,0.0324,0.013523,0.002678,0.000431,0.858543
1509000,0.0324,0.013523,0.002678,0.000431,0.807301
1510000,0.0324,0.013523,0.002678,0.000431,0.804598
1511000,0.0324,0.013523,0.002678,0.000431,0.785558
1512000,0.0324,0.013523,0.002678,0.000431,0.708460
1513000,0.0324,0.013523,0.002678,0.000431,0.692594
1514000,0.0324,0.013523,0.002678,0.000431,0.864302
1515000,0.0324,0.013523,0.002678,0.000431,0.925417
1516000,0.0324,0.013523,0.002678,0.000431,0.831042
1517000,0.0324,0.013523,0.002678,0.000431,0.791317
1518000,0.0324,0.013523,0.002678,0.000431,0.873469
1519000,0.0324,0.013523,0.002678,0.000431,0.843147
1520000,0.0324,0.013523,0.002678,0.000431,0.815058
1521000,0.0324,0.013523,0.002678,0.000431,0.837858
1522000,0.0324,0.013523,0.002678,0.000431,0.782268
1523000,0.0324,0.013523,0.002678,0.000431,0.798722
1524000,0.0324,0.013523,0.002678,0.000431,0.746304
1525000,0.0324,0.013523,0.002678,0.000431,0.674729
1526000,0.0324,0.013523,0.002678,0.000431,0.693769
1527000,0.0324,0.013523,0.002678,0.000431,0.700821
1528000,0.0324,0.013523,0.002678,0.000431,0.702701
1529000,0.0324,0.013523,0.002678,0.000431,0.793668
1530000,0.0324,0.013523,0.002678,0.000431,0.760172
1531000,0.0324,0.013523,0.002678,0.000431,0.712221
1532000,0.0324,0.013523,0.002678,0.000431,0.712926
1533000,0.0324,0.013523,0.002678,0.000431,0.695532
1534000,0.0324,0.013523,0.002678,0.000431,0.741485
1535000,0.0324,0.013523,0.002678,0.000431,0.782503
1536000,0.0324,0.013523,0.002678,0.000431,0.690596
1537000,0.0324,0.013523,0.002678,0.000431,0.707990
1538000,0.0324,0.013523,0.002678,0.000431,0.641821
1539000,0.0324,0.013523,0.002678,0.000431,0.661331
1540000,0.0324,0.013523,0.002678,0.000431,0.699763
1541000,0.0324,0.013523,0.002678,0.000431,0.669205
1542000,0.0324,0.013523,0.002678,0.000431,0.693299
1543000,0.0324,0.013523,0.002678,0.000431,0.725619
1544000,0.0324,0.013523,0.002678,0.000431,0.761818
1545000,0.0324,0.013523,0.002678,0.000431,0.839386
1546000,0.0324,0.013523,0.002678,0.000431,0.725854
1547000,0.0324,0.013523,0.002678,0.000431,0.693416
1548000,0.0324,0.013523,0.002678,0.000431,0.779447
1549000,0.0324,0.013523,0.002678,0.000431,0.831159
1550000,0.0324,0.013523,0.002678,0.000431,0.861834
1551000,0.0324,0.013523,0.002678,0.000431,0.788379
1552000,0.0324,0.013523,0.002678,0.000431,0.764991
1553000,0.0324,0.013523,0.002678,0.000431,0.843030
1554000,0.0324,0.013523,0.002678,0.000431,0.773453
1555000,0.0324,0.013523,0.002678,0.000431,0.777449
1556000,0.0324,0.013523,0.002678,0.000431,0.892156
1557000,0.0324,0.013523,0.002678,0.000431,0.797546
1558000,0.0324,0.013523,0.002678,0.000431,0.727264
1559000,0.0324,0.013523,0.002678,0.000431,0.721388
1560000,0.0324,0.013523,0.002678,0.000431,0.762053
1561000,0.0324,0.013523,0.002678,0.000431,0.915897
1562000,0.0324,0.013523,0.002678,0.000431,0.957385
1563000,0.0324,0.013523,0.002678,0.000431,0.902029
1564000,0.0324,0.013523,0.002678,0.000431,0.887103
1565000,0.0324,0.013523,0.002678,0.000431,0.870884
1566000,0.0324,0.013523,0.002678,0.000431,0.846320
1567000,0.0324,0.013523,0.002678,0.000431,0.990880
1568000,0.0324,0.013523,0.002678,0.000431,1.066098
1569000,0.0324,0.013523,0.002678,0.000431,0.982183
1570000,0.0324,0.013523,0.002678,0.000431,1.029077
1571000,0.0324,0.013523,0.002678,0.000431,1.052700
1572000,0.0324,0.013523,0.002678,0.000431,1.025668
1573000,0.0324,0.013523,0.002678,0.000431,0.971135
1574000,0.0324,0.013523,0.002678,0.000431,0.988647
1575000,0.0324,0.013523,0.002678,0.000431,0.901911
1576000,0.0324,0.013523,0.002678,0.000431,0.899678
1577000,0.0324,0.013523,0.002678,0.000431,0.926475
1578000,0.0324,0.013523,0.002678,0.000431,0.810004
1579000,0.0324,0.013523,0.002678,0.000431,0.787791
1580000,0.0324,0.013523,0.002678,0.000431,0.869944
1581000,0.0324,0.013523,0.002678,0.000431,0.802130
1582000,0.0324,0.013523,0.002678,0.000431,0.788026
1583000,0.0324,0.013523,0.002678,0.000431,0.743366
1584000,0.0324,0.013523,0.002678,0.000431,0.690243
1585000,0.0324,0.013523,0.002678,0.000431,0.761230
1586000,0.0324,0.013523,0.002678,0.000431,0.752650
1587000,0.0324,0.013523,0.002678,0.000431,0.753591
1588000,0.0324,0.013523,0.002678,0.000431,0.764521
1589000,0.0324,0.013523,0.002678,0.000431,0.750770
1590000,0.0324,0.013523,0.002678,0.000431,0.702936
1591000,0.0324,0.013523,0.002678,0.000431,0.725266
1592000,0.0324,0.013523,0.002678,0.000431,0.758057
1593000,0.0324,0.013523,0.002678,0.000431,0.731378
1594000,0.0324,0.013523,0.002678,0.000431,0.753356
1595000,0.0324,0.013523,0.002678,0.000431,0.733846
1596000,0.0324,0.013523,0.002678,0.000431,0.684719
1597000,0.0324,0.013523,0.002678,0.000431,0.711986
1598000,0.0324,0.013523,0.002678,0.000431,0.679430
1599000,0.0324,0.013523,0.002678,0.000431,0.662036
1600000,0.0324,0.013523,0.002678,0.000431,0.708107
1601000,0.0324,0.013523,0.002678,0.000431,0.776039
1602000,0.0324,0.013523,0.002678,0.000431,0.690125
1603000,0.0324,0.013523,0.002678,0.000431,0.724326
1604000,0.0324,0.013523,0.002678,0.000431,0.754296
1605000,0.0324,0.013523,0.002678,0.000431,0.758527
1606000,0.0324,0.013523,0.002678,0.000431,0.806008
1607000,0.0324,0.013523,0.002678,0.000431,0.709165
1608000,0.0324,0.013523,0.002678,0.000431,0.650166
1609000,0.0324,0.013523,0.002678,0.000431,0.644289
1610000,0.0324,0.013523,0.002678,0.000431,0.621372
1611000,0.0324,0.013523,0.002678,0.000431,0.649343
1612000,0.0324,0.013523,0.002678,0.000431,0.643232
1613000,0.0324,0.013523,0.002678,0.000431,0.502551
1614000,0.0324,0.013523,0.002678,0.000431,0.484569
1615000,0.0324,0.013523,0.002678,0.000431,0.553323
1616000,0.0324,0.013523,0.002678,0.000431,0.512893
1617000,0.0324,0.013523,0.002678,0.000431,0.499612
1618000,0.0324,0.013523,0.002678,0.000431,0.521355
1619000,0.0324,0.013523,0.002678,0.000431,0.650048
1620000,0.0324,0.013523,0.002678,0.000431,0.712221
1621000,0.0324,0.013523,0.002678,0.000431,0.664034
1622000,0.0324,0.013523,0.002678,0.000431,0.623722
1623000,0.0324,0.013523,0.002678,0.000431,0.656042
1624000,0.0324,0.013523,0.002678,0.000431,0.695884
1625000,0.0324,0.013523,0.002678,0.000431,0.758409
1626000,0.0324,0.013523,0.002678,0.000431,0.876055
1627000,0.0324,0.013523,0.002678,0.000431,0.840444
1628000,0.0324,0.013523,0.002678,0.000431,0.775216
1629000,0.0324,0.013523,0.002678,0.000431,0.782620
1630000,0.0324,0.013523,0.002678,0.000431,0.828574
1631000,0.0324,0.013523,0.002678,0.000431,0.763933
1632000,0.0324,0.013523,0.002678,0.000431,0.844793
1633000,0.0324,0.013523,0.002678,0.000431,1.006981
1634000,0.0324,0.013523,0.002678,0.000431,1.044708
1635000,0.0324,0.013523,0.002678,0.000431,0.891216
1636000,0.0324,0.013523,0.002678,0.000431,0.862422
1637000,0.0324,0.013523,0.002678,0.000431,0.935289
1638000,0.0324,0.013523,0.002678,0.000431,0.887103
1639000,0.0324,0.013523,0.002678,0.000431,0.852197
1640000,0.0324,0.013523,0.002678,0.000431,0.776509
1641000,0.0324,0.013523,0.002678,0.000431,0.769222
1642000,0.0324,0.013523,0.002678,0.000431,0.764403
1643000,0.0324,0.013523,0.002678,0.000431,0.801542
1644000,0.0324,0.013523,0.002678,0.000431,0.826928
1645000,0.0324,0.013523,0.002678,0.000431,0.706109
1646000,0.0324,0.013523,0.002678,0.000431,0.703641
1647000,0.0324,0.013523,0.002678,0.000431,0.741720
1648000,0.0324,0.013523,0.002678,0.000431,0.715041
1649000,0.0324,0.013523,0.002678,0.000431,0.645112
1650000,0.0324,0.013523,0.002678,0.000431,0.610794
1651000,0.0324,0.013523,0.002678,0.000431,0.666150
1652000,0.0324,0.013523,0.002678,0.000431,0.631479
1653000,0.0324,0.013523,0.002678,0.000431,0.583880
1654000,0.0324,0.013523,0.002678,0.000431,0.588111
1655000,0.0324,0.013523,0.002678,0.000431,0.533108
1656000,0.0324,0.013523,0.002678,0.000431,0.564370
1657000,0.0324,0.013523,0.002678,0.000431,0.539572
1658000,0.0324,0.013523,0.002678,0.000431,0.498202
1659000,0.0324,0.013523,0.002678,0.000431,0.554733
1660000,0.0324,0.013523,0.002678,0.000431,0.617258
1661000,0.0324,0.013523,0.002678,0.000431,0.632302
1662000,0.0324,0.013523,0.002678,0.000431,0.608326
1663000,0.0324,0.013523,0.002678,0.000431,0.641469
1664000,0.0324,0.013523,0.002678,0.000431,0.619374
1665000,0.0324,0.013523,0.002678,0.000431,0.774041
1666000,0.0324,0.013523,0.002678,0.000431,0.911431
1667000,0.0324,0.013523,0.002678,0.000431,0.863009
1668000,0.0324,0.013523,0.002678,0.000431,0.801777
1669000,0.0324,0.013523,0.002678,0.000431,0.780975
1670000,0.0324,0.013523,0.002678,0.000431,0.875820
1671000,0.0324,0.013523,0.002678,0.000431,0.943869
1672000,0.0324,0.013523,0.002678,0.000431,0.919305
1673000,0.0324,0.013523,0.002678,0.000431,0.773570
1674000,0.0324,0.013523,0.002678,0.000431,0.684132
1675000,0.0324,0.013523,0.002678,0.000431,0.679783
1676000,0.0324,0.013523,0.002678,0.000431,0.677550
1677000,0.0324,0.013523,0.002678,0.000431,0.694121
1678000,0.0324,0.013523,0.002678,0.000431,0.670968
1679000,0.0324,0.013523,0.002678,0.000431,0.772630
1680000,0.0324,0.013523,0.002678,0.000431,0.697295
1681000,0.0324,0.013523,0.002678,0.000431,0.658040
1682000,0.0324,0.013523,0.002678,0.000431,0.633124
1683000,0.0324,0.013523,0.002678,0.000431,0.756646
1684000,0.0324,0.013523,0.002678,0.000431,0.818584
1685000,0.0324,0.013523,0.002678,0.000431,0.822345
1686000,0.0324,0.013523,0.002678,0.000431,0.838681
1687000,0.0324,0.013523,0.002678,0.000431,0.899091
1688000,0.0324,0.013523,0.002678,0.000431,0.910138
1689000,0.0324,0.013523,0.002678,0.000431,0.915427
1690000,0.0324,0.013523,0.002678,0.000431,0.907200
1691000,0.0324,0.013523,0.002678,0.000431,0.848553
1692000,0.0324,0.013523,0.002678,0.000431,0.850904
1693000,0.0324,0.013523,0.002678,0.000431,0.835155
1694000,0.0324,0.013523,0.002678,0.000431,0.843970
1695000,0.0324,0.013523,0.002678,0.000431,0.812120
1696000,0.0324,0.013523,0.002678,0.000431,0.760525
1697000,0.0324,0.013523,0.002678,0.000431,0.691183
1698000,0.0324,0.013523,0.002678,0.000431,0.671674
1699000,0.0324,0.013523,0.002678,0.000431,0.672966
1700000,0.0324,0.013523,0.002678,0.000431,0.685659
1701000,0.0324,0.013523,0.002678,0.000431,0.782268
1702000,0.0324,0.013523,0.002678,0.000431,0.828926
1703000,0.0324,0.013523,0.002678,0.000431,0.785558
1704000,0.0324,0.013523,0.002678,0.000431,0.785793
1705000,0.0324,0.013523,0.002678,0.000431,0.897915
1706000,0.0324,0.013523,0.002678,0.000431,0.877465
1707000,0.0324,0.013523,0.002678,0.000431,0.854077
1708000,0.0324,0.013523,0.002678,0.000431,0.818349
1709000,0.0324,0.013523,0.002678,0.000431,0.777566
1710000,0.0324,0.013523,0.002678,0.000431,0.806478
1711000,0.0324,0.013523,0.002678,0.000431,0.835860
1712000,0.0324,0.013523,0.002678,0.000431,0.798369
1713000,0.0324,0.013523,0.002678,0.000431,0.750065
1714000,0.0324,0.013523,0.002678,0.000431,0.715512
1715000,0.0324,0.013523,0.002678,0.000431,0.726677
1716000,0.0324,0.013523,0.002678,0.000431,0.931881
1717000,0.0324,0.013523,0.002678,0.000431,0.909551
1718000,0.0324,0.013523,0.002678,0.000431,0.757469
1719000,0.0324,0.013523,0.002678,0.000431,0.808594
1720000,0.0324,0.013523,0.002678,0.000431,0.900148
1721000,0.0324,0.013523,0.002678,0.000431,0.872647
1722000,0.0324,0.013523,0.002678,0.000431,0.943281
1723000,0.0324,0.013523,0.002678,0.000431,0.857251
1724000,0.0324,0.013523,0.002678,0.000431,0.861717
1725000,0.0324,0.013523,0.002678,0.000431,0.974661
1726000,0.0324,0.013523,0.002678,0.000431,1.056696
1727000,0.0324,0.013523,0.002678,0.000431,1.064453
1728000,0.0324,0.013523,0.002678,0.000431,1.013563
1729000,0.0324,0.013523,0.002678,0.000431,0.938698
1730000,0.0324,0.013523,0.002678,0.000431,0.953976
1731000,0.0324,0.013523,0.002678,0.000431,0.962791
1732000,0.0324,0.013523,0.002678,0.000431,0.955034
1733000,0.0324,0.013523,0.002678,0.000431,0.914839
1734000,0.0324,0.013523,0.002678,0.000431,0.785793
1735000,0.0324,0.013523,0.002678,0.000431,0.694827
1736000,0.0324,0.013523,0.002678,0.000431,0.651106
1737000,0.0324,0.013523,0.002678,0.000431,0.678843
1738000,0.0324,0.013523,0.002678,0.000431,0.650754
1739000,0.0324,0.013523,0.002678,0.000431,0.599394
1740000,0.0324,0.013523,0.002678,0.000431,0.531697
1741000,0.0324,0.013523,0.002678,0.000431,0.573420
1742000,0.0324,0.013523,0.002678,0.000431,0.620196
1743000,0.0324,0.013523,0.002678,0.000431,0.530640
1744000,0.0324,0.013523,0.002678,0.000431,0.492678
1745000,0.0324,0.013523,0.002678,0.000431,0.489975
1746000,0.0324,0.013523,0.002678,0.000431,0.428743
1747000,0.0324,0.013523,0.002678,0.000431,0.419693
1748000,0.0324,0.013523,0.002678,0.000431,0.481160
1749000,0.0324,0.013523,0.002678,0.000431,0.554263
1750000,0.0324,0.013523,0.002678,0.000431,0.537221
1751000,0.0324,0.013523,0.002678,0.000431,0.471641
1752000,0.0324,0.013523,0.002678,0.000431,0.552030
1753000,0.0324,0.013523,0.002678,0.000431,0.585643
1754000,0.0324,0.013523,0.002678,0.000431,0.589874
1755000,0.0324,0.013523,0.002678,0.000431,0.538749
1756000,0.0324,0.013523,0.002678,0.000431,0.605035
1757000,0.0324,0.013523,0.002678,0.000431,0.547681
1758000,0.0324,0.013523,0.002678,0.000431,0.544273
1759000,0.0324,0.013523,0.002678,0.000431,0.641939
1760000,0.0324,0.013523,0.002678,0.000431,0.645817
1761000,0.0324,0.013523,0.002678,0.000431,0.528994
1762000,0.0324,0.013523,0.002678,0.000431,0.597513
1763000,0.0324,0.013523,0.002678,0.000431,0.665797
1764000,0.0324,0.013523,0.002678,0.000431,0.624545
1765000,0.0324,0.013523,0.002678,0.000431,0.649226
1766000,0.0324,0.013523,0.002678,0.000431,0.711163
1767000,0.0324,0.013523,0.002678,0.000431,0.636415
1768000,0.0324,0.013523,0.002678,0.000431,0.607621
1769000,0.0324,0.013523,0.002678,0.000431,0.704229
1770000,0.0324,0.013523,0.002678,0.000431,0.818584
1771000,0.0324,0.013523,0.002678,0.000431,0.812355
1772000,0.0324,0.013523,0.002678,0.000431,0.762288
1773000,0.0324,0.013523,0.002678,0.000431,0.793785
1774000,0.0324,0.013523,0.002678,0.000431,0.778272
1775000,0.0324,0.013523,0.002678,0.000431,0.726794
1776000,0.0324,0.013523,0.002678,0.000431,0.778742
1777000,0.0324,0.013523,0.002678,0.000431,0.810239
1778000,0.0324,0.013523,0.002678,0.000431,0.753003
1779000,0.0324,0.013523,0.002678,0.000431,0.737254
1780000,0.0324,0.013523,0.002678,0.000431,0.905437
1781000,0.0324,0.013523,0.002678,0.000431,0.921656
1782000,0.0324,0.013523,0.002678,0.000431,0.793903
1783000,0.0324,0.013523,0.002678,0.000431,0.730438
1784000,0.0324,0.013523,0.002678,0.000431,0.719625
1785000,0.0324,0.013523,0.002678,0.000431,0.715864
1786000,0.0324,0.013523,0.002678,0.000431,0.732083
1787000,0.0324,0.013523,0.002678,0.000431,0.730555
1788000,0.0324,0.013523,0.002678,0.000431,0.695414
1789000,0.0324,0.013523,0.002678,0.000431,0.734434
1790000,0.0324,0.013523,0.002678,0.000431,0.737842
1791000,0.0324,0.013523,0.002678,0.000431,0.642997
1792000,0.0324,0.013523,0.002678,0.000431,0.627600
1793000,0.0324,0.013523,0.002678,0.000431,0.664739
1794000,0.0324,0.013523,0.002678,0.000431,0.693181
1795000,0.0324,0.013523,0.002678,0.000431,0.689890
1796000,0.0324,0.013523,0.002678,0.000431,0.563548
1797000,0.0324,0.013523,0.002678,0.000431,0.528407
1798000,0.0324,0.013523,0.002678,0.000431,0.573655
1799000,0.0324,0.013523,0.002678,0.000431,0.513833
1800000,0.0324,0.013523,0.002678,0.000431,0.528407
1801000,0.0324,0.013523,0.002678,0.000431,0.563783
1802000,0.0324,0.013523,0.002678,0.000431,0.577769
1803000,0.0324,0.013523,0.002678,0.000431,0.492796
1804000,0.0324,0.013523,0.002678,0.000431,0.509602
1805000,0.0324,0.013523,0.002678,0.000431,0.516301
1806000,0.0324,0.013523,0.002678,0.000431,0.503726
1807000,0.0324,0.013523,0.002678,0.000431,0.509837
1808000,0.0324,0.013523,0.002678,0.000431,0.565428
1809000,0.0324,0.013523,0.002678,0.000431,0.518652
1810000,0.0324,0.013523,0.002678,0.000431,0.487037
1811000,0.0324,0.013523,0.002678,0.000431,0.420163
1812000,0.0324,0.013523,0.002678,0.000431,0.460475
1813000,0.0324,0.013523,0.002678,0.000431,0.449898
1814000,0.0324,0.013523,0.002678,0.000431,0.489270
1815000,0.0324,0.013523,0.002678,0.000431,0.500788
1816000,0.0324,0.013523,0.002678,0.000431,0.606093
1817000,0.0324,0.013523,0.002678,0.000431,0.581412
1818000,0.0324,0.013523,0.002678,0.000431,0.583175
1819000,0.0324,0.013523,0.002678,0.000431,0.657100
1820000,0.0324,0.013523,0.002678,0.000431,0.671203
1821000,0.0324,0.013523,0.002678,0.000431,0.627836
1822000,0.0324,0.013523,0.002678,0.000431,0.706579
1823000,0.0324,0.013523,0.002678,0.000431,0.738077
1824000,0.0324,0.013523,0.002678,0.000431,0.651224
1825000,0.0324,0.013523,0.002678,0.000431,0.596456
1826000,0.0324,0.013523,0.002678,0.000431,0.595868
1827000,0.0324,0.013523,0.002678,0.000431,0.556378
1828000,0.0324,0.013523,0.002678,0.000431,0.606093
1829000,0.0324,0.013523,0.002678,0.000431,0.539337
1830000,0.0324,0.013523,0.002678,0.000431,0.540865
1831000,0.0324,0.013523,0.002678,0.000431,0.522178
1832000,0.0324,0.013523,0.002678,0.000431,0.534283
1833000,0.0324,0.013523,0.002678,0.000431,0.508192
1834000,0.0324,0.013523,0.002678,0.000431,0.529582
1835000,0.0324,0.013523,0.002678,0.000431,0.478692
1836000,0.0324,0.013523,0.002678,0.000431,0.425570
1837000,0.0324,0.013523,0.002678,0.000431,0.476342
1838000,0.0324,0.013523,0.002678,0.000431,0.482571
1839000,0.0324,0.013523,0.002678,0.000431,0.597631
1840000,0.0324,0.013523,0.002678,0.000431,0.698117
1841000,0.0324,0.013523,0.002678,0.000431,0.703289
1842000,0.0324,0.013523,0.002678,0.000431,0.602802
1843000,0.0324,0.013523,0.002678,0.000431,0.656277
1844000,0.0324,0.013523,0.002678,0.000431,0.712808
1845000,0.0324,0.013523,0.002678,0.000431,0.714571
1846000,0.0324,0.013523,0.002678,0.000431,0.690008
1847000,0.0324,0.013523,0.002678,0.000431,0.631361
1848000,0.0324,0.013523,0.002678,0.000431,0.650871
1849000,0.0324,0.013523,0.002678,0.000431,0.613615
1850000,0.0324,0.013523,0.002678,0.000431,0.531933
1851000,0.0324,0.013523,0.002678,0.000431,0.533225
1852000,0.0324,0.013523,0.002678,0.000431,0.563078
1853000,0.0324,0.013523,0.002678,0.000431,0.605623
1854000,0.0324,0.013523,0.002678,0.000431,0.562725
1855000,0.0324,0.013523,0.002678,0.000431,0.466587
1856000,0.0324,0.013523,0.002678,0.000431,0.467410
1857000,0.0324,0.013523,0.002678,0.000431,0.482688
1858000,0.0324,0.013523,0.002678,0.000431,0.518652
1859000,0.0324,0.013523,0.002678,0.000431,0.509955
1860000,0.0324,0.013523,0.002678,0.000431,0.501610
1861000,0.0324,0.013523,0.002678,0.000431,0.484921
1862000,0.0324,0.013523,0.002678,0.000431,0.558259
1863000,0.0324,0.013523,0.002678,0.000431,0.672614
1864000,0.0324,0.013523,0.002678,0.000431,0.647463
1865000,0.0324,0.013523,0.002678,0.000431,0.571775
1866000,0.0324,0.013523,0.002678,0.000431,0.639001
1867000,0.0324,0.013523,0.002678,0.000431,0.659803
1868000,0.0324,0.013523,0.002678,0.000431,0.652634
1869000,0.0324,0.013523,0.002678,0.000431,0.625838
1870000,0.0324,0.013523,0.002678,0.000431,0.600687
1871000,0.0324,0.013523,0.002678,0.000431,0.690125
1872000,0.0324,0.013523,0.002678,0.000431,0.646052
1873000,0.0324,0.013523,0.002678,0.000431,0.581177
1874000,0.0324,0.013523,0.002678,0.000431,0.723151
1875000,0.0324,0.013523,0.002678,0.000431,0.868768
1876000,0.0324,0.013523,0.002678,0.000431,0.734434
1877000,0.0324,0.013523,0.002678,0.000431,0.682604
1878000,0.0324,0.013523,0.002678,0.000431,0.678255
1879000,0.0324,0.013523,0.002678,0.000431,0.668265
1880000,0.0324,0.013523,0.002678,0.000431,0.684014
1881000,0.0324,0.013523,0.002678,0.000431,0.795901
1882000,0.0324,0.013523,0.002678,0.000431,0.750065
1883000,0.0324,0.013523,0.002678,0.000431,0.692711
1884000,0.0324,0.013523,0.002678,0.000431,0.742426
1885000,0.0324,0.013523,0.002678,0.000431,0.847261
1886000,0.0324,0.013523,0.002678,0.000431,0.768399
1887000,0.0324,0.013523,0.002678,0.000431,0.757587
1888000,0.0324,0.013523,0.002678,0.000431,0.781562
1889000,0.0324,0.013523,0.002678,0.000431,0.797429
1890000,0.0324,0.013523,0.002678,0.000431,0.763816
1891000,0.0324,0.013523,0.002678,0.000431,0.701291
1892000,0.0324,0.013523,0.002678,0.000431,0.717274
1893000,0.0324,0.013523,0.002678,0.000431,0.639118
1894000,0.0324,0.013523,0.002678,0.000431,0.630891
1895000,0.0324,0.013523,0.002678,0.000431,0.556613
1896000,0.0324,0.013523,0.002678,0.000431,0.579061
1897000,0.0324,0.013523,0.002678,0.000431,0.568836
1898000,0.0324,0.013523,0.002678,0.000431,0.582235
1899000,0.0324,0.013523,0.002678,0.000431,0.529464
1900000,0.0324,0.013523,0.002678,0.000431,0.479633
1901000,0.0324,0.013523,0.002678,0.000431,0.553793
1902000,0.0324,0.013523,0.002678,0.000431,0.714101
1903000,0.0324,0.013523,0.002678,0.000431,0.706932
1904000,0.0324,0.013523,0.002678,0.000431,0.682956
1905000,0.0324,0.013523,0.002678,0.000431,0.609619
1906000,0.0324,0.013523,0.002678,0.000431,0.706697
1907000,0.0324,0.013523,0.002678,0.000431,0.743131
1908000,0.0324,0.013523,0.002678,0.000431,0.879581
1909000,0.0324,0.013523,0.002678,0.000431,0.875702
1910000,0.0324,0.013523,0.002678,0.000431,0.761348
1911000,0.0324,0.013523,0.002678,0.000431,0.684367
1912000,0.0324,0.013523,0.002678,0.000431,0.730203
1913000,0.0324,0.013523,0.002678,0.000431,0.734199
1914000,0.0324,0.013523,0.002678,0.000431,0.681546
1915000,0.0324,0.013523,0.002678,0.000431,0.651106
1916000,0.0324,0.013523,0.002678,0.000431,0.776979
1917000,0.0324,0.013523,0.002678,0.000431,0.745481
1918000,0.0324,0.013523,0.002678,0.000431,0.710693
1919000,0.0324,0.013523,0.002678,0.000431,0.684014
1920000,0.0324,0.013523,0.002678,0.000431,0.685542
1921000,0.0324,0.013523,0.002678,0.000431,0.754413
1922000,0.0324,0.013523,0.002678,0.000431,0.865125
1923000,0.0324,0.013523,0.002678,0.000431,0.824578
1924000,0.0324,0.013523,0.002678,0.000431,0.808711
1925000,0.0324,0.013523,0.002678,0.000431,0.808006
1926000,0.0324,0.013523,0.002678,0.000431,0.791082
1927000,0.0324,0.013523,0.002678,0.000431,0.829279
1928000,0.0324,0.013523,0.002678,0.000431,0.766989
1929000,0.0324,0.013523,0.002678,0.000431,0.711516
1930000,0.0324,0.013523,0.002678,0.000431,0.722916
1931000,0.0324,0.013523,0.002678,0.000431,0.696472
1932000,0.0324,0.013523,0.002678,0.000431,0.692711
1933000,0.0324,0.013523,0.002678,0.000431,0.652164
1934000,0.0324,0.013523,0.002678,0.000431,0.559199
1935000,0.0324,0.013523,0.002678,0.000431,0.545683
1936000,0.0324,0.013523,0.002678,0.000431,0.509132
1937000,0.0324,0.013523,0.002678,0.000431,0.487624
1938000,0.0324,0.013523,0.002678,0.000431,0.541452
1939000,0.0324,0.013523,0.002678,0.000431,0.518182
1940000,0.0324,0.013523,0.002678,0.000431,0.448840
1941000,0.0324,0.013523,0.002678,0.000431,0.550384
1942000,0.0324,0.013523,0.002678,0.000431,0.543450
1943000,0.0324,0.013523,0.002678,0.000431,0.451426
1944000,0.0324,0.013523,0.002678,0.000431,0.478105
1945000,0.0324,0.013523,0.002678,0.000431,0.586466
1946000,0.0324,0.013523,0.002678,0.000431,0.598336
1947000,0.0324,0.013523,0.002678,0.000431,0.592460
1948000,0.0324,0.013523,0.002678,0.000431,0.664387
1949000,0.0324,0.013523,0.002678,0.000431,0.771690
1950000,0.0324,0.013523,0.002678,0.000431,0.791435
1951000,0.0324,0.013523,0.002678,0.000431,0.761935
1952000,0.0324,0.013523,0.002678,0.000431,0.777802
1953000,0.0324,0.013523,0.002678,0.000431,0.862304
1954000,0.0324,0.013523,0.002678,0.000431,0.903674
1955000,0.0324,0.013523,0.002678,0.000431,0.860306
1956000,0.0324,0.013523,0.002678,0.000431,0.774746
1957000,0.0324,0.013523,0.002678,0.000431,0.734669
1958000,0.0324,0.013523,0.002678,0.000431,0.840209
1959000,0.0324,0.013523,0.002678,0.000431,0.751123
1960000,0.0324,0.013523,0.002678,0.000431,0.675434
1961000,0.0324,0.013523,0.002678,0.000431,0.715747
1962000,0.0324,0.013523,0.002678,0.000431,0.794843
1963000,0.0324,0.013523,0.002678,0.000431,0.821522
1964000,0.0324,0.013523,0.002678,0.000431,0.746892
1965000,0.0324,0.013523,0.002678,0.000431,0.704699
1966000,0.0324,0.013523,0.002678,0.000431,0.820347
1967000,0.0324,0.013523,0.002678,0.000431,0.808124
1968000,0.0324,0.013523,0.002678,0.000431,0.798134
1969000,0.0324,0.013523,0.002678,0.000431,0.847261
1970000,0.0324,0.013523,0.002678,0.000431,0.889571
1971000,0.0324,0.013523,0.002678,0.000431,0.782033
1972000,0.0324,0.013523,0.002678,0.000431,0.790142
1973000,0.0324,0.013523,0.002678,0.000431,0.789437
1974000,0.0324,0.013523,0.002678,0.000431,0.788026
1975000,0.0324,0.013523,0.002678,0.000431,0.793198
1976000,0.0324,0.013523,0.002678,0.000431,0.823990
1977000,0.0324,0.013523,0.002678,0.000431,0.765814
1978000,0.0324,0.013523,0.002678,0.000431,0.793198
1979000,0.0324,0.013523,0.002678,0.000431,0.713866
1980000,0.0324,0.013523,0.002678,0.000431,0.633594
1981000,0.0324,0.013523,0.002678,0.000431,0.665210
1982000,0.0324,0.013523,0.002678,0.000431,0.619374
1983000,0.0324,0.013523,0.002678,0.000431,0.662506
1984000,0.0324,0.013523,0.002678,0.000431,0.638766
1985000,0.0324,0.013523,0.002678,0.000431,0.538397
1986000,0.0324,0.013523,0.002678,0.000431,0.479045
1987000,0.0324,0.013523,0.002678,0.000431,0.452248
1988000,0.0324,0.013523,0.002678,0.000431,0.471641
1989000,0.0324,0.013523,0.002678,0.000431,0.477399
1990000,0.0324,0.013523,0.002678,0.000431,0.437205
1991000,0.0324,0.013523,0.002678,0.000431,0.365865
1992000,0.0324,0.013523,0.002678,0.000431,0.409233
1993000,0.0324,0.013523,0.002678,0.000431,0.607973
1994000,0.0324,0.013523,0.002678,0.000431,0.695297
1995000,0.0324,0.013523,0.002678,0.000431,0.623957
1996000,0.0324,0.013523,0.002678,0.000431,0.504666
1997000,0.0324,0.013523,0.002678,0.000431,0.580942
1998000,0.0324,0.013523,0.002678,0.000431,0.619374
1999000,0.0324,0.013523,0.002678,0.000431,0.626778
