Cycle,Area(mm^2),PeakDynamic(W),SubthresholdLeakage(W),GateLeakage(W),RunTimeDynamic(W)
5000000,0.0324,0.013523,0.002678,0.000431,0.021625
5001000,0.0324,0.013523,0.002678,0.000431,0.021743
5002000,0.0324,0.013523,0.002678,0.000431,0.021273
5003000,0.0324,0.013523,0.002678,0.000431,0.022213
5004000,0.0324,0.013523,0.002678,0.000431,0.020332
5005000,0.0324,0.013523,0.002678,0.000431,0.022448
5006000,0.0324,0.013523,0.002678,0.000431,0.022330
5007000,0.0324,0.013523,0.002678,0.000431,0.021273
5008000,0.0324,0.013523,0.002678,0.000431,0.021038
5009000,0.0324,0.013523,0.002678,0.000431,0.020097
5010000,0.0324,0.013523,0.002678,0.000431,0.021038
5011000,0.0324,0.013523,0.002678,0.000431,0.020802
5012000,0.0324,0.013523,0.002678,0.000431,0.020920
5013000,0.0324,0.013523,0.002678,0.000431,0.021390
5014000,0.0324,0.013523,0.002678,0.000431,0.020332
5015000,0.0324,0.013523,0.002678,0.000431,0.020332
5016000,0.0324,0.013523,0.002678,0.000431,0.020920
5017000,0.0324,0.013523,0.002678,0.000431,0.021508
5018000,0.0324,0.013523,0.002678,0.000431,0.019745
5019000,0.0324,0.013523,0.002678,0.000431,0.021155
5020000,0.0324,0.013523,0.002678,0.000431,0.021508
5021000,0.0324,0.013523,0.002678,0.000431,0.020920
5022000,0.0324,0.013523,0.002678,0.000431,0.020802
5023000,0.0324,0.013523,0.002678,0.000431,0.020802
5024000,0.0324,0.013523,0.002678,0.000431,0.020802
5025000,0.0324,0.013523,0.002678,0.000431,0.020097
5026000,0.0324,0.013523,0.002678,0.000431,0.020450
5027000,0.0324,0.013523,0.002678,0.000431,0.021508
5028000,0.0324,0.013523,0.002678,0.000431,0.020097
5029000,0.0324,0.013523,0.002678,0.000431,0.020097
5030000,0.0324,0.013523,0.002678,0.000431,0.018687
5031000,0.0324,0.013523,0.002678,0.000431,0.019980
5032000,0.0324,0.013523,0.002678,0.000431,0.017982
5033000,0.0324,0.013523,0.002678,0.000431,0.019157
5034000,0.0324,0.013523,0.002678,0.000431,0.019157
5035000,0.0324,0.013523,0.002678,0.000431,0.017982
5036000,0.0324,0.013523,0.002678,0.000431,0.018687
5037000,0.0324,0.013523,0.002678,0.000431,0.017747
5038000,0.0324,0.013523,0.002678,0.000431,0.018099
5039000,0.0324,0.013523,0.002678,0.000431,0.017629
5040000,0.0324,0.013523,0.002678,0.000431,0.017277
5041000,0.0324,0.013523,0.002678,0.000431,0.018334
5042000,0.0324,0.013523,0.002678,0.000431,0.017394
5043000,0.0324,0.013523,0.002678,0.000431,0.018217
5044000,0.0324,0.013523,0.002678,0.000431,0.017747
5045000,0.0324,0.013523,0.002678,0.000431,0.018217
5046000,0.0324,0.013523,0.002678,0.000431,0.018569
5047000,0.0324,0.013523,0.002678,0.000431,0.017747
5048000,0.0324,0.013523,0.002678,0.000431,0.016924
5049000,0.0324,0.013523,0.002678,0.000431,0.017864
5050000,0.0324,0.013523,0.002678,0.000431,0.016807
5051000,0.0324,0.013523,0.002678,0.000431,0.016924
5052000,0.0324,0.013523,0.002678,0.000431,0.017277
5053000,0.0324,0.013523,0.002678,0.000431,0.017512
5054000,0.0324,0.013523,0.002678,0.000431,0.017394
5055000,0.0324,0.013523,0.002678,0.000431,0.016924
5056000,0.0324,0.013523,0.002678,0.000431,0.017864
5057000,0.0324,0.013523,0.002678,0.000431,0.017277
5058000,0.0324,0.013523,0.002678,0.000431,0.016924
5059000,0.0324,0.013523,0.002678,0.000431,0.017512
5060000,0.0324,0.013523,0.002678,0.000431,0.017629
5061000,0.0324,0.013523,0.002678,0.000431,0.017394
5062000,0.0324,0.013523,0.002678,0.000431,0.017747
5063000,0.0324,0.013523,0.002678,0.000431,0.017512
5064000,0.0324,0.013523,0.002678,0.000431,0.016924
5065000,0.0324,0.013523,0.002678,0.000431,0.017042
5066000,0.0324,0.013523,0.002678,0.000431,0.017747
5067000,0.0324,0.013523,0.002678,0.000431,0.016689
5068000,0.0324,0.013523,0.002678,0.000431,0.016924
5069000,0.0324,0.013523,0.002678,0.000431,0.016689
5070000,0.0324,0.013523,0.002678,0.000431,0.016807
5071000,0.0324,0.013523,0.002678,0.000431,0.016689
5072000,0.0324,0.013523,0.002678,0.000431,0.016924
5073000,0.0324,0.013523,0.002678,0.000431,0.016219
5074000,0.0324,0.013523,0.002678,0.000431,0.016689
5075000,0.0324,0.013523,0.002678,0.000431,0.016219
5076000,0.0324,0.013523,0.002678,0.000431,0.016689
5077000,0.0324,0.013523,0.002678,0.000431,0.016571
5078000,0.0324,0.013523,0.002678,0.000431,0.017277
5079000,0.0324,0.013523,0.002678,0.000431,0.016689
5080000,0.0324,0.013523,0.002678,0.000431,0.015984
5081000,0.0324,0.013523,0.002678,0.000431,0.016454
5082000,0.0324,0.013523,0.002678,0.000431,0.016336
5083000,0.0324,0.013523,0.002678,0.000431,0.015161
5084000,0.0324,0.013523,0.002678,0.000431,0.015984
5085000,0.0324,0.013523,0.002678,0.000431,0.015279
5086000,0.0324,0.013523,0.002678,0.000431,0.015161
5087000,0.0324,0.013523,0.002678,0.000431,0.015161
5088000,0.0324,0.013523,0.002678,0.000431,0.015279
5089000,0.0324,0.013523,0.002678,0.000431,0.015279
5090000,0.0324,0.013523,0.002678,0.000431,0.015396
5091000,0.0324,0.013523,0.002678,0.000431,0.014338
5092000,0.0324,0.013523,0.002678,0.000431,0.015984
5093000,0.0324,0.013523,0.002678,0.000431,0.014809
5094000,0.0324,0.013523,0.002678,0.000431,0.015631
5095000,0.0324,0.013523,0.002678,0.000431,0.016101
5096000,0.0324,0.013523,0.002678,0.000431,0.015396
5097000,0.0324,0.013523,0.002678,0.000431,0.014809
5098000,0.0324,0.013523,0.002678,0.000431,0.015631
5099000,0.0324,0.013523,0.002678,0.000431,0.014573
5100000,0.0324,0.013523,0.002678,0.000431,0.015279
5101000,0.0324,0.013523,0.002678,0.000431,0.015984
5102000,0.0324,0.013523,0.002678,0.000431,0.015161
5103000,0.0324,0.013523,0.002678,0.000431,0.015044
5104000,0.0324,0.013523,0.002678,0.000431,0.015396
5105000,0.0324,0.013523,0.002678,0.000431,0.015866
5106000,0.0324,0.013523,0.002678,0.000431,0.015749
5107000,0.0324,0.013523,0.002678,0.000431,0.014691
5108000,0.0324,0.013523,0.002678,0.000431,0.016101
5109000,0.0324,0.013523,0.002678,0.000431,0.015044
5110000,0.0324,0.013523,0.002678,0.000431,0.014691
5111000,0.0324,0.013523,0.002678,0.000431,0.015044
5112000,0.0324,0.013523,0.002678,0.000431,0.015396
5113000,0.0324,0.013523,0.002678,0.000431,0.014691
5114000,0.0324,0.013523,0.002678,0.000431,0.014573
5115000,0.0324,0.013523,0.002678,0.000431,0.014691
5116000,0.0324,0.013523,0.002678,0.000431,0.013986
5117000,0.0324,0.013523,0.002678,0.000431,0.014221
5118000,0.0324,0.013523,0.002678,0.000431,0.015396
5119000,0.0324,0.013523,0.002678,0.000431,0.013398
5120000,0.0324,0.013523,0.002678,0.000431,0.014809
5121000,0.0324,0.013523,0.002678,0.000431,0.014926
5122000,0.0324,0.013523,0.002678,0.000431,0.013751
5123000,0.0324,0.013523,0.002678,0.000431,0.013751
5124000,0.0324,0.013523,0.002678,0.000431,0.014103
5125000,0.0324,0.013523,0.002678,0.000431,0.013751
5126000,0.0324,0.013523,0.002678,0.000431,0.013986
5127000,0.0324,0.013523,0.002678,0.000431,0.013986
5128000,0.0324,0.013523,0.002678,0.000431,0.013986
5129000,0.0324,0.013523,0.002678,0.000431,0.014691
5130000,0.0324,0.013523,0.002678,0.000431,0.014809
5131000,0.0324,0.013523,0.002678,0.000431,0.014338
5132000,0.0324,0.013523,0.002678,0.000431,0.013516
5133000,0.0324,0.013523,0.002678,0.000431,0.014456
5134000,0.0324,0.013523,0.002678,0.000431,0.013868
5135000,0.0324,0.013523,0.002678,0.000431,0.014103
5136000,0.0324,0.013523,0.002678,0.000431,0.014338
5137000,0.0324,0.013523,0.002678,0.000431,0.013868
5138000,0.0324,0.013523,0.002678,0.000431,0.014221
5139000,0.0324,0.013523,0.002678,0.000431,0.014573
5140000,0.0324,0.013523,0.002678,0.000431,0.014691
5141000,0.0324,0.013523,0.002678,0.000431,0.014456
5142000,0.0324,0.013523,0.002678,0.000431,0.014809
5143000,0.0324,0.013523,0.002678,0.000431,0.013751
5144000,0.0324,0.013523,0.002678,0.000431,0.014221
5145000,0.0324,0.013523,0.002678,0.000431,0.014221
5146000,0.0324,0.013523,0.002678,0.000431,0.014809
5147000,0.0324,0.013523,0.002678,0.000431,0.013633
5148000,0.0324,0.013523,0.002678,0.000431,0.014221
5149000,0.0324,0.013523,0.002678,0.000431,0.014809
5150000,0.0324,0.013523,0.002678,0.000431,0.013986
5151000,0.0324,0.013523,0.002678,0.000431,0.013516
5152000,0.0324,0.013523,0.002678,0.000431,0.013986
5153000,0.0324,0.013523,0.002678,0.000431,0.013751
5154000,0.0324,0.013523,0.002678,0.000431,0.014338
5155000,0.0324,0.013523,0.002678,0.000431,0.013986
5156000,0.0324,0.013523,0.002678,0.000431,0.014103
5157000,0.0324,0.013523,0.002678,0.000431,0.014691
5158000,0.0324,0.013523,0.002678,0.000431,0.014103
5159000,0.0324,0.013523,0.002678,0.000431,0.013751
5160000,0.0324,0.013523,0.002678,0.000431,0.014338
5161000,0.0324,0.013523,0.002678,0.000431,0.014456
5162000,0.0324,0.013523,0.002678,0.000431,0.014456
5163000,0.0324,0.013523,0.002678,0.000431,0.014926
5164000,0.0324,0.013523,0.002678,0.000431,0.014456
5165000,0.0324,0.013523,0.002678,0.000431,0.013868
5166000,0.0324,0.013523,0.002678,0.000431,0.014809
5167000,0.0324,0.013523,0.002678,0.000431,0.013633
5168000,0.0324,0.013523,0.002678,0.000431,0.014221
5169000,0.0324,0.013523,0.002678,0.000431,0.014456
5170000,0.0324,0.013523,0.002678,0.000431,0.014103
5171000,0.0324,0.013523,0.002678,0.000431,0.014221
5172000,0.0324,0.013523,0.002678,0.000431,0.013633
5173000,0.0324,0.013523,0.002678,0.000431,0.014221
5174000,0.0324,0.013523,0.002678,0.000431,0.014338
5175000,0.0324,0.013523,0.002678,0.000431,0.013868
5176000,0.0324,0.013523,0.002678,0.000431,0.014103
5177000,0.0324,0.013523,0.002678,0.000431,0.012928
5178000,0.0324,0.013523,0.002678,0.000431,0.013163
5179000,0.0324,0.013523,0.002678,0.000431,0.013633
5180000,0.0324,0.013523,0.002678,0.000431,0.013281
5181000,0.0324,0.013523,0.002678,0.000431,0.013398
5182000,0.0324,0.013523,0.002678,0.000431,0.013986
5183000,0.0324,0.013523,0.002678,0.000431,0.013868
5184000,0.0324,0.013523,0.002678,0.000431,0.013281
5185000,0.0324,0.013523,0.002678,0.000431,0.012928
5186000,0.0324,0.013523,0.002678,0.000431,0.013281
5187000,0.0324,0.013523,0.002678,0.000431,0.013281
5188000,0.0324,0.013523,0.002678,0.000431,0.014573
5189000,0.0324,0.013523,0.002678,0.000431,0.013281
5190000,0.0324,0.013523,0.002678,0.000431,0.013516
5191000,0.0324,0.013523,0.002678,0.000431,0.013751
5192000,0.0324,0.013523,0.002678,0.000431,0.013398
5193000,0.0324,0.013523,0.002678,0.000431,0.014103
5194000,0.0324,0.013523,0.002678,0.000431,0.013868
5195000,0.0324,0.013523,0.002678,0.000431,0.014221
5196000,0.0324,0.013523,0.002678,0.000431,0.013046
5197000,0.0324,0.013523,0.002678,0.000431,0.013281
5198000,0.0324,0.013523,0.002678,0.000431,0.013046
5199000,0.0324,0.013523,0.002678,0.000431,0.013046
5200000,0.0324,0.013523,0.002678,0.000431,0.013398
5201000,0.0324,0.013523,0.002678,0.000431,0.013986
5202000,0.0324,0.013523,0.002678,0.000431,0.013751
5203000,0.0324,0.013523,0.002678,0.000431,0.013046
5204000,0.0324,0.013523,0.002678,0.000431,0.013281
5205000,0.0324,0.013523,0.002678,0.000431,0.014573
5206000,0.0324,0.013523,0.002678,0.000431,0.012928
5207000,0.0324,0.013523,0.002678,0.000431,0.013281
5208000,0.0324,0.013523,0.002678,0.000431,0.012576
5209000,0.0324,0.013523,0.002678,0.000431,0.012458
5210000,0.0324,0.013523,0.002678,0.000431,0.012693
5211000,0.0324,0.013523,0.002678,0.000431,0.013516
5212000,0.0324,0.013523,0.002678,0.000431,0.013633
5213000,0.0324,0.013523,0.002678,0.000431,0.013398
5214000,0.0324,0.013523,0.002678,0.000431,0.012340
5215000,0.0324,0.013523,0.002678,0.000431,0.012693
5216000,0.0324,0.013523,0.002678,0.000431,0.013398
5217000,0.0324,0.013523,0.002678,0.000431,0.013633
5218000,0.0324,0.013523,0.002678,0.000431,0.013398
5219000,0.0324,0.013523,0.002678,0.000431,0.013751
5220000,0.0324,0.013523,0.002678,0.000431,0.013868
5221000,0.0324,0.013523,0.002678,0.000431,0.012576
5222000,0.0324,0.013523,0.002678,0.000431,0.012928
5223000,0.0324,0.013523,0.002678,0.000431,0.013398
5224000,0.0324,0.013523,0.002678,0.000431,0.012693
5225000,0.0324,0.013523,0.002678,0.000431,0.013633
5226000,0.0324,0.013523,0.002678,0.000431,0.013281
5227000,0.0324,0.013523,0.002678,0.000431,0.013046
5228000,0.0324,0.013523,0.002678,0.000431,0.012811
5229000,0.0324,0.013523,0.002678,0.000431,0.013751
5230000,0.0324,0.013523,0.002678,0.000431,0.013398
5231000,0.0324,0.013523,0.002678,0.000431,0.012811
5232000,0.0324,0.013523,0.002678,0.000431,0.012928
5233000,0.0324,0.013523,0.002678,0.000431,0.013398
5234000,0.0324,0.013523,0.002678,0.000431,0.012223
5235000,0.0324,0.013523,0.002678,0.000431,0.013633
5236000,0.0324,0.013523,0.002678,0.000431,0.013398
5237000,0.0324,0.013523,0.002678,0.000431,0.013516
5238000,0.0324,0.013523,0.002678,0.000431,0.013281
5239000,0.0324,0.013523,0.002678,0.000431,0.012576
5240000,0.0324,0.013523,0.002678,0.000431,0.012811
5241000,0.0324,0.013523,0.002678,0.000431,0.013163
5242000,0.0324,0.013523,0.002678,0.000431,0.012223
5243000,0.0324,0.013523,0.002678,0.000431,0.012928
5244000,0.0324,0.013523,0.002678,0.000431,0.012576
5245000,0.0324,0.013523,0.002678,0.000431,0.013751
5246000,0.0324,0.013523,0.002678,0.000431,0.012928
5247000,0.0324,0.013523,0.002678,0.000431,0.013046
5248000,0.0324,0.013523,0.002678,0.000431,0.012458
5249000,0.0324,0.013523,0.002678,0.000431,0.013751
5250000,0.0324,0.013523,0.002678,0.000431,0.013163
5251000,0.0324,0.013523,0.002678,0.000431,0.013281
5252000,0.0324,0.013523,0.002678,0.000431,0.014103
5253000,0.0324,0.013523,0.002678,0.000431,0.013046
5254000,0.0324,0.013523,0.002678,0.000431,0.012811
5255000,0.0324,0.013523,0.002678,0.000431,0.012576
5256000,0.0324,0.013523,0.002678,0.000431,0.013516
5257000,0.0324,0.013523,0.002678,0.000431,0.013046
5258000,0.0324,0.013523,0.002678,0.000431,0.013046
5259000,0.0324,0.013523,0.002678,0.000431,0.013398
5260000,0.0324,0.013523,0.002678,0.000431,0.013281
5261000,0.0324,0.013523,0.002678,0.000431,0.012928
5262000,0.0324,0.013523,0.002678,0.000431,0.012223
5263000,0.0324,0.013523,0.002678,0.000431,0.012811
5264000,0.0324,0.013523,0.002678,0.000431,0.011635
5265000,0.0324,0.013523,0.002678,0.000431,0.012458
5266000,0.0324,0.013523,0.002678,0.000431,0.012105
5267000,0.0324,0.013523,0.002678,0.000431,0.012928
5268000,0.0324,0.013523,0.002678,0.000431,0.012458
5269000,0.0324,0.013523,0.002678,0.000431,0.012340
5270000,0.0324,0.013523,0.002678,0.000431,0.012340
5271000,0.0324,0.013523,0.002678,0.000431,0.012693
5272000,0.0324,0.013523,0.002678,0.000431,0.012811
5273000,0.0324,0.013523,0.002678,0.000431,0.012340
5274000,0.0324,0.013523,0.002678,0.000431,0.013046
5275000,0.0324,0.013523,0.002678,0.000431,0.013046
5276000,0.0324,0.013523,0.002678,0.000431,0.011870
5277000,0.0324,0.013523,0.002678,0.000431,0.012105
5278000,0.0324,0.013523,0.002678,0.000431,0.013046
5279000,0.0324,0.013523,0.002678,0.000431,0.011870
5280000,0.0324,0.013523,0.002678,0.000431,0.011400
5281000,0.0324,0.013523,0.002678,0.000431,0.011165
5282000,0.0324,0.013523,0.002678,0.000431,0.011283
5283000,0.0324,0.013523,0.002678,0.000431,0.010813
5284000,0.0324,0.013523,0.002678,0.000431,0.011753
5285000,0.0324,0.013523,0.002678,0.000431,0.011753
5286000,0.0324,0.013523,0.002678,0.000431,0.011283
5287000,0.0324,0.013523,0.002678,0.000431,0.011400
5288000,0.0324,0.013523,0.002678,0.000431,0.011165
5289000,0.0324,0.013523,0.002678,0.000431,0.010578
5290000,0.0324,0.013523,0.002678,0.000431,0.011753
5291000,0.0324,0.013523,0.002678,0.000431,0.011518
5292000,0.0324,0.013523,0.002678,0.000431,0.011048
5293000,0.0324,0.013523,0.002678,0.000431,0.010695
5294000,0.0324,0.013523,0.002678,0.000431,0.011283
5295000,0.0324,0.013523,0.002678,0.000431,0.012223
5296000,0.0324,0.013523,0.002678,0.000431,0.010695
5297000,0.0324,0.013523,0.002678,0.000431,0.010813
5298000,0.0324,0.013523,0.002678,0.000431,0.011165
5299000,0.0324,0.013523,0.002678,0.000431,0.011635
5300000,0.0324,0.013523,0.002678,0.000431,0.010813
5301000,0.0324,0.013523,0.002678,0.000431,0.011635
5302000,0.0324,0.013523,0.002678,0.000431,0.010460
5303000,0.0324,0.013523,0.002678,0.000431,0.010930
5304000,0.0324,0.013523,0.002678,0.000431,0.011635
5305000,0.0324,0.013523,0.002678,0.000431,0.011635
5306000,0.0324,0.013523,0.002678,0.000431,0.011753
5307000,0.0324,0.013523,0.002678,0.000431,0.011165
5308000,0.0324,0.013523,0.002678,0.000431,0.011283
5309000,0.0324,0.013523,0.002678,0.000431,0.010813
5310000,0.0324,0.013523,0.002678,0.000431,0.012340
5311000,0.0324,0.013523,0.002678,0.000431,0.011165
5312000,0.0324,0.013523,0.002678,0.000431,0.010813
5313000,0.0324,0.013523,0.002678,0.000431,0.010460
5314000,0.0324,0.013523,0.002678,0.000431,0.012105
5315000,0.0324,0.013523,0.002678,0.000431,0.011283
5316000,0.0324,0.013523,0.002678,0.000431,0.010813
5317000,0.0324,0.013523,0.002678,0.000431,0.011283
5318000,0.0324,0.013523,0.002678,0.000431,0.011165
5319000,0.0324,0.013523,0.002678,0.000431,0.010578
5320000,0.0324,0.013523,0.002678,0.000431,0.011165
5321000,0.0324,0.013523,0.002678,0.000431,0.011400
5322000,0.0324,0.013523,0.002678,0.000431,0.011518
5323000,0.0324,0.013523,0.002678,0.000431,0.010578
5324000,0.0324,0.013523,0.002678,0.000431,0.011518
5325000,0.0324,0.013523,0.002678,0.000431,0.011048
5326000,0.0324,0.013523,0.002678,0.000431,0.011635
5327000,0.0324,0.013523,0.002678,0.000431,0.010930
5328000,0.0324,0.013523,0.002678,0.000431,0.011400
5329000,0.0324,0.013523,0.002678,0.000431,0.010930
5330000,0.0324,0.013523,0.002678,0.000431,0.011518
5331000,0.0324,0.013523,0.002678,0.000431,0.010460
5332000,0.0324,0.013523,0.002678,0.000431,0.010578
5333000,0.0324,0.013523,0.002678,0.000431,0.010813
5334000,0.0324,0.013523,0.002678,0.000431,0.010342
5335000,0.0324,0.013523,0.002678,0.000431,0.010813
5336000,0.0324,0.013523,0.002678,0.000431,0.011283
5337000,0.0324,0.013523,0.002678,0.000431,0.009990
5338000,0.0324,0.013523,0.002678,0.000431,0.010813
5339000,0.0324,0.013523,0.002678,0.000431,0.010695
5340000,0.0324,0.013523,0.002678,0.000431,0.010930
5341000,0.0324,0.013523,0.002678,0.000431,0.009990
5342000,0.0324,0.013523,0.002678,0.000431,0.010460
5343000,0.0324,0.013523,0.002678,0.000431,0.010930
5344000,0.0324,0.013523,0.002678,0.000431,0.010342
5345000,0.0324,0.013523,0.002678,0.000431,0.010695
5346000,0.0324,0.013523,0.002678,0.000431,0.010460
5347000,0.0324,0.013523,0.002678,0.000431,0.010107
5348000,0.0324,0.013523,0.002678,0.000431,0.010342
5349000,0.0324,0.013523,0.002678,0.000431,0.010225
5350000,0.0324,0.013523,0.002678,0.000431,0.010695
5351000,0.0324,0.013523,0.002678,0.000431,0.010107
5352000,0.0324,0.013523,0.002678,0.000431,0.010107
5353000,0.0324,0.013523,0.002678,0.000431,0.009520
5354000,0.0324,0.013523,0.002678,0.000431,0.010695
5355000,0.0324,0.013523,0.002678,0.000431,0.010930
5356000,0.0324,0.013523,0.002678,0.000431,0.009285
5357000,0.0324,0.013523,0.002678,0.000431,0.009402
5358000,0.0324,0.013523,0.002678,0.000431,0.009872
5359000,0.0324,0.013523,0.002678,0.000431,0.010578
5360000,0.0324,0.013523,0.002678,0.000431,0.009285
5361000,0.0324,0.013523,0.002678,0.000431,0.009872
5362000,0.0324,0.013523,0.002678,0.000431,0.010225
5363000,0.0324,0.013523,0.002678,0.000431,0.009637
5364000,0.0324,0.013523,0.002678,0.000431,0.009872
5365000,0.0324,0.013523,0.002678,0.000431,0.009872
5366000,0.0324,0.013523,0.002678,0.000431,0.009990
5367000,0.0324,0.013523,0.002678,0.000431,0.010342
5368000,0.0324,0.013523,0.002678,0.000431,0.010107
5369000,0.0324,0.013523,0.002678,0.000431,0.010342
5370000,0.0324,0.013523,0.002678,0.000431,0.009285
5371000,0.0324,0.013523,0.002678,0.000431,0.010460
5372000,0.0324,0.013523,0.002678,0.000431,0.009637
5373000,0.0324,0.013523,0.002678,0.000431,0.009990
5374000,0.0324,0.013523,0.002678,0.000431,0.009520
5375000,0.0324,0.013523,0.002678,0.000431,0.009990
5376000,0.0324,0.013523,0.002678,0.000431,0.010342
5377000,0.0324,0.013523,0.002678,0.000431,0.009755
5378000,0.0324,0.013523,0.002678,0.000431,0.010342
5379000,0.0324,0.013523,0.002678,0.000431,0.010225
5380000,0.0324,0.013523,0.002678,0.000431,0.009755
5381000,0.0324,0.013523,0.002678,0.000431,0.010225
5382000,0.0324,0.013523,0.002678,0.000431,0.009285
5383000,0.0324,0.013523,0.002678,0.000431,0.010930
5384000,0.0324,0.013523,0.002678,0.000431,0.009755
5385000,0.0324,0.013523,0.002678,0.000431,0.009990
5386000,0.0324,0.013523,0.002678,0.000431,0.009872
5387000,0.0324,0.013523,0.002678,0.000431,0.010813
5388000,0.0324,0.013523,0.002678,0.000431,0.009755
5389000,0.0324,0.013523,0.002678,0.000431,0.010225
5390000,0.0324,0.013523,0.002678,0.000431,0.009637
5391000,0.0324,0.013523,0.002678,0.000431,0.009990
5392000,0.0324,0.013523,0.002678,0.000431,0.009872
5393000,0.0324,0.013523,0.002678,0.000431,0.009990
5394000,0.0324,0.013523,0.002678,0.000431,0.010460
5395000,0.0324,0.013523,0.002678,0.000431,0.010107
5396000,0.0324,0.013523,0.002678,0.000431,0.009872
5397000,0.0324,0.013523,0.002678,0.000431,0.010225
5398000,0.0324,0.013523,0.002678,0.000431,0.009637
5399000,0.0324,0.013523,0.002678,0.000431,0.009872
5400000,0.0324,0.013523,0.002678,0.000431,0.010225
5401000,0.0324,0.013523,0.002678,0.000431,0.010460
5402000,0.0324,0.013523,0.002678,0.000431,0.009402
5403000,0.0324,0.013523,0.002678,0.000431,0.009755
5404000,0.0324,0.013523,0.002678,0.000431,0.010460
5405000,0.0324,0.013523,0.002678,0.000431,0.010107
5406000,0.0324,0.013523,0.002678,0.000431,0.010107
5407000,0.0324,0.013523,0.002678,0.000431,0.009755
5408000,0.0324,0.013523,0.002678,0.000431,0.009637
5409000,0.0324,0.013523,0.002678,0.000431,0.009755
5410000,0.0324,0.013523,0.002678,0.000431,0.009990
5411000,0.0324,0.013523,0.002678,0.000431,0.010107
5412000,0.0324,0.013523,0.002678,0.000431,0.009755
5413000,0.0324,0.013523,0.002678,0.000431,0.009167
5414000,0.0324,0.013523,0.002678,0.000431,0.009990
5415000,0.0324,0.013523,0.002678,0.000431,0.009167
5416000,0.0324,0.013523,0.002678,0.000431,0.009402
5417000,0.0324,0.013523,0.002678,0.000431,0.009637
5418000,0.0324,0.013523,0.002678,0.000431,0.009050
5419000,0.0324,0.013523,0.002678,0.000431,0.009637
5420000,0.0324,0.013523,0.002678,0.000431,0.008932
5421000,0.0324,0.013523,0.002678,0.000431,0.009637
5422000,0.0324,0.013523,0.002678,0.000431,0.009285
5423000,0.0324,0.013523,0.002678,0.000431,0.009050
5424000,0.0324,0.013523,0.002678,0.000431,0.009520
5425000,0.0324,0.013523,0.002678,0.000431,0.009402
5426000,0.0324,0.013523,0.002678,0.000431,0.009167
5427000,0.0324,0.013523,0.002678,0.000431,0.009872
5428000,0.0324,0.013523,0.002678,0.000431,0.009285
5429000,0.0324,0.013523,0.002678,0.000431,0.009167
5430000,0.0324,0.013523,0.002678,0.000431,0.009637
5431000,0.0324,0.013523,0.002678,0.000431,0.008932
5432000,0.0324,0.013523,0.002678,0.000431,0.009285
5433000,0.0324,0.013523,0.002678,0.000431,0.009755
5434000,0.0324,0.013523,0.002678,0.000431,0.009637
5435000,0.0324,0.013523,0.002678,0.000431,0.009402
5436000,0.0324,0.013523,0.002678,0.000431,0.009285
5437000,0.0324,0.013523,0.002678,0.000431,0.009637
5438000,0.0324,0.013523,0.002678,0.000431,0.009285
5439000,0.0324,0.013523,0.002678,0.000431,0.010225
5440000,0.0324,0.013523,0.002678,0.000431,0.008697
5441000,0.0324,0.013523,0.002678,0.000431,0.008462
5442000,0.0324,0.013523,0.002678,0.000431,0.009167
5443000,0.0324,0.013523,0.002678,0.000431,0.007992
5444000,0.0324,0.013523,0.002678,0.000431,0.009050
5445000,0.0324,0.013523,0.002678,0.000431,0.008462
5446000,0.0324,0.013523,0.002678,0.000431,0.008815
5447000,0.0324,0.013523,0.002678,0.000431,0.009285
5448000,0.0324,0.013523,0.002678,0.000431,0.009402
5449000,0.0324,0.013523,0.002678,0.000431,0.008345
5450000,0.0324,0.013523,0.002678,0.000431,0.009050
5451000,0.0324,0.013523,0.002678,0.000431,0.008815
5452000,0.0324,0.013523,0.002678,0.000431,0.009050
5453000,0.0324,0.013523,0.002678,0.000431,0.007639
5454000,0.0324,0.013523,0.002678,0.000431,0.009402
5455000,0.0324,0.013523,0.002678,0.000431,0.009167
5456000,0.0324,0.013523,0.002678,0.000431,0.009050
5457000,0.0324,0.013523,0.002678,0.000431,0.008580
5458000,0.0324,0.013523,0.002678,0.000431,0.008227
5459000,0.0324,0.013523,0.002678,0.000431,0.008697
5460000,0.0324,0.013523,0.002678,0.000431,0.009520
5461000,0.0324,0.013523,0.002678,0.000431,0.008462
5462000,0.0324,0.013523,0.002678,0.000431,0.008580
5463000,0.0324,0.013523,0.002678,0.000431,0.009167
5464000,0.0324,0.013523,0.002678,0.000431,0.008697
5465000,0.0324,0.013523,0.002678,0.000431,0.009285
5466000,0.0324,0.013523,0.002678,0.000431,0.008932
5467000,0.0324,0.013523,0.002678,0.000431,0.009167
5468000,0.0324,0.013523,0.002678,0.000431,0.009402
5469000,0.0324,0.013523,0.002678,0.000431,0.007757
5470000,0.0324,0.013523,0.002678,0.000431,0.008227
5471000,0.0324,0.013523,0.002678,0.000431,0.008932
5472000,0.0324,0.013523,0.002678,0.000431,0.008462
5473000,0.0324,0.013523,0.002678,0.000431,0.008580
5474000,0.0324,0.013523,0.002678,0.000431,0.007757
5475000,0.0324,0.013523,0.002678,0.000431,0.007874
5476000,0.0324,0.013523,0.002678,0.000431,0.008345
5477000,0.0324,0.013523,0.002678,0.000431,0.007992
5478000,0.0324,0.013523,0.002678,0.000431,0.008815
5479000,0.0324,0.013523,0.002678,0.000431,0.008109
5480000,0.0324,0.013523,0.002678,0.000431,0.008580
5481000,0.0324,0.013523,0.002678,0.000431,0.007522
5482000,0.0324,0.013523,0.002678,0.000431,0.008697
5483000,0.0324,0.013523,0.002678,0.000431,0.008932
5484000,0.0324,0.013523,0.002678,0.000431,0.007992
5485000,0.0324,0.013523,0.002678,0.000431,0.008462
5486000,0.0324,0.013523,0.002678,0.000431,0.008227
5487000,0.0324,0.013523,0.002678,0.000431,0.008109
5488000,0.0324,0.013523,0.002678,0.000431,0.008345
5489000,0.0324,0.013523,0.002678,0.000431,0.007874
5490000,0.0324,0.013523,0.002678,0.000431,0.007639
5491000,0.0324,0.013523,0.002678,0.000431,0.008345
5492000,0.0324,0.013523,0.002678,0.000431,0.008815
5493000,0.0324,0.013523,0.002678,0.000431,0.008109
5494000,0.0324,0.013523,0.002678,0.000431,0.008345
5495000,0.0324,0.013523,0.002678,0.000431,0.008697
5496000,0.0324,0.013523,0.002678,0.000431,0.008580
5497000,0.0324,0.013523,0.002678,0.000431,0.008815
5498000,0.0324,0.013523,0.002678,0.000431,0.008109
5499000,0.0324,0.013523,0.002678,0.000431,0.008227
5500000,0.0324,0.013523,0.002678,0.000431,0.008580
5501000,0.0324,0.013523,0.002678,0.000431,0.007992
5502000,0.0324,0.013523,0.002678,0.000431,0.008227
5503000,0.0324,0.013523,0.002678,0.000431,0.008815
5504000,0.0324,0.013523,0.002678,0.000431,0.008815
5505000,0.0324,0.013523,0.002678,0.000431,0.008345
5506000,0.0324,0.013523,0.002678,0.000431,0.008227
5507000,0.0324,0.013523,0.002678,0.000431,0.008697
5508000,0.0324,0.013523,0.002678,0.000431,0.008462
5509000,0.0324,0.013523,0.002678,0.000431,0.007874
5510000,0.0324,0.013523,0.002678,0.000431,0.008697
5511000,0.0324,0.013523,0.002678,0.000431,0.008462
5512000,0.0324,0.013523,0.002678,0.000431,0.008109
5513000,0.0324,0.013523,0.002678,0.000431,0.007639
5514000,0.0324,0.013523,0.002678,0.000431,0.008109
5515000,0.0324,0.013523,0.002678,0.000431,0.007874
5516000,0.0324,0.013523,0.002678,0.000431,0.008109
5517000,0.0324,0.013523,0.002678,0.000431,0.008462
5518000,0.0324,0.013523,0.002678,0.000431,0.008462
5519000,0.0324,0.013523,0.002678,0.000431,0.008697
5520000,0.0324,0.013523,0.002678,0.000431,0.008109
5521000,0.0324,0.013523,0.002678,0.000431,0.008227
5522000,0.0324,0.013523,0.002678,0.000431,0.008227
5523000,0.0324,0.013523,0.002678,0.000431,0.007874
5524000,0.0324,0.013523,0.002678,0.000431,0.007992
5525000,0.0324,0.013523,0.002678,0.000431,0.007874
5526000,0.0324,0.013523,0.002678,0.000431,0.008109
5527000,0.0324,0.013523,0.002678,0.000431,0.007757
5528000,0.0324,0.013523,0.002678,0.000431,0.008462
5529000,0.0324,0.013523,0.002678,0.000431,0.007757
5530000,0.0324,0.013523,0.002678,0.000431,0.008580
5531000,0.0324,0.013523,0.002678,0.000431,0.008580
5532000,0.0324,0.013523,0.002678,0.000431,0.008345
5533000,0.0324,0.013523,0.002678,0.000431,0.008697
5534000,0.0324,0.013523,0.002678,0.000431,0.007992
5535000,0.0324,0.013523,0.002678,0.000431,0.008227
5536000,0.0324,0.013523,0.002678,0.000431,0.007874
5537000,0.0324,0.013523,0.002678,0.000431,0.008227
5538000,0.0324,0.013523,0.002678,0.000431,0.008462
5539000,0.0324,0.013523,0.002678,0.000431,0.007874
5540000,0.0324,0.013523,0.002678,0.000431,0.008227
5541000,0.0324,0.013523,0.002678,0.000431,0.008580
5542000,0.0324,0.013523,0.002678,0.000431,0.008109
5543000,0.0324,0.013523,0.002678,0.000431,0.008462
5544000,0.0324,0.013523,0.002678,0.000431,0.008697
5545000,0.0324,0.013523,0.002678,0.000431,0.008815
5546000,0.0324,0.013523,0.002678,0.000431,0.007992
5547000,0.0324,0.013523,0.002678,0.000431,0.007874
5548000,0.0324,0.013523,0.002678,0.000431,0.008462
5549000,0.0324,0.013523,0.002678,0.000431,0.008345
5550000,0.0324,0.013523,0.002678,0.000431,0.007992
5551000,0.0324,0.013523,0.002678,0.000431,0.008697
5552000,0.0324,0.013523,0.002678,0.000431,0.007874
5553000,0.0324,0.013523,0.002678,0.000431,0.008227
5554000,0.0324,0.013523,0.002678,0.000431,0.008109
5555000,0.0324,0.013523,0.002678,0.000431,0.007757
5556000,0.0324,0.013523,0.002678,0.000431,0.008227
5557000,0.0324,0.013523,0.002678,0.000431,0.007874
5558000,0.0324,0.013523,0.002678,0.000431,0.008462
5559000,0.0324,0.013523,0.002678,0.000431,0.008227
5560000,0.0324,0.013523,0.002678,0.000431,0.008345
5561000,0.0324,0.013523,0.002678,0.000431,0.008345
5562000,0.0324,0.013523,0.002678,0.000431,0.008345
5563000,0.0324,0.013523,0.002678,0.000431,0.007757
5564000,0.0324,0.013523,0.002678,0.000431,0.008227
5565000,0.0324,0.013523,0.002678,0.000431,0.008815
5566000,0.0324,0.013523,0.002678,0.000431,0.008109
5567000,0.0324,0.013523,0.002678,0.000431,0.008227
5568000,0.0324,0.013523,0.002678,0.000431,0.008462
5569000,0.0324,0.013523,0.002678,0.000431,0.007639
5570000,0.0324,0.013523,0.002678,0.000431,0.007874
5571000,0.0324,0.013523,0.002678,0.000431,0.007169
5572000,0.0324,0.013523,0.002678,0.000431,0.007874
5573000,0.0324,0.013523,0.002678,0.000431,0.008109
5574000,0.0324,0.013523,0.002678,0.000431,0.008462
5575000,0.0324,0.013523,0.002678,0.000431,0.007404
5576000,0.0324,0.013523,0.002678,0.000431,0.007404
5577000,0.0324,0.013523,0.002678,0.000431,0.007992
5578000,0.0324,0.013523,0.002678,0.000431,0.008109
5579000,0.0324,0.013523,0.002678,0.000431,0.007992
5580000,0.0324,0.013523,0.002678,0.000431,0.006934
5581000,0.0324,0.013523,0.002678,0.000431,0.007639
5582000,0.0324,0.013523,0.002678,0.000431,0.007522
5583000,0.0324,0.013523,0.002678,0.000431,0.008227
5584000,0.0324,0.013523,0.002678,0.000431,0.007639
5585000,0.0324,0.013523,0.002678,0.000431,0.007757
5586000,0.0324,0.013523,0.002678,0.000431,0.007874
5587000,0.0324,0.013523,0.002678,0.000431,0.007639
5588000,0.0324,0.013523,0.002678,0.000431,0.007874
5589000,0.0324,0.013523,0.002678,0.000431,0.007639
5590000,0.0324,0.013523,0.002678,0.000431,0.007169
5591000,0.0324,0.013523,0.002678,0.000431,0.008580
5592000,0.0324,0.013523,0.002678,0.000431,0.007404
5593000,0.0324,0.013523,0.002678,0.000431,0.007992
5594000,0.0324,0.013523,0.002678,0.000431,0.007522
5595000,0.0324,0.013523,0.002678,0.000431,0.007404
5596000,0.0324,0.013523,0.002678,0.000431,0.008227
5597000,0.0324,0.013523,0.002678,0.000431,0.007757
5598000,0.0324,0.013523,0.002678,0.000431,0.007287
5599000,0.0324,0.013523,0.002678,0.000431,0.007757
5600000,0.0324,0.013523,0.002678,0.000431,0.007639
5601000,0.0324,0.013523,0.002678,0.000431,0.007522
5602000,0.0324,0.013523,0.002678,0.000431,0.007522
5603000,0.0324,0.013523,0.002678,0.000431,0.007052
5604000,0.0324,0.013523,0.002678,0.000431,0.007874
5605000,0.0324,0.013523,0.002678,0.000431,0.007874
5606000,0.0324,0.013523,0.002678,0.000431,0.006934
5607000,0.0324,0.013523,0.002678,0.000431,0.006699
5608000,0.0324,0.013523,0.002678,0.000431,0.007874
5609000,0.0324,0.013523,0.002678,0.000431,0.006699
5610000,0.0324,0.013523,0.002678,0.000431,0.007169
5611000,0.0324,0.013523,0.002678,0.000431,0.006464
5612000,0.0324,0.013523,0.002678,0.000431,0.006464
5613000,0.0324,0.013523,0.002678,0.000431,0.005641
5614000,0.0324,0.013523,0.002678,0.000431,0.006582
5615000,0.0324,0.013523,0.002678,0.000431,0.006464
5616000,0.0324,0.013523,0.002678,0.000431,0.006582
5617000,0.0324,0.013523,0.002678,0.000431,0.005994
5618000,0.0324,0.013523,0.002678,0.000431,0.006111
5619000,0.0324,0.013523,0.002678,0.000431,0.006699
5620000,0.0324,0.013523,0.002678,0.000431,0.006464
5621000,0.0324,0.013523,0.002678,0.000431,0.006464
5622000,0.0324,0.013523,0.002678,0.000431,0.006111
5623000,0.0324,0.013523,0.002678,0.000431,0.006817
5624000,0.0324,0.013523,0.002678,0.000431,0.005641
5625000,0.0324,0.013523,0.002678,0.000431,0.007052
5626000,0.0324,0.013523,0.002678,0.000431,0.006229
5627000,0.0324,0.013523,0.002678,0.000431,0.006464
5628000,0.0324,0.013523,0.002678,0.000431,0.006229
5629000,0.0324,0.013523,0.002678,0.000431,0.007052
5630000,0.0324,0.013523,0.002678,0.000431,0.006111
5631000,0.0324,0.013523,0.002678,0.000431,0.006464
5632000,0.0324,0.013523,0.002678,0.000431,0.006111
5633000,0.0324,0.013523,0.002678,0.000431,0.006111
5634000,0.0324,0.013523,0.002678,0.000431,0.006464
5635000,0.0324,0.013523,0.002678,0.000431,0.006699
5636000,0.0324,0.013523,0.002678,0.000431,0.006699
5637000,0.0324,0.013523,0.002678,0.000431,0.006111
5638000,0.0324,0.013523,0.002678,0.000431,0.006582
5639000,0.0324,0.013523,0.002678,0.000431,0.006464
5640000,0.0324,0.013523,0.002678,0.000431,0.006347
5641000,0.0324,0.013523,0.002678,0.000431,0.006464
5642000,0.0324,0.013523,0.002678,0.000431,0.006699
5643000,0.0324,0.013523,0.002678,0.000431,0.005994
5644000,0.0324,0.013523,0.002678,0.000431,0.006699
5645000,0.0324,0.013523,0.002678,0.000431,0.006229
5646000,0.0324,0.013523,0.002678,0.000431,0.006817
5647000,0.0324,0.013523,0.002678,0.000431,0.006464
5648000,0.0324,0.013523,0.002678,0.000431,0.006582
5649000,0.0324,0.013523,0.002678,0.000431,0.006229
5650000,0.0324,0.013523,0.002678,0.000431,0.006464
5651000,0.0324,0.013523,0.002678,0.000431,0.006229
5652000,0.0324,0.013523,0.002678,0.000431,0.006347
5653000,0.0324,0.013523,0.002678,0.000431,0.006229
5654000,0.0324,0.013523,0.002678,0.000431,0.006582
5655000,0.0324,0.013523,0.002678,0.000431,0.006347
5656000,0.0324,0.013523,0.002678,0.000431,0.006111
5657000,0.0324,0.013523,0.002678,0.000431,0.006699
5658000,0.0324,0.013523,0.002678,0.000431,0.006347
5659000,0.0324,0.013523,0.002678,0.000431,0.006111
5660000,0.0324,0.013523,0.002678,0.000431,0.006582
5661000,0.0324,0.013523,0.002678,0.000431,0.006229
5662000,0.0324,0.013523,0.002678,0.000431,0.006582
5663000,0.0324,0.013523,0.002678,0.000431,0.006464
5664000,0.0324,0.013523,0.002678,0.000431,0.005994
5665000,0.0324,0.013523,0.002678,0.000431,0.006582
5666000,0.0324,0.013523,0.002678,0.000431,0.006464
5667000,0.0324,0.013523,0.002678,0.000431,0.006464
5668000,0.0324,0.013523,0.002678,0.000431,0.006347
5669000,0.0324,0.013523,0.002678,0.000431,0.006934
5670000,0.0324,0.013523,0.002678,0.000431,0.006582
5671000,0.0324,0.013523,0.002678,0.000431,0.006347
5672000,0.0324,0.013523,0.002678,0.000431,0.006229
5673000,0.0324,0.013523,0.002678,0.000431,0.006229
5674000,0.0324,0.013523,0.002678,0.000431,0.006229
5675000,0.0324,0.013523,0.002678,0.000431,0.005759
5676000,0.0324,0.013523,0.002678,0.000431,0.007052
5677000,0.0324,0.013523,0.002678,0.000431,0.006111
5678000,0.0324,0.013523,0.002678,0.000431,0.005876
5679000,0.0324,0.013523,0.002678,0.000431,0.006347
5680000,0.0324,0.013523,0.002678,0.000431,0.006699
5681000,0.0324,0.013523,0.002678,0.000431,0.006111
5682000,0.0324,0.013523,0.002678,0.000431,0.006111
5683000,0.0324,0.013523,0.002678,0.000431,0.006111
5684000,0.0324,0.013523,0.002678,0.000431,0.006582
5685000,0.0324,0.013523,0.002678,0.000431,0.006934
5686000,0.0324,0.013523,0.002678,0.000431,0.006817
5687000,0.0324,0.013523,0.002678,0.000431,0.006699
5688000,0.0324,0.013523,0.002678,0.000431,0.006111
5689000,0.0324,0.013523,0.002678,0.000431,0.006347
5690000,0.0324,0.013523,0.002678,0.000431,0.005641
5691000,0.0324,0.013523,0.002678,0.000431,0.005406
5692000,0.0324,0.013523,0.002678,0.000431,0.006464
5693000,0.0324,0.013523,0.002678,0.000431,0.005289
5694000,0.0324,0.013523,0.002678,0.000431,0.005994
5695000,0.0324,0.013523,0.002678,0.000431,0.005876
5696000,0.0324,0.013523,0.002678,0.000431,0.005759
5697000,0.0324,0.013523,0.002678,0.000431,0.005994
5698000,0.0324,0.013523,0.002678,0.000431,0.005994
5699000,0.0324,0.013523,0.002678,0.000431,0.005641
5700000,0.0324,0.013523,0.002678,0.000431,0.006111
5701000,0.0324,0.013523,0.002678,0.000431,0.005641
5702000,0.0324,0.013523,0.002678,0.000431,0.005641
5703000,0.0324,0.013523,0.002678,0.000431,0.005524
5704000,0.0324,0.013523,0.002678,0.000431,0.006229
5705000,0.0324,0.013523,0.002678,0.000431,0.005641
5706000,0.0324,0.013523,0.002678,0.000431,0.005994
5707000,0.0324,0.013523,0.002678,0.000431,0.005524
5708000,0.0324,0.013523,0.002678,0.000431,0.005406
5709000,0.0324,0.013523,0.002678,0.000431,0.006111
5710000,0.0324,0.013523,0.002678,0.000431,0.005524
5711000,0.0324,0.013523,0.002678,0.000431,0.005876
5712000,0.0324,0.013523,0.002678,0.000431,0.005406
5713000,0.0324,0.013523,0.002678,0.000431,0.006347
5714000,0.0324,0.013523,0.002678,0.000431,0.005641
5715000,0.0324,0.013523,0.002678,0.000431,0.005289
5716000,0.0324,0.013523,0.002678,0.000431,0.005876
5717000,0.0324,0.013523,0.002678,0.000431,0.006229
5718000,0.0324,0.013523,0.002678,0.000431,0.005524
5719000,0.0324,0.013523,0.002678,0.000431,0.005759
5720000,0.0324,0.013523,0.002678,0.000431,0.005641
5721000,0.0324,0.013523,0.002678,0.000431,0.005876
5722000,0.0324,0.013523,0.002678,0.000431,0.005289
5723000,0.0324,0.013523,0.002678,0.000431,0.005876
5724000,0.0324,0.013523,0.002678,0.000431,0.005994
5725000,0.0324,0.013523,0.002678,0.000431,0.005759
5726000,0.0324,0.013523,0.002678,0.000431,0.005171
5727000,0.0324,0.013523,0.002678,0.000431,0.006111
5728000,0.0324,0.013523,0.002678,0.000431,0.006229
5729000,0.0324,0.013523,0.002678,0.000431,0.005876
5730000,0.0324,0.013523,0.002678,0.000431,0.005524
5731000,0.0324,0.013523,0.002678,0.000431,0.005994
5732000,0.0324,0.013523,0.002678,0.000431,0.005759
5733000,0.0324,0.013523,0.002678,0.000431,0.005641
5734000,0.0324,0.013523,0.002678,0.000431,0.005994
5735000,0.0324,0.013523,0.002678,0.000431,0.006229
5736000,0.0324,0.013523,0.002678,0.000431,0.005876
5737000,0.0324,0.013523,0.002678,0.000431,0.005406
5738000,0.0324,0.013523,0.002678,0.000431,0.006464
5739000,0.0324,0.013523,0.002678,0.000431,0.005641
5740000,0.0324,0.013523,0.002678,0.000431,0.006229
5741000,0.0324,0.013523,0.002678,0.000431,0.005759
5742000,0.0324,0.013523,0.002678,0.000431,0.005641
5743000,0.0324,0.013523,0.002678,0.000431,0.006229
5744000,0.0324,0.013523,0.002678,0.000431,0.005876
5745000,0.0324,0.013523,0.002678,0.000431,0.005876
5746000,0.0324,0.013523,0.002678,0.000431,0.005406
5747000,0.0324,0.013523,0.002678,0.000431,0.005759
5748000,0.0324,0.013523,0.002678,0.000431,0.005171
5749000,0.0324,0.013523,0.002678,0.000431,0.005994
5750000,0.0324,0.013523,0.002678,0.000431,0.005524
5751000,0.0324,0.013523,0.002678,0.000431,0.006111
5752000,0.0324,0.013523,0.002678,0.000431,0.005524
5753000,0.0324,0.013523,0.002678,0.000431,0.005759
5754000,0.0324,0.013523,0.002678,0.000431,0.006111
5755000,0.0324,0.013523,0.002678,0.000431,0.006347
5756000,0.0324,0.013523,0.002678,0.000431,0.005641
5757000,0.0324,0.013523,0.002678,0.000431,0.005641
5758000,0.0324,0.013523,0.002678,0.000431,0.006229
5759000,0.0324,0.013523,0.002678,0.000431,0.005759
5760000,0.0324,0.013523,0.002678,0.000431,0.005759
5761000,0.0324,0.013523,0.002678,0.000431,0.005876
5762000,0.0324,0.013523,0.002678,0.000431,0.005406
5763000,0.0324,0.013523,0.002678,0.000431,0.005994
5764000,0.0324,0.013523,0.002678,0.000431,0.005759
5765000,0.0324,0.013523,0.002678,0.000431,0.005289
5766000,0.0324,0.013523,0.002678,0.000431,0.005524
5767000,0.0324,0.013523,0.002678,0.000431,0.005994
5768000,0.0324,0.013523,0.002678,0.000431,0.005876
5769000,0.0324,0.013523,0.002678,0.000431,0.005641
5770000,0.0324,0.013523,0.002678,0.000431,0.005994
5771000,0.0324,0.013523,0.002678,0.000431,0.005994
5772000,0.0324,0.013523,0.002678,0.000431,0.005759
5773000,0.0324,0.013523,0.002678,0.000431,0.005524
5774000,0.0324,0.013523,0.002678,0.000431,0.005759
5775000,0.0324,0.013523,0.002678,0.000431,0.005289
5776000,0.0324,0.013523,0.002678,0.000431,0.005406
5777000,0.0324,0.013523,0.002678,0.000431,0.005876
5778000,0.0324,0.013523,0.002678,0.000431,0.005289
5779000,0.0324,0.013523,0.002678,0.000431,0.005759
5780000,0.0324,0.013523,0.002678,0.000431,0.005641
5781000,0.0324,0.013523,0.002678,0.000431,0.005759
5782000,0.0324,0.013523,0.002678,0.000431,0.005641
5783000,0.0324,0.013523,0.002678,0.000431,0.006229
5784000,0.0324,0.013523,0.002678,0.000431,0.005994
5785000,0.0324,0.013523,0.002678,0.000431,0.005641
5786000,0.0324,0.013523,0.002678,0.000431,0.005876
5787000,0.0324,0.013523,0.002678,0.000431,0.005171
5788000,0.0324,0.013523,0.002678,0.000431,0.005759
5789000,0.0324,0.013523,0.002678,0.000431,0.005876
5790000,0.0324,0.013523,0.002678,0.000431,0.005289
5791000,0.0324,0.013523,0.002678,0.000431,0.006347
5792000,0.0324,0.013523,0.002678,0.000431,0.005876
5793000,0.0324,0.013523,0.002678,0.000431,0.005524
5794000,0.0324,0.013523,0.002678,0.000431,0.006111
5795000,0.0324,0.013523,0.002678,0.000431,0.005994
5796000,0.0324,0.013523,0.002678,0.000431,0.005759
5797000,0.0324,0.013523,0.002678,0.000431,0.005876
5798000,0.0324,0.013523,0.002678,0.000431,0.005289
5799000,0.0324,0.013523,0.002678,0.000431,0.005641
5800000,0.0324,0.013523,0.002678,0.000431,0.005524
5801000,0.0324,0.013523,0.002678,0.000431,0.005876
5802000,0.0324,0.013523,0.002678,0.000431,0.005876
5803000,0.0324,0.013523,0.002678,0.000431,0.005524
5804000,0.0324,0.013523,0.002678,0.000431,0.006111
5805000,0.0324,0.013523,0.002678,0.000431,0.005876
5806000,0.0324,0.013523,0.002678,0.000431,0.005289
5807000,0.0324,0.013523,0.002678,0.000431,0.005641
5808000,0.0324,0.013523,0.002678,0.000431,0.005876
5809000,0.0324,0.013523,0.002678,0.000431,0.005406
5810000,0.0324,0.013523,0.002678,0.000431,0.006111
5811000,0.0324,0.013523,0.002678,0.000431,0.005406
5812000,0.0324,0.013523,0.002678,0.000431,0.006111
5813000,0.0324,0.013523,0.002678,0.000431,0.005641
5814000,0.0324,0.013523,0.002678,0.000431,0.005289
5815000,0.0324,0.013523,0.002678,0.000431,0.005524
5816000,0.0324,0.013523,0.002678,0.000431,0.005759
5817000,0.0324,0.013523,0.002678,0.000431,0.006347
5818000,0.0324,0.013523,0.002678,0.000431,0.005641
5819000,0.0324,0.013523,0.002678,0.000431,0.005994
5820000,0.0324,0.013523,0.002678,0.000431,0.005641
5821000,0.0324,0.013523,0.002678,0.000431,0.006111
5822000,0.0324,0.013523,0.002678,0.000431,0.005876
5823000,0.0324,0.013523,0.002678,0.000431,0.006229
5824000,0.0324,0.013523,0.002678,0.000431,0.005289
5825000,0.0324,0.013523,0.002678,0.000431,0.005759
5826000,0.0324,0.013523,0.002678,0.000431,0.005524
5827000,0.0324,0.013523,0.002678,0.000431,0.005641
5828000,0.0324,0.013523,0.002678,0.000431,0.005876
5829000,0.0324,0.013523,0.002678,0.000431,0.005406
5830000,0.0324,0.013523,0.002678,0.000431,0.006111
5831000,0.0324,0.013523,0.002678,0.000431,0.005641
5832000,0.0324,0.013523,0.002678,0.000431,0.005406
5833000,0.0324,0.013523,0.002678,0.000431,0.005171
5834000,0.0324,0.013523,0.002678,0.000431,0.005641
5835000,0.0324,0.013523,0.002678,0.000431,0.005759
5836000,0.0324,0.013523,0.002678,0.000431,0.005759
5837000,0.0324,0.013523,0.002678,0.000431,0.005171
5838000,0.0324,0.013523,0.002678,0.000431,0.006111
5839000,0.0324,0.013523,0.002678,0.000431,0.005289
5840000,0.0324,0.013523,0.002678,0.000431,0.005289
5841000,0.0324,0.013523,0.002678,0.000431,0.005876
5842000,0.0324,0.013523,0.002678,0.000431,0.005406
5843000,0.0324,0.013523,0.002678,0.000431,0.005289
5844000,0.0324,0.013523,0.002678,0.000431,0.005759
5845000,0.0324,0.013523,0.002678,0.000431,0.005759
5846000,0.0324,0.013523,0.002678,0.000431,0.005994
5847000,0.0324,0.013523,0.002678,0.000431,0.005876
5848000,0.0324,0.013523,0.002678,0.000431,0.005759
5849000,0.0324,0.013523,0.002678,0.000431,0.005524
5850000,0.0324,0.013523,0.002678,0.000431,0.005406
5851000,0.0324,0.013523,0.002678,0.000431,0.005876
5852000,0.0324,0.013523,0.002678,0.000431,0.005641
5853000,0.0324,0.013523,0.002678,0.000431,0.006229
5854000,0.0324,0.013523,0.002678,0.000431,0.005524
5855000,0.0324,0.013523,0.002678,0.000431,0.006699
5856000,0.0324,0.013523,0.002678,0.000431,0.005641
5857000,0.0324,0.013523,0.002678,0.000431,0.005994
5858000,0.0324,0.013523,0.002678,0.000431,0.005641
5859000,0.0324,0.013523,0.002678,0.000431,0.005641
5860000,0.0324,0.013523,0.002678,0.000431,0.005641
5861000,0.0324,0.013523,0.002678,0.000431,0.005994
5862000,0.0324,0.013523,0.002678,0.000431,0.005759
5863000,0.0324,0.013523,0.002678,0.000431,0.005759
5864000,0.0324,0.013523,0.002678,0.000431,0.005994
5865000,0.0324,0.013523,0.002678,0.000431,0.006347
5866000,0.0324,0.013523,0.002678,0.000431,0.005641
5867000,0.0324,0.013523,0.002678,0.000431,0.005759
5868000,0.0324,0.013523,0.002678,0.000431,0.005759
5869000,0.0324,0.013523,0.002678,0.000431,0.005876
5870000,0.0324,0.013523,0.002678,0.000431,0.005641
5871000,0.0324,0.013523,0.002678,0.000431,0.005759
5872000,0.0324,0.013523,0.002678,0.000431,0.005759
5873000,0.0324,0.013523,0.002678,0.000431,0.006111
5874000,0.0324,0.013523,0.002678,0.000431,0.005994
5875000,0.0324,0.013523,0.002678,0.000431,0.005641
5876000,0.0324,0.013523,0.002678,0.000431,0.006111
5877000,0.0324,0.013523,0.002678,0.000431,0.005759
5878000,0.0324,0.013523,0.002678,0.000431,0.005994
5879000,0.0324,0.013523,0.002678,0.000431,0.005759
5880000,0.0324,0.013523,0.002678,0.000431,0.005876
5881000,0.0324,0.013523,0.002678,0.000431,0.004819
5882000,0.0324,0.013523,0.002678,0.000431,0.005406
5883000,0.0324,0.013523,0.002678,0.000431,0.004819
5884000,0.0324,0.013523,0.002678,0.000431,0.004936
5885000,0.0324,0.013523,0.002678,0.000431,0.005524
5886000,0.0324,0.013523,0.002678,0.000431,0.004584
5887000,0.0324,0.013523,0.002678,0.000431,0.004819
5888000,0.0324,0.013523,0.002678,0.000431,0.004936
5889000,0.0324,0.013523,0.002678,0.000431,0.005641
5890000,0.0324,0.013523,0.002678,0.000431,0.005641
5891000,0.0324,0.013523,0.002678,0.000431,0.004584
5892000,0.0324,0.013523,0.002678,0.000431,0.004584
5893000,0.0324,0.013523,0.002678,0.000431,0.004584
5894000,0.0324,0.013523,0.002678,0.000431,0.005759
5895000,0.0324,0.013523,0.002678,0.000431,0.004819
5896000,0.0324,0.013523,0.002678,0.000431,0.004936
5897000,0.0324,0.013523,0.002678,0.000431,0.005524
5898000,0.0324,0.013523,0.002678,0.000431,0.005171
5899000,0.0324,0.013523,0.002678,0.000431,0.005054
5900000,0.0324,0.013523,0.002678,0.000431,0.004936
5901000,0.0324,0.013523,0.002678,0.000431,0.005171
5902000,0.0324,0.013523,0.002678,0.000431,0.005054
5903000,0.0324,0.013523,0.002678,0.000431,0.005054
5904000,0.0324,0.013523,0.002678,0.000431,0.005406
5905000,0.0324,0.013523,0.002678,0.000431,0.005289
5906000,0.0324,0.013523,0.002678,0.000431,0.004819
5907000,0.0324,0.013523,0.002678,0.000431,0.005406
5908000,0.0324,0.013523,0.002678,0.000431,0.005171
5909000,0.0324,0.013523,0.002678,0.000431,0.004936
5910000,0.0324,0.013523,0.002678,0.000431,0.005289
5911000,0.0324,0.013523,0.002678,0.000431,0.005054
5912000,0.0324,0.013523,0.002678,0.000431,0.005406
5913000,0.0324,0.013523,0.002678,0.000431,0.005171
5914000,0.0324,0.013523,0.002678,0.000431,0.005054
5915000,0.0324,0.013523,0.002678,0.000431,0.005171
5916000,0.0324,0.013523,0.002678,0.000431,0.005406
5917000,0.0324,0.013523,0.002678,0.000431,0.005171
5918000,0.0324,0.013523,0.002678,0.000431,0.005524
5919000,0.0324,0.013523,0.002678,0.000431,0.004701
5920000,0.0324,0.013523,0.002678,0.000431,0.005054
5921000,0.0324,0.013523,0.002678,0.000431,0.005171
5922000,0.0324,0.013523,0.002678,0.000431,0.004936
5923000,0.0324,0.013523,0.002678,0.000431,0.004936
5924000,0.0324,0.013523,0.002678,0.000431,0.004936
5925000,0.0324,0.013523,0.002678,0.000431,0.005406
5926000,0.0324,0.013523,0.002678,0.000431,0.005171
5927000,0.0324,0.013523,0.002678,0.000431,0.004936
5928000,0.0324,0.013523,0.002678,0.000431,0.005289
5929000,0.0324,0.013523,0.002678,0.000431,0.004701
5930000,0.0324,0.013523,0.002678,0.000431,0.004349
5931000,0.0324,0.013523,0.002678,0.000431,0.004584
5932000,0.0324,0.013523,0.002678,0.000431,0.004466
5933000,0.0324,0.013523,0.002678,0.000431,0.004349
5934000,0.0324,0.013523,0.002678,0.000431,0.004466
5935000,0.0324,0.013523,0.002678,0.000431,0.004113
5936000,0.0324,0.013523,0.002678,0.000431,0.004701
5937000,0.0324,0.013523,0.002678,0.000431,0.004113
5938000,0.0324,0.013523,0.002678,0.000431,0.005171
5939000,0.0324,0.013523,0.002678,0.000431,0.004113
5940000,0.0324,0.013523,0.002678,0.000431,0.004349
5941000,0.0324,0.013523,0.002678,0.000431,0.004701
5942000,0.0324,0.013523,0.002678,0.000431,0.004231
5943000,0.0324,0.013523,0.002678,0.000431,0.004466
5944000,0.0324,0.013523,0.002678,0.000431,0.004584
5945000,0.0324,0.013523,0.002678,0.000431,0.004113
5946000,0.0324,0.013523,0.002678,0.000431,0.004349
5947000,0.0324,0.013523,0.002678,0.000431,0.004231
5948000,0.0324,0.013523,0.002678,0.000431,0.004584
5949000,0.0324,0.013523,0.002678,0.000431,0.004349
5950000,0.0324,0.013523,0.002678,0.000431,0.004701
5951000,0.0324,0.013523,0.002678,0.000431,0.004819
5952000,0.0324,0.013523,0.002678,0.000431,0.004701
5953000,0.0324,0.013523,0.002678,0.000431,0.003643
5954000,0.0324,0.013523,0.002678,0.000431,0.004701
5955000,0.0324,0.013523,0.002678,0.000431,0.004584
5956000,0.0324,0.013523,0.002678,0.000431,0.004349
5957000,0.0324,0.013523,0.002678,0.000431,0.004349
5958000,0.0324,0.013523,0.002678,0.000431,0.004113
5959000,0.0324,0.013523,0.002678,0.000431,0.004466
5960000,0.0324,0.013523,0.002678,0.000431,0.004584
5961000,0.0324,0.013523,0.002678,0.000431,0.004231
5962000,0.0324,0.013523,0.002678,0.000431,0.004231
5963000,0.0324,0.013523,0.002678,0.000431,0.004584
5964000,0.0324,0.013523,0.002678,0.000431,0.004466
5965000,0.0324,0.013523,0.002678,0.000431,0.004349
5966000,0.0324,0.013523,0.002678,0.000431,0.004466
5967000,0.0324,0.013523,0.002678,0.000431,0.004231
5968000,0.0324,0.013523,0.002678,0.000431,0.004701
5969000,0.0324,0.013523,0.002678,0.000431,0.004113
5970000,0.0324,0.013523,0.002678,0.000431,0.004349
5971000,0.0324,0.013523,0.002678,0.000431,0.004466
5972000,0.0324,0.013523,0.002678,0.000431,0.003878
5973000,0.0324,0.013523,0.002678,0.000431,0.004231
5974000,0.0324,0.013523,0.002678,0.000431,0.004819
5975000,0.0324,0.013523,0.002678,0.000431,0.004113
5976000,0.0324,0.013523,0.002678,0.000431,0.004584
5977000,0.0324,0.013523,0.002678,0.000431,0.004231
5978000,0.0324,0.013523,0.002678,0.000431,0.004936
5979000,0.0324,0.013523,0.002678,0.000431,0.004349
5980000,0.0324,0.013523,0.002678,0.000431,0.004584
5981000,0.0324,0.013523,0.002678,0.000431,0.004231
5982000,0.0324,0.013523,0.002678,0.000431,0.004466
5983000,0.0324,0.013523,0.002678,0.000431,0.004466
5984000,0.0324,0.013523,0.002678,0.000431,0.004584
5985000,0.0324,0.013523,0.002678,0.000431,0.004113
5986000,0.0324,0.013523,0.002678,0.000431,0.004701
5987000,0.0324,0.013523,0.002678,0.000431,0.004584
5988000,0.0324,0.013523,0.002678,0.000431,0.004231
5989000,0.0324,0.013523,0.002678,0.000431,0.004466
5990000,0.0324,0.013523,0.002678,0.000431,0.004349
5991000,0.0324,0.013523,0.002678,0.000431,0.004231
5992000,0.0324,0.013523,0.002678,0.000431,0.004231
5993000,0.0324,0.013523,0.002678,0.000431,0.004584
5994000,0.0324,0.013523,0.002678,0.000431,0.004701
5995000,0.0324,0.013523,0.002678,0.000431,0.004231
5996000,0.0324,0.013523,0.002678,0.000431,0.004466
5997000,0.0324,0.013523,0.002678,0.000431,0.004819
5998000,0.0324,0.013523,0.002678,0.000431,0.004584
5999000,0.0324,0.013523,0.002678,0.000431,0.004701
