Cycle,Area(mm^2),PeakDynamic(W),SubthresholdLeakage(W),GateLeakage(W),RunTimeDynamic(W)
100,0.0324,0.013523,0.002678,0.000431,0.001175
200,0.0324,0.013523,0.002678,0.000431,0.000000
300,0.0324,0.013523,0.002678,0.000431,0.000000
400,0.0324,0.013523,0.002678,0.000431,0.000000
500,0.0324,0.013523,0.002678,0.000431,0.000000
600,0.0324,0.013523,0.002678,0.000431,0.000000
700,0.0324,0.013523,0.002678,0.000431,0.000000
800,0.0324,0.013523,0.002678,0.000431,0.000000
900,0.0324,0.013523,0.002678,0.000431,0.000000
1000,0.0324,0.013523,0.002678,0.000431,0.000000
1100,0.0324,0.013523,0.002678,0.000431,0.000000
1200,0.0324,0.013523,0.002678,0.000431,0.000000
1300,0.0324,0.013523,0.002678,0.000431,0.000000
1400,0.0324,0.013523,0.002678,0.000431,0.000000
1500,0.0324,0.013523,0.002678,0.000431,0.000000
1600,0.0324,0.013523,0.002678,0.000431,0.000000
1700,0.0324,0.013523,0.002678,0.000431,0.000000
1800,0.0324,0.013523,0.002678,0.000431,0.000000
1900,0.0324,0.013523,0.002678,0.000431,0.000000
2000,0.0324,0.013523,0.002678,0.000431,0.000000
2100,0.0324,0.013523,0.002678,0.000431,0.000000
2200,0.0324,0.013523,0.002678,0.000431,0.000000
2300,0.0324,0.013523,0.002678,0.000431,0.000000
2400,0.0324,0.013523,0.002678,0.000431,0.000000
2500,0.0324,0.013523,0.002678,0.000431,0.000000
2600,0.0324,0.013523,0.002678,0.000431,0.000000
2700,0.0324,0.013523,0.002678,0.000431,0.000000
2800,0.0324,0.013523,0.002678,0.000431,0.000000
2900,0.0324,0.013523,0.002678,0.000431,0.000000
3000,0.0324,0.013523,0.002678,0.000431,0.000000
3100,0.0324,0.013523,0.002678,0.000431,0.000000
3200,0.0324,0.013523,0.002678,0.000431,0.000000
3300,0.0324,0.013523,0.002678,0.000431,0.000000
3400,0.0324,0.013523,0.002678,0.000431,0.000000
3500,0.0324,0.013523,0.002678,0.000431,0.000000
3600,0.0324,0.013523,0.002678,0.000431,0.000000
3700,0.0324,0.013523,0.002678,0.000431,0.000000
3800,0.0324,0.013523,0.002678,0.000431,0.000000
3900,0.0324,0.013523,0.002678,0.000431,0.000000
4000,0.0324,0.013523,0.002678,0.000431,0.000000
4100,0.0324,0.013523,0.002678,0.000431,0.000000
4200,0.0324,0.013523,0.002678,0.000431,0.000000
4300,0.0324,0.013523,0.002678,0.000431,0.000000
4400,0.0324,0.013523,0.002678,0.000431,0.000000
4500,0.0324,0.013523,0.002678,0.000431,0.000000
4600,0.0324,0.013523,0.002678,0.000431,0.000000
4700,0.0324,0.013523,0.002678,0.000431,0.000000
4800,0.0324,0.013523,0.002678,0.000431,0.000000
4900,0.0324,0.013523,0.002678,0.000431,0.000000
5000,0.0324,0.013523,0.002678,0.000431,0.000000
5100,0.0324,0.013523,0.002678,0.000431,0.000000
5200,0.0324,0.013523,0.002678,0.000431,0.009402
5300,0.0324,0.013523,0.002678,0.000431,0.000000
5400,0.0324,0.013523,0.002678,0.000431,0.256211
5500,0.0324,0.013523,0.002678,0.000431,0.019980
5600,0.0324,0.013523,0.002678,0.000431,0.243283
5700,0.0324,0.013523,0.002678,0.000431,0.620549
5800,0.0324,0.013523,0.002678,0.000431,0.820347
5900,0.0324,0.013523,0.002678,0.000431,0.645230
6000,0.0324,0.013523,0.002678,0.000431,0.480690
6100,0.0324,0.013523,0.002678,0.000431,0.759232
6200,0.0324,0.013523,0.002678,0.000431,0.649931
6300,0.0324,0.013523,0.002678,0.000431,0.076393
6400,0.0324,0.013523,0.002678,0.000431,0.211551
6500,0.0324,0.013523,0.002678,0.000431,0.370214
6600,0.0324,0.013523,0.002678,0.000431,0.646405
6700,0.0324,0.013523,0.002678,0.000431,0.423101
6800,0.0324,0.013523,0.002678,0.000431,0.855605
6900,0.0324,0.013523,0.002678,0.000431,0.589991
7000,0.0324,0.013523,0.002678,0.000431,0.995464
7100,0.0324,0.013523,0.002678,0.000431,0.512423
7200,0.0324,0.013523,0.002678,0.000431,0.763933
7300,0.0324,0.013523,0.002678,0.000431,0.150436
7400,0.0324,0.013523,0.002678,0.000431,0.116353
7500,0.0324,0.013523,0.002678,0.000431,0.091672
7600,0.0324,0.013523,0.002678,0.000431,0.161014
7700,0.0324,0.013523,0.002678,0.000431,0.098724
7800,0.0324,0.013523,0.002678,0.000431,0.124580
7900,0.0324,0.013523,0.002678,0.000431,0.106951
8000,0.0324,0.013523,0.002678,0.000431,0.096373
8100,0.0324,0.013523,0.002678,0.000431,0.083445
8200,0.0324,0.013523,0.002678,0.000431,0.098724
8300,0.0324,0.013523,0.002678,0.000431,0.082270
8400,0.0324,0.013523,0.002678,0.000431,0.086971
8500,0.0324,0.013523,0.002678,0.000431,0.091672
8600,0.0324,0.013523,0.002678,0.000431,0.070517
8700,0.0324,0.013523,0.002678,0.000431,0.055238
8800,0.0324,0.013523,0.002678,0.000431,0.064641
8900,0.0324,0.013523,0.002678,0.000431,0.035258
9000,0.0324,0.013523,0.002678,0.000431,0.059939
9100,0.0324,0.013523,0.002678,0.000431,0.032908
9200,0.0324,0.013523,0.002678,0.000431,0.037609
9300,0.0324,0.013523,0.002678,0.000431,0.037609
9400,0.0324,0.013523,0.002678,0.000431,0.028207
9500,0.0324,0.013523,0.002678,0.000431,0.038784
9600,0.0324,0.013523,0.002678,0.000431,0.029382
9700,0.0324,0.013523,0.002678,0.000431,0.023506
9800,0.0324,0.013523,0.002678,0.000431,0.031733
9900,0.0324,0.013523,0.002678,0.000431,0.017629
10000,0.0324,0.013523,0.002678,0.000431,0.028207
10100,0.0324,0.013523,0.002678,0.000431,0.019980
10200,0.0324,0.013523,0.002678,0.000431,0.027031
10300,0.0324,0.013523,0.002678,0.000431,0.016454
10400,0.0324,0.013523,0.002678,0.000431,0.024681
10500,0.0324,0.013523,0.002678,0.000431,0.017629
10600,0.0324,0.013523,0.002678,0.000431,0.016454
10700,0.0324,0.013523,0.002678,0.000431,0.018805
10800,0.0324,0.013523,0.002678,0.000431,0.018805
10900,0.0324,0.013523,0.002678,0.000431,0.017629
11000,0.0324,0.013523,0.002678,0.000431,0.016454
11100,0.0324,0.013523,0.002678,0.000431,0.015279
11200,0.0324,0.013523,0.002678,0.000431,0.010578
11300,0.0324,0.013523,0.002678,0.000431,0.008227
11400,0.0324,0.013523,0.002678,0.000431,0.015279
11500,0.0324,0.013523,0.002678,0.000431,0.004701
11600,0.0324,0.013523,0.002678,0.000431,0.010578
11700,0.0324,0.013523,0.002678,0.000431,0.010578
11800,0.0324,0.013523,0.002678,0.000431,0.004701
11900,0.0324,0.013523,0.002678,0.000431,0.008227
12000,0.0324,0.013523,0.002678,0.000431,0.011753
12100,0.0324,0.013523,0.002678,0.000431,0.002351
12200,0.0324,0.013523,0.002678,0.000431,0.009402
12300,0.0324,0.013523,0.002678,0.000431,0.007052
12400,0.0324,0.013523,0.002678,0.000431,0.002351
12500,0.0324,0.013523,0.002678,0.000431,0.005876
12600,0.0324,0.013523,0.002678,0.000431,0.004701
12700,0.0324,0.013523,0.002678,0.000431,0.001175
12800,0.0324,0.013523,0.002678,0.000431,0.005876
12900,0.0324,0.013523,0.002678,0.000431,0.002351
13000,0.0324,0.013523,0.002678,0.000431,0.002351
13100,0.0324,0.013523,0.002678,0.000431,0.003526
13200,0.0324,0.013523,0.002678,0.000431,0.001175
13300,0.0324,0.013523,0.002678,0.000431,0.001175
13400,0.0324,0.013523,0.002678,0.000431,0.002351
13500,0.0324,0.013523,0.002678,0.000431,0.000000
13600,0.0324,0.013523,0.002678,0.000431,0.001175
13700,0.0324,0.013523,0.002678,0.000431,0.001175
13800,0.0324,0.013523,0.002678,0.000431,0.000000
13900,0.0324,0.013523,0.002678,0.000431,0.002351
14000,0.0324,0.013523,0.002678,0.000431,0.000000
14100,0.0324,0.013523,0.002678,0.000431,0.001175
14200,0.0324,0.013523,0.002678,0.000431,0.001175
14300,0.0324,0.013523,0.002678,0.000431,0.000000
