Cycle,Area(mm^2),PeakDynamic(W),SubthresholdLeakage(W),GateLeakage(W),RunTimeDynamic(W)
29000000,0.0324,0.013523,0.002678,0.000431,0.005876
29001000,0.0324,0.013523,0.002678,0.000431,0.005876
29002000,0.0324,0.013523,0.002678,0.000431,0.005876
29003000,0.0324,0.013523,0.002678,0.000431,0.005876
29004000,0.0324,0.013523,0.002678,0.000431,0.005876
29005000,0.0324,0.013523,0.002678,0.000431,0.020920
29006000,0.0324,0.013523,0.002678,0.000431,0.005876
29007000,0.0324,0.013523,0.002678,0.000431,0.028442
29008000,0.0324,0.013523,0.002678,0.000431,0.005876
29009000,0.0324,0.013523,0.002678,0.000431,0.005876
29010000,0.0324,0.013523,0.002678,0.000431,0.058764
29011000,0.0324,0.013523,0.002678,0.000431,0.024681
29012000,0.0324,0.013523,0.002678,0.000431,0.009637
29013000,0.0324,0.013523,0.002678,0.000431,0.020920
29014000,0.0324,0.013523,0.002678,0.000431,0.005641
29015000,0.0324,0.013523,0.002678,0.000431,0.005876
29016000,0.0324,0.013523,0.002678,0.000431,0.011048
29017000,0.0324,0.013523,0.002678,0.000431,0.008227
29018000,0.0324,0.013523,0.002678,0.000431,0.013281
29019000,0.0324,0.013523,0.002678,0.000431,0.005759
29020000,0.0324,0.013523,0.002678,0.000431,0.013398
29021000,0.0324,0.013523,0.002678,0.000431,0.005876
29022000,0.0324,0.013523,0.002678,0.000431,0.005876
29023000,0.0324,0.013523,0.002678,0.000431,0.075336
29024000,0.0324,0.013523,0.002678,0.000431,0.026914
29025000,0.0324,0.013523,0.002678,0.000431,0.035964
29026000,0.0324,0.013523,0.002678,0.000431,0.005876
29027000,0.0324,0.013523,0.002678,0.000431,0.005876
29028000,0.0324,0.013523,0.002678,0.000431,0.021038
29029000,0.0324,0.013523,0.002678,0.000431,0.021038
29030000,0.0324,0.013523,0.002678,0.000431,0.017159
29031000,0.0324,0.013523,0.002678,0.000431,0.009520
29032000,0.0324,0.013523,0.002678,0.000431,0.058412
29033000,0.0324,0.013523,0.002678,0.000431,0.005876
29034000,0.0324,0.013523,0.002678,0.000431,0.005876
29035000,0.0324,0.013523,0.002678,0.000431,0.005876
29036000,0.0324,0.013523,0.002678,0.000431,0.005876
29037000,0.0324,0.013523,0.002678,0.000431,0.125990
29038000,0.0324,0.013523,0.002678,0.000431,0.005876
29039000,0.0324,0.013523,0.002678,0.000431,0.039019
29040000,0.0324,0.013523,0.002678,0.000431,0.005876
29041000,0.0324,0.013523,0.002678,0.000431,0.066051
29042000,0.0324,0.013523,0.002678,0.000431,0.005876
29043000,0.0324,0.013523,0.002678,0.000431,0.045483
29044000,0.0324,0.013523,0.002678,0.000431,0.033966
29045000,0.0324,0.013523,0.002678,0.000431,0.009637
29046000,0.0324,0.013523,0.002678,0.000431,0.009637
29047000,0.0324,0.013523,0.002678,0.000431,0.028442
29048000,0.0324,0.013523,0.002678,0.000431,0.038784
29049000,0.0324,0.013523,0.002678,0.000431,0.020097
29050000,0.0324,0.013523,0.002678,0.000431,0.014221
29051000,0.0324,0.013523,0.002678,0.000431,0.043720
29052000,0.0324,0.013523,0.002678,0.000431,0.020920
29053000,0.0324,0.013523,0.002678,0.000431,0.005876
29054000,0.0324,0.013523,0.002678,0.000431,0.005759
29055000,0.0324,0.013523,0.002678,0.000431,0.005759
29056000,0.0324,0.013523,0.002678,0.000431,0.005876
29057000,0.0324,0.013523,0.002678,0.000431,0.017159
29058000,0.0324,0.013523,0.002678,0.000431,0.031850
29059000,0.0324,0.013523,0.002678,0.000431,0.020802
29060000,0.0324,0.013523,0.002678,0.000431,0.005641
29061000,0.0324,0.013523,0.002678,0.000431,0.051007
29062000,0.0324,0.013523,0.002678,0.000431,0.005876
29063000,0.0324,0.013523,0.002678,0.000431,0.021155
29064000,0.0324,0.013523,0.002678,0.000431,0.013398
29065000,0.0324,0.013523,0.002678,0.000431,0.005876
29066000,0.0324,0.013523,0.002678,0.000431,0.017629
29067000,0.0324,0.013523,0.002678,0.000431,0.039254
29068000,0.0324,0.013523,0.002678,0.000431,0.005876
29069000,0.0324,0.013523,0.002678,0.000431,0.005876
29070000,0.0324,0.013523,0.002678,0.000431,0.005876
29071000,0.0324,0.013523,0.002678,0.000431,0.049479
29072000,0.0324,0.013523,0.002678,0.000431,0.022683
29073000,0.0324,0.013523,0.002678,0.000431,0.024798
29074000,0.0324,0.013523,0.002678,0.000431,0.010107
29075000,0.0324,0.013523,0.002678,0.000431,0.007052
29076000,0.0324,0.013523,0.002678,0.000431,0.007052
29077000,0.0324,0.013523,0.002678,0.000431,0.007052
29078000,0.0324,0.013523,0.002678,0.000431,0.014221
29079000,0.0324,0.013523,0.002678,0.000431,0.013398
29080000,0.0324,0.013523,0.002678,0.000431,0.020685
29081000,0.0324,0.013523,0.002678,0.000431,0.058529
29082000,0.0324,0.013523,0.002678,0.000431,0.005876
29083000,0.0324,0.013523,0.002678,0.000431,0.028442
29084000,0.0324,0.013523,0.002678,0.000431,0.005876
29085000,0.0324,0.013523,0.002678,0.000431,0.005759
29086000,0.0324,0.013523,0.002678,0.000431,0.065228
29087000,0.0324,0.013523,0.002678,0.000431,0.036904
29088000,0.0324,0.013523,0.002678,0.000431,0.006111
29089000,0.0324,0.013523,0.002678,0.000431,0.065816
29090000,0.0324,0.013523,0.002678,0.000431,0.005876
29091000,0.0324,0.013523,0.002678,0.000431,0.005876
29092000,0.0324,0.013523,0.002678,0.000431,0.020920
29093000,0.0324,0.013523,0.002678,0.000431,0.058999
29094000,0.0324,0.013523,0.002678,0.000431,0.020920
29095000,0.0324,0.013523,0.002678,0.000431,0.040077
29096000,0.0324,0.013523,0.002678,0.000431,0.017042
29097000,0.0324,0.013523,0.002678,0.000431,0.005876
29098000,0.0324,0.013523,0.002678,0.000431,0.013046
29099000,0.0324,0.013523,0.002678,0.000431,0.013281
29100000,0.0324,0.013523,0.002678,0.000431,0.017394
29101000,0.0324,0.013523,0.002678,0.000431,0.009637
29102000,0.0324,0.013523,0.002678,0.000431,0.005876
29103000,0.0324,0.013523,0.002678,0.000431,0.005876
29104000,0.0324,0.013523,0.002678,0.000431,0.005876
29105000,0.0324,0.013523,0.002678,0.000431,0.014809
29106000,0.0324,0.013523,0.002678,0.000431,0.105305
29107000,0.0324,0.013523,0.002678,0.000431,0.043485
29108000,0.0324,0.013523,0.002678,0.000431,0.005876
29109000,0.0324,0.013523,0.002678,0.000431,0.005876
29110000,0.0324,0.013523,0.002678,0.000431,0.013398
29111000,0.0324,0.013523,0.002678,0.000431,0.047246
29112000,0.0324,0.013523,0.002678,0.000431,0.017277
29113000,0.0324,0.013523,0.002678,0.000431,0.006229
29114000,0.0324,0.013523,0.002678,0.000431,0.005876
29115000,0.0324,0.013523,0.002678,0.000431,0.005876
29116000,0.0324,0.013523,0.002678,0.000431,0.013398
29117000,0.0324,0.013523,0.002678,0.000431,0.005876
29118000,0.0324,0.013523,0.002678,0.000431,0.005876
29119000,0.0324,0.013523,0.002678,0.000431,0.013163
29120000,0.0324,0.013523,0.002678,0.000431,0.013398
29121000,0.0324,0.013523,0.002678,0.000431,0.013281
29122000,0.0324,0.013523,0.002678,0.000431,0.005759
29123000,0.0324,0.013523,0.002678,0.000431,0.020920
29124000,0.0324,0.013523,0.002678,0.000431,0.054768
29125000,0.0324,0.013523,0.002678,0.000431,0.017394
29126000,0.0324,0.013523,0.002678,0.000431,0.005876
29127000,0.0324,0.013523,0.002678,0.000431,0.005876
29128000,0.0324,0.013523,0.002678,0.000431,0.081094
29129000,0.0324,0.013523,0.002678,0.000431,0.005641
29130000,0.0324,0.013523,0.002678,0.000431,0.005876
29131000,0.0324,0.013523,0.002678,0.000431,0.006111
29132000,0.0324,0.013523,0.002678,0.000431,0.028442
29133000,0.0324,0.013523,0.002678,0.000431,0.005876
29134000,0.0324,0.013523,0.002678,0.000431,0.028442
29135000,0.0324,0.013523,0.002678,0.000431,0.005876
29136000,0.0324,0.013523,0.002678,0.000431,0.005876
29137000,0.0324,0.013523,0.002678,0.000431,0.005876
29138000,0.0324,0.013523,0.002678,0.000431,0.005641
29139000,0.0324,0.013523,0.002678,0.000431,0.005876
29140000,0.0324,0.013523,0.002678,0.000431,0.005876
29141000,0.0324,0.013523,0.002678,0.000431,0.028442
29142000,0.0324,0.013523,0.002678,0.000431,0.020920
29143000,0.0324,0.013523,0.002678,0.000431,0.005876
29144000,0.0324,0.013523,0.002678,0.000431,0.035964
29145000,0.0324,0.013523,0.002678,0.000431,0.040312
29146000,0.0324,0.013523,0.002678,0.000431,0.016571
29147000,0.0324,0.013523,0.002678,0.000431,0.028442
29148000,0.0324,0.013523,0.002678,0.000431,0.017159
29149000,0.0324,0.013523,0.002678,0.000431,0.047246
29150000,0.0324,0.013523,0.002678,0.000431,0.005876
29151000,0.0324,0.013523,0.002678,0.000431,0.005876
29152000,0.0324,0.013523,0.002678,0.000431,0.020920
29153000,0.0324,0.013523,0.002678,0.000431,0.010578
29154000,0.0324,0.013523,0.002678,0.000431,0.065698
29155000,0.0324,0.013523,0.002678,0.000431,0.027149
29156000,0.0324,0.013523,0.002678,0.000431,0.005876
29157000,0.0324,0.013523,0.002678,0.000431,0.005876
29158000,0.0324,0.013523,0.002678,0.000431,0.005876
29159000,0.0324,0.013523,0.002678,0.000431,0.005641
29160000,0.0324,0.013523,0.002678,0.000431,0.020920
29161000,0.0324,0.013523,0.002678,0.000431,0.021625
29162000,0.0324,0.013523,0.002678,0.000431,0.065346
29163000,0.0324,0.013523,0.002678,0.000431,0.013633
29164000,0.0324,0.013523,0.002678,0.000431,0.005876
29165000,0.0324,0.013523,0.002678,0.000431,0.005876
29166000,0.0324,0.013523,0.002678,0.000431,0.024681
29167000,0.0324,0.013523,0.002678,0.000431,0.081094
29168000,0.0324,0.013523,0.002678,0.000431,0.099899
29169000,0.0324,0.013523,0.002678,0.000431,0.033260
29170000,0.0324,0.013523,0.002678,0.000431,0.042663
29171000,0.0324,0.013523,0.002678,0.000431,0.016689
29172000,0.0324,0.013523,0.002678,0.000431,0.005876
29173000,0.0324,0.013523,0.002678,0.000431,0.013633
29174000,0.0324,0.013523,0.002678,0.000431,0.013398
29175000,0.0324,0.013523,0.002678,0.000431,0.005876
29176000,0.0324,0.013523,0.002678,0.000431,0.051242
29177000,0.0324,0.013523,0.002678,0.000431,0.013868
29178000,0.0324,0.013523,0.002678,0.000431,0.005641
29179000,0.0324,0.013523,0.002678,0.000431,0.005876
29180000,0.0324,0.013523,0.002678,0.000431,0.035964
29181000,0.0324,0.013523,0.002678,0.000431,0.013398
29182000,0.0324,0.013523,0.002678,0.000431,0.020920
29183000,0.0324,0.013523,0.002678,0.000431,0.005876
29184000,0.0324,0.013523,0.002678,0.000431,0.013398
29185000,0.0324,0.013523,0.002678,0.000431,0.005876
29186000,0.0324,0.013523,0.002678,0.000431,0.028442
29187000,0.0324,0.013523,0.002678,0.000431,0.005876
29188000,0.0324,0.013523,0.002678,0.000431,0.005876
29189000,0.0324,0.013523,0.002678,0.000431,0.028677
29190000,0.0324,0.013523,0.002678,0.000431,0.013633
29191000,0.0324,0.013523,0.002678,0.000431,0.009637
29192000,0.0324,0.013523,0.002678,0.000431,0.009637
29193000,0.0324,0.013523,0.002678,0.000431,0.035964
29194000,0.0324,0.013523,0.002678,0.000431,0.005759
29195000,0.0324,0.013523,0.002678,0.000431,0.005759
29196000,0.0324,0.013523,0.002678,0.000431,0.020920
29197000,0.0324,0.013523,0.002678,0.000431,0.019275
29198000,0.0324,0.013523,0.002678,0.000431,0.015044
29199000,0.0324,0.013523,0.002678,0.000431,0.016924
29200000,0.0324,0.013523,0.002678,0.000431,0.029852
29201000,0.0324,0.013523,0.002678,0.000431,0.008227
29202000,0.0324,0.013523,0.002678,0.000431,0.006934
29203000,0.0324,0.013523,0.002678,0.000431,0.042193
29204000,0.0324,0.013523,0.002678,0.000431,0.066051
29205000,0.0324,0.013523,0.002678,0.000431,0.005876
29206000,0.0324,0.013523,0.002678,0.000431,0.005876
29207000,0.0324,0.013523,0.002678,0.000431,0.005876
29208000,0.0324,0.013523,0.002678,0.000431,0.005876
29209000,0.0324,0.013523,0.002678,0.000431,0.009402
29210000,0.0324,0.013523,0.002678,0.000431,0.013398
29211000,0.0324,0.013523,0.002678,0.000431,0.009637
29212000,0.0324,0.013523,0.002678,0.000431,0.005876
29213000,0.0324,0.013523,0.002678,0.000431,0.020920
29214000,0.0324,0.013523,0.002678,0.000431,0.013398
29215000,0.0324,0.013523,0.002678,0.000431,0.020920
29216000,0.0324,0.013523,0.002678,0.000431,0.020920
29217000,0.0324,0.013523,0.002678,0.000431,0.006111
29218000,0.0324,0.013523,0.002678,0.000431,0.030675
29219000,0.0324,0.013523,0.002678,0.000431,0.022213
29220000,0.0324,0.013523,0.002678,0.000431,0.009637
29221000,0.0324,0.013523,0.002678,0.000431,0.013398
29222000,0.0324,0.013523,0.002678,0.000431,0.066051
29223000,0.0324,0.013523,0.002678,0.000431,0.009637
29224000,0.0324,0.013523,0.002678,0.000431,0.013633
29225000,0.0324,0.013523,0.002678,0.000431,0.009637
29226000,0.0324,0.013523,0.002678,0.000431,0.013398
29227000,0.0324,0.013523,0.002678,0.000431,0.012693
29228000,0.0324,0.013523,0.002678,0.000431,0.051712
29229000,0.0324,0.013523,0.002678,0.000431,0.043485
29230000,0.0324,0.013523,0.002678,0.000431,0.020920
29231000,0.0324,0.013523,0.002678,0.000431,0.020920
29232000,0.0324,0.013523,0.002678,0.000431,0.005876
29233000,0.0324,0.013523,0.002678,0.000431,0.005876
29234000,0.0324,0.013523,0.002678,0.000431,0.043485
29235000,0.0324,0.013523,0.002678,0.000431,0.005641
29236000,0.0324,0.013523,0.002678,0.000431,0.005876
29237000,0.0324,0.013523,0.002678,0.000431,0.009637
29238000,0.0324,0.013523,0.002678,0.000431,0.050302
29239000,0.0324,0.013523,0.002678,0.000431,0.016924
29240000,0.0324,0.013523,0.002678,0.000431,0.009637
29241000,0.0324,0.013523,0.002678,0.000431,0.037491
29242000,0.0324,0.013523,0.002678,0.000431,0.045483
29243000,0.0324,0.013523,0.002678,0.000431,0.005876
29244000,0.0324,0.013523,0.002678,0.000431,0.005876
29245000,0.0324,0.013523,0.002678,0.000431,0.028442
29246000,0.0324,0.013523,0.002678,0.000431,0.005876
29247000,0.0324,0.013523,0.002678,0.000431,0.020920
29248000,0.0324,0.013523,0.002678,0.000431,0.028677
29249000,0.0324,0.013523,0.002678,0.000431,0.028442
29250000,0.0324,0.013523,0.002678,0.000431,0.005876
29251000,0.0324,0.013523,0.002678,0.000431,0.005876
29252000,0.0324,0.013523,0.002678,0.000431,0.005876
29253000,0.0324,0.013523,0.002678,0.000431,0.005876
29254000,0.0324,0.013523,0.002678,0.000431,0.005876
29255000,0.0324,0.013523,0.002678,0.000431,0.005641
29256000,0.0324,0.013523,0.002678,0.000431,0.005876
29257000,0.0324,0.013523,0.002678,0.000431,0.005876
29258000,0.0324,0.013523,0.002678,0.000431,0.013281
29259000,0.0324,0.013523,0.002678,0.000431,0.020802
29260000,0.0324,0.013523,0.002678,0.000431,0.020920
29261000,0.0324,0.013523,0.002678,0.000431,0.013398
29262000,0.0324,0.013523,0.002678,0.000431,0.005876
29263000,0.0324,0.013523,0.002678,0.000431,0.005876
29264000,0.0324,0.013523,0.002678,0.000431,0.023858
29265000,0.0324,0.013523,0.002678,0.000431,0.047129
29266000,0.0324,0.013523,0.002678,0.000431,0.026326
29267000,0.0324,0.013523,0.002678,0.000431,0.026796
29268000,0.0324,0.013523,0.002678,0.000431,0.017159
29269000,0.0324,0.013523,0.002678,0.000431,0.005876
29270000,0.0324,0.013523,0.002678,0.000431,0.005876
29271000,0.0324,0.013523,0.002678,0.000431,0.013046
29272000,0.0324,0.013523,0.002678,0.000431,0.027502
29273000,0.0324,0.013523,0.002678,0.000431,0.027619
29274000,0.0324,0.013523,0.002678,0.000431,0.020920
29275000,0.0324,0.013523,0.002678,0.000431,0.005876
29276000,0.0324,0.013523,0.002678,0.000431,0.005876
29277000,0.0324,0.013523,0.002678,0.000431,0.005876
29278000,0.0324,0.013523,0.002678,0.000431,0.028442
29279000,0.0324,0.013523,0.002678,0.000431,0.012811
29280000,0.0324,0.013523,0.002678,0.000431,0.027384
29281000,0.0324,0.013523,0.002678,0.000431,0.060409
29282000,0.0324,0.013523,0.002678,0.000431,0.022565
29283000,0.0324,0.013523,0.002678,0.000431,0.009637
29284000,0.0324,0.013523,0.002678,0.000431,0.006111
29285000,0.0324,0.013523,0.002678,0.000431,0.005876
29286000,0.0324,0.013523,0.002678,0.000431,0.017042
29287000,0.0324,0.013523,0.002678,0.000431,0.038549
29288000,0.0324,0.013523,0.002678,0.000431,0.005759
29289000,0.0324,0.013523,0.002678,0.000431,0.020920
29290000,0.0324,0.013523,0.002678,0.000431,0.005759
29291000,0.0324,0.013523,0.002678,0.000431,0.024328
29292000,0.0324,0.013523,0.002678,0.000431,0.005876
29293000,0.0324,0.013523,0.002678,0.000431,0.005641
29294000,0.0324,0.013523,0.002678,0.000431,0.027502
29295000,0.0324,0.013523,0.002678,0.000431,0.016924
29296000,0.0324,0.013523,0.002678,0.000431,0.017159
29297000,0.0324,0.013523,0.002678,0.000431,0.029852
29298000,0.0324,0.013523,0.002678,0.000431,0.019275
29299000,0.0324,0.013523,0.002678,0.000431,0.005876
29300000,0.0324,0.013523,0.002678,0.000431,0.005876
29301000,0.0324,0.013523,0.002678,0.000431,0.024446
29302000,0.0324,0.013523,0.002678,0.000431,0.016689
29303000,0.0324,0.013523,0.002678,0.000431,0.016807
29304000,0.0324,0.013523,0.002678,0.000431,0.009520
29305000,0.0324,0.013523,0.002678,0.000431,0.005876
29306000,0.0324,0.013523,0.002678,0.000431,0.020920
29307000,0.0324,0.013523,0.002678,0.000431,0.009285
29308000,0.0324,0.013523,0.002678,0.000431,0.016689
29309000,0.0324,0.013523,0.002678,0.000431,0.016807
29310000,0.0324,0.013523,0.002678,0.000431,0.012693
29311000,0.0324,0.013523,0.002678,0.000431,0.005876
29312000,0.0324,0.013523,0.002678,0.000431,0.005876
29313000,0.0324,0.013523,0.002678,0.000431,0.005876
29314000,0.0324,0.013523,0.002678,0.000431,0.005876
29315000,0.0324,0.013523,0.002678,0.000431,0.006111
29316000,0.0324,0.013523,0.002678,0.000431,0.005876
29317000,0.0324,0.013523,0.002678,0.000431,0.031145
29318000,0.0324,0.013523,0.002678,0.000431,0.009285
29319000,0.0324,0.013523,0.002678,0.000431,0.005876
29320000,0.0324,0.013523,0.002678,0.000431,0.005876
29321000,0.0324,0.013523,0.002678,0.000431,0.005876
29322000,0.0324,0.013523,0.002678,0.000431,0.017042
29323000,0.0324,0.013523,0.002678,0.000431,0.005524
29324000,0.0324,0.013523,0.002678,0.000431,0.016807
29325000,0.0324,0.013523,0.002678,0.000431,0.016571
29326000,0.0324,0.013523,0.002678,0.000431,0.005876
29327000,0.0324,0.013523,0.002678,0.000431,0.005876
29328000,0.0324,0.013523,0.002678,0.000431,0.005876
29329000,0.0324,0.013523,0.002678,0.000431,0.005876
29330000,0.0324,0.013523,0.002678,0.000431,0.005876
29331000,0.0324,0.013523,0.002678,0.000431,0.008227
29332000,0.0324,0.013523,0.002678,0.000431,0.011283
29333000,0.0324,0.013523,0.002678,0.000431,0.005876
29334000,0.0324,0.013523,0.002678,0.000431,0.016807
29335000,0.0324,0.013523,0.002678,0.000431,0.005641
29336000,0.0324,0.013523,0.002678,0.000431,0.005759
29337000,0.0324,0.013523,0.002678,0.000431,0.005876
29338000,0.0324,0.013523,0.002678,0.000431,0.040782
29339000,0.0324,0.013523,0.002678,0.000431,0.016101
29340000,0.0324,0.013523,0.002678,0.000431,0.005876
29341000,0.0324,0.013523,0.002678,0.000431,0.005641
29342000,0.0324,0.013523,0.002678,0.000431,0.005876
29343000,0.0324,0.013523,0.002678,0.000431,0.005876
29344000,0.0324,0.013523,0.002678,0.000431,0.009637
29345000,0.0324,0.013523,0.002678,0.000431,0.016689
29346000,0.0324,0.013523,0.002678,0.000431,0.005876
29347000,0.0324,0.013523,0.002678,0.000431,0.005876
29348000,0.0324,0.013523,0.002678,0.000431,0.005876
29349000,0.0324,0.013523,0.002678,0.000431,0.005876
29350000,0.0324,0.013523,0.002678,0.000431,0.005876
29351000,0.0324,0.013523,0.002678,0.000431,0.009520
29352000,0.0324,0.013523,0.002678,0.000431,0.023741
29353000,0.0324,0.013523,0.002678,0.000431,0.020332
29354000,0.0324,0.013523,0.002678,0.000431,0.005876
29355000,0.0324,0.013523,0.002678,0.000431,0.005876
29356000,0.0324,0.013523,0.002678,0.000431,0.065816
29357000,0.0324,0.013523,0.002678,0.000431,0.005876
29358000,0.0324,0.013523,0.002678,0.000431,0.005876
29359000,0.0324,0.013523,0.002678,0.000431,0.005759
29360000,0.0324,0.013523,0.002678,0.000431,0.020097
29361000,0.0324,0.013523,0.002678,0.000431,0.005759
29362000,0.0324,0.013523,0.002678,0.000431,0.023741
29363000,0.0324,0.013523,0.002678,0.000431,0.010460
29364000,0.0324,0.013523,0.002678,0.000431,0.005759
29365000,0.0324,0.013523,0.002678,0.000431,0.005759
29366000,0.0324,0.013523,0.002678,0.000431,0.005994
29367000,0.0324,0.013523,0.002678,0.000431,0.005994
29368000,0.0324,0.013523,0.002678,0.000431,0.005876
29369000,0.0324,0.013523,0.002678,0.000431,0.144795
29370000,0.0324,0.013523,0.002678,0.000431,0.114002
29371000,0.0324,0.013523,0.002678,0.000431,0.016924
29372000,0.0324,0.013523,0.002678,0.000431,0.006817
29373000,0.0324,0.013523,0.002678,0.000431,0.012223
29374000,0.0324,0.013523,0.002678,0.000431,0.005876
29375000,0.0324,0.013523,0.002678,0.000431,0.005876
29376000,0.0324,0.013523,0.002678,0.000431,0.005759
29377000,0.0324,0.013523,0.002678,0.000431,0.005759
29378000,0.0324,0.013523,0.002678,0.000431,0.005876
29379000,0.0324,0.013523,0.002678,0.000431,0.057119
29380000,0.0324,0.013523,0.002678,0.000431,0.005876
29381000,0.0324,0.013523,0.002678,0.000431,0.005876
29382000,0.0324,0.013523,0.002678,0.000431,0.005876
29383000,0.0324,0.013523,0.002678,0.000431,0.013398
29384000,0.0324,0.013523,0.002678,0.000431,0.005876
29385000,0.0324,0.013523,0.002678,0.000431,0.033848
29386000,0.0324,0.013523,0.002678,0.000431,0.181581
29387000,0.0324,0.013523,0.002678,0.000431,0.078156
29388000,0.0324,0.013523,0.002678,0.000431,0.013398
29389000,0.0324,0.013523,0.002678,0.000431,0.005876
29390000,0.0324,0.013523,0.002678,0.000431,0.005876
29391000,0.0324,0.013523,0.002678,0.000431,0.005876
29392000,0.0324,0.013523,0.002678,0.000431,0.005876
29393000,0.0324,0.013523,0.002678,0.000431,0.028442
29394000,0.0324,0.013523,0.002678,0.000431,0.013398
29395000,0.0324,0.013523,0.002678,0.000431,0.009637
29396000,0.0324,0.013523,0.002678,0.000431,0.009637
29397000,0.0324,0.013523,0.002678,0.000431,0.005876
29398000,0.0324,0.013523,0.002678,0.000431,0.005876
29399000,0.0324,0.013523,0.002678,0.000431,0.005876
29400000,0.0324,0.013523,0.002678,0.000431,0.006347
29401000,0.0324,0.013523,0.002678,0.000431,0.142679
29402000,0.0324,0.013523,0.002678,0.000431,0.153022
29403000,0.0324,0.013523,0.002678,0.000431,0.005876
29404000,0.0324,0.013523,0.002678,0.000431,0.005876
29405000,0.0324,0.013523,0.002678,0.000431,0.005641
29406000,0.0324,0.013523,0.002678,0.000431,0.050772
29407000,0.0324,0.013523,0.002678,0.000431,0.050772
29408000,0.0324,0.013523,0.002678,0.000431,0.005876
29409000,0.0324,0.013523,0.002678,0.000431,0.005641
29410000,0.0324,0.013523,0.002678,0.000431,0.005876
29411000,0.0324,0.013523,0.002678,0.000431,0.005876
29412000,0.0324,0.013523,0.002678,0.000431,0.005876
29413000,0.0324,0.013523,0.002678,0.000431,0.043133
29414000,0.0324,0.013523,0.002678,0.000431,0.182521
29415000,0.0324,0.013523,0.002678,0.000431,0.045131
29416000,0.0324,0.013523,0.002678,0.000431,0.005876
29417000,0.0324,0.013523,0.002678,0.000431,0.005406
29418000,0.0324,0.013523,0.002678,0.000431,0.005876
29419000,0.0324,0.013523,0.002678,0.000431,0.005641
29420000,0.0324,0.013523,0.002678,0.000431,0.005876
29421000,0.0324,0.013523,0.002678,0.000431,0.005876
29422000,0.0324,0.013523,0.002678,0.000431,0.013398
29423000,0.0324,0.013523,0.002678,0.000431,0.005876
29424000,0.0324,0.013523,0.002678,0.000431,0.005876
29425000,0.0324,0.013523,0.002678,0.000431,0.005876
29426000,0.0324,0.013523,0.002678,0.000431,0.005876
29427000,0.0324,0.013523,0.002678,0.000431,0.013398
29428000,0.0324,0.013523,0.002678,0.000431,0.020920
29429000,0.0324,0.013523,0.002678,0.000431,0.005876
29430000,0.0324,0.013523,0.002678,0.000431,0.005876
29431000,0.0324,0.013523,0.002678,0.000431,0.005876
29432000,0.0324,0.013523,0.002678,0.000431,0.005876
29433000,0.0324,0.013523,0.002678,0.000431,0.005876
29434000,0.0324,0.013523,0.002678,0.000431,0.020920
29435000,0.0324,0.013523,0.002678,0.000431,0.005876
29436000,0.0324,0.013523,0.002678,0.000431,0.005876
29437000,0.0324,0.013523,0.002678,0.000431,0.005876
29438000,0.0324,0.013523,0.002678,0.000431,0.013398
29439000,0.0324,0.013523,0.002678,0.000431,0.005876
29440000,0.0324,0.013523,0.002678,0.000431,0.014573
29441000,0.0324,0.013523,0.002678,0.000431,0.034788
29442000,0.0324,0.013523,0.002678,0.000431,0.005876
29443000,0.0324,0.013523,0.002678,0.000431,0.073103
29444000,0.0324,0.013523,0.002678,0.000431,0.029382
29445000,0.0324,0.013523,0.002678,0.000431,0.012458
29446000,0.0324,0.013523,0.002678,0.000431,0.005759
29447000,0.0324,0.013523,0.002678,0.000431,0.020802
29448000,0.0324,0.013523,0.002678,0.000431,0.005876
29449000,0.0324,0.013523,0.002678,0.000431,0.005876
29450000,0.0324,0.013523,0.002678,0.000431,0.020802
29451000,0.0324,0.013523,0.002678,0.000431,0.005759
29452000,0.0324,0.013523,0.002678,0.000431,0.005876
29453000,0.0324,0.013523,0.002678,0.000431,0.009637
29454000,0.0324,0.013523,0.002678,0.000431,0.009637
29455000,0.0324,0.013523,0.002678,0.000431,0.005876
29456000,0.0324,0.013523,0.002678,0.000431,0.031498
29457000,0.0324,0.013523,0.002678,0.000431,0.185695
29458000,0.0324,0.013523,0.002678,0.000431,0.062055
29459000,0.0324,0.013523,0.002678,0.000431,0.005759
29460000,0.0324,0.013523,0.002678,0.000431,0.005759
29461000,0.0324,0.013523,0.002678,0.000431,0.005876
29462000,0.0324,0.013523,0.002678,0.000431,0.005641
29463000,0.0324,0.013523,0.002678,0.000431,0.005876
29464000,0.0324,0.013523,0.002678,0.000431,0.013398
29465000,0.0324,0.013523,0.002678,0.000431,0.005876
29466000,0.0324,0.013523,0.002678,0.000431,0.054063
29467000,0.0324,0.013523,0.002678,0.000431,0.078039
29468000,0.0324,0.013523,0.002678,0.000431,0.005876
29469000,0.0324,0.013523,0.002678,0.000431,0.005876
29470000,0.0324,0.013523,0.002678,0.000431,0.035964
29471000,0.0324,0.013523,0.002678,0.000431,0.013398
29472000,0.0324,0.013523,0.002678,0.000431,0.005876
29473000,0.0324,0.013523,0.002678,0.000431,0.187340
29474000,0.0324,0.013523,0.002678,0.000431,0.109066
29475000,0.0324,0.013523,0.002678,0.000431,0.005876
29476000,0.0324,0.013523,0.002678,0.000431,0.017159
29477000,0.0324,0.013523,0.002678,0.000431,0.047246
29478000,0.0324,0.013523,0.002678,0.000431,0.005876
29479000,0.0324,0.013523,0.002678,0.000431,0.005876
29480000,0.0324,0.013523,0.002678,0.000431,0.040665
29481000,0.0324,0.013523,0.002678,0.000431,0.008697
29482000,0.0324,0.013523,0.002678,0.000431,0.005641
29483000,0.0324,0.013523,0.002678,0.000431,0.013163
29484000,0.0324,0.013523,0.002678,0.000431,0.005876
29485000,0.0324,0.013523,0.002678,0.000431,0.005876
29486000,0.0324,0.013523,0.002678,0.000431,0.005876
29487000,0.0324,0.013523,0.002678,0.000431,0.005641
29488000,0.0324,0.013523,0.002678,0.000431,0.005876
29489000,0.0324,0.013523,0.002678,0.000431,0.041135
29490000,0.0324,0.013523,0.002678,0.000431,0.212844
29491000,0.0324,0.013523,0.002678,0.000431,0.018217
29492000,0.0324,0.013523,0.002678,0.000431,0.005876
29493000,0.0324,0.013523,0.002678,0.000431,0.017159
29494000,0.0324,0.013523,0.002678,0.000431,0.009637
29495000,0.0324,0.013523,0.002678,0.000431,0.005876
29496000,0.0324,0.013523,0.002678,0.000431,0.005876
29497000,0.0324,0.013523,0.002678,0.000431,0.005876
29498000,0.0324,0.013523,0.002678,0.000431,0.005876
29499000,0.0324,0.013523,0.002678,0.000431,0.020920
29500000,0.0324,0.013523,0.002678,0.000431,0.069812
29501000,0.0324,0.013523,0.002678,0.000431,0.009637
29502000,0.0324,0.013523,0.002678,0.000431,0.005641
29503000,0.0324,0.013523,0.002678,0.000431,0.032203
29504000,0.0324,0.013523,0.002678,0.000431,0.009637
29505000,0.0324,0.013523,0.002678,0.000431,0.019980
29506000,0.0324,0.013523,0.002678,0.000431,0.029382
29507000,0.0324,0.013523,0.002678,0.000431,0.114590
29508000,0.0324,0.013523,0.002678,0.000431,0.181464
29509000,0.0324,0.013523,0.002678,0.000431,0.043133
29510000,0.0324,0.013523,0.002678,0.000431,0.013398
29511000,0.0324,0.013523,0.002678,0.000431,0.005876
29512000,0.0324,0.013523,0.002678,0.000431,0.013398
29513000,0.0324,0.013523,0.002678,0.000431,0.005876
29514000,0.0324,0.013523,0.002678,0.000431,0.005876
29515000,0.0324,0.013523,0.002678,0.000431,0.020920
29516000,0.0324,0.013523,0.002678,0.000431,0.039725
29517000,0.0324,0.013523,0.002678,0.000431,0.017159
29518000,0.0324,0.013523,0.002678,0.000431,0.008345
29519000,0.0324,0.013523,0.002678,0.000431,0.214489
29520000,0.0324,0.013523,0.002678,0.000431,0.057354
29521000,0.0324,0.013523,0.002678,0.000431,0.013163
29522000,0.0324,0.013523,0.002678,0.000431,0.028207
29523000,0.0324,0.013523,0.002678,0.000431,0.013398
29524000,0.0324,0.013523,0.002678,0.000431,0.005876
29525000,0.0324,0.013523,0.002678,0.000431,0.005876
29526000,0.0324,0.013523,0.002678,0.000431,0.013398
29527000,0.0324,0.013523,0.002678,0.000431,0.020920
29528000,0.0324,0.013523,0.002678,0.000431,0.005876
29529000,0.0324,0.013523,0.002678,0.000431,0.024681
29530000,0.0324,0.013523,0.002678,0.000431,0.009637
29531000,0.0324,0.013523,0.002678,0.000431,0.005876
29532000,0.0324,0.013523,0.002678,0.000431,0.035964
29533000,0.0324,0.013523,0.002678,0.000431,0.043485
29534000,0.0324,0.013523,0.002678,0.000431,0.005876
29535000,0.0324,0.013523,0.002678,0.000431,0.032673
29536000,0.0324,0.013523,0.002678,0.000431,0.046776
29537000,0.0324,0.013523,0.002678,0.000431,0.005876
29538000,0.0324,0.013523,0.002678,0.000431,0.028442
29539000,0.0324,0.013523,0.002678,0.000431,0.010342
29540000,0.0324,0.013523,0.002678,0.000431,0.008697
29541000,0.0324,0.013523,0.002678,0.000431,0.005641
29542000,0.0324,0.013523,0.002678,0.000431,0.005641
29543000,0.0324,0.013523,0.002678,0.000431,0.013398
29544000,0.0324,0.013523,0.002678,0.000431,0.009637
29545000,0.0324,0.013523,0.002678,0.000431,0.009637
29546000,0.0324,0.013523,0.002678,0.000431,0.020920
29547000,0.0324,0.013523,0.002678,0.000431,0.020920
29548000,0.0324,0.013523,0.002678,0.000431,0.058412
29549000,0.0324,0.013523,0.002678,0.000431,0.020920
29550000,0.0324,0.013523,0.002678,0.000431,0.005759
29551000,0.0324,0.013523,0.002678,0.000431,0.005876
29552000,0.0324,0.013523,0.002678,0.000431,0.040782
29553000,0.0324,0.013523,0.002678,0.000431,0.016101
29554000,0.0324,0.013523,0.002678,0.000431,0.005876
29555000,0.0324,0.013523,0.002678,0.000431,0.028442
29556000,0.0324,0.013523,0.002678,0.000431,0.066051
29557000,0.0324,0.013523,0.002678,0.000431,0.009637
29558000,0.0324,0.013523,0.002678,0.000431,0.009637
29559000,0.0324,0.013523,0.002678,0.000431,0.020920
29560000,0.0324,0.013523,0.002678,0.000431,0.005876
29561000,0.0324,0.013523,0.002678,0.000431,0.013398
29562000,0.0324,0.013523,0.002678,0.000431,0.005759
29563000,0.0324,0.013523,0.002678,0.000431,0.132337
29564000,0.0324,0.013523,0.002678,0.000431,0.089204
29565000,0.0324,0.013523,0.002678,0.000431,0.009637
29566000,0.0324,0.013523,0.002678,0.000431,0.009520
29567000,0.0324,0.013523,0.002678,0.000431,0.036904
29568000,0.0324,0.013523,0.002678,0.000431,0.027384
29569000,0.0324,0.013523,0.002678,0.000431,0.005876
29570000,0.0324,0.013523,0.002678,0.000431,0.064993
29571000,0.0324,0.013523,0.002678,0.000431,0.164892
29572000,0.0324,0.013523,0.002678,0.000431,0.035964
29573000,0.0324,0.013523,0.002678,0.000431,0.016924
29574000,0.0324,0.013523,0.002678,0.000431,0.039725
29575000,0.0324,0.013523,0.002678,0.000431,0.005876
29576000,0.0324,0.013523,0.002678,0.000431,0.005876
29577000,0.0324,0.013523,0.002678,0.000431,0.073338
29578000,0.0324,0.013523,0.002678,0.000431,0.013398
29579000,0.0324,0.013523,0.002678,0.000431,0.005876
29580000,0.0324,0.013523,0.002678,0.000431,0.026326
29581000,0.0324,0.013523,0.002678,0.000431,0.015514
29582000,0.0324,0.013523,0.002678,0.000431,0.005876
29583000,0.0324,0.013523,0.002678,0.000431,0.005876
29584000,0.0324,0.013523,0.002678,0.000431,0.005876
29585000,0.0324,0.013523,0.002678,0.000431,0.013398
29586000,0.0324,0.013523,0.002678,0.000431,0.013398
29587000,0.0324,0.013523,0.002678,0.000431,0.066051
29588000,0.0324,0.013523,0.002678,0.000431,0.005876
29589000,0.0324,0.013523,0.002678,0.000431,0.005759
29590000,0.0324,0.013523,0.002678,0.000431,0.061467
29591000,0.0324,0.013523,0.002678,0.000431,0.018452
29592000,0.0324,0.013523,0.002678,0.000431,0.035376
29593000,0.0324,0.013523,0.002678,0.000431,0.013398
29594000,0.0324,0.013523,0.002678,0.000431,0.005876
29595000,0.0324,0.013523,0.002678,0.000431,0.005876
29596000,0.0324,0.013523,0.002678,0.000431,0.013398
29597000,0.0324,0.013523,0.002678,0.000431,0.005876
29598000,0.0324,0.013523,0.002678,0.000431,0.005876
29599000,0.0324,0.013523,0.002678,0.000431,0.013163
29600000,0.0324,0.013523,0.002678,0.000431,0.020920
29601000,0.0324,0.013523,0.002678,0.000431,0.005876
29602000,0.0324,0.013523,0.002678,0.000431,0.017159
29603000,0.0324,0.013523,0.002678,0.000431,0.054533
29604000,0.0324,0.013523,0.002678,0.000431,0.013398
29605000,0.0324,0.013523,0.002678,0.000431,0.005876
29606000,0.0324,0.013523,0.002678,0.000431,0.103660
29607000,0.0324,0.013523,0.002678,0.000431,0.005876
29608000,0.0324,0.013523,0.002678,0.000431,0.005876
29609000,0.0324,0.013523,0.002678,0.000431,0.013398
29610000,0.0324,0.013523,0.002678,0.000431,0.013163
29611000,0.0324,0.013523,0.002678,0.000431,0.043485
29612000,0.0324,0.013523,0.002678,0.000431,0.017394
29613000,0.0324,0.013523,0.002678,0.000431,0.084150
29614000,0.0324,0.013523,0.002678,0.000431,0.005876
29615000,0.0324,0.013523,0.002678,0.000431,0.013398
29616000,0.0324,0.013523,0.002678,0.000431,0.005876
29617000,0.0324,0.013523,0.002678,0.000431,0.005876
29618000,0.0324,0.013523,0.002678,0.000431,0.005876
29619000,0.0324,0.013523,0.002678,0.000431,0.043603
29620000,0.0324,0.013523,0.002678,0.000431,0.020567
29621000,0.0324,0.013523,0.002678,0.000431,0.005876
29622000,0.0324,0.013523,0.002678,0.000431,0.013398
29623000,0.0324,0.013523,0.002678,0.000431,0.005876
29624000,0.0324,0.013523,0.002678,0.000431,0.095668
29625000,0.0324,0.013523,0.002678,0.000431,0.017159
29626000,0.0324,0.013523,0.002678,0.000431,0.017159
29627000,0.0324,0.013523,0.002678,0.000431,0.005876
29628000,0.0324,0.013523,0.002678,0.000431,0.058529
29629000,0.0324,0.013523,0.002678,0.000431,0.005876
29630000,0.0324,0.013523,0.002678,0.000431,0.013163
29631000,0.0324,0.013523,0.002678,0.000431,0.013398
29632000,0.0324,0.013523,0.002678,0.000431,0.118468
29633000,0.0324,0.013523,0.002678,0.000431,0.005876
29634000,0.0324,0.013523,0.002678,0.000431,0.005641
29635000,0.0324,0.013523,0.002678,0.000431,0.009637
29636000,0.0324,0.013523,0.002678,0.000431,0.009637
29637000,0.0324,0.013523,0.002678,0.000431,0.005876
29638000,0.0324,0.013523,0.002678,0.000431,0.005876
29639000,0.0324,0.013523,0.002678,0.000431,0.005876
29640000,0.0324,0.013523,0.002678,0.000431,0.005876
29641000,0.0324,0.013523,0.002678,0.000431,0.020920
29642000,0.0324,0.013523,0.002678,0.000431,0.005876
29643000,0.0324,0.013523,0.002678,0.000431,0.005876
29644000,0.0324,0.013523,0.002678,0.000431,0.013398
29645000,0.0324,0.013523,0.002678,0.000431,0.066051
29646000,0.0324,0.013523,0.002678,0.000431,0.005876
29647000,0.0324,0.013523,0.002678,0.000431,0.009637
29648000,0.0324,0.013523,0.002678,0.000431,0.014221
29649000,0.0324,0.013523,0.002678,0.000431,0.008580
29650000,0.0324,0.013523,0.002678,0.000431,0.094023
29651000,0.0324,0.013523,0.002678,0.000431,0.020567
29652000,0.0324,0.013523,0.002678,0.000431,0.008109
29653000,0.0324,0.013523,0.002678,0.000431,0.005876
29654000,0.0324,0.013523,0.002678,0.000431,0.005406
29655000,0.0324,0.013523,0.002678,0.000431,0.020920
29656000,0.0324,0.013523,0.002678,0.000431,0.005876
29657000,0.0324,0.013523,0.002678,0.000431,0.020920
29658000,0.0324,0.013523,0.002678,0.000431,0.024681
29659000,0.0324,0.013523,0.002678,0.000431,0.009637
29660000,0.0324,0.013523,0.002678,0.000431,0.029147
29661000,0.0324,0.013523,0.002678,0.000431,0.039019
29662000,0.0324,0.013523,0.002678,0.000431,0.092142
29663000,0.0324,0.013523,0.002678,0.000431,0.005759
29664000,0.0324,0.013523,0.002678,0.000431,0.020802
29665000,0.0324,0.013523,0.002678,0.000431,0.043485
29666000,0.0324,0.013523,0.002678,0.000431,0.005876
29667000,0.0324,0.013523,0.002678,0.000431,0.043485
29668000,0.0324,0.013523,0.002678,0.000431,0.005876
29669000,0.0324,0.013523,0.002678,0.000431,0.005876
29670000,0.0324,0.013523,0.002678,0.000431,0.020802
29671000,0.0324,0.013523,0.002678,0.000431,0.020802
29672000,0.0324,0.013523,0.002678,0.000431,0.005876
29673000,0.0324,0.013523,0.002678,0.000431,0.064053
29674000,0.0324,0.013523,0.002678,0.000431,0.119761
29675000,0.0324,0.013523,0.002678,0.000431,0.035964
29676000,0.0324,0.013523,0.002678,0.000431,0.028442
29677000,0.0324,0.013523,0.002678,0.000431,0.013398
29678000,0.0324,0.013523,0.002678,0.000431,0.005876
29679000,0.0324,0.013523,0.002678,0.000431,0.005876
29680000,0.0324,0.013523,0.002678,0.000431,0.023506
29681000,0.0324,0.013523,0.002678,0.000431,0.014573
29682000,0.0324,0.013523,0.002678,0.000431,0.129516
29683000,0.0324,0.013523,0.002678,0.000431,0.038079
29684000,0.0324,0.013523,0.002678,0.000431,0.031615
29685000,0.0324,0.013523,0.002678,0.000431,0.023153
29686000,0.0324,0.013523,0.002678,0.000431,0.005876
29687000,0.0324,0.013523,0.002678,0.000431,0.005876
29688000,0.0324,0.013523,0.002678,0.000431,0.013398
29689000,0.0324,0.013523,0.002678,0.000431,0.013398
29690000,0.0324,0.013523,0.002678,0.000431,0.134922
29691000,0.0324,0.013523,0.002678,0.000431,0.034318
29692000,0.0324,0.013523,0.002678,0.000431,0.037609
29693000,0.0324,0.013523,0.002678,0.000431,0.019275
29694000,0.0324,0.013523,0.002678,0.000431,0.005641
29695000,0.0324,0.013523,0.002678,0.000431,0.030322
29696000,0.0324,0.013523,0.002678,0.000431,0.011518
29697000,0.0324,0.013523,0.002678,0.000431,0.111182
29698000,0.0324,0.013523,0.002678,0.000431,0.041370
29699000,0.0324,0.013523,0.002678,0.000431,0.045836
29700000,0.0324,0.013523,0.002678,0.000431,0.005876
29701000,0.0324,0.013523,0.002678,0.000431,0.005876
29702000,0.0324,0.013523,0.002678,0.000431,0.005641
29703000,0.0324,0.013523,0.002678,0.000431,0.005876
29704000,0.0324,0.013523,0.002678,0.000431,0.005876
29705000,0.0324,0.013523,0.002678,0.000431,0.006229
29706000,0.0324,0.013523,0.002678,0.000431,0.027854
29707000,0.0324,0.013523,0.002678,0.000431,0.005876
29708000,0.0324,0.013523,0.002678,0.000431,0.005876
29709000,0.0324,0.013523,0.002678,0.000431,0.036199
29710000,0.0324,0.013523,0.002678,0.000431,0.058412
29711000,0.0324,0.013523,0.002678,0.000431,0.005759
29712000,0.0324,0.013523,0.002678,0.000431,0.028442
29713000,0.0324,0.013523,0.002678,0.000431,0.073573
29714000,0.0324,0.013523,0.002678,0.000431,0.035729
29715000,0.0324,0.013523,0.002678,0.000431,0.035964
29716000,0.0324,0.013523,0.002678,0.000431,0.036199
29717000,0.0324,0.013523,0.002678,0.000431,0.028442
29718000,0.0324,0.013523,0.002678,0.000431,0.005876
29719000,0.0324,0.013523,0.002678,0.000431,0.013516
29720000,0.0324,0.013523,0.002678,0.000431,0.118586
29721000,0.0324,0.013523,0.002678,0.000431,0.013398
29722000,0.0324,0.013523,0.002678,0.000431,0.012928
29723000,0.0324,0.013523,0.002678,0.000431,0.040430
29724000,0.0324,0.013523,0.002678,0.000431,0.062055
29725000,0.0324,0.013523,0.002678,0.000431,0.065346
29726000,0.0324,0.013523,0.002678,0.000431,0.066756
29727000,0.0324,0.013523,0.002678,0.000431,0.019862
29728000,0.0324,0.013523,0.002678,0.000431,0.014221
29729000,0.0324,0.013523,0.002678,0.000431,0.028442
29730000,0.0324,0.013523,0.002678,0.000431,0.021038
29731000,0.0324,0.013523,0.002678,0.000431,0.028324
29732000,0.0324,0.013523,0.002678,0.000431,0.043485
29733000,0.0324,0.013523,0.002678,0.000431,0.005876
29734000,0.0324,0.013523,0.002678,0.000431,0.005876
29735000,0.0324,0.013523,0.002678,0.000431,0.005876
29736000,0.0324,0.013523,0.002678,0.000431,0.005876
29737000,0.0324,0.013523,0.002678,0.000431,0.073573
29738000,0.0324,0.013523,0.002678,0.000431,0.013398
29739000,0.0324,0.013523,0.002678,0.000431,0.005876
29740000,0.0324,0.013523,0.002678,0.000431,0.005876
29741000,0.0324,0.013523,0.002678,0.000431,0.005876
29742000,0.0324,0.013523,0.002678,0.000431,0.005641
29743000,0.0324,0.013523,0.002678,0.000431,0.005994
29744000,0.0324,0.013523,0.002678,0.000431,0.013516
29745000,0.0324,0.013523,0.002678,0.000431,0.028324
29746000,0.0324,0.013523,0.002678,0.000431,0.065933
29747000,0.0324,0.013523,0.002678,0.000431,0.013398
29748000,0.0324,0.013523,0.002678,0.000431,0.013398
29749000,0.0324,0.013523,0.002678,0.000431,0.005876
29750000,0.0324,0.013523,0.002678,0.000431,0.020685
29751000,0.0324,0.013523,0.002678,0.000431,0.005876
29752000,0.0324,0.013523,0.002678,0.000431,0.020920
29753000,0.0324,0.013523,0.002678,0.000431,0.005876
29754000,0.0324,0.013523,0.002678,0.000431,0.021038
29755000,0.0324,0.013523,0.002678,0.000431,0.058647
29756000,0.0324,0.013523,0.002678,0.000431,0.021860
29757000,0.0324,0.013523,0.002678,0.000431,0.057589
29758000,0.0324,0.013523,0.002678,0.000431,0.005876
29759000,0.0324,0.013523,0.002678,0.000431,0.028207
29760000,0.0324,0.013523,0.002678,0.000431,0.005641
29761000,0.0324,0.013523,0.002678,0.000431,0.073573
29762000,0.0324,0.013523,0.002678,0.000431,0.043485
29763000,0.0324,0.013523,0.002678,0.000431,0.028442
29764000,0.0324,0.013523,0.002678,0.000431,0.005876
29765000,0.0324,0.013523,0.002678,0.000431,0.005876
29766000,0.0324,0.013523,0.002678,0.000431,0.005876
29767000,0.0324,0.013523,0.002678,0.000431,0.009637
29768000,0.0324,0.013523,0.002678,0.000431,0.009872
29769000,0.0324,0.013523,0.002678,0.000431,0.069812
29770000,0.0324,0.013523,0.002678,0.000431,0.033260
29771000,0.0324,0.013523,0.002678,0.000431,0.094728
29772000,0.0324,0.013523,0.002678,0.000431,0.005759
29773000,0.0324,0.013523,0.002678,0.000431,0.005876
29774000,0.0324,0.013523,0.002678,0.000431,0.013398
29775000,0.0324,0.013523,0.002678,0.000431,0.048774
29776000,0.0324,0.013523,0.002678,0.000431,0.053005
29777000,0.0324,0.013523,0.002678,0.000431,0.066051
29778000,0.0324,0.013523,0.002678,0.000431,0.005876
29779000,0.0324,0.013523,0.002678,0.000431,0.005876
29780000,0.0324,0.013523,0.002678,0.000431,0.014573
29781000,0.0324,0.013523,0.002678,0.000431,0.012223
29782000,0.0324,0.013523,0.002678,0.000431,0.020802
29783000,0.0324,0.013523,0.002678,0.000431,0.011988
29784000,0.0324,0.013523,0.002678,0.000431,0.022213
29785000,0.0324,0.013523,0.002678,0.000431,0.005876
29786000,0.0324,0.013523,0.002678,0.000431,0.005876
29787000,0.0324,0.013523,0.002678,0.000431,0.005876
29788000,0.0324,0.013523,0.002678,0.000431,0.005994
29789000,0.0324,0.013523,0.002678,0.000431,0.080742
29790000,0.0324,0.013523,0.002678,0.000431,0.035964
29791000,0.0324,0.013523,0.002678,0.000431,0.005759
29792000,0.0324,0.013523,0.002678,0.000431,0.005759
29793000,0.0324,0.013523,0.002678,0.000431,0.060762
29794000,0.0324,0.013523,0.002678,0.000431,0.212373
29795000,0.0324,0.013523,0.002678,0.000431,0.029382
29796000,0.0324,0.013523,0.002678,0.000431,0.013398
29797000,0.0324,0.013523,0.002678,0.000431,0.013398
29798000,0.0324,0.013523,0.002678,0.000431,0.005876
29799000,0.0324,0.013523,0.002678,0.000431,0.005876
29800000,0.0324,0.013523,0.002678,0.000431,0.005641
29801000,0.0324,0.013523,0.002678,0.000431,0.005641
29802000,0.0324,0.013523,0.002678,0.000431,0.035964
29803000,0.0324,0.013523,0.002678,0.000431,0.005876
29804000,0.0324,0.013523,0.002678,0.000431,0.005876
29805000,0.0324,0.013523,0.002678,0.000431,0.005876
29806000,0.0324,0.013523,0.002678,0.000431,0.005876
29807000,0.0324,0.013523,0.002678,0.000431,0.005876
29808000,0.0324,0.013523,0.002678,0.000431,0.020920
29809000,0.0324,0.013523,0.002678,0.000431,0.005876
29810000,0.0324,0.013523,0.002678,0.000431,0.028442
29811000,0.0324,0.013523,0.002678,0.000431,0.005876
29812000,0.0324,0.013523,0.002678,0.000431,0.005876
29813000,0.0324,0.013523,0.002678,0.000431,0.005759
29814000,0.0324,0.013523,0.002678,0.000431,0.005759
29815000,0.0324,0.013523,0.002678,0.000431,0.005876
29816000,0.0324,0.013523,0.002678,0.000431,0.013281
29817000,0.0324,0.013523,0.002678,0.000431,0.084973
29818000,0.0324,0.013523,0.002678,0.000431,0.165715
29819000,0.0324,0.013523,0.002678,0.000431,0.005876
29820000,0.0324,0.013523,0.002678,0.000431,0.005876
29821000,0.0324,0.013523,0.002678,0.000431,0.013398
29822000,0.0324,0.013523,0.002678,0.000431,0.035964
29823000,0.0324,0.013523,0.002678,0.000431,0.005876
29824000,0.0324,0.013523,0.002678,0.000431,0.005876
29825000,0.0324,0.013523,0.002678,0.000431,0.005876
29826000,0.0324,0.013523,0.002678,0.000431,0.013398
29827000,0.0324,0.013523,0.002678,0.000431,0.005876
29828000,0.0324,0.013523,0.002678,0.000431,0.119879
29829000,0.0324,0.013523,0.002678,0.000431,0.093905
29830000,0.0324,0.013523,0.002678,0.000431,0.021273
29831000,0.0324,0.013523,0.002678,0.000431,0.020920
29832000,0.0324,0.013523,0.002678,0.000431,0.005876
29833000,0.0324,0.013523,0.002678,0.000431,0.028442
29834000,0.0324,0.013523,0.002678,0.000431,0.005876
29835000,0.0324,0.013523,0.002678,0.000431,0.058294
29836000,0.0324,0.013523,0.002678,0.000431,0.005876
29837000,0.0324,0.013523,0.002678,0.000431,0.012223
29838000,0.0324,0.013523,0.002678,0.000431,0.044661
29839000,0.0324,0.013523,0.002678,0.000431,0.005876
29840000,0.0324,0.013523,0.002678,0.000431,0.005876
29841000,0.0324,0.013523,0.002678,0.000431,0.013398
29842000,0.0324,0.013523,0.002678,0.000431,0.013398
29843000,0.0324,0.013523,0.002678,0.000431,0.005641
29844000,0.0324,0.013523,0.002678,0.000431,0.005876
29845000,0.0324,0.013523,0.002678,0.000431,0.005876
29846000,0.0324,0.013523,0.002678,0.000431,0.005876
29847000,0.0324,0.013523,0.002678,0.000431,0.005876
29848000,0.0324,0.013523,0.002678,0.000431,0.028442
29849000,0.0324,0.013523,0.002678,0.000431,0.005876
29850000,0.0324,0.013523,0.002678,0.000431,0.005876
29851000,0.0324,0.013523,0.002678,0.000431,0.005876
29852000,0.0324,0.013523,0.002678,0.000431,0.005876
29853000,0.0324,0.013523,0.002678,0.000431,0.011988
29854000,0.0324,0.013523,0.002678,0.000431,0.014573
29855000,0.0324,0.013523,0.002678,0.000431,0.043250
29856000,0.0324,0.013523,0.002678,0.000431,0.005876
29857000,0.0324,0.013523,0.002678,0.000431,0.013281
29858000,0.0324,0.013523,0.002678,0.000431,0.009520
29859000,0.0324,0.013523,0.002678,0.000431,0.009637
29860000,0.0324,0.013523,0.002678,0.000431,0.005876
29861000,0.0324,0.013523,0.002678,0.000431,0.013398
29862000,0.0324,0.013523,0.002678,0.000431,0.005876
29863000,0.0324,0.013523,0.002678,0.000431,0.005876
29864000,0.0324,0.013523,0.002678,0.000431,0.005876
29865000,0.0324,0.013523,0.002678,0.000431,0.013398
29866000,0.0324,0.013523,0.002678,0.000431,0.005876
29867000,0.0324,0.013523,0.002678,0.000431,0.052418
29868000,0.0324,0.013523,0.002678,0.000431,0.027031
29869000,0.0324,0.013523,0.002678,0.000431,0.005876
29870000,0.0324,0.013523,0.002678,0.000431,0.005876
29871000,0.0324,0.013523,0.002678,0.000431,0.005876
29872000,0.0324,0.013523,0.002678,0.000431,0.005876
29873000,0.0324,0.013523,0.002678,0.000431,0.096021
29874000,0.0324,0.013523,0.002678,0.000431,0.140446
29875000,0.0324,0.013523,0.002678,0.000431,0.005876
29876000,0.0324,0.013523,0.002678,0.000431,0.005876
29877000,0.0324,0.013523,0.002678,0.000431,0.005876
29878000,0.0324,0.013523,0.002678,0.000431,0.043485
29879000,0.0324,0.013523,0.002678,0.000431,0.005876
29880000,0.0324,0.013523,0.002678,0.000431,0.125990
29881000,0.0324,0.013523,0.002678,0.000431,0.088381
29882000,0.0324,0.013523,0.002678,0.000431,0.005876
29883000,0.0324,0.013523,0.002678,0.000431,0.013163
29884000,0.0324,0.013523,0.002678,0.000431,0.043485
29885000,0.0324,0.013523,0.002678,0.000431,0.005876
29886000,0.0324,0.013523,0.002678,0.000431,0.005876
29887000,0.0324,0.013523,0.002678,0.000431,0.143149
29888000,0.0324,0.013523,0.002678,0.000431,0.033613
29889000,0.0324,0.013523,0.002678,0.000431,0.013046
29890000,0.0324,0.013523,0.002678,0.000431,0.006229
29891000,0.0324,0.013523,0.002678,0.000431,0.110947
29892000,0.0324,0.013523,0.002678,0.000431,0.005524
29893000,0.0324,0.013523,0.002678,0.000431,0.028677
29894000,0.0324,0.013523,0.002678,0.000431,0.043133
29895000,0.0324,0.013523,0.002678,0.000431,0.005641
29896000,0.0324,0.013523,0.002678,0.000431,0.013398
29897000,0.0324,0.013523,0.002678,0.000431,0.024093
29898000,0.0324,0.013523,0.002678,0.000431,0.092730
29899000,0.0324,0.013523,0.002678,0.000431,0.005876
29900000,0.0324,0.013523,0.002678,0.000431,0.005876
29901000,0.0324,0.013523,0.002678,0.000431,0.005876
29902000,0.0324,0.013523,0.002678,0.000431,0.005876
29903000,0.0324,0.013523,0.002678,0.000431,0.005876
29904000,0.0324,0.013523,0.002678,0.000431,0.072162
29905000,0.0324,0.013523,0.002678,0.000431,0.029382
29906000,0.0324,0.013523,0.002678,0.000431,0.013398
29907000,0.0324,0.013523,0.002678,0.000431,0.020920
29908000,0.0324,0.013523,0.002678,0.000431,0.005876
29909000,0.0324,0.013523,0.002678,0.000431,0.005876
29910000,0.0324,0.013523,0.002678,0.000431,0.005876
29911000,0.0324,0.013523,0.002678,0.000431,0.043485
29912000,0.0324,0.013523,0.002678,0.000431,0.005876
29913000,0.0324,0.013523,0.002678,0.000431,0.013398
29914000,0.0324,0.013523,0.002678,0.000431,0.005876
29915000,0.0324,0.013523,0.002678,0.000431,0.013398
29916000,0.0324,0.013523,0.002678,0.000431,0.005759
29917000,0.0324,0.013523,0.002678,0.000431,0.005759
29918000,0.0324,0.013523,0.002678,0.000431,0.005876
29919000,0.0324,0.013523,0.002678,0.000431,0.020920
29920000,0.0324,0.013523,0.002678,0.000431,0.013163
29921000,0.0324,0.013523,0.002678,0.000431,0.005876
29922000,0.0324,0.013523,0.002678,0.000431,0.079332
29923000,0.0324,0.013523,0.002678,0.000431,0.188633
29924000,0.0324,0.013523,0.002678,0.000431,0.026561
29925000,0.0324,0.013523,0.002678,0.000431,0.010342
29926000,0.0324,0.013523,0.002678,0.000431,0.054063
29927000,0.0324,0.013523,0.002678,0.000431,0.005876
29928000,0.0324,0.013523,0.002678,0.000431,0.005876
29929000,0.0324,0.013523,0.002678,0.000431,0.005876
29930000,0.0324,0.013523,0.002678,0.000431,0.073690
29931000,0.0324,0.013523,0.002678,0.000431,0.042898
29932000,0.0324,0.013523,0.002678,0.000431,0.035964
29933000,0.0324,0.013523,0.002678,0.000431,0.039842
29934000,0.0324,0.013523,0.002678,0.000431,0.159603
29935000,0.0324,0.013523,0.002678,0.000431,0.095315
29936000,0.0324,0.013523,0.002678,0.000431,0.013868
29937000,0.0324,0.013523,0.002678,0.000431,0.020332
29938000,0.0324,0.013523,0.002678,0.000431,0.013281
29939000,0.0324,0.013523,0.002678,0.000431,0.013398
29940000,0.0324,0.013523,0.002678,0.000431,0.005876
29941000,0.0324,0.013523,0.002678,0.000431,0.017159
29942000,0.0324,0.013523,0.002678,0.000431,0.024916
29943000,0.0324,0.013523,0.002678,0.000431,0.009637
29944000,0.0324,0.013523,0.002678,0.000431,0.009637
29945000,0.0324,0.013523,0.002678,0.000431,0.005876
29946000,0.0324,0.013523,0.002678,0.000431,0.013398
29947000,0.0324,0.013523,0.002678,0.000431,0.005876
29948000,0.0324,0.013523,0.002678,0.000431,0.095903
29949000,0.0324,0.013523,0.002678,0.000431,0.005876
29950000,0.0324,0.013523,0.002678,0.000431,0.028442
29951000,0.0324,0.013523,0.002678,0.000431,0.014809
29952000,0.0324,0.013523,0.002678,0.000431,0.011988
29953000,0.0324,0.013523,0.002678,0.000431,0.005876
29954000,0.0324,0.013523,0.002678,0.000431,0.008815
29955000,0.0324,0.013523,0.002678,0.000431,0.010460
29956000,0.0324,0.013523,0.002678,0.000431,0.005876
29957000,0.0324,0.013523,0.002678,0.000431,0.005876
29958000,0.0324,0.013523,0.002678,0.000431,0.035964
29959000,0.0324,0.013523,0.002678,0.000431,0.035964
29960000,0.0324,0.013523,0.002678,0.000431,0.005171
29961000,0.0324,0.013523,0.002678,0.000431,0.020920
29962000,0.0324,0.013523,0.002678,0.000431,0.005876
29963000,0.0324,0.013523,0.002678,0.000431,0.005876
29964000,0.0324,0.013523,0.002678,0.000431,0.028442
29965000,0.0324,0.013523,0.002678,0.000431,0.005759
29966000,0.0324,0.013523,0.002678,0.000431,0.013281
29967000,0.0324,0.013523,0.002678,0.000431,0.005876
29968000,0.0324,0.013523,0.002678,0.000431,0.005876
29969000,0.0324,0.013523,0.002678,0.000431,0.051007
29970000,0.0324,0.013523,0.002678,0.000431,0.005876
29971000,0.0324,0.013523,0.002678,0.000431,0.088381
29972000,0.0324,0.013523,0.002678,0.000431,0.013398
29973000,0.0324,0.013523,0.002678,0.000431,0.005876
29974000,0.0324,0.013523,0.002678,0.000431,0.005876
29975000,0.0324,0.013523,0.002678,0.000431,0.054768
29976000,0.0324,0.013523,0.002678,0.000431,0.017159
29977000,0.0324,0.013523,0.002678,0.000431,0.028442
29978000,0.0324,0.013523,0.002678,0.000431,0.005641
29979000,0.0324,0.013523,0.002678,0.000431,0.013398
29980000,0.0324,0.013523,0.002678,0.000431,0.005876
29981000,0.0324,0.013523,0.002678,0.000431,0.005876
29982000,0.0324,0.013523,0.002678,0.000431,0.013398
29983000,0.0324,0.013523,0.002678,0.000431,0.005876
29984000,0.0324,0.013523,0.002678,0.000431,0.028442
29985000,0.0324,0.013523,0.002678,0.000431,0.040430
29986000,0.0324,0.013523,0.002678,0.000431,0.139741
29987000,0.0324,0.013523,0.002678,0.000431,0.121877
29988000,0.0324,0.013523,0.002678,0.000431,0.071927
29989000,0.0324,0.013523,0.002678,0.000431,0.037609
29990000,0.0324,0.013523,0.002678,0.000431,0.005876
29991000,0.0324,0.013523,0.002678,0.000431,0.005876
29992000,0.0324,0.013523,0.002678,0.000431,0.005759
29993000,0.0324,0.013523,0.002678,0.000431,0.040195
29994000,0.0324,0.013523,0.002678,0.000431,0.104835
29995000,0.0324,0.013523,0.002678,0.000431,0.142327
29996000,0.0324,0.013523,0.002678,0.000431,0.005876
29997000,0.0324,0.013523,0.002678,0.000431,0.005876
29998000,0.0324,0.013523,0.002678,0.000431,0.005876
29999000,0.0324,0.013523,0.002678,0.000431,0.005876
