Cycle,Area(mm^2),PeakDynamic(W),SubthresholdLeakage(W),GateLeakage(W),RunTimeDynamic(W)
26000000,0.0324,0.013523,0.002678,0.000431,0.005876
26001000,0.0324,0.013523,0.002678,0.000431,0.005876
26002000,0.0324,0.013523,0.002678,0.000431,0.028442
26003000,0.0324,0.013523,0.002678,0.000431,0.035964
26004000,0.0324,0.013523,0.002678,0.000431,0.005876
26005000,0.0324,0.013523,0.002678,0.000431,0.005876
26006000,0.0324,0.013523,0.002678,0.000431,0.005876
26007000,0.0324,0.013523,0.002678,0.000431,0.005876
26008000,0.0324,0.013523,0.002678,0.000431,0.045131
26009000,0.0324,0.013523,0.002678,0.000431,0.136333
26010000,0.0324,0.013523,0.002678,0.000431,0.009637
26011000,0.0324,0.013523,0.002678,0.000431,0.005876
26012000,0.0324,0.013523,0.002678,0.000431,0.005876
26013000,0.0324,0.013523,0.002678,0.000431,0.005876
26014000,0.0324,0.013523,0.002678,0.000431,0.005876
26015000,0.0324,0.013523,0.002678,0.000431,0.066051
26016000,0.0324,0.013523,0.002678,0.000431,0.005641
26017000,0.0324,0.013523,0.002678,0.000431,0.005876
26018000,0.0324,0.013523,0.002678,0.000431,0.005876
26019000,0.0324,0.013523,0.002678,0.000431,0.005876
26020000,0.0324,0.013523,0.002678,0.000431,0.005876
26021000,0.0324,0.013523,0.002678,0.000431,0.082622
26022000,0.0324,0.013523,0.002678,0.000431,0.049244
26023000,0.0324,0.013523,0.002678,0.000431,0.095903
26024000,0.0324,0.013523,0.002678,0.000431,0.005876
26025000,0.0324,0.013523,0.002678,0.000431,0.005876
26026000,0.0324,0.013523,0.002678,0.000431,0.005876
26027000,0.0324,0.013523,0.002678,0.000431,0.005876
26028000,0.0324,0.013523,0.002678,0.000431,0.051007
26029000,0.0324,0.013523,0.002678,0.000431,0.066286
26030000,0.0324,0.013523,0.002678,0.000431,0.005876
26031000,0.0324,0.013523,0.002678,0.000431,0.005759
26032000,0.0324,0.013523,0.002678,0.000431,0.005759
26033000,0.0324,0.013523,0.002678,0.000431,0.005876
26034000,0.0324,0.013523,0.002678,0.000431,0.044308
26035000,0.0324,0.013523,0.002678,0.000431,0.140211
26036000,0.0324,0.013523,0.002678,0.000431,0.027972
26037000,0.0324,0.013523,0.002678,0.000431,0.005876
26038000,0.0324,0.013523,0.002678,0.000431,0.005876
26039000,0.0324,0.013523,0.002678,0.000431,0.005876
26040000,0.0324,0.013523,0.002678,0.000431,0.005876
26041000,0.0324,0.013523,0.002678,0.000431,0.005876
26042000,0.0324,0.013523,0.002678,0.000431,0.020920
26043000,0.0324,0.013523,0.002678,0.000431,0.005876
26044000,0.0324,0.013523,0.002678,0.000431,0.005876
26045000,0.0324,0.013523,0.002678,0.000431,0.005876
26046000,0.0324,0.013523,0.002678,0.000431,0.005876
26047000,0.0324,0.013523,0.002678,0.000431,0.005876
26048000,0.0324,0.013523,0.002678,0.000431,0.068401
26049000,0.0324,0.013523,0.002678,0.000431,0.026091
26050000,0.0324,0.013523,0.002678,0.000431,0.005876
26051000,0.0324,0.013523,0.002678,0.000431,0.005876
26052000,0.0324,0.013523,0.002678,0.000431,0.005876
26053000,0.0324,0.013523,0.002678,0.000431,0.005876
26054000,0.0324,0.013523,0.002678,0.000431,0.005876
26055000,0.0324,0.013523,0.002678,0.000431,0.073573
26056000,0.0324,0.013523,0.002678,0.000431,0.005876
26057000,0.0324,0.013523,0.002678,0.000431,0.005876
26058000,0.0324,0.013523,0.002678,0.000431,0.005876
26059000,0.0324,0.013523,0.002678,0.000431,0.005876
26060000,0.0324,0.013523,0.002678,0.000431,0.028442
26061000,0.0324,0.013523,0.002678,0.000431,0.082035
26062000,0.0324,0.013523,0.002678,0.000431,0.042545
26063000,0.0324,0.013523,0.002678,0.000431,0.005641
26064000,0.0324,0.013523,0.002678,0.000431,0.005876
26065000,0.0324,0.013523,0.002678,0.000431,0.005876
26066000,0.0324,0.013523,0.002678,0.000431,0.039960
26067000,0.0324,0.013523,0.002678,0.000431,0.066521
26068000,0.0324,0.013523,0.002678,0.000431,0.054063
26069000,0.0324,0.013523,0.002678,0.000431,0.005876
26070000,0.0324,0.013523,0.002678,0.000431,0.005876
26071000,0.0324,0.013523,0.002678,0.000431,0.005524
26072000,0.0324,0.013523,0.002678,0.000431,0.005759
26073000,0.0324,0.013523,0.002678,0.000431,0.095198
26074000,0.0324,0.013523,0.002678,0.000431,0.062878
26075000,0.0324,0.013523,0.002678,0.000431,0.070399
26076000,0.0324,0.013523,0.002678,0.000431,0.005641
26077000,0.0324,0.013523,0.002678,0.000431,0.005876
26078000,0.0324,0.013523,0.002678,0.000431,0.005876
26079000,0.0324,0.013523,0.002678,0.000431,0.027384
26080000,0.0324,0.013523,0.002678,0.000431,0.097196
26081000,0.0324,0.013523,0.002678,0.000431,0.035964
26082000,0.0324,0.013523,0.002678,0.000431,0.005876
26083000,0.0324,0.013523,0.002678,0.000431,0.005759
26084000,0.0324,0.013523,0.002678,0.000431,0.005759
26085000,0.0324,0.013523,0.002678,0.000431,0.005641
26086000,0.0324,0.013523,0.002678,0.000431,0.051007
26087000,0.0324,0.013523,0.002678,0.000431,0.058529
26088000,0.0324,0.013523,0.002678,0.000431,0.005876
26089000,0.0324,0.013523,0.002678,0.000431,0.005876
26090000,0.0324,0.013523,0.002678,0.000431,0.005876
26091000,0.0324,0.013523,0.002678,0.000431,0.005876
26092000,0.0324,0.013523,0.002678,0.000431,0.057941
26093000,0.0324,0.013523,0.002678,0.000431,0.087088
26094000,0.0324,0.013523,0.002678,0.000431,0.038079
26095000,0.0324,0.013523,0.002678,0.000431,0.005876
26096000,0.0324,0.013523,0.002678,0.000431,0.005876
26097000,0.0324,0.013523,0.002678,0.000431,0.005876
26098000,0.0324,0.013523,0.002678,0.000431,0.005876
26099000,0.0324,0.013523,0.002678,0.000431,0.039725
26100000,0.0324,0.013523,0.002678,0.000431,0.066051
26101000,0.0324,0.013523,0.002678,0.000431,0.017159
26102000,0.0324,0.013523,0.002678,0.000431,0.005876
26103000,0.0324,0.013523,0.002678,0.000431,0.005876
26104000,0.0324,0.013523,0.002678,0.000431,0.005876
26105000,0.0324,0.013523,0.002678,0.000431,0.005876
26106000,0.0324,0.013523,0.002678,0.000431,0.107186
26107000,0.0324,0.013523,0.002678,0.000431,0.017864
26108000,0.0324,0.013523,0.002678,0.000431,0.005876
26109000,0.0324,0.013523,0.002678,0.000431,0.005876
26110000,0.0324,0.013523,0.002678,0.000431,0.005876
26111000,0.0324,0.013523,0.002678,0.000431,0.009520
26112000,0.0324,0.013523,0.002678,0.000431,0.028559
26113000,0.0324,0.013523,0.002678,0.000431,0.077334
26114000,0.0324,0.013523,0.002678,0.000431,0.005876
26115000,0.0324,0.013523,0.002678,0.000431,0.005876
26116000,0.0324,0.013523,0.002678,0.000431,0.005876
26117000,0.0324,0.013523,0.002678,0.000431,0.005876
26118000,0.0324,0.013523,0.002678,0.000431,0.029500
26119000,0.0324,0.013523,0.002678,0.000431,0.095080
26120000,0.0324,0.013523,0.002678,0.000431,0.013163
26121000,0.0324,0.013523,0.002678,0.000431,0.005876
26122000,0.0324,0.013523,0.002678,0.000431,0.005876
26123000,0.0324,0.013523,0.002678,0.000431,0.005759
26124000,0.0324,0.013523,0.002678,0.000431,0.028089
26125000,0.0324,0.013523,0.002678,0.000431,0.100839
26126000,0.0324,0.013523,0.002678,0.000431,0.061350
26127000,0.0324,0.013523,0.002678,0.000431,0.005876
26128000,0.0324,0.013523,0.002678,0.000431,0.005876
26129000,0.0324,0.013523,0.002678,0.000431,0.005876
26130000,0.0324,0.013523,0.002678,0.000431,0.005876
26131000,0.0324,0.013523,0.002678,0.000431,0.035846
26132000,0.0324,0.013523,0.002678,0.000431,0.138213
26133000,0.0324,0.013523,0.002678,0.000431,0.016336
26134000,0.0324,0.013523,0.002678,0.000431,0.005876
26135000,0.0324,0.013523,0.002678,0.000431,0.005876
26136000,0.0324,0.013523,0.002678,0.000431,0.005876
26137000,0.0324,0.013523,0.002678,0.000431,0.010342
26138000,0.0324,0.013523,0.002678,0.000431,0.023976
26139000,0.0324,0.013523,0.002678,0.000431,0.179113
26140000,0.0324,0.013523,0.002678,0.000431,0.005641
26141000,0.0324,0.013523,0.002678,0.000431,0.005876
26142000,0.0324,0.013523,0.002678,0.000431,0.005876
26143000,0.0324,0.013523,0.002678,0.000431,0.005876
26144000,0.0324,0.013523,0.002678,0.000431,0.048187
26145000,0.0324,0.013523,0.002678,0.000431,0.128576
26146000,0.0324,0.013523,0.002678,0.000431,0.005641
26147000,0.0324,0.013523,0.002678,0.000431,0.005876
26148000,0.0324,0.013523,0.002678,0.000431,0.005876
26149000,0.0324,0.013523,0.002678,0.000431,0.005876
26150000,0.0324,0.013523,0.002678,0.000431,0.020920
26151000,0.0324,0.013523,0.002678,0.000431,0.035964
26152000,0.0324,0.013523,0.002678,0.000431,0.089086
26153000,0.0324,0.013523,0.002678,0.000431,0.005876
26154000,0.0324,0.013523,0.002678,0.000431,0.005876
26155000,0.0324,0.013523,0.002678,0.000431,0.005876
26156000,0.0324,0.013523,0.002678,0.000431,0.005641
26157000,0.0324,0.013523,0.002678,0.000431,0.022565
26158000,0.0324,0.013523,0.002678,0.000431,0.094375
26159000,0.0324,0.013523,0.002678,0.000431,0.005759
26160000,0.0324,0.013523,0.002678,0.000431,0.005876
26161000,0.0324,0.013523,0.002678,0.000431,0.005876
26162000,0.0324,0.013523,0.002678,0.000431,0.005876
26163000,0.0324,0.013523,0.002678,0.000431,0.005876
26164000,0.0324,0.013523,0.002678,0.000431,0.035729
26165000,0.0324,0.013523,0.002678,0.000431,0.043485
26166000,0.0324,0.013523,0.002678,0.000431,0.005876
26167000,0.0324,0.013523,0.002678,0.000431,0.005876
26168000,0.0324,0.013523,0.002678,0.000431,0.005876
26169000,0.0324,0.013523,0.002678,0.000431,0.014691
26170000,0.0324,0.013523,0.002678,0.000431,0.096373
26171000,0.0324,0.013523,0.002678,0.000431,0.102367
26172000,0.0324,0.013523,0.002678,0.000431,0.005876
26173000,0.0324,0.013523,0.002678,0.000431,0.005759
26174000,0.0324,0.013523,0.002678,0.000431,0.005759
26175000,0.0324,0.013523,0.002678,0.000431,0.005876
26176000,0.0324,0.013523,0.002678,0.000431,0.088381
26177000,0.0324,0.013523,0.002678,0.000431,0.043485
26178000,0.0324,0.013523,0.002678,0.000431,0.013398
26179000,0.0324,0.013523,0.002678,0.000431,0.005876
26180000,0.0324,0.013523,0.002678,0.000431,0.005641
26181000,0.0324,0.013523,0.002678,0.000431,0.005876
26182000,0.0324,0.013523,0.002678,0.000431,0.005876
26183000,0.0324,0.013523,0.002678,0.000431,0.073573
26184000,0.0324,0.013523,0.002678,0.000431,0.043485
26185000,0.0324,0.013523,0.002678,0.000431,0.005876
26186000,0.0324,0.013523,0.002678,0.000431,0.005876
26187000,0.0324,0.013523,0.002678,0.000431,0.005876
26188000,0.0324,0.013523,0.002678,0.000431,0.005876
26189000,0.0324,0.013523,0.002678,0.000431,0.117763
26190000,0.0324,0.013523,0.002678,0.000431,0.064641
26191000,0.0324,0.013523,0.002678,0.000431,0.090497
26192000,0.0324,0.013523,0.002678,0.000431,0.005876
26193000,0.0324,0.013523,0.002678,0.000431,0.005876
26194000,0.0324,0.013523,0.002678,0.000431,0.005876
26195000,0.0324,0.013523,0.002678,0.000431,0.005876
26196000,0.0324,0.013523,0.002678,0.000431,0.051007
26197000,0.0324,0.013523,0.002678,0.000431,0.058529
26198000,0.0324,0.013523,0.002678,0.000431,0.005759
26199000,0.0324,0.013523,0.002678,0.000431,0.005759
26200000,0.0324,0.013523,0.002678,0.000431,0.005876
26201000,0.0324,0.013523,0.002678,0.000431,0.005876
26202000,0.0324,0.013523,0.002678,0.000431,0.009637
26203000,0.0324,0.013523,0.002678,0.000431,0.035964
26204000,0.0324,0.013523,0.002678,0.000431,0.017159
26205000,0.0324,0.013523,0.002678,0.000431,0.005876
26206000,0.0324,0.013523,0.002678,0.000431,0.005876
26207000,0.0324,0.013523,0.002678,0.000431,0.005876
26208000,0.0324,0.013523,0.002678,0.000431,0.005876
26209000,0.0324,0.013523,0.002678,0.000431,0.050890
26210000,0.0324,0.013523,0.002678,0.000431,0.080977
26211000,0.0324,0.013523,0.002678,0.000431,0.005876
26212000,0.0324,0.013523,0.002678,0.000431,0.005876
26213000,0.0324,0.013523,0.002678,0.000431,0.005759
26214000,0.0324,0.013523,0.002678,0.000431,0.005759
26215000,0.0324,0.013523,0.002678,0.000431,0.133982
26216000,0.0324,0.013523,0.002678,0.000431,0.080859
26217000,0.0324,0.013523,0.002678,0.000431,0.005876
26218000,0.0324,0.013523,0.002678,0.000431,0.005876
26219000,0.0324,0.013523,0.002678,0.000431,0.005876
26220000,0.0324,0.013523,0.002678,0.000431,0.005641
26221000,0.0324,0.013523,0.002678,0.000431,0.005876
26222000,0.0324,0.013523,0.002678,0.000431,0.028442
26223000,0.0324,0.013523,0.002678,0.000431,0.028442
26224000,0.0324,0.013523,0.002678,0.000431,0.005876
26225000,0.0324,0.013523,0.002678,0.000431,0.005876
26226000,0.0324,0.013523,0.002678,0.000431,0.005876
26227000,0.0324,0.013523,0.002678,0.000431,0.005876
26228000,0.0324,0.013523,0.002678,0.000431,0.028442
26229000,0.0324,0.013523,0.002678,0.000431,0.051007
26230000,0.0324,0.013523,0.002678,0.000431,0.005876
26231000,0.0324,0.013523,0.002678,0.000431,0.005876
26232000,0.0324,0.013523,0.002678,0.000431,0.005876
26233000,0.0324,0.013523,0.002678,0.000431,0.005876
26234000,0.0324,0.013523,0.002678,0.000431,0.005876
26235000,0.0324,0.013523,0.002678,0.000431,0.064170
26236000,0.0324,0.013523,0.002678,0.000431,0.075453
26237000,0.0324,0.013523,0.002678,0.000431,0.005876
26238000,0.0324,0.013523,0.002678,0.000431,0.005759
26239000,0.0324,0.013523,0.002678,0.000431,0.005759
26240000,0.0324,0.013523,0.002678,0.000431,0.005876
26241000,0.0324,0.013523,0.002678,0.000431,0.107538
26242000,0.0324,0.013523,0.002678,0.000431,0.073103
26243000,0.0324,0.013523,0.002678,0.000431,0.009755
26244000,0.0324,0.013523,0.002678,0.000431,0.005876
26245000,0.0324,0.013523,0.002678,0.000431,0.005876
26246000,0.0324,0.013523,0.002678,0.000431,0.005876
26247000,0.0324,0.013523,0.002678,0.000431,0.006934
26248000,0.0324,0.013523,0.002678,0.000431,0.087323
26249000,0.0324,0.013523,0.002678,0.000431,0.156783
26250000,0.0324,0.013523,0.002678,0.000431,0.005641
26251000,0.0324,0.013523,0.002678,0.000431,0.005876
26252000,0.0324,0.013523,0.002678,0.000431,0.005876
26253000,0.0324,0.013523,0.002678,0.000431,0.005876
26254000,0.0324,0.013523,0.002678,0.000431,0.088499
26255000,0.0324,0.013523,0.002678,0.000431,0.028324
26256000,0.0324,0.013523,0.002678,0.000431,0.005759
26257000,0.0324,0.013523,0.002678,0.000431,0.005759
26258000,0.0324,0.013523,0.002678,0.000431,0.005876
26259000,0.0324,0.013523,0.002678,0.000431,0.005876
26260000,0.0324,0.013523,0.002678,0.000431,0.084385
26261000,0.0324,0.013523,0.002678,0.000431,0.149496
26262000,0.0324,0.013523,0.002678,0.000431,0.017159
26263000,0.0324,0.013523,0.002678,0.000431,0.005876
26264000,0.0324,0.013523,0.002678,0.000431,0.005876
26265000,0.0324,0.013523,0.002678,0.000431,0.005876
26266000,0.0324,0.013523,0.002678,0.000431,0.005876
26267000,0.0324,0.013523,0.002678,0.000431,0.270432
26268000,0.0324,0.013523,0.002678,0.000431,0.042193
26269000,0.0324,0.013523,0.002678,0.000431,0.005876
26270000,0.0324,0.013523,0.002678,0.000431,0.005641
26271000,0.0324,0.013523,0.002678,0.000431,0.005876
26272000,0.0324,0.013523,0.002678,0.000431,0.005876
26273000,0.0324,0.013523,0.002678,0.000431,0.005876
26274000,0.0324,0.013523,0.002678,0.000431,0.059234
26275000,0.0324,0.013523,0.002678,0.000431,0.005876
26276000,0.0324,0.013523,0.002678,0.000431,0.005876
26277000,0.0324,0.013523,0.002678,0.000431,0.005876
26278000,0.0324,0.013523,0.002678,0.000431,0.005759
26279000,0.0324,0.013523,0.002678,0.000431,0.005759
26280000,0.0324,0.013523,0.002678,0.000431,0.027619
26281000,0.0324,0.013523,0.002678,0.000431,0.082152
26282000,0.0324,0.013523,0.002678,0.000431,0.005876
26283000,0.0324,0.013523,0.002678,0.000431,0.005876
26284000,0.0324,0.013523,0.002678,0.000431,0.005876
26285000,0.0324,0.013523,0.002678,0.000431,0.005876
26286000,0.0324,0.013523,0.002678,0.000431,0.035964
26287000,0.0324,0.013523,0.002678,0.000431,0.028677
26288000,0.0324,0.013523,0.002678,0.000431,0.005876
26289000,0.0324,0.013523,0.002678,0.000431,0.005876
26290000,0.0324,0.013523,0.002678,0.000431,0.005876
26291000,0.0324,0.013523,0.002678,0.000431,0.005876
26292000,0.0324,0.013523,0.002678,0.000431,0.023388
26293000,0.0324,0.013523,0.002678,0.000431,0.056061
26294000,0.0324,0.013523,0.002678,0.000431,0.005876
26295000,0.0324,0.013523,0.002678,0.000431,0.005641
26296000,0.0324,0.013523,0.002678,0.000431,0.005641
26297000,0.0324,0.013523,0.002678,0.000431,0.005641
26298000,0.0324,0.013523,0.002678,0.000431,0.005876
26299000,0.0324,0.013523,0.002678,0.000431,0.039725
26300000,0.0324,0.013523,0.002678,0.000431,0.077334
26301000,0.0324,0.013523,0.002678,0.000431,0.005876
26302000,0.0324,0.013523,0.002678,0.000431,0.005876
26303000,0.0324,0.013523,0.002678,0.000431,0.005876
26304000,0.0324,0.013523,0.002678,0.000431,0.005876
26305000,0.0324,0.013523,0.002678,0.000431,0.020685
26306000,0.0324,0.013523,0.002678,0.000431,0.089674
26307000,0.0324,0.013523,0.002678,0.000431,0.047716
26308000,0.0324,0.013523,0.002678,0.000431,0.023153
26309000,0.0324,0.013523,0.002678,0.000431,0.005876
26310000,0.0324,0.013523,0.002678,0.000431,0.005876
26311000,0.0324,0.013523,0.002678,0.000431,0.005876
26312000,0.0324,0.013523,0.002678,0.000431,0.039960
26313000,0.0324,0.013523,0.002678,0.000431,0.024211
26314000,0.0324,0.013523,0.002678,0.000431,0.043485
26315000,0.0324,0.013523,0.002678,0.000431,0.005876
26316000,0.0324,0.013523,0.002678,0.000431,0.005876
26317000,0.0324,0.013523,0.002678,0.000431,0.050890
26318000,0.0324,0.013523,0.002678,0.000431,0.005759
26319000,0.0324,0.013523,0.002678,0.000431,0.020920
26320000,0.0324,0.013523,0.002678,0.000431,0.045483
26321000,0.0324,0.013523,0.002678,0.000431,0.026444
26322000,0.0324,0.013523,0.002678,0.000431,0.005876
26323000,0.0324,0.013523,0.002678,0.000431,0.017159
26324000,0.0324,0.013523,0.002678,0.000431,0.009637
26325000,0.0324,0.013523,0.002678,0.000431,0.088381
26326000,0.0324,0.013523,0.002678,0.000431,0.028442
26327000,0.0324,0.013523,0.002678,0.000431,0.013398
26328000,0.0324,0.013523,0.002678,0.000431,0.005876
26329000,0.0324,0.013523,0.002678,0.000431,0.077334
26330000,0.0324,0.013523,0.002678,0.000431,0.062055
26331000,0.0324,0.013523,0.002678,0.000431,0.035964
26332000,0.0324,0.013523,0.002678,0.000431,0.066051
26333000,0.0324,0.013523,0.002678,0.000431,0.005876
26334000,0.0324,0.013523,0.002678,0.000431,0.035964
26335000,0.0324,0.013523,0.002678,0.000431,0.015631
26336000,0.0324,0.013523,0.002678,0.000431,0.041017
26337000,0.0324,0.013523,0.002678,0.000431,0.005876
26338000,0.0324,0.013523,0.002678,0.000431,0.111182
26339000,0.0324,0.013523,0.002678,0.000431,0.005876
26340000,0.0324,0.013523,0.002678,0.000431,0.005876
26341000,0.0324,0.013523,0.002678,0.000431,0.005876
26342000,0.0324,0.013523,0.002678,0.000431,0.010578
26343000,0.0324,0.013523,0.002678,0.000431,0.151846
26344000,0.0324,0.013523,0.002678,0.000431,0.051007
26345000,0.0324,0.013523,0.002678,0.000431,0.005524
26346000,0.0324,0.013523,0.002678,0.000431,0.005759
26347000,0.0324,0.013523,0.002678,0.000431,0.043485
26348000,0.0324,0.013523,0.002678,0.000431,0.005876
26349000,0.0324,0.013523,0.002678,0.000431,0.005876
26350000,0.0324,0.013523,0.002678,0.000431,0.007522
26351000,0.0324,0.013523,0.002678,0.000431,0.026796
26352000,0.0324,0.013523,0.002678,0.000431,0.058529
26353000,0.0324,0.013523,0.002678,0.000431,0.035611
26354000,0.0324,0.013523,0.002678,0.000431,0.005759
26355000,0.0324,0.013523,0.002678,0.000431,0.013398
26356000,0.0324,0.013523,0.002678,0.000431,0.013398
26357000,0.0324,0.013523,0.002678,0.000431,0.073573
26358000,0.0324,0.013523,0.002678,0.000431,0.035964
26359000,0.0324,0.013523,0.002678,0.000431,0.013398
26360000,0.0324,0.013523,0.002678,0.000431,0.013398
26361000,0.0324,0.013523,0.002678,0.000431,0.005876
26362000,0.0324,0.013523,0.002678,0.000431,0.066051
26363000,0.0324,0.013523,0.002678,0.000431,0.012105
26364000,0.0324,0.013523,0.002678,0.000431,0.014691
26365000,0.0324,0.013523,0.002678,0.000431,0.020920
26366000,0.0324,0.013523,0.002678,0.000431,0.103425
26367000,0.0324,0.013523,0.002678,0.000431,0.005876
26368000,0.0324,0.013523,0.002678,0.000431,0.005876
26369000,0.0324,0.013523,0.002678,0.000431,0.005876
26370000,0.0324,0.013523,0.002678,0.000431,0.005876
26371000,0.0324,0.013523,0.002678,0.000431,0.005876
26372000,0.0324,0.013523,0.002678,0.000431,0.005876
26373000,0.0324,0.013523,0.002678,0.000431,0.005876
26374000,0.0324,0.013523,0.002678,0.000431,0.005876
26375000,0.0324,0.013523,0.002678,0.000431,0.028442
26376000,0.0324,0.013523,0.002678,0.000431,0.005876
26377000,0.0324,0.013523,0.002678,0.000431,0.005876
26378000,0.0324,0.013523,0.002678,0.000431,0.005641
26379000,0.0324,0.013523,0.002678,0.000431,0.020920
26380000,0.0324,0.013523,0.002678,0.000431,0.005876
26381000,0.0324,0.013523,0.002678,0.000431,0.005876
26382000,0.0324,0.013523,0.002678,0.000431,0.005876
26383000,0.0324,0.013523,0.002678,0.000431,0.066051
26384000,0.0324,0.013523,0.002678,0.000431,0.005876
26385000,0.0324,0.013523,0.002678,0.000431,0.005641
26386000,0.0324,0.013523,0.002678,0.000431,0.005876
26387000,0.0324,0.013523,0.002678,0.000431,0.012811
26388000,0.0324,0.013523,0.002678,0.000431,0.013986
26389000,0.0324,0.013523,0.002678,0.000431,0.028442
26390000,0.0324,0.013523,0.002678,0.000431,0.047246
26391000,0.0324,0.013523,0.002678,0.000431,0.017159
26392000,0.0324,0.013523,0.002678,0.000431,0.005876
26393000,0.0324,0.013523,0.002678,0.000431,0.005641
26394000,0.0324,0.013523,0.002678,0.000431,0.073338
26395000,0.0324,0.013523,0.002678,0.000431,0.005876
26396000,0.0324,0.013523,0.002678,0.000431,0.020920
26397000,0.0324,0.013523,0.002678,0.000431,0.020920
26398000,0.0324,0.013523,0.002678,0.000431,0.005876
26399000,0.0324,0.013523,0.002678,0.000431,0.005876
26400000,0.0324,0.013523,0.002678,0.000431,0.031733
26401000,0.0324,0.013523,0.002678,0.000431,0.010342
26402000,0.0324,0.013523,0.002678,0.000431,0.059822
26403000,0.0324,0.013523,0.002678,0.000431,0.042193
26404000,0.0324,0.013523,0.002678,0.000431,0.005876
26405000,0.0324,0.013523,0.002678,0.000431,0.005876
26406000,0.0324,0.013523,0.002678,0.000431,0.005641
26407000,0.0324,0.013523,0.002678,0.000431,0.120584
26408000,0.0324,0.013523,0.002678,0.000431,0.034201
26409000,0.0324,0.013523,0.002678,0.000431,0.081682
26410000,0.0324,0.013523,0.002678,0.000431,0.005876
26411000,0.0324,0.013523,0.002678,0.000431,0.005876
26412000,0.0324,0.013523,0.002678,0.000431,0.005876
26413000,0.0324,0.013523,0.002678,0.000431,0.025034
26414000,0.0324,0.013523,0.002678,0.000431,0.013046
26415000,0.0324,0.013523,0.002678,0.000431,0.077334
26416000,0.0324,0.013523,0.002678,0.000431,0.005876
26417000,0.0324,0.013523,0.002678,0.000431,0.005876
26418000,0.0324,0.013523,0.002678,0.000431,0.005759
26419000,0.0324,0.013523,0.002678,0.000431,0.005524
26420000,0.0324,0.013523,0.002678,0.000431,0.126225
26421000,0.0324,0.013523,0.002678,0.000431,0.009637
26422000,0.0324,0.013523,0.002678,0.000431,0.032203
26423000,0.0324,0.013523,0.002678,0.000431,0.005876
26424000,0.0324,0.013523,0.002678,0.000431,0.005876
26425000,0.0324,0.013523,0.002678,0.000431,0.005876
26426000,0.0324,0.013523,0.002678,0.000431,0.013398
26427000,0.0324,0.013523,0.002678,0.000431,0.020685
26428000,0.0324,0.013523,0.002678,0.000431,0.020920
26429000,0.0324,0.013523,0.002678,0.000431,0.005876
26430000,0.0324,0.013523,0.002678,0.000431,0.005876
26431000,0.0324,0.013523,0.002678,0.000431,0.005876
26432000,0.0324,0.013523,0.002678,0.000431,0.006229
26433000,0.0324,0.013523,0.002678,0.000431,0.095550
26434000,0.0324,0.013523,0.002678,0.000431,0.035611
26435000,0.0324,0.013523,0.002678,0.000431,0.020802
26436000,0.0324,0.013523,0.002678,0.000431,0.005876
26437000,0.0324,0.013523,0.002678,0.000431,0.005876
26438000,0.0324,0.013523,0.002678,0.000431,0.005876
26439000,0.0324,0.013523,0.002678,0.000431,0.031968
26440000,0.0324,0.013523,0.002678,0.000431,0.062525
26441000,0.0324,0.013523,0.002678,0.000431,0.005876
26442000,0.0324,0.013523,0.002678,0.000431,0.005876
26443000,0.0324,0.013523,0.002678,0.000431,0.005876
26444000,0.0324,0.013523,0.002678,0.000431,0.005876
26445000,0.0324,0.013523,0.002678,0.000431,0.039725
26446000,0.0324,0.013523,0.002678,0.000431,0.267259
26447000,0.0324,0.013523,0.002678,0.000431,0.019275
26448000,0.0324,0.013523,0.002678,0.000431,0.043485
26449000,0.0324,0.013523,0.002678,0.000431,0.005876
26450000,0.0324,0.013523,0.002678,0.000431,0.005876
26451000,0.0324,0.013523,0.002678,0.000431,0.005876
26452000,0.0324,0.013523,0.002678,0.000431,0.051947
26453000,0.0324,0.013523,0.002678,0.000431,0.029970
26454000,0.0324,0.013523,0.002678,0.000431,0.050185
26455000,0.0324,0.013523,0.002678,0.000431,0.005876
26456000,0.0324,0.013523,0.002678,0.000431,0.005876
26457000,0.0324,0.013523,0.002678,0.000431,0.005876
26458000,0.0324,0.013523,0.002678,0.000431,0.038079
26459000,0.0324,0.013523,0.002678,0.000431,0.019040
26460000,0.0324,0.013523,0.002678,0.000431,0.051007
26461000,0.0324,0.013523,0.002678,0.000431,0.005876
26462000,0.0324,0.013523,0.002678,0.000431,0.005876
26463000,0.0324,0.013523,0.002678,0.000431,0.005876
26464000,0.0324,0.013523,0.002678,0.000431,0.005876
26465000,0.0324,0.013523,0.002678,0.000431,0.058529
26466000,0.0324,0.013523,0.002678,0.000431,0.005876
26467000,0.0324,0.013523,0.002678,0.000431,0.063348
26468000,0.0324,0.013523,0.002678,0.000431,0.036081
26469000,0.0324,0.013523,0.002678,0.000431,0.031733
26470000,0.0324,0.013523,0.002678,0.000431,0.005876
26471000,0.0324,0.013523,0.002678,0.000431,0.013398
26472000,0.0324,0.013523,0.002678,0.000431,0.028442
26473000,0.0324,0.013523,0.002678,0.000431,0.013633
26474000,0.0324,0.013523,0.002678,0.000431,0.042898
26475000,0.0324,0.013523,0.002678,0.000431,0.020567
26476000,0.0324,0.013523,0.002678,0.000431,0.005876
26477000,0.0324,0.013523,0.002678,0.000431,0.005876
26478000,0.0324,0.013523,0.002678,0.000431,0.043485
26479000,0.0324,0.013523,0.002678,0.000431,0.005876
26480000,0.0324,0.013523,0.002678,0.000431,0.025856
26481000,0.0324,0.013523,0.002678,0.000431,0.082740
26482000,0.0324,0.013523,0.002678,0.000431,0.011753
26483000,0.0324,0.013523,0.002678,0.000431,0.005641
26484000,0.0324,0.013523,0.002678,0.000431,0.027267
26485000,0.0324,0.013523,0.002678,0.000431,0.029617
26486000,0.0324,0.013523,0.002678,0.000431,0.005876
26487000,0.0324,0.013523,0.002678,0.000431,0.005876
26488000,0.0324,0.013523,0.002678,0.000431,0.005876
26489000,0.0324,0.013523,0.002678,0.000431,0.058529
26490000,0.0324,0.013523,0.002678,0.000431,0.005876
26491000,0.0324,0.013523,0.002678,0.000431,0.005876
26492000,0.0324,0.013523,0.002678,0.000431,0.005876
26493000,0.0324,0.013523,0.002678,0.000431,0.035964
26494000,0.0324,0.013523,0.002678,0.000431,0.005641
26495000,0.0324,0.013523,0.002678,0.000431,0.005876
26496000,0.0324,0.013523,0.002678,0.000431,0.043485
26497000,0.0324,0.013523,0.002678,0.000431,0.099899
26498000,0.0324,0.013523,0.002678,0.000431,0.032203
26499000,0.0324,0.013523,0.002678,0.000431,0.020920
26500000,0.0324,0.013523,0.002678,0.000431,0.005876
26501000,0.0324,0.013523,0.002678,0.000431,0.005876
26502000,0.0324,0.013523,0.002678,0.000431,0.073338
26503000,0.0324,0.013523,0.002678,0.000431,0.005876
26504000,0.0324,0.013523,0.002678,0.000431,0.015749
26505000,0.0324,0.013523,0.002678,0.000431,0.005876
26506000,0.0324,0.013523,0.002678,0.000431,0.013398
26507000,0.0324,0.013523,0.002678,0.000431,0.013398
26508000,0.0324,0.013523,0.002678,0.000431,0.005876
26509000,0.0324,0.013523,0.002678,0.000431,0.005876
26510000,0.0324,0.013523,0.002678,0.000431,0.013398
26511000,0.0324,0.013523,0.002678,0.000431,0.005641
26512000,0.0324,0.013523,0.002678,0.000431,0.005876
26513000,0.0324,0.013523,0.002678,0.000431,0.005876
26514000,0.0324,0.013523,0.002678,0.000431,0.005524
26515000,0.0324,0.013523,0.002678,0.000431,0.020802
26516000,0.0324,0.013523,0.002678,0.000431,0.013398
26517000,0.0324,0.013523,0.002678,0.000431,0.066051
26518000,0.0324,0.013523,0.002678,0.000431,0.005876
26519000,0.0324,0.013523,0.002678,0.000431,0.005876
26520000,0.0324,0.013523,0.002678,0.000431,0.020920
26521000,0.0324,0.013523,0.002678,0.000431,0.028442
26522000,0.0324,0.013523,0.002678,0.000431,0.028442
26523000,0.0324,0.013523,0.002678,0.000431,0.148673
26524000,0.0324,0.013523,0.002678,0.000431,0.025739
26525000,0.0324,0.013523,0.002678,0.000431,0.005876
26526000,0.0324,0.013523,0.002678,0.000431,0.028442
26527000,0.0324,0.013523,0.002678,0.000431,0.005759
26528000,0.0324,0.013523,0.002678,0.000431,0.005759
26529000,0.0324,0.013523,0.002678,0.000431,0.035729
26530000,0.0324,0.013523,0.002678,0.000431,0.013398
26531000,0.0324,0.013523,0.002678,0.000431,0.005876
26532000,0.0324,0.013523,0.002678,0.000431,0.005876
26533000,0.0324,0.013523,0.002678,0.000431,0.103425
26534000,0.0324,0.013523,0.002678,0.000431,0.005876
26535000,0.0324,0.013523,0.002678,0.000431,0.005876
26536000,0.0324,0.013523,0.002678,0.000431,0.005876
26537000,0.0324,0.013523,0.002678,0.000431,0.005876
26538000,0.0324,0.013523,0.002678,0.000431,0.005876
26539000,0.0324,0.013523,0.002678,0.000431,0.011988
26540000,0.0324,0.013523,0.002678,0.000431,0.009637
26541000,0.0324,0.013523,0.002678,0.000431,0.005876
26542000,0.0324,0.013523,0.002678,0.000431,0.028442
26543000,0.0324,0.013523,0.002678,0.000431,0.028442
26544000,0.0324,0.013523,0.002678,0.000431,0.005876
26545000,0.0324,0.013523,0.002678,0.000431,0.035846
26546000,0.0324,0.013523,0.002678,0.000431,0.050655
26547000,0.0324,0.013523,0.002678,0.000431,0.005876
26548000,0.0324,0.013523,0.002678,0.000431,0.024681
26549000,0.0324,0.013523,0.002678,0.000431,0.054768
26550000,0.0324,0.013523,0.002678,0.000431,0.005876
26551000,0.0324,0.013523,0.002678,0.000431,0.024681
26552000,0.0324,0.013523,0.002678,0.000431,0.021743
26553000,0.0324,0.013523,0.002678,0.000431,0.013986
26554000,0.0324,0.013523,0.002678,0.000431,0.005876
26555000,0.0324,0.013523,0.002678,0.000431,0.020685
26556000,0.0324,0.013523,0.002678,0.000431,0.005641
26557000,0.0324,0.013523,0.002678,0.000431,0.005876
26558000,0.0324,0.013523,0.002678,0.000431,0.013398
26559000,0.0324,0.013523,0.002678,0.000431,0.005876
26560000,0.0324,0.013523,0.002678,0.000431,0.005876
26561000,0.0324,0.013523,0.002678,0.000431,0.035964
26562000,0.0324,0.013523,0.002678,0.000431,0.005876
26563000,0.0324,0.013523,0.002678,0.000431,0.005876
26564000,0.0324,0.013523,0.002678,0.000431,0.040312
26565000,0.0324,0.013523,0.002678,0.000431,0.038902
26566000,0.0324,0.013523,0.002678,0.000431,0.080859
26567000,0.0324,0.013523,0.002678,0.000431,0.020920
26568000,0.0324,0.013523,0.002678,0.000431,0.041135
26569000,0.0324,0.013523,0.002678,0.000431,0.013163
26570000,0.0324,0.013523,0.002678,0.000431,0.005876
26571000,0.0324,0.013523,0.002678,0.000431,0.058529
26572000,0.0324,0.013523,0.002678,0.000431,0.017159
26573000,0.0324,0.013523,0.002678,0.000431,0.020920
26574000,0.0324,0.013523,0.002678,0.000431,0.009637
26575000,0.0324,0.013523,0.002678,0.000431,0.081565
26576000,0.0324,0.013523,0.002678,0.000431,0.028442
26577000,0.0324,0.013523,0.002678,0.000431,0.005876
26578000,0.0324,0.013523,0.002678,0.000431,0.005876
26579000,0.0324,0.013523,0.002678,0.000431,0.013398
26580000,0.0324,0.013523,0.002678,0.000431,0.066051
26581000,0.0324,0.013523,0.002678,0.000431,0.021860
26582000,0.0324,0.013523,0.002678,0.000431,0.027502
26583000,0.0324,0.013523,0.002678,0.000431,0.005876
26584000,0.0324,0.013523,0.002678,0.000431,0.005876
26585000,0.0324,0.013523,0.002678,0.000431,0.021978
26586000,0.0324,0.013523,0.002678,0.000431,0.036904
26587000,0.0324,0.013523,0.002678,0.000431,0.033731
26588000,0.0324,0.013523,0.002678,0.000431,0.090849
26589000,0.0324,0.013523,0.002678,0.000431,0.041252
26590000,0.0324,0.013523,0.002678,0.000431,0.005876
26591000,0.0324,0.013523,0.002678,0.000431,0.005876
26592000,0.0324,0.013523,0.002678,0.000431,0.005876
26593000,0.0324,0.013523,0.002678,0.000431,0.005876
26594000,0.0324,0.013523,0.002678,0.000431,0.005876
26595000,0.0324,0.013523,0.002678,0.000431,0.005641
26596000,0.0324,0.013523,0.002678,0.000431,0.005876
26597000,0.0324,0.013523,0.002678,0.000431,0.005876
26598000,0.0324,0.013523,0.002678,0.000431,0.020920
26599000,0.0324,0.013523,0.002678,0.000431,0.017159
26600000,0.0324,0.013523,0.002678,0.000431,0.009402
26601000,0.0324,0.013523,0.002678,0.000431,0.005876
26602000,0.0324,0.013523,0.002678,0.000431,0.020802
26603000,0.0324,0.013523,0.002678,0.000431,0.005759
26604000,0.0324,0.013523,0.002678,0.000431,0.005876
26605000,0.0324,0.013523,0.002678,0.000431,0.005876
26606000,0.0324,0.013523,0.002678,0.000431,0.043485
26607000,0.0324,0.013523,0.002678,0.000431,0.035964
26608000,0.0324,0.013523,0.002678,0.000431,0.028442
26609000,0.0324,0.013523,0.002678,0.000431,0.005641
26610000,0.0324,0.013523,0.002678,0.000431,0.005876
26611000,0.0324,0.013523,0.002678,0.000431,0.078156
26612000,0.0324,0.013523,0.002678,0.000431,0.009285
26613000,0.0324,0.013523,0.002678,0.000431,0.005876
26614000,0.0324,0.013523,0.002678,0.000431,0.020920
26615000,0.0324,0.013523,0.002678,0.000431,0.013281
26616000,0.0324,0.013523,0.002678,0.000431,0.005759
26617000,0.0324,0.013523,0.002678,0.000431,0.005876
26618000,0.0324,0.013523,0.002678,0.000431,0.005876
26619000,0.0324,0.013523,0.002678,0.000431,0.030440
26620000,0.0324,0.013523,0.002678,0.000431,0.020802
26621000,0.0324,0.013523,0.002678,0.000431,0.005876
26622000,0.0324,0.013523,0.002678,0.000431,0.066051
26623000,0.0324,0.013523,0.002678,0.000431,0.005876
26624000,0.0324,0.013523,0.002678,0.000431,0.005876
26625000,0.0324,0.013523,0.002678,0.000431,0.013398
26626000,0.0324,0.013523,0.002678,0.000431,0.056531
26627000,0.0324,0.013523,0.002678,0.000431,0.030440
26628000,0.0324,0.013523,0.002678,0.000431,0.055473
26629000,0.0324,0.013523,0.002678,0.000431,0.023976
26630000,0.0324,0.013523,0.002678,0.000431,0.005876
26631000,0.0324,0.013523,0.002678,0.000431,0.013398
26632000,0.0324,0.013523,0.002678,0.000431,0.043485
26633000,0.0324,0.013523,0.002678,0.000431,0.005876
26634000,0.0324,0.013523,0.002678,0.000431,0.005876
26635000,0.0324,0.013523,0.002678,0.000431,0.005641
26636000,0.0324,0.013523,0.002678,0.000431,0.005876
26637000,0.0324,0.013523,0.002678,0.000431,0.020920
26638000,0.0324,0.013523,0.002678,0.000431,0.058412
26639000,0.0324,0.013523,0.002678,0.000431,0.094140
26640000,0.0324,0.013523,0.002678,0.000431,0.037609
26641000,0.0324,0.013523,0.002678,0.000431,0.005876
26642000,0.0324,0.013523,0.002678,0.000431,0.007992
26643000,0.0324,0.013523,0.002678,0.000431,0.005876
26644000,0.0324,0.013523,0.002678,0.000431,0.013398
26645000,0.0324,0.013523,0.002678,0.000431,0.051007
26646000,0.0324,0.013523,0.002678,0.000431,0.020920
26647000,0.0324,0.013523,0.002678,0.000431,0.005876
26648000,0.0324,0.013523,0.002678,0.000431,0.005876
26649000,0.0324,0.013523,0.002678,0.000431,0.005641
26650000,0.0324,0.013523,0.002678,0.000431,0.066051
26651000,0.0324,0.013523,0.002678,0.000431,0.012928
26652000,0.0324,0.013523,0.002678,0.000431,0.036434
26653000,0.0324,0.013523,0.002678,0.000431,0.005876
26654000,0.0324,0.013523,0.002678,0.000431,0.009637
26655000,0.0324,0.013523,0.002678,0.000431,0.009637
26656000,0.0324,0.013523,0.002678,0.000431,0.016454
26657000,0.0324,0.013523,0.002678,0.000431,0.079214
26658000,0.0324,0.013523,0.002678,0.000431,0.039725
26659000,0.0324,0.013523,0.002678,0.000431,0.136215
26660000,0.0324,0.013523,0.002678,0.000431,0.005759
26661000,0.0324,0.013523,0.002678,0.000431,0.005876
26662000,0.0324,0.013523,0.002678,0.000431,0.005876
26663000,0.0324,0.013523,0.002678,0.000431,0.005876
26664000,0.0324,0.013523,0.002678,0.000431,0.028207
26665000,0.0324,0.013523,0.002678,0.000431,0.032085
26666000,0.0324,0.013523,0.002678,0.000431,0.009755
26667000,0.0324,0.013523,0.002678,0.000431,0.005876
26668000,0.0324,0.013523,0.002678,0.000431,0.005876
26669000,0.0324,0.013523,0.002678,0.000431,0.005876
26670000,0.0324,0.013523,0.002678,0.000431,0.005876
26671000,0.0324,0.013523,0.002678,0.000431,0.013398
26672000,0.0324,0.013523,0.002678,0.000431,0.035964
26673000,0.0324,0.013523,0.002678,0.000431,0.005876
26674000,0.0324,0.013523,0.002678,0.000431,0.005876
26675000,0.0324,0.013523,0.002678,0.000431,0.005876
26676000,0.0324,0.013523,0.002678,0.000431,0.019392
26677000,0.0324,0.013523,0.002678,0.000431,0.045483
26678000,0.0324,0.013523,0.002678,0.000431,0.050890
26679000,0.0324,0.013523,0.002678,0.000431,0.020802
26680000,0.0324,0.013523,0.002678,0.000431,0.005876
26681000,0.0324,0.013523,0.002678,0.000431,0.005876
26682000,0.0324,0.013523,0.002678,0.000431,0.005876
26683000,0.0324,0.013523,0.002678,0.000431,0.005876
26684000,0.0324,0.013523,0.002678,0.000431,0.018217
26685000,0.0324,0.013523,0.002678,0.000431,0.038667
26686000,0.0324,0.013523,0.002678,0.000431,0.005759
26687000,0.0324,0.013523,0.002678,0.000431,0.005759
26688000,0.0324,0.013523,0.002678,0.000431,0.005876
26689000,0.0324,0.013523,0.002678,0.000431,0.005876
26690000,0.0324,0.013523,0.002678,0.000431,0.008227
26691000,0.0324,0.013523,0.002678,0.000431,0.066051
26692000,0.0324,0.013523,0.002678,0.000431,0.005759
26693000,0.0324,0.013523,0.002678,0.000431,0.005759
26694000,0.0324,0.013523,0.002678,0.000431,0.005876
26695000,0.0324,0.013523,0.002678,0.000431,0.005876
26696000,0.0324,0.013523,0.002678,0.000431,0.024681
26697000,0.0324,0.013523,0.002678,0.000431,0.116823
26698000,0.0324,0.013523,0.002678,0.000431,0.086266
26699000,0.0324,0.013523,0.002678,0.000431,0.005876
26700000,0.0324,0.013523,0.002678,0.000431,0.005641
26701000,0.0324,0.013523,0.002678,0.000431,0.005876
26702000,0.0324,0.013523,0.002678,0.000431,0.068519
26703000,0.0324,0.013523,0.002678,0.000431,0.056061
26704000,0.0324,0.013523,0.002678,0.000431,0.013398
26705000,0.0324,0.013523,0.002678,0.000431,0.005876
26706000,0.0324,0.013523,0.002678,0.000431,0.005876
26707000,0.0324,0.013523,0.002678,0.000431,0.005876
26708000,0.0324,0.013523,0.002678,0.000431,0.005641
26709000,0.0324,0.013523,0.002678,0.000431,0.005876
26710000,0.0324,0.013523,0.002678,0.000431,0.134570
26711000,0.0324,0.013523,0.002678,0.000431,0.057941
26712000,0.0324,0.013523,0.002678,0.000431,0.005876
26713000,0.0324,0.013523,0.002678,0.000431,0.005876
26714000,0.0324,0.013523,0.002678,0.000431,0.005876
26715000,0.0324,0.013523,0.002678,0.000431,0.009637
26716000,0.0324,0.013523,0.002678,0.000431,0.032203
26717000,0.0324,0.013523,0.002678,0.000431,0.056178
26718000,0.0324,0.013523,0.002678,0.000431,0.005876
26719000,0.0324,0.013523,0.002678,0.000431,0.005759
26720000,0.0324,0.013523,0.002678,0.000431,0.005759
26721000,0.0324,0.013523,0.002678,0.000431,0.005876
26722000,0.0324,0.013523,0.002678,0.000431,0.011048
26723000,0.0324,0.013523,0.002678,0.000431,0.064288
26724000,0.0324,0.013523,0.002678,0.000431,0.099546
26725000,0.0324,0.013523,0.002678,0.000431,0.005876
26726000,0.0324,0.013523,0.002678,0.000431,0.005759
26727000,0.0324,0.013523,0.002678,0.000431,0.005759
26728000,0.0324,0.013523,0.002678,0.000431,0.070752
26729000,0.0324,0.013523,0.002678,0.000431,0.023741
26730000,0.0324,0.013523,0.002678,0.000431,0.033613
26731000,0.0324,0.013523,0.002678,0.000431,0.005759
26732000,0.0324,0.013523,0.002678,0.000431,0.005759
26733000,0.0324,0.013523,0.002678,0.000431,0.005876
26734000,0.0324,0.013523,0.002678,0.000431,0.005876
26735000,0.0324,0.013523,0.002678,0.000431,0.028207
26736000,0.0324,0.013523,0.002678,0.000431,0.020920
26737000,0.0324,0.013523,0.002678,0.000431,0.005876
26738000,0.0324,0.013523,0.002678,0.000431,0.005876
26739000,0.0324,0.013523,0.002678,0.000431,0.005876
26740000,0.0324,0.013523,0.002678,0.000431,0.005876
26741000,0.0324,0.013523,0.002678,0.000431,0.005876
26742000,0.0324,0.013523,0.002678,0.000431,0.047246
26743000,0.0324,0.013523,0.002678,0.000431,0.009637
26744000,0.0324,0.013523,0.002678,0.000431,0.022448
26745000,0.0324,0.013523,0.002678,0.000431,0.011870
26746000,0.0324,0.013523,0.002678,0.000431,0.005876
26747000,0.0324,0.013523,0.002678,0.000431,0.010107
26748000,0.0324,0.013523,0.002678,0.000431,0.008932
26749000,0.0324,0.013523,0.002678,0.000431,0.013398
26750000,0.0324,0.013523,0.002678,0.000431,0.005876
26751000,0.0324,0.013523,0.002678,0.000431,0.013398
26752000,0.0324,0.013523,0.002678,0.000431,0.008227
26753000,0.0324,0.013523,0.002678,0.000431,0.005876
26754000,0.0324,0.013523,0.002678,0.000431,0.005876
26755000,0.0324,0.013523,0.002678,0.000431,0.095903
26756000,0.0324,0.013523,0.002678,0.000431,0.005876
26757000,0.0324,0.013523,0.002678,0.000431,0.077334
26758000,0.0324,0.013523,0.002678,0.000431,0.111182
26759000,0.0324,0.013523,0.002678,0.000431,0.009402
26760000,0.0324,0.013523,0.002678,0.000431,0.005876
26761000,0.0324,0.013523,0.002678,0.000431,0.013398
26762000,0.0324,0.013523,0.002678,0.000431,0.020920
26763000,0.0324,0.013523,0.002678,0.000431,0.005876
26764000,0.0324,0.013523,0.002678,0.000431,0.043485
26765000,0.0324,0.013523,0.002678,0.000431,0.005876
26766000,0.0324,0.013523,0.002678,0.000431,0.005876
26767000,0.0324,0.013523,0.002678,0.000431,0.005641
26768000,0.0324,0.013523,0.002678,0.000431,0.084973
26769000,0.0324,0.013523,0.002678,0.000431,0.034436
26770000,0.0324,0.013523,0.002678,0.000431,0.009637
26771000,0.0324,0.013523,0.002678,0.000431,0.039725
26772000,0.0324,0.013523,0.002678,0.000431,0.005876
26773000,0.0324,0.013523,0.002678,0.000431,0.005876
26774000,0.0324,0.013523,0.002678,0.000431,0.013398
26775000,0.0324,0.013523,0.002678,0.000431,0.015514
26776000,0.0324,0.013523,0.002678,0.000431,0.011048
26777000,0.0324,0.013523,0.002678,0.000431,0.058529
26778000,0.0324,0.013523,0.002678,0.000431,0.020920
26779000,0.0324,0.013523,0.002678,0.000431,0.005876
26780000,0.0324,0.013523,0.002678,0.000431,0.009402
26781000,0.0324,0.013523,0.002678,0.000431,0.065346
26782000,0.0324,0.013523,0.002678,0.000431,0.018099
26783000,0.0324,0.013523,0.002678,0.000431,0.005876
26784000,0.0324,0.013523,0.002678,0.000431,0.020920
26785000,0.0324,0.013523,0.002678,0.000431,0.013398
26786000,0.0324,0.013523,0.002678,0.000431,0.028442
26787000,0.0324,0.013523,0.002678,0.000431,0.027737
26788000,0.0324,0.013523,0.002678,0.000431,0.051360
26789000,0.0324,0.013523,0.002678,0.000431,0.005759
26790000,0.0324,0.013523,0.002678,0.000431,0.005876
26791000,0.0324,0.013523,0.002678,0.000431,0.044896
26792000,0.0324,0.013523,0.002678,0.000431,0.007052
26793000,0.0324,0.013523,0.002678,0.000431,0.005876
26794000,0.0324,0.013523,0.002678,0.000431,0.035964
26795000,0.0324,0.013523,0.002678,0.000431,0.030792
26796000,0.0324,0.013523,0.002678,0.000431,0.013398
26797000,0.0324,0.013523,0.002678,0.000431,0.013398
26798000,0.0324,0.013523,0.002678,0.000431,0.005876
26799000,0.0324,0.013523,0.002678,0.000431,0.005641
26800000,0.0324,0.013523,0.002678,0.000431,0.013398
26801000,0.0324,0.013523,0.002678,0.000431,0.035964
26802000,0.0324,0.013523,0.002678,0.000431,0.005876
26803000,0.0324,0.013523,0.002678,0.000431,0.051007
26804000,0.0324,0.013523,0.002678,0.000431,0.020920
26805000,0.0324,0.013523,0.002678,0.000431,0.008227
26806000,0.0324,0.013523,0.002678,0.000431,0.005876
26807000,0.0324,0.013523,0.002678,0.000431,0.051007
26808000,0.0324,0.013523,0.002678,0.000431,0.073573
26809000,0.0324,0.013523,0.002678,0.000431,0.024211
26810000,0.0324,0.013523,0.002678,0.000431,0.017629
26811000,0.0324,0.013523,0.002678,0.000431,0.035964
26812000,0.0324,0.013523,0.002678,0.000431,0.005876
26813000,0.0324,0.013523,0.002678,0.000431,0.005876
26814000,0.0324,0.013523,0.002678,0.000431,0.025151
26815000,0.0324,0.013523,0.002678,0.000431,0.023976
26816000,0.0324,0.013523,0.002678,0.000431,0.020920
26817000,0.0324,0.013523,0.002678,0.000431,0.058529
26818000,0.0324,0.013523,0.002678,0.000431,0.005876
26819000,0.0324,0.013523,0.002678,0.000431,0.005876
26820000,0.0324,0.013523,0.002678,0.000431,0.005876
26821000,0.0324,0.013523,0.002678,0.000431,0.005876
26822000,0.0324,0.013523,0.002678,0.000431,0.005641
26823000,0.0324,0.013523,0.002678,0.000431,0.005876
26824000,0.0324,0.013523,0.002678,0.000431,0.005876
26825000,0.0324,0.013523,0.002678,0.000431,0.005876
26826000,0.0324,0.013523,0.002678,0.000431,0.024798
26827000,0.0324,0.013523,0.002678,0.000431,0.017277
26828000,0.0324,0.013523,0.002678,0.000431,0.005641
26829000,0.0324,0.013523,0.002678,0.000431,0.005876
26830000,0.0324,0.013523,0.002678,0.000431,0.054180
26831000,0.0324,0.013523,0.002678,0.000431,0.020567
26832000,0.0324,0.013523,0.002678,0.000431,0.039725
26833000,0.0324,0.013523,0.002678,0.000431,0.024681
26834000,0.0324,0.013523,0.002678,0.000431,0.005876
26835000,0.0324,0.013523,0.002678,0.000431,0.043485
26836000,0.0324,0.013523,0.002678,0.000431,0.005876
26837000,0.0324,0.013523,0.002678,0.000431,0.005876
26838000,0.0324,0.013523,0.002678,0.000431,0.005876
26839000,0.0324,0.013523,0.002678,0.000431,0.020685
26840000,0.0324,0.013523,0.002678,0.000431,0.083092
26841000,0.0324,0.013523,0.002678,0.000431,0.019392
26842000,0.0324,0.013523,0.002678,0.000431,0.020685
26843000,0.0324,0.013523,0.002678,0.000431,0.005876
26844000,0.0324,0.013523,0.002678,0.000431,0.005876
26845000,0.0324,0.013523,0.002678,0.000431,0.053123
26846000,0.0324,0.013523,0.002678,0.000431,0.237877
26847000,0.0324,0.013523,0.002678,0.000431,0.019275
26848000,0.0324,0.013523,0.002678,0.000431,0.086148
26849000,0.0324,0.013523,0.002678,0.000431,0.008462
26850000,0.0324,0.013523,0.002678,0.000431,0.005759
26851000,0.0324,0.013523,0.002678,0.000431,0.005876
26852000,0.0324,0.013523,0.002678,0.000431,0.020450
26853000,0.0324,0.013523,0.002678,0.000431,0.114943
26854000,0.0324,0.013523,0.002678,0.000431,0.017864
26855000,0.0324,0.013523,0.002678,0.000431,0.005641
26856000,0.0324,0.013523,0.002678,0.000431,0.005876
26857000,0.0324,0.013523,0.002678,0.000431,0.005876
26858000,0.0324,0.013523,0.002678,0.000431,0.043720
26859000,0.0324,0.013523,0.002678,0.000431,0.005876
26860000,0.0324,0.013523,0.002678,0.000431,0.043720
26861000,0.0324,0.013523,0.002678,0.000431,0.043250
26862000,0.0324,0.013523,0.002678,0.000431,0.005406
26863000,0.0324,0.013523,0.002678,0.000431,0.005876
26864000,0.0324,0.013523,0.002678,0.000431,0.005876
26865000,0.0324,0.013523,0.002678,0.000431,0.051007
26866000,0.0324,0.013523,0.002678,0.000431,0.015514
26867000,0.0324,0.013523,0.002678,0.000431,0.005876
26868000,0.0324,0.013523,0.002678,0.000431,0.005876
26869000,0.0324,0.013523,0.002678,0.000431,0.005876
26870000,0.0324,0.013523,0.002678,0.000431,0.005876
26871000,0.0324,0.013523,0.002678,0.000431,0.176527
26872000,0.0324,0.013523,0.002678,0.000431,0.060880
26873000,0.0324,0.013523,0.002678,0.000431,0.054886
26874000,0.0324,0.013523,0.002678,0.000431,0.009755
26875000,0.0324,0.013523,0.002678,0.000431,0.009755
26876000,0.0324,0.013523,0.002678,0.000431,0.009755
26877000,0.0324,0.013523,0.002678,0.000431,0.013398
26878000,0.0324,0.013523,0.002678,0.000431,0.049949
26879000,0.0324,0.013523,0.002678,0.000431,0.044543
26880000,0.0324,0.013523,0.002678,0.000431,0.005876
26881000,0.0324,0.013523,0.002678,0.000431,0.005876
26882000,0.0324,0.013523,0.002678,0.000431,0.080859
26883000,0.0324,0.013523,0.002678,0.000431,0.005876
26884000,0.0324,0.013523,0.002678,0.000431,0.023388
26885000,0.0324,0.013523,0.002678,0.000431,0.044778
26886000,0.0324,0.013523,0.002678,0.000431,0.024681
26887000,0.0324,0.013523,0.002678,0.000431,0.005876
26888000,0.0324,0.013523,0.002678,0.000431,0.005876
26889000,0.0324,0.013523,0.002678,0.000431,0.005876
26890000,0.0324,0.013523,0.002678,0.000431,0.017159
26891000,0.0324,0.013523,0.002678,0.000431,0.128811
26892000,0.0324,0.013523,0.002678,0.000431,0.059469
26893000,0.0324,0.013523,0.002678,0.000431,0.005876
26894000,0.0324,0.013523,0.002678,0.000431,0.005876
26895000,0.0324,0.013523,0.002678,0.000431,0.051242
26896000,0.0324,0.013523,0.002678,0.000431,0.005876
26897000,0.0324,0.013523,0.002678,0.000431,0.026091
26898000,0.0324,0.013523,0.002678,0.000431,0.082387
26899000,0.0324,0.013523,0.002678,0.000431,0.047129
26900000,0.0324,0.013523,0.002678,0.000431,0.005876
26901000,0.0324,0.013523,0.002678,0.000431,0.013398
26902000,0.0324,0.013523,0.002678,0.000431,0.005876
26903000,0.0324,0.013523,0.002678,0.000431,0.005759
26904000,0.0324,0.013523,0.002678,0.000431,0.020802
26905000,0.0324,0.013523,0.002678,0.000431,0.062290
26906000,0.0324,0.013523,0.002678,0.000431,0.084855
26907000,0.0324,0.013523,0.002678,0.000431,0.005876
26908000,0.0324,0.013523,0.002678,0.000431,0.005876
26909000,0.0324,0.013523,0.002678,0.000431,0.005876
26910000,0.0324,0.013523,0.002678,0.000431,0.005876
26911000,0.0324,0.013523,0.002678,0.000431,0.116588
26912000,0.0324,0.013523,0.002678,0.000431,0.084855
26913000,0.0324,0.013523,0.002678,0.000431,0.042310
26914000,0.0324,0.013523,0.002678,0.000431,0.005876
26915000,0.0324,0.013523,0.002678,0.000431,0.005876
26916000,0.0324,0.013523,0.002678,0.000431,0.005759
26917000,0.0324,0.013523,0.002678,0.000431,0.005759
26918000,0.0324,0.013523,0.002678,0.000431,0.035494
26919000,0.0324,0.013523,0.002678,0.000431,0.021390
26920000,0.0324,0.013523,0.002678,0.000431,0.005759
26921000,0.0324,0.013523,0.002678,0.000431,0.126343
26922000,0.0324,0.013523,0.002678,0.000431,0.005876
26923000,0.0324,0.013523,0.002678,0.000431,0.006347
26924000,0.0324,0.013523,0.002678,0.000431,0.019745
26925000,0.0324,0.013523,0.002678,0.000431,0.091437
26926000,0.0324,0.013523,0.002678,0.000431,0.041840
26927000,0.0324,0.013523,0.002678,0.000431,0.031850
26928000,0.0324,0.013523,0.002678,0.000431,0.055003
26929000,0.0324,0.013523,0.002678,0.000431,0.005759
26930000,0.0324,0.013523,0.002678,0.000431,0.041723
26931000,0.0324,0.013523,0.002678,0.000431,0.052300
26932000,0.0324,0.013523,0.002678,0.000431,0.006111
26933000,0.0324,0.013523,0.002678,0.000431,0.005876
26934000,0.0324,0.013523,0.002678,0.000431,0.028442
26935000,0.0324,0.013523,0.002678,0.000431,0.005876
26936000,0.0324,0.013523,0.002678,0.000431,0.025621
26937000,0.0324,0.013523,0.002678,0.000431,0.114002
26938000,0.0324,0.013523,0.002678,0.000431,0.005876
26939000,0.0324,0.013523,0.002678,0.000431,0.005876
26940000,0.0324,0.013523,0.002678,0.000431,0.019980
26941000,0.0324,0.013523,0.002678,0.000431,0.014809
26942000,0.0324,0.013523,0.002678,0.000431,0.005876
26943000,0.0324,0.013523,0.002678,0.000431,0.020920
26944000,0.0324,0.013523,0.002678,0.000431,0.013398
26945000,0.0324,0.013523,0.002678,0.000431,0.028207
26946000,0.0324,0.013523,0.002678,0.000431,0.005876
26947000,0.0324,0.013523,0.002678,0.000431,0.005876
26948000,0.0324,0.013523,0.002678,0.000431,0.005876
26949000,0.0324,0.013523,0.002678,0.000431,0.005876
26950000,0.0324,0.013523,0.002678,0.000431,0.017159
26951000,0.0324,0.013523,0.002678,0.000431,0.024681
26952000,0.0324,0.013523,0.002678,0.000431,0.005876
26953000,0.0324,0.013523,0.002678,0.000431,0.005876
26954000,0.0324,0.013523,0.002678,0.000431,0.005876
26955000,0.0324,0.013523,0.002678,0.000431,0.005876
26956000,0.0324,0.013523,0.002678,0.000431,0.028442
26957000,0.0324,0.013523,0.002678,0.000431,0.034906
26958000,0.0324,0.013523,0.002678,0.000431,0.037021
26959000,0.0324,0.013523,0.002678,0.000431,0.005876
26960000,0.0324,0.013523,0.002678,0.000431,0.028324
26961000,0.0324,0.013523,0.002678,0.000431,0.005759
26962000,0.0324,0.013523,0.002678,0.000431,0.005876
26963000,0.0324,0.013523,0.002678,0.000431,0.028442
26964000,0.0324,0.013523,0.002678,0.000431,0.051007
26965000,0.0324,0.013523,0.002678,0.000431,0.005876
26966000,0.0324,0.013523,0.002678,0.000431,0.005876
26967000,0.0324,0.013523,0.002678,0.000431,0.005876
26968000,0.0324,0.013523,0.002678,0.000431,0.005876
26969000,0.0324,0.013523,0.002678,0.000431,0.028207
26970000,0.0324,0.013523,0.002678,0.000431,0.027972
26971000,0.0324,0.013523,0.002678,0.000431,0.051007
26972000,0.0324,0.013523,0.002678,0.000431,0.005876
26973000,0.0324,0.013523,0.002678,0.000431,0.013398
26974000,0.0324,0.013523,0.002678,0.000431,0.005876
26975000,0.0324,0.013523,0.002678,0.000431,0.020097
26976000,0.0324,0.013523,0.002678,0.000431,0.127048
26977000,0.0324,0.013523,0.002678,0.000431,0.005876
26978000,0.0324,0.013523,0.002678,0.000431,0.005876
26979000,0.0324,0.013523,0.002678,0.000431,0.005876
26980000,0.0324,0.013523,0.002678,0.000431,0.005876
26981000,0.0324,0.013523,0.002678,0.000431,0.005876
26982000,0.0324,0.013523,0.002678,0.000431,0.035964
26983000,0.0324,0.013523,0.002678,0.000431,0.032203
26984000,0.0324,0.013523,0.002678,0.000431,0.017159
26985000,0.0324,0.013523,0.002678,0.000431,0.024681
26986000,0.0324,0.013523,0.002678,0.000431,0.039489
26987000,0.0324,0.013523,0.002678,0.000431,0.005876
26988000,0.0324,0.013523,0.002678,0.000431,0.013398
26989000,0.0324,0.013523,0.002678,0.000431,0.043485
26990000,0.0324,0.013523,0.002678,0.000431,0.043250
26991000,0.0324,0.013523,0.002678,0.000431,0.005876
26992000,0.0324,0.013523,0.002678,0.000431,0.005641
26993000,0.0324,0.013523,0.002678,0.000431,0.005876
26994000,0.0324,0.013523,0.002678,0.000431,0.051007
26995000,0.0324,0.013523,0.002678,0.000431,0.005876
26996000,0.0324,0.013523,0.002678,0.000431,0.020920
26997000,0.0324,0.013523,0.002678,0.000431,0.005876
26998000,0.0324,0.013523,0.002678,0.000431,0.059117
26999000,0.0324,0.013523,0.002678,0.000431,0.027619
