Cycle,Area(mm^2),PeakDynamic(W),SubthresholdLeakage(W),GateLeakage(W),RunTimeDynamic(W)
30000000,0.0324,0.013523,0.002678,0.000431,0.013398
30001000,0.0324,0.013523,0.002678,0.000431,0.018687
30002000,0.0324,0.013523,0.002678,0.000431,0.008345
30003000,0.0324,0.013523,0.002678,0.000431,0.005994
30004000,0.0324,0.013523,0.002678,0.000431,0.013046
30005000,0.0324,0.013523,0.002678,0.000431,0.010225
30006000,0.0324,0.013523,0.002678,0.000431,0.023976
30007000,0.0324,0.013523,0.002678,0.000431,0.005759
30008000,0.0324,0.013523,0.002678,0.000431,0.028442
30009000,0.0324,0.013523,0.002678,0.000431,0.005876
30010000,0.0324,0.013523,0.002678,0.000431,0.005876
30011000,0.0324,0.013523,0.002678,0.000431,0.028442
30012000,0.0324,0.013523,0.002678,0.000431,0.020920
30013000,0.0324,0.013523,0.002678,0.000431,0.005876
30014000,0.0324,0.013523,0.002678,0.000431,0.009637
30015000,0.0324,0.013523,0.002678,0.000431,0.009637
30016000,0.0324,0.013523,0.002678,0.000431,0.005876
30017000,0.0324,0.013523,0.002678,0.000431,0.005876
30018000,0.0324,0.013523,0.002678,0.000431,0.013398
30019000,0.0324,0.013523,0.002678,0.000431,0.035846
30020000,0.0324,0.013523,0.002678,0.000431,0.013281
30021000,0.0324,0.013523,0.002678,0.000431,0.043485
30022000,0.0324,0.013523,0.002678,0.000431,0.005876
30023000,0.0324,0.013523,0.002678,0.000431,0.005876
30024000,0.0324,0.013523,0.002678,0.000431,0.005876
30025000,0.0324,0.013523,0.002678,0.000431,0.005876
30026000,0.0324,0.013523,0.002678,0.000431,0.035964
30027000,0.0324,0.013523,0.002678,0.000431,0.013398
30028000,0.0324,0.013523,0.002678,0.000431,0.154550
30029000,0.0324,0.013523,0.002678,0.000431,0.059822
30030000,0.0324,0.013523,0.002678,0.000431,0.005876
30031000,0.0324,0.013523,0.002678,0.000431,0.005876
30032000,0.0324,0.013523,0.002678,0.000431,0.013516
30033000,0.0324,0.013523,0.002678,0.000431,0.114825
30034000,0.0324,0.013523,0.002678,0.000431,0.009637
30035000,0.0324,0.013523,0.002678,0.000431,0.009637
30036000,0.0324,0.013523,0.002678,0.000431,0.009520
30037000,0.0324,0.013523,0.002678,0.000431,0.005759
30038000,0.0324,0.013523,0.002678,0.000431,0.005876
30039000,0.0324,0.013523,0.002678,0.000431,0.020685
30040000,0.0324,0.013523,0.002678,0.000431,0.005876
30041000,0.0324,0.013523,0.002678,0.000431,0.016924
30042000,0.0324,0.013523,0.002678,0.000431,0.099429
30043000,0.0324,0.013523,0.002678,0.000431,0.005759
30044000,0.0324,0.013523,0.002678,0.000431,0.005759
30045000,0.0324,0.013523,0.002678,0.000431,0.021038
30046000,0.0324,0.013523,0.002678,0.000431,0.126343
30047000,0.0324,0.013523,0.002678,0.000431,0.005876
30048000,0.0324,0.013523,0.002678,0.000431,0.020685
30049000,0.0324,0.013523,0.002678,0.000431,0.005641
30050000,0.0324,0.013523,0.002678,0.000431,0.005876
30051000,0.0324,0.013523,0.002678,0.000431,0.005876
30052000,0.0324,0.013523,0.002678,0.000431,0.073573
30053000,0.0324,0.013523,0.002678,0.000431,0.013398
30054000,0.0324,0.013523,0.002678,0.000431,0.005876
30055000,0.0324,0.013523,0.002678,0.000431,0.005876
30056000,0.0324,0.013523,0.002678,0.000431,0.005876
30057000,0.0324,0.013523,0.002678,0.000431,0.031850
30058000,0.0324,0.013523,0.002678,0.000431,0.009990
30059000,0.0324,0.013523,0.002678,0.000431,0.020685
30060000,0.0324,0.013523,0.002678,0.000431,0.005876
30061000,0.0324,0.013523,0.002678,0.000431,0.028442
30062000,0.0324,0.013523,0.002678,0.000431,0.005876
30063000,0.0324,0.013523,0.002678,0.000431,0.005876
30064000,0.0324,0.013523,0.002678,0.000431,0.005876
30065000,0.0324,0.013523,0.002678,0.000431,0.005876
30066000,0.0324,0.013523,0.002678,0.000431,0.005876
30067000,0.0324,0.013523,0.002678,0.000431,0.020920
30068000,0.0324,0.013523,0.002678,0.000431,0.005876
30069000,0.0324,0.013523,0.002678,0.000431,0.005876
30070000,0.0324,0.013523,0.002678,0.000431,0.005876
30071000,0.0324,0.013523,0.002678,0.000431,0.005876
30072000,0.0324,0.013523,0.002678,0.000431,0.020920
30073000,0.0324,0.013523,0.002678,0.000431,0.005876
30074000,0.0324,0.013523,0.002678,0.000431,0.006111
30075000,0.0324,0.013523,0.002678,0.000431,0.005876
30076000,0.0324,0.013523,0.002678,0.000431,0.013398
30077000,0.0324,0.013523,0.002678,0.000431,0.005876
30078000,0.0324,0.013523,0.002678,0.000431,0.013398
30079000,0.0324,0.013523,0.002678,0.000431,0.005876
30080000,0.0324,0.013523,0.002678,0.000431,0.005876
30081000,0.0324,0.013523,0.002678,0.000431,0.013398
30082000,0.0324,0.013523,0.002678,0.000431,0.005641
30083000,0.0324,0.013523,0.002678,0.000431,0.005994
30084000,0.0324,0.013523,0.002678,0.000431,0.005759
30085000,0.0324,0.013523,0.002678,0.000431,0.080859
30086000,0.0324,0.013523,0.002678,0.000431,0.005876
30087000,0.0324,0.013523,0.002678,0.000431,0.005876
30088000,0.0324,0.013523,0.002678,0.000431,0.005641
30089000,0.0324,0.013523,0.002678,0.000431,0.042898
30090000,0.0324,0.013523,0.002678,0.000431,0.043838
30091000,0.0324,0.013523,0.002678,0.000431,0.020802
30092000,0.0324,0.013523,0.002678,0.000431,0.020802
30093000,0.0324,0.013523,0.002678,0.000431,0.025621
30094000,0.0324,0.013523,0.002678,0.000431,0.106481
30095000,0.0324,0.013523,0.002678,0.000431,0.020920
30096000,0.0324,0.013523,0.002678,0.000431,0.013398
30097000,0.0324,0.013523,0.002678,0.000431,0.005876
30098000,0.0324,0.013523,0.002678,0.000431,0.005876
30099000,0.0324,0.013523,0.002678,0.000431,0.005876
30100000,0.0324,0.013523,0.002678,0.000431,0.005876
30101000,0.0324,0.013523,0.002678,0.000431,0.005876
30102000,0.0324,0.013523,0.002678,0.000431,0.005876
30103000,0.0324,0.013523,0.002678,0.000431,0.005876
30104000,0.0324,0.013523,0.002678,0.000431,0.005876
30105000,0.0324,0.013523,0.002678,0.000431,0.005876
30106000,0.0324,0.013523,0.002678,0.000431,0.005876
30107000,0.0324,0.013523,0.002678,0.000431,0.005876
30108000,0.0324,0.013523,0.002678,0.000431,0.013398
30109000,0.0324,0.013523,0.002678,0.000431,0.013398
30110000,0.0324,0.013523,0.002678,0.000431,0.005876
30111000,0.0324,0.013523,0.002678,0.000431,0.005876
30112000,0.0324,0.013523,0.002678,0.000431,0.005641
30113000,0.0324,0.013523,0.002678,0.000431,0.005876
30114000,0.0324,0.013523,0.002678,0.000431,0.005876
30115000,0.0324,0.013523,0.002678,0.000431,0.039960
30116000,0.0324,0.013523,0.002678,0.000431,0.039489
30117000,0.0324,0.013523,0.002678,0.000431,0.005876
30118000,0.0324,0.013523,0.002678,0.000431,0.005876
30119000,0.0324,0.013523,0.002678,0.000431,0.005876
30120000,0.0324,0.013523,0.002678,0.000431,0.005876
30121000,0.0324,0.013523,0.002678,0.000431,0.007169
30122000,0.0324,0.013523,0.002678,0.000431,0.042193
30123000,0.0324,0.013523,0.002678,0.000431,0.051007
30124000,0.0324,0.013523,0.002678,0.000431,0.013163
30125000,0.0324,0.013523,0.002678,0.000431,0.005876
30126000,0.0324,0.013523,0.002678,0.000431,0.005876
30127000,0.0324,0.013523,0.002678,0.000431,0.017159
30128000,0.0324,0.013523,0.002678,0.000431,0.009520
30129000,0.0324,0.013523,0.002678,0.000431,0.005524
30130000,0.0324,0.013523,0.002678,0.000431,0.005876
30131000,0.0324,0.013523,0.002678,0.000431,0.013398
30132000,0.0324,0.013523,0.002678,0.000431,0.005876
30133000,0.0324,0.013523,0.002678,0.000431,0.005876
30134000,0.0324,0.013523,0.002678,0.000431,0.043485
30135000,0.0324,0.013523,0.002678,0.000431,0.043485
30136000,0.0324,0.013523,0.002678,0.000431,0.005876
30137000,0.0324,0.013523,0.002678,0.000431,0.013398
30138000,0.0324,0.013523,0.002678,0.000431,0.005876
30139000,0.0324,0.013523,0.002678,0.000431,0.005876
30140000,0.0324,0.013523,0.002678,0.000431,0.048774
30141000,0.0324,0.013523,0.002678,0.000431,0.015631
30142000,0.0324,0.013523,0.002678,0.000431,0.005876
30143000,0.0324,0.013523,0.002678,0.000431,0.005876
30144000,0.0324,0.013523,0.002678,0.000431,0.028442
30145000,0.0324,0.013523,0.002678,0.000431,0.005876
30146000,0.0324,0.013523,0.002678,0.000431,0.005876
30147000,0.0324,0.013523,0.002678,0.000431,0.005876
30148000,0.0324,0.013523,0.002678,0.000431,0.013398
30149000,0.0324,0.013523,0.002678,0.000431,0.009637
30150000,0.0324,0.013523,0.002678,0.000431,0.009637
30151000,0.0324,0.013523,0.002678,0.000431,0.005876
30152000,0.0324,0.013523,0.002678,0.000431,0.063465
30153000,0.0324,0.013523,0.002678,0.000431,0.008227
30154000,0.0324,0.013523,0.002678,0.000431,0.005876
30155000,0.0324,0.013523,0.002678,0.000431,0.005876
30156000,0.0324,0.013523,0.002678,0.000431,0.031498
30157000,0.0324,0.013523,0.002678,0.000431,0.014103
30158000,0.0324,0.013523,0.002678,0.000431,0.017159
30159000,0.0324,0.013523,0.002678,0.000431,0.013398
30160000,0.0324,0.013523,0.002678,0.000431,0.005876
30161000,0.0324,0.013523,0.002678,0.000431,0.005876
30162000,0.0324,0.013523,0.002678,0.000431,0.009402
30163000,0.0324,0.013523,0.002678,0.000431,0.066051
30164000,0.0324,0.013523,0.002678,0.000431,0.009402
30165000,0.0324,0.013523,0.002678,0.000431,0.005876
30166000,0.0324,0.013523,0.002678,0.000431,0.005876
30167000,0.0324,0.013523,0.002678,0.000431,0.005876
30168000,0.0324,0.013523,0.002678,0.000431,0.005759
30169000,0.0324,0.013523,0.002678,0.000431,0.055121
30170000,0.0324,0.013523,0.002678,0.000431,0.061585
30171000,0.0324,0.013523,0.002678,0.000431,0.005876
30172000,0.0324,0.013523,0.002678,0.000431,0.020920
30173000,0.0324,0.013523,0.002678,0.000431,0.013398
30174000,0.0324,0.013523,0.002678,0.000431,0.005876
30175000,0.0324,0.013523,0.002678,0.000431,0.005876
30176000,0.0324,0.013523,0.002678,0.000431,0.005876
30177000,0.0324,0.013523,0.002678,0.000431,0.005876
30178000,0.0324,0.013523,0.002678,0.000431,0.005876
30179000,0.0324,0.013523,0.002678,0.000431,0.005876
30180000,0.0324,0.013523,0.002678,0.000431,0.043485
30181000,0.0324,0.013523,0.002678,0.000431,0.005876
30182000,0.0324,0.013523,0.002678,0.000431,0.145147
30183000,0.0324,0.013523,0.002678,0.000431,0.062172
30184000,0.0324,0.013523,0.002678,0.000431,0.005876
30185000,0.0324,0.013523,0.002678,0.000431,0.019510
30186000,0.0324,0.013523,0.002678,0.000431,0.017512
30187000,0.0324,0.013523,0.002678,0.000431,0.063348
30188000,0.0324,0.013523,0.002678,0.000431,0.005876
30189000,0.0324,0.013523,0.002678,0.000431,0.081094
30190000,0.0324,0.013523,0.002678,0.000431,0.005876
30191000,0.0324,0.013523,0.002678,0.000431,0.005876
30192000,0.0324,0.013523,0.002678,0.000431,0.080977
30193000,0.0324,0.013523,0.002678,0.000431,0.013281
30194000,0.0324,0.013523,0.002678,0.000431,0.005876
30195000,0.0324,0.013523,0.002678,0.000431,0.005876
30196000,0.0324,0.013523,0.002678,0.000431,0.005876
30197000,0.0324,0.013523,0.002678,0.000431,0.023976
30198000,0.0324,0.013523,0.002678,0.000431,0.017864
30199000,0.0324,0.013523,0.002678,0.000431,0.013398
30200000,0.0324,0.013523,0.002678,0.000431,0.013398
30201000,0.0324,0.013523,0.002678,0.000431,0.035964
30202000,0.0324,0.013523,0.002678,0.000431,0.005641
30203000,0.0324,0.013523,0.002678,0.000431,0.005876
30204000,0.0324,0.013523,0.002678,0.000431,0.013163
30205000,0.0324,0.013523,0.002678,0.000431,0.005876
30206000,0.0324,0.013523,0.002678,0.000431,0.020920
30207000,0.0324,0.013523,0.002678,0.000431,0.051007
30208000,0.0324,0.013523,0.002678,0.000431,0.051007
30209000,0.0324,0.013523,0.002678,0.000431,0.035964
30210000,0.0324,0.013523,0.002678,0.000431,0.005876
30211000,0.0324,0.013523,0.002678,0.000431,0.023858
30212000,0.0324,0.013523,0.002678,0.000431,0.078156
30213000,0.0324,0.013523,0.002678,0.000431,0.005876
30214000,0.0324,0.013523,0.002678,0.000431,0.028442
30215000,0.0324,0.013523,0.002678,0.000431,0.020920
30216000,0.0324,0.013523,0.002678,0.000431,0.005876
30217000,0.0324,0.013523,0.002678,0.000431,0.013633
30218000,0.0324,0.013523,0.002678,0.000431,0.020920
30219000,0.0324,0.013523,0.002678,0.000431,0.005876
30220000,0.0324,0.013523,0.002678,0.000431,0.013398
30221000,0.0324,0.013523,0.002678,0.000431,0.024916
30222000,0.0324,0.013523,0.002678,0.000431,0.009637
30223000,0.0324,0.013523,0.002678,0.000431,0.020920
30224000,0.0324,0.013523,0.002678,0.000431,0.020802
30225000,0.0324,0.013523,0.002678,0.000431,0.035846
30226000,0.0324,0.013523,0.002678,0.000431,0.020920
30227000,0.0324,0.013523,0.002678,0.000431,0.066286
30228000,0.0324,0.013523,0.002678,0.000431,0.020920
30229000,0.0324,0.013523,0.002678,0.000431,0.009637
30230000,0.0324,0.013523,0.002678,0.000431,0.009637
30231000,0.0324,0.013523,0.002678,0.000431,0.013633
30232000,0.0324,0.013523,0.002678,0.000431,0.066168
30233000,0.0324,0.013523,0.002678,0.000431,0.088499
30234000,0.0324,0.013523,0.002678,0.000431,0.005876
30235000,0.0324,0.013523,0.002678,0.000431,0.005876
30236000,0.0324,0.013523,0.002678,0.000431,0.020920
30237000,0.0324,0.013523,0.002678,0.000431,0.013398
30238000,0.0324,0.013523,0.002678,0.000431,0.025034
30239000,0.0324,0.013523,0.002678,0.000431,0.016807
30240000,0.0324,0.013523,0.002678,0.000431,0.005876
30241000,0.0324,0.013523,0.002678,0.000431,0.005876
30242000,0.0324,0.013523,0.002678,0.000431,0.005876
30243000,0.0324,0.013523,0.002678,0.000431,0.005876
30244000,0.0324,0.013523,0.002678,0.000431,0.045954
30245000,0.0324,0.013523,0.002678,0.000431,0.048539
30246000,0.0324,0.013523,0.002678,0.000431,0.005641
30247000,0.0324,0.013523,0.002678,0.000431,0.088616
30248000,0.0324,0.013523,0.002678,0.000431,0.020685
30249000,0.0324,0.013523,0.002678,0.000431,0.013163
30250000,0.0324,0.013523,0.002678,0.000431,0.050890
30251000,0.0324,0.013523,0.002678,0.000431,0.013516
30252000,0.0324,0.013523,0.002678,0.000431,0.005876
30253000,0.0324,0.013523,0.002678,0.000431,0.028207
30254000,0.0324,0.013523,0.002678,0.000431,0.005876
30255000,0.0324,0.013523,0.002678,0.000431,0.022918
30256000,0.0324,0.013523,0.002678,0.000431,0.086501
30257000,0.0324,0.013523,0.002678,0.000431,0.043838
30258000,0.0324,0.013523,0.002678,0.000431,0.005876
30259000,0.0324,0.013523,0.002678,0.000431,0.005876
30260000,0.0324,0.013523,0.002678,0.000431,0.111182
30261000,0.0324,0.013523,0.002678,0.000431,0.005876
30262000,0.0324,0.013523,0.002678,0.000431,0.013398
30263000,0.0324,0.013523,0.002678,0.000431,0.005876
30264000,0.0324,0.013523,0.002678,0.000431,0.005876
30265000,0.0324,0.013523,0.002678,0.000431,0.017864
30266000,0.0324,0.013523,0.002678,0.000431,0.137626
30267000,0.0324,0.013523,0.002678,0.000431,0.017747
30268000,0.0324,0.013523,0.002678,0.000431,0.008462
30269000,0.0324,0.013523,0.002678,0.000431,0.005876
30270000,0.0324,0.013523,0.002678,0.000431,0.013398
30271000,0.0324,0.013523,0.002678,0.000431,0.005876
30272000,0.0324,0.013523,0.002678,0.000431,0.089321
30273000,0.0324,0.013523,0.002678,0.000431,0.185224
30274000,0.0324,0.013523,0.002678,0.000431,0.005876
30275000,0.0324,0.013523,0.002678,0.000431,0.005876
30276000,0.0324,0.013523,0.002678,0.000431,0.006817
30277000,0.0324,0.013523,0.002678,0.000431,0.019980
30278000,0.0324,0.013523,0.002678,0.000431,0.015044
30279000,0.0324,0.013523,0.002678,0.000431,0.060645
30280000,0.0324,0.013523,0.002678,0.000431,0.032203
30281000,0.0324,0.013523,0.002678,0.000431,0.051007
30282000,0.0324,0.013523,0.002678,0.000431,0.005876
30283000,0.0324,0.013523,0.002678,0.000431,0.055003
30284000,0.0324,0.013523,0.002678,0.000431,0.009637
30285000,0.0324,0.013523,0.002678,0.000431,0.005876
30286000,0.0324,0.013523,0.002678,0.000431,0.066051
30287000,0.0324,0.013523,0.002678,0.000431,0.005876
30288000,0.0324,0.013523,0.002678,0.000431,0.036904
30289000,0.0324,0.013523,0.002678,0.000431,0.044191
30290000,0.0324,0.013523,0.002678,0.000431,0.042310
30291000,0.0324,0.013523,0.002678,0.000431,0.051007
30292000,0.0324,0.013523,0.002678,0.000431,0.020920
30293000,0.0324,0.013523,0.002678,0.000431,0.005876
30294000,0.0324,0.013523,0.002678,0.000431,0.005876
30295000,0.0324,0.013523,0.002678,0.000431,0.005876
30296000,0.0324,0.013523,0.002678,0.000431,0.005876
30297000,0.0324,0.013523,0.002678,0.000431,0.020920
30298000,0.0324,0.013523,0.002678,0.000431,0.062525
30299000,0.0324,0.013523,0.002678,0.000431,0.009402
30300000,0.0324,0.013523,0.002678,0.000431,0.005876
30301000,0.0324,0.013523,0.002678,0.000431,0.005876
30302000,0.0324,0.013523,0.002678,0.000431,0.045131
30303000,0.0324,0.013523,0.002678,0.000431,0.064641
30304000,0.0324,0.013523,0.002678,0.000431,0.005876
30305000,0.0324,0.013523,0.002678,0.000431,0.058529
30306000,0.0324,0.013523,0.002678,0.000431,0.013398
30307000,0.0324,0.013523,0.002678,0.000431,0.013398
30308000,0.0324,0.013523,0.002678,0.000431,0.013163
30309000,0.0324,0.013523,0.002678,0.000431,0.036199
30310000,0.0324,0.013523,0.002678,0.000431,0.005876
30311000,0.0324,0.013523,0.002678,0.000431,0.013398
30312000,0.0324,0.013523,0.002678,0.000431,0.014573
30313000,0.0324,0.013523,0.002678,0.000431,0.098606
30314000,0.0324,0.013523,0.002678,0.000431,0.009520
30315000,0.0324,0.013523,0.002678,0.000431,0.005876
30316000,0.0324,0.013523,0.002678,0.000431,0.005876
30317000,0.0324,0.013523,0.002678,0.000431,0.017159
30318000,0.0324,0.013523,0.002678,0.000431,0.062290
30319000,0.0324,0.013523,0.002678,0.000431,0.051242
30320000,0.0324,0.013523,0.002678,0.000431,0.111299
30321000,0.0324,0.013523,0.002678,0.000431,0.016571
30322000,0.0324,0.013523,0.002678,0.000431,0.017159
30323000,0.0324,0.013523,0.002678,0.000431,0.051242
30324000,0.0324,0.013523,0.002678,0.000431,0.005876
30325000,0.0324,0.013523,0.002678,0.000431,0.005876
30326000,0.0324,0.013523,0.002678,0.000431,0.053945
30327000,0.0324,0.013523,0.002678,0.000431,0.025504
30328000,0.0324,0.013523,0.002678,0.000431,0.013398
30329000,0.0324,0.013523,0.002678,0.000431,0.013398
30330000,0.0324,0.013523,0.002678,0.000431,0.013398
30331000,0.0324,0.013523,0.002678,0.000431,0.005876
30332000,0.0324,0.013523,0.002678,0.000431,0.005876
30333000,0.0324,0.013523,0.002678,0.000431,0.043485
30334000,0.0324,0.013523,0.002678,0.000431,0.040547
30335000,0.0324,0.013523,0.002678,0.000431,0.099311
30336000,0.0324,0.013523,0.002678,0.000431,0.043485
30337000,0.0324,0.013523,0.002678,0.000431,0.005876
30338000,0.0324,0.013523,0.002678,0.000431,0.005759
30339000,0.0324,0.013523,0.002678,0.000431,0.035964
30340000,0.0324,0.013523,0.002678,0.000431,0.013516
30341000,0.0324,0.013523,0.002678,0.000431,0.035964
30342000,0.0324,0.013523,0.002678,0.000431,0.005876
30343000,0.0324,0.013523,0.002678,0.000431,0.005876
30344000,0.0324,0.013523,0.002678,0.000431,0.020920
30345000,0.0324,0.013523,0.002678,0.000431,0.021273
30346000,0.0324,0.013523,0.002678,0.000431,0.024916
30347000,0.0324,0.013523,0.002678,0.000431,0.016219
30348000,0.0324,0.013523,0.002678,0.000431,0.005759
30349000,0.0324,0.013523,0.002678,0.000431,0.005876
30350000,0.0324,0.013523,0.002678,0.000431,0.044191
30351000,0.0324,0.013523,0.002678,0.000431,0.005876
30352000,0.0324,0.013523,0.002678,0.000431,0.051242
30353000,0.0324,0.013523,0.002678,0.000431,0.009637
30354000,0.0324,0.013523,0.002678,0.000431,0.024681
30355000,0.0324,0.013523,0.002678,0.000431,0.005876
30356000,0.0324,0.013523,0.002678,0.000431,0.032438
30357000,0.0324,0.013523,0.002678,0.000431,0.215194
30358000,0.0324,0.013523,0.002678,0.000431,0.010460
30359000,0.0324,0.013523,0.002678,0.000431,0.005876
30360000,0.0324,0.013523,0.002678,0.000431,0.036199
30361000,0.0324,0.013523,0.002678,0.000431,0.005759
30362000,0.0324,0.013523,0.002678,0.000431,0.020802
30363000,0.0324,0.013523,0.002678,0.000431,0.077569
30364000,0.0324,0.013523,0.002678,0.000431,0.024681
30365000,0.0324,0.013523,0.002678,0.000431,0.005876
30366000,0.0324,0.013523,0.002678,0.000431,0.017159
30367000,0.0324,0.013523,0.002678,0.000431,0.017159
30368000,0.0324,0.013523,0.002678,0.000431,0.005876
30369000,0.0324,0.013523,0.002678,0.000431,0.088381
30370000,0.0324,0.013523,0.002678,0.000431,0.035964
30371000,0.0324,0.013523,0.002678,0.000431,0.005876
30372000,0.0324,0.013523,0.002678,0.000431,0.005876
30373000,0.0324,0.013523,0.002678,0.000431,0.005876
30374000,0.0324,0.013523,0.002678,0.000431,0.005876
30375000,0.0324,0.013523,0.002678,0.000431,0.005876
30376000,0.0324,0.013523,0.002678,0.000431,0.043485
30377000,0.0324,0.013523,0.002678,0.000431,0.005876
30378000,0.0324,0.013523,0.002678,0.000431,0.005641
30379000,0.0324,0.013523,0.002678,0.000431,0.036199
30380000,0.0324,0.013523,0.002678,0.000431,0.013163
30381000,0.0324,0.013523,0.002678,0.000431,0.005876
30382000,0.0324,0.013523,0.002678,0.000431,0.020920
30383000,0.0324,0.013523,0.002678,0.000431,0.035964
30384000,0.0324,0.013523,0.002678,0.000431,0.028442
30385000,0.0324,0.013523,0.002678,0.000431,0.005876
30386000,0.0324,0.013523,0.002678,0.000431,0.050772
30387000,0.0324,0.013523,0.002678,0.000431,0.005876
30388000,0.0324,0.013523,0.002678,0.000431,0.035964
30389000,0.0324,0.013523,0.002678,0.000431,0.024446
30390000,0.0324,0.013523,0.002678,0.000431,0.009637
30391000,0.0324,0.013523,0.002678,0.000431,0.005876
30392000,0.0324,0.013523,0.002678,0.000431,0.050420
30393000,0.0324,0.013523,0.002678,0.000431,0.036551
30394000,0.0324,0.013523,0.002678,0.000431,0.005876
30395000,0.0324,0.013523,0.002678,0.000431,0.085208
30396000,0.0324,0.013523,0.002678,0.000431,0.047364
30397000,0.0324,0.013523,0.002678,0.000431,0.005876
30398000,0.0324,0.013523,0.002678,0.000431,0.005876
30399000,0.0324,0.013523,0.002678,0.000431,0.005876
30400000,0.0324,0.013523,0.002678,0.000431,0.005876
30401000,0.0324,0.013523,0.002678,0.000431,0.074983
30402000,0.0324,0.013523,0.002678,0.000431,0.136333
30403000,0.0324,0.013523,0.002678,0.000431,0.061820
30404000,0.0324,0.013523,0.002678,0.000431,0.088616
30405000,0.0324,0.013523,0.002678,0.000431,0.005876
30406000,0.0324,0.013523,0.002678,0.000431,0.005876
30407000,0.0324,0.013523,0.002678,0.000431,0.005641
30408000,0.0324,0.013523,0.002678,0.000431,0.035964
30409000,0.0324,0.013523,0.002678,0.000431,0.043485
30410000,0.0324,0.013523,0.002678,0.000431,0.062525
30411000,0.0324,0.013523,0.002678,0.000431,0.047246
30412000,0.0324,0.013523,0.002678,0.000431,0.005876
30413000,0.0324,0.013523,0.002678,0.000431,0.005876
30414000,0.0324,0.013523,0.002678,0.000431,0.005876
30415000,0.0324,0.013523,0.002678,0.000431,0.043720
30416000,0.0324,0.013523,0.002678,0.000431,0.062525
30417000,0.0324,0.013523,0.002678,0.000431,0.009637
30418000,0.0324,0.013523,0.002678,0.000431,0.005876
30419000,0.0324,0.013523,0.002678,0.000431,0.005876
30420000,0.0324,0.013523,0.002678,0.000431,0.005876
30421000,0.0324,0.013523,0.002678,0.000431,0.006464
30422000,0.0324,0.013523,0.002678,0.000431,0.045013
30423000,0.0324,0.013523,0.002678,0.000431,0.033848
30424000,0.0324,0.013523,0.002678,0.000431,0.043720
30425000,0.0324,0.013523,0.002678,0.000431,0.005876
30426000,0.0324,0.013523,0.002678,0.000431,0.005759
30427000,0.0324,0.013523,0.002678,0.000431,0.014809
30428000,0.0324,0.013523,0.002678,0.000431,0.090849
30429000,0.0324,0.013523,0.002678,0.000431,0.062055
30430000,0.0324,0.013523,0.002678,0.000431,0.035964
30431000,0.0324,0.013523,0.002678,0.000431,0.005876
30432000,0.0324,0.013523,0.002678,0.000431,0.005876
30433000,0.0324,0.013523,0.002678,0.000431,0.005876
30434000,0.0324,0.013523,0.002678,0.000431,0.005876
30435000,0.0324,0.013523,0.002678,0.000431,0.029382
30436000,0.0324,0.013523,0.002678,0.000431,0.037374
30437000,0.0324,0.013523,0.002678,0.000431,0.011048
30438000,0.0324,0.013523,0.002678,0.000431,0.005876
30439000,0.0324,0.013523,0.002678,0.000431,0.009637
30440000,0.0324,0.013523,0.002678,0.000431,0.047246
30441000,0.0324,0.013523,0.002678,0.000431,0.020920
30442000,0.0324,0.013523,0.002678,0.000431,0.020685
30443000,0.0324,0.013523,0.002678,0.000431,0.009637
30444000,0.0324,0.013523,0.002678,0.000431,0.009637
30445000,0.0324,0.013523,0.002678,0.000431,0.020920
30446000,0.0324,0.013523,0.002678,0.000431,0.005876
30447000,0.0324,0.013523,0.002678,0.000431,0.044661
30448000,0.0324,0.013523,0.002678,0.000431,0.120819
30449000,0.0324,0.013523,0.002678,0.000431,0.089086
30450000,0.0324,0.013523,0.002678,0.000431,0.023976
30451000,0.0324,0.013523,0.002678,0.000431,0.005876
30452000,0.0324,0.013523,0.002678,0.000431,0.005876
30453000,0.0324,0.013523,0.002678,0.000431,0.005876
30454000,0.0324,0.013523,0.002678,0.000431,0.035964
30455000,0.0324,0.013523,0.002678,0.000431,0.005876
30456000,0.0324,0.013523,0.002678,0.000431,0.068989
30457000,0.0324,0.013523,0.002678,0.000431,0.033025
30458000,0.0324,0.013523,0.002678,0.000431,0.005876
30459000,0.0324,0.013523,0.002678,0.000431,0.005876
30460000,0.0324,0.013523,0.002678,0.000431,0.130339
30461000,0.0324,0.013523,0.002678,0.000431,0.031615
30462000,0.0324,0.013523,0.002678,0.000431,0.054886
30463000,0.0324,0.013523,0.002678,0.000431,0.091790
30464000,0.0324,0.013523,0.002678,0.000431,0.005876
30465000,0.0324,0.013523,0.002678,0.000431,0.013281
30466000,0.0324,0.013523,0.002678,0.000431,0.028324
30467000,0.0324,0.013523,0.002678,0.000431,0.070282
30468000,0.0324,0.013523,0.002678,0.000431,0.009637
30469000,0.0324,0.013523,0.002678,0.000431,0.013398
30470000,0.0324,0.013523,0.002678,0.000431,0.013398
30471000,0.0324,0.013523,0.002678,0.000431,0.005876
30472000,0.0324,0.013523,0.002678,0.000431,0.011988
30473000,0.0324,0.013523,0.002678,0.000431,0.044896
30474000,0.0324,0.013523,0.002678,0.000431,0.005876
30475000,0.0324,0.013523,0.002678,0.000431,0.016807
30476000,0.0324,0.013523,0.002678,0.000431,0.077921
30477000,0.0324,0.013523,0.002678,0.000431,0.005876
30478000,0.0324,0.013523,0.002678,0.000431,0.005876
30479000,0.0324,0.013523,0.002678,0.000431,0.007052
30480000,0.0324,0.013523,0.002678,0.000431,0.042075
30481000,0.0324,0.013523,0.002678,0.000431,0.005876
30482000,0.0324,0.013523,0.002678,0.000431,0.013751
30483000,0.0324,0.013523,0.002678,0.000431,0.028324
30484000,0.0324,0.013523,0.002678,0.000431,0.005876
30485000,0.0324,0.013523,0.002678,0.000431,0.009637
30486000,0.0324,0.013523,0.002678,0.000431,0.009637
30487000,0.0324,0.013523,0.002678,0.000431,0.005876
30488000,0.0324,0.013523,0.002678,0.000431,0.005759
30489000,0.0324,0.013523,0.002678,0.000431,0.043720
30490000,0.0324,0.013523,0.002678,0.000431,0.080037
30491000,0.0324,0.013523,0.002678,0.000431,0.005876
30492000,0.0324,0.013523,0.002678,0.000431,0.013398
30493000,0.0324,0.013523,0.002678,0.000431,0.066051
30494000,0.0324,0.013523,0.002678,0.000431,0.005876
30495000,0.0324,0.013523,0.002678,0.000431,0.005876
30496000,0.0324,0.013523,0.002678,0.000431,0.088381
30497000,0.0324,0.013523,0.002678,0.000431,0.020920
30498000,0.0324,0.013523,0.002678,0.000431,0.013398
30499000,0.0324,0.013523,0.002678,0.000431,0.043485
30500000,0.0324,0.013523,0.002678,0.000431,0.005876
30501000,0.0324,0.013523,0.002678,0.000431,0.013398
30502000,0.0324,0.013523,0.002678,0.000431,0.005876
30503000,0.0324,0.013523,0.002678,0.000431,0.028442
30504000,0.0324,0.013523,0.002678,0.000431,0.005876
30505000,0.0324,0.013523,0.002678,0.000431,0.021273
30506000,0.0324,0.013523,0.002678,0.000431,0.028089
30507000,0.0324,0.013523,0.002678,0.000431,0.035964
30508000,0.0324,0.013523,0.002678,0.000431,0.043720
30509000,0.0324,0.013523,0.002678,0.000431,0.035964
30510000,0.0324,0.013523,0.002678,0.000431,0.005641
30511000,0.0324,0.013523,0.002678,0.000431,0.086971
30512000,0.0324,0.013523,0.002678,0.000431,0.044896
30513000,0.0324,0.013523,0.002678,0.000431,0.005876
30514000,0.0324,0.013523,0.002678,0.000431,0.006111
30515000,0.0324,0.013523,0.002678,0.000431,0.005876
30516000,0.0324,0.013523,0.002678,0.000431,0.017159
30517000,0.0324,0.013523,0.002678,0.000431,0.024681
30518000,0.0324,0.013523,0.002678,0.000431,0.055473
30519000,0.0324,0.013523,0.002678,0.000431,0.069107
30520000,0.0324,0.013523,0.002678,0.000431,0.005876
30521000,0.0324,0.013523,0.002678,0.000431,0.005876
30522000,0.0324,0.013523,0.002678,0.000431,0.005876
30523000,0.0324,0.013523,0.002678,0.000431,0.005876
30524000,0.0324,0.013523,0.002678,0.000431,0.045836
30525000,0.0324,0.013523,0.002678,0.000431,0.033613
30526000,0.0324,0.013523,0.002678,0.000431,0.005876
30527000,0.0324,0.013523,0.002678,0.000431,0.020920
30528000,0.0324,0.013523,0.002678,0.000431,0.028442
30529000,0.0324,0.013523,0.002678,0.000431,0.005524
30530000,0.0324,0.013523,0.002678,0.000431,0.013046
30531000,0.0324,0.013523,0.002678,0.000431,0.112357
30532000,0.0324,0.013523,0.002678,0.000431,0.019745
30533000,0.0324,0.013523,0.002678,0.000431,0.005876
30534000,0.0324,0.013523,0.002678,0.000431,0.005876
30535000,0.0324,0.013523,0.002678,0.000431,0.005876
30536000,0.0324,0.013523,0.002678,0.000431,0.005876
30537000,0.0324,0.013523,0.002678,0.000431,0.017159
30538000,0.0324,0.013523,0.002678,0.000431,0.009637
30539000,0.0324,0.013523,0.002678,0.000431,0.005876
30540000,0.0324,0.013523,0.002678,0.000431,0.005876
30541000,0.0324,0.013523,0.002678,0.000431,0.005876
30542000,0.0324,0.013523,0.002678,0.000431,0.005876
30543000,0.0324,0.013523,0.002678,0.000431,0.016571
30544000,0.0324,0.013523,0.002678,0.000431,0.166772
30545000,0.0324,0.013523,0.002678,0.000431,0.007992
30546000,0.0324,0.013523,0.002678,0.000431,0.005641
30547000,0.0324,0.013523,0.002678,0.000431,0.005876
30548000,0.0324,0.013523,0.002678,0.000431,0.005876
30549000,0.0324,0.013523,0.002678,0.000431,0.005759
30550000,0.0324,0.013523,0.002678,0.000431,0.076628
30551000,0.0324,0.013523,0.002678,0.000431,0.055591
30552000,0.0324,0.013523,0.002678,0.000431,0.005876
30553000,0.0324,0.013523,0.002678,0.000431,0.096138
30554000,0.0324,0.013523,0.002678,0.000431,0.005876
30555000,0.0324,0.013523,0.002678,0.000431,0.005876
30556000,0.0324,0.013523,0.002678,0.000431,0.005876
30557000,0.0324,0.013523,0.002678,0.000431,0.188985
30558000,0.0324,0.013523,0.002678,0.000431,0.025621
30559000,0.0324,0.013523,0.002678,0.000431,0.075336
30560000,0.0324,0.013523,0.002678,0.000431,0.086383
30561000,0.0324,0.013523,0.002678,0.000431,0.005876
30562000,0.0324,0.013523,0.002678,0.000431,0.005876
30563000,0.0324,0.013523,0.002678,0.000431,0.028677
30564000,0.0324,0.013523,0.002678,0.000431,0.043485
30565000,0.0324,0.013523,0.002678,0.000431,0.005876
30566000,0.0324,0.013523,0.002678,0.000431,0.006111
30567000,0.0324,0.013523,0.002678,0.000431,0.005876
30568000,0.0324,0.013523,0.002678,0.000431,0.005876
30569000,0.0324,0.013523,0.002678,0.000431,0.009637
30570000,0.0324,0.013523,0.002678,0.000431,0.099899
30571000,0.0324,0.013523,0.002678,0.000431,0.005876
30572000,0.0324,0.013523,0.002678,0.000431,0.009637
30573000,0.0324,0.013523,0.002678,0.000431,0.009637
30574000,0.0324,0.013523,0.002678,0.000431,0.005876
30575000,0.0324,0.013523,0.002678,0.000431,0.005876
30576000,0.0324,0.013523,0.002678,0.000431,0.017394
30577000,0.0324,0.013523,0.002678,0.000431,0.017394
30578000,0.0324,0.013523,0.002678,0.000431,0.013398
30579000,0.0324,0.013523,0.002678,0.000431,0.005876
30580000,0.0324,0.013523,0.002678,0.000431,0.005876
30581000,0.0324,0.013523,0.002678,0.000431,0.005641
30582000,0.0324,0.013523,0.002678,0.000431,0.033613
30583000,0.0324,0.013523,0.002678,0.000431,0.045836
30584000,0.0324,0.013523,0.002678,0.000431,0.005876
30585000,0.0324,0.013523,0.002678,0.000431,0.005876
30586000,0.0324,0.013523,0.002678,0.000431,0.005876
30587000,0.0324,0.013523,0.002678,0.000431,0.005641
30588000,0.0324,0.013523,0.002678,0.000431,0.005876
30589000,0.0324,0.013523,0.002678,0.000431,0.041840
30590000,0.0324,0.013523,0.002678,0.000431,0.015044
30591000,0.0324,0.013523,0.002678,0.000431,0.005876
30592000,0.0324,0.013523,0.002678,0.000431,0.051242
30593000,0.0324,0.013523,0.002678,0.000431,0.005876
30594000,0.0324,0.013523,0.002678,0.000431,0.005876
30595000,0.0324,0.013523,0.002678,0.000431,0.005876
30596000,0.0324,0.013523,0.002678,0.000431,0.005876
30597000,0.0324,0.013523,0.002678,0.000431,0.005876
30598000,0.0324,0.013523,0.002678,0.000431,0.005876
30599000,0.0324,0.013523,0.002678,0.000431,0.005524
30600000,0.0324,0.013523,0.002678,0.000431,0.005759
30601000,0.0324,0.013523,0.002678,0.000431,0.005876
30602000,0.0324,0.013523,0.002678,0.000431,0.125873
30603000,0.0324,0.013523,0.002678,0.000431,0.006111
30604000,0.0324,0.013523,0.002678,0.000431,0.013281
30605000,0.0324,0.013523,0.002678,0.000431,0.013398
30606000,0.0324,0.013523,0.002678,0.000431,0.005876
30607000,0.0324,0.013523,0.002678,0.000431,0.005876
30608000,0.0324,0.013523,0.002678,0.000431,0.058529
30609000,0.0324,0.013523,0.002678,0.000431,0.028442
30610000,0.0324,0.013523,0.002678,0.000431,0.005876
30611000,0.0324,0.013523,0.002678,0.000431,0.020920
30612000,0.0324,0.013523,0.002678,0.000431,0.005876
30613000,0.0324,0.013523,0.002678,0.000431,0.005876
30614000,0.0324,0.013523,0.002678,0.000431,0.013398
30615000,0.0324,0.013523,0.002678,0.000431,0.160896
30616000,0.0324,0.013523,0.002678,0.000431,0.038432
30617000,0.0324,0.013523,0.002678,0.000431,0.005994
30618000,0.0324,0.013523,0.002678,0.000431,0.013516
30619000,0.0324,0.013523,0.002678,0.000431,0.005876
30620000,0.0324,0.013523,0.002678,0.000431,0.005876
30621000,0.0324,0.013523,0.002678,0.000431,0.123052
30622000,0.0324,0.013523,0.002678,0.000431,0.046659
30623000,0.0324,0.013523,0.002678,0.000431,0.020920
30624000,0.0324,0.013523,0.002678,0.000431,0.006111
30625000,0.0324,0.013523,0.002678,0.000431,0.005876
30626000,0.0324,0.013523,0.002678,0.000431,0.005876
30627000,0.0324,0.013523,0.002678,0.000431,0.029970
30628000,0.0324,0.013523,0.002678,0.000431,0.176410
30629000,0.0324,0.013523,0.002678,0.000431,0.005876
30630000,0.0324,0.013523,0.002678,0.000431,0.005641
30631000,0.0324,0.013523,0.002678,0.000431,0.005876
30632000,0.0324,0.013523,0.002678,0.000431,0.005876
30633000,0.0324,0.013523,0.002678,0.000431,0.005876
30634000,0.0324,0.013523,0.002678,0.000431,0.044778
30635000,0.0324,0.013523,0.002678,0.000431,0.147498
30636000,0.0324,0.013523,0.002678,0.000431,0.005876
30637000,0.0324,0.013523,0.002678,0.000431,0.005876
30638000,0.0324,0.013523,0.002678,0.000431,0.005876
30639000,0.0324,0.013523,0.002678,0.000431,0.005876
30640000,0.0324,0.013523,0.002678,0.000431,0.005876
30641000,0.0324,0.013523,0.002678,0.000431,0.043720
30642000,0.0324,0.013523,0.002678,0.000431,0.005876
30643000,0.0324,0.013523,0.002678,0.000431,0.013398
30644000,0.0324,0.013523,0.002678,0.000431,0.005876
30645000,0.0324,0.013523,0.002678,0.000431,0.005876
30646000,0.0324,0.013523,0.002678,0.000431,0.005876
30647000,0.0324,0.013523,0.002678,0.000431,0.032203
30648000,0.0324,0.013523,0.002678,0.000431,0.024681
30649000,0.0324,0.013523,0.002678,0.000431,0.012458
30650000,0.0324,0.013523,0.002678,0.000431,0.149026
30651000,0.0324,0.013523,0.002678,0.000431,0.005876
30652000,0.0324,0.013523,0.002678,0.000431,0.005876
30653000,0.0324,0.013523,0.002678,0.000431,0.035964
30654000,0.0324,0.013523,0.002678,0.000431,0.172766
30655000,0.0324,0.013523,0.002678,0.000431,0.018805
30656000,0.0324,0.013523,0.002678,0.000431,0.015044
30657000,0.0324,0.013523,0.002678,0.000431,0.064170
30658000,0.0324,0.013523,0.002678,0.000431,0.005876
30659000,0.0324,0.013523,0.002678,0.000431,0.005876
30660000,0.0324,0.013523,0.002678,0.000431,0.058529
30661000,0.0324,0.013523,0.002678,0.000431,0.081094
30662000,0.0324,0.013523,0.002678,0.000431,0.005876
30663000,0.0324,0.013523,0.002678,0.000431,0.035964
30664000,0.0324,0.013523,0.002678,0.000431,0.013398
30665000,0.0324,0.013523,0.002678,0.000431,0.005641
30666000,0.0324,0.013523,0.002678,0.000431,0.036199
30667000,0.0324,0.013523,0.002678,0.000431,0.005876
30668000,0.0324,0.013523,0.002678,0.000431,0.020920
30669000,0.0324,0.013523,0.002678,0.000431,0.013398
30670000,0.0324,0.013523,0.002678,0.000431,0.005641
30671000,0.0324,0.013523,0.002678,0.000431,0.013398
30672000,0.0324,0.013523,0.002678,0.000431,0.020920
30673000,0.0324,0.013523,0.002678,0.000431,0.023271
30674000,0.0324,0.013523,0.002678,0.000431,0.101544
30675000,0.0324,0.013523,0.002678,0.000431,0.013398
30676000,0.0324,0.013523,0.002678,0.000431,0.038549
30677000,0.0324,0.013523,0.002678,0.000431,0.033378
30678000,0.0324,0.013523,0.002678,0.000431,0.005876
30679000,0.0324,0.013523,0.002678,0.000431,0.005994
30680000,0.0324,0.013523,0.002678,0.000431,0.006229
30681000,0.0324,0.013523,0.002678,0.000431,0.032203
30682000,0.0324,0.013523,0.002678,0.000431,0.009637
30683000,0.0324,0.013523,0.002678,0.000431,0.028442
30684000,0.0324,0.013523,0.002678,0.000431,0.005876
30685000,0.0324,0.013523,0.002678,0.000431,0.005876
30686000,0.0324,0.013523,0.002678,0.000431,0.013163
30687000,0.0324,0.013523,0.002678,0.000431,0.050890
30688000,0.0324,0.013523,0.002678,0.000431,0.005759
30689000,0.0324,0.013523,0.002678,0.000431,0.051007
30690000,0.0324,0.013523,0.002678,0.000431,0.005876
30691000,0.0324,0.013523,0.002678,0.000431,0.005876
30692000,0.0324,0.013523,0.002678,0.000431,0.020685
30693000,0.0324,0.013523,0.002678,0.000431,0.005876
30694000,0.0324,0.013523,0.002678,0.000431,0.005876
30695000,0.0324,0.013523,0.002678,0.000431,0.043720
30696000,0.0324,0.013523,0.002678,0.000431,0.006111
30697000,0.0324,0.013523,0.002678,0.000431,0.005876
30698000,0.0324,0.013523,0.002678,0.000431,0.065933
30699000,0.0324,0.013523,0.002678,0.000431,0.059469
30700000,0.0324,0.013523,0.002678,0.000431,0.012340
30701000,0.0324,0.013523,0.002678,0.000431,0.005876
30702000,0.0324,0.013523,0.002678,0.000431,0.051007
30703000,0.0324,0.013523,0.002678,0.000431,0.005876
30704000,0.0324,0.013523,0.002678,0.000431,0.005876
30705000,0.0324,0.013523,0.002678,0.000431,0.020920
30706000,0.0324,0.013523,0.002678,0.000431,0.103895
30707000,0.0324,0.013523,0.002678,0.000431,0.005876
30708000,0.0324,0.013523,0.002678,0.000431,0.005876
30709000,0.0324,0.013523,0.002678,0.000431,0.005876
30710000,0.0324,0.013523,0.002678,0.000431,0.005641
30711000,0.0324,0.013523,0.002678,0.000431,0.051007
30712000,0.0324,0.013523,0.002678,0.000431,0.036199
30713000,0.0324,0.013523,0.002678,0.000431,0.032203
30714000,0.0324,0.013523,0.002678,0.000431,0.013398
30715000,0.0324,0.013523,0.002678,0.000431,0.009637
30716000,0.0324,0.013523,0.002678,0.000431,0.005876
30717000,0.0324,0.013523,0.002678,0.000431,0.005876
30718000,0.0324,0.013523,0.002678,0.000431,0.076863
30719000,0.0324,0.013523,0.002678,0.000431,0.100369
30720000,0.0324,0.013523,0.002678,0.000431,0.005876
30721000,0.0324,0.013523,0.002678,0.000431,0.005876
30722000,0.0324,0.013523,0.002678,0.000431,0.005876
30723000,0.0324,0.013523,0.002678,0.000431,0.005876
30724000,0.0324,0.013523,0.002678,0.000431,0.121877
30725000,0.0324,0.013523,0.002678,0.000431,0.077451
30726000,0.0324,0.013523,0.002678,0.000431,0.005759
30727000,0.0324,0.013523,0.002678,0.000431,0.005641
30728000,0.0324,0.013523,0.002678,0.000431,0.005759
30729000,0.0324,0.013523,0.002678,0.000431,0.005876
30730000,0.0324,0.013523,0.002678,0.000431,0.005524
30731000,0.0324,0.013523,0.002678,0.000431,0.058882
30732000,0.0324,0.013523,0.002678,0.000431,0.013633
30733000,0.0324,0.013523,0.002678,0.000431,0.005876
30734000,0.0324,0.013523,0.002678,0.000431,0.005876
30735000,0.0324,0.013523,0.002678,0.000431,0.005876
30736000,0.0324,0.013523,0.002678,0.000431,0.020920
30737000,0.0324,0.013523,0.002678,0.000431,0.017394
30738000,0.0324,0.013523,0.002678,0.000431,0.039489
30739000,0.0324,0.013523,0.002678,0.000431,0.005876
30740000,0.0324,0.013523,0.002678,0.000431,0.013398
30741000,0.0324,0.013523,0.002678,0.000431,0.005876
30742000,0.0324,0.013523,0.002678,0.000431,0.005876
30743000,0.0324,0.013523,0.002678,0.000431,0.005876
30744000,0.0324,0.013523,0.002678,0.000431,0.045013
30745000,0.0324,0.013523,0.002678,0.000431,0.019392
30746000,0.0324,0.013523,0.002678,0.000431,0.005876
30747000,0.0324,0.013523,0.002678,0.000431,0.005876
30748000,0.0324,0.013523,0.002678,0.000431,0.005876
30749000,0.0324,0.013523,0.002678,0.000431,0.005876
30750000,0.0324,0.013523,0.002678,0.000431,0.055473
30751000,0.0324,0.013523,0.002678,0.000431,0.039372
30752000,0.0324,0.013523,0.002678,0.000431,0.005759
30753000,0.0324,0.013523,0.002678,0.000431,0.082975
30754000,0.0324,0.013523,0.002678,0.000431,0.033613
30755000,0.0324,0.013523,0.002678,0.000431,0.005876
30756000,0.0324,0.013523,0.002678,0.000431,0.005876
30757000,0.0324,0.013523,0.002678,0.000431,0.077451
30758000,0.0324,0.013523,0.002678,0.000431,0.014573
30759000,0.0324,0.013523,0.002678,0.000431,0.016101
30760000,0.0324,0.013523,0.002678,0.000431,0.051007
30761000,0.0324,0.013523,0.002678,0.000431,0.005876
30762000,0.0324,0.013523,0.002678,0.000431,0.005876
30763000,0.0324,0.013523,0.002678,0.000431,0.009637
30764000,0.0324,0.013523,0.002678,0.000431,0.157253
30765000,0.0324,0.013523,0.002678,0.000431,0.090027
30766000,0.0324,0.013523,0.002678,0.000431,0.005876
30767000,0.0324,0.013523,0.002678,0.000431,0.005876
30768000,0.0324,0.013523,0.002678,0.000431,0.005876
30769000,0.0324,0.013523,0.002678,0.000431,0.013751
30770000,0.0324,0.013523,0.002678,0.000431,0.050655
30771000,0.0324,0.013523,0.002678,0.000431,0.020685
30772000,0.0324,0.013523,0.002678,0.000431,0.005876
30773000,0.0324,0.013523,0.002678,0.000431,0.005876
30774000,0.0324,0.013523,0.002678,0.000431,0.009637
30775000,0.0324,0.013523,0.002678,0.000431,0.009872
30776000,0.0324,0.013523,0.002678,0.000431,0.009637
30777000,0.0324,0.013523,0.002678,0.000431,0.009637
30778000,0.0324,0.013523,0.002678,0.000431,0.005876
30779000,0.0324,0.013523,0.002678,0.000431,0.005876
30780000,0.0324,0.013523,0.002678,0.000431,0.005876
30781000,0.0324,0.013523,0.002678,0.000431,0.005876
30782000,0.0324,0.013523,0.002678,0.000431,0.025034
30783000,0.0324,0.013523,0.002678,0.000431,0.025269
30784000,0.0324,0.013523,0.002678,0.000431,0.027737
30785000,0.0324,0.013523,0.002678,0.000431,0.013398
30786000,0.0324,0.013523,0.002678,0.000431,0.005876
30787000,0.0324,0.013523,0.002678,0.000431,0.005876
30788000,0.0324,0.013523,0.002678,0.000431,0.005876
30789000,0.0324,0.013523,0.002678,0.000431,0.006111
30790000,0.0324,0.013523,0.002678,0.000431,0.024446
30791000,0.0324,0.013523,0.002678,0.000431,0.009520
30792000,0.0324,0.013523,0.002678,0.000431,0.122817
30793000,0.0324,0.013523,0.002678,0.000431,0.023741
30794000,0.0324,0.013523,0.002678,0.000431,0.005759
30795000,0.0324,0.013523,0.002678,0.000431,0.035846
30796000,0.0324,0.013523,0.002678,0.000431,0.009637
30797000,0.0324,0.013523,0.002678,0.000431,0.024681
30798000,0.0324,0.013523,0.002678,0.000431,0.005876
30799000,0.0324,0.013523,0.002678,0.000431,0.005876
30800000,0.0324,0.013523,0.002678,0.000431,0.005876
30801000,0.0324,0.013523,0.002678,0.000431,0.005876
30802000,0.0324,0.013523,0.002678,0.000431,0.005876
30803000,0.0324,0.013523,0.002678,0.000431,0.024916
30804000,0.0324,0.013523,0.002678,0.000431,0.009637
30805000,0.0324,0.013523,0.002678,0.000431,0.005876
30806000,0.0324,0.013523,0.002678,0.000431,0.005876
30807000,0.0324,0.013523,0.002678,0.000431,0.005876
30808000,0.0324,0.013523,0.002678,0.000431,0.020920
30809000,0.0324,0.013523,0.002678,0.000431,0.005876
30810000,0.0324,0.013523,0.002678,0.000431,0.013633
30811000,0.0324,0.013523,0.002678,0.000431,0.005876
30812000,0.0324,0.013523,0.002678,0.000431,0.005876
30813000,0.0324,0.013523,0.002678,0.000431,0.005876
30814000,0.0324,0.013523,0.002678,0.000431,0.005876
30815000,0.0324,0.013523,0.002678,0.000431,0.005876
30816000,0.0324,0.013523,0.002678,0.000431,0.005876
30817000,0.0324,0.013523,0.002678,0.000431,0.013398
30818000,0.0324,0.013523,0.002678,0.000431,0.036199
30819000,0.0324,0.013523,0.002678,0.000431,0.005876
30820000,0.0324,0.013523,0.002678,0.000431,0.005876
30821000,0.0324,0.013523,0.002678,0.000431,0.059117
30822000,0.0324,0.013523,0.002678,0.000431,0.020332
30823000,0.0324,0.013523,0.002678,0.000431,0.005876
30824000,0.0324,0.013523,0.002678,0.000431,0.013398
30825000,0.0324,0.013523,0.002678,0.000431,0.005876
30826000,0.0324,0.013523,0.002678,0.000431,0.005876
30827000,0.0324,0.013523,0.002678,0.000431,0.032555
30828000,0.0324,0.013523,0.002678,0.000431,0.209083
30829000,0.0324,0.013523,0.002678,0.000431,0.015279
30830000,0.0324,0.013523,0.002678,0.000431,0.005641
30831000,0.0324,0.013523,0.002678,0.000431,0.005876
30832000,0.0324,0.013523,0.002678,0.000431,0.005641
30833000,0.0324,0.013523,0.002678,0.000431,0.005759
30834000,0.0324,0.013523,0.002678,0.000431,0.053475
30835000,0.0324,0.013523,0.002678,0.000431,0.059704
30836000,0.0324,0.013523,0.002678,0.000431,0.009637
30837000,0.0324,0.013523,0.002678,0.000431,0.009872
30838000,0.0324,0.013523,0.002678,0.000431,0.009637
30839000,0.0324,0.013523,0.002678,0.000431,0.005876
30840000,0.0324,0.013523,0.002678,0.000431,0.018687
30841000,0.0324,0.013523,0.002678,0.000431,0.053240
30842000,0.0324,0.013523,0.002678,0.000431,0.005876
30843000,0.0324,0.013523,0.002678,0.000431,0.005876
30844000,0.0324,0.013523,0.002678,0.000431,0.005876
30845000,0.0324,0.013523,0.002678,0.000431,0.005876
30846000,0.0324,0.013523,0.002678,0.000431,0.005876
30847000,0.0324,0.013523,0.002678,0.000431,0.008345
30848000,0.0324,0.013523,0.002678,0.000431,0.018452
30849000,0.0324,0.013523,0.002678,0.000431,0.005876
30850000,0.0324,0.013523,0.002678,0.000431,0.020920
30851000,0.0324,0.013523,0.002678,0.000431,0.005876
30852000,0.0324,0.013523,0.002678,0.000431,0.005641
30853000,0.0324,0.013523,0.002678,0.000431,0.005876
30854000,0.0324,0.013523,0.002678,0.000431,0.005876
30855000,0.0324,0.013523,0.002678,0.000431,0.013398
30856000,0.0324,0.013523,0.002678,0.000431,0.025739
30857000,0.0324,0.013523,0.002678,0.000431,0.016101
30858000,0.0324,0.013523,0.002678,0.000431,0.005876
30859000,0.0324,0.013523,0.002678,0.000431,0.005876
30860000,0.0324,0.013523,0.002678,0.000431,0.024681
30861000,0.0324,0.013523,0.002678,0.000431,0.017159
30862000,0.0324,0.013523,0.002678,0.000431,0.005876
30863000,0.0324,0.013523,0.002678,0.000431,0.005876
30864000,0.0324,0.013523,0.002678,0.000431,0.005876
30865000,0.0324,0.013523,0.002678,0.000431,0.005876
30866000,0.0324,0.013523,0.002678,0.000431,0.032673
30867000,0.0324,0.013523,0.002678,0.000431,0.017159
30868000,0.0324,0.013523,0.002678,0.000431,0.005876
30869000,0.0324,0.013523,0.002678,0.000431,0.005876
30870000,0.0324,0.013523,0.002678,0.000431,0.005759
30871000,0.0324,0.013523,0.002678,0.000431,0.005759
30872000,0.0324,0.013523,0.002678,0.000431,0.005641
30873000,0.0324,0.013523,0.002678,0.000431,0.005759
30874000,0.0324,0.013523,0.002678,0.000431,0.013281
30875000,0.0324,0.013523,0.002678,0.000431,0.005641
30876000,0.0324,0.013523,0.002678,0.000431,0.005876
30877000,0.0324,0.013523,0.002678,0.000431,0.005876
30878000,0.0324,0.013523,0.002678,0.000431,0.005876
30879000,0.0324,0.013523,0.002678,0.000431,0.058764
30880000,0.0324,0.013523,0.002678,0.000431,0.126225
30881000,0.0324,0.013523,0.002678,0.000431,0.005876
30882000,0.0324,0.013523,0.002678,0.000431,0.005876
30883000,0.0324,0.013523,0.002678,0.000431,0.005876
30884000,0.0324,0.013523,0.002678,0.000431,0.005876
30885000,0.0324,0.013523,0.002678,0.000431,0.005876
30886000,0.0324,0.013523,0.002678,0.000431,0.013398
30887000,0.0324,0.013523,0.002678,0.000431,0.096138
30888000,0.0324,0.013523,0.002678,0.000431,0.009637
30889000,0.0324,0.013523,0.002678,0.000431,0.009637
30890000,0.0324,0.013523,0.002678,0.000431,0.005876
30891000,0.0324,0.013523,0.002678,0.000431,0.005876
30892000,0.0324,0.013523,0.002678,0.000431,0.005641
30893000,0.0324,0.013523,0.002678,0.000431,0.024211
30894000,0.0324,0.013523,0.002678,0.000431,0.010342
30895000,0.0324,0.013523,0.002678,0.000431,0.005876
30896000,0.0324,0.013523,0.002678,0.000431,0.005876
30897000,0.0324,0.013523,0.002678,0.000431,0.005876
30898000,0.0324,0.013523,0.002678,0.000431,0.005876
30899000,0.0324,0.013523,0.002678,0.000431,0.024681
30900000,0.0324,0.013523,0.002678,0.000431,0.017159
30901000,0.0324,0.013523,0.002678,0.000431,0.005876
30902000,0.0324,0.013523,0.002678,0.000431,0.005876
30903000,0.0324,0.013523,0.002678,0.000431,0.005876
30904000,0.0324,0.013523,0.002678,0.000431,0.005876
30905000,0.0324,0.013523,0.002678,0.000431,0.005876
30906000,0.0324,0.013523,0.002678,0.000431,0.035964
30907000,0.0324,0.013523,0.002678,0.000431,0.013398
30908000,0.0324,0.013523,0.002678,0.000431,0.005876
30909000,0.0324,0.013523,0.002678,0.000431,0.005876
30910000,0.0324,0.013523,0.002678,0.000431,0.005759
30911000,0.0324,0.013523,0.002678,0.000431,0.005759
30912000,0.0324,0.013523,0.002678,0.000431,0.020685
30913000,0.0324,0.013523,0.002678,0.000431,0.005759
30914000,0.0324,0.013523,0.002678,0.000431,0.005759
30915000,0.0324,0.013523,0.002678,0.000431,0.005641
30916000,0.0324,0.013523,0.002678,0.000431,0.005876
30917000,0.0324,0.013523,0.002678,0.000431,0.005876
30918000,0.0324,0.013523,0.002678,0.000431,0.013633
30919000,0.0324,0.013523,0.002678,0.000431,0.028442
30920000,0.0324,0.013523,0.002678,0.000431,0.134805
30921000,0.0324,0.013523,0.002678,0.000431,0.035141
30922000,0.0324,0.013523,0.002678,0.000431,0.005876
30923000,0.0324,0.013523,0.002678,0.000431,0.005876
30924000,0.0324,0.013523,0.002678,0.000431,0.005876
30925000,0.0324,0.013523,0.002678,0.000431,0.020920
30926000,0.0324,0.013523,0.002678,0.000431,0.005876
30927000,0.0324,0.013523,0.002678,0.000431,0.035023
30928000,0.0324,0.013523,0.002678,0.000431,0.014338
30929000,0.0324,0.013523,0.002678,0.000431,0.005876
30930000,0.0324,0.013523,0.002678,0.000431,0.017042
30931000,0.0324,0.013523,0.002678,0.000431,0.058882
30932000,0.0324,0.013523,0.002678,0.000431,0.017042
30933000,0.0324,0.013523,0.002678,0.000431,0.009520
30934000,0.0324,0.013523,0.002678,0.000431,0.039725
30935000,0.0324,0.013523,0.002678,0.000431,0.005876
30936000,0.0324,0.013523,0.002678,0.000431,0.005876
30937000,0.0324,0.013523,0.002678,0.000431,0.026679
30938000,0.0324,0.013523,0.002678,0.000431,0.022683
30939000,0.0324,0.013523,0.002678,0.000431,0.005876
30940000,0.0324,0.013523,0.002678,0.000431,0.013398
30941000,0.0324,0.013523,0.002678,0.000431,0.005876
30942000,0.0324,0.013523,0.002678,0.000431,0.005876
30943000,0.0324,0.013523,0.002678,0.000431,0.021155
30944000,0.0324,0.013523,0.002678,0.000431,0.027972
30945000,0.0324,0.013523,0.002678,0.000431,0.005876
30946000,0.0324,0.013523,0.002678,0.000431,0.005876
30947000,0.0324,0.013523,0.002678,0.000431,0.066051
30948000,0.0324,0.013523,0.002678,0.000431,0.005876
30949000,0.0324,0.013523,0.002678,0.000431,0.005876
30950000,0.0324,0.013523,0.002678,0.000431,0.036199
30951000,0.0324,0.013523,0.002678,0.000431,0.020685
30952000,0.0324,0.013523,0.002678,0.000431,0.005641
30953000,0.0324,0.013523,0.002678,0.000431,0.005759
30954000,0.0324,0.013523,0.002678,0.000431,0.103895
30955000,0.0324,0.013523,0.002678,0.000431,0.005759
30956000,0.0324,0.013523,0.002678,0.000431,0.039725
30957000,0.0324,0.013523,0.002678,0.000431,0.044896
30958000,0.0324,0.013523,0.002678,0.000431,0.015984
30959000,0.0324,0.013523,0.002678,0.000431,0.005876
30960000,0.0324,0.013523,0.002678,0.000431,0.021390
30961000,0.0324,0.013523,0.002678,0.000431,0.005876
30962000,0.0324,0.013523,0.002678,0.000431,0.005876
30963000,0.0324,0.013523,0.002678,0.000431,0.019510
30964000,0.0324,0.013523,0.002678,0.000431,0.022330
30965000,0.0324,0.013523,0.002678,0.000431,0.005876
30966000,0.0324,0.013523,0.002678,0.000431,0.005876
30967000,0.0324,0.013523,0.002678,0.000431,0.013398
30968000,0.0324,0.013523,0.002678,0.000431,0.005876
30969000,0.0324,0.013523,0.002678,0.000431,0.098959
30970000,0.0324,0.013523,0.002678,0.000431,0.070752
30971000,0.0324,0.013523,0.002678,0.000431,0.005876
30972000,0.0324,0.013523,0.002678,0.000431,0.013281
30973000,0.0324,0.013523,0.002678,0.000431,0.035846
30974000,0.0324,0.013523,0.002678,0.000431,0.005876
30975000,0.0324,0.013523,0.002678,0.000431,0.006229
30976000,0.0324,0.013523,0.002678,0.000431,0.050655
30977000,0.0324,0.013523,0.002678,0.000431,0.005641
30978000,0.0324,0.013523,0.002678,0.000431,0.013398
30979000,0.0324,0.013523,0.002678,0.000431,0.013398
30980000,0.0324,0.013523,0.002678,0.000431,0.005876
30981000,0.0324,0.013523,0.002678,0.000431,0.005876
30982000,0.0324,0.013523,0.002678,0.000431,0.043368
30983000,0.0324,0.013523,0.002678,0.000431,0.148673
30984000,0.0324,0.013523,0.002678,0.000431,0.005876
30985000,0.0324,0.013523,0.002678,0.000431,0.051007
30986000,0.0324,0.013523,0.002678,0.000431,0.013398
30987000,0.0324,0.013523,0.002678,0.000431,0.005876
30988000,0.0324,0.013523,0.002678,0.000431,0.013398
30989000,0.0324,0.013523,0.002678,0.000431,0.054651
30990000,0.0324,0.013523,0.002678,0.000431,0.137861
30991000,0.0324,0.013523,0.002678,0.000431,0.118703
30992000,0.0324,0.013523,0.002678,0.000431,0.005641
30993000,0.0324,0.013523,0.002678,0.000431,0.005876
30994000,0.0324,0.013523,0.002678,0.000431,0.005876
30995000,0.0324,0.013523,0.002678,0.000431,0.035964
30996000,0.0324,0.013523,0.002678,0.000431,0.013398
30997000,0.0324,0.013523,0.002678,0.000431,0.005876
30998000,0.0324,0.013523,0.002678,0.000431,0.005876
30999000,0.0324,0.013523,0.002678,0.000431,0.013398
