Cycle,Area(mm^2),PeakDynamic(W),SubthresholdLeakage(W),GateLeakage(W),RunTimeDynamic(W)
28000000,0.0324,0.013523,0.002678,0.000431,0.040430
28001000,0.0324,0.013523,0.002678,0.000431,0.016219
28002000,0.0324,0.013523,0.002678,0.000431,0.005876
28003000,0.0324,0.013523,0.002678,0.000431,0.005876
28004000,0.0324,0.013523,0.002678,0.000431,0.013398
28005000,0.0324,0.013523,0.002678,0.000431,0.005876
28006000,0.0324,0.013523,0.002678,0.000431,0.006699
28007000,0.0324,0.013523,0.002678,0.000431,0.035141
28008000,0.0324,0.013523,0.002678,0.000431,0.013281
28009000,0.0324,0.013523,0.002678,0.000431,0.020802
28010000,0.0324,0.013523,0.002678,0.000431,0.005876
28011000,0.0324,0.013523,0.002678,0.000431,0.005876
28012000,0.0324,0.013523,0.002678,0.000431,0.005876
28013000,0.0324,0.013523,0.002678,0.000431,0.073573
28014000,0.0324,0.013523,0.002678,0.000431,0.028442
28015000,0.0324,0.013523,0.002678,0.000431,0.019510
28016000,0.0324,0.013523,0.002678,0.000431,0.064405
28017000,0.0324,0.013523,0.002678,0.000431,0.008932
28018000,0.0324,0.013523,0.002678,0.000431,0.005876
28019000,0.0324,0.013523,0.002678,0.000431,0.005876
28020000,0.0324,0.013523,0.002678,0.000431,0.005876
28021000,0.0324,0.013523,0.002678,0.000431,0.005876
28022000,0.0324,0.013523,0.002678,0.000431,0.144325
28023000,0.0324,0.013523,0.002678,0.000431,0.025151
28024000,0.0324,0.013523,0.002678,0.000431,0.005876
28025000,0.0324,0.013523,0.002678,0.000431,0.005876
28026000,0.0324,0.013523,0.002678,0.000431,0.073573
28027000,0.0324,0.013523,0.002678,0.000431,0.035964
28028000,0.0324,0.013523,0.002678,0.000431,0.005876
28029000,0.0324,0.013523,0.002678,0.000431,0.020920
28030000,0.0324,0.013523,0.002678,0.000431,0.005641
28031000,0.0324,0.013523,0.002678,0.000431,0.005876
28032000,0.0324,0.013523,0.002678,0.000431,0.017159
28033000,0.0324,0.013523,0.002678,0.000431,0.033496
28034000,0.0324,0.013523,0.002678,0.000431,0.102602
28035000,0.0324,0.013523,0.002678,0.000431,0.032555
28036000,0.0324,0.013523,0.002678,0.000431,0.016807
28037000,0.0324,0.013523,0.002678,0.000431,0.005641
28038000,0.0324,0.013523,0.002678,0.000431,0.005876
28039000,0.0324,0.013523,0.002678,0.000431,0.051007
28040000,0.0324,0.013523,0.002678,0.000431,0.066638
28041000,0.0324,0.013523,0.002678,0.000431,0.028089
28042000,0.0324,0.013523,0.002678,0.000431,0.028442
28043000,0.0324,0.013523,0.002678,0.000431,0.005876
28044000,0.0324,0.013523,0.002678,0.000431,0.005876
28045000,0.0324,0.013523,0.002678,0.000431,0.020920
28046000,0.0324,0.013523,0.002678,0.000431,0.009637
28047000,0.0324,0.013523,0.002678,0.000431,0.013633
28048000,0.0324,0.013523,0.002678,0.000431,0.025504
28049000,0.0324,0.013523,0.002678,0.000431,0.049949
28050000,0.0324,0.013523,0.002678,0.000431,0.005876
28051000,0.0324,0.013523,0.002678,0.000431,0.005876
28052000,0.0324,0.013523,0.002678,0.000431,0.005876
28053000,0.0324,0.013523,0.002678,0.000431,0.021155
28054000,0.0324,0.013523,0.002678,0.000431,0.025269
28055000,0.0324,0.013523,0.002678,0.000431,0.016571
28056000,0.0324,0.013523,0.002678,0.000431,0.005876
28057000,0.0324,0.013523,0.002678,0.000431,0.005876
28058000,0.0324,0.013523,0.002678,0.000431,0.005876
28059000,0.0324,0.013523,0.002678,0.000431,0.010460
28060000,0.0324,0.013523,0.002678,0.000431,0.008697
28061000,0.0324,0.013523,0.002678,0.000431,0.080859
28062000,0.0324,0.013523,0.002678,0.000431,0.051125
28063000,0.0324,0.013523,0.002678,0.000431,0.005876
28064000,0.0324,0.013523,0.002678,0.000431,0.005876
28065000,0.0324,0.013523,0.002678,0.000431,0.005876
28066000,0.0324,0.013523,0.002678,0.000431,0.020920
28067000,0.0324,0.013523,0.002678,0.000431,0.024681
28068000,0.0324,0.013523,0.002678,0.000431,0.107421
28069000,0.0324,0.013523,0.002678,0.000431,0.005876
28070000,0.0324,0.013523,0.002678,0.000431,0.005641
28071000,0.0324,0.013523,0.002678,0.000431,0.028442
28072000,0.0324,0.013523,0.002678,0.000431,0.020920
28073000,0.0324,0.013523,0.002678,0.000431,0.013398
28074000,0.0324,0.013523,0.002678,0.000431,0.013398
28075000,0.0324,0.013523,0.002678,0.000431,0.013398
28076000,0.0324,0.013523,0.002678,0.000431,0.005876
28077000,0.0324,0.013523,0.002678,0.000431,0.009637
28078000,0.0324,0.013523,0.002678,0.000431,0.009637
28079000,0.0324,0.013523,0.002678,0.000431,0.005876
28080000,0.0324,0.013523,0.002678,0.000431,0.028442
28081000,0.0324,0.013523,0.002678,0.000431,0.020920
28082000,0.0324,0.013523,0.002678,0.000431,0.005876
28083000,0.0324,0.013523,0.002678,0.000431,0.005876
28084000,0.0324,0.013523,0.002678,0.000431,0.043485
28085000,0.0324,0.013523,0.002678,0.000431,0.013398
28086000,0.0324,0.013523,0.002678,0.000431,0.014573
28087000,0.0324,0.013523,0.002678,0.000431,0.027267
28088000,0.0324,0.013523,0.002678,0.000431,0.005641
28089000,0.0324,0.013523,0.002678,0.000431,0.005876
28090000,0.0324,0.013523,0.002678,0.000431,0.013398
28091000,0.0324,0.013523,0.002678,0.000431,0.014926
28092000,0.0324,0.013523,0.002678,0.000431,0.057001
28093000,0.0324,0.013523,0.002678,0.000431,0.014338
28094000,0.0324,0.013523,0.002678,0.000431,0.042545
28095000,0.0324,0.013523,0.002678,0.000431,0.005759
28096000,0.0324,0.013523,0.002678,0.000431,0.005759
28097000,0.0324,0.013523,0.002678,0.000431,0.013398
28098000,0.0324,0.013523,0.002678,0.000431,0.058529
28099000,0.0324,0.013523,0.002678,0.000431,0.005876
28100000,0.0324,0.013523,0.002678,0.000431,0.032203
28101000,0.0324,0.013523,0.002678,0.000431,0.009402
28102000,0.0324,0.013523,0.002678,0.000431,0.005641
28103000,0.0324,0.013523,0.002678,0.000431,0.013398
28104000,0.0324,0.013523,0.002678,0.000431,0.074513
28105000,0.0324,0.013523,0.002678,0.000431,0.049832
28106000,0.0324,0.013523,0.002678,0.000431,0.035964
28107000,0.0324,0.013523,0.002678,0.000431,0.013398
28108000,0.0324,0.013523,0.002678,0.000431,0.005876
28109000,0.0324,0.013523,0.002678,0.000431,0.005876
28110000,0.0324,0.013523,0.002678,0.000431,0.005641
28111000,0.0324,0.013523,0.002678,0.000431,0.081330
28112000,0.0324,0.013523,0.002678,0.000431,0.034436
28113000,0.0324,0.013523,0.002678,0.000431,0.014926
28114000,0.0324,0.013523,0.002678,0.000431,0.005876
28115000,0.0324,0.013523,0.002678,0.000431,0.005876
28116000,0.0324,0.013523,0.002678,0.000431,0.005876
28117000,0.0324,0.013523,0.002678,0.000431,0.147498
28118000,0.0324,0.013523,0.002678,0.000431,0.029735
28119000,0.0324,0.013523,0.002678,0.000431,0.039725
28120000,0.0324,0.013523,0.002678,0.000431,0.009637
28121000,0.0324,0.013523,0.002678,0.000431,0.005876
28122000,0.0324,0.013523,0.002678,0.000431,0.005876
28123000,0.0324,0.013523,0.002678,0.000431,0.013398
28124000,0.0324,0.013523,0.002678,0.000431,0.005876
28125000,0.0324,0.013523,0.002678,0.000431,0.028442
28126000,0.0324,0.013523,0.002678,0.000431,0.043485
28127000,0.0324,0.013523,0.002678,0.000431,0.005876
28128000,0.0324,0.013523,0.002678,0.000431,0.005876
28129000,0.0324,0.013523,0.002678,0.000431,0.014691
28130000,0.0324,0.013523,0.002678,0.000431,0.087558
28131000,0.0324,0.013523,0.002678,0.000431,0.009637
28132000,0.0324,0.013523,0.002678,0.000431,0.024681
28133000,0.0324,0.013523,0.002678,0.000431,0.005876
28134000,0.0324,0.013523,0.002678,0.000431,0.005876
28135000,0.0324,0.013523,0.002678,0.000431,0.005759
28136000,0.0324,0.013523,0.002678,0.000431,0.076393
28137000,0.0324,0.013523,0.002678,0.000431,0.033260
28138000,0.0324,0.013523,0.002678,0.000431,0.088264
28139000,0.0324,0.013523,0.002678,0.000431,0.013516
28140000,0.0324,0.013523,0.002678,0.000431,0.005876
28141000,0.0324,0.013523,0.002678,0.000431,0.005876
28142000,0.0324,0.013523,0.002678,0.000431,0.011753
28143000,0.0324,0.013523,0.002678,0.000431,0.075453
28144000,0.0324,0.013523,0.002678,0.000431,0.005876
28145000,0.0324,0.013523,0.002678,0.000431,0.028442
28146000,0.0324,0.013523,0.002678,0.000431,0.005876
28147000,0.0324,0.013523,0.002678,0.000431,0.005876
28148000,0.0324,0.013523,0.002678,0.000431,0.005759
28149000,0.0324,0.013523,0.002678,0.000431,0.028324
28150000,0.0324,0.013523,0.002678,0.000431,0.013398
28151000,0.0324,0.013523,0.002678,0.000431,0.028442
28152000,0.0324,0.013523,0.002678,0.000431,0.013398
28153000,0.0324,0.013523,0.002678,0.000431,0.005641
28154000,0.0324,0.013523,0.002678,0.000431,0.005876
28155000,0.0324,0.013523,0.002678,0.000431,0.005876
28156000,0.0324,0.013523,0.002678,0.000431,0.035964
28157000,0.0324,0.013523,0.002678,0.000431,0.013398
28158000,0.0324,0.013523,0.002678,0.000431,0.013163
28159000,0.0324,0.013523,0.002678,0.000431,0.005876
28160000,0.0324,0.013523,0.002678,0.000431,0.005876
28161000,0.0324,0.013523,0.002678,0.000431,0.005876
28162000,0.0324,0.013523,0.002678,0.000431,0.017629
28163000,0.0324,0.013523,0.002678,0.000431,0.031733
28164000,0.0324,0.013523,0.002678,0.000431,0.023858
28165000,0.0324,0.013523,0.002678,0.000431,0.010460
28166000,0.0324,0.013523,0.002678,0.000431,0.005876
28167000,0.0324,0.013523,0.002678,0.000431,0.005876
28168000,0.0324,0.013523,0.002678,0.000431,0.020920
28169000,0.0324,0.013523,0.002678,0.000431,0.028677
28170000,0.0324,0.013523,0.002678,0.000431,0.005876
28171000,0.0324,0.013523,0.002678,0.000431,0.035964
28172000,0.0324,0.013523,0.002678,0.000431,0.005876
28173000,0.0324,0.013523,0.002678,0.000431,0.005876
28174000,0.0324,0.013523,0.002678,0.000431,0.005876
28175000,0.0324,0.013523,0.002678,0.000431,0.092377
28176000,0.0324,0.013523,0.002678,0.000431,0.023976
28177000,0.0324,0.013523,0.002678,0.000431,0.013398
28178000,0.0324,0.013523,0.002678,0.000431,0.005876
28179000,0.0324,0.013523,0.002678,0.000431,0.005876
28180000,0.0324,0.013523,0.002678,0.000431,0.005876
28181000,0.0324,0.013523,0.002678,0.000431,0.005876
28182000,0.0324,0.013523,0.002678,0.000431,0.073573
28183000,0.0324,0.013523,0.002678,0.000431,0.013398
28184000,0.0324,0.013523,0.002678,0.000431,0.028442
28185000,0.0324,0.013523,0.002678,0.000431,0.005876
28186000,0.0324,0.013523,0.002678,0.000431,0.005876
28187000,0.0324,0.013523,0.002678,0.000431,0.008932
28188000,0.0324,0.013523,0.002678,0.000431,0.098724
28189000,0.0324,0.013523,0.002678,0.000431,0.023271
28190000,0.0324,0.013523,0.002678,0.000431,0.005876
28191000,0.0324,0.013523,0.002678,0.000431,0.005876
28192000,0.0324,0.013523,0.002678,0.000431,0.005876
28193000,0.0324,0.013523,0.002678,0.000431,0.005641
28194000,0.0324,0.013523,0.002678,0.000431,0.013398
28195000,0.0324,0.013523,0.002678,0.000431,0.005876
28196000,0.0324,0.013523,0.002678,0.000431,0.017042
28197000,0.0324,0.013523,0.002678,0.000431,0.047364
28198000,0.0324,0.013523,0.002678,0.000431,0.005641
28199000,0.0324,0.013523,0.002678,0.000431,0.005876
28200000,0.0324,0.013523,0.002678,0.000431,0.005876
28201000,0.0324,0.013523,0.002678,0.000431,0.102837
28202000,0.0324,0.013523,0.002678,0.000431,0.021508
28203000,0.0324,0.013523,0.002678,0.000431,0.005876
28204000,0.0324,0.013523,0.002678,0.000431,0.005876
28205000,0.0324,0.013523,0.002678,0.000431,0.005876
28206000,0.0324,0.013523,0.002678,0.000431,0.005876
28207000,0.0324,0.013523,0.002678,0.000431,0.099664
28208000,0.0324,0.013523,0.002678,0.000431,0.072162
28209000,0.0324,0.013523,0.002678,0.000431,0.026091
28210000,0.0324,0.013523,0.002678,0.000431,0.013398
28211000,0.0324,0.013523,0.002678,0.000431,0.005876
28212000,0.0324,0.013523,0.002678,0.000431,0.005876
28213000,0.0324,0.013523,0.002678,0.000431,0.005876
28214000,0.0324,0.013523,0.002678,0.000431,0.088616
28215000,0.0324,0.013523,0.002678,0.000431,0.005876
28216000,0.0324,0.013523,0.002678,0.000431,0.050772
28217000,0.0324,0.013523,0.002678,0.000431,0.005876
28218000,0.0324,0.013523,0.002678,0.000431,0.005876
28219000,0.0324,0.013523,0.002678,0.000431,0.005876
28220000,0.0324,0.013523,0.002678,0.000431,0.027972
28221000,0.0324,0.013523,0.002678,0.000431,0.028912
28222000,0.0324,0.013523,0.002678,0.000431,0.005876
28223000,0.0324,0.013523,0.002678,0.000431,0.005876
28224000,0.0324,0.013523,0.002678,0.000431,0.005876
28225000,0.0324,0.013523,0.002678,0.000431,0.005876
28226000,0.0324,0.013523,0.002678,0.000431,0.030205
28227000,0.0324,0.013523,0.002678,0.000431,0.092495
28228000,0.0324,0.013523,0.002678,0.000431,0.059939
28229000,0.0324,0.013523,0.002678,0.000431,0.013398
28230000,0.0324,0.013523,0.002678,0.000431,0.005876
28231000,0.0324,0.013523,0.002678,0.000431,0.005876
28232000,0.0324,0.013523,0.002678,0.000431,0.005876
28233000,0.0324,0.013523,0.002678,0.000431,0.027031
28234000,0.0324,0.013523,0.002678,0.000431,0.014809
28235000,0.0324,0.013523,0.002678,0.000431,0.005876
28236000,0.0324,0.013523,0.002678,0.000431,0.005876
28237000,0.0324,0.013523,0.002678,0.000431,0.005876
28238000,0.0324,0.013523,0.002678,0.000431,0.005641
28239000,0.0324,0.013523,0.002678,0.000431,0.035964
28240000,0.0324,0.013523,0.002678,0.000431,0.035023
28241000,0.0324,0.013523,0.002678,0.000431,0.051947
28242000,0.0324,0.013523,0.002678,0.000431,0.013281
28243000,0.0324,0.013523,0.002678,0.000431,0.005759
28244000,0.0324,0.013523,0.002678,0.000431,0.005876
28245000,0.0324,0.013523,0.002678,0.000431,0.005876
28246000,0.0324,0.013523,0.002678,0.000431,0.073573
28247000,0.0324,0.013523,0.002678,0.000431,0.020920
28248000,0.0324,0.013523,0.002678,0.000431,0.028442
28249000,0.0324,0.013523,0.002678,0.000431,0.005876
28250000,0.0324,0.013523,0.002678,0.000431,0.005759
28251000,0.0324,0.013523,0.002678,0.000431,0.005759
28252000,0.0324,0.013523,0.002678,0.000431,0.035611
28253000,0.0324,0.013523,0.002678,0.000431,0.070752
28254000,0.0324,0.013523,0.002678,0.000431,0.039607
28255000,0.0324,0.013523,0.002678,0.000431,0.005876
28256000,0.0324,0.013523,0.002678,0.000431,0.005641
28257000,0.0324,0.013523,0.002678,0.000431,0.005876
28258000,0.0324,0.013523,0.002678,0.000431,0.013281
28259000,0.0324,0.013523,0.002678,0.000431,0.057941
28260000,0.0324,0.013523,0.002678,0.000431,0.006582
28261000,0.0324,0.013523,0.002678,0.000431,0.051007
28262000,0.0324,0.013523,0.002678,0.000431,0.005876
28263000,0.0324,0.013523,0.002678,0.000431,0.005759
28264000,0.0324,0.013523,0.002678,0.000431,0.005759
28265000,0.0324,0.013523,0.002678,0.000431,0.013398
28266000,0.0324,0.013523,0.002678,0.000431,0.005406
28267000,0.0324,0.013523,0.002678,0.000431,0.022448
28268000,0.0324,0.013523,0.002678,0.000431,0.042193
28269000,0.0324,0.013523,0.002678,0.000431,0.005876
28270000,0.0324,0.013523,0.002678,0.000431,0.005876
28271000,0.0324,0.013523,0.002678,0.000431,0.005876
28272000,0.0324,0.013523,0.002678,0.000431,0.028442
28273000,0.0324,0.013523,0.002678,0.000431,0.051242
28274000,0.0324,0.013523,0.002678,0.000431,0.043720
28275000,0.0324,0.013523,0.002678,0.000431,0.005876
28276000,0.0324,0.013523,0.002678,0.000431,0.005876
28277000,0.0324,0.013523,0.002678,0.000431,0.005876
28278000,0.0324,0.013523,0.002678,0.000431,0.163129
28279000,0.0324,0.013523,0.002678,0.000431,0.044426
28280000,0.0324,0.013523,0.002678,0.000431,0.005876
28281000,0.0324,0.013523,0.002678,0.000431,0.005876
28282000,0.0324,0.013523,0.002678,0.000431,0.005876
28283000,0.0324,0.013523,0.002678,0.000431,0.005876
28284000,0.0324,0.013523,0.002678,0.000431,0.021508
28285000,0.0324,0.013523,0.002678,0.000431,0.024211
28286000,0.0324,0.013523,0.002678,0.000431,0.078509
28287000,0.0324,0.013523,0.002678,0.000431,0.011635
28288000,0.0324,0.013523,0.002678,0.000431,0.005876
28289000,0.0324,0.013523,0.002678,0.000431,0.005876
28290000,0.0324,0.013523,0.002678,0.000431,0.005876
28291000,0.0324,0.013523,0.002678,0.000431,0.028442
28292000,0.0324,0.013523,0.002678,0.000431,0.013398
28293000,0.0324,0.013523,0.002678,0.000431,0.028442
28294000,0.0324,0.013523,0.002678,0.000431,0.005876
28295000,0.0324,0.013523,0.002678,0.000431,0.005641
28296000,0.0324,0.013523,0.002678,0.000431,0.005641
28297000,0.0324,0.013523,0.002678,0.000431,0.020920
28298000,0.0324,0.013523,0.002678,0.000431,0.022918
28299000,0.0324,0.013523,0.002678,0.000431,0.041723
28300000,0.0324,0.013523,0.002678,0.000431,0.005876
28301000,0.0324,0.013523,0.002678,0.000431,0.005876
28302000,0.0324,0.013523,0.002678,0.000431,0.005876
28303000,0.0324,0.013523,0.002678,0.000431,0.005876
28304000,0.0324,0.013523,0.002678,0.000431,0.047011
28305000,0.0324,0.013523,0.002678,0.000431,0.047246
28306000,0.0324,0.013523,0.002678,0.000431,0.005876
28307000,0.0324,0.013523,0.002678,0.000431,0.005876
28308000,0.0324,0.013523,0.002678,0.000431,0.005876
28309000,0.0324,0.013523,0.002678,0.000431,0.005876
28310000,0.0324,0.013523,0.002678,0.000431,0.010460
28311000,0.0324,0.013523,0.002678,0.000431,0.071457
28312000,0.0324,0.013523,0.002678,0.000431,0.048774
28313000,0.0324,0.013523,0.002678,0.000431,0.020920
28314000,0.0324,0.013523,0.002678,0.000431,0.005876
28315000,0.0324,0.013523,0.002678,0.000431,0.005876
28316000,0.0324,0.013523,0.002678,0.000431,0.031733
28317000,0.0324,0.013523,0.002678,0.000431,0.055238
28318000,0.0324,0.013523,0.002678,0.000431,0.005876
28319000,0.0324,0.013523,0.002678,0.000431,0.013398
28320000,0.0324,0.013523,0.002678,0.000431,0.005876
28321000,0.0324,0.013523,0.002678,0.000431,0.005876
28322000,0.0324,0.013523,0.002678,0.000431,0.005876
28323000,0.0324,0.013523,0.002678,0.000431,0.073573
28324000,0.0324,0.013523,0.002678,0.000431,0.028442
28325000,0.0324,0.013523,0.002678,0.000431,0.076393
28326000,0.0324,0.013523,0.002678,0.000431,0.017864
28327000,0.0324,0.013523,0.002678,0.000431,0.005876
28328000,0.0324,0.013523,0.002678,0.000431,0.005876
28329000,0.0324,0.013523,0.002678,0.000431,0.013398
28330000,0.0324,0.013523,0.002678,0.000431,0.028442
28331000,0.0324,0.013523,0.002678,0.000431,0.005876
28332000,0.0324,0.013523,0.002678,0.000431,0.005876
28333000,0.0324,0.013523,0.002678,0.000431,0.005876
28334000,0.0324,0.013523,0.002678,0.000431,0.005876
28335000,0.0324,0.013523,0.002678,0.000431,0.005641
28336000,0.0324,0.013523,0.002678,0.000431,0.059939
28337000,0.0324,0.013523,0.002678,0.000431,0.034788
28338000,0.0324,0.013523,0.002678,0.000431,0.050420
28339000,0.0324,0.013523,0.002678,0.000431,0.006934
28340000,0.0324,0.013523,0.002678,0.000431,0.005876
28341000,0.0324,0.013523,0.002678,0.000431,0.005876
28342000,0.0324,0.013523,0.002678,0.000431,0.058529
28343000,0.0324,0.013523,0.002678,0.000431,0.005876
28344000,0.0324,0.013523,0.002678,0.000431,0.008580
28345000,0.0324,0.013523,0.002678,0.000431,0.010460
28346000,0.0324,0.013523,0.002678,0.000431,0.005641
28347000,0.0324,0.013523,0.002678,0.000431,0.005876
28348000,0.0324,0.013523,0.002678,0.000431,0.011165
28349000,0.0324,0.013523,0.002678,0.000431,0.075218
28350000,0.0324,0.013523,0.002678,0.000431,0.119056
28351000,0.0324,0.013523,0.002678,0.000431,0.005876
28352000,0.0324,0.013523,0.002678,0.000431,0.005876
28353000,0.0324,0.013523,0.002678,0.000431,0.005641
28354000,0.0324,0.013523,0.002678,0.000431,0.005876
28355000,0.0324,0.013523,0.002678,0.000431,0.088851
28356000,0.0324,0.013523,0.002678,0.000431,0.005876
28357000,0.0324,0.013523,0.002678,0.000431,0.013398
28358000,0.0324,0.013523,0.002678,0.000431,0.013398
28359000,0.0324,0.013523,0.002678,0.000431,0.005876
28360000,0.0324,0.013523,0.002678,0.000431,0.005876
28361000,0.0324,0.013523,0.002678,0.000431,0.013398
28362000,0.0324,0.013523,0.002678,0.000431,0.013398
28363000,0.0324,0.013523,0.002678,0.000431,0.051007
28364000,0.0324,0.013523,0.002678,0.000431,0.005876
28365000,0.0324,0.013523,0.002678,0.000431,0.005641
28366000,0.0324,0.013523,0.002678,0.000431,0.005876
28367000,0.0324,0.013523,0.002678,0.000431,0.005876
28368000,0.0324,0.013523,0.002678,0.000431,0.099429
28369000,0.0324,0.013523,0.002678,0.000431,0.039725
28370000,0.0324,0.013523,0.002678,0.000431,0.005876
28371000,0.0324,0.013523,0.002678,0.000431,0.005876
28372000,0.0324,0.013523,0.002678,0.000431,0.005876
28373000,0.0324,0.013523,0.002678,0.000431,0.005876
28374000,0.0324,0.013523,0.002678,0.000431,0.005876
28375000,0.0324,0.013523,0.002678,0.000431,0.018452
28376000,0.0324,0.013523,0.002678,0.000431,0.098606
28377000,0.0324,0.013523,0.002678,0.000431,0.028442
28378000,0.0324,0.013523,0.002678,0.000431,0.005876
28379000,0.0324,0.013523,0.002678,0.000431,0.005876
28380000,0.0324,0.013523,0.002678,0.000431,0.005876
28381000,0.0324,0.013523,0.002678,0.000431,0.101427
28382000,0.0324,0.013523,0.002678,0.000431,0.030675
28383000,0.0324,0.013523,0.002678,0.000431,0.005876
28384000,0.0324,0.013523,0.002678,0.000431,0.073573
28385000,0.0324,0.013523,0.002678,0.000431,0.005876
28386000,0.0324,0.013523,0.002678,0.000431,0.005641
28387000,0.0324,0.013523,0.002678,0.000431,0.058529
28388000,0.0324,0.013523,0.002678,0.000431,0.057589
28389000,0.0324,0.013523,0.002678,0.000431,0.029382
28390000,0.0324,0.013523,0.002678,0.000431,0.013163
28391000,0.0324,0.013523,0.002678,0.000431,0.013281
28392000,0.0324,0.013523,0.002678,0.000431,0.005759
28393000,0.0324,0.013523,0.002678,0.000431,0.005406
28394000,0.0324,0.013523,0.002678,0.000431,0.035846
28395000,0.0324,0.013523,0.002678,0.000431,0.013516
28396000,0.0324,0.013523,0.002678,0.000431,0.005876
28397000,0.0324,0.013523,0.002678,0.000431,0.005876
28398000,0.0324,0.013523,0.002678,0.000431,0.005876
28399000,0.0324,0.013523,0.002678,0.000431,0.005876
28400000,0.0324,0.013523,0.002678,0.000431,0.005876
28401000,0.0324,0.013523,0.002678,0.000431,0.035964
28402000,0.0324,0.013523,0.002678,0.000431,0.005876
28403000,0.0324,0.013523,0.002678,0.000431,0.092730
28404000,0.0324,0.013523,0.002678,0.000431,0.016571
28405000,0.0324,0.013523,0.002678,0.000431,0.005876
28406000,0.0324,0.013523,0.002678,0.000431,0.005876
28407000,0.0324,0.013523,0.002678,0.000431,0.073573
28408000,0.0324,0.013523,0.002678,0.000431,0.028442
28409000,0.0324,0.013523,0.002678,0.000431,0.005876
28410000,0.0324,0.013523,0.002678,0.000431,0.005876
28411000,0.0324,0.013523,0.002678,0.000431,0.005876
28412000,0.0324,0.013523,0.002678,0.000431,0.005876
28413000,0.0324,0.013523,0.002678,0.000431,0.017277
28414000,0.0324,0.013523,0.002678,0.000431,0.070399
28415000,0.0324,0.013523,0.002678,0.000431,0.005876
28416000,0.0324,0.013523,0.002678,0.000431,0.013398
28417000,0.0324,0.013523,0.002678,0.000431,0.005876
28418000,0.0324,0.013523,0.002678,0.000431,0.005876
28419000,0.0324,0.013523,0.002678,0.000431,0.005876
28420000,0.0324,0.013523,0.002678,0.000431,0.061350
28421000,0.0324,0.013523,0.002678,0.000431,0.010578
28422000,0.0324,0.013523,0.002678,0.000431,0.005876
28423000,0.0324,0.013523,0.002678,0.000431,0.005876
28424000,0.0324,0.013523,0.002678,0.000431,0.005876
28425000,0.0324,0.013523,0.002678,0.000431,0.005641
28426000,0.0324,0.013523,0.002678,0.000431,0.071810
28427000,0.0324,0.013523,0.002678,0.000431,0.089909
28428000,0.0324,0.013523,0.002678,0.000431,0.009637
28429000,0.0324,0.013523,0.002678,0.000431,0.009637
28430000,0.0324,0.013523,0.002678,0.000431,0.005876
28431000,0.0324,0.013523,0.002678,0.000431,0.005876
28432000,0.0324,0.013523,0.002678,0.000431,0.005876
28433000,0.0324,0.013523,0.002678,0.000431,0.095668
28434000,0.0324,0.013523,0.002678,0.000431,0.005876
28435000,0.0324,0.013523,0.002678,0.000431,0.005876
28436000,0.0324,0.013523,0.002678,0.000431,0.005876
28437000,0.0324,0.013523,0.002678,0.000431,0.005876
28438000,0.0324,0.013523,0.002678,0.000431,0.005876
28439000,0.0324,0.013523,0.002678,0.000431,0.078156
28440000,0.0324,0.013523,0.002678,0.000431,0.129399
28441000,0.0324,0.013523,0.002678,0.000431,0.013398
28442000,0.0324,0.013523,0.002678,0.000431,0.005876
28443000,0.0324,0.013523,0.002678,0.000431,0.005876
28444000,0.0324,0.013523,0.002678,0.000431,0.005876
28445000,0.0324,0.013523,0.002678,0.000431,0.005876
28446000,0.0324,0.013523,0.002678,0.000431,0.066521
28447000,0.0324,0.013523,0.002678,0.000431,0.039489
28448000,0.0324,0.013523,0.002678,0.000431,0.009637
28449000,0.0324,0.013523,0.002678,0.000431,0.005876
28450000,0.0324,0.013523,0.002678,0.000431,0.005876
28451000,0.0324,0.013523,0.002678,0.000431,0.005876
28452000,0.0324,0.013523,0.002678,0.000431,0.073338
28453000,0.0324,0.013523,0.002678,0.000431,0.020920
28454000,0.0324,0.013523,0.002678,0.000431,0.020685
28455000,0.0324,0.013523,0.002678,0.000431,0.005876
28456000,0.0324,0.013523,0.002678,0.000431,0.005876
28457000,0.0324,0.013523,0.002678,0.000431,0.005876
28458000,0.0324,0.013523,0.002678,0.000431,0.048539
28459000,0.0324,0.013523,0.002678,0.000431,0.087794
28460000,0.0324,0.013523,0.002678,0.000431,0.038549
28461000,0.0324,0.013523,0.002678,0.000431,0.005876
28462000,0.0324,0.013523,0.002678,0.000431,0.005641
28463000,0.0324,0.013523,0.002678,0.000431,0.005876
28464000,0.0324,0.013523,0.002678,0.000431,0.007169
28465000,0.0324,0.013523,0.002678,0.000431,0.102250
28466000,0.0324,0.013523,0.002678,0.000431,0.020685
28467000,0.0324,0.013523,0.002678,0.000431,0.073455
28468000,0.0324,0.013523,0.002678,0.000431,0.005876
28469000,0.0324,0.013523,0.002678,0.000431,0.005876
28470000,0.0324,0.013523,0.002678,0.000431,0.005876
28471000,0.0324,0.013523,0.002678,0.000431,0.054768
28472000,0.0324,0.013523,0.002678,0.000431,0.017159
28473000,0.0324,0.013523,0.002678,0.000431,0.016571
28474000,0.0324,0.013523,0.002678,0.000431,0.025034
28475000,0.0324,0.013523,0.002678,0.000431,0.005876
28476000,0.0324,0.013523,0.002678,0.000431,0.005876
28477000,0.0324,0.013523,0.002678,0.000431,0.034201
28478000,0.0324,0.013523,0.002678,0.000431,0.090379
28479000,0.0324,0.013523,0.002678,0.000431,0.028442
28480000,0.0324,0.013523,0.002678,0.000431,0.005876
28481000,0.0324,0.013523,0.002678,0.000431,0.005876
28482000,0.0324,0.013523,0.002678,0.000431,0.005876
28483000,0.0324,0.013523,0.002678,0.000431,0.005876
28484000,0.0324,0.013523,0.002678,0.000431,0.028442
28485000,0.0324,0.013523,0.002678,0.000431,0.081330
28486000,0.0324,0.013523,0.002678,0.000431,0.047129
28487000,0.0324,0.013523,0.002678,0.000431,0.047364
28488000,0.0324,0.013523,0.002678,0.000431,0.005876
28489000,0.0324,0.013523,0.002678,0.000431,0.005876
28490000,0.0324,0.013523,0.002678,0.000431,0.014809
28491000,0.0324,0.013523,0.002678,0.000431,0.011988
28492000,0.0324,0.013523,0.002678,0.000431,0.005759
28493000,0.0324,0.013523,0.002678,0.000431,0.005759
28494000,0.0324,0.013523,0.002678,0.000431,0.005641
28495000,0.0324,0.013523,0.002678,0.000431,0.005876
28496000,0.0324,0.013523,0.002678,0.000431,0.005876
28497000,0.0324,0.013523,0.002678,0.000431,0.073573
28498000,0.0324,0.013523,0.002678,0.000431,0.155372
28499000,0.0324,0.013523,0.002678,0.000431,0.111887
28500000,0.0324,0.013523,0.002678,0.000431,0.005876
28501000,0.0324,0.013523,0.002678,0.000431,0.005759
28502000,0.0324,0.013523,0.002678,0.000431,0.005289
28503000,0.0324,0.013523,0.002678,0.000431,0.028442
28504000,0.0324,0.013523,0.002678,0.000431,0.043485
28505000,0.0324,0.013523,0.002678,0.000431,0.079332
28506000,0.0324,0.013523,0.002678,0.000431,0.037727
28507000,0.0324,0.013523,0.002678,0.000431,0.005876
28508000,0.0324,0.013523,0.002678,0.000431,0.005876
28509000,0.0324,0.013523,0.002678,0.000431,0.005876
28510000,0.0324,0.013523,0.002678,0.000431,0.047246
28511000,0.0324,0.013523,0.002678,0.000431,0.009637
28512000,0.0324,0.013523,0.002678,0.000431,0.020920
28513000,0.0324,0.013523,0.002678,0.000431,0.005876
28514000,0.0324,0.013523,0.002678,0.000431,0.005876
28515000,0.0324,0.013523,0.002678,0.000431,0.005876
28516000,0.0324,0.013523,0.002678,0.000431,0.034788
28517000,0.0324,0.013523,0.002678,0.000431,0.105070
28518000,0.0324,0.013523,0.002678,0.000431,0.013398
28519000,0.0324,0.013523,0.002678,0.000431,0.005876
28520000,0.0324,0.013523,0.002678,0.000431,0.005876
28521000,0.0324,0.013523,0.002678,0.000431,0.005876
28522000,0.0324,0.013523,0.002678,0.000431,0.005876
28523000,0.0324,0.013523,0.002678,0.000431,0.110947
28524000,0.0324,0.013523,0.002678,0.000431,0.088264
28525000,0.0324,0.013523,0.002678,0.000431,0.027267
28526000,0.0324,0.013523,0.002678,0.000431,0.021978
28527000,0.0324,0.013523,0.002678,0.000431,0.005876
28528000,0.0324,0.013523,0.002678,0.000431,0.005876
28529000,0.0324,0.013523,0.002678,0.000431,0.036081
28530000,0.0324,0.013523,0.002678,0.000431,0.083563
28531000,0.0324,0.013523,0.002678,0.000431,0.055943
28532000,0.0324,0.013523,0.002678,0.000431,0.005876
28533000,0.0324,0.013523,0.002678,0.000431,0.005876
28534000,0.0324,0.013523,0.002678,0.000431,0.005876
28535000,0.0324,0.013523,0.002678,0.000431,0.005876
28536000,0.0324,0.013523,0.002678,0.000431,0.065698
28537000,0.0324,0.013523,0.002678,0.000431,0.028324
28538000,0.0324,0.013523,0.002678,0.000431,0.028442
28539000,0.0324,0.013523,0.002678,0.000431,0.005876
28540000,0.0324,0.013523,0.002678,0.000431,0.005876
28541000,0.0324,0.013523,0.002678,0.000431,0.005876
28542000,0.0324,0.013523,0.002678,0.000431,0.005994
28543000,0.0324,0.013523,0.002678,0.000431,0.058647
28544000,0.0324,0.013523,0.002678,0.000431,0.013398
28545000,0.0324,0.013523,0.002678,0.000431,0.005876
28546000,0.0324,0.013523,0.002678,0.000431,0.005876
28547000,0.0324,0.013523,0.002678,0.000431,0.005876
28548000,0.0324,0.013523,0.002678,0.000431,0.005876
28549000,0.0324,0.013523,0.002678,0.000431,0.028442
28550000,0.0324,0.013523,0.002678,0.000431,0.138213
28551000,0.0324,0.013523,0.002678,0.000431,0.030792
28552000,0.0324,0.013523,0.002678,0.000431,0.005876
28553000,0.0324,0.013523,0.002678,0.000431,0.005876
28554000,0.0324,0.013523,0.002678,0.000431,0.005641
28555000,0.0324,0.013523,0.002678,0.000431,0.013398
28556000,0.0324,0.013523,0.002678,0.000431,0.035964
28557000,0.0324,0.013523,0.002678,0.000431,0.043485
28558000,0.0324,0.013523,0.002678,0.000431,0.005876
28559000,0.0324,0.013523,0.002678,0.000431,0.005876
28560000,0.0324,0.013523,0.002678,0.000431,0.005876
28561000,0.0324,0.013523,0.002678,0.000431,0.005876
28562000,0.0324,0.013523,0.002678,0.000431,0.066051
28563000,0.0324,0.013523,0.002678,0.000431,0.028442
28564000,0.0324,0.013523,0.002678,0.000431,0.005876
28565000,0.0324,0.013523,0.002678,0.000431,0.005876
28566000,0.0324,0.013523,0.002678,0.000431,0.005876
28567000,0.0324,0.013523,0.002678,0.000431,0.005876
28568000,0.0324,0.013523,0.002678,0.000431,0.077334
28569000,0.0324,0.013523,0.002678,0.000431,0.069694
28570000,0.0324,0.013523,0.002678,0.000431,0.065933
28571000,0.0324,0.013523,0.002678,0.000431,0.005876
28572000,0.0324,0.013523,0.002678,0.000431,0.005876
28573000,0.0324,0.013523,0.002678,0.000431,0.005759
28574000,0.0324,0.013523,0.002678,0.000431,0.018452
28575000,0.0324,0.013523,0.002678,0.000431,0.054298
28576000,0.0324,0.013523,0.002678,0.000431,0.035846
28577000,0.0324,0.013523,0.002678,0.000431,0.028324
28578000,0.0324,0.013523,0.002678,0.000431,0.005876
28579000,0.0324,0.013523,0.002678,0.000431,0.005876
28580000,0.0324,0.013523,0.002678,0.000431,0.005876
28581000,0.0324,0.013523,0.002678,0.000431,0.020920
28582000,0.0324,0.013523,0.002678,0.000431,0.017159
28583000,0.0324,0.013523,0.002678,0.000431,0.062290
28584000,0.0324,0.013523,0.002678,0.000431,0.005876
28585000,0.0324,0.013523,0.002678,0.000431,0.005876
28586000,0.0324,0.013523,0.002678,0.000431,0.005876
28587000,0.0324,0.013523,0.002678,0.000431,0.050420
28588000,0.0324,0.013523,0.002678,0.000431,0.058882
28589000,0.0324,0.013523,0.002678,0.000431,0.015279
28590000,0.0324,0.013523,0.002678,0.000431,0.041605
28591000,0.0324,0.013523,0.002678,0.000431,0.005876
28592000,0.0324,0.013523,0.002678,0.000431,0.005876
28593000,0.0324,0.013523,0.002678,0.000431,0.005876
28594000,0.0324,0.013523,0.002678,0.000431,0.147145
28595000,0.0324,0.013523,0.002678,0.000431,0.014809
28596000,0.0324,0.013523,0.002678,0.000431,0.058529
28597000,0.0324,0.013523,0.002678,0.000431,0.005876
28598000,0.0324,0.013523,0.002678,0.000431,0.005876
28599000,0.0324,0.013523,0.002678,0.000431,0.005876
28600000,0.0324,0.013523,0.002678,0.000431,0.035964
28601000,0.0324,0.013523,0.002678,0.000431,0.005876
28602000,0.0324,0.013523,0.002678,0.000431,0.013868
28603000,0.0324,0.013523,0.002678,0.000431,0.043015
28604000,0.0324,0.013523,0.002678,0.000431,0.005876
28605000,0.0324,0.013523,0.002678,0.000431,0.005876
28606000,0.0324,0.013523,0.002678,0.000431,0.056766
28607000,0.0324,0.013523,0.002678,0.000431,0.136215
28608000,0.0324,0.013523,0.002678,0.000431,0.005876
28609000,0.0324,0.013523,0.002678,0.000431,0.040782
28610000,0.0324,0.013523,0.002678,0.000431,0.030910
28611000,0.0324,0.013523,0.002678,0.000431,0.005759
28612000,0.0324,0.013523,0.002678,0.000431,0.005759
28613000,0.0324,0.013523,0.002678,0.000431,0.058412
28614000,0.0324,0.013523,0.002678,0.000431,0.005641
28615000,0.0324,0.013523,0.002678,0.000431,0.029617
28616000,0.0324,0.013523,0.002678,0.000431,0.057001
28617000,0.0324,0.013523,0.002678,0.000431,0.005876
28618000,0.0324,0.013523,0.002678,0.000431,0.005876
28619000,0.0324,0.013523,0.002678,0.000431,0.009637
28620000,0.0324,0.013523,0.002678,0.000431,0.055003
28621000,0.0324,0.013523,0.002678,0.000431,0.005876
28622000,0.0324,0.013523,0.002678,0.000431,0.028912
28623000,0.0324,0.013523,0.002678,0.000431,0.005876
28624000,0.0324,0.013523,0.002678,0.000431,0.005876
28625000,0.0324,0.013523,0.002678,0.000431,0.005876
28626000,0.0324,0.013523,0.002678,0.000431,0.110006
28627000,0.0324,0.013523,0.002678,0.000431,0.067461
28628000,0.0324,0.013523,0.002678,0.000431,0.019157
28629000,0.0324,0.013523,0.002678,0.000431,0.045248
28630000,0.0324,0.013523,0.002678,0.000431,0.005876
28631000,0.0324,0.013523,0.002678,0.000431,0.005876
28632000,0.0324,0.013523,0.002678,0.000431,0.009637
28633000,0.0324,0.013523,0.002678,0.000431,0.017159
28634000,0.0324,0.013523,0.002678,0.000431,0.005876
28635000,0.0324,0.013523,0.002678,0.000431,0.037844
28636000,0.0324,0.013523,0.002678,0.000431,0.005876
28637000,0.0324,0.013523,0.002678,0.000431,0.005876
28638000,0.0324,0.013523,0.002678,0.000431,0.028794
28639000,0.0324,0.013523,0.002678,0.000431,0.050655
28640000,0.0324,0.013523,0.002678,0.000431,0.008462
28641000,0.0324,0.013523,0.002678,0.000431,0.014573
28642000,0.0324,0.013523,0.002678,0.000431,0.009637
28643000,0.0324,0.013523,0.002678,0.000431,0.005876
28644000,0.0324,0.013523,0.002678,0.000431,0.005759
28645000,0.0324,0.013523,0.002678,0.000431,0.020802
28646000,0.0324,0.013523,0.002678,0.000431,0.072867
28647000,0.0324,0.013523,0.002678,0.000431,0.021390
28648000,0.0324,0.013523,0.002678,0.000431,0.013398
28649000,0.0324,0.013523,0.002678,0.000431,0.005641
28650000,0.0324,0.013523,0.002678,0.000431,0.005641
28651000,0.0324,0.013523,0.002678,0.000431,0.023388
28652000,0.0324,0.013523,0.002678,0.000431,0.048539
28653000,0.0324,0.013523,0.002678,0.000431,0.005876
28654000,0.0324,0.013523,0.002678,0.000431,0.024446
28655000,0.0324,0.013523,0.002678,0.000431,0.062290
28656000,0.0324,0.013523,0.002678,0.000431,0.005876
28657000,0.0324,0.013523,0.002678,0.000431,0.013398
28658000,0.0324,0.013523,0.002678,0.000431,0.043368
28659000,0.0324,0.013523,0.002678,0.000431,0.070282
28660000,0.0324,0.013523,0.002678,0.000431,0.046659
28661000,0.0324,0.013523,0.002678,0.000431,0.020920
28662000,0.0324,0.013523,0.002678,0.000431,0.005876
28663000,0.0324,0.013523,0.002678,0.000431,0.017277
28664000,0.0324,0.013523,0.002678,0.000431,0.039489
28665000,0.0324,0.013523,0.002678,0.000431,0.013751
28666000,0.0324,0.013523,0.002678,0.000431,0.013398
28667000,0.0324,0.013523,0.002678,0.000431,0.093787
28668000,0.0324,0.013523,0.002678,0.000431,0.075688
28669000,0.0324,0.013523,0.002678,0.000431,0.005876
28670000,0.0324,0.013523,0.002678,0.000431,0.046894
28671000,0.0324,0.013523,0.002678,0.000431,0.025034
28672000,0.0324,0.013523,0.002678,0.000431,0.028442
28673000,0.0324,0.013523,0.002678,0.000431,0.005876
28674000,0.0324,0.013523,0.002678,0.000431,0.065581
28675000,0.0324,0.013523,0.002678,0.000431,0.005876
28676000,0.0324,0.013523,0.002678,0.000431,0.028559
28677000,0.0324,0.013523,0.002678,0.000431,0.020802
28678000,0.0324,0.013523,0.002678,0.000431,0.005876
28679000,0.0324,0.013523,0.002678,0.000431,0.020920
28680000,0.0324,0.013523,0.002678,0.000431,0.096138
28681000,0.0324,0.013523,0.002678,0.000431,0.005876
28682000,0.0324,0.013523,0.002678,0.000431,0.005876
28683000,0.0324,0.013523,0.002678,0.000431,0.013398
28684000,0.0324,0.013523,0.002678,0.000431,0.005876
28685000,0.0324,0.013523,0.002678,0.000431,0.005876
28686000,0.0324,0.013523,0.002678,0.000431,0.028442
28687000,0.0324,0.013523,0.002678,0.000431,0.005876
28688000,0.0324,0.013523,0.002678,0.000431,0.005876
28689000,0.0324,0.013523,0.002678,0.000431,0.058176
28690000,0.0324,0.013523,0.002678,0.000431,0.020802
28691000,0.0324,0.013523,0.002678,0.000431,0.015161
28692000,0.0324,0.013523,0.002678,0.000431,0.019862
28693000,0.0324,0.013523,0.002678,0.000431,0.095433
28694000,0.0324,0.013523,0.002678,0.000431,0.005876
28695000,0.0324,0.013523,0.002678,0.000431,0.005641
28696000,0.0324,0.013523,0.002678,0.000431,0.027972
28697000,0.0324,0.013523,0.002678,0.000431,0.021625
28698000,0.0324,0.013523,0.002678,0.000431,0.051007
28699000,0.0324,0.013523,0.002678,0.000431,0.072397
28700000,0.0324,0.013523,0.002678,0.000431,0.022095
28701000,0.0324,0.013523,0.002678,0.000431,0.005876
28702000,0.0324,0.013523,0.002678,0.000431,0.005876
28703000,0.0324,0.013523,0.002678,0.000431,0.017159
28704000,0.0324,0.013523,0.002678,0.000431,0.052888
28705000,0.0324,0.013523,0.002678,0.000431,0.015279
28706000,0.0324,0.013523,0.002678,0.000431,0.058529
28707000,0.0324,0.013523,0.002678,0.000431,0.005876
28708000,0.0324,0.013523,0.002678,0.000431,0.005876
28709000,0.0324,0.013523,0.002678,0.000431,0.026209
28710000,0.0324,0.013523,0.002678,0.000431,0.060762
28711000,0.0324,0.013523,0.002678,0.000431,0.005876
28712000,0.0324,0.013523,0.002678,0.000431,0.107656
28713000,0.0324,0.013523,0.002678,0.000431,0.008932
28714000,0.0324,0.013523,0.002678,0.000431,0.005641
28715000,0.0324,0.013523,0.002678,0.000431,0.005876
28716000,0.0324,0.013523,0.002678,0.000431,0.028677
28717000,0.0324,0.013523,0.002678,0.000431,0.013398
28718000,0.0324,0.013523,0.002678,0.000431,0.005876
28719000,0.0324,0.013523,0.002678,0.000431,0.028442
28720000,0.0324,0.013523,0.002678,0.000431,0.005641
28721000,0.0324,0.013523,0.002678,0.000431,0.005876
28722000,0.0324,0.013523,0.002678,0.000431,0.067461
28723000,0.0324,0.013523,0.002678,0.000431,0.090379
28724000,0.0324,0.013523,0.002678,0.000431,0.010460
28725000,0.0324,0.013523,0.002678,0.000431,0.103895
28726000,0.0324,0.013523,0.002678,0.000431,0.005876
28727000,0.0324,0.013523,0.002678,0.000431,0.005876
28728000,0.0324,0.013523,0.002678,0.000431,0.005876
28729000,0.0324,0.013523,0.002678,0.000431,0.027619
28730000,0.0324,0.013523,0.002678,0.000431,0.014221
28731000,0.0324,0.013523,0.002678,0.000431,0.023623
28732000,0.0324,0.013523,0.002678,0.000431,0.018452
28733000,0.0324,0.013523,0.002678,0.000431,0.005876
28734000,0.0324,0.013523,0.002678,0.000431,0.005876
28735000,0.0324,0.013523,0.002678,0.000431,0.029147
28736000,0.0324,0.013523,0.002678,0.000431,0.028442
28737000,0.0324,0.013523,0.002678,0.000431,0.005876
28738000,0.0324,0.013523,0.002678,0.000431,0.116235
28739000,0.0324,0.013523,0.002678,0.000431,0.015866
28740000,0.0324,0.013523,0.002678,0.000431,0.005759
28741000,0.0324,0.013523,0.002678,0.000431,0.005759
28742000,0.0324,0.013523,0.002678,0.000431,0.043250
28743000,0.0324,0.013523,0.002678,0.000431,0.005876
28744000,0.0324,0.013523,0.002678,0.000431,0.046894
28745000,0.0324,0.013523,0.002678,0.000431,0.009990
28746000,0.0324,0.013523,0.002678,0.000431,0.005876
28747000,0.0324,0.013523,0.002678,0.000431,0.005876
28748000,0.0324,0.013523,0.002678,0.000431,0.020920
28749000,0.0324,0.013523,0.002678,0.000431,0.005876
28750000,0.0324,0.013523,0.002678,0.000431,0.005876
28751000,0.0324,0.013523,0.002678,0.000431,0.044778
28752000,0.0324,0.013523,0.002678,0.000431,0.012105
28753000,0.0324,0.013523,0.002678,0.000431,0.005876
28754000,0.0324,0.013523,0.002678,0.000431,0.009402
28755000,0.0324,0.013523,0.002678,0.000431,0.017159
28756000,0.0324,0.013523,0.002678,0.000431,0.005876
28757000,0.0324,0.013523,0.002678,0.000431,0.020920
28758000,0.0324,0.013523,0.002678,0.000431,0.005876
28759000,0.0324,0.013523,0.002678,0.000431,0.005876
28760000,0.0324,0.013523,0.002678,0.000431,0.005641
28761000,0.0324,0.013523,0.002678,0.000431,0.034318
28762000,0.0324,0.013523,0.002678,0.000431,0.060174
28763000,0.0324,0.013523,0.002678,0.000431,0.013046
28764000,0.0324,0.013523,0.002678,0.000431,0.073925
28765000,0.0324,0.013523,0.002678,0.000431,0.013398
28766000,0.0324,0.013523,0.002678,0.000431,0.005876
28767000,0.0324,0.013523,0.002678,0.000431,0.014573
28768000,0.0324,0.013523,0.002678,0.000431,0.012223
28769000,0.0324,0.013523,0.002678,0.000431,0.005876
28770000,0.0324,0.013523,0.002678,0.000431,0.035729
28771000,0.0324,0.013523,0.002678,0.000431,0.005876
28772000,0.0324,0.013523,0.002678,0.000431,0.035964
28773000,0.0324,0.013523,0.002678,0.000431,0.005876
28774000,0.0324,0.013523,0.002678,0.000431,0.054651
28775000,0.0324,0.013523,0.002678,0.000431,0.017277
28776000,0.0324,0.013523,0.002678,0.000431,0.013163
28777000,0.0324,0.013523,0.002678,0.000431,0.006111
28778000,0.0324,0.013523,0.002678,0.000431,0.094963
28779000,0.0324,0.013523,0.002678,0.000431,0.007052
28780000,0.0324,0.013523,0.002678,0.000431,0.005876
28781000,0.0324,0.013523,0.002678,0.000431,0.133747
28782000,0.0324,0.013523,0.002678,0.000431,0.005759
28783000,0.0324,0.013523,0.002678,0.000431,0.005759
28784000,0.0324,0.013523,0.002678,0.000431,0.009637
28785000,0.0324,0.013523,0.002678,0.000431,0.009637
28786000,0.0324,0.013523,0.002678,0.000431,0.005876
28787000,0.0324,0.013523,0.002678,0.000431,0.067344
28788000,0.0324,0.013523,0.002678,0.000431,0.019627
28789000,0.0324,0.013523,0.002678,0.000431,0.032673
28790000,0.0324,0.013523,0.002678,0.000431,0.008932
28791000,0.0324,0.013523,0.002678,0.000431,0.035964
28792000,0.0324,0.013523,0.002678,0.000431,0.013398
28793000,0.0324,0.013523,0.002678,0.000431,0.005876
28794000,0.0324,0.013523,0.002678,0.000431,0.116705
28795000,0.0324,0.013523,0.002678,0.000431,0.037727
28796000,0.0324,0.013523,0.002678,0.000431,0.043720
28797000,0.0324,0.013523,0.002678,0.000431,0.017159
28798000,0.0324,0.013523,0.002678,0.000431,0.009637
28799000,0.0324,0.013523,0.002678,0.000431,0.005876
28800000,0.0324,0.013523,0.002678,0.000431,0.005641
28801000,0.0324,0.013523,0.002678,0.000431,0.005876
28802000,0.0324,0.013523,0.002678,0.000431,0.024093
28803000,0.0324,0.013523,0.002678,0.000431,0.032790
28804000,0.0324,0.013523,0.002678,0.000431,0.028442
28805000,0.0324,0.013523,0.002678,0.000431,0.005876
28806000,0.0324,0.013523,0.002678,0.000431,0.005876
28807000,0.0324,0.013523,0.002678,0.000431,0.013398
28808000,0.0324,0.013523,0.002678,0.000431,0.013281
28809000,0.0324,0.013523,0.002678,0.000431,0.058412
28810000,0.0324,0.013523,0.002678,0.000431,0.032203
28811000,0.0324,0.013523,0.002678,0.000431,0.017159
28812000,0.0324,0.013523,0.002678,0.000431,0.010225
28813000,0.0324,0.013523,0.002678,0.000431,0.042898
28814000,0.0324,0.013523,0.002678,0.000431,0.032203
28815000,0.0324,0.013523,0.002678,0.000431,0.017042
28816000,0.0324,0.013523,0.002678,0.000431,0.033260
28817000,0.0324,0.013523,0.002678,0.000431,0.005876
28818000,0.0324,0.013523,0.002678,0.000431,0.005876
28819000,0.0324,0.013523,0.002678,0.000431,0.051007
28820000,0.0324,0.013523,0.002678,0.000431,0.013398
28821000,0.0324,0.013523,0.002678,0.000431,0.020685
28822000,0.0324,0.013523,0.002678,0.000431,0.088616
28823000,0.0324,0.013523,0.002678,0.000431,0.028442
28824000,0.0324,0.013523,0.002678,0.000431,0.005876
28825000,0.0324,0.013523,0.002678,0.000431,0.024681
28826000,0.0324,0.013523,0.002678,0.000431,0.032438
28827000,0.0324,0.013523,0.002678,0.000431,0.005876
28828000,0.0324,0.013523,0.002678,0.000431,0.005994
28829000,0.0324,0.013523,0.002678,0.000431,0.028207
28830000,0.0324,0.013523,0.002678,0.000431,0.013046
28831000,0.0324,0.013523,0.002678,0.000431,0.005876
28832000,0.0324,0.013523,0.002678,0.000431,0.020920
28833000,0.0324,0.013523,0.002678,0.000431,0.053475
28834000,0.0324,0.013523,0.002678,0.000431,0.010930
28835000,0.0324,0.013523,0.002678,0.000431,0.061585
28836000,0.0324,0.013523,0.002678,0.000431,0.032908
28837000,0.0324,0.013523,0.002678,0.000431,0.005876
28838000,0.0324,0.013523,0.002678,0.000431,0.005876
28839000,0.0324,0.013523,0.002678,0.000431,0.005876
28840000,0.0324,0.013523,0.002678,0.000431,0.020802
28841000,0.0324,0.013523,0.002678,0.000431,0.024563
28842000,0.0324,0.013523,0.002678,0.000431,0.054768
28843000,0.0324,0.013523,0.002678,0.000431,0.043250
28844000,0.0324,0.013523,0.002678,0.000431,0.005876
28845000,0.0324,0.013523,0.002678,0.000431,0.005876
28846000,0.0324,0.013523,0.002678,0.000431,0.020920
28847000,0.0324,0.013523,0.002678,0.000431,0.005876
28848000,0.0324,0.013523,0.002678,0.000431,0.028912
28849000,0.0324,0.013523,0.002678,0.000431,0.013398
28850000,0.0324,0.013523,0.002678,0.000431,0.005876
28851000,0.0324,0.013523,0.002678,0.000431,0.005876
28852000,0.0324,0.013523,0.002678,0.000431,0.009637
28853000,0.0324,0.013523,0.002678,0.000431,0.009637
28854000,0.0324,0.013523,0.002678,0.000431,0.022448
28855000,0.0324,0.013523,0.002678,0.000431,0.027149
28856000,0.0324,0.013523,0.002678,0.000431,0.005876
28857000,0.0324,0.013523,0.002678,0.000431,0.005876
28858000,0.0324,0.013523,0.002678,0.000431,0.005876
28859000,0.0324,0.013523,0.002678,0.000431,0.080624
28860000,0.0324,0.013523,0.002678,0.000431,0.005876
28861000,0.0324,0.013523,0.002678,0.000431,0.036081
28862000,0.0324,0.013523,0.002678,0.000431,0.043603
28863000,0.0324,0.013523,0.002678,0.000431,0.005876
28864000,0.0324,0.013523,0.002678,0.000431,0.020920
28865000,0.0324,0.013523,0.002678,0.000431,0.016336
28866000,0.0324,0.013523,0.002678,0.000431,0.055591
28867000,0.0324,0.013523,0.002678,0.000431,0.026796
28868000,0.0324,0.013523,0.002678,0.000431,0.030087
28869000,0.0324,0.013523,0.002678,0.000431,0.005876
28870000,0.0324,0.013523,0.002678,0.000431,0.005641
28871000,0.0324,0.013523,0.002678,0.000431,0.020920
28872000,0.0324,0.013523,0.002678,0.000431,0.009637
28873000,0.0324,0.013523,0.002678,0.000431,0.017159
28874000,0.0324,0.013523,0.002678,0.000431,0.073338
28875000,0.0324,0.013523,0.002678,0.000431,0.005876
28876000,0.0324,0.013523,0.002678,0.000431,0.005876
28877000,0.0324,0.013523,0.002678,0.000431,0.034318
28878000,0.0324,0.013523,0.002678,0.000431,0.026091
28879000,0.0324,0.013523,0.002678,0.000431,0.017159
28880000,0.0324,0.013523,0.002678,0.000431,0.062290
28881000,0.0324,0.013523,0.002678,0.000431,0.024681
28882000,0.0324,0.013523,0.002678,0.000431,0.005876
28883000,0.0324,0.013523,0.002678,0.000431,0.026796
28884000,0.0324,0.013523,0.002678,0.000431,0.015279
28885000,0.0324,0.013523,0.002678,0.000431,0.005876
28886000,0.0324,0.013523,0.002678,0.000431,0.020920
28887000,0.0324,0.013523,0.002678,0.000431,0.055003
28888000,0.0324,0.013523,0.002678,0.000431,0.005876
28889000,0.0324,0.013523,0.002678,0.000431,0.005876
28890000,0.0324,0.013523,0.002678,0.000431,0.066051
28891000,0.0324,0.013523,0.002678,0.000431,0.013398
28892000,0.0324,0.013523,0.002678,0.000431,0.005876
28893000,0.0324,0.013523,0.002678,0.000431,0.017159
28894000,0.0324,0.013523,0.002678,0.000431,0.009637
28895000,0.0324,0.013523,0.002678,0.000431,0.005876
28896000,0.0324,0.013523,0.002678,0.000431,0.073808
28897000,0.0324,0.013523,0.002678,0.000431,0.005876
28898000,0.0324,0.013523,0.002678,0.000431,0.028442
28899000,0.0324,0.013523,0.002678,0.000431,0.013398
28900000,0.0324,0.013523,0.002678,0.000431,0.103660
28901000,0.0324,0.013523,0.002678,0.000431,0.005876
28902000,0.0324,0.013523,0.002678,0.000431,0.005876
28903000,0.0324,0.013523,0.002678,0.000431,0.005876
28904000,0.0324,0.013523,0.002678,0.000431,0.035964
28905000,0.0324,0.013523,0.002678,0.000431,0.009637
28906000,0.0324,0.013523,0.002678,0.000431,0.013398
28907000,0.0324,0.013523,0.002678,0.000431,0.009637
28908000,0.0324,0.013523,0.002678,0.000431,0.005876
28909000,0.0324,0.013523,0.002678,0.000431,0.021155
28910000,0.0324,0.013523,0.002678,0.000431,0.017747
28911000,0.0324,0.013523,0.002678,0.000431,0.038902
28912000,0.0324,0.013523,0.002678,0.000431,0.116823
28913000,0.0324,0.013523,0.002678,0.000431,0.052653
28914000,0.0324,0.013523,0.002678,0.000431,0.005876
28915000,0.0324,0.013523,0.002678,0.000431,0.009402
28916000,0.0324,0.013523,0.002678,0.000431,0.009637
28917000,0.0324,0.013523,0.002678,0.000431,0.032203
28918000,0.0324,0.013523,0.002678,0.000431,0.009520
28919000,0.0324,0.013523,0.002678,0.000431,0.069694
28920000,0.0324,0.013523,0.002678,0.000431,0.032203
28921000,0.0324,0.013523,0.002678,0.000431,0.005876
28922000,0.0324,0.013523,0.002678,0.000431,0.005876
28923000,0.0324,0.013523,0.002678,0.000431,0.032203
28924000,0.0324,0.013523,0.002678,0.000431,0.009637
28925000,0.0324,0.013523,0.002678,0.000431,0.043015
28926000,0.0324,0.013523,0.002678,0.000431,0.096373
28927000,0.0324,0.013523,0.002678,0.000431,0.005876
28928000,0.0324,0.013523,0.002678,0.000431,0.005876
28929000,0.0324,0.013523,0.002678,0.000431,0.005876
28930000,0.0324,0.013523,0.002678,0.000431,0.037256
28931000,0.0324,0.013523,0.002678,0.000431,0.005759
28932000,0.0324,0.013523,0.002678,0.000431,0.013398
28933000,0.0324,0.013523,0.002678,0.000431,0.005876
28934000,0.0324,0.013523,0.002678,0.000431,0.005876
28935000,0.0324,0.013523,0.002678,0.000431,0.013398
28936000,0.0324,0.013523,0.002678,0.000431,0.028677
28937000,0.0324,0.013523,0.002678,0.000431,0.005876
28938000,0.0324,0.013523,0.002678,0.000431,0.005641
28939000,0.0324,0.013523,0.002678,0.000431,0.013398
28940000,0.0324,0.013523,0.002678,0.000431,0.005641
28941000,0.0324,0.013523,0.002678,0.000431,0.005876
28942000,0.0324,0.013523,0.002678,0.000431,0.026326
28943000,0.0324,0.013523,0.002678,0.000431,0.023036
28944000,0.0324,0.013523,0.002678,0.000431,0.009872
28945000,0.0324,0.013523,0.002678,0.000431,0.033496
28946000,0.0324,0.013523,0.002678,0.000431,0.007052
28947000,0.0324,0.013523,0.002678,0.000431,0.007052
28948000,0.0324,0.013523,0.002678,0.000431,0.006699
28949000,0.0324,0.013523,0.002678,0.000431,0.028677
28950000,0.0324,0.013523,0.002678,0.000431,0.009637
28951000,0.0324,0.013523,0.002678,0.000431,0.032203
28952000,0.0324,0.013523,0.002678,0.000431,0.005876
28953000,0.0324,0.013523,0.002678,0.000431,0.005876
28954000,0.0324,0.013523,0.002678,0.000431,0.005876
28955000,0.0324,0.013523,0.002678,0.000431,0.022683
28956000,0.0324,0.013523,0.002678,0.000431,0.071810
28957000,0.0324,0.013523,0.002678,0.000431,0.050890
28958000,0.0324,0.013523,0.002678,0.000431,0.013281
28959000,0.0324,0.013523,0.002678,0.000431,0.005641
28960000,0.0324,0.013523,0.002678,0.000431,0.005876
28961000,0.0324,0.013523,0.002678,0.000431,0.005876
28962000,0.0324,0.013523,0.002678,0.000431,0.047599
28963000,0.0324,0.013523,0.002678,0.000431,0.016807
28964000,0.0324,0.013523,0.002678,0.000431,0.043485
28965000,0.0324,0.013523,0.002678,0.000431,0.006464
28966000,0.0324,0.013523,0.002678,0.000431,0.044661
28967000,0.0324,0.013523,0.002678,0.000431,0.007052
28968000,0.0324,0.013523,0.002678,0.000431,0.029617
28969000,0.0324,0.013523,0.002678,0.000431,0.006464
28970000,0.0324,0.013523,0.002678,0.000431,0.070047
28971000,0.0324,0.013523,0.002678,0.000431,0.047246
28972000,0.0324,0.013523,0.002678,0.000431,0.035964
28973000,0.0324,0.013523,0.002678,0.000431,0.005876
28974000,0.0324,0.013523,0.002678,0.000431,0.005876
28975000,0.0324,0.013523,0.002678,0.000431,0.084855
28976000,0.0324,0.013523,0.002678,0.000431,0.009520
28977000,0.0324,0.013523,0.002678,0.000431,0.005759
28978000,0.0324,0.013523,0.002678,0.000431,0.031380
28979000,0.0324,0.013523,0.002678,0.000431,0.040547
28980000,0.0324,0.013523,0.002678,0.000431,0.005876
28981000,0.0324,0.013523,0.002678,0.000431,0.005876
28982000,0.0324,0.013523,0.002678,0.000431,0.005876
28983000,0.0324,0.013523,0.002678,0.000431,0.005876
28984000,0.0324,0.013523,0.002678,0.000431,0.035964
28985000,0.0324,0.013523,0.002678,0.000431,0.035964
28986000,0.0324,0.013523,0.002678,0.000431,0.005876
28987000,0.0324,0.013523,0.002678,0.000431,0.005876
28988000,0.0324,0.013523,0.002678,0.000431,0.005876
28989000,0.0324,0.013523,0.002678,0.000431,0.005876
28990000,0.0324,0.013523,0.002678,0.000431,0.013398
28991000,0.0324,0.013523,0.002678,0.000431,0.043368
28992000,0.0324,0.013523,0.002678,0.000431,0.021038
28993000,0.0324,0.013523,0.002678,0.000431,0.005876
28994000,0.0324,0.013523,0.002678,0.000431,0.020920
28995000,0.0324,0.013523,0.002678,0.000431,0.005876
28996000,0.0324,0.013523,0.002678,0.000431,0.005876
28997000,0.0324,0.013523,0.002678,0.000431,0.013281
28998000,0.0324,0.013523,0.002678,0.000431,0.005759
28999000,0.0324,0.013523,0.002678,0.000431,0.005876
