Cycle,Area(mm^2),PeakDynamic(W),SubthresholdLeakage(W),GateLeakage(W),RunTimeDynamic(W)
6000000,0.0324,0.013523,0.002678,0.000431,0.114002
6001000,0.0324,0.013523,0.002678,0.000431,0.076746
6002000,0.0324,0.013523,0.002678,0.000431,0.173001
6003000,0.0324,0.013523,0.002678,0.000431,0.080859
6004000,0.0324,0.013523,0.002678,0.000431,0.212373
6005000,0.0324,0.013523,0.002678,0.000431,0.270432
6006000,0.0324,0.013523,0.002678,0.000431,0.161249
6007000,0.0324,0.013523,0.002678,0.000431,0.197095
6008000,0.0324,0.013523,0.002678,0.000431,0.192276
6009000,0.0324,0.013523,0.002678,0.000431,0.237172
6010000,0.0324,0.013523,0.002678,0.000431,0.178290
6011000,0.0324,0.013523,0.002678,0.000431,0.094963
6012000,0.0324,0.013523,0.002678,0.000431,0.166890
6013000,0.0324,0.013523,0.002678,0.000431,0.044191
6014000,0.0324,0.013523,0.002678,0.000431,0.094023
6015000,0.0324,0.013523,0.002678,0.000431,0.176762
6016000,0.0324,0.013523,0.002678,0.000431,0.106716
6017000,0.0324,0.013523,0.002678,0.000431,0.098841
6018000,0.0324,0.013523,0.002678,0.000431,0.139976
6019000,0.0324,0.013523,0.002678,0.000431,0.209435
6020000,0.0324,0.013523,0.002678,0.000431,0.059822
6021000,0.0324,0.013523,0.002678,0.000431,0.173354
6022000,0.0324,0.013523,0.002678,0.000431,0.126343
6023000,0.0324,0.013523,0.002678,0.000431,0.360694
6024000,0.0324,0.013523,0.002678,0.000431,0.086736
6025000,0.0324,0.013523,0.002678,0.000431,0.093435
6026000,0.0324,0.013523,0.002678,0.000431,0.130691
6027000,0.0324,0.013523,0.002678,0.000431,0.046306
6028000,0.0324,0.013523,0.002678,0.000431,0.050185
6029000,0.0324,0.013523,0.002678,0.000431,0.072867
6030000,0.0324,0.013523,0.002678,0.000431,0.194274
6031000,0.0324,0.013523,0.002678,0.000431,0.074748
6032000,0.0324,0.013523,0.002678,0.000431,0.068049
6033000,0.0324,0.013523,0.002678,0.000431,0.103425
6034000,0.0324,0.013523,0.002678,0.000431,0.192629
6035000,0.0324,0.013523,0.002678,0.000431,0.098959
6036000,0.0324,0.013523,0.002678,0.000431,0.258092
6037000,0.0324,0.013523,0.002678,0.000431,0.086383
6038000,0.0324,0.013523,0.002678,0.000431,0.147615
6039000,0.0324,0.013523,0.002678,0.000431,0.118351
6040000,0.0324,0.013523,0.002678,0.000431,0.260090
6041000,0.0324,0.013523,0.002678,0.000431,0.184519
6042000,0.0324,0.013523,0.002678,0.000431,0.205557
6043000,0.0324,0.013523,0.002678,0.000431,0.513128
6044000,0.0324,0.013523,0.002678,0.000431,0.157605
6045000,0.0324,0.013523,0.002678,0.000431,0.264321
6046000,0.0324,0.013523,0.002678,0.000431,0.229062
6047000,0.0324,0.013523,0.002678,0.000431,0.151611
6048000,0.0324,0.013523,0.002678,0.000431,0.065111
6049000,0.0324,0.013523,0.002678,0.000431,0.286181
6050000,0.0324,0.013523,0.002678,0.000431,0.445197
6051000,0.0324,0.013523,0.002678,0.000431,0.083798
6052000,0.0324,0.013523,0.002678,0.000431,0.092847
6053000,0.0324,0.013523,0.002678,0.000431,0.074983
6054000,0.0324,0.013523,0.002678,0.000431,0.060997
6055000,0.0324,0.013523,0.002678,0.000431,0.050655
6056000,0.0324,0.013523,0.002678,0.000431,0.165362
6057000,0.0324,0.013523,0.002678,0.000431,0.246222
6058000,0.0324,0.013523,0.002678,0.000431,0.383142
6059000,0.0324,0.013523,0.002678,0.000431,0.065346
6060000,0.0324,0.013523,0.002678,0.000431,0.117998
6061000,0.0324,0.013523,0.002678,0.000431,0.050067
6062000,0.0324,0.013523,0.002678,0.000431,0.102955
6063000,0.0324,0.013523,0.002678,0.000431,0.233293
6064000,0.0324,0.013523,0.002678,0.000431,0.316033
6065000,0.0324,0.013523,0.002678,0.000431,0.088851
6066000,0.0324,0.013523,0.002678,0.000431,0.072867
6067000,0.0324,0.013523,0.002678,0.000431,0.114355
6068000,0.0324,0.013523,0.002678,0.000431,0.180758
6069000,0.0324,0.013523,0.002678,0.000431,0.085090
6070000,0.0324,0.013523,0.002678,0.000431,0.105540
6071000,0.0324,0.013523,0.002678,0.000431,0.205909
6072000,0.0324,0.013523,0.002678,0.000431,0.063230
6073000,0.0324,0.013523,0.002678,0.000431,0.149143
6074000,0.0324,0.013523,0.002678,0.000431,0.100369
6075000,0.0324,0.013523,0.002678,0.000431,0.122464
6076000,0.0324,0.013523,0.002678,0.000431,0.050302
6077000,0.0324,0.013523,0.002678,0.000431,0.191453
6078000,0.0324,0.013523,0.002678,0.000431,0.187105
6079000,0.0324,0.013523,0.002678,0.000431,0.221071
6080000,0.0324,0.013523,0.002678,0.000431,0.062172
6081000,0.0324,0.013523,0.002678,0.000431,0.163482
6082000,0.0324,0.013523,0.002678,0.000431,0.158075
6083000,0.0324,0.013523,0.002678,0.000431,0.043485
6084000,0.0324,0.013523,0.002678,0.000431,0.148791
6085000,0.0324,0.013523,0.002678,0.000431,0.065698
6086000,0.0324,0.013523,0.002678,0.000431,0.149966
6087000,0.0324,0.013523,0.002678,0.000431,0.116353
6088000,0.0324,0.013523,0.002678,0.000431,0.128223
6089000,0.0324,0.013523,0.002678,0.000431,0.199798
6090000,0.0324,0.013523,0.002678,0.000431,0.142562
6091000,0.0324,0.013523,0.002678,0.000431,0.101662
6092000,0.0324,0.013523,0.002678,0.000431,0.081330
6093000,0.0324,0.013523,0.002678,0.000431,0.112592
6094000,0.0324,0.013523,0.002678,0.000431,0.114825
6095000,0.0324,0.013523,0.002678,0.000431,0.136215
6096000,0.0324,0.013523,0.002678,0.000431,0.072397
6097000,0.0324,0.013523,0.002678,0.000431,0.107068
6098000,0.0324,0.013523,0.002678,0.000431,0.052653
6099000,0.0324,0.013523,0.002678,0.000431,0.152787
6100000,0.0324,0.013523,0.002678,0.000431,0.140329
6101000,0.0324,0.013523,0.002678,0.000431,0.181228
6102000,0.0324,0.013523,0.002678,0.000431,0.244459
6103000,0.0324,0.013523,0.002678,0.000431,0.200973
6104000,0.0324,0.013523,0.002678,0.000431,0.098841
6105000,0.0324,0.013523,0.002678,0.000431,0.145500
6106000,0.0324,0.013523,0.002678,0.000431,0.329902
6107000,0.0324,0.013523,0.002678,0.000431,0.049949
6108000,0.0324,0.013523,0.002678,0.000431,0.065111
6109000,0.0324,0.013523,0.002678,0.000431,0.115765
6110000,0.0324,0.013523,0.002678,0.000431,0.119056
6111000,0.0324,0.013523,0.002678,0.000431,0.073220
6112000,0.0324,0.013523,0.002678,0.000431,0.046071
6113000,0.0324,0.013523,0.002678,0.000431,0.232823
6114000,0.0324,0.013523,0.002678,0.000431,0.287591
6115000,0.0324,0.013523,0.002678,0.000431,0.232823
6116000,0.0324,0.013523,0.002678,0.000431,0.200621
6117000,0.0324,0.013523,0.002678,0.000431,0.173354
6118000,0.0324,0.013523,0.002678,0.000431,0.097431
6119000,0.0324,0.013523,0.002678,0.000431,0.168418
6120000,0.0324,0.013523,0.002678,0.000431,0.127283
6121000,0.0324,0.013523,0.002678,0.000431,0.221423
6122000,0.0324,0.013523,0.002678,0.000431,0.200386
6123000,0.0324,0.013523,0.002678,0.000431,0.083563
6124000,0.0324,0.013523,0.002678,0.000431,0.069224
6125000,0.0324,0.013523,0.002678,0.000431,0.151494
6126000,0.0324,0.013523,0.002678,0.000431,0.102720
6127000,0.0324,0.013523,0.002678,0.000431,0.103307
6128000,0.0324,0.013523,0.002678,0.000431,0.205557
6129000,0.0324,0.013523,0.002678,0.000431,0.213431
6130000,0.0324,0.013523,0.002678,0.000431,0.061585
6131000,0.0324,0.013523,0.002678,0.000431,0.066874
6132000,0.0324,0.013523,0.002678,0.000431,0.234469
6133000,0.0324,0.013523,0.002678,0.000431,0.168300
6134000,0.0324,0.013523,0.002678,0.000431,0.158781
6135000,0.0324,0.013523,0.002678,0.000431,0.188045
6136000,0.0324,0.013523,0.002678,0.000431,0.305221
6137000,0.0324,0.013523,0.002678,0.000431,0.059939
6138000,0.0324,0.013523,0.002678,0.000431,0.179113
6139000,0.0324,0.013523,0.002678,0.000431,0.363045
6140000,0.0324,0.013523,0.002678,0.000431,0.218837
6141000,0.0324,0.013523,0.002678,0.000431,0.188163
6142000,0.0324,0.013523,0.002678,0.000431,0.264556
6143000,0.0324,0.013523,0.002678,0.000431,0.132924
6144000,0.0324,0.013523,0.002678,0.000431,0.152199
6145000,0.0324,0.013523,0.002678,0.000431,0.257387
6146000,0.0324,0.013523,0.002678,0.000431,0.367511
6147000,0.0324,0.013523,0.002678,0.000431,0.378793
6148000,0.0324,0.013523,0.002678,0.000431,0.202971
6149000,0.0324,0.013523,0.002678,0.000431,0.257387
6150000,0.0324,0.013523,0.002678,0.000431,0.175117
6151000,0.0324,0.013523,0.002678,0.000431,0.237289
6152000,0.0324,0.013523,0.002678,0.000431,0.236349
6153000,0.0324,0.013523,0.002678,0.000431,0.121524
6154000,0.0324,0.013523,0.002678,0.000431,0.217662
6155000,0.0324,0.013523,0.002678,0.000431,0.336366
6156000,0.0324,0.013523,0.002678,0.000431,0.250570
6157000,0.0324,0.013523,0.002678,0.000431,0.110124
6158000,0.0324,0.013523,0.002678,0.000431,0.090144
6159000,0.0324,0.013523,0.002678,0.000431,0.180053
6160000,0.0324,0.013523,0.002678,0.000431,0.092730
6161000,0.0324,0.013523,0.002678,0.000431,0.091437
6162000,0.0324,0.013523,0.002678,0.000431,0.306396
6163000,0.0324,0.013523,0.002678,0.000431,0.165715
6164000,0.0324,0.013523,0.002678,0.000431,0.077686
6165000,0.0324,0.013523,0.002678,0.000431,0.109184
6166000,0.0324,0.013523,0.002678,0.000431,0.061585
6167000,0.0324,0.013523,0.002678,0.000431,0.099311
6168000,0.0324,0.013523,0.002678,0.000431,0.163834
6169000,0.0324,0.013523,0.002678,0.000431,0.381614
6170000,0.0324,0.013523,0.002678,0.000431,0.148086
6171000,0.0324,0.013523,0.002678,0.000431,0.125285
6172000,0.0324,0.013523,0.002678,0.000431,0.075688
6173000,0.0324,0.013523,0.002678,0.000431,0.079332
6174000,0.0324,0.013523,0.002678,0.000431,0.271255
6175000,0.0324,0.013523,0.002678,0.000431,0.145500
6176000,0.0324,0.013523,0.002678,0.000431,0.099076
6177000,0.0324,0.013523,0.002678,0.000431,0.061232
6178000,0.0324,0.013523,0.002678,0.000431,0.164775
6179000,0.0324,0.013523,0.002678,0.000431,0.254684
6180000,0.0324,0.013523,0.002678,0.000431,0.071575
6181000,0.0324,0.013523,0.002678,0.000431,0.051125
6182000,0.0324,0.013523,0.002678,0.000431,0.211433
6183000,0.0324,0.013523,0.002678,0.000431,0.093787
6184000,0.0324,0.013523,0.002678,0.000431,0.137626
6185000,0.0324,0.013523,0.002678,0.000431,0.042428
6186000,0.0324,0.013523,0.002678,0.000431,0.050420
6187000,0.0324,0.013523,0.002678,0.000431,0.095550
6188000,0.0324,0.013523,0.002678,0.000431,0.061702
6189000,0.0324,0.013523,0.002678,0.000431,0.083915
6190000,0.0324,0.013523,0.002678,0.000431,0.225302
6191000,0.0324,0.013523,0.002678,0.000431,0.242343
6192000,0.0324,0.013523,0.002678,0.000431,0.140211
6193000,0.0324,0.013523,0.002678,0.000431,0.177703
6194000,0.0324,0.013523,0.002678,0.000431,0.175587
6195000,0.0324,0.013523,0.002678,0.000431,0.180053
6196000,0.0324,0.013523,0.002678,0.000431,0.129634
6197000,0.0324,0.013523,0.002678,0.000431,0.088851
6198000,0.0324,0.013523,0.002678,0.000431,0.254919
6199000,0.0324,0.013523,0.002678,0.000431,0.147850
6200000,0.0324,0.013523,0.002678,0.000431,0.080389
6201000,0.0324,0.013523,0.002678,0.000431,0.036551
6202000,0.0324,0.013523,0.002678,0.000431,0.326141
6203000,0.0324,0.013523,0.002678,0.000431,0.096726
6204000,0.0324,0.013523,0.002678,0.000431,0.125520
6205000,0.0324,0.013523,0.002678,0.000431,0.216487
6206000,0.0324,0.013523,0.002678,0.000431,0.123052
6207000,0.0324,0.013523,0.002678,0.000431,0.230355
6208000,0.0324,0.013523,0.002678,0.000431,0.142914
6209000,0.0324,0.013523,0.002678,0.000431,0.061585
6210000,0.0324,0.013523,0.002678,0.000431,0.056766
6211000,0.0324,0.013523,0.002678,0.000431,0.159721
6212000,0.0324,0.013523,0.002678,0.000431,0.075453
6213000,0.0324,0.013523,0.002678,0.000431,0.165362
6214000,0.0324,0.013523,0.002678,0.000431,0.177703
6215000,0.0324,0.013523,0.002678,0.000431,0.211903
6216000,0.0324,0.013523,0.002678,0.000431,0.078039
6217000,0.0324,0.013523,0.002678,0.000431,0.156195
6218000,0.0324,0.013523,0.002678,0.000431,0.206144
6219000,0.0324,0.013523,0.002678,0.000431,0.252686
6220000,0.0324,0.013523,0.002678,0.000431,0.127518
6221000,0.0324,0.013523,0.002678,0.000431,0.202736
6222000,0.0324,0.013523,0.002678,0.000431,0.072750
6223000,0.0324,0.013523,0.002678,0.000431,0.116118
6224000,0.0324,0.013523,0.002678,0.000431,0.163129
6225000,0.0324,0.013523,0.002678,0.000431,0.137978
6226000,0.0324,0.013523,0.002678,0.000431,0.103307
6227000,0.0324,0.013523,0.002678,0.000431,0.170768
6228000,0.0324,0.013523,0.002678,0.000431,0.169006
6229000,0.0324,0.013523,0.002678,0.000431,0.077569
6230000,0.0324,0.013523,0.002678,0.000431,0.117763
6231000,0.0324,0.013523,0.002678,0.000431,0.070634
6232000,0.0324,0.013523,0.002678,0.000431,0.176410
6233000,0.0324,0.013523,0.002678,0.000431,0.160661
6234000,0.0324,0.013523,0.002678,0.000431,0.220718
6235000,0.0324,0.013523,0.002678,0.000431,0.110124
6236000,0.0324,0.013523,0.002678,0.000431,0.168535
6237000,0.0324,0.013523,0.002678,0.000431,0.115060
6238000,0.0324,0.013523,0.002678,0.000431,0.148556
6239000,0.0324,0.013523,0.002678,0.000431,0.054298
6240000,0.0324,0.013523,0.002678,0.000431,0.106363
6241000,0.0324,0.013523,0.002678,0.000431,0.083092
6242000,0.0324,0.013523,0.002678,0.000431,0.197682
6243000,0.0324,0.013523,0.002678,0.000431,0.377736
6244000,0.0324,0.013523,0.002678,0.000431,0.441436
6245000,0.0324,0.013523,0.002678,0.000431,0.216957
6246000,0.0324,0.013523,0.002678,0.000431,0.053945
6247000,0.0324,0.013523,0.002678,0.000431,0.204264
6248000,0.0324,0.013523,0.002678,0.000431,0.074630
6249000,0.0324,0.013523,0.002678,0.000431,0.165362
6250000,0.0324,0.013523,0.002678,0.000431,0.193922
6251000,0.0324,0.013523,0.002678,0.000431,0.257739
6252000,0.0324,0.013523,0.002678,0.000431,0.177820
6253000,0.0324,0.013523,0.002678,0.000431,0.205087
6254000,0.0324,0.013523,0.002678,0.000431,0.316268
6255000,0.0324,0.013523,0.002678,0.000431,0.035258
6256000,0.0324,0.013523,0.002678,0.000431,0.095315
6257000,0.0324,0.013523,0.002678,0.000431,0.045483
6258000,0.0324,0.013523,0.002678,0.000431,0.167360
6259000,0.0324,0.013523,0.002678,0.000431,0.061232
6260000,0.0324,0.013523,0.002678,0.000431,0.187928
6261000,0.0324,0.013523,0.002678,0.000431,0.192981
6262000,0.0324,0.013523,0.002678,0.000431,0.050302
6263000,0.0324,0.013523,0.002678,0.000431,0.042545
6264000,0.0324,0.013523,0.002678,0.000431,0.050302
6265000,0.0324,0.013523,0.002678,0.000431,0.069459
6266000,0.0324,0.013523,0.002678,0.000431,0.077216
6267000,0.0324,0.013523,0.002678,0.000431,0.259972
6268000,0.0324,0.013523,0.002678,0.000431,0.253156
6269000,0.0324,0.013523,0.002678,0.000431,0.139859
6270000,0.0324,0.013523,0.002678,0.000431,0.049244
6271000,0.0324,0.013523,0.002678,0.000431,0.137626
6272000,0.0324,0.013523,0.002678,0.000431,0.046306
6273000,0.0324,0.013523,0.002678,0.000431,0.079919
6274000,0.0324,0.013523,0.002678,0.000431,0.103542
6275000,0.0324,0.013523,0.002678,0.000431,0.088029
6276000,0.0324,0.013523,0.002678,0.000431,0.087676
6277000,0.0324,0.013523,0.002678,0.000431,0.083327
6278000,0.0324,0.013523,0.002678,0.000431,0.190278
6279000,0.0324,0.013523,0.002678,0.000431,0.109536
6280000,0.0324,0.013523,0.002678,0.000431,0.270902
6281000,0.0324,0.013523,0.002678,0.000431,0.130339
6282000,0.0324,0.013523,0.002678,0.000431,0.099899
6283000,0.0324,0.013523,0.002678,0.000431,0.101779
6284000,0.0324,0.013523,0.002678,0.000431,0.061937
6285000,0.0324,0.013523,0.002678,0.000431,0.057589
6286000,0.0324,0.013523,0.002678,0.000431,0.057471
6287000,0.0324,0.013523,0.002678,0.000431,0.113415
6288000,0.0324,0.013523,0.002678,0.000431,0.112945
6289000,0.0324,0.013523,0.002678,0.000431,0.154667
6290000,0.0324,0.013523,0.002678,0.000431,0.113297
6291000,0.0324,0.013523,0.002678,0.000431,0.102132
6292000,0.0324,0.013523,0.002678,0.000431,0.177938
6293000,0.0324,0.013523,0.002678,0.000431,0.064523
6294000,0.0324,0.013523,0.002678,0.000431,0.080272
6295000,0.0324,0.013523,0.002678,0.000431,0.042663
6296000,0.0324,0.013523,0.002678,0.000431,0.053123
6297000,0.0324,0.013523,0.002678,0.000431,0.092377
6298000,0.0324,0.013523,0.002678,0.000431,0.057706
6299000,0.0324,0.013523,0.002678,0.000431,0.061115
6300000,0.0324,0.013523,0.002678,0.000431,0.277249
6301000,0.0324,0.013523,0.002678,0.000431,0.069812
6302000,0.0324,0.013523,0.002678,0.000431,0.076393
6303000,0.0324,0.013523,0.002678,0.000431,0.042545
6304000,0.0324,0.013523,0.002678,0.000431,0.034906
6305000,0.0324,0.013523,0.002678,0.000431,0.087911
6306000,0.0324,0.013523,0.002678,0.000431,0.087676
6307000,0.0324,0.013523,0.002678,0.000431,0.095785
6308000,0.0324,0.013523,0.002678,0.000431,0.095198
6309000,0.0324,0.013523,0.002678,0.000431,0.106951
6310000,0.0324,0.013523,0.002678,0.000431,0.091084
6311000,0.0324,0.013523,0.002678,0.000431,0.046306
6312000,0.0324,0.013523,0.002678,0.000431,0.123405
6313000,0.0324,0.013523,0.002678,0.000431,0.089204
6314000,0.0324,0.013523,0.002678,0.000431,0.072867
6315000,0.0324,0.013523,0.002678,0.000431,0.038784
6316000,0.0324,0.013523,0.002678,0.000431,0.087911
6317000,0.0324,0.013523,0.002678,0.000431,0.035141
6318000,0.0324,0.013523,0.002678,0.000431,0.074278
6319000,0.0324,0.013523,0.002678,0.000431,0.175940
6320000,0.0324,0.013523,0.002678,0.000431,0.058412
6321000,0.0324,0.013523,0.002678,0.000431,0.057471
6322000,0.0324,0.013523,0.002678,0.000431,0.050302
6323000,0.0324,0.013523,0.002678,0.000431,0.154902
6324000,0.0324,0.013523,0.002678,0.000431,0.038784
6325000,0.0324,0.013523,0.002678,0.000431,0.099546
6326000,0.0324,0.013523,0.002678,0.000431,0.194274
6327000,0.0324,0.013523,0.002678,0.000431,0.115530
6328000,0.0324,0.013523,0.002678,0.000431,0.050185
6329000,0.0324,0.013523,0.002678,0.000431,0.057824
6330000,0.0324,0.013523,0.002678,0.000431,0.035258
6331000,0.0324,0.013523,0.002678,0.000431,0.087558
6332000,0.0324,0.013523,0.002678,0.000431,0.113650
6333000,0.0324,0.013523,0.002678,0.000431,0.153374
6334000,0.0324,0.013523,0.002678,0.000431,0.173001
6335000,0.0324,0.013523,0.002678,0.000431,0.181228
6336000,0.0324,0.013523,0.002678,0.000431,0.111182
6337000,0.0324,0.013523,0.002678,0.000431,0.095080
6338000,0.0324,0.013523,0.002678,0.000431,0.110359
6339000,0.0324,0.013523,0.002678,0.000431,0.065346
6340000,0.0324,0.013523,0.002678,0.000431,0.148203
6341000,0.0324,0.013523,0.002678,0.000431,0.087323
6342000,0.0324,0.013523,0.002678,0.000431,0.136450
6343000,0.0324,0.013523,0.002678,0.000431,0.068872
6344000,0.0324,0.013523,0.002678,0.000431,0.072867
6345000,0.0324,0.013523,0.002678,0.000431,0.095433
6346000,0.0324,0.013523,0.002678,0.000431,0.109889
6347000,0.0324,0.013523,0.002678,0.000431,0.088969
6348000,0.0324,0.013523,0.002678,0.000431,0.060997
6349000,0.0324,0.013523,0.002678,0.000431,0.201091
6350000,0.0324,0.013523,0.002678,0.000431,0.061232
6351000,0.0324,0.013523,0.002678,0.000431,0.049949
6352000,0.0324,0.013523,0.002678,0.000431,0.042780
6353000,0.0324,0.013523,0.002678,0.000431,0.056178
6354000,0.0324,0.013523,0.002678,0.000431,0.059234
6355000,0.0324,0.013523,0.002678,0.000431,0.162894
6356000,0.0324,0.013523,0.002678,0.000431,0.058059
6357000,0.0324,0.013523,0.002678,0.000431,0.121407
6358000,0.0324,0.013523,0.002678,0.000431,0.053710
6359000,0.0324,0.013523,0.002678,0.000431,0.085678
6360000,0.0324,0.013523,0.002678,0.000431,0.093905
6361000,0.0324,0.013523,0.002678,0.000431,0.076158
6362000,0.0324,0.013523,0.002678,0.000431,0.080507
6363000,0.0324,0.013523,0.002678,0.000431,0.104130
6364000,0.0324,0.013523,0.002678,0.000431,0.127988
6365000,0.0324,0.013523,0.002678,0.000431,0.117763
6366000,0.0324,0.013523,0.002678,0.000431,0.112357
6367000,0.0324,0.013523,0.002678,0.000431,0.118703
6368000,0.0324,0.013523,0.002678,0.000431,0.235291
6369000,0.0324,0.013523,0.002678,0.000431,0.052888
6370000,0.0324,0.013523,0.002678,0.000431,0.081447
6371000,0.0324,0.013523,0.002678,0.000431,0.075453
6372000,0.0324,0.013523,0.002678,0.000431,0.083680
6373000,0.0324,0.013523,0.002678,0.000431,0.052888
6374000,0.0324,0.013523,0.002678,0.000431,0.319912
6375000,0.0324,0.013523,0.002678,0.000431,0.102720
6376000,0.0324,0.013523,0.002678,0.000431,0.100722
6377000,0.0324,0.013523,0.002678,0.000431,0.072867
6378000,0.0324,0.013523,0.002678,0.000431,0.046541
6379000,0.0324,0.013523,0.002678,0.000431,0.038667
6380000,0.0324,0.013523,0.002678,0.000431,0.071810
6381000,0.0324,0.013523,0.002678,0.000431,0.196507
6382000,0.0324,0.013523,0.002678,0.000431,0.202148
6383000,0.0324,0.013523,0.002678,0.000431,0.114943
6384000,0.0324,0.013523,0.002678,0.000431,0.195332
6385000,0.0324,0.013523,0.002678,0.000431,0.196742
6386000,0.0324,0.013523,0.002678,0.000431,0.138566
6387000,0.0324,0.013523,0.002678,0.000431,0.098371
6388000,0.0324,0.013523,0.002678,0.000431,0.166655
6389000,0.0324,0.013523,0.002678,0.000431,0.121289
6390000,0.0324,0.013523,0.002678,0.000431,0.065463
6391000,0.0324,0.013523,0.002678,0.000431,0.192981
6392000,0.0324,0.013523,0.002678,0.000431,0.133159
6393000,0.0324,0.013523,0.002678,0.000431,0.049832
6394000,0.0324,0.013523,0.002678,0.000431,0.080154
6395000,0.0324,0.013523,0.002678,0.000431,0.178055
6396000,0.0324,0.013523,0.002678,0.000431,0.322262
6397000,0.0324,0.013523,0.002678,0.000431,0.158310
6398000,0.0324,0.013523,0.002678,0.000431,0.061585
6399000,0.0324,0.013523,0.002678,0.000431,0.106010
6400000,0.0324,0.013523,0.002678,0.000431,0.155607
6401000,0.0324,0.013523,0.002678,0.000431,0.129046
6402000,0.0324,0.013523,0.002678,0.000431,0.046541
6403000,0.0324,0.013523,0.002678,0.000431,0.129281
6404000,0.0324,0.013523,0.002678,0.000431,0.095668
6405000,0.0324,0.013523,0.002678,0.000431,0.042545
6406000,0.0324,0.013523,0.002678,0.000431,0.053475
6407000,0.0324,0.013523,0.002678,0.000431,0.235174
6408000,0.0324,0.013523,0.002678,0.000431,0.087206
6409000,0.0324,0.013523,0.002678,0.000431,0.125520
6410000,0.0324,0.013523,0.002678,0.000431,0.129046
6411000,0.0324,0.013523,0.002678,0.000431,0.084268
6412000,0.0324,0.013523,0.002678,0.000431,0.075806
6413000,0.0324,0.013523,0.002678,0.000431,0.114472
6414000,0.0324,0.013523,0.002678,0.000431,0.214371
6415000,0.0324,0.013523,0.002678,0.000431,0.152787
6416000,0.0324,0.013523,0.002678,0.000431,0.084150
6417000,0.0324,0.013523,0.002678,0.000431,0.085090
6418000,0.0324,0.013523,0.002678,0.000431,0.072162
6419000,0.0324,0.013523,0.002678,0.000431,0.160779
6420000,0.0324,0.013523,0.002678,0.000431,0.188398
6421000,0.0324,0.013523,0.002678,0.000431,0.116941
6422000,0.0324,0.013523,0.002678,0.000431,0.134452
6423000,0.0324,0.013523,0.002678,0.000431,0.060174
6424000,0.0324,0.013523,0.002678,0.000431,0.124580
6425000,0.0324,0.013523,0.002678,0.000431,0.046424
6426000,0.0324,0.013523,0.002678,0.000431,0.147263
6427000,0.0324,0.013523,0.002678,0.000431,0.247279
6428000,0.0324,0.013523,0.002678,0.000431,0.076863
6429000,0.0324,0.013523,0.002678,0.000431,0.096961
6430000,0.0324,0.013523,0.002678,0.000431,0.153374
6431000,0.0324,0.013523,0.002678,0.000431,0.081800
6432000,0.0324,0.013523,0.002678,0.000431,0.139388
6433000,0.0324,0.013523,0.002678,0.000431,0.178173
6434000,0.0324,0.013523,0.002678,0.000431,0.084738
6435000,0.0324,0.013523,0.002678,0.000431,0.121759
6436000,0.0324,0.013523,0.002678,0.000431,0.099664
6437000,0.0324,0.013523,0.002678,0.000431,0.139976
6438000,0.0324,0.013523,0.002678,0.000431,0.119409
6439000,0.0324,0.013523,0.002678,0.000431,0.172179
6440000,0.0324,0.013523,0.002678,0.000431,0.250218
6441000,0.0324,0.013523,0.002678,0.000431,0.142444
6442000,0.0324,0.013523,0.002678,0.000431,0.076158
6443000,0.0324,0.013523,0.002678,0.000431,0.129046
6444000,0.0324,0.013523,0.002678,0.000431,0.092612
6445000,0.0324,0.013523,0.002678,0.000431,0.152434
6446000,0.0324,0.013523,0.002678,0.000431,0.235526
6447000,0.0324,0.013523,0.002678,0.000431,0.192276
6448000,0.0324,0.013523,0.002678,0.000431,0.136685
6449000,0.0324,0.013523,0.002678,0.000431,0.095198
6450000,0.0324,0.013523,0.002678,0.000431,0.050302
6451000,0.0324,0.013523,0.002678,0.000431,0.249395
6452000,0.0324,0.013523,0.002678,0.000431,0.162541
6453000,0.0324,0.013523,0.002678,0.000431,0.213079
6454000,0.0324,0.013523,0.002678,0.000431,0.125403
6455000,0.0324,0.013523,0.002678,0.000431,0.099194
6456000,0.0324,0.013523,0.002678,0.000431,0.068519
6457000,0.0324,0.013523,0.002678,0.000431,0.240463
6458000,0.0324,0.013523,0.002678,0.000431,0.279129
6459000,0.0324,0.013523,0.002678,0.000431,0.138448
6460000,0.0324,0.013523,0.002678,0.000431,0.081094
6461000,0.0324,0.013523,0.002678,0.000431,0.198740
6462000,0.0324,0.013523,0.002678,0.000431,0.131279
6463000,0.0324,0.013523,0.002678,0.000431,0.063818
6464000,0.0324,0.013523,0.002678,0.000431,0.232236
6465000,0.0324,0.013523,0.002678,0.000431,0.144090
6466000,0.0324,0.013523,0.002678,0.000431,0.084150
6467000,0.0324,0.013523,0.002678,0.000431,0.110006
6468000,0.0324,0.013523,0.002678,0.000431,0.119174
6469000,0.0324,0.013523,0.002678,0.000431,0.074160
6470000,0.0324,0.013523,0.002678,0.000431,0.219895
6471000,0.0324,0.013523,0.002678,0.000431,0.143032
6472000,0.0324,0.013523,0.002678,0.000431,0.072162
6473000,0.0324,0.013523,0.002678,0.000431,0.119056
6474000,0.0324,0.013523,0.002678,0.000431,0.284183
6475000,0.0324,0.013523,0.002678,0.000431,0.072985
6476000,0.0324,0.013523,0.002678,0.000431,0.150789
6477000,0.0324,0.013523,0.002678,0.000431,0.211903
6478000,0.0324,0.013523,0.002678,0.000431,0.145852
6479000,0.0324,0.013523,0.002678,0.000431,0.333780
6480000,0.0324,0.013523,0.002678,0.000431,0.206850
6481000,0.0324,0.013523,0.002678,0.000431,0.117763
6482000,0.0324,0.013523,0.002678,0.000431,0.275251
6483000,0.0324,0.013523,0.002678,0.000431,0.163482
6484000,0.0324,0.013523,0.002678,0.000431,0.190866
6485000,0.0324,0.013523,0.002678,0.000431,0.322850
6486000,0.0324,0.013523,0.002678,0.000431,0.117881
6487000,0.0324,0.013523,0.002678,0.000431,0.137743
6488000,0.0324,0.013523,0.002678,0.000431,0.175470
6489000,0.0324,0.013523,0.002678,0.000431,0.107773
6490000,0.0324,0.013523,0.002678,0.000431,0.194862
6491000,0.0324,0.013523,0.002678,0.000431,0.117763
6492000,0.0324,0.013523,0.002678,0.000431,0.168065
6493000,0.0324,0.013523,0.002678,0.000431,0.086031
6494000,0.0324,0.013523,0.002678,0.000431,0.219308
6495000,0.0324,0.013523,0.002678,0.000431,0.361987
6496000,0.0324,0.013523,0.002678,0.000431,0.183461
6497000,0.0324,0.013523,0.002678,0.000431,0.216839
6498000,0.0324,0.013523,0.002678,0.000431,0.146088
6499000,0.0324,0.013523,0.002678,0.000431,0.080624
6500000,0.0324,0.013523,0.002678,0.000431,0.171591
6501000,0.0324,0.013523,0.002678,0.000431,0.100604
6502000,0.0324,0.013523,0.002678,0.000431,0.281362
6503000,0.0324,0.013523,0.002678,0.000431,0.157605
6504000,0.0324,0.013523,0.002678,0.000431,0.159603
6505000,0.0324,0.013523,0.002678,0.000431,0.352702
6506000,0.0324,0.013523,0.002678,0.000431,0.102367
6507000,0.0324,0.013523,0.002678,0.000431,0.198035
6508000,0.0324,0.013523,0.002678,0.000431,0.062878
6509000,0.0324,0.013523,0.002678,0.000431,0.182756
6510000,0.0324,0.013523,0.002678,0.000431,0.119174
6511000,0.0324,0.013523,0.002678,0.000431,0.227300
6512000,0.0324,0.013523,0.002678,0.000431,0.151729
6513000,0.0324,0.013523,0.002678,0.000431,0.186752
6514000,0.0324,0.013523,0.002678,0.000431,0.248572
6515000,0.0324,0.013523,0.002678,0.000431,0.180053
6516000,0.0324,0.013523,0.002678,0.000431,0.266201
6517000,0.0324,0.013523,0.002678,0.000431,0.095315
6518000,0.0324,0.013523,0.002678,0.000431,0.282890
6519000,0.0324,0.013523,0.002678,0.000431,0.129163
6520000,0.0324,0.013523,0.002678,0.000431,0.184519
6521000,0.0324,0.013523,0.002678,0.000431,0.213784
6522000,0.0324,0.013523,0.002678,0.000431,0.186165
6523000,0.0324,0.013523,0.002678,0.000431,0.150319
6524000,0.0324,0.013523,0.002678,0.000431,0.163012
6525000,0.0324,0.013523,0.002678,0.000431,0.173589
6526000,0.0324,0.013523,0.002678,0.000431,0.082740
6527000,0.0324,0.013523,0.002678,0.000431,0.216134
6528000,0.0324,0.013523,0.002678,0.000431,0.078979
6529000,0.0324,0.013523,0.002678,0.000431,0.190161
6530000,0.0324,0.013523,0.002678,0.000431,0.320969
6531000,0.0324,0.013523,0.002678,0.000431,0.189220
6532000,0.0324,0.013523,0.002678,0.000431,0.182051
6533000,0.0324,0.013523,0.002678,0.000431,0.115883
6534000,0.0324,0.013523,0.002678,0.000431,0.042780
6535000,0.0324,0.013523,0.002678,0.000431,0.298992
6536000,0.0324,0.013523,0.002678,0.000431,0.200268
6537000,0.0324,0.013523,0.002678,0.000431,0.063230
6538000,0.0324,0.013523,0.002678,0.000431,0.093787
6539000,0.0324,0.013523,0.002678,0.000431,0.065581
6540000,0.0324,0.013523,0.002678,0.000431,0.199915
6541000,0.0324,0.013523,0.002678,0.000431,0.140564
6542000,0.0324,0.013523,0.002678,0.000431,0.408175
6543000,0.0324,0.013523,0.002678,0.000431,0.209670
6544000,0.0324,0.013523,0.002678,0.000431,0.184519
6545000,0.0324,0.013523,0.002678,0.000431,0.125520
6546000,0.0324,0.013523,0.002678,0.000431,0.226947
6547000,0.0324,0.013523,0.002678,0.000431,0.121172
6548000,0.0324,0.013523,0.002678,0.000431,0.208613
6549000,0.0324,0.013523,0.002678,0.000431,0.313565
6550000,0.0324,0.013523,0.002678,0.000431,0.114002
6551000,0.0324,0.013523,0.002678,0.000431,0.064405
6552000,0.0324,0.013523,0.002678,0.000431,0.080742
6553000,0.0324,0.013523,0.002678,0.000431,0.297934
6554000,0.0324,0.013523,0.002678,0.000431,0.149143
6555000,0.0324,0.013523,0.002678,0.000431,0.151494
6556000,0.0324,0.013523,0.002678,0.000431,0.230238
6557000,0.0324,0.013523,0.002678,0.000431,0.213666
6558000,0.0324,0.013523,0.002678,0.000431,0.210140
6559000,0.0324,0.013523,0.002678,0.000431,0.069929
6560000,0.0324,0.013523,0.002678,0.000431,0.116941
6561000,0.0324,0.013523,0.002678,0.000431,0.169946
6562000,0.0324,0.013523,0.002678,0.000431,0.225654
6563000,0.0324,0.013523,0.002678,0.000431,0.162541
6564000,0.0324,0.013523,0.002678,0.000431,0.278307
6565000,0.0324,0.013523,0.002678,0.000431,0.113885
6566000,0.0324,0.013523,0.002678,0.000431,0.094728
6567000,0.0324,0.013523,0.002678,0.000431,0.136568
6568000,0.0324,0.013523,0.002678,0.000431,0.102132
6569000,0.0324,0.013523,0.002678,0.000431,0.224831
6570000,0.0324,0.013523,0.002678,0.000431,0.088499
6571000,0.0324,0.013523,0.002678,0.000431,0.125168
6572000,0.0324,0.013523,0.002678,0.000431,0.140564
6573000,0.0324,0.013523,0.002678,0.000431,0.282420
6574000,0.0324,0.013523,0.002678,0.000431,0.126108
6575000,0.0324,0.013523,0.002678,0.000431,0.122347
6576000,0.0324,0.013523,0.002678,0.000431,0.283125
6577000,0.0324,0.013523,0.002678,0.000431,0.189220
6578000,0.0324,0.013523,0.002678,0.000431,0.110476
6579000,0.0324,0.013523,0.002678,0.000431,0.091672
6580000,0.0324,0.013523,0.002678,0.000431,0.151729
6581000,0.0324,0.013523,0.002678,0.000431,0.096021
6582000,0.0324,0.013523,0.002678,0.000431,0.165950
6583000,0.0324,0.013523,0.002678,0.000431,0.179348
6584000,0.0324,0.013523,0.002678,0.000431,0.154902
6585000,0.0324,0.013523,0.002678,0.000431,0.135863
6586000,0.0324,0.013523,0.002678,0.000431,0.188750
6587000,0.0324,0.013523,0.002678,0.000431,0.130104
6588000,0.0324,0.013523,0.002678,0.000431,0.248925
6589000,0.0324,0.013523,0.002678,0.000431,0.317209
6590000,0.0324,0.013523,0.002678,0.000431,0.152081
6591000,0.0324,0.013523,0.002678,0.000431,0.114590
6592000,0.0324,0.013523,0.002678,0.000431,0.293233
6593000,0.0324,0.013523,0.002678,0.000431,0.259737
6594000,0.0324,0.013523,0.002678,0.000431,0.230825
6595000,0.0324,0.013523,0.002678,0.000431,0.121759
6596000,0.0324,0.013523,0.002678,0.000431,0.313448
6597000,0.0324,0.013523,0.002678,0.000431,0.054298
6598000,0.0324,0.013523,0.002678,0.000431,0.148321
6599000,0.0324,0.013523,0.002678,0.000431,0.102837
6600000,0.0324,0.013523,0.002678,0.000431,0.140564
6601000,0.0324,0.013523,0.002678,0.000431,0.088146
6602000,0.0324,0.013523,0.002678,0.000431,0.165362
6603000,0.0324,0.013523,0.002678,0.000431,0.156430
6604000,0.0324,0.013523,0.002678,0.000431,0.270197
6605000,0.0324,0.013523,0.002678,0.000431,0.168888
6606000,0.0324,0.013523,0.002678,0.000431,0.119526
6607000,0.0324,0.013523,0.002678,0.000431,0.127401
6608000,0.0324,0.013523,0.002678,0.000431,0.140446
6609000,0.0324,0.013523,0.002678,0.000431,0.193099
6610000,0.0324,0.013523,0.002678,0.000431,0.196860
6611000,0.0324,0.013523,0.002678,0.000431,0.123287
6612000,0.0324,0.013523,0.002678,0.000431,0.150906
6613000,0.0324,0.013523,0.002678,0.000431,0.164304
6614000,0.0324,0.013523,0.002678,0.000431,0.073338
6615000,0.0324,0.013523,0.002678,0.000431,0.226477
6616000,0.0324,0.013523,0.002678,0.000431,0.164775
6617000,0.0324,0.013523,0.002678,0.000431,0.138918
6618000,0.0324,0.013523,0.002678,0.000431,0.125520
6619000,0.0324,0.013523,0.002678,0.000431,0.095315
6620000,0.0324,0.013523,0.002678,0.000431,0.213666
6621000,0.0324,0.013523,0.002678,0.000431,0.157135
6622000,0.0324,0.013523,0.002678,0.000431,0.288649
6623000,0.0324,0.013523,0.002678,0.000431,0.243636
6624000,0.0324,0.013523,0.002678,0.000431,0.084150
6625000,0.0324,0.013523,0.002678,0.000431,0.188868
6626000,0.0324,0.013523,0.002678,0.000431,0.099194
6627000,0.0324,0.013523,0.002678,0.000431,0.148791
6628000,0.0324,0.013523,0.002678,0.000431,0.305691
6629000,0.0324,0.013523,0.002678,0.000431,0.207790
6630000,0.0324,0.013523,0.002678,0.000431,0.238935
6631000,0.0324,0.013523,0.002678,0.000431,0.126813
6632000,0.0324,0.013523,0.002678,0.000431,0.149026
6633000,0.0324,0.013523,0.002678,0.000431,0.281833
6634000,0.0324,0.013523,0.002678,0.000431,0.219778
6635000,0.0324,0.013523,0.002678,0.000431,0.286299
6636000,0.0324,0.013523,0.002678,0.000431,0.210493
6637000,0.0324,0.013523,0.002678,0.000431,0.145265
6638000,0.0324,0.013523,0.002678,0.000431,0.121172
6639000,0.0324,0.013523,0.002678,0.000431,0.058294
6640000,0.0324,0.013523,0.002678,0.000431,0.159251
6641000,0.0324,0.013523,0.002678,0.000431,0.204969
6642000,0.0324,0.013523,0.002678,0.000431,0.284183
6643000,0.0324,0.013523,0.002678,0.000431,0.184167
6644000,0.0324,0.013523,0.002678,0.000431,0.079567
6645000,0.0324,0.013523,0.002678,0.000431,0.085090
6646000,0.0324,0.013523,0.002678,0.000431,0.061585
6647000,0.0324,0.013523,0.002678,0.000431,0.159368
6648000,0.0324,0.013523,0.002678,0.000431,0.173354
6649000,0.0324,0.013523,0.002678,0.000431,0.318971
6650000,0.0324,0.013523,0.002678,0.000431,0.135275
6651000,0.0324,0.013523,0.002678,0.000431,0.265614
6652000,0.0324,0.013523,0.002678,0.000431,0.055238
6653000,0.0324,0.013523,0.002678,0.000431,0.151259
6654000,0.0324,0.013523,0.002678,0.000431,0.206379
6655000,0.0324,0.013523,0.002678,0.000431,0.227417
6656000,0.0324,0.013523,0.002678,0.000431,0.207555
6657000,0.0324,0.013523,0.002678,0.000431,0.130104
6658000,0.0324,0.013523,0.002678,0.000431,0.080977
6659000,0.0324,0.013523,0.002678,0.000431,0.091907
6660000,0.0324,0.013523,0.002678,0.000431,0.277484
6661000,0.0324,0.013523,0.002678,0.000431,0.152669
6662000,0.0324,0.013523,0.002678,0.000431,0.166420
6663000,0.0324,0.013523,0.002678,0.000431,0.113650
6664000,0.0324,0.013523,0.002678,0.000431,0.172884
6665000,0.0324,0.013523,0.002678,0.000431,0.176527
6666000,0.0324,0.013523,0.002678,0.000431,0.248572
6667000,0.0324,0.013523,0.002678,0.000431,0.378911
6668000,0.0324,0.013523,0.002678,0.000431,0.145500
6669000,0.0324,0.013523,0.002678,0.000431,0.282890
6670000,0.0324,0.013523,0.002678,0.000431,0.218367
6671000,0.0324,0.013523,0.002678,0.000431,0.062055
6672000,0.0324,0.013523,0.002678,0.000431,0.136803
6673000,0.0324,0.013523,0.002678,0.000431,0.187105
6674000,0.0324,0.013523,0.002678,0.000431,0.167008
6675000,0.0324,0.013523,0.002678,0.000431,0.107891
6676000,0.0324,0.013523,0.002678,0.000431,0.220835
6677000,0.0324,0.013523,0.002678,0.000431,0.143619
6678000,0.0324,0.013523,0.002678,0.000431,0.217662
6679000,0.0324,0.013523,0.002678,0.000431,0.131749
6680000,0.0324,0.013523,0.002678,0.000431,0.170651
6681000,0.0324,0.013523,0.002678,0.000431,0.209435
6682000,0.0324,0.013523,0.002678,0.000431,0.155725
6683000,0.0324,0.013523,0.002678,0.000431,0.196390
6684000,0.0324,0.013523,0.002678,0.000431,0.164422
6685000,0.0324,0.013523,0.002678,0.000431,0.170886
6686000,0.0324,0.013523,0.002678,0.000431,0.061585
6687000,0.0324,0.013523,0.002678,0.000431,0.080389
6688000,0.0324,0.013523,0.002678,0.000431,0.387608
6689000,0.0324,0.013523,0.002678,0.000431,0.301577
6690000,0.0324,0.013523,0.002678,0.000431,0.155842
6691000,0.0324,0.013523,0.002678,0.000431,0.141151
6692000,0.0324,0.013523,0.002678,0.000431,0.251745
6693000,0.0324,0.013523,0.002678,0.000431,0.099546
6694000,0.0324,0.013523,0.002678,0.000431,0.095198
6695000,0.0324,0.013523,0.002678,0.000431,0.214254
6696000,0.0324,0.013523,0.002678,0.000431,0.178525
6697000,0.0324,0.013523,0.002678,0.000431,0.095433
6698000,0.0324,0.013523,0.002678,0.000431,0.091554
6699000,0.0324,0.013523,0.002678,0.000431,0.189338
6700000,0.0324,0.013523,0.002678,0.000431,0.117998
6701000,0.0324,0.013523,0.002678,0.000431,0.079332
6702000,0.0324,0.013523,0.002678,0.000431,0.139388
6703000,0.0324,0.013523,0.002678,0.000431,0.276426
6704000,0.0324,0.013523,0.002678,0.000431,0.119644
6705000,0.0324,0.013523,0.002678,0.000431,0.110712
6706000,0.0324,0.013523,0.002678,0.000431,0.194392
6707000,0.0324,0.013523,0.002678,0.000431,0.152434
6708000,0.0324,0.013523,0.002678,0.000431,0.137861
6709000,0.0324,0.013523,0.002678,0.000431,0.136450
6710000,0.0324,0.013523,0.002678,0.000431,0.108831
6711000,0.0324,0.013523,0.002678,0.000431,0.156900
6712000,0.0324,0.013523,0.002678,0.000431,0.098606
6713000,0.0324,0.013523,0.002678,0.000431,0.104835
6714000,0.0324,0.013523,0.002678,0.000431,0.172179
6715000,0.0324,0.013523,0.002678,0.000431,0.107068
6716000,0.0324,0.013523,0.002678,0.000431,0.188280
6717000,0.0324,0.013523,0.002678,0.000431,0.153257
6718000,0.0324,0.013523,0.002678,0.000431,0.194744
6719000,0.0324,0.013523,0.002678,0.000431,0.241520
6720000,0.0324,0.013523,0.002678,0.000431,0.097548
6721000,0.0324,0.013523,0.002678,0.000431,0.112122
6722000,0.0324,0.013523,0.002678,0.000431,0.181346
6723000,0.0324,0.013523,0.002678,0.000431,0.101192
6724000,0.0324,0.013523,0.002678,0.000431,0.050302
6725000,0.0324,0.013523,0.002678,0.000431,0.200150
6726000,0.0324,0.013523,0.002678,0.000431,0.146558
6727000,0.0324,0.013523,0.002678,0.000431,0.193099
6728000,0.0324,0.013523,0.002678,0.000431,0.180758
6729000,0.0324,0.013523,0.002678,0.000431,0.406060
6730000,0.0324,0.013523,0.002678,0.000431,0.259385
6731000,0.0324,0.013523,0.002678,0.000431,0.145735
6732000,0.0324,0.013523,0.002678,0.000431,0.069459
6733000,0.0324,0.013523,0.002678,0.000431,0.086501
6734000,0.0324,0.013523,0.002678,0.000431,0.262911
6735000,0.0324,0.013523,0.002678,0.000431,0.218015
6736000,0.0324,0.013523,0.002678,0.000431,0.095198
6737000,0.0324,0.013523,0.002678,0.000431,0.091084
6738000,0.0324,0.013523,0.002678,0.000431,0.196037
6739000,0.0324,0.013523,0.002678,0.000431,0.202031
6740000,0.0324,0.013523,0.002678,0.000431,0.117528
6741000,0.0324,0.013523,0.002678,0.000431,0.129516
6742000,0.0324,0.013523,0.002678,0.000431,0.104365
6743000,0.0324,0.013523,0.002678,0.000431,0.297816
6744000,0.0324,0.013523,0.002678,0.000431,0.075806
6745000,0.0324,0.013523,0.002678,0.000431,0.219190
6746000,0.0324,0.013523,0.002678,0.000431,0.109419
6747000,0.0324,0.013523,0.002678,0.000431,0.140681
6748000,0.0324,0.013523,0.002678,0.000431,0.173942
6749000,0.0324,0.013523,0.002678,0.000431,0.098136
6750000,0.0324,0.013523,0.002678,0.000431,0.137155
6751000,0.0324,0.013523,0.002678,0.000431,0.077334
6752000,0.0324,0.013523,0.002678,0.000431,0.065346
6753000,0.0324,0.013523,0.002678,0.000431,0.173472
6754000,0.0324,0.013523,0.002678,0.000431,0.194979
6755000,0.0324,0.013523,0.002678,0.000431,0.133159
6756000,0.0324,0.013523,0.002678,0.000431,0.065346
6757000,0.0324,0.013523,0.002678,0.000431,0.174177
6758000,0.0324,0.013523,0.002678,0.000431,0.155372
6759000,0.0324,0.013523,0.002678,0.000431,0.098841
6760000,0.0324,0.013523,0.002678,0.000431,0.303693
6761000,0.0324,0.013523,0.002678,0.000431,0.043133
6762000,0.0324,0.013523,0.002678,0.000431,0.065581
6763000,0.0324,0.013523,0.002678,0.000431,0.189690
6764000,0.0324,0.013523,0.002678,0.000431,0.094963
6765000,0.0324,0.013523,0.002678,0.000431,0.136450
6766000,0.0324,0.013523,0.002678,0.000431,0.130339
6767000,0.0324,0.013523,0.002678,0.000431,0.206850
6768000,0.0324,0.013523,0.002678,0.000431,0.072632
6769000,0.0324,0.013523,0.002678,0.000431,0.136803
6770000,0.0324,0.013523,0.002678,0.000431,0.110476
6771000,0.0324,0.013523,0.002678,0.000431,0.057824
6772000,0.0324,0.013523,0.002678,0.000431,0.152669
6773000,0.0324,0.013523,0.002678,0.000431,0.384552
6774000,0.0324,0.013523,0.002678,0.000431,0.095315
6775000,0.0324,0.013523,0.002678,0.000431,0.081917
6776000,0.0324,0.013523,0.002678,0.000431,0.129634
6777000,0.0324,0.013523,0.002678,0.000431,0.126578
6778000,0.0324,0.013523,0.002678,0.000431,0.161484
6779000,0.0324,0.013523,0.002678,0.000431,0.227535
6780000,0.0324,0.013523,0.002678,0.000431,0.115648
6781000,0.0324,0.013523,0.002678,0.000431,0.094845
6782000,0.0324,0.013523,0.002678,0.000431,0.181111
6783000,0.0324,0.013523,0.002678,0.000431,0.171121
6784000,0.0324,0.013523,0.002678,0.000431,0.114120
6785000,0.0324,0.013523,0.002678,0.000431,0.186635
6786000,0.0324,0.013523,0.002678,0.000431,0.266554
6787000,0.0324,0.013523,0.002678,0.000431,0.155607
6788000,0.0324,0.013523,0.002678,0.000431,0.139741
6789000,0.0324,0.013523,0.002678,0.000431,0.111652
6790000,0.0324,0.013523,0.002678,0.000431,0.080037
6791000,0.0324,0.013523,0.002678,0.000431,0.232941
6792000,0.0324,0.013523,0.002678,0.000431,0.261618
6793000,0.0324,0.013523,0.002678,0.000431,0.209435
6794000,0.0324,0.013523,0.002678,0.000431,0.059704
6795000,0.0324,0.013523,0.002678,0.000431,0.149143
6796000,0.0324,0.013523,0.002678,0.000431,0.273018
6797000,0.0324,0.013523,0.002678,0.000431,0.261265
6798000,0.0324,0.013523,0.002678,0.000431,0.121994
6799000,0.0324,0.013523,0.002678,0.000431,0.167830
6800000,0.0324,0.013523,0.002678,0.000431,0.090027
6801000,0.0324,0.013523,0.002678,0.000431,0.164069
6802000,0.0324,0.013523,0.002678,0.000431,0.143032
6803000,0.0324,0.013523,0.002678,0.000431,0.049479
6804000,0.0324,0.013523,0.002678,0.000431,0.179936
6805000,0.0324,0.013523,0.002678,0.000431,0.218367
6806000,0.0324,0.013523,0.002678,0.000431,0.268199
6807000,0.0324,0.013523,0.002678,0.000431,0.077804
6808000,0.0324,0.013523,0.002678,0.000431,0.197447
6809000,0.0324,0.013523,0.002678,0.000431,0.194979
6810000,0.0324,0.013523,0.002678,0.000431,0.093317
6811000,0.0324,0.013523,0.002678,0.000431,0.200033
6812000,0.0324,0.013523,0.002678,0.000431,0.150671
6813000,0.0324,0.013523,0.002678,0.000431,0.181816
6814000,0.0324,0.013523,0.002678,0.000431,0.066638
6815000,0.0324,0.013523,0.002678,0.000431,0.131749
6816000,0.0324,0.013523,0.002678,0.000431,0.079332
6817000,0.0324,0.013523,0.002678,0.000431,0.151846
6818000,0.0324,0.013523,0.002678,0.000431,0.157018
6819000,0.0324,0.013523,0.002678,0.000431,0.071340
6820000,0.0324,0.013523,0.002678,0.000431,0.072632
6821000,0.0324,0.013523,0.002678,0.000431,0.223304
6822000,0.0324,0.013523,0.002678,0.000431,0.251393
6823000,0.0324,0.013523,0.002678,0.000431,0.116118
6824000,0.0324,0.013523,0.002678,0.000431,0.133394
6825000,0.0324,0.013523,0.002678,0.000431,0.137038
6826000,0.0324,0.013523,0.002678,0.000431,0.110241
6827000,0.0324,0.013523,0.002678,0.000431,0.092612
6828000,0.0324,0.013523,0.002678,0.000431,0.076746
6829000,0.0324,0.013523,0.002678,0.000431,0.258092
6830000,0.0324,0.013523,0.002678,0.000431,0.207437
6831000,0.0324,0.013523,0.002678,0.000431,0.126343
6832000,0.0324,0.013523,0.002678,0.000431,0.066168
6833000,0.0324,0.013523,0.002678,0.000431,0.178643
6834000,0.0324,0.013523,0.002678,0.000431,0.125050
6835000,0.0324,0.013523,0.002678,0.000431,0.147615
6836000,0.0324,0.013523,0.002678,0.000431,0.110712
6837000,0.0324,0.013523,0.002678,0.000431,0.215547
6838000,0.0324,0.013523,0.002678,0.000431,0.114237
6839000,0.0324,0.013523,0.002678,0.000431,0.038902
6840000,0.0324,0.013523,0.002678,0.000431,0.083798
6841000,0.0324,0.013523,0.002678,0.000431,0.111417
6842000,0.0324,0.013523,0.002678,0.000431,0.154902
6843000,0.0324,0.013523,0.002678,0.000431,0.279129
6844000,0.0324,0.013523,0.002678,0.000431,0.238230
6845000,0.0324,0.013523,0.002678,0.000431,0.140211
6846000,0.0324,0.013523,0.002678,0.000431,0.220248
6847000,0.0324,0.013523,0.002678,0.000431,0.068636
6848000,0.0324,0.013523,0.002678,0.000431,0.125168
6849000,0.0324,0.013523,0.002678,0.000431,0.109419
6850000,0.0324,0.013523,0.002678,0.000431,0.283008
6851000,0.0324,0.013523,0.002678,0.000431,0.103072
6852000,0.0324,0.013523,0.002678,0.000431,0.127753
6853000,0.0324,0.013523,0.002678,0.000431,0.302400
6854000,0.0324,0.013523,0.002678,0.000431,0.052535
6855000,0.0324,0.013523,0.002678,0.000431,0.062760
6856000,0.0324,0.013523,0.002678,0.000431,0.279835
6857000,0.0324,0.013523,0.002678,0.000431,0.192276
6858000,0.0324,0.013523,0.002678,0.000431,0.078744
6859000,0.0324,0.013523,0.002678,0.000431,0.118821
6860000,0.0324,0.013523,0.002678,0.000431,0.286651
6861000,0.0324,0.013523,0.002678,0.000431,0.253743
6862000,0.0324,0.013523,0.002678,0.000431,0.207320
6863000,0.0324,0.013523,0.002678,0.000431,0.241403
6864000,0.0324,0.013523,0.002678,0.000431,0.148086
6865000,0.0324,0.013523,0.002678,0.000431,0.053945
6866000,0.0324,0.013523,0.002678,0.000431,0.113767
6867000,0.0324,0.013523,0.002678,0.000431,0.278189
6868000,0.0324,0.013523,0.002678,0.000431,0.090144
6869000,0.0324,0.013523,0.002678,0.000431,0.262088
6870000,0.0324,0.013523,0.002678,0.000431,0.428508
6871000,0.0324,0.013523,0.002678,0.000431,0.048892
6872000,0.0324,0.013523,0.002678,0.000431,0.060409
6873000,0.0324,0.013523,0.002678,0.000431,0.078156
6874000,0.0324,0.013523,0.002678,0.000431,0.218132
6875000,0.0324,0.013523,0.002678,0.000431,0.279835
6876000,0.0324,0.013523,0.002678,0.000431,0.090849
6877000,0.0324,0.013523,0.002678,0.000431,0.163834
6878000,0.0324,0.013523,0.002678,0.000431,0.066638
6879000,0.0324,0.013523,0.002678,0.000431,0.150201
6880000,0.0324,0.013523,0.002678,0.000431,0.148086
6881000,0.0324,0.013523,0.002678,0.000431,0.163364
6882000,0.0324,0.013523,0.002678,0.000431,0.201208
6883000,0.0324,0.013523,0.002678,0.000431,0.464941
6884000,0.0324,0.013523,0.002678,0.000431,0.154432
6885000,0.0324,0.013523,0.002678,0.000431,0.140329
6886000,0.0324,0.013523,0.002678,0.000431,0.074983
6887000,0.0324,0.013523,0.002678,0.000431,0.096843
6888000,0.0324,0.013523,0.002678,0.000431,0.119174
6889000,0.0324,0.013523,0.002678,0.000431,0.230355
6890000,0.0324,0.013523,0.002678,0.000431,0.141504
6891000,0.0324,0.013523,0.002678,0.000431,0.161249
6892000,0.0324,0.013523,0.002678,0.000431,0.195567
6893000,0.0324,0.013523,0.002678,0.000431,0.185224
6894000,0.0324,0.013523,0.002678,0.000431,0.148673
6895000,0.0324,0.013523,0.002678,0.000431,0.507957
6896000,0.0324,0.013523,0.002678,0.000431,0.203206
6897000,0.0324,0.013523,0.002678,0.000431,0.060174
6898000,0.0324,0.013523,0.002678,0.000431,0.200150
6899000,0.0324,0.013523,0.002678,0.000431,0.183579
6900000,0.0324,0.013523,0.002678,0.000431,0.067344
6901000,0.0324,0.013523,0.002678,0.000431,0.203324
6902000,0.0324,0.013523,0.002678,0.000431,0.071692
6903000,0.0324,0.013523,0.002678,0.000431,0.095903
6904000,0.0324,0.013523,0.002678,0.000431,0.060645
6905000,0.0324,0.013523,0.002678,0.000431,0.203911
6906000,0.0324,0.013523,0.002678,0.000431,0.172531
6907000,0.0324,0.013523,0.002678,0.000431,0.118586
6908000,0.0324,0.013523,0.002678,0.000431,0.120819
6909000,0.0324,0.013523,0.002678,0.000431,0.149966
6910000,0.0324,0.013523,0.002678,0.000431,0.142327
6911000,0.0324,0.013523,0.002678,0.000431,0.191924
6912000,0.0324,0.013523,0.002678,0.000431,0.155725
6913000,0.0324,0.013523,0.002678,0.000431,0.112710
6914000,0.0324,0.013523,0.002678,0.000431,0.174764
6915000,0.0324,0.013523,0.002678,0.000431,0.221423
6916000,0.0324,0.013523,0.002678,0.000431,0.088734
6917000,0.0324,0.013523,0.002678,0.000431,0.131984
6918000,0.0324,0.013523,0.002678,0.000431,0.214019
6919000,0.0324,0.013523,0.002678,0.000431,0.129634
6920000,0.0324,0.013523,0.002678,0.000431,0.241050
6921000,0.0324,0.013523,0.002678,0.000431,0.558847
6922000,0.0324,0.013523,0.002678,0.000431,0.143854
6923000,0.0324,0.013523,0.002678,0.000431,0.042193
6924000,0.0324,0.013523,0.002678,0.000431,0.069107
6925000,0.0324,0.013523,0.002678,0.000431,0.209318
6926000,0.0324,0.013523,0.002678,0.000431,0.198270
6927000,0.0324,0.013523,0.002678,0.000431,0.207790
6928000,0.0324,0.013523,0.002678,0.000431,0.202854
6929000,0.0324,0.013523,0.002678,0.000431,0.042428
6930000,0.0324,0.013523,0.002678,0.000431,0.050302
6931000,0.0324,0.013523,0.002678,0.000431,0.099664
6932000,0.0324,0.013523,0.002678,0.000431,0.134452
6933000,0.0324,0.013523,0.002678,0.000431,0.150906
6934000,0.0324,0.013523,0.002678,0.000431,0.153609
6935000,0.0324,0.013523,0.002678,0.000431,0.127636
6936000,0.0324,0.013523,0.002678,0.000431,0.074160
6937000,0.0324,0.013523,0.002678,0.000431,0.129163
6938000,0.0324,0.013523,0.002678,0.000431,0.117998
6939000,0.0324,0.013523,0.002678,0.000431,0.222128
6940000,0.0324,0.013523,0.002678,0.000431,0.335308
6941000,0.0324,0.013523,0.002678,0.000431,0.239757
6942000,0.0324,0.013523,0.002678,0.000431,0.081212
6943000,0.0324,0.013523,0.002678,0.000431,0.104365
6944000,0.0324,0.013523,0.002678,0.000431,0.155960
6945000,0.0324,0.013523,0.002678,0.000431,0.081682
6946000,0.0324,0.013523,0.002678,0.000431,0.084620
6947000,0.0324,0.013523,0.002678,0.000431,0.340362
6948000,0.0324,0.013523,0.002678,0.000431,0.061585
6949000,0.0324,0.013523,0.002678,0.000431,0.132572
6950000,0.0324,0.013523,0.002678,0.000431,0.071340
6951000,0.0324,0.013523,0.002678,0.000431,0.097078
6952000,0.0324,0.013523,0.002678,0.000431,0.057706
6953000,0.0324,0.013523,0.002678,0.000431,0.131514
6954000,0.0324,0.013523,0.002678,0.000431,0.264438
6955000,0.0324,0.013523,0.002678,0.000431,0.098959
6956000,0.0324,0.013523,0.002678,0.000431,0.157135
6957000,0.0324,0.013523,0.002678,0.000431,0.175352
6958000,0.0324,0.013523,0.002678,0.000431,0.159721
6959000,0.0324,0.013523,0.002678,0.000431,0.124227
6960000,0.0324,0.013523,0.002678,0.000431,0.125168
6961000,0.0324,0.013523,0.002678,0.000431,0.072515
6962000,0.0324,0.013523,0.002678,0.000431,0.050067
6963000,0.0324,0.013523,0.002678,0.000431,0.087441
6964000,0.0324,0.013523,0.002678,0.000431,0.143149
6965000,0.0324,0.013523,0.002678,0.000431,0.092612
6966000,0.0324,0.013523,0.002678,0.000431,0.161249
6967000,0.0324,0.013523,0.002678,0.000431,0.203794
6968000,0.0324,0.013523,0.002678,0.000431,0.124227
6969000,0.0324,0.013523,0.002678,0.000431,0.095198
6970000,0.0324,0.013523,0.002678,0.000431,0.087794
6971000,0.0324,0.013523,0.002678,0.000431,0.125638
6972000,0.0324,0.013523,0.002678,0.000431,0.097078
6973000,0.0324,0.013523,0.002678,0.000431,0.180406
6974000,0.0324,0.013523,0.002678,0.000431,0.181934
6975000,0.0324,0.013523,0.002678,0.000431,0.170416
6976000,0.0324,0.013523,0.002678,0.000431,0.193804
6977000,0.0324,0.013523,0.002678,0.000431,0.090497
6978000,0.0324,0.013523,0.002678,0.000431,0.076393
6979000,0.0324,0.013523,0.002678,0.000431,0.355405
6980000,0.0324,0.013523,0.002678,0.000431,0.135275
6981000,0.0324,0.013523,0.002678,0.000431,0.035023
6982000,0.0324,0.013523,0.002678,0.000431,0.170416
6983000,0.0324,0.013523,0.002678,0.000431,0.050067
6984000,0.0324,0.013523,0.002678,0.000431,0.110241
6985000,0.0324,0.013523,0.002678,0.000431,0.189220
6986000,0.0324,0.013523,0.002678,0.000431,0.420516
6987000,0.0324,0.013523,0.002678,0.000431,0.111887
6988000,0.0324,0.013523,0.002678,0.000431,0.061350
6989000,0.0324,0.013523,0.002678,0.000431,0.139623
6990000,0.0324,0.013523,0.002678,0.000431,0.145030
6991000,0.0324,0.013523,0.002678,0.000431,0.062290
6992000,0.0324,0.013523,0.002678,0.000431,0.177820
6993000,0.0324,0.013523,0.002678,0.000431,0.106010
6994000,0.0324,0.013523,0.002678,0.000431,0.050185
6995000,0.0324,0.013523,0.002678,0.000431,0.204146
6996000,0.0324,0.013523,0.002678,0.000431,0.069224
6997000,0.0324,0.013523,0.002678,0.000431,0.102955
6998000,0.0324,0.013523,0.002678,0.000431,0.313800
6999000,0.0324,0.013523,0.002678,0.000431,0.310980
