Cycle,Area(mm^2),PeakDynamic(W),SubthresholdLeakage(W),GateLeakage(W),RunTimeDynamic(W)
5000000,0.0324,0.013523,0.002678,0.000431,0.098959
5001000,0.0324,0.013523,0.002678,0.000431,0.091202
5002000,0.0324,0.013523,0.002678,0.000431,0.117411
5003000,0.0324,0.013523,0.002678,0.000431,0.216369
5004000,0.0324,0.013523,0.002678,0.000431,0.066521
5005000,0.0324,0.013523,0.002678,0.000431,0.042898
5006000,0.0324,0.013523,0.002678,0.000431,0.168418
5007000,0.0324,0.013523,0.002678,0.000431,0.151846
5008000,0.0324,0.013523,0.002678,0.000431,0.154315
5009000,0.0324,0.013523,0.002678,0.000431,0.125285
5010000,0.0324,0.013523,0.002678,0.000431,0.065346
5011000,0.0324,0.013523,0.002678,0.000431,0.142797
5012000,0.0324,0.013523,0.002678,0.000431,0.178525
5013000,0.0324,0.013523,0.002678,0.000431,0.098724
5014000,0.0324,0.013523,0.002678,0.000431,0.196272
5015000,0.0324,0.013523,0.002678,0.000431,0.239405
5016000,0.0324,0.013523,0.002678,0.000431,0.162306
5017000,0.0324,0.013523,0.002678,0.000431,0.126108
5018000,0.0324,0.013523,0.002678,0.000431,0.070634
5019000,0.0324,0.013523,0.002678,0.000431,0.198858
5020000,0.0324,0.013523,0.002678,0.000431,0.137508
5021000,0.0324,0.013523,0.002678,0.000431,0.120466
5022000,0.0324,0.013523,0.002678,0.000431,0.210258
5023000,0.0324,0.013523,0.002678,0.000431,0.211551
5024000,0.0324,0.013523,0.002678,0.000431,0.060645
5025000,0.0324,0.013523,0.002678,0.000431,0.192746
5026000,0.0324,0.013523,0.002678,0.000431,0.226242
5027000,0.0324,0.013523,0.002678,0.000431,0.174529
5028000,0.0324,0.013523,0.002678,0.000431,0.132102
5029000,0.0324,0.013523,0.002678,0.000431,0.110829
5030000,0.0324,0.013523,0.002678,0.000431,0.132689
5031000,0.0324,0.013523,0.002678,0.000431,0.064170
5032000,0.0324,0.013523,0.002678,0.000431,0.161836
5033000,0.0324,0.013523,0.002678,0.000431,0.274546
5034000,0.0324,0.013523,0.002678,0.000431,0.123640
5035000,0.0324,0.013523,0.002678,0.000431,0.123405
5036000,0.0324,0.013523,0.002678,0.000431,0.104365
5037000,0.0324,0.013523,0.002678,0.000431,0.074865
5038000,0.0324,0.013523,0.002678,0.000431,0.051595
5039000,0.0324,0.013523,0.002678,0.000431,0.179936
5040000,0.0324,0.013523,0.002678,0.000431,0.225889
5041000,0.0324,0.013523,0.002678,0.000431,0.068401
5042000,0.0324,0.013523,0.002678,0.000431,0.110241
5043000,0.0324,0.013523,0.002678,0.000431,0.074278
5044000,0.0324,0.013523,0.002678,0.000431,0.133630
5045000,0.0324,0.013523,0.002678,0.000431,0.233411
5046000,0.0324,0.013523,0.002678,0.000431,0.317561
5047000,0.0324,0.013523,0.002678,0.000431,0.230238
5048000,0.0324,0.013523,0.002678,0.000431,0.196507
5049000,0.0324,0.013523,0.002678,0.000431,0.086971
5050000,0.0324,0.013523,0.002678,0.000431,0.073455
5051000,0.0324,0.013523,0.002678,0.000431,0.166772
5052000,0.0324,0.013523,0.002678,0.000431,0.166890
5053000,0.0324,0.013523,0.002678,0.000431,0.102837
5054000,0.0324,0.013523,0.002678,0.000431,0.126578
5055000,0.0324,0.013523,0.002678,0.000431,0.094375
5056000,0.0324,0.013523,0.002678,0.000431,0.109889
5057000,0.0324,0.013523,0.002678,0.000431,0.102602
5058000,0.0324,0.013523,0.002678,0.000431,0.206967
5059000,0.0324,0.013523,0.002678,0.000431,0.132572
5060000,0.0324,0.013523,0.002678,0.000431,0.157958
5061000,0.0324,0.013523,0.002678,0.000431,0.232823
5062000,0.0324,0.013523,0.002678,0.000431,0.121172
5063000,0.0324,0.013523,0.002678,0.000431,0.057236
5064000,0.0324,0.013523,0.002678,0.000431,0.151494
5065000,0.0324,0.013523,0.002678,0.000431,0.132924
5066000,0.0324,0.013523,0.002678,0.000431,0.065111
5067000,0.0324,0.013523,0.002678,0.000431,0.092847
5068000,0.0324,0.013523,0.002678,0.000431,0.124462
5069000,0.0324,0.013523,0.002678,0.000431,0.101897
5070000,0.0324,0.013523,0.002678,0.000431,0.078156
5071000,0.0324,0.013523,0.002678,0.000431,0.104953
5072000,0.0324,0.013523,0.002678,0.000431,0.198740
5073000,0.0324,0.013523,0.002678,0.000431,0.094023
5074000,0.0324,0.013523,0.002678,0.000431,0.147028
5075000,0.0324,0.013523,0.002678,0.000431,0.104835
5076000,0.0324,0.013523,0.002678,0.000431,0.123757
5077000,0.0324,0.013523,0.002678,0.000431,0.215077
5078000,0.0324,0.013523,0.002678,0.000431,0.117058
5079000,0.0324,0.013523,0.002678,0.000431,0.135628
5080000,0.0324,0.013523,0.002678,0.000431,0.079449
5081000,0.0324,0.013523,0.002678,0.000431,0.198388
5082000,0.0324,0.013523,0.002678,0.000431,0.084620
5083000,0.0324,0.013523,0.002678,0.000431,0.099664
5084000,0.0324,0.013523,0.002678,0.000431,0.215547
5085000,0.0324,0.013523,0.002678,0.000431,0.238817
5086000,0.0324,0.013523,0.002678,0.000431,0.160073
5087000,0.0324,0.013523,0.002678,0.000431,0.132689
5088000,0.0324,0.013523,0.002678,0.000431,0.089321
5089000,0.0324,0.013523,0.002678,0.000431,0.075101
5090000,0.0324,0.013523,0.002678,0.000431,0.204382
5091000,0.0324,0.013523,0.002678,0.000431,0.121054
5092000,0.0324,0.013523,0.002678,0.000431,0.253038
5093000,0.0324,0.013523,0.002678,0.000431,0.105423
5094000,0.0324,0.013523,0.002678,0.000431,0.089909
5095000,0.0324,0.013523,0.002678,0.000431,0.061467
5096000,0.0324,0.013523,0.002678,0.000431,0.101544
5097000,0.0324,0.013523,0.002678,0.000431,0.175235
5098000,0.0324,0.013523,0.002678,0.000431,0.227064
5099000,0.0324,0.013523,0.002678,0.000431,0.106833
5100000,0.0324,0.013523,0.002678,0.000431,0.061467
5101000,0.0324,0.013523,0.002678,0.000431,0.074278
5102000,0.0324,0.013523,0.002678,0.000431,0.102720
5103000,0.0324,0.013523,0.002678,0.000431,0.165010
5104000,0.0324,0.013523,0.002678,0.000431,0.328491
5105000,0.0324,0.013523,0.002678,0.000431,0.217310
5106000,0.0324,0.013523,0.002678,0.000431,0.139976
5107000,0.0324,0.013523,0.002678,0.000431,0.142444
5108000,0.0324,0.013523,0.002678,0.000431,0.072162
5109000,0.0324,0.013523,0.002678,0.000431,0.126460
5110000,0.0324,0.013523,0.002678,0.000431,0.095550
5111000,0.0324,0.013523,0.002678,0.000431,0.224479
5112000,0.0324,0.013523,0.002678,0.000431,0.166890
5113000,0.0324,0.013523,0.002678,0.000431,0.144090
5114000,0.0324,0.013523,0.002678,0.000431,0.038784
5115000,0.0324,0.013523,0.002678,0.000431,0.140329
5116000,0.0324,0.013523,0.002678,0.000431,0.103307
5117000,0.0324,0.013523,0.002678,0.000431,0.201208
5118000,0.0324,0.013523,0.002678,0.000431,0.065228
5119000,0.0324,0.013523,0.002678,0.000431,0.185459
5120000,0.0324,0.013523,0.002678,0.000431,0.058294
5121000,0.0324,0.013523,0.002678,0.000431,0.052183
5122000,0.0324,0.013523,0.002678,0.000431,0.124697
5123000,0.0324,0.013523,0.002678,0.000431,0.149026
5124000,0.0324,0.013523,0.002678,0.000431,0.155137
5125000,0.0324,0.013523,0.002678,0.000431,0.140564
5126000,0.0324,0.013523,0.002678,0.000431,0.186400
5127000,0.0324,0.013523,0.002678,0.000431,0.124580
5128000,0.0324,0.013523,0.002678,0.000431,0.086853
5129000,0.0324,0.013523,0.002678,0.000431,0.161014
5130000,0.0324,0.013523,0.002678,0.000431,0.132807
5131000,0.0324,0.013523,0.002678,0.000431,0.201091
5132000,0.0324,0.013523,0.002678,0.000431,0.151259
5133000,0.0324,0.013523,0.002678,0.000431,0.084033
5134000,0.0324,0.013523,0.002678,0.000431,0.083915
5135000,0.0324,0.013523,0.002678,0.000431,0.219308
5136000,0.0324,0.013523,0.002678,0.000431,0.192394
5137000,0.0324,0.013523,0.002678,0.000431,0.107538
5138000,0.0324,0.013523,0.002678,0.000431,0.197212
5139000,0.0324,0.013523,0.002678,0.000431,0.199798
5140000,0.0324,0.013523,0.002678,0.000431,0.074513
5141000,0.0324,0.013523,0.002678,0.000431,0.129634
5142000,0.0324,0.013523,0.002678,0.000431,0.112239
5143000,0.0324,0.013523,0.002678,0.000431,0.184989
5144000,0.0324,0.013523,0.002678,0.000431,0.173824
5145000,0.0324,0.013523,0.002678,0.000431,0.094728
5146000,0.0324,0.013523,0.002678,0.000431,0.065346
5147000,0.0324,0.013523,0.002678,0.000431,0.166772
5148000,0.0324,0.013523,0.002678,0.000431,0.148321
5149000,0.0324,0.013523,0.002678,0.000431,0.157958
5150000,0.0324,0.013523,0.002678,0.000431,0.136215
5151000,0.0324,0.013523,0.002678,0.000431,0.128693
5152000,0.0324,0.013523,0.002678,0.000431,0.085678
5153000,0.0324,0.013523,0.002678,0.000431,0.115178
5154000,0.0324,0.013523,0.002678,0.000431,0.129163
5155000,0.0324,0.013523,0.002678,0.000431,0.110241
5156000,0.0324,0.013523,0.002678,0.000431,0.180641
5157000,0.0324,0.013523,0.002678,0.000431,0.114708
5158000,0.0324,0.013523,0.002678,0.000431,0.129986
5159000,0.0324,0.013523,0.002678,0.000431,0.065816
5160000,0.0324,0.013523,0.002678,0.000431,0.061585
5161000,0.0324,0.013523,0.002678,0.000431,0.117881
5162000,0.0324,0.013523,0.002678,0.000431,0.134922
5163000,0.0324,0.013523,0.002678,0.000431,0.146910
5164000,0.0324,0.013523,0.002678,0.000431,0.054063
5165000,0.0324,0.013523,0.002678,0.000431,0.047364
5166000,0.0324,0.013523,0.002678,0.000431,0.104600
5167000,0.0324,0.013523,0.002678,0.000431,0.197212
5168000,0.0324,0.013523,0.002678,0.000431,0.101309
5169000,0.0324,0.013523,0.002678,0.000431,0.277837
5170000,0.0324,0.013523,0.002678,0.000431,0.121289
5171000,0.0324,0.013523,0.002678,0.000431,0.057471
5172000,0.0324,0.013523,0.002678,0.000431,0.065228
5173000,0.0324,0.013523,0.002678,0.000431,0.118703
5174000,0.0324,0.013523,0.002678,0.000431,0.242578
5175000,0.0324,0.013523,0.002678,0.000431,0.096138
5176000,0.0324,0.013523,0.002678,0.000431,0.140564
5177000,0.0324,0.013523,0.002678,0.000431,0.087794
5178000,0.0324,0.013523,0.002678,0.000431,0.057824
5179000,0.0324,0.013523,0.002678,0.000431,0.070517
5180000,0.0324,0.013523,0.002678,0.000431,0.398656
5181000,0.0324,0.013523,0.002678,0.000431,0.154902
5182000,0.0324,0.013523,0.002678,0.000431,0.085325
5183000,0.0324,0.013523,0.002678,0.000431,0.096961
5184000,0.0324,0.013523,0.002678,0.000431,0.085325
5185000,0.0324,0.013523,0.002678,0.000431,0.107891
5186000,0.0324,0.013523,0.002678,0.000431,0.103307
5187000,0.0324,0.013523,0.002678,0.000431,0.092495
5188000,0.0324,0.013523,0.002678,0.000431,0.132807
5189000,0.0324,0.013523,0.002678,0.000431,0.101074
5190000,0.0324,0.013523,0.002678,0.000431,0.067226
5191000,0.0324,0.013523,0.002678,0.000431,0.099194
5192000,0.0324,0.013523,0.002678,0.000431,0.080507
5193000,0.0324,0.013523,0.002678,0.000431,0.133394
5194000,0.0324,0.013523,0.002678,0.000431,0.211081
5195000,0.0324,0.013523,0.002678,0.000431,0.046306
5196000,0.0324,0.013523,0.002678,0.000431,0.117998
5197000,0.0324,0.013523,0.002678,0.000431,0.122112
5198000,0.0324,0.013523,0.002678,0.000431,0.072045
5199000,0.0324,0.013523,0.002678,0.000431,0.092142
5200000,0.0324,0.013523,0.002678,0.000431,0.223774
5201000,0.0324,0.013523,0.002678,0.000431,0.075101
5202000,0.0324,0.013523,0.002678,0.000431,0.108361
5203000,0.0324,0.013523,0.002678,0.000431,0.064170
5204000,0.0324,0.013523,0.002678,0.000431,0.177820
5205000,0.0324,0.013523,0.002678,0.000431,0.095315
5206000,0.0324,0.013523,0.002678,0.000431,0.267612
5207000,0.0324,0.013523,0.002678,0.000431,0.173001
5208000,0.0324,0.013523,0.002678,0.000431,0.186047
5209000,0.0324,0.013523,0.002678,0.000431,0.096373
5210000,0.0324,0.013523,0.002678,0.000431,0.160661
5211000,0.0324,0.013523,0.002678,0.000431,0.079684
5212000,0.0324,0.013523,0.002678,0.000431,0.123287
5213000,0.0324,0.013523,0.002678,0.000431,0.162071
5214000,0.0324,0.013523,0.002678,0.000431,0.138683
5215000,0.0324,0.013523,0.002678,0.000431,0.065228
5216000,0.0324,0.013523,0.002678,0.000431,0.096726
5217000,0.0324,0.013523,0.002678,0.000431,0.153022
5218000,0.0324,0.013523,0.002678,0.000431,0.135980
5219000,0.0324,0.013523,0.002678,0.000431,0.182286
5220000,0.0324,0.013523,0.002678,0.000431,0.095198
5221000,0.0324,0.013523,0.002678,0.000431,0.065111
5222000,0.0324,0.013523,0.002678,0.000431,0.136920
5223000,0.0324,0.013523,0.002678,0.000431,0.127283
5224000,0.0324,0.013523,0.002678,0.000431,0.208613
5225000,0.0324,0.013523,0.002678,0.000431,0.125168
5226000,0.0324,0.013523,0.002678,0.000431,0.252215
5227000,0.0324,0.013523,0.002678,0.000431,0.061585
5228000,0.0324,0.013523,0.002678,0.000431,0.161719
5229000,0.0324,0.013523,0.002678,0.000431,0.081094
5230000,0.0324,0.013523,0.002678,0.000431,0.099899
5231000,0.0324,0.013523,0.002678,0.000431,0.094493
5232000,0.0324,0.013523,0.002678,0.000431,0.210023
5233000,0.0324,0.013523,0.002678,0.000431,0.200856
5234000,0.0324,0.013523,0.002678,0.000431,0.098254
5235000,0.0324,0.013523,0.002678,0.000431,0.106598
5236000,0.0324,0.013523,0.002678,0.000431,0.092730
5237000,0.0324,0.013523,0.002678,0.000431,0.161601
5238000,0.0324,0.013523,0.002678,0.000431,0.111417
5239000,0.0324,0.013523,0.002678,0.000431,0.125638
5240000,0.0324,0.013523,0.002678,0.000431,0.095433
5241000,0.0324,0.013523,0.002678,0.000431,0.121994
5242000,0.0324,0.013523,0.002678,0.000431,0.093552
5243000,0.0324,0.013523,0.002678,0.000431,0.108361
5244000,0.0324,0.013523,0.002678,0.000431,0.093905
5245000,0.0324,0.013523,0.002678,0.000431,0.151846
5246000,0.0324,0.013523,0.002678,0.000431,0.175940
5247000,0.0324,0.013523,0.002678,0.000431,0.079332
5248000,0.0324,0.013523,0.002678,0.000431,0.186635
5249000,0.0324,0.013523,0.002678,0.000431,0.161836
5250000,0.0324,0.013523,0.002678,0.000431,0.159251
5251000,0.0324,0.013523,0.002678,0.000431,0.092495
5252000,0.0324,0.013523,0.002678,0.000431,0.181111
5253000,0.0324,0.013523,0.002678,0.000431,0.077686
5254000,0.0324,0.013523,0.002678,0.000431,0.148556
5255000,0.0324,0.013523,0.002678,0.000431,0.120936
5256000,0.0324,0.013523,0.002678,0.000431,0.048539
5257000,0.0324,0.013523,0.002678,0.000431,0.114002
5258000,0.0324,0.013523,0.002678,0.000431,0.262793
5259000,0.0324,0.013523,0.002678,0.000431,0.101074
5260000,0.0324,0.013523,0.002678,0.000431,0.151611
5261000,0.0324,0.013523,0.002678,0.000431,0.141857
5262000,0.0324,0.013523,0.002678,0.000431,0.086618
5263000,0.0324,0.013523,0.002678,0.000431,0.035258
5264000,0.0324,0.013523,0.002678,0.000431,0.132807
5265000,0.0324,0.013523,0.002678,0.000431,0.110476
5266000,0.0324,0.013523,0.002678,0.000431,0.042780
5267000,0.0324,0.013523,0.002678,0.000431,0.065346
5268000,0.0324,0.013523,0.002678,0.000431,0.132102
5269000,0.0324,0.013523,0.002678,0.000431,0.133982
5270000,0.0324,0.013523,0.002678,0.000431,0.157018
5271000,0.0324,0.013523,0.002678,0.000431,0.076628
5272000,0.0324,0.013523,0.002678,0.000431,0.136803
5273000,0.0324,0.013523,0.002678,0.000431,0.076276
5274000,0.0324,0.013523,0.002678,0.000431,0.072750
5275000,0.0324,0.013523,0.002678,0.000431,0.173354
5276000,0.0324,0.013523,0.002678,0.000431,0.113767
5277000,0.0324,0.013523,0.002678,0.000431,0.123875
5278000,0.0324,0.013523,0.002678,0.000431,0.144325
5279000,0.0324,0.013523,0.002678,0.000431,0.080389
5280000,0.0324,0.013523,0.002678,0.000431,0.148203
5281000,0.0324,0.013523,0.002678,0.000431,0.085325
5282000,0.0324,0.013523,0.002678,0.000431,0.085090
5283000,0.0324,0.013523,0.002678,0.000431,0.066756
5284000,0.0324,0.013523,0.002678,0.000431,0.139506
5285000,0.0324,0.013523,0.002678,0.000431,0.171944
5286000,0.0324,0.013523,0.002678,0.000431,0.069342
5287000,0.0324,0.013523,0.002678,0.000431,0.086266
5288000,0.0324,0.013523,0.002678,0.000431,0.134805
5289000,0.0324,0.013523,0.002678,0.000431,0.113297
5290000,0.0324,0.013523,0.002678,0.000431,0.163717
5291000,0.0324,0.013523,0.002678,0.000431,0.114002
5292000,0.0324,0.013523,0.002678,0.000431,0.099194
5293000,0.0324,0.013523,0.002678,0.000431,0.087323
5294000,0.0324,0.013523,0.002678,0.000431,0.092025
5295000,0.0324,0.013523,0.002678,0.000431,0.156195
5296000,0.0324,0.013523,0.002678,0.000431,0.105305
5297000,0.0324,0.013523,0.002678,0.000431,0.111534
5298000,0.0324,0.013523,0.002678,0.000431,0.054063
5299000,0.0324,0.013523,0.002678,0.000431,0.042428
5300000,0.0324,0.013523,0.002678,0.000431,0.145500
5301000,0.0324,0.013523,0.002678,0.000431,0.212256
5302000,0.0324,0.013523,0.002678,0.000431,0.074160
5303000,0.0324,0.013523,0.002678,0.000431,0.237054
5304000,0.0324,0.013523,0.002678,0.000431,0.150436
5305000,0.0324,0.013523,0.002678,0.000431,0.057706
5306000,0.0324,0.013523,0.002678,0.000431,0.084973
5307000,0.0324,0.013523,0.002678,0.000431,0.197917
5308000,0.0324,0.013523,0.002678,0.000431,0.118586
5309000,0.0324,0.013523,0.002678,0.000431,0.041958
5310000,0.0324,0.013523,0.002678,0.000431,0.126930
5311000,0.0324,0.013523,0.002678,0.000431,0.073220
5312000,0.0324,0.013523,0.002678,0.000431,0.072750
5313000,0.0324,0.013523,0.002678,0.000431,0.148203
5314000,0.0324,0.013523,0.002678,0.000431,0.139036
5315000,0.0324,0.013523,0.002678,0.000431,0.061937
5316000,0.0324,0.013523,0.002678,0.000431,0.109536
5317000,0.0324,0.013523,0.002678,0.000431,0.089086
5318000,0.0324,0.013523,0.002678,0.000431,0.101779
5319000,0.0324,0.013523,0.002678,0.000431,0.182051
5320000,0.0324,0.013523,0.002678,0.000431,0.221306
5321000,0.0324,0.013523,0.002678,0.000431,0.058059
5322000,0.0324,0.013523,0.002678,0.000431,0.080154
5323000,0.0324,0.013523,0.002678,0.000431,0.155137
5324000,0.0324,0.013523,0.002678,0.000431,0.073573
5325000,0.0324,0.013523,0.002678,0.000431,0.126108
5326000,0.0324,0.013523,0.002678,0.000431,0.196155
5327000,0.0324,0.013523,0.002678,0.000431,0.126695
5328000,0.0324,0.013523,0.002678,0.000431,0.087794
5329000,0.0324,0.013523,0.002678,0.000431,0.198035
5330000,0.0324,0.013523,0.002678,0.000431,0.141974
5331000,0.0324,0.013523,0.002678,0.000431,0.232471
5332000,0.0324,0.013523,0.002678,0.000431,0.076981
5333000,0.0324,0.013523,0.002678,0.000431,0.094728
5334000,0.0324,0.013523,0.002678,0.000431,0.050185
5335000,0.0324,0.013523,0.002678,0.000431,0.076628
5336000,0.0324,0.013523,0.002678,0.000431,0.124932
5337000,0.0324,0.013523,0.002678,0.000431,0.061350
5338000,0.0324,0.013523,0.002678,0.000431,0.068636
5339000,0.0324,0.013523,0.002678,0.000431,0.235291
5340000,0.0324,0.013523,0.002678,0.000431,0.087558
5341000,0.0324,0.013523,0.002678,0.000431,0.125403
5342000,0.0324,0.013523,0.002678,0.000431,0.131984
5343000,0.0324,0.013523,0.002678,0.000431,0.126813
5344000,0.0324,0.013523,0.002678,0.000431,0.140094
5345000,0.0324,0.013523,0.002678,0.000431,0.065933
5346000,0.0324,0.013523,0.002678,0.000431,0.162659
5347000,0.0324,0.013523,0.002678,0.000431,0.136450
5348000,0.0324,0.013523,0.002678,0.000431,0.122347
5349000,0.0324,0.013523,0.002678,0.000431,0.129751
5350000,0.0324,0.013523,0.002678,0.000431,0.263733
5351000,0.0324,0.013523,0.002678,0.000431,0.177350
5352000,0.0324,0.013523,0.002678,0.000431,0.059469
5353000,0.0324,0.013523,0.002678,0.000431,0.051242
5354000,0.0324,0.013523,0.002678,0.000431,0.104600
5355000,0.0324,0.013523,0.002678,0.000431,0.098606
5356000,0.0324,0.013523,0.002678,0.000431,0.107421
5357000,0.0324,0.013523,0.002678,0.000431,0.190513
5358000,0.0324,0.013523,0.002678,0.000431,0.056531
5359000,0.0324,0.013523,0.002678,0.000431,0.074043
5360000,0.0324,0.013523,0.002678,0.000431,0.057119
5361000,0.0324,0.013523,0.002678,0.000431,0.170416
5362000,0.0324,0.013523,0.002678,0.000431,0.084503
5363000,0.0324,0.013523,0.002678,0.000431,0.148086
5364000,0.0324,0.013523,0.002678,0.000431,0.132689
5365000,0.0324,0.013523,0.002678,0.000431,0.170651
5366000,0.0324,0.013523,0.002678,0.000431,0.091437
5367000,0.0324,0.013523,0.002678,0.000431,0.072867
5368000,0.0324,0.013523,0.002678,0.000431,0.117528
5369000,0.0324,0.013523,0.002678,0.000431,0.065463
5370000,0.0324,0.013523,0.002678,0.000431,0.155490
5371000,0.0324,0.013523,0.002678,0.000431,0.113650
5372000,0.0324,0.013523,0.002678,0.000431,0.154667
5373000,0.0324,0.013523,0.002678,0.000431,0.119174
5374000,0.0324,0.013523,0.002678,0.000431,0.093200
5375000,0.0324,0.013523,0.002678,0.000431,0.061350
5376000,0.0324,0.013523,0.002678,0.000431,0.194627
5377000,0.0324,0.013523,0.002678,0.000431,0.232236
5378000,0.0324,0.013523,0.002678,0.000431,0.266319
5379000,0.0324,0.013523,0.002678,0.000431,0.137155
5380000,0.0324,0.013523,0.002678,0.000431,0.085678
5381000,0.0324,0.013523,0.002678,0.000431,0.042780
5382000,0.0324,0.013523,0.002678,0.000431,0.056414
5383000,0.0324,0.013523,0.002678,0.000431,0.113650
5384000,0.0324,0.013523,0.002678,0.000431,0.093317
5385000,0.0324,0.013523,0.002678,0.000431,0.091907
5386000,0.0324,0.013523,0.002678,0.000431,0.094845
5387000,0.0324,0.013523,0.002678,0.000431,0.080037
5388000,0.0324,0.013523,0.002678,0.000431,0.069107
5389000,0.0324,0.013523,0.002678,0.000431,0.114825
5390000,0.0324,0.013523,0.002678,0.000431,0.158428
5391000,0.0324,0.013523,0.002678,0.000431,0.268434
5392000,0.0324,0.013523,0.002678,0.000431,0.290882
5393000,0.0324,0.013523,0.002678,0.000431,0.071810
5394000,0.0324,0.013523,0.002678,0.000431,0.075571
5395000,0.0324,0.013523,0.002678,0.000431,0.105188
5396000,0.0324,0.013523,0.002678,0.000431,0.139506
5397000,0.0324,0.013523,0.002678,0.000431,0.254919
5398000,0.0324,0.013523,0.002678,0.000431,0.083327
5399000,0.0324,0.013523,0.002678,0.000431,0.181581
5400000,0.0324,0.013523,0.002678,0.000431,0.140211
5401000,0.0324,0.013523,0.002678,0.000431,0.211316
5402000,0.0324,0.013523,0.002678,0.000431,0.159956
5403000,0.0324,0.013523,0.002678,0.000431,0.104718
5404000,0.0324,0.013523,0.002678,0.000431,0.131749
5405000,0.0324,0.013523,0.002678,0.000431,0.065816
5406000,0.0324,0.013523,0.002678,0.000431,0.090732
5407000,0.0324,0.013523,0.002678,0.000431,0.065581
5408000,0.0324,0.013523,0.002678,0.000431,0.072515
5409000,0.0324,0.013523,0.002678,0.000431,0.078626
5410000,0.0324,0.013523,0.002678,0.000431,0.205909
5411000,0.0324,0.013523,0.002678,0.000431,0.072632
5412000,0.0324,0.013523,0.002678,0.000431,0.145265
5413000,0.0324,0.013523,0.002678,0.000431,0.050302
5414000,0.0324,0.013523,0.002678,0.000431,0.090849
5415000,0.0324,0.013523,0.002678,0.000431,0.130456
5416000,0.0324,0.013523,0.002678,0.000431,0.061937
5417000,0.0324,0.013523,0.002678,0.000431,0.052888
5418000,0.0324,0.013523,0.002678,0.000431,0.055238
5419000,0.0324,0.013523,0.002678,0.000431,0.140916
5420000,0.0324,0.013523,0.002678,0.000431,0.060645
5421000,0.0324,0.013523,0.002678,0.000431,0.138096
5422000,0.0324,0.013523,0.002678,0.000431,0.123640
5423000,0.0324,0.013523,0.002678,0.000431,0.110476
5424000,0.0324,0.013523,0.002678,0.000431,0.080389
5425000,0.0324,0.013523,0.002678,0.000431,0.065228
5426000,0.0324,0.013523,0.002678,0.000431,0.046424
5427000,0.0324,0.013523,0.002678,0.000431,0.190631
5428000,0.0324,0.013523,0.002678,0.000431,0.119996
5429000,0.0324,0.013523,0.002678,0.000431,0.146323
5430000,0.0324,0.013523,0.002678,0.000431,0.129986
5431000,0.0324,0.013523,0.002678,0.000431,0.099194
5432000,0.0324,0.013523,0.002678,0.000431,0.076746
5433000,0.0324,0.013523,0.002678,0.000431,0.066051
5434000,0.0324,0.013523,0.002678,0.000431,0.145735
5435000,0.0324,0.013523,0.002678,0.000431,0.126695
5436000,0.0324,0.013523,0.002678,0.000431,0.081212
5437000,0.0324,0.013523,0.002678,0.000431,0.069107
5438000,0.0324,0.013523,0.002678,0.000431,0.087558
5439000,0.0324,0.013523,0.002678,0.000431,0.073338
5440000,0.0324,0.013523,0.002678,0.000431,0.184754
5441000,0.0324,0.013523,0.002678,0.000431,0.080977
5442000,0.0324,0.013523,0.002678,0.000431,0.080389
5443000,0.0324,0.013523,0.002678,0.000431,0.098254
5444000,0.0324,0.013523,0.002678,0.000431,0.158428
5445000,0.0324,0.013523,0.002678,0.000431,0.073925
5446000,0.0324,0.013523,0.002678,0.000431,0.141857
5447000,0.0324,0.013523,0.002678,0.000431,0.199093
5448000,0.0324,0.013523,0.002678,0.000431,0.132924
5449000,0.0324,0.013523,0.002678,0.000431,0.084738
5450000,0.0324,0.013523,0.002678,0.000431,0.110124
5451000,0.0324,0.013523,0.002678,0.000431,0.080272
5452000,0.0324,0.013523,0.002678,0.000431,0.107656
5453000,0.0324,0.013523,0.002678,0.000431,0.194157
5454000,0.0324,0.013523,0.002678,0.000431,0.085325
5455000,0.0324,0.013523,0.002678,0.000431,0.127401
5456000,0.0324,0.013523,0.002678,0.000431,0.080624
5457000,0.0324,0.013523,0.002678,0.000431,0.098606
5458000,0.0324,0.013523,0.002678,0.000431,0.066051
5459000,0.0324,0.013523,0.002678,0.000431,0.088029
5460000,0.0324,0.013523,0.002678,0.000431,0.096373
5461000,0.0324,0.013523,0.002678,0.000431,0.220600
5462000,0.0324,0.013523,0.002678,0.000431,0.184402
5463000,0.0324,0.013523,0.002678,0.000431,0.092142
5464000,0.0324,0.013523,0.002678,0.000431,0.148673
5465000,0.0324,0.013523,0.002678,0.000431,0.061467
5466000,0.0324,0.013523,0.002678,0.000431,0.093435
5467000,0.0324,0.013523,0.002678,0.000431,0.095433
5468000,0.0324,0.013523,0.002678,0.000431,0.176762
5469000,0.0324,0.013523,0.002678,0.000431,0.119761
5470000,0.0324,0.013523,0.002678,0.000431,0.057589
5471000,0.0324,0.013523,0.002678,0.000431,0.054180
5472000,0.0324,0.013523,0.002678,0.000431,0.109654
5473000,0.0324,0.013523,0.002678,0.000431,0.173589
5474000,0.0324,0.013523,0.002678,0.000431,0.100722
5475000,0.0324,0.013523,0.002678,0.000431,0.066638
5476000,0.0324,0.013523,0.002678,0.000431,0.079449
5477000,0.0324,0.013523,0.002678,0.000431,0.102837
5478000,0.0324,0.013523,0.002678,0.000431,0.074748
5479000,0.0324,0.013523,0.002678,0.000431,0.141857
5480000,0.0324,0.013523,0.002678,0.000431,0.135863
5481000,0.0324,0.013523,0.002678,0.000431,0.144912
5482000,0.0324,0.013523,0.002678,0.000431,0.050537
5483000,0.0324,0.013523,0.002678,0.000431,0.080037
5484000,0.0324,0.013523,0.002678,0.000431,0.165832
5485000,0.0324,0.013523,0.002678,0.000431,0.127636
5486000,0.0324,0.013523,0.002678,0.000431,0.192511
5487000,0.0324,0.013523,0.002678,0.000431,0.073455
5488000,0.0324,0.013523,0.002678,0.000431,0.063348
5489000,0.0324,0.013523,0.002678,0.000431,0.092260
5490000,0.0324,0.013523,0.002678,0.000431,0.081330
5491000,0.0324,0.013523,0.002678,0.000431,0.073455
5492000,0.0324,0.013523,0.002678,0.000431,0.141504
5493000,0.0324,0.013523,0.002678,0.000431,0.052770
5494000,0.0324,0.013523,0.002678,0.000431,0.127283
5495000,0.0324,0.013523,0.002678,0.000431,0.080037
5496000,0.0324,0.013523,0.002678,0.000431,0.084620
5497000,0.0324,0.013523,0.002678,0.000431,0.076393
5498000,0.0324,0.013523,0.002678,0.000431,0.048892
5499000,0.0324,0.013523,0.002678,0.000431,0.101192
5500000,0.0324,0.013523,0.002678,0.000431,0.111299
5501000,0.0324,0.013523,0.002678,0.000431,0.068049
5502000,0.0324,0.013523,0.002678,0.000431,0.106128
5503000,0.0324,0.013523,0.002678,0.000431,0.046424
5504000,0.0324,0.013523,0.002678,0.000431,0.143032
5505000,0.0324,0.013523,0.002678,0.000431,0.144677
5506000,0.0324,0.013523,0.002678,0.000431,0.071222
5507000,0.0324,0.013523,0.002678,0.000431,0.139153
5508000,0.0324,0.013523,0.002678,0.000431,0.088146
5509000,0.0324,0.013523,0.002678,0.000431,0.067579
5510000,0.0324,0.013523,0.002678,0.000431,0.067931
5511000,0.0324,0.013523,0.002678,0.000431,0.096373
5512000,0.0324,0.013523,0.002678,0.000431,0.103777
5513000,0.0324,0.013523,0.002678,0.000431,0.223539
5514000,0.0324,0.013523,0.002678,0.000431,0.098254
5515000,0.0324,0.013523,0.002678,0.000431,0.069459
5516000,0.0324,0.013523,0.002678,0.000431,0.064876
5517000,0.0324,0.013523,0.002678,0.000431,0.085090
5518000,0.0324,0.013523,0.002678,0.000431,0.056649
5519000,0.0324,0.013523,0.002678,0.000431,0.046306
5520000,0.0324,0.013523,0.002678,0.000431,0.073338
5521000,0.0324,0.013523,0.002678,0.000431,0.065346
5522000,0.0324,0.013523,0.002678,0.000431,0.042428
5523000,0.0324,0.013523,0.002678,0.000431,0.069107
5524000,0.0324,0.013523,0.002678,0.000431,0.077216
5525000,0.0324,0.013523,0.002678,0.000431,0.111299
5526000,0.0324,0.013523,0.002678,0.000431,0.149026
5527000,0.0324,0.013523,0.002678,0.000431,0.061820
5528000,0.0324,0.013523,0.002678,0.000431,0.125990
5529000,0.0324,0.013523,0.002678,0.000431,0.064053
5530000,0.0324,0.013523,0.002678,0.000431,0.039960
5531000,0.0324,0.013523,0.002678,0.000431,0.116353
5532000,0.0324,0.013523,0.002678,0.000431,0.092377
5533000,0.0324,0.013523,0.002678,0.000431,0.119526
5534000,0.0324,0.013523,0.002678,0.000431,0.102367
5535000,0.0324,0.013523,0.002678,0.000431,0.094728
5536000,0.0324,0.013523,0.002678,0.000431,0.103895
5537000,0.0324,0.013523,0.002678,0.000431,0.089204
5538000,0.0324,0.013523,0.002678,0.000431,0.052770
5539000,0.0324,0.013523,0.002678,0.000431,0.241285
5540000,0.0324,0.013523,0.002678,0.000431,0.175822
5541000,0.0324,0.013523,0.002678,0.000431,0.178995
5542000,0.0324,0.013523,0.002678,0.000431,0.216017
5543000,0.0324,0.013523,0.002678,0.000431,0.166067
5544000,0.0324,0.013523,0.002678,0.000431,0.066874
5545000,0.0324,0.013523,0.002678,0.000431,0.053475
5546000,0.0324,0.013523,0.002678,0.000431,0.068754
5547000,0.0324,0.013523,0.002678,0.000431,0.215429
5548000,0.0324,0.013523,0.002678,0.000431,0.072515
5549000,0.0324,0.013523,0.002678,0.000431,0.068519
5550000,0.0324,0.013523,0.002678,0.000431,0.042663
5551000,0.0324,0.013523,0.002678,0.000431,0.060527
5552000,0.0324,0.013523,0.002678,0.000431,0.080154
5553000,0.0324,0.013523,0.002678,0.000431,0.132689
5554000,0.0324,0.013523,0.002678,0.000431,0.102602
5555000,0.0324,0.013523,0.002678,0.000431,0.064876
5556000,0.0324,0.013523,0.002678,0.000431,0.097196
5557000,0.0324,0.013523,0.002678,0.000431,0.072515
5558000,0.0324,0.013523,0.002678,0.000431,0.047716
5559000,0.0324,0.013523,0.002678,0.000431,0.042780
5560000,0.0324,0.013523,0.002678,0.000431,0.069342
5561000,0.0324,0.013523,0.002678,0.000431,0.062290
5562000,0.0324,0.013523,0.002678,0.000431,0.095198
5563000,0.0324,0.013523,0.002678,0.000431,0.050302
5564000,0.0324,0.013523,0.002678,0.000431,0.053240
5565000,0.0324,0.013523,0.002678,0.000431,0.089674
5566000,0.0324,0.013523,0.002678,0.000431,0.170416
5567000,0.0324,0.013523,0.002678,0.000431,0.216722
5568000,0.0324,0.013523,0.002678,0.000431,0.054063
5569000,0.0324,0.013523,0.002678,0.000431,0.191924
5570000,0.0324,0.013523,0.002678,0.000431,0.125403
5571000,0.0324,0.013523,0.002678,0.000431,0.038902
5572000,0.0324,0.013523,0.002678,0.000431,0.064523
5573000,0.0324,0.013523,0.002678,0.000431,0.055238
5574000,0.0324,0.013523,0.002678,0.000431,0.074395
5575000,0.0324,0.013523,0.002678,0.000431,0.053358
5576000,0.0324,0.013523,0.002678,0.000431,0.061232
5577000,0.0324,0.013523,0.002678,0.000431,0.042428
5578000,0.0324,0.013523,0.002678,0.000431,0.043133
5579000,0.0324,0.013523,0.002678,0.000431,0.034906
5580000,0.0324,0.013523,0.002678,0.000431,0.042898
5581000,0.0324,0.013523,0.002678,0.000431,0.083327
5582000,0.0324,0.013523,0.002678,0.000431,0.148908
5583000,0.0324,0.013523,0.002678,0.000431,0.069224
5584000,0.0324,0.013523,0.002678,0.000431,0.155960
5585000,0.0324,0.013523,0.002678,0.000431,0.053828
5586000,0.0324,0.013523,0.002678,0.000431,0.035141
5587000,0.0324,0.013523,0.002678,0.000431,0.094493
5588000,0.0324,0.013523,0.002678,0.000431,0.208142
5589000,0.0324,0.013523,0.002678,0.000431,0.121877
5590000,0.0324,0.013523,0.002678,0.000431,0.174882
5591000,0.0324,0.013523,0.002678,0.000431,0.367863
5592000,0.0324,0.013523,0.002678,0.000431,0.255859
5593000,0.0324,0.013523,0.002678,0.000431,0.159368
5594000,0.0324,0.013523,0.002678,0.000431,0.198858
5595000,0.0324,0.013523,0.002678,0.000431,0.078861
5596000,0.0324,0.013523,0.002678,0.000431,0.053710
5597000,0.0324,0.013523,0.002678,0.000431,0.100604
5598000,0.0324,0.013523,0.002678,0.000431,0.046541
5599000,0.0324,0.013523,0.002678,0.000431,0.129634
5600000,0.0324,0.013523,0.002678,0.000431,0.096021
5601000,0.0324,0.013523,0.002678,0.000431,0.096138
5602000,0.0324,0.013523,0.002678,0.000431,0.057119
5603000,0.0324,0.013523,0.002678,0.000431,0.106481
5604000,0.0324,0.013523,0.002678,0.000431,0.253038
5605000,0.0324,0.013523,0.002678,0.000431,0.097783
5606000,0.0324,0.013523,0.002678,0.000431,0.263146
5607000,0.0324,0.013523,0.002678,0.000431,0.285946
5608000,0.0324,0.013523,0.002678,0.000431,0.086501
5609000,0.0324,0.013523,0.002678,0.000431,0.115883
5610000,0.0324,0.013523,0.002678,0.000431,0.064523
5611000,0.0324,0.013523,0.002678,0.000431,0.065346
5612000,0.0324,0.013523,0.002678,0.000431,0.038902
5613000,0.0324,0.013523,0.002678,0.000431,0.039019
5614000,0.0324,0.013523,0.002678,0.000431,0.064641
5615000,0.0324,0.013523,0.002678,0.000431,0.144677
5616000,0.0324,0.013523,0.002678,0.000431,0.237642
5617000,0.0324,0.013523,0.002678,0.000431,0.230473
5618000,0.0324,0.013523,0.002678,0.000431,0.035023
5619000,0.0324,0.013523,0.002678,0.000431,0.042428
5620000,0.0324,0.013523,0.002678,0.000431,0.076628
5621000,0.0324,0.013523,0.002678,0.000431,0.045131
5622000,0.0324,0.013523,0.002678,0.000431,0.076158
5623000,0.0324,0.013523,0.002678,0.000431,0.358696
5624000,0.0324,0.013523,0.002678,0.000431,0.267259
5625000,0.0324,0.013523,0.002678,0.000431,0.042428
5626000,0.0324,0.013523,0.002678,0.000431,0.057589
5627000,0.0324,0.013523,0.002678,0.000431,0.142327
5628000,0.0324,0.013523,0.002678,0.000431,0.281598
5629000,0.0324,0.013523,0.002678,0.000431,0.143149
5630000,0.0324,0.013523,0.002678,0.000431,0.217192
5631000,0.0324,0.013523,0.002678,0.000431,0.072867
5632000,0.0324,0.013523,0.002678,0.000431,0.035141
5633000,0.0324,0.013523,0.002678,0.000431,0.038667
5634000,0.0324,0.013523,0.002678,0.000431,0.357873
5635000,0.0324,0.013523,0.002678,0.000431,0.590697
5636000,0.0324,0.013523,0.002678,0.000431,0.060997
5637000,0.0324,0.013523,0.002678,0.000431,0.149378
5638000,0.0324,0.013523,0.002678,0.000431,0.229062
5639000,0.0324,0.013523,0.002678,0.000431,0.057001
5640000,0.0324,0.013523,0.002678,0.000431,0.087794
5641000,0.0324,0.013523,0.002678,0.000431,0.053710
5642000,0.0324,0.013523,0.002678,0.000431,0.210258
5643000,0.0324,0.013523,0.002678,0.000431,0.276426
5644000,0.0324,0.013523,0.002678,0.000431,0.333898
5645000,0.0324,0.013523,0.002678,0.000431,0.080037
5646000,0.0324,0.013523,0.002678,0.000431,0.042780
5647000,0.0324,0.013523,0.002678,0.000431,0.148908
5648000,0.0324,0.013523,0.002678,0.000431,0.243283
5649000,0.0324,0.013523,0.002678,0.000431,0.072750
5650000,0.0324,0.013523,0.002678,0.000431,0.103895
5651000,0.0324,0.013523,0.002678,0.000431,0.260795
5652000,0.0324,0.013523,0.002678,0.000431,0.174529
5653000,0.0324,0.013523,0.002678,0.000431,0.057471
5654000,0.0324,0.013523,0.002678,0.000431,0.045954
5655000,0.0324,0.013523,0.002678,0.000431,0.038784
5656000,0.0324,0.013523,0.002678,0.000431,0.058999
5657000,0.0324,0.013523,0.002678,0.000431,0.101309
5658000,0.0324,0.013523,0.002678,0.000431,0.057706
5659000,0.0324,0.013523,0.002678,0.000431,0.042193
5660000,0.0324,0.013523,0.002678,0.000431,0.035258
5661000,0.0324,0.013523,0.002678,0.000431,0.057941
5662000,0.0324,0.013523,0.002678,0.000431,0.064641
5663000,0.0324,0.013523,0.002678,0.000431,0.091202
5664000,0.0324,0.013523,0.002678,0.000431,0.369861
5665000,0.0324,0.013523,0.002678,0.000431,0.272313
5666000,0.0324,0.013523,0.002678,0.000431,0.050890
5667000,0.0324,0.013523,0.002678,0.000431,0.042663
5668000,0.0324,0.013523,0.002678,0.000431,0.117881
5669000,0.0324,0.013523,0.002678,0.000431,0.039019
5670000,0.0324,0.013523,0.002678,0.000431,0.174882
5671000,0.0324,0.013523,0.002678,0.000431,0.217192
5672000,0.0324,0.013523,0.002678,0.000431,0.145617
5673000,0.0324,0.013523,0.002678,0.000431,0.212373
5674000,0.0324,0.013523,0.002678,0.000431,0.123170
5675000,0.0324,0.013523,0.002678,0.000431,0.195214
5676000,0.0324,0.013523,0.002678,0.000431,0.168653
5677000,0.0324,0.013523,0.002678,0.000431,0.118821
5678000,0.0324,0.013523,0.002678,0.000431,0.086853
5679000,0.0324,0.013523,0.002678,0.000431,0.045366
5680000,0.0324,0.013523,0.002678,0.000431,0.107656
5681000,0.0324,0.013523,0.002678,0.000431,0.057824
5682000,0.0324,0.013523,0.002678,0.000431,0.050302
5683000,0.0324,0.013523,0.002678,0.000431,0.057824
5684000,0.0324,0.013523,0.002678,0.000431,0.057589
5685000,0.0324,0.013523,0.002678,0.000431,0.131279
5686000,0.0324,0.013523,0.002678,0.000431,0.278777
5687000,0.0324,0.013523,0.002678,0.000431,0.077098
5688000,0.0324,0.013523,0.002678,0.000431,0.042663
5689000,0.0324,0.013523,0.002678,0.000431,0.204499
5690000,0.0324,0.013523,0.002678,0.000431,0.079802
5691000,0.0324,0.013523,0.002678,0.000431,0.046424
5692000,0.0324,0.013523,0.002678,0.000431,0.074865
5693000,0.0324,0.013523,0.002678,0.000431,0.218720
5694000,0.0324,0.013523,0.002678,0.000431,0.214724
5695000,0.0324,0.013523,0.002678,0.000431,0.155960
5696000,0.0324,0.013523,0.002678,0.000431,0.243401
5697000,0.0324,0.013523,0.002678,0.000431,0.422161
5698000,0.0324,0.013523,0.002678,0.000431,0.502903
5699000,0.0324,0.013523,0.002678,0.000431,0.332957
5700000,0.0324,0.013523,0.002678,0.000431,0.258797
5701000,0.0324,0.013523,0.002678,0.000431,0.076276
5702000,0.0324,0.013523,0.002678,0.000431,0.242813
5703000,0.0324,0.013523,0.002678,0.000431,0.316738
5704000,0.0324,0.013523,0.002678,0.000431,0.128458
5705000,0.0324,0.013523,0.002678,0.000431,0.057824
5706000,0.0324,0.013523,0.002678,0.000431,0.072632
5707000,0.0324,0.013523,0.002678,0.000431,0.039019
5708000,0.0324,0.013523,0.002678,0.000431,0.046541
5709000,0.0324,0.013523,0.002678,0.000431,0.165127
5710000,0.0324,0.013523,0.002678,0.000431,0.227535
5711000,0.0324,0.013523,0.002678,0.000431,0.082035
5712000,0.0324,0.013523,0.002678,0.000431,0.353172
5713000,0.0324,0.013523,0.002678,0.000431,0.411114
5714000,0.0324,0.013523,0.002678,0.000431,0.170181
5715000,0.0324,0.013523,0.002678,0.000431,0.061702
5716000,0.0324,0.013523,0.002678,0.000431,0.094845
5717000,0.0324,0.013523,0.002678,0.000431,0.046306
5718000,0.0324,0.013523,0.002678,0.000431,0.035258
5719000,0.0324,0.013523,0.002678,0.000431,0.093435
5720000,0.0324,0.013523,0.002678,0.000431,0.067226
5721000,0.0324,0.013523,0.002678,0.000431,0.072750
5722000,0.0324,0.013523,0.002678,0.000431,0.325083
5723000,0.0324,0.013523,0.002678,0.000431,0.346356
5724000,0.0324,0.013523,0.002678,0.000431,0.167948
5725000,0.0324,0.013523,0.002678,0.000431,0.080154
5726000,0.0324,0.013523,0.002678,0.000431,0.065346
5727000,0.0324,0.013523,0.002678,0.000431,0.044661
5728000,0.0324,0.013523,0.002678,0.000431,0.173472
5729000,0.0324,0.013523,0.002678,0.000431,0.335543
5730000,0.0324,0.013523,0.002678,0.000431,0.381732
5731000,0.0324,0.013523,0.002678,0.000431,0.127165
5732000,0.0324,0.013523,0.002678,0.000431,0.305338
5733000,0.0324,0.013523,0.002678,0.000431,0.212608
5734000,0.0324,0.013523,0.002678,0.000431,0.177468
5735000,0.0324,0.013523,0.002678,0.000431,0.174177
5736000,0.0324,0.013523,0.002678,0.000431,0.061115
5737000,0.0324,0.013523,0.002678,0.000431,0.049597
5738000,0.0324,0.013523,0.002678,0.000431,0.252451
5739000,0.0324,0.013523,0.002678,0.000431,0.625838
5740000,0.0324,0.013523,0.002678,0.000431,0.392309
5741000,0.0324,0.013523,0.002678,0.000431,0.203794
5742000,0.0324,0.013523,0.002678,0.000431,0.227064
5743000,0.0324,0.013523,0.002678,0.000431,0.080037
5744000,0.0324,0.013523,0.002678,0.000431,0.053240
5745000,0.0324,0.013523,0.002678,0.000431,0.050185
5746000,0.0324,0.013523,0.002678,0.000431,0.065346
5747000,0.0324,0.013523,0.002678,0.000431,0.126225
5748000,0.0324,0.013523,0.002678,0.000431,0.415345
5749000,0.0324,0.013523,0.002678,0.000431,0.199445
5750000,0.0324,0.013523,0.002678,0.000431,0.164069
5751000,0.0324,0.013523,0.002678,0.000431,0.043368
5752000,0.0324,0.013523,0.002678,0.000431,0.103660
5753000,0.0324,0.013523,0.002678,0.000431,0.235644
5754000,0.0324,0.013523,0.002678,0.000431,0.103072
5755000,0.0324,0.013523,0.002678,0.000431,0.065581
5756000,0.0324,0.013523,0.002678,0.000431,0.103072
5757000,0.0324,0.013523,0.002678,0.000431,0.203676
5758000,0.0324,0.013523,0.002678,0.000431,0.227535
5759000,0.0324,0.013523,0.002678,0.000431,0.152434
5760000,0.0324,0.013523,0.002678,0.000431,0.069224
5761000,0.0324,0.013523,0.002678,0.000431,0.148908
5762000,0.0324,0.013523,0.002678,0.000431,0.079449
5763000,0.0324,0.013523,0.002678,0.000431,0.099076
5764000,0.0324,0.013523,0.002678,0.000431,0.035258
5765000,0.0324,0.013523,0.002678,0.000431,0.076276
5766000,0.0324,0.013523,0.002678,0.000431,0.061702
5767000,0.0324,0.013523,0.002678,0.000431,0.061937
5768000,0.0324,0.013523,0.002678,0.000431,0.185224
5769000,0.0324,0.013523,0.002678,0.000431,0.189690
5770000,0.0324,0.013523,0.002678,0.000431,0.390076
5771000,0.0324,0.013523,0.002678,0.000431,0.246222
5772000,0.0324,0.013523,0.002678,0.000431,0.203676
5773000,0.0324,0.013523,0.002678,0.000431,0.086266
5774000,0.0324,0.013523,0.002678,0.000431,0.035141
5775000,0.0324,0.013523,0.002678,0.000431,0.057706
5776000,0.0324,0.013523,0.002678,0.000431,0.076158
5777000,0.0324,0.013523,0.002678,0.000431,0.127988
5778000,0.0324,0.013523,0.002678,0.000431,0.288884
5779000,0.0324,0.013523,0.002678,0.000431,0.271020
5780000,0.0324,0.013523,0.002678,0.000431,0.204264
5781000,0.0324,0.013523,0.002678,0.000431,0.193099
5782000,0.0324,0.013523,0.002678,0.000431,0.094728
5783000,0.0324,0.013523,0.002678,0.000431,0.112239
5784000,0.0324,0.013523,0.002678,0.000431,0.086148
5785000,0.0324,0.013523,0.002678,0.000431,0.127988
5786000,0.0324,0.013523,0.002678,0.000431,0.190748
5787000,0.0324,0.013523,0.002678,0.000431,0.125520
5788000,0.0324,0.013523,0.002678,0.000431,0.087911
5789000,0.0324,0.013523,0.002678,0.000431,0.233881
5790000,0.0324,0.013523,0.002678,0.000431,0.114472
5791000,0.0324,0.013523,0.002678,0.000431,0.106010
5792000,0.0324,0.013523,0.002678,0.000431,0.197447
5793000,0.0324,0.013523,0.002678,0.000431,0.264673
5794000,0.0324,0.013523,0.002678,0.000431,0.161601
5795000,0.0324,0.013523,0.002678,0.000431,0.049597
5796000,0.0324,0.013523,0.002678,0.000431,0.109889
5797000,0.0324,0.013523,0.002678,0.000431,0.095433
5798000,0.0324,0.013523,0.002678,0.000431,0.090262
5799000,0.0324,0.013523,0.002678,0.000431,0.290412
5800000,0.0324,0.013523,0.002678,0.000431,0.145970
5801000,0.0324,0.013523,0.002678,0.000431,0.142562
5802000,0.0324,0.013523,0.002678,0.000431,0.245986
5803000,0.0324,0.013523,0.002678,0.000431,0.145147
5804000,0.0324,0.013523,0.002678,0.000431,0.230473
5805000,0.0324,0.013523,0.002678,0.000431,0.053945
5806000,0.0324,0.013523,0.002678,0.000431,0.175235
5807000,0.0324,0.013523,0.002678,0.000431,0.233999
5808000,0.0324,0.013523,0.002678,0.000431,0.164069
5809000,0.0324,0.013523,0.002678,0.000431,0.281833
5810000,0.0324,0.013523,0.002678,0.000431,0.232001
5811000,0.0324,0.013523,0.002678,0.000431,0.162894
5812000,0.0324,0.013523,0.002678,0.000431,0.055826
5813000,0.0324,0.013523,0.002678,0.000431,0.104718
5814000,0.0324,0.013523,0.002678,0.000431,0.038902
5815000,0.0324,0.013523,0.002678,0.000431,0.212138
5816000,0.0324,0.013523,0.002678,0.000431,0.088264
5817000,0.0324,0.013523,0.002678,0.000431,0.099546
5818000,0.0324,0.013523,0.002678,0.000431,0.320264
5819000,0.0324,0.013523,0.002678,0.000431,0.139623
5820000,0.0324,0.013523,0.002678,0.000431,0.058647
5821000,0.0324,0.013523,0.002678,0.000431,0.117998
5822000,0.0324,0.013523,0.002678,0.000431,0.072632
5823000,0.0324,0.013523,0.002678,0.000431,0.238230
5824000,0.0324,0.013523,0.002678,0.000431,0.132572
5825000,0.0324,0.013523,0.002678,0.000431,0.087794
5826000,0.0324,0.013523,0.002678,0.000431,0.155607
5827000,0.0324,0.013523,0.002678,0.000431,0.106716
5828000,0.0324,0.013523,0.002678,0.000431,0.425217
5829000,0.0324,0.013523,0.002678,0.000431,0.334838
5830000,0.0324,0.013523,0.002678,0.000431,0.140094
5831000,0.0324,0.013523,0.002678,0.000431,0.099664
5832000,0.0324,0.013523,0.002678,0.000431,0.207437
5833000,0.0324,0.013523,0.002678,0.000431,0.117293
5834000,0.0324,0.013523,0.002678,0.000431,0.112474
5835000,0.0324,0.013523,0.002678,0.000431,0.145265
5836000,0.0324,0.013523,0.002678,0.000431,0.249982
5837000,0.0324,0.013523,0.002678,0.000431,0.104600
5838000,0.0324,0.013523,0.002678,0.000431,0.133630
5839000,0.0324,0.013523,0.002678,0.000431,0.177350
5840000,0.0324,0.013523,0.002678,0.000431,0.073338
5841000,0.0324,0.013523,0.002678,0.000431,0.057824
5842000,0.0324,0.013523,0.002678,0.000431,0.106010
5843000,0.0324,0.013523,0.002678,0.000431,0.065111
5844000,0.0324,0.013523,0.002678,0.000431,0.126460
5845000,0.0324,0.013523,0.002678,0.000431,0.387255
5846000,0.0324,0.013523,0.002678,0.000431,0.292763
5847000,0.0324,0.013523,0.002678,0.000431,0.110476
5848000,0.0324,0.013523,0.002678,0.000431,0.072632
5849000,0.0324,0.013523,0.002678,0.000431,0.178408
5850000,0.0324,0.013523,0.002678,0.000431,0.129281
5851000,0.0324,0.013523,0.002678,0.000431,0.085325
5852000,0.0324,0.013523,0.002678,0.000431,0.130339
5853000,0.0324,0.013523,0.002678,0.000431,0.129163
5854000,0.0324,0.013523,0.002678,0.000431,0.073808
5855000,0.0324,0.013523,0.002678,0.000431,0.198388
5856000,0.0324,0.013523,0.002678,0.000431,0.138683
5857000,0.0324,0.013523,0.002678,0.000431,0.049832
5858000,0.0324,0.013523,0.002678,0.000431,0.094493
5859000,0.0324,0.013523,0.002678,0.000431,0.068519
5860000,0.0324,0.013523,0.002678,0.000431,0.128223
5861000,0.0324,0.013523,0.002678,0.000431,0.141974
5862000,0.0324,0.013523,0.002678,0.000431,0.217192
5863000,0.0324,0.013523,0.002678,0.000431,0.179113
5864000,0.0324,0.013523,0.002678,0.000431,0.183109
5865000,0.0324,0.013523,0.002678,0.000431,0.161131
5866000,0.0324,0.013523,0.002678,0.000431,0.125403
5867000,0.0324,0.013523,0.002678,0.000431,0.081094
5868000,0.0324,0.013523,0.002678,0.000431,0.166185
5869000,0.0324,0.013523,0.002678,0.000431,0.095433
5870000,0.0324,0.013523,0.002678,0.000431,0.048774
5871000,0.0324,0.013523,0.002678,0.000431,0.150554
5872000,0.0324,0.013523,0.002678,0.000431,0.118821
5873000,0.0324,0.013523,0.002678,0.000431,0.147968
5874000,0.0324,0.013523,0.002678,0.000431,0.076393
5875000,0.0324,0.013523,0.002678,0.000431,0.198975
5876000,0.0324,0.013523,0.002678,0.000431,0.201091
5877000,0.0324,0.013523,0.002678,0.000431,0.176645
5878000,0.0324,0.013523,0.002678,0.000431,0.107891
5879000,0.0324,0.013523,0.002678,0.000431,0.108596
5880000,0.0324,0.013523,0.002678,0.000431,0.136568
5881000,0.0324,0.013523,0.002678,0.000431,0.179936
5882000,0.0324,0.013523,0.002678,0.000431,0.130339
5883000,0.0324,0.013523,0.002678,0.000431,0.223891
5884000,0.0324,0.013523,0.002678,0.000431,0.235056
5885000,0.0324,0.013523,0.002678,0.000431,0.095433
5886000,0.0324,0.013523,0.002678,0.000431,0.087206
5887000,0.0324,0.013523,0.002678,0.000431,0.188515
5888000,0.0324,0.013523,0.002678,0.000431,0.215429
5889000,0.0324,0.013523,0.002678,0.000431,0.064758
5890000,0.0324,0.013523,0.002678,0.000431,0.137861
5891000,0.0324,0.013523,0.002678,0.000431,0.182404
5892000,0.0324,0.013523,0.002678,0.000431,0.220953
5893000,0.0324,0.013523,0.002678,0.000431,0.132454
5894000,0.0324,0.013523,0.002678,0.000431,0.273018
5895000,0.0324,0.013523,0.002678,0.000431,0.136098
5896000,0.0324,0.013523,0.002678,0.000431,0.057354
5897000,0.0324,0.013523,0.002678,0.000431,0.181816
5898000,0.0324,0.013523,0.002678,0.000431,0.136568
5899000,0.0324,0.013523,0.002678,0.000431,0.096021
5900000,0.0324,0.013523,0.002678,0.000431,0.208495
5901000,0.0324,0.013523,0.002678,0.000431,0.127871
5902000,0.0324,0.013523,0.002678,0.000431,0.119526
5903000,0.0324,0.013523,0.002678,0.000431,0.129516
5904000,0.0324,0.013523,0.002678,0.000431,0.151964
5905000,0.0324,0.013523,0.002678,0.000431,0.328139
5906000,0.0324,0.013523,0.002678,0.000431,0.222481
5907000,0.0324,0.013523,0.002678,0.000431,0.267847
5908000,0.0324,0.013523,0.002678,0.000431,0.152552
5909000,0.0324,0.013523,0.002678,0.000431,0.192394
5910000,0.0324,0.013523,0.002678,0.000431,0.363515
5911000,0.0324,0.013523,0.002678,0.000431,0.205674
5912000,0.0324,0.013523,0.002678,0.000431,0.089204
5913000,0.0324,0.013523,0.002678,0.000431,0.212021
5914000,0.0324,0.013523,0.002678,0.000431,0.193216
5915000,0.0324,0.013523,0.002678,0.000431,0.140094
5916000,0.0324,0.013523,0.002678,0.000431,0.128811
5917000,0.0324,0.013523,0.002678,0.000431,0.168300
5918000,0.0324,0.013523,0.002678,0.000431,0.138801
5919000,0.0324,0.013523,0.002678,0.000431,0.115648
5920000,0.0324,0.013523,0.002678,0.000431,0.292880
5921000,0.0324,0.013523,0.002678,0.000431,0.246104
5922000,0.0324,0.013523,0.002678,0.000431,0.091084
5923000,0.0324,0.013523,0.002678,0.000431,0.050067
5924000,0.0324,0.013523,0.002678,0.000431,0.089556
5925000,0.0324,0.013523,0.002678,0.000431,0.316503
5926000,0.0324,0.013523,0.002678,0.000431,0.145382
5927000,0.0324,0.013523,0.002678,0.000431,0.190513
5928000,0.0324,0.013523,0.002678,0.000431,0.181346
5929000,0.0324,0.013523,0.002678,0.000431,0.142914
5930000,0.0324,0.013523,0.002678,0.000431,0.117763
5931000,0.0324,0.013523,0.002678,0.000431,0.065346
5932000,0.0324,0.013523,0.002678,0.000431,0.085443
5933000,0.0324,0.013523,0.002678,0.000431,0.191453
5934000,0.0324,0.013523,0.002678,0.000431,0.160661
5935000,0.0324,0.013523,0.002678,0.000431,0.269727
5936000,0.0324,0.013523,0.002678,0.000431,0.367628
5937000,0.0324,0.013523,0.002678,0.000431,0.088146
5938000,0.0324,0.013523,0.002678,0.000431,0.095668
5939000,0.0324,0.013523,0.002678,0.000431,0.102602
5940000,0.0324,0.013523,0.002678,0.000431,0.215312
5941000,0.0324,0.013523,0.002678,0.000431,0.238112
5942000,0.0324,0.013523,0.002678,0.000431,0.275604
5943000,0.0324,0.013523,0.002678,0.000431,0.096138
5944000,0.0324,0.013523,0.002678,0.000431,0.300755
5945000,0.0324,0.013523,0.002678,0.000431,0.113885
5946000,0.0324,0.013523,0.002678,0.000431,0.407940
5947000,0.0324,0.013523,0.002678,0.000431,0.253038
5948000,0.0324,0.013523,0.002678,0.000431,0.172766
5949000,0.0324,0.013523,0.002678,0.000431,0.111417
5950000,0.0324,0.013523,0.002678,0.000431,0.053593
5951000,0.0324,0.013523,0.002678,0.000431,0.347531
5952000,0.0324,0.013523,0.002678,0.000431,0.112945
5953000,0.0324,0.013523,0.002678,0.000431,0.099311
5954000,0.0324,0.013523,0.002678,0.000431,0.170533
5955000,0.0324,0.013523,0.002678,0.000431,0.129046
5956000,0.0324,0.013523,0.002678,0.000431,0.068872
5957000,0.0324,0.013523,0.002678,0.000431,0.049597
5958000,0.0324,0.013523,0.002678,0.000431,0.215899
5959000,0.0324,0.013523,0.002678,0.000431,0.339186
5960000,0.0324,0.013523,0.002678,0.000431,0.216487
5961000,0.0324,0.013523,0.002678,0.000431,0.125285
5962000,0.0324,0.013523,0.002678,0.000431,0.216369
5963000,0.0324,0.013523,0.002678,0.000431,0.082740
5964000,0.0324,0.013523,0.002678,0.000431,0.057706
5965000,0.0324,0.013523,0.002678,0.000431,0.103542
5966000,0.0324,0.013523,0.002678,0.000431,0.124580
5967000,0.0324,0.013523,0.002678,0.000431,0.136803
5968000,0.0324,0.013523,0.002678,0.000431,0.079449
5969000,0.0324,0.013523,0.002678,0.000431,0.097666
5970000,0.0324,0.013523,0.002678,0.000431,0.280305
5971000,0.0324,0.013523,0.002678,0.000431,0.073338
5972000,0.0324,0.013523,0.002678,0.000431,0.181934
5973000,0.0324,0.013523,0.002678,0.000431,0.087676
5974000,0.0324,0.013523,0.002678,0.000431,0.125168
5975000,0.0324,0.013523,0.002678,0.000431,0.117763
5976000,0.0324,0.013523,0.002678,0.000431,0.268082
5977000,0.0324,0.013523,0.002678,0.000431,0.095080
5978000,0.0324,0.013523,0.002678,0.000431,0.080037
5979000,0.0324,0.013523,0.002678,0.000431,0.051712
5980000,0.0324,0.013523,0.002678,0.000431,0.071340
5981000,0.0324,0.013523,0.002678,0.000431,0.207437
5982000,0.0324,0.013523,0.002678,0.000431,0.087441
5983000,0.0324,0.013523,0.002678,0.000431,0.318971
5984000,0.0324,0.013523,0.002678,0.000431,0.155607
5985000,0.0324,0.013523,0.002678,0.000431,0.117881
5986000,0.0324,0.013523,0.002678,0.000431,0.247749
5987000,0.0324,0.013523,0.002678,0.000431,0.182286
5988000,0.0324,0.013523,0.002678,0.000431,0.035258
5989000,0.0324,0.013523,0.002678,0.000431,0.065463
5990000,0.0324,0.013523,0.002678,0.000431,0.160543
5991000,0.0324,0.013523,0.002678,0.000431,0.206967
5992000,0.0324,0.013523,0.002678,0.000431,0.127636
5993000,0.0324,0.013523,0.002678,0.000431,0.070634
5994000,0.0324,0.013523,0.002678,0.000431,0.135040
5995000,0.0324,0.013523,0.002678,0.000431,0.124815
5996000,0.0324,0.013523,0.002678,0.000431,0.055003
5997000,0.0324,0.013523,0.002678,0.000431,0.281362
5998000,0.0324,0.013523,0.002678,0.000431,0.076981
5999000,0.0324,0.013523,0.002678,0.000431,0.042545
