Cycle,Area(mm^2),PeakDynamic(W),SubthresholdLeakage(W),GateLeakage(W),RunTimeDynamic(W)
4000000,0.0324,0.013523,0.002678,0.000431,0.120701
4001000,0.0324,0.013523,0.002678,0.000431,0.159721
4002000,0.0324,0.013523,0.002678,0.000431,0.163482
4003000,0.0324,0.013523,0.002678,0.000431,0.083798
4004000,0.0324,0.013523,0.002678,0.000431,0.128458
4005000,0.0324,0.013523,0.002678,0.000431,0.143267
4006000,0.0324,0.013523,0.002678,0.000431,0.206732
4007000,0.0324,0.013523,0.002678,0.000431,0.091790
4008000,0.0324,0.013523,0.002678,0.000431,0.202266
4009000,0.0324,0.013523,0.002678,0.000431,0.058999
4010000,0.0324,0.013523,0.002678,0.000431,0.035258
4011000,0.0324,0.013523,0.002678,0.000431,0.104012
4012000,0.0324,0.013523,0.002678,0.000431,0.290530
4013000,0.0324,0.013523,0.002678,0.000431,0.147380
4014000,0.0324,0.013523,0.002678,0.000431,0.144090
4015000,0.0324,0.013523,0.002678,0.000431,0.129634
4016000,0.0324,0.013523,0.002678,0.000431,0.095433
4017000,0.0324,0.013523,0.002678,0.000431,0.147380
4018000,0.0324,0.013523,0.002678,0.000431,0.136215
4019000,0.0324,0.013523,0.002678,0.000431,0.281245
4020000,0.0324,0.013523,0.002678,0.000431,0.118821
4021000,0.0324,0.013523,0.002678,0.000431,0.227887
4022000,0.0324,0.013523,0.002678,0.000431,0.093552
4023000,0.0324,0.013523,0.002678,0.000431,0.074748
4024000,0.0324,0.013523,0.002678,0.000431,0.109889
4025000,0.0324,0.013523,0.002678,0.000431,0.173472
4026000,0.0324,0.013523,0.002678,0.000431,0.280305
4027000,0.0324,0.013523,0.002678,0.000431,0.266084
4028000,0.0324,0.013523,0.002678,0.000431,0.257152
4029000,0.0324,0.013523,0.002678,0.000431,0.065228
4030000,0.0324,0.013523,0.002678,0.000431,0.246457
4031000,0.0324,0.013523,0.002678,0.000431,0.143032
4032000,0.0324,0.013523,0.002678,0.000431,0.331900
4033000,0.0324,0.013523,0.002678,0.000431,0.147263
4034000,0.0324,0.013523,0.002678,0.000431,0.140446
4035000,0.0324,0.013523,0.002678,0.000431,0.043250
4036000,0.0324,0.013523,0.002678,0.000431,0.072515
4037000,0.0324,0.013523,0.002678,0.000431,0.159603
4038000,0.0324,0.013523,0.002678,0.000431,0.188163
4039000,0.0324,0.013523,0.002678,0.000431,0.107186
4040000,0.0324,0.013523,0.002678,0.000431,0.229885
4041000,0.0324,0.013523,0.002678,0.000431,0.235879
4042000,0.0324,0.013523,0.002678,0.000431,0.130339
4043000,0.0324,0.013523,0.002678,0.000431,0.127165
4044000,0.0324,0.013523,0.002678,0.000431,0.139271
4045000,0.0324,0.013523,0.002678,0.000431,0.110359
4046000,0.0324,0.013523,0.002678,0.000431,0.145617
4047000,0.0324,0.013523,0.002678,0.000431,0.083327
4048000,0.0324,0.013523,0.002678,0.000431,0.057824
4049000,0.0324,0.013523,0.002678,0.000431,0.123522
4050000,0.0324,0.013523,0.002678,0.000431,0.246927
4051000,0.0324,0.013523,0.002678,0.000431,0.225889
4052000,0.0324,0.013523,0.002678,0.000431,0.283713
4053000,0.0324,0.013523,0.002678,0.000431,0.119526
4054000,0.0324,0.013523,0.002678,0.000431,0.076041
4055000,0.0324,0.013523,0.002678,0.000431,0.073455
4056000,0.0324,0.013523,0.002678,0.000431,0.167008
4057000,0.0324,0.013523,0.002678,0.000431,0.172061
4058000,0.0324,0.013523,0.002678,0.000431,0.182404
4059000,0.0324,0.013523,0.002678,0.000431,0.297111
4060000,0.0324,0.013523,0.002678,0.000431,0.222951
4061000,0.0324,0.013523,0.002678,0.000431,0.072867
4062000,0.0324,0.013523,0.002678,0.000431,0.077686
4063000,0.0324,0.013523,0.002678,0.000431,0.141857
4064000,0.0324,0.013523,0.002678,0.000431,0.111769
4065000,0.0324,0.013523,0.002678,0.000431,0.301930
4066000,0.0324,0.013523,0.002678,0.000431,0.340362
4067000,0.0324,0.013523,0.002678,0.000431,0.052065
4068000,0.0324,0.013523,0.002678,0.000431,0.239640
4069000,0.0324,0.013523,0.002678,0.000431,0.147968
4070000,0.0324,0.013523,0.002678,0.000431,0.132219
4071000,0.0324,0.013523,0.002678,0.000431,0.095433
4072000,0.0324,0.013523,0.002678,0.000431,0.169593
4073000,0.0324,0.013523,0.002678,0.000431,0.092612
4074000,0.0324,0.013523,0.002678,0.000431,0.055708
4075000,0.0324,0.013523,0.002678,0.000431,0.180993
4076000,0.0324,0.013523,0.002678,0.000431,0.109889
4077000,0.0324,0.013523,0.002678,0.000431,0.294173
4078000,0.0324,0.013523,0.002678,0.000431,0.188868
4079000,0.0324,0.013523,0.002678,0.000431,0.115178
4080000,0.0324,0.013523,0.002678,0.000431,0.161954
4081000,0.0324,0.013523,0.002678,0.000431,0.225302
4082000,0.0324,0.013523,0.002678,0.000431,0.218015
4083000,0.0324,0.013523,0.002678,0.000431,0.207437
4084000,0.0324,0.013523,0.002678,0.000431,0.141621
4085000,0.0324,0.013523,0.002678,0.000431,0.258797
4086000,0.0324,0.013523,0.002678,0.000431,0.114002
4087000,0.0324,0.013523,0.002678,0.000431,0.054298
4088000,0.0324,0.013523,0.002678,0.000431,0.127401
4089000,0.0324,0.013523,0.002678,0.000431,0.186165
4090000,0.0324,0.013523,0.002678,0.000431,0.077921
4091000,0.0324,0.013523,0.002678,0.000431,0.132219
4092000,0.0324,0.013523,0.002678,0.000431,0.065933
4093000,0.0324,0.013523,0.002678,0.000431,0.095315
4094000,0.0324,0.013523,0.002678,0.000431,0.066638
4095000,0.0324,0.013523,0.002678,0.000431,0.230590
4096000,0.0324,0.013523,0.002678,0.000431,0.101662
4097000,0.0324,0.013523,0.002678,0.000431,0.161836
4098000,0.0324,0.013523,0.002678,0.000431,0.172061
4099000,0.0324,0.013523,0.002678,0.000431,0.250570
4100000,0.0324,0.013523,0.002678,0.000431,0.037256
4101000,0.0324,0.013523,0.002678,0.000431,0.191571
4102000,0.0324,0.013523,0.002678,0.000431,0.160661
4103000,0.0324,0.013523,0.002678,0.000431,0.107303
4104000,0.0324,0.013523,0.002678,0.000431,0.141386
4105000,0.0324,0.013523,0.002678,0.000431,0.164422
4106000,0.0324,0.013523,0.002678,0.000431,0.062760
4107000,0.0324,0.013523,0.002678,0.000431,0.072750
4108000,0.0324,0.013523,0.002678,0.000431,0.080037
4109000,0.0324,0.013523,0.002678,0.000431,0.099429
4110000,0.0324,0.013523,0.002678,0.000431,0.127165
4111000,0.0324,0.013523,0.002678,0.000431,0.165010
4112000,0.0324,0.013523,0.002678,0.000431,0.065111
4113000,0.0324,0.013523,0.002678,0.000431,0.052535
4114000,0.0324,0.013523,0.002678,0.000431,0.145265
4115000,0.0324,0.013523,0.002678,0.000431,0.060174
4116000,0.0324,0.013523,0.002678,0.000431,0.116470
4117000,0.0324,0.013523,0.002678,0.000431,0.274781
4118000,0.0324,0.013523,0.002678,0.000431,0.196977
4119000,0.0324,0.013523,0.002678,0.000431,0.097548
4120000,0.0324,0.013523,0.002678,0.000431,0.188280
4121000,0.0324,0.013523,0.002678,0.000431,0.100134
4122000,0.0324,0.013523,0.002678,0.000431,0.102837
4123000,0.0324,0.013523,0.002678,0.000431,0.313095
4124000,0.0324,0.013523,0.002678,0.000431,0.211903
4125000,0.0324,0.013523,0.002678,0.000431,0.220248
4126000,0.0324,0.013523,0.002678,0.000431,0.075688
4127000,0.0324,0.013523,0.002678,0.000431,0.110241
4128000,0.0324,0.013523,0.002678,0.000431,0.250218
4129000,0.0324,0.013523,0.002678,0.000431,0.193922
4130000,0.0324,0.013523,0.002678,0.000431,0.152669
4131000,0.0324,0.013523,0.002678,0.000431,0.141739
4132000,0.0324,0.013523,0.002678,0.000431,0.065228
4133000,0.0324,0.013523,0.002678,0.000431,0.132924
4134000,0.0324,0.013523,0.002678,0.000431,0.148556
4135000,0.0324,0.013523,0.002678,0.000431,0.317091
4136000,0.0324,0.013523,0.002678,0.000431,0.277249
4137000,0.0324,0.013523,0.002678,0.000431,0.158193
4138000,0.0324,0.013523,0.002678,0.000431,0.042898
4139000,0.0324,0.013523,0.002678,0.000431,0.068872
4140000,0.0324,0.013523,0.002678,0.000431,0.165950
4141000,0.0324,0.013523,0.002678,0.000431,0.174294
4142000,0.0324,0.013523,0.002678,0.000431,0.117998
4143000,0.0324,0.013523,0.002678,0.000431,0.309922
4144000,0.0324,0.013523,0.002678,0.000431,0.180053
4145000,0.0324,0.013523,0.002678,0.000431,0.058294
4146000,0.0324,0.013523,0.002678,0.000431,0.224479
4147000,0.0324,0.013523,0.002678,0.000431,0.168535
4148000,0.0324,0.013523,0.002678,0.000431,0.196860
4149000,0.0324,0.013523,0.002678,0.000431,0.315916
4150000,0.0324,0.013523,0.002678,0.000431,0.177585
4151000,0.0324,0.013523,0.002678,0.000431,0.072162
4152000,0.0324,0.013523,0.002678,0.000431,0.182286
4153000,0.0324,0.013523,0.002678,0.000431,0.203441
4154000,0.0324,0.013523,0.002678,0.000431,0.053945
4155000,0.0324,0.013523,0.002678,0.000431,0.103660
4156000,0.0324,0.013523,0.002678,0.000431,0.180993
4157000,0.0324,0.013523,0.002678,0.000431,0.080037
4158000,0.0324,0.013523,0.002678,0.000431,0.057119
4159000,0.0324,0.013523,0.002678,0.000431,0.200268
4160000,0.0324,0.013523,0.002678,0.000431,0.116588
4161000,0.0324,0.013523,0.002678,0.000431,0.099429
4162000,0.0324,0.013523,0.002678,0.000431,0.138448
4163000,0.0324,0.013523,0.002678,0.000431,0.117646
4164000,0.0324,0.013523,0.002678,0.000431,0.057236
4165000,0.0324,0.013523,0.002678,0.000431,0.193569
4166000,0.0324,0.013523,0.002678,0.000431,0.180758
4167000,0.0324,0.013523,0.002678,0.000431,0.160073
4168000,0.0324,0.013523,0.002678,0.000431,0.084268
4169000,0.0324,0.013523,0.002678,0.000431,0.284536
4170000,0.0324,0.013523,0.002678,0.000431,0.135745
4171000,0.0324,0.013523,0.002678,0.000431,0.035258
4172000,0.0324,0.013523,0.002678,0.000431,0.083563
4173000,0.0324,0.013523,0.002678,0.000431,0.140211
4174000,0.0324,0.013523,0.002678,0.000431,0.091907
4175000,0.0324,0.013523,0.002678,0.000431,0.144677
4176000,0.0324,0.013523,0.002678,0.000431,0.241285
4177000,0.0324,0.013523,0.002678,0.000431,0.050302
4178000,0.0324,0.013523,0.002678,0.000431,0.136803
4179000,0.0324,0.013523,0.002678,0.000431,0.072867
4180000,0.0324,0.013523,0.002678,0.000431,0.129046
4181000,0.0324,0.013523,0.002678,0.000431,0.104483
4182000,0.0324,0.013523,0.002678,0.000431,0.188515
4183000,0.0324,0.013523,0.002678,0.000431,0.166302
4184000,0.0324,0.013523,0.002678,0.000431,0.061467
4185000,0.0324,0.013523,0.002678,0.000431,0.140446
4186000,0.0324,0.013523,0.002678,0.000431,0.216722
4187000,0.0324,0.013523,0.002678,0.000431,0.176292
4188000,0.0324,0.013523,0.002678,0.000431,0.220953
4189000,0.0324,0.013523,0.002678,0.000431,0.197800
4190000,0.0324,0.013523,0.002678,0.000431,0.059234
4191000,0.0324,0.013523,0.002678,0.000431,0.098371
4192000,0.0324,0.013523,0.002678,0.000431,0.145735
4193000,0.0324,0.013523,0.002678,0.000431,0.063935
4194000,0.0324,0.013523,0.002678,0.000431,0.076511
4195000,0.0324,0.013523,0.002678,0.000431,0.106598
4196000,0.0324,0.013523,0.002678,0.000431,0.057824
4197000,0.0324,0.013523,0.002678,0.000431,0.117881
4198000,0.0324,0.013523,0.002678,0.000431,0.189455
4199000,0.0324,0.013523,0.002678,0.000431,0.208260
4200000,0.0324,0.013523,0.002678,0.000431,0.141504
4201000,0.0324,0.013523,0.002678,0.000431,0.160308
4202000,0.0324,0.013523,0.002678,0.000431,0.190043
4203000,0.0324,0.013523,0.002678,0.000431,0.035023
4204000,0.0324,0.013523,0.002678,0.000431,0.185107
4205000,0.0324,0.013523,0.002678,0.000431,0.133747
4206000,0.0324,0.013523,0.002678,0.000431,0.103307
4207000,0.0324,0.013523,0.002678,0.000431,0.183226
4208000,0.0324,0.013523,0.002678,0.000431,0.251275
4209000,0.0324,0.013523,0.002678,0.000431,0.143854
4210000,0.0324,0.013523,0.002678,0.000431,0.084738
4211000,0.0324,0.013523,0.002678,0.000431,0.207437
4212000,0.0324,0.013523,0.002678,0.000431,0.121172
4213000,0.0324,0.013523,0.002678,0.000431,0.061820
4214000,0.0324,0.013523,0.002678,0.000431,0.143972
4215000,0.0324,0.013523,0.002678,0.000431,0.245986
4216000,0.0324,0.013523,0.002678,0.000431,0.065581
4217000,0.0324,0.013523,0.002678,0.000431,0.227064
4218000,0.0324,0.013523,0.002678,0.000431,0.106128
4219000,0.0324,0.013523,0.002678,0.000431,0.144677
4220000,0.0324,0.013523,0.002678,0.000431,0.266554
4221000,0.0324,0.013523,0.002678,0.000431,0.101309
4222000,0.0324,0.013523,0.002678,0.000431,0.035258
4223000,0.0324,0.013523,0.002678,0.000431,0.072867
4224000,0.0324,0.013523,0.002678,0.000431,0.159016
4225000,0.0324,0.013523,0.002678,0.000431,0.074043
4226000,0.0324,0.013523,0.002678,0.000431,0.164892
4227000,0.0324,0.013523,0.002678,0.000431,0.121054
4228000,0.0324,0.013523,0.002678,0.000431,0.219778
4229000,0.0324,0.013523,0.002678,0.000431,0.055121
4230000,0.0324,0.013523,0.002678,0.000431,0.152081
4231000,0.0324,0.013523,0.002678,0.000431,0.131867
4232000,0.0324,0.013523,0.002678,0.000431,0.139036
4233000,0.0324,0.013523,0.002678,0.000431,0.129163
4234000,0.0324,0.013523,0.002678,0.000431,0.270902
4235000,0.0324,0.013523,0.002678,0.000431,0.050772
4236000,0.0324,0.013523,0.002678,0.000431,0.156900
4237000,0.0324,0.013523,0.002678,0.000431,0.116705
4238000,0.0324,0.013523,0.002678,0.000431,0.192394
4239000,0.0324,0.013523,0.002678,0.000431,0.212138
4240000,0.0324,0.013523,0.002678,0.000431,0.182051
4241000,0.0324,0.013523,0.002678,0.000431,0.140681
4242000,0.0324,0.013523,0.002678,0.000431,0.035141
4243000,0.0324,0.013523,0.002678,0.000431,0.072750
4244000,0.0324,0.013523,0.002678,0.000431,0.087911
4245000,0.0324,0.013523,0.002678,0.000431,0.054063
4246000,0.0324,0.013523,0.002678,0.000431,0.152787
4247000,0.0324,0.013523,0.002678,0.000431,0.136568
4248000,0.0324,0.013523,0.002678,0.000431,0.162071
4249000,0.0324,0.013523,0.002678,0.000431,0.162659
4250000,0.0324,0.013523,0.002678,0.000431,0.215547
4251000,0.0324,0.013523,0.002678,0.000431,0.121407
4252000,0.0324,0.013523,0.002678,0.000431,0.104247
4253000,0.0324,0.013523,0.002678,0.000431,0.116000
4254000,0.0324,0.013523,0.002678,0.000431,0.065346
4255000,0.0324,0.013523,0.002678,0.000431,0.214371
4256000,0.0324,0.013523,0.002678,0.000431,0.280657
4257000,0.0324,0.013523,0.002678,0.000431,0.200503
4258000,0.0324,0.013523,0.002678,0.000431,0.189338
4259000,0.0324,0.013523,0.002678,0.000431,0.174294
4260000,0.0324,0.013523,0.002678,0.000431,0.091554
4261000,0.0324,0.013523,0.002678,0.000431,0.046189
4262000,0.0324,0.013523,0.002678,0.000431,0.106716
4263000,0.0324,0.013523,0.002678,0.000431,0.136920
4264000,0.0324,0.013523,0.002678,0.000431,0.106481
4265000,0.0324,0.013523,0.002678,0.000431,0.253038
4266000,0.0324,0.013523,0.002678,0.000431,0.125873
4267000,0.0324,0.013523,0.002678,0.000431,0.112710
4268000,0.0324,0.013523,0.002678,0.000431,0.081330
4269000,0.0324,0.013523,0.002678,0.000431,0.208260
4270000,0.0324,0.013523,0.002678,0.000431,0.141269
4271000,0.0324,0.013523,0.002678,0.000431,0.233764
4272000,0.0324,0.013523,0.002678,0.000431,0.155020
4273000,0.0324,0.013523,0.002678,0.000431,0.083210
4274000,0.0324,0.013523,0.002678,0.000431,0.053358
4275000,0.0324,0.013523,0.002678,0.000431,0.158898
4276000,0.0324,0.013523,0.002678,0.000431,0.167360
4277000,0.0324,0.013523,0.002678,0.000431,0.209083
4278000,0.0324,0.013523,0.002678,0.000431,0.220953
4279000,0.0324,0.013523,0.002678,0.000431,0.089909
4280000,0.0324,0.013523,0.002678,0.000431,0.095198
4281000,0.0324,0.013523,0.002678,0.000431,0.125520
4282000,0.0324,0.013523,0.002678,0.000431,0.197095
4283000,0.0324,0.013523,0.002678,0.000431,0.172414
4284000,0.0324,0.013523,0.002678,0.000431,0.067226
4285000,0.0324,0.013523,0.002678,0.000431,0.145382
4286000,0.0324,0.013523,0.002678,0.000431,0.119761
4287000,0.0324,0.013523,0.002678,0.000431,0.043720
4288000,0.0324,0.013523,0.002678,0.000431,0.100134
4289000,0.0324,0.013523,0.002678,0.000431,0.094140
4290000,0.0324,0.013523,0.002678,0.000431,0.068872
4291000,0.0324,0.013523,0.002678,0.000431,0.193099
4292000,0.0324,0.013523,0.002678,0.000431,0.145265
4293000,0.0324,0.013523,0.002678,0.000431,0.097783
4294000,0.0324,0.013523,0.002678,0.000431,0.151611
4295000,0.0324,0.013523,0.002678,0.000431,0.253038
4296000,0.0324,0.013523,0.002678,0.000431,0.106598
4297000,0.0324,0.013523,0.002678,0.000431,0.075923
4298000,0.0324,0.013523,0.002678,0.000431,0.137390
4299000,0.0324,0.013523,0.002678,0.000431,0.110124
4300000,0.0324,0.013523,0.002678,0.000431,0.069107
4301000,0.0324,0.013523,0.002678,0.000431,0.147850
4302000,0.0324,0.013523,0.002678,0.000431,0.129399
4303000,0.0324,0.013523,0.002678,0.000431,0.068989
4304000,0.0324,0.013523,0.002678,0.000431,0.340009
4305000,0.0324,0.013523,0.002678,0.000431,0.102837
4306000,0.0324,0.013523,0.002678,0.000431,0.057236
4307000,0.0324,0.013523,0.002678,0.000431,0.140681
4308000,0.0324,0.013523,0.002678,0.000431,0.198270
4309000,0.0324,0.013523,0.002678,0.000431,0.097666
4310000,0.0324,0.013523,0.002678,0.000431,0.115530
4311000,0.0324,0.013523,0.002678,0.000431,0.261853
4312000,0.0324,0.013523,0.002678,0.000431,0.118821
4313000,0.0324,0.013523,0.002678,0.000431,0.057824
4314000,0.0324,0.013523,0.002678,0.000431,0.144325
4315000,0.0324,0.013523,0.002678,0.000431,0.095433
4316000,0.0324,0.013523,0.002678,0.000431,0.137038
4317000,0.0324,0.013523,0.002678,0.000431,0.185930
4318000,0.0324,0.013523,0.002678,0.000431,0.088264
4319000,0.0324,0.013523,0.002678,0.000431,0.102014
4320000,0.0324,0.013523,0.002678,0.000431,0.114120
4321000,0.0324,0.013523,0.002678,0.000431,0.115765
4322000,0.0324,0.013523,0.002678,0.000431,0.071340
4323000,0.0324,0.013523,0.002678,0.000431,0.146675
4324000,0.0324,0.013523,0.002678,0.000431,0.164187
4325000,0.0324,0.013523,0.002678,0.000431,0.080272
4326000,0.0324,0.013523,0.002678,0.000431,0.106481
4327000,0.0324,0.013523,0.002678,0.000431,0.262675
4328000,0.0324,0.013523,0.002678,0.000431,0.216839
4329000,0.0324,0.013523,0.002678,0.000431,0.095198
4330000,0.0324,0.013523,0.002678,0.000431,0.243753
4331000,0.0324,0.013523,0.002678,0.000431,0.127753
4332000,0.0324,0.013523,0.002678,0.000431,0.084150
4333000,0.0324,0.013523,0.002678,0.000431,0.175235
4334000,0.0324,0.013523,0.002678,0.000431,0.123875
4335000,0.0324,0.013523,0.002678,0.000431,0.087794
4336000,0.0324,0.013523,0.002678,0.000431,0.130809
4337000,0.0324,0.013523,0.002678,0.000431,0.143149
4338000,0.0324,0.013523,0.002678,0.000431,0.079919
4339000,0.0324,0.013523,0.002678,0.000431,0.063465
4340000,0.0324,0.013523,0.002678,0.000431,0.244811
4341000,0.0324,0.013523,0.002678,0.000431,0.087911
4342000,0.0324,0.013523,0.002678,0.000431,0.146558
4343000,0.0324,0.013523,0.002678,0.000431,0.230708
4344000,0.0324,0.013523,0.002678,0.000431,0.069224
4345000,0.0324,0.013523,0.002678,0.000431,0.127165
4346000,0.0324,0.013523,0.002678,0.000431,0.063818
4347000,0.0324,0.013523,0.002678,0.000431,0.175470
4348000,0.0324,0.013523,0.002678,0.000431,0.037844
4349000,0.0324,0.013523,0.002678,0.000431,0.082387
4350000,0.0324,0.013523,0.002678,0.000431,0.168418
4351000,0.0324,0.013523,0.002678,0.000431,0.034788
4352000,0.0324,0.013523,0.002678,0.000431,0.095433
4353000,0.0324,0.013523,0.002678,0.000431,0.144560
4354000,0.0324,0.013523,0.002678,0.000431,0.109889
4355000,0.0324,0.013523,0.002678,0.000431,0.074043
4356000,0.0324,0.013523,0.002678,0.000431,0.122347
4357000,0.0324,0.013523,0.002678,0.000431,0.055473
4358000,0.0324,0.013523,0.002678,0.000431,0.158898
4359000,0.0324,0.013523,0.002678,0.000431,0.166772
4360000,0.0324,0.013523,0.002678,0.000431,0.150789
4361000,0.0324,0.013523,0.002678,0.000431,0.119996
4362000,0.0324,0.013523,0.002678,0.000431,0.144325
4363000,0.0324,0.013523,0.002678,0.000431,0.212608
4364000,0.0324,0.013523,0.002678,0.000431,0.076158
4365000,0.0324,0.013523,0.002678,0.000431,0.038784
4366000,0.0324,0.013523,0.002678,0.000431,0.099429
4367000,0.0324,0.013523,0.002678,0.000431,0.185695
4368000,0.0324,0.013523,0.002678,0.000431,0.139153
4369000,0.0324,0.013523,0.002678,0.000431,0.106598
4370000,0.0324,0.013523,0.002678,0.000431,0.117646
4371000,0.0324,0.013523,0.002678,0.000431,0.065111
4372000,0.0324,0.013523,0.002678,0.000431,0.126813
4373000,0.0324,0.013523,0.002678,0.000431,0.129046
4374000,0.0324,0.013523,0.002678,0.000431,0.307689
4375000,0.0324,0.013523,0.002678,0.000431,0.158546
4376000,0.0324,0.013523,0.002678,0.000431,0.055121
4377000,0.0324,0.013523,0.002678,0.000431,0.131632
4378000,0.0324,0.013523,0.002678,0.000431,0.183814
4379000,0.0324,0.013523,0.002678,0.000431,0.177820
4380000,0.0324,0.013523,0.002678,0.000431,0.169006
4381000,0.0324,0.013523,0.002678,0.000431,0.248455
4382000,0.0324,0.013523,0.002678,0.000431,0.171591
4383000,0.0324,0.013523,0.002678,0.000431,0.042780
4384000,0.0324,0.013523,0.002678,0.000431,0.099076
4385000,0.0324,0.013523,0.002678,0.000431,0.138683
4386000,0.0324,0.013523,0.002678,0.000431,0.244811
4387000,0.0324,0.013523,0.002678,0.000431,0.141857
4388000,0.0324,0.013523,0.002678,0.000431,0.327669
4389000,0.0324,0.013523,0.002678,0.000431,0.168653
4390000,0.0324,0.013523,0.002678,0.000431,0.087088
4391000,0.0324,0.013523,0.002678,0.000431,0.143267
4392000,0.0324,0.013523,0.002678,0.000431,0.189808
4393000,0.0324,0.013523,0.002678,0.000431,0.073690
4394000,0.0324,0.013523,0.002678,0.000431,0.112827
4395000,0.0324,0.013523,0.002678,0.000431,0.198270
4396000,0.0324,0.013523,0.002678,0.000431,0.068989
4397000,0.0324,0.013523,0.002678,0.000431,0.057824
4398000,0.0324,0.013523,0.002678,0.000431,0.091672
4399000,0.0324,0.013523,0.002678,0.000431,0.128106
4400000,0.0324,0.013523,0.002678,0.000431,0.050772
4401000,0.0324,0.013523,0.002678,0.000431,0.107303
4402000,0.0324,0.013523,0.002678,0.000431,0.035141
4403000,0.0324,0.013523,0.002678,0.000431,0.177350
4404000,0.0324,0.013523,0.002678,0.000431,0.156077
4405000,0.0324,0.013523,0.002678,0.000431,0.129399
4406000,0.0324,0.013523,0.002678,0.000431,0.149143
4407000,0.0324,0.013523,0.002678,0.000431,0.203206
4408000,0.0324,0.013523,0.002678,0.000431,0.117998
4409000,0.0324,0.013523,0.002678,0.000431,0.044073
4410000,0.0324,0.013523,0.002678,0.000431,0.113767
4411000,0.0324,0.013523,0.002678,0.000431,0.142562
4412000,0.0324,0.013523,0.002678,0.000431,0.057589
4413000,0.0324,0.013523,0.002678,0.000431,0.144207
4414000,0.0324,0.013523,0.002678,0.000431,0.135863
4415000,0.0324,0.013523,0.002678,0.000431,0.162659
4416000,0.0324,0.013523,0.002678,0.000431,0.091202
4417000,0.0324,0.013523,0.002678,0.000431,0.220600
4418000,0.0324,0.013523,0.002678,0.000431,0.090027
4419000,0.0324,0.013523,0.002678,0.000431,0.134100
4420000,0.0324,0.013523,0.002678,0.000431,0.185812
4421000,0.0324,0.013523,0.002678,0.000431,0.080624
4422000,0.0324,0.013523,0.002678,0.000431,0.042780
4423000,0.0324,0.013523,0.002678,0.000431,0.136450
4424000,0.0324,0.013523,0.002678,0.000431,0.077451
4425000,0.0324,0.013523,0.002678,0.000431,0.096843
4426000,0.0324,0.013523,0.002678,0.000431,0.292410
4427000,0.0324,0.013523,0.002678,0.000431,0.108126
4428000,0.0324,0.013523,0.002678,0.000431,0.035258
4429000,0.0324,0.013523,0.002678,0.000431,0.035494
4430000,0.0324,0.013523,0.002678,0.000431,0.194157
4431000,0.0324,0.013523,0.002678,0.000431,0.108714
4432000,0.0324,0.013523,0.002678,0.000431,0.110594
4433000,0.0324,0.013523,0.002678,0.000431,0.085913
4434000,0.0324,0.013523,0.002678,0.000431,0.212491
4435000,0.0324,0.013523,0.002678,0.000431,0.085090
4436000,0.0324,0.013523,0.002678,0.000431,0.165245
4437000,0.0324,0.013523,0.002678,0.000431,0.295818
4438000,0.0324,0.013523,0.002678,0.000431,0.107773
4439000,0.0324,0.013523,0.002678,0.000431,0.165010
4440000,0.0324,0.013523,0.002678,0.000431,0.065698
4441000,0.0324,0.013523,0.002678,0.000431,0.073455
4442000,0.0324,0.013523,0.002678,0.000431,0.050185
4443000,0.0324,0.013523,0.002678,0.000431,0.136450
4444000,0.0324,0.013523,0.002678,0.000431,0.140799
4445000,0.0324,0.013523,0.002678,0.000431,0.085678
4446000,0.0324,0.013523,0.002678,0.000431,0.310039
4447000,0.0324,0.013523,0.002678,0.000431,0.261500
4448000,0.0324,0.013523,0.002678,0.000431,0.122112
4449000,0.0324,0.013523,0.002678,0.000431,0.122112
4450000,0.0324,0.013523,0.002678,0.000431,0.163247
4451000,0.0324,0.013523,0.002678,0.000431,0.087794
4452000,0.0324,0.013523,0.002678,0.000431,0.259972
4453000,0.0324,0.013523,0.002678,0.000431,0.088969
4454000,0.0324,0.013523,0.002678,0.000431,0.106598
4455000,0.0324,0.013523,0.002678,0.000431,0.131984
4456000,0.0324,0.013523,0.002678,0.000431,0.175352
4457000,0.0324,0.013523,0.002678,0.000431,0.109419
4458000,0.0324,0.013523,0.002678,0.000431,0.084033
4459000,0.0324,0.013523,0.002678,0.000431,0.106481
4460000,0.0324,0.013523,0.002678,0.000431,0.219073
4461000,0.0324,0.013523,0.002678,0.000431,0.166655
4462000,0.0324,0.013523,0.002678,0.000431,0.062172
4463000,0.0324,0.013523,0.002678,0.000431,0.199093
4464000,0.0324,0.013523,0.002678,0.000431,0.054651
4465000,0.0324,0.013523,0.002678,0.000431,0.165715
4466000,0.0324,0.013523,0.002678,0.000431,0.055591
4467000,0.0324,0.013523,0.002678,0.000431,0.086148
4468000,0.0324,0.013523,0.002678,0.000431,0.123640
4469000,0.0324,0.013523,0.002678,0.000431,0.207907
4470000,0.0324,0.013523,0.002678,0.000431,0.138566
4471000,0.0324,0.013523,0.002678,0.000431,0.196507
4472000,0.0324,0.013523,0.002678,0.000431,0.080389
4473000,0.0324,0.013523,0.002678,0.000431,0.087911
4474000,0.0324,0.013523,0.002678,0.000431,0.133042
4475000,0.0324,0.013523,0.002678,0.000431,0.181816
4476000,0.0324,0.013523,0.002678,0.000431,0.238112
4477000,0.0324,0.013523,0.002678,0.000431,0.092025
4478000,0.0324,0.013523,0.002678,0.000431,0.156665
4479000,0.0324,0.013523,0.002678,0.000431,0.207202
4480000,0.0324,0.013523,0.002678,0.000431,0.148086
4481000,0.0324,0.013523,0.002678,0.000431,0.176292
4482000,0.0324,0.013523,0.002678,0.000431,0.201561
4483000,0.0324,0.013523,0.002678,0.000431,0.050185
4484000,0.0324,0.013523,0.002678,0.000431,0.060292
4485000,0.0324,0.013523,0.002678,0.000431,0.097196
4486000,0.0324,0.013523,0.002678,0.000431,0.082975
4487000,0.0324,0.013523,0.002678,0.000431,0.110947
4488000,0.0324,0.013523,0.002678,0.000431,0.170651
4489000,0.0324,0.013523,0.002678,0.000431,0.093082
4490000,0.0324,0.013523,0.002678,0.000431,0.169123
4491000,0.0324,0.013523,0.002678,0.000431,0.257387
4492000,0.0324,0.013523,0.002678,0.000431,0.098606
4493000,0.0324,0.013523,0.002678,0.000431,0.183226
4494000,0.0324,0.013523,0.002678,0.000431,0.109184
4495000,0.0324,0.013523,0.002678,0.000431,0.172179
4496000,0.0324,0.013523,0.002678,0.000431,0.138213
4497000,0.0324,0.013523,0.002678,0.000431,0.206732
4498000,0.0324,0.013523,0.002678,0.000431,0.142327
4499000,0.0324,0.013523,0.002678,0.000431,0.106010
4500000,0.0324,0.013523,0.002678,0.000431,0.072867
4501000,0.0324,0.013523,0.002678,0.000431,0.174059
4502000,0.0324,0.013523,0.002678,0.000431,0.044308
4503000,0.0324,0.013523,0.002678,0.000431,0.117998
4504000,0.0324,0.013523,0.002678,0.000431,0.199445
4505000,0.0324,0.013523,0.002678,0.000431,0.098841
4506000,0.0324,0.013523,0.002678,0.000431,0.180288
4507000,0.0324,0.013523,0.002678,0.000431,0.096256
4508000,0.0324,0.013523,0.002678,0.000431,0.209200
4509000,0.0324,0.013523,0.002678,0.000431,0.176410
4510000,0.0324,0.013523,0.002678,0.000431,0.145382
4511000,0.0324,0.013523,0.002678,0.000431,0.106598
4512000,0.0324,0.013523,0.002678,0.000431,0.115530
4513000,0.0324,0.013523,0.002678,0.000431,0.167948
4514000,0.0324,0.013523,0.002678,0.000431,0.217662
4515000,0.0324,0.013523,0.002678,0.000431,0.234939
4516000,0.0324,0.013523,0.002678,0.000431,0.121172
4517000,0.0324,0.013523,0.002678,0.000431,0.229062
4518000,0.0324,0.013523,0.002678,0.000431,0.076393
4519000,0.0324,0.013523,0.002678,0.000431,0.078861
4520000,0.0324,0.013523,0.002678,0.000431,0.066638
4521000,0.0324,0.013523,0.002678,0.000431,0.125285
4522000,0.0324,0.013523,0.002678,0.000431,0.102602
4523000,0.0324,0.013523,0.002678,0.000431,0.143854
4524000,0.0324,0.013523,0.002678,0.000431,0.148203
4525000,0.0324,0.013523,0.002678,0.000431,0.094140
4526000,0.0324,0.013523,0.002678,0.000431,0.285829
4527000,0.0324,0.013523,0.002678,0.000431,0.112827
4528000,0.0324,0.013523,0.002678,0.000431,0.178995
4529000,0.0324,0.013523,0.002678,0.000431,0.075923
4530000,0.0324,0.013523,0.002678,0.000431,0.129281
4531000,0.0324,0.013523,0.002678,0.000431,0.152199
4532000,0.0324,0.013523,0.002678,0.000431,0.177232
4533000,0.0324,0.013523,0.002678,0.000431,0.079567
4534000,0.0324,0.013523,0.002678,0.000431,0.061350
4535000,0.0324,0.013523,0.002678,0.000431,0.081917
4536000,0.0324,0.013523,0.002678,0.000431,0.091202
4537000,0.0324,0.013523,0.002678,0.000431,0.132807
4538000,0.0324,0.013523,0.002678,0.000431,0.060409
4539000,0.0324,0.013523,0.002678,0.000431,0.230238
4540000,0.0324,0.013523,0.002678,0.000431,0.189690
4541000,0.0324,0.013523,0.002678,0.000431,0.096373
4542000,0.0324,0.013523,0.002678,0.000431,0.167713
4543000,0.0324,0.013523,0.002678,0.000431,0.088616
4544000,0.0324,0.013523,0.002678,0.000431,0.166890
4545000,0.0324,0.013523,0.002678,0.000431,0.054063
4546000,0.0324,0.013523,0.002678,0.000431,0.151964
4547000,0.0324,0.013523,0.002678,0.000431,0.081330
4548000,0.0324,0.013523,0.002678,0.000431,0.154785
4549000,0.0324,0.013523,0.002678,0.000431,0.087794
4550000,0.0324,0.013523,0.002678,0.000431,0.046894
4551000,0.0324,0.013523,0.002678,0.000431,0.091202
4552000,0.0324,0.013523,0.002678,0.000431,0.098606
4553000,0.0324,0.013523,0.002678,0.000431,0.226007
4554000,0.0324,0.013523,0.002678,0.000431,0.110829
4555000,0.0324,0.013523,0.002678,0.000431,0.178290
4556000,0.0324,0.013523,0.002678,0.000431,0.109066
4557000,0.0324,0.013523,0.002678,0.000431,0.111299
4558000,0.0324,0.013523,0.002678,0.000431,0.065463
4559000,0.0324,0.013523,0.002678,0.000431,0.060997
4560000,0.0324,0.013523,0.002678,0.000431,0.140211
4561000,0.0324,0.013523,0.002678,0.000431,0.095433
4562000,0.0324,0.013523,0.002678,0.000431,0.053593
4563000,0.0324,0.013523,0.002678,0.000431,0.141151
4564000,0.0324,0.013523,0.002678,0.000431,0.172649
4565000,0.0324,0.013523,0.002678,0.000431,0.106833
4566000,0.0324,0.013523,0.002678,0.000431,0.152199
4567000,0.0324,0.013523,0.002678,0.000431,0.099429
4568000,0.0324,0.013523,0.002678,0.000431,0.245986
4569000,0.0324,0.013523,0.002678,0.000431,0.219778
4570000,0.0324,0.013523,0.002678,0.000431,0.149966
4571000,0.0324,0.013523,0.002678,0.000431,0.077921
4572000,0.0324,0.013523,0.002678,0.000431,0.142797
4573000,0.0324,0.013523,0.002678,0.000431,0.153844
4574000,0.0324,0.013523,0.002678,0.000431,0.246927
4575000,0.0324,0.013523,0.002678,0.000431,0.167360
4576000,0.0324,0.013523,0.002678,0.000431,0.066168
4577000,0.0324,0.013523,0.002678,0.000431,0.208848
4578000,0.0324,0.013523,0.002678,0.000431,0.158075
4579000,0.0324,0.013523,0.002678,0.000431,0.289472
4580000,0.0324,0.013523,0.002678,0.000431,0.192981
4581000,0.0324,0.013523,0.002678,0.000431,0.187810
4582000,0.0324,0.013523,0.002678,0.000431,0.133512
4583000,0.0324,0.013523,0.002678,0.000431,0.077804
4584000,0.0324,0.013523,0.002678,0.000431,0.193569
4585000,0.0324,0.013523,0.002678,0.000431,0.168888
4586000,0.0324,0.013523,0.002678,0.000431,0.152317
4587000,0.0324,0.013523,0.002678,0.000431,0.190983
4588000,0.0324,0.013523,0.002678,0.000431,0.051125
4589000,0.0324,0.013523,0.002678,0.000431,0.058882
4590000,0.0324,0.013523,0.002678,0.000431,0.102837
4591000,0.0324,0.013523,0.002678,0.000431,0.140329
4592000,0.0324,0.013523,0.002678,0.000431,0.094963
4593000,0.0324,0.013523,0.002678,0.000431,0.189220
4594000,0.0324,0.013523,0.002678,0.000431,0.133042
4595000,0.0324,0.013523,0.002678,0.000431,0.114120
4596000,0.0324,0.013523,0.002678,0.000431,0.206379
4597000,0.0324,0.013523,0.002678,0.000431,0.204264
4598000,0.0324,0.013523,0.002678,0.000431,0.222716
4599000,0.0324,0.013523,0.002678,0.000431,0.119644
4600000,0.0324,0.013523,0.002678,0.000431,0.099194
4601000,0.0324,0.013523,0.002678,0.000431,0.081800
4602000,0.0324,0.013523,0.002678,0.000431,0.194039
4603000,0.0324,0.013523,0.002678,0.000431,0.161249
4604000,0.0324,0.013523,0.002678,0.000431,0.095080
4605000,0.0324,0.013523,0.002678,0.000431,0.087911
4606000,0.0324,0.013523,0.002678,0.000431,0.118468
4607000,0.0324,0.013523,0.002678,0.000431,0.237877
4608000,0.0324,0.013523,0.002678,0.000431,0.066403
4609000,0.0324,0.013523,0.002678,0.000431,0.171826
4610000,0.0324,0.013523,0.002678,0.000431,0.085325
4611000,0.0324,0.013523,0.002678,0.000431,0.170416
4612000,0.0324,0.013523,0.002678,0.000431,0.072750
4613000,0.0324,0.013523,0.002678,0.000431,0.230708
4614000,0.0324,0.013523,0.002678,0.000431,0.125050
4615000,0.0324,0.013523,0.002678,0.000431,0.138213
4616000,0.0324,0.013523,0.002678,0.000431,0.133159
4617000,0.0324,0.013523,0.002678,0.000431,0.105305
4618000,0.0324,0.013523,0.002678,0.000431,0.090849
4619000,0.0324,0.013523,0.002678,0.000431,0.200621
4620000,0.0324,0.013523,0.002678,0.000431,0.178408
4621000,0.0324,0.013523,0.002678,0.000431,0.057706
4622000,0.0324,0.013523,0.002678,0.000431,0.114120
4623000,0.0324,0.013523,0.002678,0.000431,0.167125
4624000,0.0324,0.013523,0.002678,0.000431,0.171356
4625000,0.0324,0.013523,0.002678,0.000431,0.169241
4626000,0.0324,0.013523,0.002678,0.000431,0.190396
4627000,0.0324,0.013523,0.002678,0.000431,0.155372
4628000,0.0324,0.013523,0.002678,0.000431,0.138331
4629000,0.0324,0.013523,0.002678,0.000431,0.210963
4630000,0.0324,0.013523,0.002678,0.000431,0.067461
4631000,0.0324,0.013523,0.002678,0.000431,0.197917
4632000,0.0324,0.013523,0.002678,0.000431,0.136333
4633000,0.0324,0.013523,0.002678,0.000431,0.083210
4634000,0.0324,0.013523,0.002678,0.000431,0.131279
4635000,0.0324,0.013523,0.002678,0.000431,0.114708
4636000,0.0324,0.013523,0.002678,0.000431,0.219190
4637000,0.0324,0.013523,0.002678,0.000431,0.187222
4638000,0.0324,0.013523,0.002678,0.000431,0.265144
4639000,0.0324,0.013523,0.002678,0.000431,0.107186
4640000,0.0324,0.013523,0.002678,0.000431,0.087323
4641000,0.0324,0.013523,0.002678,0.000431,0.120819
4642000,0.0324,0.013523,0.002678,0.000431,0.165362
4643000,0.0324,0.013523,0.002678,0.000431,0.240228
4644000,0.0324,0.013523,0.002678,0.000431,0.231883
4645000,0.0324,0.013523,0.002678,0.000431,0.192864
4646000,0.0324,0.013523,0.002678,0.000431,0.098841
4647000,0.0324,0.013523,0.002678,0.000431,0.117293
4648000,0.0324,0.013523,0.002678,0.000431,0.072985
4649000,0.0324,0.013523,0.002678,0.000431,0.090144
4650000,0.0324,0.013523,0.002678,0.000431,0.275133
4651000,0.0324,0.013523,0.002678,0.000431,0.175117
4652000,0.0324,0.013523,0.002678,0.000431,0.100252
4653000,0.0324,0.013523,0.002678,0.000431,0.112827
4654000,0.0324,0.013523,0.002678,0.000431,0.247044
4655000,0.0324,0.013523,0.002678,0.000431,0.245634
4656000,0.0324,0.013523,0.002678,0.000431,0.107656
4657000,0.0324,0.013523,0.002678,0.000431,0.215547
4658000,0.0324,0.013523,0.002678,0.000431,0.340949
4659000,0.0324,0.013523,0.002678,0.000431,0.092025
4660000,0.0324,0.013523,0.002678,0.000431,0.083915
4661000,0.0324,0.013523,0.002678,0.000431,0.098841
4662000,0.0324,0.013523,0.002678,0.000431,0.155960
4663000,0.0324,0.013523,0.002678,0.000431,0.101309
4664000,0.0324,0.013523,0.002678,0.000431,0.179818
4665000,0.0324,0.013523,0.002678,0.000431,0.129399
4666000,0.0324,0.013523,0.002678,0.000431,0.066991
4667000,0.0324,0.013523,0.002678,0.000431,0.224361
4668000,0.0324,0.013523,0.002678,0.000431,0.091084
4669000,0.0324,0.013523,0.002678,0.000431,0.190278
4670000,0.0324,0.013523,0.002678,0.000431,0.131161
4671000,0.0324,0.013523,0.002678,0.000431,0.198035
4672000,0.0324,0.013523,0.002678,0.000431,0.054416
4673000,0.0324,0.013523,0.002678,0.000431,0.124110
4674000,0.0324,0.013523,0.002678,0.000431,0.249982
4675000,0.0324,0.013523,0.002678,0.000431,0.050420
4676000,0.0324,0.013523,0.002678,0.000431,0.065346
4677000,0.0324,0.013523,0.002678,0.000431,0.103307
4678000,0.0324,0.013523,0.002678,0.000431,0.125050
4679000,0.0324,0.013523,0.002678,0.000431,0.045013
4680000,0.0324,0.013523,0.002678,0.000431,0.101544
4681000,0.0324,0.013523,0.002678,0.000431,0.151611
4682000,0.0324,0.013523,0.002678,0.000431,0.200033
4683000,0.0324,0.013523,0.002678,0.000431,0.187222
4684000,0.0324,0.013523,0.002678,0.000431,0.205322
4685000,0.0324,0.013523,0.002678,0.000431,0.147263
4686000,0.0324,0.013523,0.002678,0.000431,0.072515
4687000,0.0324,0.013523,0.002678,0.000431,0.156195
4688000,0.0324,0.013523,0.002678,0.000431,0.191924
4689000,0.0324,0.013523,0.002678,0.000431,0.042545
4690000,0.0324,0.013523,0.002678,0.000431,0.117176
4691000,0.0324,0.013523,0.002678,0.000431,0.273371
4692000,0.0324,0.013523,0.002678,0.000431,0.113650
4693000,0.0324,0.013523,0.002678,0.000431,0.236114
4694000,0.0324,0.013523,0.002678,0.000431,0.158310
4695000,0.0324,0.013523,0.002678,0.000431,0.181228
4696000,0.0324,0.013523,0.002678,0.000431,0.154315
4697000,0.0324,0.013523,0.002678,0.000431,0.141621
4698000,0.0324,0.013523,0.002678,0.000431,0.110241
4699000,0.0324,0.013523,0.002678,0.000431,0.107421
4700000,0.0324,0.013523,0.002678,0.000431,0.171004
4701000,0.0324,0.013523,0.002678,0.000431,0.131632
4702000,0.0324,0.013523,0.002678,0.000431,0.072632
4703000,0.0324,0.013523,0.002678,0.000431,0.155372
4704000,0.0324,0.013523,0.002678,0.000431,0.118351
4705000,0.0324,0.013523,0.002678,0.000431,0.185577
4706000,0.0324,0.013523,0.002678,0.000431,0.088264
4707000,0.0324,0.013523,0.002678,0.000431,0.142092
4708000,0.0324,0.013523,0.002678,0.000431,0.123757
4709000,0.0324,0.013523,0.002678,0.000431,0.118351
4710000,0.0324,0.013523,0.002678,0.000431,0.387490
4711000,0.0324,0.013523,0.002678,0.000431,0.179466
4712000,0.0324,0.013523,0.002678,0.000431,0.129516
4713000,0.0324,0.013523,0.002678,0.000431,0.210493
4714000,0.0324,0.013523,0.002678,0.000431,0.162777
4715000,0.0324,0.013523,0.002678,0.000431,0.094963
4716000,0.0324,0.013523,0.002678,0.000431,0.103660
4717000,0.0324,0.013523,0.002678,0.000431,0.094610
4718000,0.0324,0.013523,0.002678,0.000431,0.166890
4719000,0.0324,0.013523,0.002678,0.000431,0.143032
4720000,0.0324,0.013523,0.002678,0.000431,0.164304
4721000,0.0324,0.013523,0.002678,0.000431,0.125168
4722000,0.0324,0.013523,0.002678,0.000431,0.074043
4723000,0.0324,0.013523,0.002678,0.000431,0.184754
4724000,0.0324,0.013523,0.002678,0.000431,0.158663
4725000,0.0324,0.013523,0.002678,0.000431,0.138448
4726000,0.0324,0.013523,0.002678,0.000431,0.231413
4727000,0.0324,0.013523,0.002678,0.000431,0.166890
4728000,0.0324,0.013523,0.002678,0.000431,0.177703
4729000,0.0324,0.013523,0.002678,0.000431,0.222363
4730000,0.0324,0.013523,0.002678,0.000431,0.346238
4731000,0.0324,0.013523,0.002678,0.000431,0.147498
4732000,0.0324,0.013523,0.002678,0.000431,0.178055
4733000,0.0324,0.013523,0.002678,0.000431,0.187810
4734000,0.0324,0.013523,0.002678,0.000431,0.060997
4735000,0.0324,0.013523,0.002678,0.000431,0.082387
4736000,0.0324,0.013523,0.002678,0.000431,0.344593
4737000,0.0324,0.013523,0.002678,0.000431,0.166655
4738000,0.0324,0.013523,0.002678,0.000431,0.117176
4739000,0.0324,0.013523,0.002678,0.000431,0.162541
4740000,0.0324,0.013523,0.002678,0.000431,0.096608
4741000,0.0324,0.013523,0.002678,0.000431,0.146910
4742000,0.0324,0.013523,0.002678,0.000431,0.087794
4743000,0.0324,0.013523,0.002678,0.000431,0.162777
4744000,0.0324,0.013523,0.002678,0.000431,0.090262
4745000,0.0324,0.013523,0.002678,0.000431,0.158546
4746000,0.0324,0.013523,0.002678,0.000431,0.340362
4747000,0.0324,0.013523,0.002678,0.000431,0.070752
4748000,0.0324,0.013523,0.002678,0.000431,0.065463
4749000,0.0324,0.013523,0.002678,0.000431,0.153374
4750000,0.0324,0.013523,0.002678,0.000431,0.117293
4751000,0.0324,0.013523,0.002678,0.000431,0.270902
4752000,0.0324,0.013523,0.002678,0.000431,0.293115
4753000,0.0324,0.013523,0.002678,0.000431,0.101662
4754000,0.0324,0.013523,0.002678,0.000431,0.152669
4755000,0.0324,0.013523,0.002678,0.000431,0.172884
4756000,0.0324,0.013523,0.002678,0.000431,0.174294
4757000,0.0324,0.013523,0.002678,0.000431,0.131279
4758000,0.0324,0.013523,0.002678,0.000431,0.054886
4759000,0.0324,0.013523,0.002678,0.000431,0.111299
4760000,0.0324,0.013523,0.002678,0.000431,0.144442
4761000,0.0324,0.013523,0.002678,0.000431,0.208377
4762000,0.0324,0.013523,0.002678,0.000431,0.271020
4763000,0.0324,0.013523,0.002678,0.000431,0.127283
4764000,0.0324,0.013523,0.002678,0.000431,0.145617
4765000,0.0324,0.013523,0.002678,0.000431,0.162894
4766000,0.0324,0.013523,0.002678,0.000431,0.039489
4767000,0.0324,0.013523,0.002678,0.000431,0.158898
4768000,0.0324,0.013523,0.002678,0.000431,0.300402
4769000,0.0324,0.013523,0.002678,0.000431,0.130691
4770000,0.0324,0.013523,0.002678,0.000431,0.104247
4771000,0.0324,0.013523,0.002678,0.000431,0.287121
4772000,0.0324,0.013523,0.002678,0.000431,0.094023
4773000,0.0324,0.013523,0.002678,0.000431,0.155255
4774000,0.0324,0.013523,0.002678,0.000431,0.183814
4775000,0.0324,0.013523,0.002678,0.000431,0.262323
4776000,0.0324,0.013523,0.002678,0.000431,0.087206
4777000,0.0324,0.013523,0.002678,0.000431,0.209318
4778000,0.0324,0.013523,0.002678,0.000431,0.139271
4779000,0.0324,0.013523,0.002678,0.000431,0.052065
4780000,0.0324,0.013523,0.002678,0.000431,0.093082
4781000,0.0324,0.013523,0.002678,0.000431,0.144560
4782000,0.0324,0.013523,0.002678,0.000431,0.195449
4783000,0.0324,0.013523,0.002678,0.000431,0.297581
4784000,0.0324,0.013523,0.002678,0.000431,0.434267
4785000,0.0324,0.013523,0.002678,0.000431,0.105893
4786000,0.0324,0.013523,0.002678,0.000431,0.147850
4787000,0.0324,0.013523,0.002678,0.000431,0.063818
4788000,0.0324,0.013523,0.002678,0.000431,0.179936
4789000,0.0324,0.013523,0.002678,0.000431,0.115765
4790000,0.0324,0.013523,0.002678,0.000431,0.222598
4791000,0.0324,0.013523,0.002678,0.000431,0.265379
4792000,0.0324,0.013523,0.002678,0.000431,0.087441
4793000,0.0324,0.013523,0.002678,0.000431,0.102955
4794000,0.0324,0.013523,0.002678,0.000431,0.173237
4795000,0.0324,0.013523,0.002678,0.000431,0.143737
4796000,0.0324,0.013523,0.002678,0.000431,0.036434
4797000,0.0324,0.013523,0.002678,0.000431,0.286299
4798000,0.0324,0.013523,0.002678,0.000431,0.076746
4799000,0.0324,0.013523,0.002678,0.000431,0.104130
4800000,0.0324,0.013523,0.002678,0.000431,0.120349
4801000,0.0324,0.013523,0.002678,0.000431,0.117293
4802000,0.0324,0.013523,0.002678,0.000431,0.059704
4803000,0.0324,0.013523,0.002678,0.000431,0.221541
4804000,0.0324,0.013523,0.002678,0.000431,0.070752
4805000,0.0324,0.013523,0.002678,0.000431,0.086383
4806000,0.0324,0.013523,0.002678,0.000431,0.215194
4807000,0.0324,0.013523,0.002678,0.000431,0.395130
4808000,0.0324,0.013523,0.002678,0.000431,0.137626
4809000,0.0324,0.013523,0.002678,0.000431,0.260090
4810000,0.0324,0.013523,0.002678,0.000431,0.402652
4811000,0.0324,0.013523,0.002678,0.000431,0.088616
4812000,0.0324,0.013523,0.002678,0.000431,0.166067
4813000,0.0324,0.013523,0.002678,0.000431,0.097548
4814000,0.0324,0.013523,0.002678,0.000431,0.174764
4815000,0.0324,0.013523,0.002678,0.000431,0.176175
4816000,0.0324,0.013523,0.002678,0.000431,0.163599
4817000,0.0324,0.013523,0.002678,0.000431,0.104600
4818000,0.0324,0.013523,0.002678,0.000431,0.123522
4819000,0.0324,0.013523,0.002678,0.000431,0.320382
4820000,0.0324,0.013523,0.002678,0.000431,0.168653
4821000,0.0324,0.013523,0.002678,0.000431,0.207790
4822000,0.0324,0.013523,0.002678,0.000431,0.063465
4823000,0.0324,0.013523,0.002678,0.000431,0.269140
4824000,0.0324,0.013523,0.002678,0.000431,0.053005
4825000,0.0324,0.013523,0.002678,0.000431,0.239757
4826000,0.0324,0.013523,0.002678,0.000431,0.145500
4827000,0.0324,0.013523,0.002678,0.000431,0.264791
4828000,0.0324,0.013523,0.002678,0.000431,0.095433
4829000,0.0324,0.013523,0.002678,0.000431,0.176645
4830000,0.0324,0.013523,0.002678,0.000431,0.138566
4831000,0.0324,0.013523,0.002678,0.000431,0.060762
4832000,0.0324,0.013523,0.002678,0.000431,0.272078
4833000,0.0324,0.013523,0.002678,0.000431,0.147380
4834000,0.0324,0.013523,0.002678,0.000431,0.230238
4835000,0.0324,0.013523,0.002678,0.000431,0.164657
4836000,0.0324,0.013523,0.002678,0.000431,0.178173
4837000,0.0324,0.013523,0.002678,0.000431,0.057589
4838000,0.0324,0.013523,0.002678,0.000431,0.152669
4839000,0.0324,0.013523,0.002678,0.000431,0.145735
4840000,0.0324,0.013523,0.002678,0.000431,0.108008
4841000,0.0324,0.013523,0.002678,0.000431,0.128928
4842000,0.0324,0.013523,0.002678,0.000431,0.181228
4843000,0.0324,0.013523,0.002678,0.000431,0.129399
4844000,0.0324,0.013523,0.002678,0.000431,0.076511
4845000,0.0324,0.013523,0.002678,0.000431,0.188633
4846000,0.0324,0.013523,0.002678,0.000431,0.200386
4847000,0.0324,0.013523,0.002678,0.000431,0.080272
4848000,0.0324,0.013523,0.002678,0.000431,0.150906
4849000,0.0324,0.013523,0.002678,0.000431,0.235174
4850000,0.0324,0.013523,0.002678,0.000431,0.042310
4851000,0.0324,0.013523,0.002678,0.000431,0.181346
4852000,0.0324,0.013523,0.002678,0.000431,0.095433
4853000,0.0324,0.013523,0.002678,0.000431,0.114237
4854000,0.0324,0.013523,0.002678,0.000431,0.159251
4855000,0.0324,0.013523,0.002678,0.000431,0.216134
4856000,0.0324,0.013523,0.002678,0.000431,0.072867
4857000,0.0324,0.013523,0.002678,0.000431,0.129281
4858000,0.0324,0.013523,0.002678,0.000431,0.150083
4859000,0.0324,0.013523,0.002678,0.000431,0.141974
4860000,0.0324,0.013523,0.002678,0.000431,0.079567
4861000,0.0324,0.013523,0.002678,0.000431,0.153844
4862000,0.0324,0.013523,0.002678,0.000431,0.225066
4863000,0.0324,0.013523,0.002678,0.000431,0.040665
4864000,0.0324,0.013523,0.002678,0.000431,0.285006
4865000,0.0324,0.013523,0.002678,0.000431,0.220483
4866000,0.0324,0.013523,0.002678,0.000431,0.075571
4867000,0.0324,0.013523,0.002678,0.000431,0.300637
4868000,0.0324,0.013523,0.002678,0.000431,0.292293
4869000,0.0324,0.013523,0.002678,0.000431,0.134922
4870000,0.0324,0.013523,0.002678,0.000431,0.151024
4871000,0.0324,0.013523,0.002678,0.000431,0.245751
4872000,0.0324,0.013523,0.002678,0.000431,0.093082
4873000,0.0324,0.013523,0.002678,0.000431,0.251393
4874000,0.0324,0.013523,0.002678,0.000431,0.226359
4875000,0.0324,0.013523,0.002678,0.000431,0.072867
4876000,0.0324,0.013523,0.002678,0.000431,0.050420
4877000,0.0324,0.013523,0.002678,0.000431,0.169006
4878000,0.0324,0.013523,0.002678,0.000431,0.162424
4879000,0.0324,0.013523,0.002678,0.000431,0.164304
4880000,0.0324,0.013523,0.002678,0.000431,0.246104
4881000,0.0324,0.013523,0.002678,0.000431,0.115060
4882000,0.0324,0.013523,0.002678,0.000431,0.060880
4883000,0.0324,0.013523,0.002678,0.000431,0.114708
4884000,0.0324,0.013523,0.002678,0.000431,0.193334
4885000,0.0324,0.013523,0.002678,0.000431,0.060762
4886000,0.0324,0.013523,0.002678,0.000431,0.208260
4887000,0.0324,0.013523,0.002678,0.000431,0.147968
4888000,0.0324,0.013523,0.002678,0.000431,0.086501
4889000,0.0324,0.013523,0.002678,0.000431,0.081565
4890000,0.0324,0.013523,0.002678,0.000431,0.071105
4891000,0.0324,0.013523,0.002678,0.000431,0.374680
4892000,0.0324,0.013523,0.002678,0.000431,0.108126
4893000,0.0324,0.013523,0.002678,0.000431,0.104600
4894000,0.0324,0.013523,0.002678,0.000431,0.137273
4895000,0.0324,0.013523,0.002678,0.000431,0.125520
4896000,0.0324,0.013523,0.002678,0.000431,0.200150
4897000,0.0324,0.013523,0.002678,0.000431,0.210258
4898000,0.0324,0.013523,0.002678,0.000431,0.169828
4899000,0.0324,0.013523,0.002678,0.000431,0.254096
4900000,0.0324,0.013523,0.002678,0.000431,0.188280
4901000,0.0324,0.013523,0.002678,0.000431,0.136215
4902000,0.0324,0.013523,0.002678,0.000431,0.068636
4903000,0.0324,0.013523,0.002678,0.000431,0.218602
4904000,0.0324,0.013523,0.002678,0.000431,0.307454
4905000,0.0324,0.013523,0.002678,0.000431,0.144325
4906000,0.0324,0.013523,0.002678,0.000431,0.130691
4907000,0.0324,0.013523,0.002678,0.000431,0.141504
4908000,0.0324,0.013523,0.002678,0.000431,0.114943
4909000,0.0324,0.013523,0.002678,0.000431,0.128106
4910000,0.0324,0.013523,0.002678,0.000431,0.190278
4911000,0.0324,0.013523,0.002678,0.000431,0.151964
4912000,0.0324,0.013523,0.002678,0.000431,0.222598
4913000,0.0324,0.013523,0.002678,0.000431,0.159368
4914000,0.0324,0.013523,0.002678,0.000431,0.099546
4915000,0.0324,0.013523,0.002678,0.000431,0.123875
4916000,0.0324,0.013523,0.002678,0.000431,0.358931
4917000,0.0324,0.013523,0.002678,0.000431,0.158546
4918000,0.0324,0.013523,0.002678,0.000431,0.153492
4919000,0.0324,0.013523,0.002678,0.000431,0.155842
4920000,0.0324,0.013523,0.002678,0.000431,0.166772
4921000,0.0324,0.013523,0.002678,0.000431,0.045954
4922000,0.0324,0.013523,0.002678,0.000431,0.072280
4923000,0.0324,0.013523,0.002678,0.000431,0.147733
4924000,0.0324,0.013523,0.002678,0.000431,0.124227
4925000,0.0324,0.013523,0.002678,0.000431,0.193569
4926000,0.0324,0.013523,0.002678,0.000431,0.120819
4927000,0.0324,0.013523,0.002678,0.000431,0.105188
4928000,0.0324,0.013523,0.002678,0.000431,0.068989
4929000,0.0324,0.013523,0.002678,0.000431,0.076628
4930000,0.0324,0.013523,0.002678,0.000431,0.133042
4931000,0.0324,0.013523,0.002678,0.000431,0.193686
4932000,0.0324,0.013523,0.002678,0.000431,0.202384
4933000,0.0324,0.013523,0.002678,0.000431,0.140094
4934000,0.0324,0.013523,0.002678,0.000431,0.049127
4935000,0.0324,0.013523,0.002678,0.000431,0.223656
4936000,0.0324,0.013523,0.002678,0.000431,0.132924
4937000,0.0324,0.013523,0.002678,0.000431,0.186165
4938000,0.0324,0.013523,0.002678,0.000431,0.190631
4939000,0.0324,0.013523,0.002678,0.000431,0.096726
4940000,0.0324,0.013523,0.002678,0.000431,0.072632
4941000,0.0324,0.013523,0.002678,0.000431,0.095080
4942000,0.0324,0.013523,0.002678,0.000431,0.069577
4943000,0.0324,0.013523,0.002678,0.000431,0.146793
4944000,0.0324,0.013523,0.002678,0.000431,0.206615
4945000,0.0324,0.013523,0.002678,0.000431,0.212138
4946000,0.0324,0.013523,0.002678,0.000431,0.158075
4947000,0.0324,0.013523,0.002678,0.000431,0.038314
4948000,0.0324,0.013523,0.002678,0.000431,0.190396
4949000,0.0324,0.013523,0.002678,0.000431,0.297464
4950000,0.0324,0.013523,0.002678,0.000431,0.211081
4951000,0.0324,0.013523,0.002678,0.000431,0.139623
4952000,0.0324,0.013523,0.002678,0.000431,0.105775
4953000,0.0324,0.013523,0.002678,0.000431,0.121054
4954000,0.0324,0.013523,0.002678,0.000431,0.132807
4955000,0.0324,0.013523,0.002678,0.000431,0.109536
4956000,0.0324,0.013523,0.002678,0.000431,0.157135
4957000,0.0324,0.013523,0.002678,0.000431,0.271373
4958000,0.0324,0.013523,0.002678,0.000431,0.273958
4959000,0.0324,0.013523,0.002678,0.000431,0.180406
4960000,0.0324,0.013523,0.002678,0.000431,0.066874
4961000,0.0324,0.013523,0.002678,0.000431,0.147968
4962000,0.0324,0.013523,0.002678,0.000431,0.181699
4963000,0.0324,0.013523,0.002678,0.000431,0.140564
4964000,0.0324,0.013523,0.002678,0.000431,0.114708
4965000,0.0324,0.013523,0.002678,0.000431,0.114237
4966000,0.0324,0.013523,0.002678,0.000431,0.035258
4967000,0.0324,0.013523,0.002678,0.000431,0.073690
4968000,0.0324,0.013523,0.002678,0.000431,0.219543
4969000,0.0324,0.013523,0.002678,0.000431,0.204382
4970000,0.0324,0.013523,0.002678,0.000431,0.183226
4971000,0.0324,0.013523,0.002678,0.000431,0.164422
4972000,0.0324,0.013523,0.002678,0.000431,0.081800
4973000,0.0324,0.013523,0.002678,0.000431,0.079802
4974000,0.0324,0.013523,0.002678,0.000431,0.078156
4975000,0.0324,0.013523,0.002678,0.000431,0.142797
4976000,0.0324,0.013523,0.002678,0.000431,0.198975
4977000,0.0324,0.013523,0.002678,0.000431,0.145500
4978000,0.0324,0.013523,0.002678,0.000431,0.163599
4979000,0.0324,0.013523,0.002678,0.000431,0.080037
4980000,0.0324,0.013523,0.002678,0.000431,0.099194
4981000,0.0324,0.013523,0.002678,0.000431,0.143032
4982000,0.0324,0.013523,0.002678,0.000431,0.159956
4983000,0.0324,0.013523,0.002678,0.000431,0.287827
4984000,0.0324,0.013523,0.002678,0.000431,0.202971
4985000,0.0324,0.013523,0.002678,0.000431,0.107538
4986000,0.0324,0.013523,0.002678,0.000431,0.122229
4987000,0.0324,0.013523,0.002678,0.000431,0.231060
4988000,0.0324,0.013523,0.002678,0.000431,0.320617
4989000,0.0324,0.013523,0.002678,0.000431,0.194274
4990000,0.0324,0.013523,0.002678,0.000431,0.094375
4991000,0.0324,0.013523,0.002678,0.000431,0.183697
4992000,0.0324,0.013523,0.002678,0.000431,0.078391
4993000,0.0324,0.013523,0.002678,0.000431,0.091084
4994000,0.0324,0.013523,0.002678,0.000431,0.162541
4995000,0.0324,0.013523,0.002678,0.000431,0.110476
4996000,0.0324,0.013523,0.002678,0.000431,0.181581
4997000,0.0324,0.013523,0.002678,0.000431,0.186047
4998000,0.0324,0.013523,0.002678,0.000431,0.050302
4999000,0.0324,0.013523,0.002678,0.000431,0.076276
