Cycle,Area(mm^2),PeakDynamic(W),SubthresholdLeakage(W),GateLeakage(W),RunTimeDynamic(W)
19000000,0.0324,0.013523,0.002678,0.000431,0.188750
19001000,0.0324,0.013523,0.002678,0.000431,0.146558
19002000,0.0324,0.013523,0.002678,0.000431,0.034083
19003000,0.0324,0.013523,0.002678,0.000431,0.163952
19004000,0.0324,0.013523,0.002678,0.000431,0.116118
19005000,0.0324,0.013523,0.002678,0.000431,0.223774
19006000,0.0324,0.013523,0.002678,0.000431,0.101309
19007000,0.0324,0.013523,0.002678,0.000431,0.059822
19008000,0.0324,0.013523,0.002678,0.000431,0.137038
19009000,0.0324,0.013523,0.002678,0.000431,0.112474
19010000,0.0324,0.013523,0.002678,0.000431,0.274663
19011000,0.0324,0.013523,0.002678,0.000431,0.060292
19012000,0.0324,0.013523,0.002678,0.000431,0.077569
19013000,0.0324,0.013523,0.002678,0.000431,0.219660
19014000,0.0324,0.013523,0.002678,0.000431,0.200856
19015000,0.0324,0.013523,0.002678,0.000431,0.214606
19016000,0.0324,0.013523,0.002678,0.000431,0.168418
19017000,0.0324,0.013523,0.002678,0.000431,0.156665
19018000,0.0324,0.013523,0.002678,0.000431,0.118351
19019000,0.0324,0.013523,0.002678,0.000431,0.061702
19020000,0.0324,0.013523,0.002678,0.000431,0.054180
19021000,0.0324,0.013523,0.002678,0.000431,0.113885
19022000,0.0324,0.013523,0.002678,0.000431,0.131632
19023000,0.0324,0.013523,0.002678,0.000431,0.168888
19024000,0.0324,0.013523,0.002678,0.000431,0.078979
19025000,0.0324,0.013523,0.002678,0.000431,0.116588
19026000,0.0324,0.013523,0.002678,0.000431,0.066521
19027000,0.0324,0.013523,0.002678,0.000431,0.206967
19028000,0.0324,0.013523,0.002678,0.000431,0.065581
19029000,0.0324,0.013523,0.002678,0.000431,0.234234
19030000,0.0324,0.013523,0.002678,0.000431,0.089204
19031000,0.0324,0.013523,0.002678,0.000431,0.151846
19032000,0.0324,0.013523,0.002678,0.000431,0.151846
19033000,0.0324,0.013523,0.002678,0.000431,0.187928
19034000,0.0324,0.013523,0.002678,0.000431,0.136685
19035000,0.0324,0.013523,0.002678,0.000431,0.146440
19036000,0.0324,0.013523,0.002678,0.000431,0.063583
19037000,0.0324,0.013523,0.002678,0.000431,0.080154
19038000,0.0324,0.013523,0.002678,0.000431,0.122112
19039000,0.0324,0.013523,0.002678,0.000431,0.198270
19040000,0.0324,0.013523,0.002678,0.000431,0.149496
19041000,0.0324,0.013523,0.002678,0.000431,0.153257
19042000,0.0324,0.013523,0.002678,0.000431,0.254801
19043000,0.0324,0.013523,0.002678,0.000431,0.088146
19044000,0.0324,0.013523,0.002678,0.000431,0.085443
19045000,0.0324,0.013523,0.002678,0.000431,0.135040
19046000,0.0324,0.013523,0.002678,0.000431,0.131867
19047000,0.0324,0.013523,0.002678,0.000431,0.095433
19048000,0.0324,0.013523,0.002678,0.000431,0.102955
19049000,0.0324,0.013523,0.002678,0.000431,0.047716
19050000,0.0324,0.013523,0.002678,0.000431,0.225537
19051000,0.0324,0.013523,0.002678,0.000431,0.207672
19052000,0.0324,0.013523,0.002678,0.000431,0.095550
19053000,0.0324,0.013523,0.002678,0.000431,0.161601
19054000,0.0324,0.013523,0.002678,0.000431,0.041605
19055000,0.0324,0.013523,0.002678,0.000431,0.105423
19056000,0.0324,0.013523,0.002678,0.000431,0.181111
19057000,0.0324,0.013523,0.002678,0.000431,0.138096
19058000,0.0324,0.013523,0.002678,0.000431,0.167008
19059000,0.0324,0.013523,0.002678,0.000431,0.277484
19060000,0.0324,0.013523,0.002678,0.000431,0.394307
19061000,0.0324,0.013523,0.002678,0.000431,0.194274
19062000,0.0324,0.013523,0.002678,0.000431,0.086853
19063000,0.0324,0.013523,0.002678,0.000431,0.164539
19064000,0.0324,0.013523,0.002678,0.000431,0.194744
19065000,0.0324,0.013523,0.002678,0.000431,0.094845
19066000,0.0324,0.013523,0.002678,0.000431,0.271725
19067000,0.0324,0.013523,0.002678,0.000431,0.089439
19068000,0.0324,0.013523,0.002678,0.000431,0.071575
19069000,0.0324,0.013523,0.002678,0.000431,0.256799
19070000,0.0324,0.013523,0.002678,0.000431,0.229297
19071000,0.0324,0.013523,0.002678,0.000431,0.105070
19072000,0.0324,0.013523,0.002678,0.000431,0.105070
19073000,0.0324,0.013523,0.002678,0.000431,0.150906
19074000,0.0324,0.013523,0.002678,0.000431,0.086736
19075000,0.0324,0.013523,0.002678,0.000431,0.074395
19076000,0.0324,0.013523,0.002678,0.000431,0.150554
19077000,0.0324,0.013523,0.002678,0.000431,0.167830
19078000,0.0324,0.013523,0.002678,0.000431,0.146205
19079000,0.0324,0.013523,0.002678,0.000431,0.106128
19080000,0.0324,0.013523,0.002678,0.000431,0.041487
19081000,0.0324,0.013523,0.002678,0.000431,0.165127
19082000,0.0324,0.013523,0.002678,0.000431,0.156665
19083000,0.0324,0.013523,0.002678,0.000431,0.070047
19084000,0.0324,0.013523,0.002678,0.000431,0.163717
19085000,0.0324,0.013523,0.002678,0.000431,0.128458
19086000,0.0324,0.013523,0.002678,0.000431,0.101427
19087000,0.0324,0.013523,0.002678,0.000431,0.139271
19088000,0.0324,0.013523,0.002678,0.000431,0.125520
19089000,0.0324,0.013523,0.002678,0.000431,0.137861
19090000,0.0324,0.013523,0.002678,0.000431,0.049009
19091000,0.0324,0.013523,0.002678,0.000431,0.105540
19092000,0.0324,0.013523,0.002678,0.000431,0.067931
19093000,0.0324,0.013523,0.002678,0.000431,0.102720
19094000,0.0324,0.013523,0.002678,0.000431,0.176057
19095000,0.0324,0.013523,0.002678,0.000431,0.165832
19096000,0.0324,0.013523,0.002678,0.000431,0.144207
19097000,0.0324,0.013523,0.002678,0.000431,0.102955
19098000,0.0324,0.013523,0.002678,0.000431,0.192511
19099000,0.0324,0.013523,0.002678,0.000431,0.137038
19100000,0.0324,0.013523,0.002678,0.000431,0.174294
19101000,0.0324,0.013523,0.002678,0.000431,0.305691
19102000,0.0324,0.013523,0.002678,0.000431,0.184284
19103000,0.0324,0.013523,0.002678,0.000431,0.290765
19104000,0.0324,0.013523,0.002678,0.000431,0.204264
19105000,0.0324,0.013523,0.002678,0.000431,0.090732
19106000,0.0324,0.013523,0.002678,0.000431,0.061820
19107000,0.0324,0.013523,0.002678,0.000431,0.202384
19108000,0.0324,0.013523,0.002678,0.000431,0.103660
19109000,0.0324,0.013523,0.002678,0.000431,0.243636
19110000,0.0324,0.013523,0.002678,0.000431,0.216722
19111000,0.0324,0.013523,0.002678,0.000431,0.234939
19112000,0.0324,0.013523,0.002678,0.000431,0.034083
19113000,0.0324,0.013523,0.002678,0.000431,0.215077
19114000,0.0324,0.013523,0.002678,0.000431,0.140799
19115000,0.0324,0.013523,0.002678,0.000431,0.166655
19116000,0.0324,0.013523,0.002678,0.000431,0.230355
19117000,0.0324,0.013523,0.002678,0.000431,0.118821
19118000,0.0324,0.013523,0.002678,0.000431,0.220600
19119000,0.0324,0.013523,0.002678,0.000431,0.179583
19120000,0.0324,0.013523,0.002678,0.000431,0.190866
19121000,0.0324,0.013523,0.002678,0.000431,0.287121
19122000,0.0324,0.013523,0.002678,0.000431,0.202736
19123000,0.0324,0.013523,0.002678,0.000431,0.162541
19124000,0.0324,0.013523,0.002678,0.000431,0.081800
19125000,0.0324,0.013523,0.002678,0.000431,0.046659
19126000,0.0324,0.013523,0.002678,0.000431,0.096961
19127000,0.0324,0.013523,0.002678,0.000431,0.216134
19128000,0.0324,0.013523,0.002678,0.000431,0.128576
19129000,0.0324,0.013523,0.002678,0.000431,0.293820
19130000,0.0324,0.013523,0.002678,0.000431,0.117528
19131000,0.0324,0.013523,0.002678,0.000431,0.033496
19132000,0.0324,0.013523,0.002678,0.000431,0.174412
19133000,0.0324,0.013523,0.002678,0.000431,0.074630
19134000,0.0324,0.013523,0.002678,0.000431,0.108831
19135000,0.0324,0.013523,0.002678,0.000431,0.208142
19136000,0.0324,0.013523,0.002678,0.000431,0.173942
19137000,0.0324,0.013523,0.002678,0.000431,0.110006
19138000,0.0324,0.013523,0.002678,0.000431,0.067696
19139000,0.0324,0.013523,0.002678,0.000431,0.236937
19140000,0.0324,0.013523,0.002678,0.000431,0.155020
19141000,0.0324,0.013523,0.002678,0.000431,0.212256
19142000,0.0324,0.013523,0.002678,0.000431,0.247044
19143000,0.0324,0.013523,0.002678,0.000431,0.074983
19144000,0.0324,0.013523,0.002678,0.000431,0.037374
19145000,0.0324,0.013523,0.002678,0.000431,0.098019
19146000,0.0324,0.013523,0.002678,0.000431,0.138096
19147000,0.0324,0.013523,0.002678,0.000431,0.076511
19148000,0.0324,0.013523,0.002678,0.000431,0.193216
19149000,0.0324,0.013523,0.002678,0.000431,0.263968
19150000,0.0324,0.013523,0.002678,0.000431,0.049127
19151000,0.0324,0.013523,0.002678,0.000431,0.137155
19152000,0.0324,0.013523,0.002678,0.000431,0.207907
19153000,0.0324,0.013523,0.002678,0.000431,0.270550
19154000,0.0324,0.013523,0.002678,0.000431,0.171239
19155000,0.0324,0.013523,0.002678,0.000431,0.230708
19156000,0.0324,0.013523,0.002678,0.000431,0.117763
19157000,0.0324,0.013523,0.002678,0.000431,0.081565
19158000,0.0324,0.013523,0.002678,0.000431,0.070282
19159000,0.0324,0.013523,0.002678,0.000431,0.258680
19160000,0.0324,0.013523,0.002678,0.000431,0.261148
19161000,0.0324,0.013523,0.002678,0.000431,0.212844
19162000,0.0324,0.013523,0.002678,0.000431,0.161719
19163000,0.0324,0.013523,0.002678,0.000431,0.088734
19164000,0.0324,0.013523,0.002678,0.000431,0.109301
19165000,0.0324,0.013523,0.002678,0.000431,0.118821
19166000,0.0324,0.013523,0.002678,0.000431,0.198388
19167000,0.0324,0.013523,0.002678,0.000431,0.259972
19168000,0.0324,0.013523,0.002678,0.000431,0.207555
19169000,0.0324,0.013523,0.002678,0.000431,0.066521
19170000,0.0324,0.013523,0.002678,0.000431,0.066521
19171000,0.0324,0.013523,0.002678,0.000431,0.196155
19172000,0.0324,0.013523,0.002678,0.000431,0.168535
19173000,0.0324,0.013523,0.002678,0.000431,0.238112
19174000,0.0324,0.013523,0.002678,0.000431,0.117646
19175000,0.0324,0.013523,0.002678,0.000431,0.127871
19176000,0.0324,0.013523,0.002678,0.000431,0.109301
19177000,0.0324,0.013523,0.002678,0.000431,0.179230
19178000,0.0324,0.013523,0.002678,0.000431,0.104600
19179000,0.0324,0.013523,0.002678,0.000431,0.140564
19180000,0.0324,0.013523,0.002678,0.000431,0.180641
19181000,0.0324,0.013523,0.002678,0.000431,0.171356
19182000,0.0324,0.013523,0.002678,0.000431,0.043250
19183000,0.0324,0.013523,0.002678,0.000431,0.120349
19184000,0.0324,0.013523,0.002678,0.000431,0.165010
19185000,0.0324,0.013523,0.002678,0.000431,0.124345
19186000,0.0324,0.013523,0.002678,0.000431,0.121642
19187000,0.0324,0.013523,0.002678,0.000431,0.210258
19188000,0.0324,0.013523,0.002678,0.000431,0.149848
19189000,0.0324,0.013523,0.002678,0.000431,0.205204
19190000,0.0324,0.013523,0.002678,0.000431,0.113885
19191000,0.0324,0.013523,0.002678,0.000431,0.155372
19192000,0.0324,0.013523,0.002678,0.000431,0.156077
19193000,0.0324,0.013523,0.002678,0.000431,0.269257
19194000,0.0324,0.013523,0.002678,0.000431,0.098371
19195000,0.0324,0.013523,0.002678,0.000431,0.133277
19196000,0.0324,0.013523,0.002678,0.000431,0.137390
19197000,0.0324,0.013523,0.002678,0.000431,0.121289
19198000,0.0324,0.013523,0.002678,0.000431,0.255154
19199000,0.0324,0.013523,0.002678,0.000431,0.071692
19200000,0.0324,0.013523,0.002678,0.000431,0.163717
19201000,0.0324,0.013523,0.002678,0.000431,0.106951
19202000,0.0324,0.013523,0.002678,0.000431,0.096726
19203000,0.0324,0.013523,0.002678,0.000431,0.219778
19204000,0.0324,0.013523,0.002678,0.000431,0.167948
19205000,0.0324,0.013523,0.002678,0.000431,0.196977
19206000,0.0324,0.013523,0.002678,0.000431,0.207672
19207000,0.0324,0.013523,0.002678,0.000431,0.239875
19208000,0.0324,0.013523,0.002678,0.000431,0.078626
19209000,0.0324,0.013523,0.002678,0.000431,0.212256
19210000,0.0324,0.013523,0.002678,0.000431,0.124110
19211000,0.0324,0.013523,0.002678,0.000431,0.090379
19212000,0.0324,0.013523,0.002678,0.000431,0.109184
19213000,0.0324,0.013523,0.002678,0.000431,0.064170
19214000,0.0324,0.013523,0.002678,0.000431,0.110241
19215000,0.0324,0.013523,0.002678,0.000431,0.157370
19216000,0.0324,0.013523,0.002678,0.000431,0.124462
19217000,0.0324,0.013523,0.002678,0.000431,0.165715
19218000,0.0324,0.013523,0.002678,0.000431,0.228710
19219000,0.0324,0.013523,0.002678,0.000431,0.067579
19220000,0.0324,0.013523,0.002678,0.000431,0.112592
19221000,0.0324,0.013523,0.002678,0.000431,0.119761
19222000,0.0324,0.013523,0.002678,0.000431,0.262205
19223000,0.0324,0.013523,0.002678,0.000431,0.167360
19224000,0.0324,0.013523,0.002678,0.000431,0.308159
19225000,0.0324,0.013523,0.002678,0.000431,0.186987
19226000,0.0324,0.013523,0.002678,0.000431,0.134100
19227000,0.0324,0.013523,0.002678,0.000431,0.131044
19228000,0.0324,0.013523,0.002678,0.000431,0.105423
19229000,0.0324,0.013523,0.002678,0.000431,0.111769
19230000,0.0324,0.013523,0.002678,0.000431,0.135275
19231000,0.0324,0.013523,0.002678,0.000431,0.223421
19232000,0.0324,0.013523,0.002678,0.000431,0.155960
19233000,0.0324,0.013523,0.002678,0.000431,0.076393
19234000,0.0324,0.013523,0.002678,0.000431,0.197447
19235000,0.0324,0.013523,0.002678,0.000431,0.185107
19236000,0.0324,0.013523,0.002678,0.000431,0.080859
19237000,0.0324,0.013523,0.002678,0.000431,0.213431
19238000,0.0324,0.013523,0.002678,0.000431,0.166302
19239000,0.0324,0.013523,0.002678,0.000431,0.097196
19240000,0.0324,0.013523,0.002678,0.000431,0.096021
19241000,0.0324,0.013523,0.002678,0.000431,0.109889
19242000,0.0324,0.013523,0.002678,0.000431,0.119409
19243000,0.0324,0.013523,0.002678,0.000431,0.182874
19244000,0.0324,0.013523,0.002678,0.000431,0.188163
19245000,0.0324,0.013523,0.002678,0.000431,0.090379
19246000,0.0324,0.013523,0.002678,0.000431,0.101779
19247000,0.0324,0.013523,0.002678,0.000431,0.076511
19248000,0.0324,0.013523,0.002678,0.000431,0.111064
19249000,0.0324,0.013523,0.002678,0.000431,0.154550
19250000,0.0324,0.013523,0.002678,0.000431,0.284183
19251000,0.0324,0.013523,0.002678,0.000431,0.100722
19252000,0.0324,0.013523,0.002678,0.000431,0.086501
19253000,0.0324,0.013523,0.002678,0.000431,0.075688
19254000,0.0324,0.013523,0.002678,0.000431,0.162659
19255000,0.0324,0.013523,0.002678,0.000431,0.133865
19256000,0.0324,0.013523,0.002678,0.000431,0.195684
19257000,0.0324,0.013523,0.002678,0.000431,0.113767
19258000,0.0324,0.013523,0.002678,0.000431,0.086971
19259000,0.0324,0.013523,0.002678,0.000431,0.155607
19260000,0.0324,0.013523,0.002678,0.000431,0.169123
19261000,0.0324,0.013523,0.002678,0.000431,0.130104
19262000,0.0324,0.013523,0.002678,0.000431,0.164775
19263000,0.0324,0.013523,0.002678,0.000431,0.276074
19264000,0.0324,0.013523,0.002678,0.000431,0.242461
19265000,0.0324,0.013523,0.002678,0.000431,0.290295
19266000,0.0324,0.013523,0.002678,0.000431,0.181346
19267000,0.0324,0.013523,0.002678,0.000431,0.099546
19268000,0.0324,0.013523,0.002678,0.000431,0.144560
19269000,0.0324,0.013523,0.002678,0.000431,0.153492
19270000,0.0324,0.013523,0.002678,0.000431,0.155960
19271000,0.0324,0.013523,0.002678,0.000431,0.237054
19272000,0.0324,0.013523,0.002678,0.000431,0.119291
19273000,0.0324,0.013523,0.002678,0.000431,0.056296
19274000,0.0324,0.013523,0.002678,0.000431,0.282538
19275000,0.0324,0.013523,0.002678,0.000431,0.201326
19276000,0.0324,0.013523,0.002678,0.000431,0.138331
19277000,0.0324,0.013523,0.002678,0.000431,0.155372
19278000,0.0324,0.013523,0.002678,0.000431,0.160543
19279000,0.0324,0.013523,0.002678,0.000431,0.101779
19280000,0.0324,0.013523,0.002678,0.000431,0.192159
19281000,0.0324,0.013523,0.002678,0.000431,0.123522
19282000,0.0324,0.013523,0.002678,0.000431,0.206497
19283000,0.0324,0.013523,0.002678,0.000431,0.060292
19284000,0.0324,0.013523,0.002678,0.000431,0.135745
19285000,0.0324,0.013523,0.002678,0.000431,0.244341
19286000,0.0324,0.013523,0.002678,0.000431,0.120819
19287000,0.0324,0.013523,0.002678,0.000431,0.137861
19288000,0.0324,0.013523,0.002678,0.000431,0.309922
19289000,0.0324,0.013523,0.002678,0.000431,0.077098
19290000,0.0324,0.013523,0.002678,0.000431,0.060762
19291000,0.0324,0.013523,0.002678,0.000431,0.176292
19292000,0.0324,0.013523,0.002678,0.000431,0.195332
19293000,0.0324,0.013523,0.002678,0.000431,0.219308
19294000,0.0324,0.013523,0.002678,0.000431,0.125168
19295000,0.0324,0.013523,0.002678,0.000431,0.322497
19296000,0.0324,0.013523,0.002678,0.000431,0.052888
19297000,0.0324,0.013523,0.002678,0.000431,0.173001
19298000,0.0324,0.013523,0.002678,0.000431,0.132337
19299000,0.0324,0.013523,0.002678,0.000431,0.134217
19300000,0.0324,0.013523,0.002678,0.000431,0.070399
19301000,0.0324,0.013523,0.002678,0.000431,0.206615
19302000,0.0324,0.013523,0.002678,0.000431,0.179583
19303000,0.0324,0.013523,0.002678,0.000431,0.120466
19304000,0.0324,0.013523,0.002678,0.000431,0.063583
19305000,0.0324,0.013523,0.002678,0.000431,0.153609
19306000,0.0324,0.013523,0.002678,0.000431,0.214606
19307000,0.0324,0.013523,0.002678,0.000431,0.147850
19308000,0.0324,0.013523,0.002678,0.000431,0.248807
19309000,0.0324,0.013523,0.002678,0.000431,0.121524
19310000,0.0324,0.013523,0.002678,0.000431,0.062290
19311000,0.0324,0.013523,0.002678,0.000431,0.224244
19312000,0.0324,0.013523,0.002678,0.000431,0.206262
19313000,0.0324,0.013523,0.002678,0.000431,0.203441
19314000,0.0324,0.013523,0.002678,0.000431,0.306513
19315000,0.0324,0.013523,0.002678,0.000431,0.127753
19316000,0.0324,0.013523,0.002678,0.000431,0.034083
19317000,0.0324,0.013523,0.002678,0.000431,0.079919
19318000,0.0324,0.013523,0.002678,0.000431,0.237172
19319000,0.0324,0.013523,0.002678,0.000431,0.092142
19320000,0.0324,0.013523,0.002678,0.000431,0.153727
19321000,0.0324,0.013523,0.002678,0.000431,0.241285
19322000,0.0324,0.013523,0.002678,0.000431,0.126578
19323000,0.0324,0.013523,0.002678,0.000431,0.202031
19324000,0.0324,0.013523,0.002678,0.000431,0.078979
19325000,0.0324,0.013523,0.002678,0.000431,0.146793
19326000,0.0324,0.013523,0.002678,0.000431,0.095433
19327000,0.0324,0.013523,0.002678,0.000431,0.223304
19328000,0.0324,0.013523,0.002678,0.000431,0.122699
19329000,0.0324,0.013523,0.002678,0.000431,0.158075
19330000,0.0324,0.013523,0.002678,0.000431,0.211198
19331000,0.0324,0.013523,0.002678,0.000431,0.176645
19332000,0.0324,0.013523,0.002678,0.000431,0.248572
19333000,0.0324,0.013523,0.002678,0.000431,0.198623
19334000,0.0324,0.013523,0.002678,0.000431,0.243989
19335000,0.0324,0.013523,0.002678,0.000431,0.194744
19336000,0.0324,0.013523,0.002678,0.000431,0.145970
19337000,0.0324,0.013523,0.002678,0.000431,0.206967
19338000,0.0324,0.013523,0.002678,0.000431,0.188280
19339000,0.0324,0.013523,0.002678,0.000431,0.080154
19340000,0.0324,0.013523,0.002678,0.000431,0.117411
19341000,0.0324,0.013523,0.002678,0.000431,0.169711
19342000,0.0324,0.013523,0.002678,0.000431,0.222598
19343000,0.0324,0.013523,0.002678,0.000431,0.126343
19344000,0.0324,0.013523,0.002678,0.000431,0.249747
19345000,0.0324,0.013523,0.002678,0.000431,0.070399
19346000,0.0324,0.013523,0.002678,0.000431,0.048892
19347000,0.0324,0.013523,0.002678,0.000431,0.148908
19348000,0.0324,0.013523,0.002678,0.000431,0.120936
19349000,0.0324,0.013523,0.002678,0.000431,0.098724
19350000,0.0324,0.013523,0.002678,0.000431,0.166655
19351000,0.0324,0.013523,0.002678,0.000431,0.146558
19352000,0.0324,0.013523,0.002678,0.000431,0.119174
19353000,0.0324,0.013523,0.002678,0.000431,0.075336
19354000,0.0324,0.013523,0.002678,0.000431,0.049009
19355000,0.0324,0.013523,0.002678,0.000431,0.194392
19356000,0.0324,0.013523,0.002678,0.000431,0.119409
19357000,0.0324,0.013523,0.002678,0.000431,0.178995
19358000,0.0324,0.013523,0.002678,0.000431,0.176997
19359000,0.0324,0.013523,0.002678,0.000431,0.158310
19360000,0.0324,0.013523,0.002678,0.000431,0.096021
19361000,0.0324,0.013523,0.002678,0.000431,0.106363
19362000,0.0324,0.013523,0.002678,0.000431,0.100487
19363000,0.0324,0.013523,0.002678,0.000431,0.181699
19364000,0.0324,0.013523,0.002678,0.000431,0.252215
19365000,0.0324,0.013523,0.002678,0.000431,0.200973
19366000,0.0324,0.013523,0.002678,0.000431,0.096843
19367000,0.0324,0.013523,0.002678,0.000431,0.084268
19368000,0.0324,0.013523,0.002678,0.000431,0.199798
19369000,0.0324,0.013523,0.002678,0.000431,0.117176
19370000,0.0324,0.013523,0.002678,0.000431,0.227182
19371000,0.0324,0.013523,0.002678,0.000431,0.267024
19372000,0.0324,0.013523,0.002678,0.000431,0.171591
19373000,0.0324,0.013523,0.002678,0.000431,0.147028
19374000,0.0324,0.013523,0.002678,0.000431,0.110241
19375000,0.0324,0.013523,0.002678,0.000431,0.187105
19376000,0.0324,0.013523,0.002678,0.000431,0.360576
19377000,0.0324,0.013523,0.002678,0.000431,0.101309
19378000,0.0324,0.013523,0.002678,0.000431,0.154197
19379000,0.0324,0.013523,0.002678,0.000431,0.056531
19380000,0.0324,0.013523,0.002678,0.000431,0.143384
19381000,0.0324,0.013523,0.002678,0.000431,0.240110
19382000,0.0324,0.013523,0.002678,0.000431,0.075218
19383000,0.0324,0.013523,0.002678,0.000431,0.102367
19384000,0.0324,0.013523,0.002678,0.000431,0.204382
19385000,0.0324,0.013523,0.002678,0.000431,0.076981
19386000,0.0324,0.013523,0.002678,0.000431,0.080742
19387000,0.0324,0.013523,0.002678,0.000431,0.270080
19388000,0.0324,0.013523,0.002678,0.000431,0.224126
19389000,0.0324,0.013523,0.002678,0.000431,0.074160
19390000,0.0324,0.013523,0.002678,0.000431,0.078979
19391000,0.0324,0.013523,0.002678,0.000431,0.108949
19392000,0.0324,0.013523,0.002678,0.000431,0.063113
19393000,0.0324,0.013523,0.002678,0.000431,0.087794
19394000,0.0324,0.013523,0.002678,0.000431,0.283243
19395000,0.0324,0.013523,0.002678,0.000431,0.244106
19396000,0.0324,0.013523,0.002678,0.000431,0.086383
19397000,0.0324,0.013523,0.002678,0.000431,0.136333
19398000,0.0324,0.013523,0.002678,0.000431,0.074160
19399000,0.0324,0.013523,0.002678,0.000431,0.088029
19400000,0.0324,0.013523,0.002678,0.000431,0.222363
19401000,0.0324,0.013523,0.002678,0.000431,0.100957
19402000,0.0324,0.013523,0.002678,0.000431,0.120584
19403000,0.0324,0.013523,0.002678,0.000431,0.083092
19404000,0.0324,0.013523,0.002678,0.000431,0.153727
19405000,0.0324,0.013523,0.002678,0.000431,0.130574
19406000,0.0324,0.013523,0.002678,0.000431,0.163247
19407000,0.0324,0.013523,0.002678,0.000431,0.115060
19408000,0.0324,0.013523,0.002678,0.000431,0.090732
19409000,0.0324,0.013523,0.002678,0.000431,0.409468
19410000,0.0324,0.013523,0.002678,0.000431,0.097431
19411000,0.0324,0.013523,0.002678,0.000431,0.063465
19412000,0.0324,0.013523,0.002678,0.000431,0.060997
19413000,0.0324,0.013523,0.002678,0.000431,0.195449
19414000,0.0324,0.013523,0.002678,0.000431,0.106716
19415000,0.0324,0.013523,0.002678,0.000431,0.227064
19416000,0.0324,0.013523,0.002678,0.000431,0.193216
19417000,0.0324,0.013523,0.002678,0.000431,0.171474
19418000,0.0324,0.013523,0.002678,0.000431,0.168065
19419000,0.0324,0.013523,0.002678,0.000431,0.131749
19420000,0.0324,0.013523,0.002678,0.000431,0.199563
19421000,0.0324,0.013523,0.002678,0.000431,0.052770
19422000,0.0324,0.013523,0.002678,0.000431,0.169476
19423000,0.0324,0.013523,0.002678,0.000431,0.142092
19424000,0.0324,0.013523,0.002678,0.000431,0.132924
19425000,0.0324,0.013523,0.002678,0.000431,0.120584
19426000,0.0324,0.013523,0.002678,0.000431,0.211551
19427000,0.0324,0.013523,0.002678,0.000431,0.170181
19428000,0.0324,0.013523,0.002678,0.000431,0.220718
19429000,0.0324,0.013523,0.002678,0.000431,0.068166
19430000,0.0324,0.013523,0.002678,0.000431,0.101427
19431000,0.0324,0.013523,0.002678,0.000431,0.080859
19432000,0.0324,0.013523,0.002678,0.000431,0.115178
19433000,0.0324,0.013523,0.002678,0.000431,0.086618
19434000,0.0324,0.013523,0.002678,0.000431,0.165715
19435000,0.0324,0.013523,0.002678,0.000431,0.132337
19436000,0.0324,0.013523,0.002678,0.000431,0.045248
19437000,0.0324,0.013523,0.002678,0.000431,0.033966
19438000,0.0324,0.013523,0.002678,0.000431,0.102014
19439000,0.0324,0.013523,0.002678,0.000431,0.135275
19440000,0.0324,0.013523,0.002678,0.000431,0.213431
19441000,0.0324,0.013523,0.002678,0.000431,0.126813
19442000,0.0324,0.013523,0.002678,0.000431,0.111064
19443000,0.0324,0.013523,0.002678,0.000431,0.066403
19444000,0.0324,0.013523,0.002678,0.000431,0.104365
19445000,0.0324,0.013523,0.002678,0.000431,0.084738
19446000,0.0324,0.013523,0.002678,0.000431,0.148791
19447000,0.0324,0.013523,0.002678,0.000431,0.355288
19448000,0.0324,0.013523,0.002678,0.000431,0.292763
19449000,0.0324,0.013523,0.002678,0.000431,0.063935
19450000,0.0324,0.013523,0.002678,0.000431,0.094023
19451000,0.0324,0.013523,0.002678,0.000431,0.048774
19452000,0.0324,0.013523,0.002678,0.000431,0.094728
19453000,0.0324,0.013523,0.002678,0.000431,0.229062
19454000,0.0324,0.013523,0.002678,0.000431,0.109889
19455000,0.0324,0.013523,0.002678,0.000431,0.071575
19456000,0.0324,0.013523,0.002678,0.000431,0.082857
19457000,0.0324,0.013523,0.002678,0.000431,0.119996
19458000,0.0324,0.013523,0.002678,0.000431,0.099076
19459000,0.0324,0.013523,0.002678,0.000431,0.105070
19460000,0.0324,0.013523,0.002678,0.000431,0.101309
19461000,0.0324,0.013523,0.002678,0.000431,0.119526
19462000,0.0324,0.013523,0.002678,0.000431,0.114120
19463000,0.0324,0.013523,0.002678,0.000431,0.071340
19464000,0.0324,0.013523,0.002678,0.000431,0.127753
19465000,0.0324,0.013523,0.002678,0.000431,0.133394
19466000,0.0324,0.013523,0.002678,0.000431,0.093787
19467000,0.0324,0.013523,0.002678,0.000431,0.169828
19468000,0.0324,0.013523,0.002678,0.000431,0.058764
19469000,0.0324,0.013523,0.002678,0.000431,0.094375
19470000,0.0324,0.013523,0.002678,0.000431,0.134100
19471000,0.0324,0.013523,0.002678,0.000431,0.123522
19472000,0.0324,0.013523,0.002678,0.000431,0.206027
19473000,0.0324,0.013523,0.002678,0.000431,0.162306
19474000,0.0324,0.013523,0.002678,0.000431,0.161601
19475000,0.0324,0.013523,0.002678,0.000431,0.045954
19476000,0.0324,0.013523,0.002678,0.000431,0.100134
19477000,0.0324,0.013523,0.002678,0.000431,0.047364
19478000,0.0324,0.013523,0.002678,0.000431,0.270080
19479000,0.0324,0.013523,0.002678,0.000431,0.117411
19480000,0.0324,0.013523,0.002678,0.000431,0.119526
19481000,0.0324,0.013523,0.002678,0.000431,0.155842
19482000,0.0324,0.013523,0.002678,0.000431,0.049127
19483000,0.0324,0.013523,0.002678,0.000431,0.049009
19484000,0.0324,0.013523,0.002678,0.000431,0.287709
19485000,0.0324,0.013523,0.002678,0.000431,0.200856
19486000,0.0324,0.013523,0.002678,0.000431,0.062055
19487000,0.0324,0.013523,0.002678,0.000431,0.201443
19488000,0.0324,0.013523,0.002678,0.000431,0.128576
19489000,0.0324,0.013523,0.002678,0.000431,0.112592
19490000,0.0324,0.013523,0.002678,0.000431,0.071692
19491000,0.0324,0.013523,0.002678,0.000431,0.223539
19492000,0.0324,0.013523,0.002678,0.000431,0.211786
19493000,0.0324,0.013523,0.002678,0.000431,0.162777
19494000,0.0324,0.013523,0.002678,0.000431,0.297934
19495000,0.0324,0.013523,0.002678,0.000431,0.078979
19496000,0.0324,0.013523,0.002678,0.000431,0.064641
19497000,0.0324,0.013523,0.002678,0.000431,0.165480
19498000,0.0324,0.013523,0.002678,0.000431,0.116823
19499000,0.0324,0.013523,0.002678,0.000431,0.194157
19500000,0.0324,0.013523,0.002678,0.000431,0.065581
19501000,0.0324,0.013523,0.002678,0.000431,0.193804
19502000,0.0324,0.013523,0.002678,0.000431,0.111534
19503000,0.0324,0.013523,0.002678,0.000431,0.110712
19504000,0.0324,0.013523,0.002678,0.000431,0.093200
19505000,0.0324,0.013523,0.002678,0.000431,0.233999
19506000,0.0324,0.013523,0.002678,0.000431,0.154667
19507000,0.0324,0.013523,0.002678,0.000431,0.039019
19508000,0.0324,0.013523,0.002678,0.000431,0.175352
19509000,0.0324,0.013523,0.002678,0.000431,0.048657
19510000,0.0324,0.013523,0.002678,0.000431,0.143149
19511000,0.0324,0.013523,0.002678,0.000431,0.097901
19512000,0.0324,0.013523,0.002678,0.000431,0.135275
19513000,0.0324,0.013523,0.002678,0.000431,0.072162
19514000,0.0324,0.013523,0.002678,0.000431,0.056178
19515000,0.0324,0.013523,0.002678,0.000431,0.033848
19516000,0.0324,0.013523,0.002678,0.000431,0.129869
19517000,0.0324,0.013523,0.002678,0.000431,0.155725
19518000,0.0324,0.013523,0.002678,0.000431,0.120701
19519000,0.0324,0.013523,0.002678,0.000431,0.075571
19520000,0.0324,0.013523,0.002678,0.000431,0.171004
19521000,0.0324,0.013523,0.002678,0.000431,0.070634
19522000,0.0324,0.013523,0.002678,0.000431,0.049714
19523000,0.0324,0.013523,0.002678,0.000431,0.287474
19524000,0.0324,0.013523,0.002678,0.000431,0.107186
19525000,0.0324,0.013523,0.002678,0.000431,0.142679
19526000,0.0324,0.013523,0.002678,0.000431,0.062525
19527000,0.0324,0.013523,0.002678,0.000431,0.076158
19528000,0.0324,0.013523,0.002678,0.000431,0.159133
19529000,0.0324,0.013523,0.002678,0.000431,0.114708
19530000,0.0324,0.013523,0.002678,0.000431,0.141504
19531000,0.0324,0.013523,0.002678,0.000431,0.175352
19532000,0.0324,0.013523,0.002678,0.000431,0.219660
19533000,0.0324,0.013523,0.002678,0.000431,0.086736
19534000,0.0324,0.013523,0.002678,0.000431,0.086266
19535000,0.0324,0.013523,0.002678,0.000431,0.159016
19536000,0.0324,0.013523,0.002678,0.000431,0.189220
19537000,0.0324,0.013523,0.002678,0.000431,0.118468
19538000,0.0324,0.013523,0.002678,0.000431,0.141034
19539000,0.0324,0.013523,0.002678,0.000431,0.118351
19540000,0.0324,0.013523,0.002678,0.000431,0.208025
19541000,0.0324,0.013523,0.002678,0.000431,0.131749
19542000,0.0324,0.013523,0.002678,0.000431,0.147850
19543000,0.0324,0.013523,0.002678,0.000431,0.258092
19544000,0.0324,0.013523,0.002678,0.000431,0.145500
19545000,0.0324,0.013523,0.002678,0.000431,0.115765
19546000,0.0324,0.013523,0.002678,0.000431,0.046189
19547000,0.0324,0.013523,0.002678,0.000431,0.163834
19548000,0.0324,0.013523,0.002678,0.000431,0.329196
19549000,0.0324,0.013523,0.002678,0.000431,0.239052
19550000,0.0324,0.013523,0.002678,0.000431,0.205792
19551000,0.0324,0.013523,0.002678,0.000431,0.063700
19552000,0.0324,0.013523,0.002678,0.000431,0.039489
19553000,0.0324,0.013523,0.002678,0.000431,0.088499
19554000,0.0324,0.013523,0.002678,0.000431,0.146205
19555000,0.0324,0.013523,0.002678,0.000431,0.162189
19556000,0.0324,0.013523,0.002678,0.000431,0.147498
19557000,0.0324,0.013523,0.002678,0.000431,0.272430
19558000,0.0324,0.013523,0.002678,0.000431,0.119526
19559000,0.0324,0.013523,0.002678,0.000431,0.109419
19560000,0.0324,0.013523,0.002678,0.000431,0.135275
19561000,0.0324,0.013523,0.002678,0.000431,0.227417
19562000,0.0324,0.013523,0.002678,0.000431,0.183697
19563000,0.0324,0.013523,0.002678,0.000431,0.056649
19564000,0.0324,0.013523,0.002678,0.000431,0.087558
19565000,0.0324,0.013523,0.002678,0.000431,0.040195
19566000,0.0324,0.013523,0.002678,0.000431,0.094375
19567000,0.0324,0.013523,0.002678,0.000431,0.122934
19568000,0.0324,0.013523,0.002678,0.000431,0.114120
19569000,0.0324,0.013523,0.002678,0.000431,0.110006
19570000,0.0324,0.013523,0.002678,0.000431,0.174177
19571000,0.0324,0.013523,0.002678,0.000431,0.070164
19572000,0.0324,0.013523,0.002678,0.000431,0.071692
19573000,0.0324,0.013523,0.002678,0.000431,0.078509
19574000,0.0324,0.013523,0.002678,0.000431,0.070634
19575000,0.0324,0.013523,0.002678,0.000431,0.081212
19576000,0.0324,0.013523,0.002678,0.000431,0.094963
19577000,0.0324,0.013523,0.002678,0.000431,0.214842
19578000,0.0324,0.013523,0.002678,0.000431,0.093552
19579000,0.0324,0.013523,0.002678,0.000431,0.097548
19580000,0.0324,0.013523,0.002678,0.000431,0.084150
19581000,0.0324,0.013523,0.002678,0.000431,0.209905
19582000,0.0324,0.013523,0.002678,0.000431,0.077686
19583000,0.0324,0.013523,0.002678,0.000431,0.115178
19584000,0.0324,0.013523,0.002678,0.000431,0.071222
19585000,0.0324,0.013523,0.002678,0.000431,0.079096
19586000,0.0324,0.013523,0.002678,0.000431,0.063465
19587000,0.0324,0.013523,0.002678,0.000431,0.188398
19588000,0.0324,0.013523,0.002678,0.000431,0.260325
19589000,0.0324,0.013523,0.002678,0.000431,0.166067
19590000,0.0324,0.013523,0.002678,0.000431,0.260795
19591000,0.0324,0.013523,0.002678,0.000431,0.084033
19592000,0.0324,0.013523,0.002678,0.000431,0.160308
19593000,0.0324,0.013523,0.002678,0.000431,0.034906
19594000,0.0324,0.013523,0.002678,0.000431,0.145735
19595000,0.0324,0.013523,0.002678,0.000431,0.180876
19596000,0.0324,0.013523,0.002678,0.000431,0.355288
19597000,0.0324,0.013523,0.002678,0.000431,0.119879
19598000,0.0324,0.013523,0.002678,0.000431,0.158428
19599000,0.0324,0.013523,0.002678,0.000431,0.041370
19600000,0.0324,0.013523,0.002678,0.000431,0.105540
19601000,0.0324,0.013523,0.002678,0.000431,0.267142
19602000,0.0324,0.013523,0.002678,0.000431,0.226712
19603000,0.0324,0.013523,0.002678,0.000431,0.106010
19604000,0.0324,0.013523,0.002678,0.000431,0.107186
19605000,0.0324,0.013523,0.002678,0.000431,0.121877
19606000,0.0324,0.013523,0.002678,0.000431,0.165127
19607000,0.0324,0.013523,0.002678,0.000431,0.127753
19608000,0.0324,0.013523,0.002678,0.000431,0.165715
19609000,0.0324,0.013523,0.002678,0.000431,0.091084
19610000,0.0324,0.013523,0.002678,0.000431,0.204969
19611000,0.0324,0.013523,0.002678,0.000431,0.088734
19612000,0.0324,0.013523,0.002678,0.000431,0.102367
19613000,0.0324,0.013523,0.002678,0.000431,0.257269
19614000,0.0324,0.013523,0.002678,0.000431,0.278659
19615000,0.0324,0.013523,0.002678,0.000431,0.267259
19616000,0.0324,0.013523,0.002678,0.000431,0.142797
19617000,0.0324,0.013523,0.002678,0.000431,0.047481
19618000,0.0324,0.013523,0.002678,0.000431,0.073808
19619000,0.0324,0.013523,0.002678,0.000431,0.163717
19620000,0.0324,0.013523,0.002678,0.000431,0.067461
19621000,0.0324,0.013523,0.002678,0.000431,0.118821
19622000,0.0324,0.013523,0.002678,0.000431,0.223656
19623000,0.0324,0.013523,0.002678,0.000431,0.109301
19624000,0.0324,0.013523,0.002678,0.000431,0.063935
19625000,0.0324,0.013523,0.002678,0.000431,0.071457
19626000,0.0324,0.013523,0.002678,0.000431,0.137390
19627000,0.0324,0.013523,0.002678,0.000431,0.155842
19628000,0.0324,0.013523,0.002678,0.000431,0.153727
19629000,0.0324,0.013523,0.002678,0.000431,0.109889
19630000,0.0324,0.013523,0.002678,0.000431,0.087676
19631000,0.0324,0.013523,0.002678,0.000431,0.033496
19632000,0.0324,0.013523,0.002678,0.000431,0.071810
19633000,0.0324,0.013523,0.002678,0.000431,0.115765
19634000,0.0324,0.013523,0.002678,0.000431,0.213549
19635000,0.0324,0.013523,0.002678,0.000431,0.186282
19636000,0.0324,0.013523,0.002678,0.000431,0.049127
19637000,0.0324,0.013523,0.002678,0.000431,0.078861
19638000,0.0324,0.013523,0.002678,0.000431,0.090732
19639000,0.0324,0.013523,0.002678,0.000431,0.092612
19640000,0.0324,0.013523,0.002678,0.000431,0.205439
19641000,0.0324,0.013523,0.002678,0.000431,0.116823
19642000,0.0324,0.013523,0.002678,0.000431,0.104012
19643000,0.0324,0.013523,0.002678,0.000431,0.159486
19644000,0.0324,0.013523,0.002678,0.000431,0.039372
19645000,0.0324,0.013523,0.002678,0.000431,0.056531
19646000,0.0324,0.013523,0.002678,0.000431,0.165362
19647000,0.0324,0.013523,0.002678,0.000431,0.168183
19648000,0.0324,0.013523,0.002678,0.000431,0.086031
19649000,0.0324,0.013523,0.002678,0.000431,0.064641
19650000,0.0324,0.013523,0.002678,0.000431,0.079214
19651000,0.0324,0.013523,0.002678,0.000431,0.056414
19652000,0.0324,0.013523,0.002678,0.000431,0.101544
19653000,0.0324,0.013523,0.002678,0.000431,0.221658
19654000,0.0324,0.013523,0.002678,0.000431,0.083445
19655000,0.0324,0.013523,0.002678,0.000431,0.173472
19656000,0.0324,0.013523,0.002678,0.000431,0.115295
19657000,0.0324,0.013523,0.002678,0.000431,0.054416
19658000,0.0324,0.013523,0.002678,0.000431,0.056414
19659000,0.0324,0.013523,0.002678,0.000431,0.184872
19660000,0.0324,0.013523,0.002678,0.000431,0.145970
19661000,0.0324,0.013523,0.002678,0.000431,0.105775
19662000,0.0324,0.013523,0.002678,0.000431,0.139271
19663000,0.0324,0.013523,0.002678,0.000431,0.071692
19664000,0.0324,0.013523,0.002678,0.000431,0.071692
19665000,0.0324,0.013523,0.002678,0.000431,0.198270
19666000,0.0324,0.013523,0.002678,0.000431,0.223656
19667000,0.0324,0.013523,0.002678,0.000431,0.170768
19668000,0.0324,0.013523,0.002678,0.000431,0.310392
19669000,0.0324,0.013523,0.002678,0.000431,0.041252
19670000,0.0324,0.013523,0.002678,0.000431,0.074865
19671000,0.0324,0.013523,0.002678,0.000431,0.179466
19672000,0.0324,0.013523,0.002678,0.000431,0.195449
19673000,0.0324,0.013523,0.002678,0.000431,0.154785
19674000,0.0324,0.013523,0.002678,0.000431,0.107186
19675000,0.0324,0.013523,0.002678,0.000431,0.096843
19676000,0.0324,0.013523,0.002678,0.000431,0.091790
19677000,0.0324,0.013523,0.002678,0.000431,0.109536
19678000,0.0324,0.013523,0.002678,0.000431,0.116823
19679000,0.0324,0.013523,0.002678,0.000431,0.071105
19680000,0.0324,0.013523,0.002678,0.000431,0.174412
19681000,0.0324,0.013523,0.002678,0.000431,0.074865
19682000,0.0324,0.013523,0.002678,0.000431,0.071692
19683000,0.0324,0.013523,0.002678,0.000431,0.064170
19684000,0.0324,0.013523,0.002678,0.000431,0.109301
19685000,0.0324,0.013523,0.002678,0.000431,0.130104
19686000,0.0324,0.013523,0.002678,0.000431,0.035376
19687000,0.0324,0.013523,0.002678,0.000431,0.163599
19688000,0.0324,0.013523,0.002678,0.000431,0.079096
19689000,0.0324,0.013523,0.002678,0.000431,0.094610
19690000,0.0324,0.013523,0.002678,0.000431,0.170768
19691000,0.0324,0.013523,0.002678,0.000431,0.154667
19692000,0.0324,0.013523,0.002678,0.000431,0.305456
19693000,0.0324,0.013523,0.002678,0.000431,0.135628
19694000,0.0324,0.013523,0.002678,0.000431,0.066286
19695000,0.0324,0.013523,0.002678,0.000431,0.106716
19696000,0.0324,0.013523,0.002678,0.000431,0.146910
19697000,0.0324,0.013523,0.002678,0.000431,0.169711
19698000,0.0324,0.013523,0.002678,0.000431,0.146440
19699000,0.0324,0.013523,0.002678,0.000431,0.150671
19700000,0.0324,0.013523,0.002678,0.000431,0.097783
19701000,0.0324,0.013523,0.002678,0.000431,0.041135
19702000,0.0324,0.013523,0.002678,0.000431,0.052888
19703000,0.0324,0.013523,0.002678,0.000431,0.102837
19704000,0.0324,0.013523,0.002678,0.000431,0.127283
19705000,0.0324,0.013523,0.002678,0.000431,0.161601
19706000,0.0324,0.013523,0.002678,0.000431,0.056766
19707000,0.0324,0.013523,0.002678,0.000431,0.071457
19708000,0.0324,0.013523,0.002678,0.000431,0.086971
19709000,0.0324,0.013523,0.002678,0.000431,0.117528
19710000,0.0324,0.013523,0.002678,0.000431,0.135628
19711000,0.0324,0.013523,0.002678,0.000431,0.183814
19712000,0.0324,0.013523,0.002678,0.000431,0.153492
19713000,0.0324,0.013523,0.002678,0.000431,0.174882
19714000,0.0324,0.013523,0.002678,0.000431,0.084855
19715000,0.0324,0.013523,0.002678,0.000431,0.071810
19716000,0.0324,0.013523,0.002678,0.000431,0.199915
19717000,0.0324,0.013523,0.002678,0.000431,0.138566
19718000,0.0324,0.013523,0.002678,0.000431,0.388078
19719000,0.0324,0.013523,0.002678,0.000431,0.053828
19720000,0.0324,0.013523,0.002678,0.000431,0.130456
19721000,0.0324,0.013523,0.002678,0.000431,0.158075
19722000,0.0324,0.013523,0.002678,0.000431,0.105540
19723000,0.0324,0.013523,0.002678,0.000431,0.123875
19724000,0.0324,0.013523,0.002678,0.000431,0.344593
19725000,0.0324,0.013523,0.002678,0.000431,0.137861
19726000,0.0324,0.013523,0.002678,0.000431,0.159956
19727000,0.0324,0.013523,0.002678,0.000431,0.094963
19728000,0.0324,0.013523,0.002678,0.000431,0.155607
19729000,0.0324,0.013523,0.002678,0.000431,0.305456
19730000,0.0324,0.013523,0.002678,0.000431,0.160073
19731000,0.0324,0.013523,0.002678,0.000431,0.233528
19732000,0.0324,0.013523,0.002678,0.000431,0.108831
19733000,0.0324,0.013523,0.002678,0.000431,0.127048
19734000,0.0324,0.013523,0.002678,0.000431,0.068519
19735000,0.0324,0.013523,0.002678,0.000431,0.130691
19736000,0.0324,0.013523,0.002678,0.000431,0.101544
19737000,0.0324,0.013523,0.002678,0.000431,0.149261
19738000,0.0324,0.013523,0.002678,0.000431,0.143619
19739000,0.0324,0.013523,0.002678,0.000431,0.229885
19740000,0.0324,0.013523,0.002678,0.000431,0.074630
19741000,0.0324,0.013523,0.002678,0.000431,0.116705
19742000,0.0324,0.013523,0.002678,0.000431,0.095315
19743000,0.0324,0.013523,0.002678,0.000431,0.149143
19744000,0.0324,0.013523,0.002678,0.000431,0.174647
19745000,0.0324,0.013523,0.002678,0.000431,0.079567
19746000,0.0324,0.013523,0.002678,0.000431,0.055591
19747000,0.0324,0.013523,0.002678,0.000431,0.129516
19748000,0.0324,0.013523,0.002678,0.000431,0.162541
19749000,0.0324,0.013523,0.002678,0.000431,0.280187
19750000,0.0324,0.013523,0.002678,0.000431,0.225419
19751000,0.0324,0.013523,0.002678,0.000431,0.056531
19752000,0.0324,0.013523,0.002678,0.000431,0.154432
19753000,0.0324,0.013523,0.002678,0.000431,0.071457
19754000,0.0324,0.013523,0.002678,0.000431,0.060409
19755000,0.0324,0.013523,0.002678,0.000431,0.084973
19756000,0.0324,0.013523,0.002678,0.000431,0.226007
19757000,0.0324,0.013523,0.002678,0.000431,0.137038
19758000,0.0324,0.013523,0.002678,0.000431,0.225889
19759000,0.0324,0.013523,0.002678,0.000431,0.228945
19760000,0.0324,0.013523,0.002678,0.000431,0.095080
19761000,0.0324,0.013523,0.002678,0.000431,0.150319
19762000,0.0324,0.013523,0.002678,0.000431,0.169946
19763000,0.0324,0.013523,0.002678,0.000431,0.255741
19764000,0.0324,0.013523,0.002678,0.000431,0.034083
19765000,0.0324,0.013523,0.002678,0.000431,0.205674
19766000,0.0324,0.013523,0.002678,0.000431,0.089086
19767000,0.0324,0.013523,0.002678,0.000431,0.168418
19768000,0.0324,0.013523,0.002678,0.000431,0.142327
19769000,0.0324,0.013523,0.002678,0.000431,0.337423
19770000,0.0324,0.013523,0.002678,0.000431,0.149613
19771000,0.0324,0.013523,0.002678,0.000431,0.139388
19772000,0.0324,0.013523,0.002678,0.000431,0.071692
19773000,0.0324,0.013523,0.002678,0.000431,0.071340
19774000,0.0324,0.013523,0.002678,0.000431,0.232706
19775000,0.0324,0.013523,0.002678,0.000431,0.231295
19776000,0.0324,0.013523,0.002678,0.000431,0.112474
19777000,0.0324,0.013523,0.002678,0.000431,0.034083
19778000,0.0324,0.013523,0.002678,0.000431,0.176057
19779000,0.0324,0.013523,0.002678,0.000431,0.123875
19780000,0.0324,0.013523,0.002678,0.000431,0.119174
19781000,0.0324,0.013523,0.002678,0.000431,0.052888
19782000,0.0324,0.013523,0.002678,0.000431,0.161484
19783000,0.0324,0.013523,0.002678,0.000431,0.057119
19784000,0.0324,0.013523,0.002678,0.000431,0.087206
19785000,0.0324,0.013523,0.002678,0.000431,0.202148
19786000,0.0324,0.013523,0.002678,0.000431,0.195214
19787000,0.0324,0.013523,0.002678,0.000431,0.338951
19788000,0.0324,0.013523,0.002678,0.000431,0.228592
19789000,0.0324,0.013523,0.002678,0.000431,0.195567
19790000,0.0324,0.013523,0.002678,0.000431,0.090262
19791000,0.0324,0.013523,0.002678,0.000431,0.173472
19792000,0.0324,0.013523,0.002678,0.000431,0.075806
19793000,0.0324,0.013523,0.002678,0.000431,0.098019
19794000,0.0324,0.013523,0.002678,0.000431,0.094258
19795000,0.0324,0.013523,0.002678,0.000431,0.138448
19796000,0.0324,0.013523,0.002678,0.000431,0.089204
19797000,0.0324,0.013523,0.002678,0.000431,0.128811
19798000,0.0324,0.013523,0.002678,0.000431,0.073103
19799000,0.0324,0.013523,0.002678,0.000431,0.212138
19800000,0.0324,0.013523,0.002678,0.000431,0.117293
19801000,0.0324,0.013523,0.002678,0.000431,0.149848
19802000,0.0324,0.013523,0.002678,0.000431,0.151611
19803000,0.0324,0.013523,0.002678,0.000431,0.034083
19804000,0.0324,0.013523,0.002678,0.000431,0.142679
19805000,0.0324,0.013523,0.002678,0.000431,0.117646
19806000,0.0324,0.013523,0.002678,0.000431,0.173119
19807000,0.0324,0.013523,0.002678,0.000431,0.111417
19808000,0.0324,0.013523,0.002678,0.000431,0.147968
19809000,0.0324,0.013523,0.002678,0.000431,0.060174
19810000,0.0324,0.013523,0.002678,0.000431,0.064053
19811000,0.0324,0.013523,0.002678,0.000431,0.074395
19812000,0.0324,0.013523,0.002678,0.000431,0.181581
19813000,0.0324,0.013523,0.002678,0.000431,0.114825
19814000,0.0324,0.013523,0.002678,0.000431,0.256211
19815000,0.0324,0.013523,0.002678,0.000431,0.234939
19816000,0.0324,0.013523,0.002678,0.000431,0.038079
19817000,0.0324,0.013523,0.002678,0.000431,0.090379
19818000,0.0324,0.013523,0.002678,0.000431,0.104718
19819000,0.0324,0.013523,0.002678,0.000431,0.138683
19820000,0.0324,0.013523,0.002678,0.000431,0.163717
19821000,0.0324,0.013523,0.002678,0.000431,0.143267
19822000,0.0324,0.013523,0.002678,0.000431,0.187928
19823000,0.0324,0.013523,0.002678,0.000431,0.181581
19824000,0.0324,0.013523,0.002678,0.000431,0.100252
19825000,0.0324,0.013523,0.002678,0.000431,0.148908
19826000,0.0324,0.013523,0.002678,0.000431,0.171474
19827000,0.0324,0.013523,0.002678,0.000431,0.304398
19828000,0.0324,0.013523,0.002678,0.000431,0.184754
19829000,0.0324,0.013523,0.002678,0.000431,0.039372
19830000,0.0324,0.013523,0.002678,0.000431,0.115765
19831000,0.0324,0.013523,0.002678,0.000431,0.049597
19832000,0.0324,0.013523,0.002678,0.000431,0.090379
19833000,0.0324,0.013523,0.002678,0.000431,0.169711
19834000,0.0324,0.013523,0.002678,0.000431,0.255741
19835000,0.0324,0.013523,0.002678,0.000431,0.145382
19836000,0.0324,0.013523,0.002678,0.000431,0.211903
19837000,0.0324,0.013523,0.002678,0.000431,0.113415
19838000,0.0324,0.013523,0.002678,0.000431,0.041487
19839000,0.0324,0.013523,0.002678,0.000431,0.236937
19840000,0.0324,0.013523,0.002678,0.000431,0.208025
19841000,0.0324,0.013523,0.002678,0.000431,0.208848
19842000,0.0324,0.013523,0.002678,0.000431,0.216604
19843000,0.0324,0.013523,0.002678,0.000431,0.097783
19844000,0.0324,0.013523,0.002678,0.000431,0.094493
19845000,0.0324,0.013523,0.002678,0.000431,0.158428
19846000,0.0324,0.013523,0.002678,0.000431,0.206615
19847000,0.0324,0.013523,0.002678,0.000431,0.090262
19848000,0.0324,0.013523,0.002678,0.000431,0.071222
19849000,0.0324,0.013523,0.002678,0.000431,0.086853
19850000,0.0324,0.013523,0.002678,0.000431,0.119996
19851000,0.0324,0.013523,0.002678,0.000431,0.186400
19852000,0.0324,0.013523,0.002678,0.000431,0.110712
19853000,0.0324,0.013523,0.002678,0.000431,0.143149
19854000,0.0324,0.013523,0.002678,0.000431,0.127401
19855000,0.0324,0.013523,0.002678,0.000431,0.158428
19856000,0.0324,0.013523,0.002678,0.000431,0.141974
19857000,0.0324,0.013523,0.002678,0.000431,0.085913
19858000,0.0324,0.013523,0.002678,0.000431,0.207907
19859000,0.0324,0.013523,0.002678,0.000431,0.235644
19860000,0.0324,0.013523,0.002678,0.000431,0.087088
19861000,0.0324,0.013523,0.002678,0.000431,0.158546
19862000,0.0324,0.013523,0.002678,0.000431,0.079684
19863000,0.0324,0.013523,0.002678,0.000431,0.105775
19864000,0.0324,0.013523,0.002678,0.000431,0.114943
19865000,0.0324,0.013523,0.002678,0.000431,0.125638
19866000,0.0324,0.013523,0.002678,0.000431,0.195802
19867000,0.0324,0.013523,0.002678,0.000431,0.137155
19868000,0.0324,0.013523,0.002678,0.000431,0.151494
19869000,0.0324,0.013523,0.002678,0.000431,0.167125
19870000,0.0324,0.013523,0.002678,0.000431,0.086618
19871000,0.0324,0.013523,0.002678,0.000431,0.214842
19872000,0.0324,0.013523,0.002678,0.000431,0.163247
19873000,0.0324,0.013523,0.002678,0.000431,0.129751
19874000,0.0324,0.013523,0.002678,0.000431,0.090262
19875000,0.0324,0.013523,0.002678,0.000431,0.090144
19876000,0.0324,0.013523,0.002678,0.000431,0.130926
19877000,0.0324,0.013523,0.002678,0.000431,0.171474
19878000,0.0324,0.013523,0.002678,0.000431,0.064758
19879000,0.0324,0.013523,0.002678,0.000431,0.134805
19880000,0.0324,0.013523,0.002678,0.000431,0.104600
19881000,0.0324,0.013523,0.002678,0.000431,0.126930
19882000,0.0324,0.013523,0.002678,0.000431,0.126460
19883000,0.0324,0.013523,0.002678,0.000431,0.183932
19884000,0.0324,0.013523,0.002678,0.000431,0.140446
19885000,0.0324,0.013523,0.002678,0.000431,0.175352
19886000,0.0324,0.013523,0.002678,0.000431,0.265614
19887000,0.0324,0.013523,0.002678,0.000431,0.123640
19888000,0.0324,0.013523,0.002678,0.000431,0.041135
19889000,0.0324,0.013523,0.002678,0.000431,0.100369
19890000,0.0324,0.013523,0.002678,0.000431,0.115060
19891000,0.0324,0.013523,0.002678,0.000431,0.190983
19892000,0.0324,0.013523,0.002678,0.000431,0.230238
19893000,0.0324,0.013523,0.002678,0.000431,0.173472
19894000,0.0324,0.013523,0.002678,0.000431,0.209083
19895000,0.0324,0.013523,0.002678,0.000431,0.085443
19896000,0.0324,0.013523,0.002678,0.000431,0.197447
19897000,0.0324,0.013523,0.002678,0.000431,0.121289
19898000,0.0324,0.013523,0.002678,0.000431,0.256682
19899000,0.0324,0.013523,0.002678,0.000431,0.226359
19900000,0.0324,0.013523,0.002678,0.000431,0.133394
19901000,0.0324,0.013523,0.002678,0.000431,0.116118
19902000,0.0324,0.013523,0.002678,0.000431,0.137038
19903000,0.0324,0.013523,0.002678,0.000431,0.238347
19904000,0.0324,0.013523,0.002678,0.000431,0.271843
19905000,0.0324,0.013523,0.002678,0.000431,0.112710
19906000,0.0324,0.013523,0.002678,0.000431,0.133865
19907000,0.0324,0.013523,0.002678,0.000431,0.151376
19908000,0.0324,0.013523,0.002678,0.000431,0.145382
19909000,0.0324,0.013523,0.002678,0.000431,0.067814
19910000,0.0324,0.013523,0.002678,0.000431,0.134687
19911000,0.0324,0.013523,0.002678,0.000431,0.238465
19912000,0.0324,0.013523,0.002678,0.000431,0.052653
19913000,0.0324,0.013523,0.002678,0.000431,0.056178
19914000,0.0324,0.013523,0.002678,0.000431,0.063700
19915000,0.0324,0.013523,0.002678,0.000431,0.052653
19916000,0.0324,0.013523,0.002678,0.000431,0.215429
19917000,0.0324,0.013523,0.002678,0.000431,0.206615
19918000,0.0324,0.013523,0.002678,0.000431,0.133630
19919000,0.0324,0.013523,0.002678,0.000431,0.223656
19920000,0.0324,0.013523,0.002678,0.000431,0.049714
19921000,0.0324,0.013523,0.002678,0.000431,0.121289
19922000,0.0324,0.013523,0.002678,0.000431,0.092025
19923000,0.0324,0.013523,0.002678,0.000431,0.116705
19924000,0.0324,0.013523,0.002678,0.000431,0.276779
19925000,0.0324,0.013523,0.002678,0.000431,0.182874
19926000,0.0324,0.013523,0.002678,0.000431,0.208613
19927000,0.0324,0.013523,0.002678,0.000431,0.150436
19928000,0.0324,0.013523,0.002678,0.000431,0.123992
19929000,0.0324,0.013523,0.002678,0.000431,0.096961
19930000,0.0324,0.013523,0.002678,0.000431,0.204382
19931000,0.0324,0.013523,0.002678,0.000431,0.086383
19932000,0.0324,0.013523,0.002678,0.000431,0.232353
19933000,0.0324,0.013523,0.002678,0.000431,0.138213
19934000,0.0324,0.013523,0.002678,0.000431,0.213549
19935000,0.0324,0.013523,0.002678,0.000431,0.167125
19936000,0.0324,0.013523,0.002678,0.000431,0.090849
19937000,0.0324,0.013523,0.002678,0.000431,0.307571
19938000,0.0324,0.013523,0.002678,0.000431,0.129516
19939000,0.0324,0.013523,0.002678,0.000431,0.141857
19940000,0.0324,0.013523,0.002678,0.000431,0.066403
19941000,0.0324,0.013523,0.002678,0.000431,0.134922
19942000,0.0324,0.013523,0.002678,0.000431,0.109066
19943000,0.0324,0.013523,0.002678,0.000431,0.181464
19944000,0.0324,0.013523,0.002678,0.000431,0.108126
19945000,0.0324,0.013523,0.002678,0.000431,0.116470
19946000,0.0324,0.013523,0.002678,0.000431,0.067696
19947000,0.0324,0.013523,0.002678,0.000431,0.067814
19948000,0.0324,0.013523,0.002678,0.000431,0.081447
19949000,0.0324,0.013523,0.002678,0.000431,0.147028
19950000,0.0324,0.013523,0.002678,0.000431,0.252451
19951000,0.0324,0.013523,0.002678,0.000431,0.169476
19952000,0.0324,0.013523,0.002678,0.000431,0.116118
19953000,0.0324,0.013523,0.002678,0.000431,0.208730
19954000,0.0324,0.013523,0.002678,0.000431,0.082740
19955000,0.0324,0.013523,0.002678,0.000431,0.150436
19956000,0.0324,0.013523,0.002678,0.000431,0.187105
19957000,0.0324,0.013523,0.002678,0.000431,0.056178
19958000,0.0324,0.013523,0.002678,0.000431,0.165010
19959000,0.0324,0.013523,0.002678,0.000431,0.091437
19960000,0.0324,0.013523,0.002678,0.000431,0.056649
19961000,0.0324,0.013523,0.002678,0.000431,0.079332
19962000,0.0324,0.013523,0.002678,0.000431,0.258797
19963000,0.0324,0.013523,0.002678,0.000431,0.259972
19964000,0.0324,0.013523,0.002678,0.000431,0.116118
19965000,0.0324,0.013523,0.002678,0.000431,0.194744
19966000,0.0324,0.013523,0.002678,0.000431,0.282773
19967000,0.0324,0.013523,0.002678,0.000431,0.131984
19968000,0.0324,0.013523,0.002678,0.000431,0.271608
19969000,0.0324,0.013523,0.002678,0.000431,0.310627
19970000,0.0324,0.013523,0.002678,0.000431,0.105305
19971000,0.0324,0.013523,0.002678,0.000431,0.123757
19972000,0.0324,0.013523,0.002678,0.000431,0.201913
19973000,0.0324,0.013523,0.002678,0.000431,0.063700
19974000,0.0324,0.013523,0.002678,0.000431,0.228240
19975000,0.0324,0.013523,0.002678,0.000431,0.079096
19976000,0.0324,0.013523,0.002678,0.000431,0.056531
19977000,0.0324,0.013523,0.002678,0.000431,0.096138
19978000,0.0324,0.013523,0.002678,0.000431,0.171239
19979000,0.0324,0.013523,0.002678,0.000431,0.217310
19980000,0.0324,0.013523,0.002678,0.000431,0.094845
19981000,0.0324,0.013523,0.002678,0.000431,0.124110
19982000,0.0324,0.013523,0.002678,0.000431,0.169358
19983000,0.0324,0.013523,0.002678,0.000431,0.177585
19984000,0.0324,0.013523,0.002678,0.000431,0.341067
19985000,0.0324,0.013523,0.002678,0.000431,0.109419
19986000,0.0324,0.013523,0.002678,0.000431,0.066168
19987000,0.0324,0.013523,0.002678,0.000431,0.136685
19988000,0.0324,0.013523,0.002678,0.000431,0.270550
19989000,0.0324,0.013523,0.002678,0.000431,0.121172
19990000,0.0324,0.013523,0.002678,0.000431,0.173354
19991000,0.0324,0.013523,0.002678,0.000431,0.120936
19992000,0.0324,0.013523,0.002678,0.000431,0.114120
19993000,0.0324,0.013523,0.002678,0.000431,0.067696
19994000,0.0324,0.013523,0.002678,0.000431,0.151729
19995000,0.0324,0.013523,0.002678,0.000431,0.162777
19996000,0.0324,0.013523,0.002678,0.000431,0.076041
19997000,0.0324,0.013523,0.002678,0.000431,0.209670
19998000,0.0324,0.013523,0.002678,0.000431,0.116941
19999000,0.0324,0.013523,0.002678,0.000431,0.071810
