Cycle,Area(mm^2),PeakDynamic(W),SubthresholdLeakage(W),GateLeakage(W),RunTimeDynamic(W)
15000000,0.0324,0.013523,0.002678,0.000431,0.004701
15001000,0.0324,0.013523,0.002678,0.000431,0.010578
15002000,0.0324,0.013523,0.002678,0.000431,0.136333
15003000,0.0324,0.013523,0.002678,0.000431,0.055708
15004000,0.0324,0.013523,0.002678,0.000431,0.004701
15005000,0.0324,0.013523,0.002678,0.000431,0.004701
15006000,0.0324,0.013523,0.002678,0.000431,0.004701
15007000,0.0324,0.013523,0.002678,0.000431,0.004701
15008000,0.0324,0.013523,0.002678,0.000431,0.027267
15009000,0.0324,0.013523,0.002678,0.000431,0.004701
15010000,0.0324,0.013523,0.002678,0.000431,0.004701
15011000,0.0324,0.013523,0.002678,0.000431,0.004701
15012000,0.0324,0.013523,0.002678,0.000431,0.019392
15013000,0.0324,0.013523,0.002678,0.000431,0.004584
15014000,0.0324,0.013523,0.002678,0.000431,0.006347
15015000,0.0324,0.013523,0.002678,0.000431,0.010578
15016000,0.0324,0.013523,0.002678,0.000431,0.004701
15017000,0.0324,0.013523,0.002678,0.000431,0.004584
15018000,0.0324,0.013523,0.002678,0.000431,0.004584
15019000,0.0324,0.013523,0.002678,0.000431,0.004701
15020000,0.0324,0.013523,0.002678,0.000431,0.004701
15021000,0.0324,0.013523,0.002678,0.000431,0.012223
15022000,0.0324,0.013523,0.002678,0.000431,0.004466
15023000,0.0324,0.013523,0.002678,0.000431,0.004701
15024000,0.0324,0.013523,0.002678,0.000431,0.004701
15025000,0.0324,0.013523,0.002678,0.000431,0.042310
15026000,0.0324,0.013523,0.002678,0.000431,0.004701
15027000,0.0324,0.013523,0.002678,0.000431,0.016219
15028000,0.0324,0.013523,0.002678,0.000431,0.092377
15029000,0.0324,0.013523,0.002678,0.000431,0.010813
15030000,0.0324,0.013523,0.002678,0.000431,0.004701
15031000,0.0324,0.013523,0.002678,0.000431,0.008462
15032000,0.0324,0.013523,0.002678,0.000431,0.008462
15033000,0.0324,0.013523,0.002678,0.000431,0.004701
15034000,0.0324,0.013523,0.002678,0.000431,0.019980
15035000,0.0324,0.013523,0.002678,0.000431,0.004701
15036000,0.0324,0.013523,0.002678,0.000431,0.004701
15037000,0.0324,0.013523,0.002678,0.000431,0.004701
15038000,0.0324,0.013523,0.002678,0.000431,0.004701
15039000,0.0324,0.013523,0.002678,0.000431,0.004701
15040000,0.0324,0.013523,0.002678,0.000431,0.034083
15041000,0.0324,0.013523,0.002678,0.000431,0.012928
15042000,0.0324,0.013523,0.002678,0.000431,0.004701
15043000,0.0324,0.013523,0.002678,0.000431,0.004701
15044000,0.0324,0.013523,0.002678,0.000431,0.030205
15045000,0.0324,0.013523,0.002678,0.000431,0.009285
15046000,0.0324,0.013523,0.002678,0.000431,0.004701
15047000,0.0324,0.013523,0.002678,0.000431,0.007639
15048000,0.0324,0.013523,0.002678,0.000431,0.046894
15049000,0.0324,0.013523,0.002678,0.000431,0.012223
15050000,0.0324,0.013523,0.002678,0.000431,0.004701
15051000,0.0324,0.013523,0.002678,0.000431,0.027267
15052000,0.0324,0.013523,0.002678,0.000431,0.004466
15053000,0.0324,0.013523,0.002678,0.000431,0.004466
15054000,0.0324,0.013523,0.002678,0.000431,0.004701
15055000,0.0324,0.013523,0.002678,0.000431,0.004701
15056000,0.0324,0.013523,0.002678,0.000431,0.012223
15057000,0.0324,0.013523,0.002678,0.000431,0.068636
15058000,0.0324,0.013523,0.002678,0.000431,0.008462
15059000,0.0324,0.013523,0.002678,0.000431,0.004701
15060000,0.0324,0.013523,0.002678,0.000431,0.019745
15061000,0.0324,0.013523,0.002678,0.000431,0.039489
15062000,0.0324,0.013523,0.002678,0.000431,0.060057
15063000,0.0324,0.013523,0.002678,0.000431,0.004584
15064000,0.0324,0.013523,0.002678,0.000431,0.027267
15065000,0.0324,0.013523,0.002678,0.000431,0.004701
15066000,0.0324,0.013523,0.002678,0.000431,0.004701
15067000,0.0324,0.013523,0.002678,0.000431,0.042310
15068000,0.0324,0.013523,0.002678,0.000431,0.059939
15069000,0.0324,0.013523,0.002678,0.000431,0.054768
15070000,0.0324,0.013523,0.002678,0.000431,0.050067
15071000,0.0324,0.013523,0.002678,0.000431,0.012223
15072000,0.0324,0.013523,0.002678,0.000431,0.004701
15073000,0.0324,0.013523,0.002678,0.000431,0.004701
15074000,0.0324,0.013523,0.002678,0.000431,0.004701
15075000,0.0324,0.013523,0.002678,0.000431,0.094963
15076000,0.0324,0.013523,0.002678,0.000431,0.019157
15077000,0.0324,0.013523,0.002678,0.000431,0.027854
15078000,0.0324,0.013523,0.002678,0.000431,0.004701
15079000,0.0324,0.013523,0.002678,0.000431,0.004701
15080000,0.0324,0.013523,0.002678,0.000431,0.027267
15081000,0.0324,0.013523,0.002678,0.000431,0.039725
15082000,0.0324,0.013523,0.002678,0.000431,0.052418
15083000,0.0324,0.013523,0.002678,0.000431,0.012223
15084000,0.0324,0.013523,0.002678,0.000431,0.004701
15085000,0.0324,0.013523,0.002678,0.000431,0.004701
15086000,0.0324,0.013523,0.002678,0.000431,0.078039
15087000,0.0324,0.013523,0.002678,0.000431,0.036199
15088000,0.0324,0.013523,0.002678,0.000431,0.004701
15089000,0.0324,0.013523,0.002678,0.000431,0.023388
15090000,0.0324,0.013523,0.002678,0.000431,0.008580
15091000,0.0324,0.013523,0.002678,0.000431,0.004701
15092000,0.0324,0.013523,0.002678,0.000431,0.004466
15093000,0.0324,0.013523,0.002678,0.000431,0.051712
15094000,0.0324,0.013523,0.002678,0.000431,0.025856
15095000,0.0324,0.013523,0.002678,0.000431,0.027267
15096000,0.0324,0.013523,0.002678,0.000431,0.004701
15097000,0.0324,0.013523,0.002678,0.000431,0.012223
15098000,0.0324,0.013523,0.002678,0.000431,0.004701
15099000,0.0324,0.013523,0.002678,0.000431,0.004701
15100000,0.0324,0.013523,0.002678,0.000431,0.034788
15101000,0.0324,0.013523,0.002678,0.000431,0.087206
15102000,0.0324,0.013523,0.002678,0.000431,0.004584
15103000,0.0324,0.013523,0.002678,0.000431,0.004584
15104000,0.0324,0.013523,0.002678,0.000431,0.110006
15105000,0.0324,0.013523,0.002678,0.000431,0.004701
15106000,0.0324,0.013523,0.002678,0.000431,0.014456
15107000,0.0324,0.013523,0.002678,0.000431,0.030675
15108000,0.0324,0.013523,0.002678,0.000431,0.029617
15109000,0.0324,0.013523,0.002678,0.000431,0.004701
15110000,0.0324,0.013523,0.002678,0.000431,0.004701
15111000,0.0324,0.013523,0.002678,0.000431,0.004701
15112000,0.0324,0.013523,0.002678,0.000431,0.058529
15113000,0.0324,0.013523,0.002678,0.000431,0.161484
15114000,0.0324,0.013523,0.002678,0.000431,0.019745
15115000,0.0324,0.013523,0.002678,0.000431,0.004701
15116000,0.0324,0.013523,0.002678,0.000431,0.008462
15117000,0.0324,0.013523,0.002678,0.000431,0.008462
15118000,0.0324,0.013523,0.002678,0.000431,0.004701
15119000,0.0324,0.013523,0.002678,0.000431,0.049832
15120000,0.0324,0.013523,0.002678,0.000431,0.016219
15121000,0.0324,0.013523,0.002678,0.000431,0.008462
15122000,0.0324,0.013523,0.002678,0.000431,0.004466
15123000,0.0324,0.013523,0.002678,0.000431,0.004701
15124000,0.0324,0.013523,0.002678,0.000431,0.004701
15125000,0.0324,0.013523,0.002678,0.000431,0.005876
15126000,0.0324,0.013523,0.002678,0.000431,0.093787
15127000,0.0324,0.013523,0.002678,0.000431,0.004701
15128000,0.0324,0.013523,0.002678,0.000431,0.004701
15129000,0.0324,0.013523,0.002678,0.000431,0.019745
15130000,0.0324,0.013523,0.002678,0.000431,0.049832
15131000,0.0324,0.013523,0.002678,0.000431,0.012223
15132000,0.0324,0.013523,0.002678,0.000431,0.008227
15133000,0.0324,0.013523,0.002678,0.000431,0.008462
15134000,0.0324,0.013523,0.002678,0.000431,0.004701
15135000,0.0324,0.013523,0.002678,0.000431,0.004466
15136000,0.0324,0.013523,0.002678,0.000431,0.072632
15137000,0.0324,0.013523,0.002678,0.000431,0.004701
15138000,0.0324,0.013523,0.002678,0.000431,0.004701
15139000,0.0324,0.013523,0.002678,0.000431,0.043015
15140000,0.0324,0.013523,0.002678,0.000431,0.004701
15141000,0.0324,0.013523,0.002678,0.000431,0.004701
15142000,0.0324,0.013523,0.002678,0.000431,0.008580
15143000,0.0324,0.013523,0.002678,0.000431,0.008580
15144000,0.0324,0.013523,0.002678,0.000431,0.004701
15145000,0.0324,0.013523,0.002678,0.000431,0.036669
15146000,0.0324,0.013523,0.002678,0.000431,0.078039
15147000,0.0324,0.013523,0.002678,0.000431,0.004701
15148000,0.0324,0.013523,0.002678,0.000431,0.004701
15149000,0.0324,0.013523,0.002678,0.000431,0.012223
15150000,0.0324,0.013523,0.002678,0.000431,0.064876
15151000,0.0324,0.013523,0.002678,0.000431,0.019745
15152000,0.0324,0.013523,0.002678,0.000431,0.034788
15153000,0.0324,0.013523,0.002678,0.000431,0.004701
15154000,0.0324,0.013523,0.002678,0.000431,0.004701
15155000,0.0324,0.013523,0.002678,0.000431,0.110006
15156000,0.0324,0.013523,0.002678,0.000431,0.004701
15157000,0.0324,0.013523,0.002678,0.000431,0.004701
15158000,0.0324,0.013523,0.002678,0.000431,0.055356
15159000,0.0324,0.013523,0.002678,0.000431,0.006229
15160000,0.0324,0.013523,0.002678,0.000431,0.004701
15161000,0.0324,0.013523,0.002678,0.000431,0.049009
15162000,0.0324,0.013523,0.002678,0.000431,0.054886
15163000,0.0324,0.013523,0.002678,0.000431,0.008462
15164000,0.0324,0.013523,0.002678,0.000431,0.004701
15165000,0.0324,0.013523,0.002678,0.000431,0.004701
15166000,0.0324,0.013523,0.002678,0.000431,0.004701
15167000,0.0324,0.013523,0.002678,0.000431,0.004701
15168000,0.0324,0.013523,0.002678,0.000431,0.110006
15169000,0.0324,0.013523,0.002678,0.000431,0.004701
15170000,0.0324,0.013523,0.002678,0.000431,0.027267
15171000,0.0324,0.013523,0.002678,0.000431,0.012223
15172000,0.0324,0.013523,0.002678,0.000431,0.004466
15173000,0.0324,0.013523,0.002678,0.000431,0.004701
15174000,0.0324,0.013523,0.002678,0.000431,0.004701
15175000,0.0324,0.013523,0.002678,0.000431,0.027267
15176000,0.0324,0.013523,0.002678,0.000431,0.012223
15177000,0.0324,0.013523,0.002678,0.000431,0.023623
15178000,0.0324,0.013523,0.002678,0.000431,0.008580
15179000,0.0324,0.013523,0.002678,0.000431,0.004701
15180000,0.0324,0.013523,0.002678,0.000431,0.004701
15181000,0.0324,0.013523,0.002678,0.000431,0.019745
15182000,0.0324,0.013523,0.002678,0.000431,0.004701
15183000,0.0324,0.013523,0.002678,0.000431,0.004701
15184000,0.0324,0.013523,0.002678,0.000431,0.004701
15185000,0.0324,0.013523,0.002678,0.000431,0.036316
15186000,0.0324,0.013523,0.002678,0.000431,0.013398
15187000,0.0324,0.013523,0.002678,0.000431,0.122112
15188000,0.0324,0.013523,0.002678,0.000431,0.004349
15189000,0.0324,0.013523,0.002678,0.000431,0.004584
15190000,0.0324,0.013523,0.002678,0.000431,0.004701
15191000,0.0324,0.013523,0.002678,0.000431,0.049832
15192000,0.0324,0.013523,0.002678,0.000431,0.004701
15193000,0.0324,0.013523,0.002678,0.000431,0.015984
15194000,0.0324,0.013523,0.002678,0.000431,0.046071
15195000,0.0324,0.013523,0.002678,0.000431,0.004466
15196000,0.0324,0.013523,0.002678,0.000431,0.012223
15197000,0.0324,0.013523,0.002678,0.000431,0.009167
15198000,0.0324,0.013523,0.002678,0.000431,0.015514
15199000,0.0324,0.013523,0.002678,0.000431,0.004701
15200000,0.0324,0.013523,0.002678,0.000431,0.044778
15201000,0.0324,0.013523,0.002678,0.000431,0.017747
15202000,0.0324,0.013523,0.002678,0.000431,0.098724
15203000,0.0324,0.013523,0.002678,0.000431,0.031027
15204000,0.0324,0.013523,0.002678,0.000431,0.004701
15205000,0.0324,0.013523,0.002678,0.000431,0.004701
15206000,0.0324,0.013523,0.002678,0.000431,0.019745
15207000,0.0324,0.013523,0.002678,0.000431,0.004701
15208000,0.0324,0.013523,0.002678,0.000431,0.004701
15209000,0.0324,0.013523,0.002678,0.000431,0.133042
15210000,0.0324,0.013523,0.002678,0.000431,0.004701
15211000,0.0324,0.013523,0.002678,0.000431,0.004701
15212000,0.0324,0.013523,0.002678,0.000431,0.009990
15213000,0.0324,0.013523,0.002678,0.000431,0.014221
15214000,0.0324,0.013523,0.002678,0.000431,0.004701
15215000,0.0324,0.013523,0.002678,0.000431,0.010342
15216000,0.0324,0.013523,0.002678,0.000431,0.029147
15217000,0.0324,0.013523,0.002678,0.000431,0.004701
15218000,0.0324,0.013523,0.002678,0.000431,0.004701
15219000,0.0324,0.013523,0.002678,0.000431,0.031027
15220000,0.0324,0.013523,0.002678,0.000431,0.015984
15221000,0.0324,0.013523,0.002678,0.000431,0.004701
15222000,0.0324,0.013523,0.002678,0.000431,0.230590
15223000,0.0324,0.013523,0.002678,0.000431,0.004701
15224000,0.0324,0.013523,0.002678,0.000431,0.004701
15225000,0.0324,0.013523,0.002678,0.000431,0.004701
15226000,0.0324,0.013523,0.002678,0.000431,0.004701
15227000,0.0324,0.013523,0.002678,0.000431,0.004701
15228000,0.0324,0.013523,0.002678,0.000431,0.046306
15229000,0.0324,0.013523,0.002678,0.000431,0.169828
15230000,0.0324,0.013523,0.002678,0.000431,0.046424
15231000,0.0324,0.013523,0.002678,0.000431,0.004701
15232000,0.0324,0.013523,0.002678,0.000431,0.004701
15233000,0.0324,0.013523,0.002678,0.000431,0.004466
15234000,0.0324,0.013523,0.002678,0.000431,0.004701
15235000,0.0324,0.013523,0.002678,0.000431,0.027267
15236000,0.0324,0.013523,0.002678,0.000431,0.019745
15237000,0.0324,0.013523,0.002678,0.000431,0.094728
15238000,0.0324,0.013523,0.002678,0.000431,0.004701
15239000,0.0324,0.013523,0.002678,0.000431,0.004701
15240000,0.0324,0.013523,0.002678,0.000431,0.050067
15241000,0.0324,0.013523,0.002678,0.000431,0.015984
15242000,0.0324,0.013523,0.002678,0.000431,0.008462
15243000,0.0324,0.013523,0.002678,0.000431,0.004701
15244000,0.0324,0.013523,0.002678,0.000431,0.012223
15245000,0.0324,0.013523,0.002678,0.000431,0.012223
15246000,0.0324,0.013523,0.002678,0.000431,0.004701
15247000,0.0324,0.013523,0.002678,0.000431,0.012223
15248000,0.0324,0.013523,0.002678,0.000431,0.005054
15249000,0.0324,0.013523,0.002678,0.000431,0.011870
15250000,0.0324,0.013523,0.002678,0.000431,0.004701
15251000,0.0324,0.013523,0.002678,0.000431,0.004701
15252000,0.0324,0.013523,0.002678,0.000431,0.012105
15253000,0.0324,0.013523,0.002678,0.000431,0.004584
15254000,0.0324,0.013523,0.002678,0.000431,0.027267
15255000,0.0324,0.013523,0.002678,0.000431,0.004701
15256000,0.0324,0.013523,0.002678,0.000431,0.004466
15257000,0.0324,0.013523,0.002678,0.000431,0.004701
15258000,0.0324,0.013523,0.002678,0.000431,0.042310
15259000,0.0324,0.013523,0.002678,0.000431,0.084033
15260000,0.0324,0.013523,0.002678,0.000431,0.015866
15261000,0.0324,0.013523,0.002678,0.000431,0.004701
15262000,0.0324,0.013523,0.002678,0.000431,0.004701
15263000,0.0324,0.013523,0.002678,0.000431,0.004701
15264000,0.0324,0.013523,0.002678,0.000431,0.004701
15265000,0.0324,0.013523,0.002678,0.000431,0.004466
15266000,0.0324,0.013523,0.002678,0.000431,0.042780
15267000,0.0324,0.013523,0.002678,0.000431,0.012458
15268000,0.0324,0.013523,0.002678,0.000431,0.004701
15269000,0.0324,0.013523,0.002678,0.000431,0.004701
15270000,0.0324,0.013523,0.002678,0.000431,0.004701
15271000,0.0324,0.013523,0.002678,0.000431,0.004701
15272000,0.0324,0.013523,0.002678,0.000431,0.079919
15273000,0.0324,0.013523,0.002678,0.000431,0.004584
15274000,0.0324,0.013523,0.002678,0.000431,0.004584
15275000,0.0324,0.013523,0.002678,0.000431,0.004701
15276000,0.0324,0.013523,0.002678,0.000431,0.004701
15277000,0.0324,0.013523,0.002678,0.000431,0.024093
15278000,0.0324,0.013523,0.002678,0.000431,0.125168
15279000,0.0324,0.013523,0.002678,0.000431,0.038549
15280000,0.0324,0.013523,0.002678,0.000431,0.004701
15281000,0.0324,0.013523,0.002678,0.000431,0.004701
15282000,0.0324,0.013523,0.002678,0.000431,0.004701
15283000,0.0324,0.013523,0.002678,0.000431,0.004701
15284000,0.0324,0.013523,0.002678,0.000431,0.102955
15285000,0.0324,0.013523,0.002678,0.000431,0.057354
15286000,0.0324,0.013523,0.002678,0.000431,0.004701
15287000,0.0324,0.013523,0.002678,0.000431,0.004701
15288000,0.0324,0.013523,0.002678,0.000431,0.004701
15289000,0.0324,0.013523,0.002678,0.000431,0.004701
15290000,0.0324,0.013523,0.002678,0.000431,0.012223
15291000,0.0324,0.013523,0.002678,0.000431,0.092612
15292000,0.0324,0.013523,0.002678,0.000431,0.014221
15293000,0.0324,0.013523,0.002678,0.000431,0.005876
15294000,0.0324,0.013523,0.002678,0.000431,0.025974
15295000,0.0324,0.013523,0.002678,0.000431,0.004701
15296000,0.0324,0.013523,0.002678,0.000431,0.004466
15297000,0.0324,0.013523,0.002678,0.000431,0.028794
15298000,0.0324,0.013523,0.002678,0.000431,0.085913
15299000,0.0324,0.013523,0.002678,0.000431,0.004701
15300000,0.0324,0.013523,0.002678,0.000431,0.034671
15301000,0.0324,0.013523,0.002678,0.000431,0.004584
15302000,0.0324,0.013523,0.002678,0.000431,0.004701
15303000,0.0324,0.013523,0.002678,0.000431,0.004701
15304000,0.0324,0.013523,0.002678,0.000431,0.100839
15305000,0.0324,0.013523,0.002678,0.000431,0.014573
15306000,0.0324,0.013523,0.002678,0.000431,0.004701
15307000,0.0324,0.013523,0.002678,0.000431,0.004701
15308000,0.0324,0.013523,0.002678,0.000431,0.004701
15309000,0.0324,0.013523,0.002678,0.000431,0.004701
15310000,0.0324,0.013523,0.002678,0.000431,0.004701
15311000,0.0324,0.013523,0.002678,0.000431,0.027267
15312000,0.0324,0.013523,0.002678,0.000431,0.004701
15313000,0.0324,0.013523,0.002678,0.000431,0.115060
15314000,0.0324,0.013523,0.002678,0.000431,0.022213
15315000,0.0324,0.013523,0.002678,0.000431,0.004701
15316000,0.0324,0.013523,0.002678,0.000431,0.004701
15317000,0.0324,0.013523,0.002678,0.000431,0.012458
15318000,0.0324,0.013523,0.002678,0.000431,0.034788
15319000,0.0324,0.013523,0.002678,0.000431,0.030087
15320000,0.0324,0.013523,0.002678,0.000431,0.167595
15321000,0.0324,0.013523,0.002678,0.000431,0.012223
15322000,0.0324,0.013523,0.002678,0.000431,0.004701
15323000,0.0324,0.013523,0.002678,0.000431,0.004701
15324000,0.0324,0.013523,0.002678,0.000431,0.004701
15325000,0.0324,0.013523,0.002678,0.000431,0.004701
15326000,0.0324,0.013523,0.002678,0.000431,0.012576
15327000,0.0324,0.013523,0.002678,0.000431,0.019392
15328000,0.0324,0.013523,0.002678,0.000431,0.004701
15329000,0.0324,0.013523,0.002678,0.000431,0.004701
15330000,0.0324,0.013523,0.002678,0.000431,0.034788
15331000,0.0324,0.013523,0.002678,0.000431,0.004701
15332000,0.0324,0.013523,0.002678,0.000431,0.004584
15333000,0.0324,0.013523,0.002678,0.000431,0.015749
15334000,0.0324,0.013523,0.002678,0.000431,0.023623
15335000,0.0324,0.013523,0.002678,0.000431,0.061115
15336000,0.0324,0.013523,0.002678,0.000431,0.008462
15337000,0.0324,0.013523,0.002678,0.000431,0.011988
15338000,0.0324,0.013523,0.002678,0.000431,0.004701
15339000,0.0324,0.013523,0.002678,0.000431,0.023506
15340000,0.0324,0.013523,0.002678,0.000431,0.015984
15341000,0.0324,0.013523,0.002678,0.000431,0.004466
15342000,0.0324,0.013523,0.002678,0.000431,0.004701
15343000,0.0324,0.013523,0.002678,0.000431,0.019745
15344000,0.0324,0.013523,0.002678,0.000431,0.004701
15345000,0.0324,0.013523,0.002678,0.000431,0.004701
15346000,0.0324,0.013523,0.002678,0.000431,0.004701
15347000,0.0324,0.013523,0.002678,0.000431,0.004466
15348000,0.0324,0.013523,0.002678,0.000431,0.079919
15349000,0.0324,0.013523,0.002678,0.000431,0.049714
15350000,0.0324,0.013523,0.002678,0.000431,0.004584
15351000,0.0324,0.013523,0.002678,0.000431,0.004701
15352000,0.0324,0.013523,0.002678,0.000431,0.034906
15353000,0.0324,0.013523,0.002678,0.000431,0.012105
15354000,0.0324,0.013523,0.002678,0.000431,0.061115
15355000,0.0324,0.013523,0.002678,0.000431,0.068636
15356000,0.0324,0.013523,0.002678,0.000431,0.004701
15357000,0.0324,0.013523,0.002678,0.000431,0.004701
15358000,0.0324,0.013523,0.002678,0.000431,0.019745
15359000,0.0324,0.013523,0.002678,0.000431,0.068636
15360000,0.0324,0.013523,0.002678,0.000431,0.008462
15361000,0.0324,0.013523,0.002678,0.000431,0.061115
15362000,0.0324,0.013523,0.002678,0.000431,0.031027
15363000,0.0324,0.013523,0.002678,0.000431,0.004701
15364000,0.0324,0.013523,0.002678,0.000431,0.004701
15365000,0.0324,0.013523,0.002678,0.000431,0.004701
15366000,0.0324,0.013523,0.002678,0.000431,0.004701
15367000,0.0324,0.013523,0.002678,0.000431,0.007639
15368000,0.0324,0.013523,0.002678,0.000431,0.128928
15369000,0.0324,0.013523,0.002678,0.000431,0.004701
15370000,0.0324,0.013523,0.002678,0.000431,0.004701
15371000,0.0324,0.013523,0.002678,0.000431,0.019745
15372000,0.0324,0.013523,0.002678,0.000431,0.004701
15373000,0.0324,0.013523,0.002678,0.000431,0.004701
15374000,0.0324,0.013523,0.002678,0.000431,0.004701
15375000,0.0324,0.013523,0.002678,0.000431,0.004701
15376000,0.0324,0.013523,0.002678,0.000431,0.004701
15377000,0.0324,0.013523,0.002678,0.000431,0.004701
15378000,0.0324,0.013523,0.002678,0.000431,0.049832
15379000,0.0324,0.013523,0.002678,0.000431,0.004701
15380000,0.0324,0.013523,0.002678,0.000431,0.012223
15381000,0.0324,0.013523,0.002678,0.000431,0.042193
15382000,0.0324,0.013523,0.002678,0.000431,0.012340
15383000,0.0324,0.013523,0.002678,0.000431,0.004701
15384000,0.0324,0.013523,0.002678,0.000431,0.004701
15385000,0.0324,0.013523,0.002678,0.000431,0.004701
15386000,0.0324,0.013523,0.002678,0.000431,0.008227
15387000,0.0324,0.013523,0.002678,0.000431,0.030792
15388000,0.0324,0.013523,0.002678,0.000431,0.019980
15389000,0.0324,0.013523,0.002678,0.000431,0.004701
15390000,0.0324,0.013523,0.002678,0.000431,0.004701
15391000,0.0324,0.013523,0.002678,0.000431,0.004701
15392000,0.0324,0.013523,0.002678,0.000431,0.004701
15393000,0.0324,0.013523,0.002678,0.000431,0.027267
15394000,0.0324,0.013523,0.002678,0.000431,0.004701
15395000,0.0324,0.013523,0.002678,0.000431,0.004701
15396000,0.0324,0.013523,0.002678,0.000431,0.004701
15397000,0.0324,0.013523,0.002678,0.000431,0.012223
15398000,0.0324,0.013523,0.002678,0.000431,0.004701
15399000,0.0324,0.013523,0.002678,0.000431,0.004701
15400000,0.0324,0.013523,0.002678,0.000431,0.023741
15401000,0.0324,0.013523,0.002678,0.000431,0.008462
15402000,0.0324,0.013523,0.002678,0.000431,0.012223
15403000,0.0324,0.013523,0.002678,0.000431,0.018452
15404000,0.0324,0.013523,0.002678,0.000431,0.096021
15405000,0.0324,0.013523,0.002678,0.000431,0.004701
15406000,0.0324,0.013523,0.002678,0.000431,0.034788
15407000,0.0324,0.013523,0.002678,0.000431,0.012223
15408000,0.0324,0.013523,0.002678,0.000431,0.004231
15409000,0.0324,0.013523,0.002678,0.000431,0.004701
15410000,0.0324,0.013523,0.002678,0.000431,0.040900
15411000,0.0324,0.013523,0.002678,0.000431,0.006111
15412000,0.0324,0.013523,0.002678,0.000431,0.004701
15413000,0.0324,0.013523,0.002678,0.000431,0.027502
15414000,0.0324,0.013523,0.002678,0.000431,0.027031
15415000,0.0324,0.013523,0.002678,0.000431,0.004701
15416000,0.0324,0.013523,0.002678,0.000431,0.004701
15417000,0.0324,0.013523,0.002678,0.000431,0.019745
15418000,0.0324,0.013523,0.002678,0.000431,0.004701
15419000,0.0324,0.013523,0.002678,0.000431,0.091202
15420000,0.0324,0.013523,0.002678,0.000431,0.098724
15421000,0.0324,0.013523,0.002678,0.000431,0.004701
15422000,0.0324,0.013523,0.002678,0.000431,0.004701
15423000,0.0324,0.013523,0.002678,0.000431,0.004701
15424000,0.0324,0.013523,0.002678,0.000431,0.012223
15425000,0.0324,0.013523,0.002678,0.000431,0.027267
15426000,0.0324,0.013523,0.002678,0.000431,0.024093
15427000,0.0324,0.013523,0.002678,0.000431,0.052770
15428000,0.0324,0.013523,0.002678,0.000431,0.004701
15429000,0.0324,0.013523,0.002678,0.000431,0.004701
15430000,0.0324,0.013523,0.002678,0.000431,0.004701
15431000,0.0324,0.013523,0.002678,0.000431,0.004701
15432000,0.0324,0.013523,0.002678,0.000431,0.079919
15433000,0.0324,0.013523,0.002678,0.000431,0.023741
15434000,0.0324,0.013523,0.002678,0.000431,0.008462
15435000,0.0324,0.013523,0.002678,0.000431,0.004466
15436000,0.0324,0.013523,0.002678,0.000431,0.027267
15437000,0.0324,0.013523,0.002678,0.000431,0.004701
15438000,0.0324,0.013523,0.002678,0.000431,0.004936
15439000,0.0324,0.013523,0.002678,0.000431,0.042310
15440000,0.0324,0.013523,0.002678,0.000431,0.004701
15441000,0.0324,0.013523,0.002678,0.000431,0.004701
15442000,0.0324,0.013523,0.002678,0.000431,0.034788
15443000,0.0324,0.013523,0.002678,0.000431,0.080154
15444000,0.0324,0.013523,0.002678,0.000431,0.004701
15445000,0.0324,0.013523,0.002678,0.000431,0.019745
15446000,0.0324,0.013523,0.002678,0.000431,0.012693
15447000,0.0324,0.013523,0.002678,0.000431,0.008462
15448000,0.0324,0.013523,0.002678,0.000431,0.023506
15449000,0.0324,0.013523,0.002678,0.000431,0.004701
15450000,0.0324,0.013523,0.002678,0.000431,0.004701
15451000,0.0324,0.013523,0.002678,0.000431,0.036081
15452000,0.0324,0.013523,0.002678,0.000431,0.086618
15453000,0.0324,0.013523,0.002678,0.000431,0.004701
15454000,0.0324,0.013523,0.002678,0.000431,0.004701
15455000,0.0324,0.013523,0.002678,0.000431,0.027854
15456000,0.0324,0.013523,0.002678,0.000431,0.018922
15457000,0.0324,0.013523,0.002678,0.000431,0.004701
15458000,0.0324,0.013523,0.002678,0.000431,0.004466
15459000,0.0324,0.013523,0.002678,0.000431,0.012223
15460000,0.0324,0.013523,0.002678,0.000431,0.004701
15461000,0.0324,0.013523,0.002678,0.000431,0.004701
15462000,0.0324,0.013523,0.002678,0.000431,0.004701
15463000,0.0324,0.013523,0.002678,0.000431,0.004701
15464000,0.0324,0.013523,0.002678,0.000431,0.113767
15465000,0.0324,0.013523,0.002678,0.000431,0.031027
15466000,0.0324,0.013523,0.002678,0.000431,0.004701
15467000,0.0324,0.013523,0.002678,0.000431,0.004701
15468000,0.0324,0.013523,0.002678,0.000431,0.004701
15469000,0.0324,0.013523,0.002678,0.000431,0.004701
15470000,0.0324,0.013523,0.002678,0.000431,0.019275
15471000,0.0324,0.013523,0.002678,0.000431,0.052183
15472000,0.0324,0.013523,0.002678,0.000431,0.040430
15473000,0.0324,0.013523,0.002678,0.000431,0.004701
15474000,0.0324,0.013523,0.002678,0.000431,0.004701
15475000,0.0324,0.013523,0.002678,0.000431,0.004466
15476000,0.0324,0.013523,0.002678,0.000431,0.004701
15477000,0.0324,0.013523,0.002678,0.000431,0.015984
15478000,0.0324,0.013523,0.002678,0.000431,0.031145
15479000,0.0324,0.013523,0.002678,0.000431,0.004819
15480000,0.0324,0.013523,0.002678,0.000431,0.004701
15481000,0.0324,0.013523,0.002678,0.000431,0.004701
15482000,0.0324,0.013523,0.002678,0.000431,0.004701
15483000,0.0324,0.013523,0.002678,0.000431,0.004466
15484000,0.0324,0.013523,0.002678,0.000431,0.042310
15485000,0.0324,0.013523,0.002678,0.000431,0.004701
15486000,0.0324,0.013523,0.002678,0.000431,0.004701
15487000,0.0324,0.013523,0.002678,0.000431,0.004701
15488000,0.0324,0.013523,0.002678,0.000431,0.004701
15489000,0.0324,0.013523,0.002678,0.000431,0.004701
15490000,0.0324,0.013523,0.002678,0.000431,0.004701
15491000,0.0324,0.013523,0.002678,0.000431,0.042310
15492000,0.0324,0.013523,0.002678,0.000431,0.012223
15493000,0.0324,0.013523,0.002678,0.000431,0.004701
15494000,0.0324,0.013523,0.002678,0.000431,0.012693
15495000,0.0324,0.013523,0.002678,0.000431,0.011988
15496000,0.0324,0.013523,0.002678,0.000431,0.019745
15497000,0.0324,0.013523,0.002678,0.000431,0.004701
15498000,0.0324,0.013523,0.002678,0.000431,0.004466
15499000,0.0324,0.013523,0.002678,0.000431,0.004701
15500000,0.0324,0.013523,0.002678,0.000431,0.019980
15501000,0.0324,0.013523,0.002678,0.000431,0.034553
15502000,0.0324,0.013523,0.002678,0.000431,0.004701
15503000,0.0324,0.013523,0.002678,0.000431,0.012223
15504000,0.0324,0.013523,0.002678,0.000431,0.028089
15505000,0.0324,0.013523,0.002678,0.000431,0.005876
15506000,0.0324,0.013523,0.002678,0.000431,0.005876
15507000,0.0324,0.013523,0.002678,0.000431,0.127988
15508000,0.0324,0.013523,0.002678,0.000431,0.011870
15509000,0.0324,0.013523,0.002678,0.000431,0.013163
15510000,0.0324,0.013523,0.002678,0.000431,0.035611
15511000,0.0324,0.013523,0.002678,0.000431,0.004701
15512000,0.0324,0.013523,0.002678,0.000431,0.004701
15513000,0.0324,0.013523,0.002678,0.000431,0.013281
15514000,0.0324,0.013523,0.002678,0.000431,0.018922
15515000,0.0324,0.013523,0.002678,0.000431,0.004701
15516000,0.0324,0.013523,0.002678,0.000431,0.004701
15517000,0.0324,0.013523,0.002678,0.000431,0.004701
15518000,0.0324,0.013523,0.002678,0.000431,0.004701
15519000,0.0324,0.013523,0.002678,0.000431,0.004701
15520000,0.0324,0.013523,0.002678,0.000431,0.004701
15521000,0.0324,0.013523,0.002678,0.000431,0.004701
15522000,0.0324,0.013523,0.002678,0.000431,0.004701
15523000,0.0324,0.013523,0.002678,0.000431,0.019627
15524000,0.0324,0.013523,0.002678,0.000431,0.012105
15525000,0.0324,0.013523,0.002678,0.000431,0.004701
15526000,0.0324,0.013523,0.002678,0.000431,0.008462
15527000,0.0324,0.013523,0.002678,0.000431,0.008462
15528000,0.0324,0.013523,0.002678,0.000431,0.012223
15529000,0.0324,0.013523,0.002678,0.000431,0.012223
15530000,0.0324,0.013523,0.002678,0.000431,0.004701
15531000,0.0324,0.013523,0.002678,0.000431,0.004701
15532000,0.0324,0.013523,0.002678,0.000431,0.004701
15533000,0.0324,0.013523,0.002678,0.000431,0.042310
15534000,0.0324,0.013523,0.002678,0.000431,0.004701
15535000,0.0324,0.013523,0.002678,0.000431,0.004701
15536000,0.0324,0.013523,0.002678,0.000431,0.080154
15537000,0.0324,0.013523,0.002678,0.000431,0.004701
15538000,0.0324,0.013523,0.002678,0.000431,0.004701
15539000,0.0324,0.013523,0.002678,0.000431,0.040900
15540000,0.0324,0.013523,0.002678,0.000431,0.021155
15541000,0.0324,0.013523,0.002678,0.000431,0.036316
15542000,0.0324,0.013523,0.002678,0.000431,0.021743
15543000,0.0324,0.013523,0.002678,0.000431,0.008345
15544000,0.0324,0.013523,0.002678,0.000431,0.004584
15545000,0.0324,0.013523,0.002678,0.000431,0.004701
15546000,0.0324,0.013523,0.002678,0.000431,0.034788
15547000,0.0324,0.013523,0.002678,0.000431,0.004701
15548000,0.0324,0.013523,0.002678,0.000431,0.012223
15549000,0.0324,0.013523,0.002678,0.000431,0.012223
15550000,0.0324,0.013523,0.002678,0.000431,0.004701
15551000,0.0324,0.013523,0.002678,0.000431,0.004701
15552000,0.0324,0.013523,0.002678,0.000431,0.004701
15553000,0.0324,0.013523,0.002678,0.000431,0.004701
15554000,0.0324,0.013523,0.002678,0.000431,0.004701
15555000,0.0324,0.013523,0.002678,0.000431,0.004701
15556000,0.0324,0.013523,0.002678,0.000431,0.004701
15557000,0.0324,0.013523,0.002678,0.000431,0.004701
15558000,0.0324,0.013523,0.002678,0.000431,0.004701
15559000,0.0324,0.013523,0.002678,0.000431,0.023506
15560000,0.0324,0.013523,0.002678,0.000431,0.008462
15561000,0.0324,0.013523,0.002678,0.000431,0.004701
15562000,0.0324,0.013523,0.002678,0.000431,0.057354
15563000,0.0324,0.013523,0.002678,0.000431,0.004584
15564000,0.0324,0.013523,0.002678,0.000431,0.004584
15565000,0.0324,0.013523,0.002678,0.000431,0.012223
15566000,0.0324,0.013523,0.002678,0.000431,0.004701
15567000,0.0324,0.013523,0.002678,0.000431,0.004701
15568000,0.0324,0.013523,0.002678,0.000431,0.012105
15569000,0.0324,0.013523,0.002678,0.000431,0.012340
15570000,0.0324,0.013523,0.002678,0.000431,0.004701
15571000,0.0324,0.013523,0.002678,0.000431,0.007874
15572000,0.0324,0.013523,0.002678,0.000431,0.009050
15573000,0.0324,0.013523,0.002678,0.000431,0.004701
15574000,0.0324,0.013523,0.002678,0.000431,0.004701
15575000,0.0324,0.013523,0.002678,0.000431,0.005054
15576000,0.0324,0.013523,0.002678,0.000431,0.005876
15577000,0.0324,0.013523,0.002678,0.000431,0.005876
15578000,0.0324,0.013523,0.002678,0.000431,0.103425
15579000,0.0324,0.013523,0.002678,0.000431,0.005876
15580000,0.0324,0.013523,0.002678,0.000431,0.005876
15581000,0.0324,0.013523,0.002678,0.000431,0.025386
15582000,0.0324,0.013523,0.002678,0.000431,0.022683
15583000,0.0324,0.013523,0.002678,0.000431,0.004584
15584000,0.0324,0.013523,0.002678,0.000431,0.004584
15585000,0.0324,0.013523,0.002678,0.000431,0.019745
15586000,0.0324,0.013523,0.002678,0.000431,0.004701
15587000,0.0324,0.013523,0.002678,0.000431,0.005524
15588000,0.0324,0.013523,0.002678,0.000431,0.019157
15589000,0.0324,0.013523,0.002678,0.000431,0.004701
15590000,0.0324,0.013523,0.002678,0.000431,0.004701
15591000,0.0324,0.013523,0.002678,0.000431,0.034788
15592000,0.0324,0.013523,0.002678,0.000431,0.004701
15593000,0.0324,0.013523,0.002678,0.000431,0.004701
15594000,0.0324,0.013523,0.002678,0.000431,0.019745
15595000,0.0324,0.013523,0.002678,0.000431,0.004701
15596000,0.0324,0.013523,0.002678,0.000431,0.004466
15597000,0.0324,0.013523,0.002678,0.000431,0.004701
15598000,0.0324,0.013523,0.002678,0.000431,0.012223
15599000,0.0324,0.013523,0.002678,0.000431,0.004701
15600000,0.0324,0.013523,0.002678,0.000431,0.012223
15601000,0.0324,0.013523,0.002678,0.000431,0.034788
15602000,0.0324,0.013523,0.002678,0.000431,0.004584
15603000,0.0324,0.013523,0.002678,0.000431,0.004584
15604000,0.0324,0.013523,0.002678,0.000431,0.027267
15605000,0.0324,0.013523,0.002678,0.000431,0.004701
15606000,0.0324,0.013523,0.002678,0.000431,0.004701
15607000,0.0324,0.013523,0.002678,0.000431,0.012223
15608000,0.0324,0.013523,0.002678,0.000431,0.004701
15609000,0.0324,0.013523,0.002678,0.000431,0.004701
15610000,0.0324,0.013523,0.002678,0.000431,0.004701
15611000,0.0324,0.013523,0.002678,0.000431,0.027267
15612000,0.0324,0.013523,0.002678,0.000431,0.004701
15613000,0.0324,0.013523,0.002678,0.000431,0.019745
15614000,0.0324,0.013523,0.002678,0.000431,0.012223
15615000,0.0324,0.013523,0.002678,0.000431,0.004701
15616000,0.0324,0.013523,0.002678,0.000431,0.007522
15617000,0.0324,0.013523,0.002678,0.000431,0.024328
15618000,0.0324,0.013523,0.002678,0.000431,0.004584
15619000,0.0324,0.013523,0.002678,0.000431,0.004701
15620000,0.0324,0.013523,0.002678,0.000431,0.028442
15621000,0.0324,0.013523,0.002678,0.000431,0.006934
15622000,0.0324,0.013523,0.002678,0.000431,0.006934
15623000,0.0324,0.013523,0.002678,0.000431,0.029617
15624000,0.0324,0.013523,0.002678,0.000431,0.007052
15625000,0.0324,0.013523,0.002678,0.000431,0.008580
15626000,0.0324,0.013523,0.002678,0.000431,0.005524
15627000,0.0324,0.013523,0.002678,0.000431,0.004701
15628000,0.0324,0.013523,0.002678,0.000431,0.004701
15629000,0.0324,0.013523,0.002678,0.000431,0.023506
15630000,0.0324,0.013523,0.002678,0.000431,0.053828
15631000,0.0324,0.013523,0.002678,0.000431,0.007404
15632000,0.0324,0.013523,0.002678,0.000431,0.031850
15633000,0.0324,0.013523,0.002678,0.000431,0.004701
15634000,0.0324,0.013523,0.002678,0.000431,0.004701
15635000,0.0324,0.013523,0.002678,0.000431,0.004701
15636000,0.0324,0.013523,0.002678,0.000431,0.012223
15637000,0.0324,0.013523,0.002678,0.000431,0.012223
15638000,0.0324,0.013523,0.002678,0.000431,0.019745
15639000,0.0324,0.013523,0.002678,0.000431,0.027267
15640000,0.0324,0.013523,0.002678,0.000431,0.004701
15641000,0.0324,0.013523,0.002678,0.000431,0.004701
15642000,0.0324,0.013523,0.002678,0.000431,0.004701
15643000,0.0324,0.013523,0.002678,0.000431,0.004701
15644000,0.0324,0.013523,0.002678,0.000431,0.012105
15645000,0.0324,0.013523,0.002678,0.000431,0.004819
15646000,0.0324,0.013523,0.002678,0.000431,0.004701
15647000,0.0324,0.013523,0.002678,0.000431,0.004701
15648000,0.0324,0.013523,0.002678,0.000431,0.004701
15649000,0.0324,0.013523,0.002678,0.000431,0.035376
15650000,0.0324,0.013523,0.002678,0.000431,0.005876
15651000,0.0324,0.013523,0.002678,0.000431,0.005876
15652000,0.0324,0.013523,0.002678,0.000431,0.005876
15653000,0.0324,0.013523,0.002678,0.000431,0.045718
15654000,0.0324,0.013523,0.002678,0.000431,0.004701
15655000,0.0324,0.013523,0.002678,0.000431,0.008462
15656000,0.0324,0.013523,0.002678,0.000431,0.008462
15657000,0.0324,0.013523,0.002678,0.000431,0.011988
15658000,0.0324,0.013523,0.002678,0.000431,0.026561
15659000,0.0324,0.013523,0.002678,0.000431,0.012693
15660000,0.0324,0.013523,0.002678,0.000431,0.042310
15661000,0.0324,0.013523,0.002678,0.000431,0.004701
15662000,0.0324,0.013523,0.002678,0.000431,0.019510
15663000,0.0324,0.013523,0.002678,0.000431,0.004701
15664000,0.0324,0.013523,0.002678,0.000431,0.004701
15665000,0.0324,0.013523,0.002678,0.000431,0.049597
15666000,0.0324,0.013523,0.002678,0.000431,0.004701
15667000,0.0324,0.013523,0.002678,0.000431,0.005289
15668000,0.0324,0.013523,0.002678,0.000431,0.005876
15669000,0.0324,0.013523,0.002678,0.000431,0.010460
15670000,0.0324,0.013523,0.002678,0.000431,0.004701
15671000,0.0324,0.013523,0.002678,0.000431,0.004701
15672000,0.0324,0.013523,0.002678,0.000431,0.004701
15673000,0.0324,0.013523,0.002678,0.000431,0.004701
15674000,0.0324,0.013523,0.002678,0.000431,0.004701
15675000,0.0324,0.013523,0.002678,0.000431,0.019745
15676000,0.0324,0.013523,0.002678,0.000431,0.004701
15677000,0.0324,0.013523,0.002678,0.000431,0.004701
15678000,0.0324,0.013523,0.002678,0.000431,0.027502
15679000,0.0324,0.013523,0.002678,0.000431,0.072162
15680000,0.0324,0.013523,0.002678,0.000431,0.004701
15681000,0.0324,0.013523,0.002678,0.000431,0.004701
15682000,0.0324,0.013523,0.002678,0.000431,0.004701
15683000,0.0324,0.013523,0.002678,0.000431,0.004701
15684000,0.0324,0.013523,0.002678,0.000431,0.004701
15685000,0.0324,0.013523,0.002678,0.000431,0.021625
15686000,0.0324,0.013523,0.002678,0.000431,0.010342
15687000,0.0324,0.013523,0.002678,0.000431,0.004701
15688000,0.0324,0.013523,0.002678,0.000431,0.004701
15689000,0.0324,0.013523,0.002678,0.000431,0.004701
15690000,0.0324,0.013523,0.002678,0.000431,0.004701
15691000,0.0324,0.013523,0.002678,0.000431,0.004701
15692000,0.0324,0.013523,0.002678,0.000431,0.019745
15693000,0.0324,0.013523,0.002678,0.000431,0.004701
15694000,0.0324,0.013523,0.002678,0.000431,0.004701
15695000,0.0324,0.013523,0.002678,0.000431,0.011753
15696000,0.0324,0.013523,0.002678,0.000431,0.004701
15697000,0.0324,0.013523,0.002678,0.000431,0.004701
15698000,0.0324,0.013523,0.002678,0.000431,0.004701
15699000,0.0324,0.013523,0.002678,0.000431,0.012223
15700000,0.0324,0.013523,0.002678,0.000431,0.072397
15701000,0.0324,0.013523,0.002678,0.000431,0.004701
15702000,0.0324,0.013523,0.002678,0.000431,0.004466
15703000,0.0324,0.013523,0.002678,0.000431,0.004466
15704000,0.0324,0.013523,0.002678,0.000431,0.004701
15705000,0.0324,0.013523,0.002678,0.000431,0.004936
15706000,0.0324,0.013523,0.002678,0.000431,0.004701
15707000,0.0324,0.013523,0.002678,0.000431,0.012223
15708000,0.0324,0.013523,0.002678,0.000431,0.004701
15709000,0.0324,0.013523,0.002678,0.000431,0.004701
15710000,0.0324,0.013523,0.002678,0.000431,0.004701
15711000,0.0324,0.013523,0.002678,0.000431,0.027267
15712000,0.0324,0.013523,0.002678,0.000431,0.004701
15713000,0.0324,0.013523,0.002678,0.000431,0.004701
15714000,0.0324,0.013523,0.002678,0.000431,0.004701
15715000,0.0324,0.013523,0.002678,0.000431,0.004701
15716000,0.0324,0.013523,0.002678,0.000431,0.004701
15717000,0.0324,0.013523,0.002678,0.000431,0.004701
15718000,0.0324,0.013523,0.002678,0.000431,0.043133
15719000,0.0324,0.013523,0.002678,0.000431,0.005876
15720000,0.0324,0.013523,0.002678,0.000431,0.006229
15721000,0.0324,0.013523,0.002678,0.000431,0.007874
15722000,0.0324,0.013523,0.002678,0.000431,0.008227
15723000,0.0324,0.013523,0.002678,0.000431,0.009285
15724000,0.0324,0.013523,0.002678,0.000431,0.010225
15725000,0.0324,0.013523,0.002678,0.000431,0.005876
15726000,0.0324,0.013523,0.002678,0.000431,0.005994
15727000,0.0324,0.013523,0.002678,0.000431,0.004701
15728000,0.0324,0.013523,0.002678,0.000431,0.004584
15729000,0.0324,0.013523,0.002678,0.000431,0.004349
15730000,0.0324,0.013523,0.002678,0.000431,0.004701
15731000,0.0324,0.013523,0.002678,0.000431,0.027267
15732000,0.0324,0.013523,0.002678,0.000431,0.004701
15733000,0.0324,0.013523,0.002678,0.000431,0.004701
15734000,0.0324,0.013523,0.002678,0.000431,0.004701
15735000,0.0324,0.013523,0.002678,0.000431,0.004701
15736000,0.0324,0.013523,0.002678,0.000431,0.049597
15737000,0.0324,0.013523,0.002678,0.000431,0.004701
15738000,0.0324,0.013523,0.002678,0.000431,0.012223
15739000,0.0324,0.013523,0.002678,0.000431,0.004701
15740000,0.0324,0.013523,0.002678,0.000431,0.004701
15741000,0.0324,0.013523,0.002678,0.000431,0.004701
15742000,0.0324,0.013523,0.002678,0.000431,0.012223
15743000,0.0324,0.013523,0.002678,0.000431,0.019627
15744000,0.0324,0.013523,0.002678,0.000431,0.004584
15745000,0.0324,0.013523,0.002678,0.000431,0.004701
15746000,0.0324,0.013523,0.002678,0.000431,0.004701
15747000,0.0324,0.013523,0.002678,0.000431,0.004701
15748000,0.0324,0.013523,0.002678,0.000431,0.004701
15749000,0.0324,0.013523,0.002678,0.000431,0.004701
15750000,0.0324,0.013523,0.002678,0.000431,0.042075
15751000,0.0324,0.013523,0.002678,0.000431,0.004701
15752000,0.0324,0.013523,0.002678,0.000431,0.012223
15753000,0.0324,0.013523,0.002678,0.000431,0.004701
15754000,0.0324,0.013523,0.002678,0.000431,0.012223
15755000,0.0324,0.013523,0.002678,0.000431,0.004701
15756000,0.0324,0.013523,0.002678,0.000431,0.012223
15757000,0.0324,0.013523,0.002678,0.000431,0.019745
15758000,0.0324,0.013523,0.002678,0.000431,0.004701
15759000,0.0324,0.013523,0.002678,0.000431,0.004701
15760000,0.0324,0.013523,0.002678,0.000431,0.004701
15761000,0.0324,0.013523,0.002678,0.000431,0.008462
15762000,0.0324,0.013523,0.002678,0.000431,0.008345
15763000,0.0324,0.013523,0.002678,0.000431,0.004584
15764000,0.0324,0.013523,0.002678,0.000431,0.004701
15765000,0.0324,0.013523,0.002678,0.000431,0.004701
15766000,0.0324,0.013523,0.002678,0.000431,0.004701
15767000,0.0324,0.013523,0.002678,0.000431,0.004701
15768000,0.0324,0.013523,0.002678,0.000431,0.019745
15769000,0.0324,0.013523,0.002678,0.000431,0.027619
15770000,0.0324,0.013523,0.002678,0.000431,0.013398
15771000,0.0324,0.013523,0.002678,0.000431,0.005876
15772000,0.0324,0.013523,0.002678,0.000431,0.005876
15773000,0.0324,0.013523,0.002678,0.000431,0.005876
15774000,0.0324,0.013523,0.002678,0.000431,0.006699
15775000,0.0324,0.013523,0.002678,0.000431,0.018569
15776000,0.0324,0.013523,0.002678,0.000431,0.036199
15777000,0.0324,0.013523,0.002678,0.000431,0.004701
15778000,0.0324,0.013523,0.002678,0.000431,0.004701
15779000,0.0324,0.013523,0.002678,0.000431,0.004701
15780000,0.0324,0.013523,0.002678,0.000431,0.034788
15781000,0.0324,0.013523,0.002678,0.000431,0.005524
15782000,0.0324,0.013523,0.002678,0.000431,0.005876
15783000,0.0324,0.013523,0.002678,0.000431,0.005759
15784000,0.0324,0.013523,0.002678,0.000431,0.005759
15785000,0.0324,0.013523,0.002678,0.000431,0.005876
15786000,0.0324,0.013523,0.002678,0.000431,0.005876
15787000,0.0324,0.013523,0.002678,0.000431,0.005524
15788000,0.0324,0.013523,0.002678,0.000431,0.004701
15789000,0.0324,0.013523,0.002678,0.000431,0.004701
15790000,0.0324,0.013523,0.002678,0.000431,0.004701
15791000,0.0324,0.013523,0.002678,0.000431,0.004701
15792000,0.0324,0.013523,0.002678,0.000431,0.004701
15793000,0.0324,0.013523,0.002678,0.000431,0.019745
15794000,0.0324,0.013523,0.002678,0.000431,0.004701
15795000,0.0324,0.013523,0.002678,0.000431,0.004701
15796000,0.0324,0.013523,0.002678,0.000431,0.004584
15797000,0.0324,0.013523,0.002678,0.000431,0.004584
15798000,0.0324,0.013523,0.002678,0.000431,0.004701
15799000,0.0324,0.013523,0.002678,0.000431,0.004701
15800000,0.0324,0.013523,0.002678,0.000431,0.004701
15801000,0.0324,0.013523,0.002678,0.000431,0.008462
15802000,0.0324,0.013523,0.002678,0.000431,0.023506
15803000,0.0324,0.013523,0.002678,0.000431,0.004584
15804000,0.0324,0.013523,0.002678,0.000431,0.004584
15805000,0.0324,0.013523,0.002678,0.000431,0.004701
15806000,0.0324,0.013523,0.002678,0.000431,0.012223
15807000,0.0324,0.013523,0.002678,0.000431,0.013046
15808000,0.0324,0.013523,0.002678,0.000431,0.006464
15809000,0.0324,0.013523,0.002678,0.000431,0.007052
15810000,0.0324,0.013523,0.002678,0.000431,0.007052
15811000,0.0324,0.013523,0.002678,0.000431,0.007052
15812000,0.0324,0.013523,0.002678,0.000431,0.007052
15813000,0.0324,0.013523,0.002678,0.000431,0.014221
15814000,0.0324,0.013523,0.002678,0.000431,0.005759
15815000,0.0324,0.013523,0.002678,0.000431,0.004701
15816000,0.0324,0.013523,0.002678,0.000431,0.004466
15817000,0.0324,0.013523,0.002678,0.000431,0.004584
15818000,0.0324,0.013523,0.002678,0.000431,0.004584
15819000,0.0324,0.013523,0.002678,0.000431,0.010813
15820000,0.0324,0.013523,0.002678,0.000431,0.021155
15821000,0.0324,0.013523,0.002678,0.000431,0.004701
15822000,0.0324,0.013523,0.002678,0.000431,0.004701
15823000,0.0324,0.013523,0.002678,0.000431,0.004701
15824000,0.0324,0.013523,0.002678,0.000431,0.004701
15825000,0.0324,0.013523,0.002678,0.000431,0.004701
15826000,0.0324,0.013523,0.002678,0.000431,0.061937
15827000,0.0324,0.013523,0.002678,0.000431,0.030440
15828000,0.0324,0.013523,0.002678,0.000431,0.004701
15829000,0.0324,0.013523,0.002678,0.000431,0.004701
15830000,0.0324,0.013523,0.002678,0.000431,0.004466
15831000,0.0324,0.013523,0.002678,0.000431,0.004701
15832000,0.0324,0.013523,0.002678,0.000431,0.005759
15833000,0.0324,0.013523,0.002678,0.000431,0.005876
15834000,0.0324,0.013523,0.002678,0.000431,0.005876
15835000,0.0324,0.013523,0.002678,0.000431,0.005876
15836000,0.0324,0.013523,0.002678,0.000431,0.005876
15837000,0.0324,0.013523,0.002678,0.000431,0.005759
15838000,0.0324,0.013523,0.002678,0.000431,0.035611
15839000,0.0324,0.013523,0.002678,0.000431,0.020920
15840000,0.0324,0.013523,0.002678,0.000431,0.005876
15841000,0.0324,0.013523,0.002678,0.000431,0.005876
15842000,0.0324,0.013523,0.002678,0.000431,0.005876
15843000,0.0324,0.013523,0.002678,0.000431,0.005876
15844000,0.0324,0.013523,0.002678,0.000431,0.013516
15845000,0.0324,0.013523,0.002678,0.000431,0.034553
15846000,0.0324,0.013523,0.002678,0.000431,0.004701
15847000,0.0324,0.013523,0.002678,0.000431,0.004701
15848000,0.0324,0.013523,0.002678,0.000431,0.004701
15849000,0.0324,0.013523,0.002678,0.000431,0.004701
15850000,0.0324,0.013523,0.002678,0.000431,0.006111
15851000,0.0324,0.013523,0.002678,0.000431,0.086031
15852000,0.0324,0.013523,0.002678,0.000431,0.004466
15853000,0.0324,0.013523,0.002678,0.000431,0.005289
15854000,0.0324,0.013523,0.002678,0.000431,0.005759
15855000,0.0324,0.013523,0.002678,0.000431,0.005524
15856000,0.0324,0.013523,0.002678,0.000431,0.005876
15857000,0.0324,0.013523,0.002678,0.000431,0.022330
15858000,0.0324,0.013523,0.002678,0.000431,0.019510
15859000,0.0324,0.013523,0.002678,0.000431,0.005876
15860000,0.0324,0.013523,0.002678,0.000431,0.004819
15861000,0.0324,0.013523,0.002678,0.000431,0.004701
15862000,0.0324,0.013523,0.002678,0.000431,0.004701
15863000,0.0324,0.013523,0.002678,0.000431,0.004701
15864000,0.0324,0.013523,0.002678,0.000431,0.019980
15865000,0.0324,0.013523,0.002678,0.000431,0.027267
15866000,0.0324,0.013523,0.002678,0.000431,0.019510
15867000,0.0324,0.013523,0.002678,0.000431,0.004701
15868000,0.0324,0.013523,0.002678,0.000431,0.004701
15869000,0.0324,0.013523,0.002678,0.000431,0.004701
15870000,0.0324,0.013523,0.002678,0.000431,0.004466
15871000,0.0324,0.013523,0.002678,0.000431,0.008462
15872000,0.0324,0.013523,0.002678,0.000431,0.023506
15873000,0.0324,0.013523,0.002678,0.000431,0.004701
15874000,0.0324,0.013523,0.002678,0.000431,0.004701
15875000,0.0324,0.013523,0.002678,0.000431,0.004701
15876000,0.0324,0.013523,0.002678,0.000431,0.004701
15877000,0.0324,0.013523,0.002678,0.000431,0.005524
15878000,0.0324,0.013523,0.002678,0.000431,0.005876
15879000,0.0324,0.013523,0.002678,0.000431,0.035729
15880000,0.0324,0.013523,0.002678,0.000431,0.005876
15881000,0.0324,0.013523,0.002678,0.000431,0.005876
15882000,0.0324,0.013523,0.002678,0.000431,0.005876
15883000,0.0324,0.013523,0.002678,0.000431,0.058176
15884000,0.0324,0.013523,0.002678,0.000431,0.004701
15885000,0.0324,0.013523,0.002678,0.000431,0.012105
15886000,0.0324,0.013523,0.002678,0.000431,0.004584
15887000,0.0324,0.013523,0.002678,0.000431,0.004701
15888000,0.0324,0.013523,0.002678,0.000431,0.004701
15889000,0.0324,0.013523,0.002678,0.000431,0.004701
15890000,0.0324,0.013523,0.002678,0.000431,0.004701
15891000,0.0324,0.013523,0.002678,0.000431,0.004701
15892000,0.0324,0.013523,0.002678,0.000431,0.004701
15893000,0.0324,0.013523,0.002678,0.000431,0.004701
15894000,0.0324,0.013523,0.002678,0.000431,0.004701
15895000,0.0324,0.013523,0.002678,0.000431,0.004701
15896000,0.0324,0.013523,0.002678,0.000431,0.004701
15897000,0.0324,0.013523,0.002678,0.000431,0.005054
15898000,0.0324,0.013523,0.002678,0.000431,0.013398
15899000,0.0324,0.013523,0.002678,0.000431,0.005876
15900000,0.0324,0.013523,0.002678,0.000431,0.005876
15901000,0.0324,0.013523,0.002678,0.000431,0.005876
15902000,0.0324,0.013523,0.002678,0.000431,0.005876
15903000,0.0324,0.013523,0.002678,0.000431,0.007287
15904000,0.0324,0.013523,0.002678,0.000431,0.005524
15905000,0.0324,0.013523,0.002678,0.000431,0.006817
15906000,0.0324,0.013523,0.002678,0.000431,0.007052
15907000,0.0324,0.013523,0.002678,0.000431,0.007052
15908000,0.0324,0.013523,0.002678,0.000431,0.007052
15909000,0.0324,0.013523,0.002678,0.000431,0.036786
15910000,0.0324,0.013523,0.002678,0.000431,0.013046
15911000,0.0324,0.013523,0.002678,0.000431,0.012693
15912000,0.0324,0.013523,0.002678,0.000431,0.004701
15913000,0.0324,0.013523,0.002678,0.000431,0.004701
15914000,0.0324,0.013523,0.002678,0.000431,0.004701
15915000,0.0324,0.013523,0.002678,0.000431,0.004701
15916000,0.0324,0.013523,0.002678,0.000431,0.019745
15917000,0.0324,0.013523,0.002678,0.000431,0.004701
15918000,0.0324,0.013523,0.002678,0.000431,0.004701
15919000,0.0324,0.013523,0.002678,0.000431,0.004701
15920000,0.0324,0.013523,0.002678,0.000431,0.004701
15921000,0.0324,0.013523,0.002678,0.000431,0.004701
15922000,0.0324,0.013523,0.002678,0.000431,0.015984
15923000,0.0324,0.013523,0.002678,0.000431,0.015984
15924000,0.0324,0.013523,0.002678,0.000431,0.004584
15925000,0.0324,0.013523,0.002678,0.000431,0.004584
15926000,0.0324,0.013523,0.002678,0.000431,0.004466
15927000,0.0324,0.013523,0.002678,0.000431,0.004701
15928000,0.0324,0.013523,0.002678,0.000431,0.015984
15929000,0.0324,0.013523,0.002678,0.000431,0.015984
15930000,0.0324,0.013523,0.002678,0.000431,0.004701
15931000,0.0324,0.013523,0.002678,0.000431,0.004701
15932000,0.0324,0.013523,0.002678,0.000431,0.004701
15933000,0.0324,0.013523,0.002678,0.000431,0.004701
15934000,0.0324,0.013523,0.002678,0.000431,0.004701
15935000,0.0324,0.013523,0.002678,0.000431,0.019745
15936000,0.0324,0.013523,0.002678,0.000431,0.005759
15937000,0.0324,0.013523,0.002678,0.000431,0.005876
15938000,0.0324,0.013523,0.002678,0.000431,0.005876
15939000,0.0324,0.013523,0.002678,0.000431,0.005876
15940000,0.0324,0.013523,0.002678,0.000431,0.005641
15941000,0.0324,0.013523,0.002678,0.000431,0.020920
15942000,0.0324,0.013523,0.002678,0.000431,0.012576
15943000,0.0324,0.013523,0.002678,0.000431,0.012223
15944000,0.0324,0.013523,0.002678,0.000431,0.004701
15945000,0.0324,0.013523,0.002678,0.000431,0.004701
15946000,0.0324,0.013523,0.002678,0.000431,0.004701
15947000,0.0324,0.013523,0.002678,0.000431,0.004701
15948000,0.0324,0.013523,0.002678,0.000431,0.015984
15949000,0.0324,0.013523,0.002678,0.000431,0.008345
15950000,0.0324,0.013523,0.002678,0.000431,0.004349
15951000,0.0324,0.013523,0.002678,0.000431,0.004701
15952000,0.0324,0.013523,0.002678,0.000431,0.004584
15953000,0.0324,0.013523,0.002678,0.000431,0.004584
15954000,0.0324,0.013523,0.002678,0.000431,0.027267
15955000,0.0324,0.013523,0.002678,0.000431,0.012223
15956000,0.0324,0.013523,0.002678,0.000431,0.012223
15957000,0.0324,0.013523,0.002678,0.000431,0.004701
15958000,0.0324,0.013523,0.002678,0.000431,0.004701
15959000,0.0324,0.013523,0.002678,0.000431,0.004701
15960000,0.0324,0.013523,0.002678,0.000431,0.008462
15961000,0.0324,0.013523,0.002678,0.000431,0.015866
15962000,0.0324,0.013523,0.002678,0.000431,0.023271
15963000,0.0324,0.013523,0.002678,0.000431,0.015866
15964000,0.0324,0.013523,0.002678,0.000431,0.004701
15965000,0.0324,0.013523,0.002678,0.000431,0.004701
15966000,0.0324,0.013523,0.002678,0.000431,0.004701
15967000,0.0324,0.013523,0.002678,0.000431,0.027031
15968000,0.0324,0.013523,0.002678,0.000431,0.004701
15969000,0.0324,0.013523,0.002678,0.000431,0.012223
15970000,0.0324,0.013523,0.002678,0.000431,0.004701
15971000,0.0324,0.013523,0.002678,0.000431,0.004701
15972000,0.0324,0.013523,0.002678,0.000431,0.004701
15973000,0.0324,0.013523,0.002678,0.000431,0.023506
15974000,0.0324,0.013523,0.002678,0.000431,0.012223
15975000,0.0324,0.013523,0.002678,0.000431,0.014456
15976000,0.0324,0.013523,0.002678,0.000431,0.005994
15977000,0.0324,0.013523,0.002678,0.000431,0.004701
15978000,0.0324,0.013523,0.002678,0.000431,0.004701
15979000,0.0324,0.013523,0.002678,0.000431,0.004584
15980000,0.0324,0.013523,0.002678,0.000431,0.012928
15981000,0.0324,0.013523,0.002678,0.000431,0.005641
15982000,0.0324,0.013523,0.002678,0.000431,0.005876
15983000,0.0324,0.013523,0.002678,0.000431,0.005876
15984000,0.0324,0.013523,0.002678,0.000431,0.005876
15985000,0.0324,0.013523,0.002678,0.000431,0.005876
15986000,0.0324,0.013523,0.002678,0.000431,0.020450
15987000,0.0324,0.013523,0.002678,0.000431,0.007287
15988000,0.0324,0.013523,0.002678,0.000431,0.011988
15989000,0.0324,0.013523,0.002678,0.000431,0.007287
15990000,0.0324,0.013523,0.002678,0.000431,0.003526
15991000,0.0324,0.013523,0.002678,0.000431,0.003526
15992000,0.0324,0.013523,0.002678,0.000431,0.003526
15993000,0.0324,0.013523,0.002678,0.000431,0.010460
15994000,0.0324,0.013523,0.002678,0.000431,0.001998
15995000,0.0324,0.013523,0.002678,0.000431,0.002233
15996000,0.0324,0.013523,0.002678,0.000431,0.002351
15997000,0.0324,0.013523,0.002678,0.000431,0.002351
15998000,0.0324,0.013523,0.002678,0.000431,0.002351
15999000,0.0324,0.013523,0.002678,0.000431,0.009872
