Cycle,Area(mm^2),PeakDynamic(W),SubthresholdLeakage(W),GateLeakage(W),RunTimeDynamic(W)
7000000,0.0324,0.013523,0.002678,0.000431,0.143384
7001000,0.0324,0.013523,0.002678,0.000431,0.117881
7002000,0.0324,0.013523,0.002678,0.000431,0.192394
7003000,0.0324,0.013523,0.002678,0.000431,0.133747
7004000,0.0324,0.013523,0.002678,0.000431,0.064993
7005000,0.0324,0.013523,0.002678,0.000431,0.224361
7006000,0.0324,0.013523,0.002678,0.000431,0.069812
7007000,0.0324,0.013523,0.002678,0.000431,0.046776
7008000,0.0324,0.013523,0.002678,0.000431,0.131632
7009000,0.0324,0.013523,0.002678,0.000431,0.079919
7010000,0.0324,0.013523,0.002678,0.000431,0.136803
7011000,0.0324,0.013523,0.002678,0.000431,0.269962
7012000,0.0324,0.013523,0.002678,0.000431,0.150436
7013000,0.0324,0.013523,0.002678,0.000431,0.042898
7014000,0.0324,0.013523,0.002678,0.000431,0.124462
7015000,0.0324,0.013523,0.002678,0.000431,0.085325
7016000,0.0324,0.013523,0.002678,0.000431,0.072515
7017000,0.0324,0.013523,0.002678,0.000431,0.092377
7018000,0.0324,0.013523,0.002678,0.000431,0.196037
7019000,0.0324,0.013523,0.002678,0.000431,0.080389
7020000,0.0324,0.013523,0.002678,0.000431,0.097196
7021000,0.0324,0.013523,0.002678,0.000431,0.134570
7022000,0.0324,0.013523,0.002678,0.000431,0.072515
7023000,0.0324,0.013523,0.002678,0.000431,0.072632
7024000,0.0324,0.013523,0.002678,0.000431,0.182521
7025000,0.0324,0.013523,0.002678,0.000431,0.098724
7026000,0.0324,0.013523,0.002678,0.000431,0.038314
7027000,0.0324,0.013523,0.002678,0.000431,0.180288
7028000,0.0324,0.013523,0.002678,0.000431,0.142209
7029000,0.0324,0.013523,0.002678,0.000431,0.065463
7030000,0.0324,0.013523,0.002678,0.000431,0.157253
7031000,0.0324,0.013523,0.002678,0.000431,0.153844
7032000,0.0324,0.013523,0.002678,0.000431,0.079919
7033000,0.0324,0.013523,0.002678,0.000431,0.054180
7034000,0.0324,0.013523,0.002678,0.000431,0.131044
7035000,0.0324,0.013523,0.002678,0.000431,0.161836
7036000,0.0324,0.013523,0.002678,0.000431,0.104718
7037000,0.0324,0.013523,0.002678,0.000431,0.164304
7038000,0.0324,0.013523,0.002678,0.000431,0.069342
7039000,0.0324,0.013523,0.002678,0.000431,0.054651
7040000,0.0324,0.013523,0.002678,0.000431,0.158781
7041000,0.0324,0.013523,0.002678,0.000431,0.095668
7042000,0.0324,0.013523,0.002678,0.000431,0.164657
7043000,0.0324,0.013523,0.002678,0.000431,0.218250
7044000,0.0324,0.013523,0.002678,0.000431,0.166185
7045000,0.0324,0.013523,0.002678,0.000431,0.072280
7046000,0.0324,0.013523,0.002678,0.000431,0.077921
7047000,0.0324,0.013523,0.002678,0.000431,0.059587
7048000,0.0324,0.013523,0.002678,0.000431,0.070399
7049000,0.0324,0.013523,0.002678,0.000431,0.150436
7050000,0.0324,0.013523,0.002678,0.000431,0.133042
7051000,0.0324,0.013523,0.002678,0.000431,0.102720
7052000,0.0324,0.013523,0.002678,0.000431,0.114355
7053000,0.0324,0.013523,0.002678,0.000431,0.046424
7054000,0.0324,0.013523,0.002678,0.000431,0.103425
7055000,0.0324,0.013523,0.002678,0.000431,0.043015
7056000,0.0324,0.013523,0.002678,0.000431,0.157958
7057000,0.0324,0.013523,0.002678,0.000431,0.210846
7058000,0.0324,0.013523,0.002678,0.000431,0.082505
7059000,0.0324,0.013523,0.002678,0.000431,0.078509
7060000,0.0324,0.013523,0.002678,0.000431,0.306984
7061000,0.0324,0.013523,0.002678,0.000431,0.125520
7062000,0.0324,0.013523,0.002678,0.000431,0.065346
7063000,0.0324,0.013523,0.002678,0.000431,0.155137
7064000,0.0324,0.013523,0.002678,0.000431,0.057354
7065000,0.0324,0.013523,0.002678,0.000431,0.051595
7066000,0.0324,0.013523,0.002678,0.000431,0.116705
7067000,0.0324,0.013523,0.002678,0.000431,0.069107
7068000,0.0324,0.013523,0.002678,0.000431,0.061585
7069000,0.0324,0.013523,0.002678,0.000431,0.110359
7070000,0.0324,0.013523,0.002678,0.000431,0.050185
7071000,0.0324,0.013523,0.002678,0.000431,0.050537
7072000,0.0324,0.013523,0.002678,0.000431,0.050067
7073000,0.0324,0.013523,0.002678,0.000431,0.080154
7074000,0.0324,0.013523,0.002678,0.000431,0.076158
7075000,0.0324,0.013523,0.002678,0.000431,0.143854
7076000,0.0324,0.013523,0.002678,0.000431,0.074983
7077000,0.0324,0.013523,0.002678,0.000431,0.118233
7078000,0.0324,0.013523,0.002678,0.000431,0.135628
7079000,0.0324,0.013523,0.002678,0.000431,0.073573
7080000,0.0324,0.013523,0.002678,0.000431,0.106833
7081000,0.0324,0.013523,0.002678,0.000431,0.078156
7082000,0.0324,0.013523,0.002678,0.000431,0.168770
7083000,0.0324,0.013523,0.002678,0.000431,0.117176
7084000,0.0324,0.013523,0.002678,0.000431,0.072515
7085000,0.0324,0.013523,0.002678,0.000431,0.060997
7086000,0.0324,0.013523,0.002678,0.000431,0.102837
7087000,0.0324,0.013523,0.002678,0.000431,0.057354
7088000,0.0324,0.013523,0.002678,0.000431,0.127988
7089000,0.0324,0.013523,0.002678,0.000431,0.105775
7090000,0.0324,0.013523,0.002678,0.000431,0.055826
7091000,0.0324,0.013523,0.002678,0.000431,0.054063
7092000,0.0324,0.013523,0.002678,0.000431,0.147968
7093000,0.0324,0.013523,0.002678,0.000431,0.103072
7094000,0.0324,0.013523,0.002678,0.000431,0.091672
7095000,0.0324,0.013523,0.002678,0.000431,0.103072
7096000,0.0324,0.013523,0.002678,0.000431,0.108714
7097000,0.0324,0.013523,0.002678,0.000431,0.119644
7098000,0.0324,0.013523,0.002678,0.000431,0.106481
7099000,0.0324,0.013523,0.002678,0.000431,0.163364
7100000,0.0324,0.013523,0.002678,0.000431,0.072632
7101000,0.0324,0.013523,0.002678,0.000431,0.142679
7102000,0.0324,0.013523,0.002678,0.000431,0.100369
7103000,0.0324,0.013523,0.002678,0.000431,0.133630
7104000,0.0324,0.013523,0.002678,0.000431,0.333898
7105000,0.0324,0.013523,0.002678,0.000431,0.104835
7106000,0.0324,0.013523,0.002678,0.000431,0.083563
7107000,0.0324,0.013523,0.002678,0.000431,0.142092
7108000,0.0324,0.013523,0.002678,0.000431,0.221188
7109000,0.0324,0.013523,0.002678,0.000431,0.077686
7110000,0.0324,0.013523,0.002678,0.000431,0.051360
7111000,0.0324,0.013523,0.002678,0.000431,0.141504
7112000,0.0324,0.013523,0.002678,0.000431,0.205087
7113000,0.0324,0.013523,0.002678,0.000431,0.133277
7114000,0.0324,0.013523,0.002678,0.000431,0.194862
7115000,0.0324,0.013523,0.002678,0.000431,0.072397
7116000,0.0324,0.013523,0.002678,0.000431,0.077451
7117000,0.0324,0.013523,0.002678,0.000431,0.117411
7118000,0.0324,0.013523,0.002678,0.000431,0.062407
7119000,0.0324,0.013523,0.002678,0.000431,0.053358
7120000,0.0324,0.013523,0.002678,0.000431,0.127753
7121000,0.0324,0.013523,0.002678,0.000431,0.134452
7122000,0.0324,0.013523,0.002678,0.000431,0.230708
7123000,0.0324,0.013523,0.002678,0.000431,0.069107
7124000,0.0324,0.013523,0.002678,0.000431,0.123170
7125000,0.0324,0.013523,0.002678,0.000431,0.078274
7126000,0.0324,0.013523,0.002678,0.000431,0.125285
7127000,0.0324,0.013523,0.002678,0.000431,0.150554
7128000,0.0324,0.013523,0.002678,0.000431,0.095315
7129000,0.0324,0.013523,0.002678,0.000431,0.062055
7130000,0.0324,0.013523,0.002678,0.000431,0.042780
7131000,0.0324,0.013523,0.002678,0.000431,0.050185
7132000,0.0324,0.013523,0.002678,0.000431,0.087911
7133000,0.0324,0.013523,0.002678,0.000431,0.141034
7134000,0.0324,0.013523,0.002678,0.000431,0.303928
7135000,0.0324,0.013523,0.002678,0.000431,0.067344
7136000,0.0324,0.013523,0.002678,0.000431,0.102837
7137000,0.0324,0.013523,0.002678,0.000431,0.164069
7138000,0.0324,0.013523,0.002678,0.000431,0.056061
7139000,0.0324,0.013523,0.002678,0.000431,0.117411
7140000,0.0324,0.013523,0.002678,0.000431,0.103660
7141000,0.0324,0.013523,0.002678,0.000431,0.042663
7142000,0.0324,0.013523,0.002678,0.000431,0.042428
7143000,0.0324,0.013523,0.002678,0.000431,0.088029
7144000,0.0324,0.013523,0.002678,0.000431,0.046306
7145000,0.0324,0.013523,0.002678,0.000431,0.099429
7146000,0.0324,0.013523,0.002678,0.000431,0.137038
7147000,0.0324,0.013523,0.002678,0.000431,0.130104
7148000,0.0324,0.013523,0.002678,0.000431,0.057941
7149000,0.0324,0.013523,0.002678,0.000431,0.099076
7150000,0.0324,0.013523,0.002678,0.000431,0.191688
7151000,0.0324,0.013523,0.002678,0.000431,0.123757
7152000,0.0324,0.013523,0.002678,0.000431,0.065463
7153000,0.0324,0.013523,0.002678,0.000431,0.212844
7154000,0.0324,0.013523,0.002678,0.000431,0.142679
7155000,0.0324,0.013523,0.002678,0.000431,0.042545
7156000,0.0324,0.013523,0.002678,0.000431,0.163247
7157000,0.0324,0.013523,0.002678,0.000431,0.102014
7158000,0.0324,0.013523,0.002678,0.000431,0.133982
7159000,0.0324,0.013523,0.002678,0.000431,0.099311
7160000,0.0324,0.013523,0.002678,0.000431,0.204734
7161000,0.0324,0.013523,0.002678,0.000431,0.057706
7162000,0.0324,0.013523,0.002678,0.000431,0.078861
7163000,0.0324,0.013523,0.002678,0.000431,0.100487
7164000,0.0324,0.013523,0.002678,0.000431,0.080507
7165000,0.0324,0.013523,0.002678,0.000431,0.068284
7166000,0.0324,0.013523,0.002678,0.000431,0.180171
7167000,0.0324,0.013523,0.002678,0.000431,0.282420
7168000,0.0324,0.013523,0.002678,0.000431,0.041135
7169000,0.0324,0.013523,0.002678,0.000431,0.185342
7170000,0.0324,0.013523,0.002678,0.000431,0.097431
7171000,0.0324,0.013523,0.002678,0.000431,0.050185
7172000,0.0324,0.013523,0.002678,0.000431,0.167830
7173000,0.0324,0.013523,0.002678,0.000431,0.219073
7174000,0.0324,0.013523,0.002678,0.000431,0.117646
7175000,0.0324,0.013523,0.002678,0.000431,0.061585
7176000,0.0324,0.013523,0.002678,0.000431,0.065111
7177000,0.0324,0.013523,0.002678,0.000431,0.125638
7178000,0.0324,0.013523,0.002678,0.000431,0.079802
7179000,0.0324,0.013523,0.002678,0.000431,0.201091
7180000,0.0324,0.013523,0.002678,0.000431,0.128811
7181000,0.0324,0.013523,0.002678,0.000431,0.039372
7182000,0.0324,0.013523,0.002678,0.000431,0.120349
7183000,0.0324,0.013523,0.002678,0.000431,0.152434
7184000,0.0324,0.013523,0.002678,0.000431,0.074395
7185000,0.0324,0.013523,0.002678,0.000431,0.202031
7186000,0.0324,0.013523,0.002678,0.000431,0.149378
7187000,0.0324,0.013523,0.002678,0.000431,0.050302
7188000,0.0324,0.013523,0.002678,0.000431,0.058294
7189000,0.0324,0.013523,0.002678,0.000431,0.146675
7190000,0.0324,0.013523,0.002678,0.000431,0.104483
7191000,0.0324,0.013523,0.002678,0.000431,0.038902
7192000,0.0324,0.013523,0.002678,0.000431,0.069107
7193000,0.0324,0.013523,0.002678,0.000431,0.064641
7194000,0.0324,0.013523,0.002678,0.000431,0.060292
7195000,0.0324,0.013523,0.002678,0.000431,0.166655
7196000,0.0324,0.013523,0.002678,0.000431,0.110124
7197000,0.0324,0.013523,0.002678,0.000431,0.125638
7198000,0.0324,0.013523,0.002678,0.000431,0.074630
7199000,0.0324,0.013523,0.002678,0.000431,0.246339
7200000,0.0324,0.013523,0.002678,0.000431,0.041958
7201000,0.0324,0.013523,0.002678,0.000431,0.099664
7202000,0.0324,0.013523,0.002678,0.000431,0.091672
7203000,0.0324,0.013523,0.002678,0.000431,0.122582
7204000,0.0324,0.013523,0.002678,0.000431,0.075453
7205000,0.0324,0.013523,0.002678,0.000431,0.144207
7206000,0.0324,0.013523,0.002678,0.000431,0.121877
7207000,0.0324,0.013523,0.002678,0.000431,0.074748
7208000,0.0324,0.013523,0.002678,0.000431,0.135275
7209000,0.0324,0.013523,0.002678,0.000431,0.043015
7210000,0.0324,0.013523,0.002678,0.000431,0.063818
7211000,0.0324,0.013523,0.002678,0.000431,0.160779
7212000,0.0324,0.013523,0.002678,0.000431,0.146910
7213000,0.0324,0.013523,0.002678,0.000431,0.035023
7214000,0.0324,0.013523,0.002678,0.000431,0.111417
7215000,0.0324,0.013523,0.002678,0.000431,0.162659
7216000,0.0324,0.013523,0.002678,0.000431,0.035258
7217000,0.0324,0.013523,0.002678,0.000431,0.142327
7218000,0.0324,0.013523,0.002678,0.000431,0.294173
7219000,0.0324,0.013523,0.002678,0.000431,0.071692
7220000,0.0324,0.013523,0.002678,0.000431,0.083680
7221000,0.0324,0.013523,0.002678,0.000431,0.068872
7222000,0.0324,0.013523,0.002678,0.000431,0.050302
7223000,0.0324,0.013523,0.002678,0.000431,0.145147
7224000,0.0324,0.013523,0.002678,0.000431,0.128223
7225000,0.0324,0.013523,0.002678,0.000431,0.138331
7226000,0.0324,0.013523,0.002678,0.000431,0.048774
7227000,0.0324,0.013523,0.002678,0.000431,0.132572
7228000,0.0324,0.013523,0.002678,0.000431,0.159603
7229000,0.0324,0.013523,0.002678,0.000431,0.057706
7230000,0.0324,0.013523,0.002678,0.000431,0.106481
7231000,0.0324,0.013523,0.002678,0.000431,0.224831
7232000,0.0324,0.013523,0.002678,0.000431,0.146558
7233000,0.0324,0.013523,0.002678,0.000431,0.064993
7234000,0.0324,0.013523,0.002678,0.000431,0.114120
7235000,0.0324,0.013523,0.002678,0.000431,0.172296
7236000,0.0324,0.013523,0.002678,0.000431,0.105188
7237000,0.0324,0.013523,0.002678,0.000431,0.166537
7238000,0.0324,0.013523,0.002678,0.000431,0.199445
7239000,0.0324,0.013523,0.002678,0.000431,0.069459
7240000,0.0324,0.013523,0.002678,0.000431,0.142444
7241000,0.0324,0.013523,0.002678,0.000431,0.148086
7242000,0.0324,0.013523,0.002678,0.000431,0.257622
7243000,0.0324,0.013523,0.002678,0.000431,0.185812
7244000,0.0324,0.013523,0.002678,0.000431,0.126695
7245000,0.0324,0.013523,0.002678,0.000431,0.045131
7246000,0.0324,0.013523,0.002678,0.000431,0.042310
7247000,0.0324,0.013523,0.002678,0.000431,0.144442
7248000,0.0324,0.013523,0.002678,0.000431,0.106363
7249000,0.0324,0.013523,0.002678,0.000431,0.271020
7250000,0.0324,0.013523,0.002678,0.000431,0.205792
7251000,0.0324,0.013523,0.002678,0.000431,0.140799
7252000,0.0324,0.013523,0.002678,0.000431,0.102602
7253000,0.0324,0.013523,0.002678,0.000431,0.145030
7254000,0.0324,0.013523,0.002678,0.000431,0.116470
7255000,0.0324,0.013523,0.002678,0.000431,0.206379
7256000,0.0324,0.013523,0.002678,0.000431,0.109536
7257000,0.0324,0.013523,0.002678,0.000431,0.245516
7258000,0.0324,0.013523,0.002678,0.000431,0.034436
7259000,0.0324,0.013523,0.002678,0.000431,0.042663
7260000,0.0324,0.013523,0.002678,0.000431,0.102720
7261000,0.0324,0.013523,0.002678,0.000431,0.190396
7262000,0.0324,0.013523,0.002678,0.000431,0.250100
7263000,0.0324,0.013523,0.002678,0.000431,0.307924
7264000,0.0324,0.013523,0.002678,0.000431,0.092495
7265000,0.0324,0.013523,0.002678,0.000431,0.183226
7266000,0.0324,0.013523,0.002678,0.000431,0.101427
7267000,0.0324,0.013523,0.002678,0.000431,0.069694
7268000,0.0324,0.013523,0.002678,0.000431,0.073103
7269000,0.0324,0.013523,0.002678,0.000431,0.191806
7270000,0.0324,0.013523,0.002678,0.000431,0.225889
7271000,0.0324,0.013523,0.002678,0.000431,0.054416
7272000,0.0324,0.013523,0.002678,0.000431,0.125168
7273000,0.0324,0.013523,0.002678,0.000431,0.053945
7274000,0.0324,0.013523,0.002678,0.000431,0.070399
7275000,0.0324,0.013523,0.002678,0.000431,0.223068
7276000,0.0324,0.013523,0.002678,0.000431,0.214136
7277000,0.0324,0.013523,0.002678,0.000431,0.066521
7278000,0.0324,0.013523,0.002678,0.000431,0.096373
7279000,0.0324,0.013523,0.002678,0.000431,0.070987
7280000,0.0324,0.013523,0.002678,0.000431,0.077569
7281000,0.0324,0.013523,0.002678,0.000431,0.179113
7282000,0.0324,0.013523,0.002678,0.000431,0.218250
7283000,0.0324,0.013523,0.002678,0.000431,0.091319
7284000,0.0324,0.013523,0.002678,0.000431,0.144442
7285000,0.0324,0.013523,0.002678,0.000431,0.061702
7286000,0.0324,0.013523,0.002678,0.000431,0.141974
7287000,0.0324,0.013523,0.002678,0.000431,0.100957
7288000,0.0324,0.013523,0.002678,0.000431,0.176645
7289000,0.0324,0.013523,0.002678,0.000431,0.149966
7290000,0.0324,0.013523,0.002678,0.000431,0.044191
7291000,0.0324,0.013523,0.002678,0.000431,0.183814
7292000,0.0324,0.013523,0.002678,0.000431,0.213196
7293000,0.0324,0.013523,0.002678,0.000431,0.145617
7294000,0.0324,0.013523,0.002678,0.000431,0.145617
7295000,0.0324,0.013523,0.002678,0.000431,0.219543
7296000,0.0324,0.013523,0.002678,0.000431,0.301577
7297000,0.0324,0.013523,0.002678,0.000431,0.077216
7298000,0.0324,0.013523,0.002678,0.000431,0.094023
7299000,0.0324,0.013523,0.002678,0.000431,0.038902
7300000,0.0324,0.013523,0.002678,0.000431,0.082857
7301000,0.0324,0.013523,0.002678,0.000431,0.134805
7302000,0.0324,0.013523,0.002678,0.000431,0.132337
7303000,0.0324,0.013523,0.002678,0.000431,0.094493
7304000,0.0324,0.013523,0.002678,0.000431,0.172179
7305000,0.0324,0.013523,0.002678,0.000431,0.202031
7306000,0.0324,0.013523,0.002678,0.000431,0.074043
7307000,0.0324,0.013523,0.002678,0.000431,0.274663
7308000,0.0324,0.013523,0.002678,0.000431,0.210963
7309000,0.0324,0.013523,0.002678,0.000431,0.086736
7310000,0.0324,0.013523,0.002678,0.000431,0.138801
7311000,0.0324,0.013523,0.002678,0.000431,0.173589
7312000,0.0324,0.013523,0.002678,0.000431,0.132337
7313000,0.0324,0.013523,0.002678,0.000431,0.042780
7314000,0.0324,0.013523,0.002678,0.000431,0.197330
7315000,0.0324,0.013523,0.002678,0.000431,0.174529
7316000,0.0324,0.013523,0.002678,0.000431,0.062290
7317000,0.0324,0.013523,0.002678,0.000431,0.157370
7318000,0.0324,0.013523,0.002678,0.000431,0.201796
7319000,0.0324,0.013523,0.002678,0.000431,0.110829
7320000,0.0324,0.013523,0.002678,0.000431,0.158663
7321000,0.0324,0.013523,0.002678,0.000431,0.091202
7322000,0.0324,0.013523,0.002678,0.000431,0.041723
7323000,0.0324,0.013523,0.002678,0.000431,0.131044
7324000,0.0324,0.013523,0.002678,0.000431,0.146910
7325000,0.0324,0.013523,0.002678,0.000431,0.122464
7326000,0.0324,0.013523,0.002678,0.000431,0.108243
7327000,0.0324,0.013523,0.002678,0.000431,0.172766
7328000,0.0324,0.013523,0.002678,0.000431,0.035023
7329000,0.0324,0.013523,0.002678,0.000431,0.116470
7330000,0.0324,0.013523,0.002678,0.000431,0.178173
7331000,0.0324,0.013523,0.002678,0.000431,0.243518
7332000,0.0324,0.013523,0.002678,0.000431,0.119644
7333000,0.0324,0.013523,0.002678,0.000431,0.266084
7334000,0.0324,0.013523,0.002678,0.000431,0.217545
7335000,0.0324,0.013523,0.002678,0.000431,0.111182
7336000,0.0324,0.013523,0.002678,0.000431,0.155607
7337000,0.0324,0.013523,0.002678,0.000431,0.309217
7338000,0.0324,0.013523,0.002678,0.000431,0.138096
7339000,0.0324,0.013523,0.002678,0.000431,0.193922
7340000,0.0324,0.013523,0.002678,0.000431,0.285593
7341000,0.0324,0.013523,0.002678,0.000431,0.145147
7342000,0.0324,0.013523,0.002678,0.000431,0.076511
7343000,0.0324,0.013523,0.002678,0.000431,0.077569
7344000,0.0324,0.013523,0.002678,0.000431,0.237642
7345000,0.0324,0.013523,0.002678,0.000431,0.068754
7346000,0.0324,0.013523,0.002678,0.000431,0.464001
7347000,0.0324,0.013523,0.002678,0.000431,0.286651
7348000,0.0324,0.013523,0.002678,0.000431,0.042780
7349000,0.0324,0.013523,0.002678,0.000431,0.095903
7350000,0.0324,0.013523,0.002678,0.000431,0.160191
7351000,0.0324,0.013523,0.002678,0.000431,0.050655
7352000,0.0324,0.013523,0.002678,0.000431,0.254449
7353000,0.0324,0.013523,0.002678,0.000431,0.131397
7354000,0.0324,0.013523,0.002678,0.000431,0.103895
7355000,0.0324,0.013523,0.002678,0.000431,0.155490
7356000,0.0324,0.013523,0.002678,0.000431,0.123170
7357000,0.0324,0.013523,0.002678,0.000431,0.199328
7358000,0.0324,0.013523,0.002678,0.000431,0.200268
7359000,0.0324,0.013523,0.002678,0.000431,0.462591
7360000,0.0324,0.013523,0.002678,0.000431,0.229885
7361000,0.0324,0.013523,0.002678,0.000431,0.047716
7362000,0.0324,0.013523,0.002678,0.000431,0.129399
7363000,0.0324,0.013523,0.002678,0.000431,0.134335
7364000,0.0324,0.013523,0.002678,0.000431,0.058059
7365000,0.0324,0.013523,0.002678,0.000431,0.200033
7366000,0.0324,0.013523,0.002678,0.000431,0.132102
7367000,0.0324,0.013523,0.002678,0.000431,0.135980
7368000,0.0324,0.013523,0.002678,0.000431,0.098841
7369000,0.0324,0.013523,0.002678,0.000431,0.151259
7370000,0.0324,0.013523,0.002678,0.000431,0.229768
7371000,0.0324,0.013523,0.002678,0.000431,0.088969
7372000,0.0324,0.013523,0.002678,0.000431,0.165597
7373000,0.0324,0.013523,0.002678,0.000431,0.269140
7374000,0.0324,0.013523,0.002678,0.000431,0.038784
7375000,0.0324,0.013523,0.002678,0.000431,0.197095
7376000,0.0324,0.013523,0.002678,0.000431,0.204264
7377000,0.0324,0.013523,0.002678,0.000431,0.103542
7378000,0.0324,0.013523,0.002678,0.000431,0.209905
7379000,0.0324,0.013523,0.002678,0.000431,0.206379
7380000,0.0324,0.013523,0.002678,0.000431,0.035141
7381000,0.0324,0.013523,0.002678,0.000431,0.087794
7382000,0.0324,0.013523,0.002678,0.000431,0.148203
7383000,0.0324,0.013523,0.002678,0.000431,0.074395
7384000,0.0324,0.013523,0.002678,0.000431,0.108596
7385000,0.0324,0.013523,0.002678,0.000431,0.167360
7386000,0.0324,0.013523,0.002678,0.000431,0.083915
7387000,0.0324,0.013523,0.002678,0.000431,0.044543
7388000,0.0324,0.013523,0.002678,0.000431,0.151964
7389000,0.0324,0.013523,0.002678,0.000431,0.263498
7390000,0.0324,0.013523,0.002678,0.000431,0.198153
7391000,0.0324,0.013523,0.002678,0.000431,0.146088
7392000,0.0324,0.013523,0.002678,0.000431,0.095785
7393000,0.0324,0.013523,0.002678,0.000431,0.091672
7394000,0.0324,0.013523,0.002678,0.000431,0.140564
7395000,0.0324,0.013523,0.002678,0.000431,0.129046
7396000,0.0324,0.013523,0.002678,0.000431,0.069107
7397000,0.0324,0.013523,0.002678,0.000431,0.094728
7398000,0.0324,0.013523,0.002678,0.000431,0.200386
7399000,0.0324,0.013523,0.002678,0.000431,0.267729
7400000,0.0324,0.013523,0.002678,0.000431,0.130456
7401000,0.0324,0.013523,0.002678,0.000431,0.163834
7402000,0.0324,0.013523,0.002678,0.000431,0.143737
7403000,0.0324,0.013523,0.002678,0.000431,0.181581
7404000,0.0324,0.013523,0.002678,0.000431,0.294056
7405000,0.0324,0.013523,0.002678,0.000431,0.200621
7406000,0.0324,0.013523,0.002678,0.000431,0.110241
7407000,0.0324,0.013523,0.002678,0.000431,0.069224
7408000,0.0324,0.013523,0.002678,0.000431,0.118351
7409000,0.0324,0.013523,0.002678,0.000431,0.141974
7410000,0.0324,0.013523,0.002678,0.000431,0.204499
7411000,0.0324,0.013523,0.002678,0.000431,0.205439
7412000,0.0324,0.013523,0.002678,0.000431,0.201443
7413000,0.0324,0.013523,0.002678,0.000431,0.070869
7414000,0.0324,0.013523,0.002678,0.000431,0.246104
7415000,0.0324,0.013523,0.002678,0.000431,0.157018
7416000,0.0324,0.013523,0.002678,0.000431,0.307689
7417000,0.0324,0.013523,0.002678,0.000431,0.138213
7418000,0.0324,0.013523,0.002678,0.000431,0.126578
7419000,0.0324,0.013523,0.002678,0.000431,0.099076
7420000,0.0324,0.013523,0.002678,0.000431,0.322967
7421000,0.0324,0.013523,0.002678,0.000431,0.213431
7422000,0.0324,0.013523,0.002678,0.000431,0.135392
7423000,0.0324,0.013523,0.002678,0.000431,0.195449
7424000,0.0324,0.013523,0.002678,0.000431,0.087676
7425000,0.0324,0.013523,0.002678,0.000431,0.065581
7426000,0.0324,0.013523,0.002678,0.000431,0.236349
7427000,0.0324,0.013523,0.002678,0.000431,0.417813
7428000,0.0324,0.013523,0.002678,0.000431,0.136803
7429000,0.0324,0.013523,0.002678,0.000431,0.185695
7430000,0.0324,0.013523,0.002678,0.000431,0.069107
7431000,0.0324,0.013523,0.002678,0.000431,0.129634
7432000,0.0324,0.013523,0.002678,0.000431,0.174882
7433000,0.0324,0.013523,0.002678,0.000431,0.156783
7434000,0.0324,0.013523,0.002678,0.000431,0.356110
7435000,0.0324,0.013523,0.002678,0.000431,0.270315
7436000,0.0324,0.013523,0.002678,0.000431,0.251158
7437000,0.0324,0.013523,0.002678,0.000431,0.105070
7438000,0.0324,0.013523,0.002678,0.000431,0.244106
7439000,0.0324,0.013523,0.002678,0.000431,0.246457
7440000,0.0324,0.013523,0.002678,0.000431,0.122934
7441000,0.0324,0.013523,0.002678,0.000431,0.074278
7442000,0.0324,0.013523,0.002678,0.000431,0.184637
7443000,0.0324,0.013523,0.002678,0.000431,0.123875
7444000,0.0324,0.013523,0.002678,0.000431,0.149378
7445000,0.0324,0.013523,0.002678,0.000431,0.068989
7446000,0.0324,0.013523,0.002678,0.000431,0.240698
7447000,0.0324,0.013523,0.002678,0.000431,0.157605
7448000,0.0324,0.013523,0.002678,0.000431,0.087206
7449000,0.0324,0.013523,0.002678,0.000431,0.179348
7450000,0.0324,0.013523,0.002678,0.000431,0.155020
7451000,0.0324,0.013523,0.002678,0.000431,0.359989
7452000,0.0324,0.013523,0.002678,0.000431,0.181464
7453000,0.0324,0.013523,0.002678,0.000431,0.183226
7454000,0.0324,0.013523,0.002678,0.000431,0.213666
7455000,0.0324,0.013523,0.002678,0.000431,0.170298
7456000,0.0324,0.013523,0.002678,0.000431,0.164892
7457000,0.0324,0.013523,0.002678,0.000431,0.156195
7458000,0.0324,0.013523,0.002678,0.000431,0.060527
7459000,0.0324,0.013523,0.002678,0.000431,0.124580
7460000,0.0324,0.013523,0.002678,0.000431,0.132454
7461000,0.0324,0.013523,0.002678,0.000431,0.090144
7462000,0.0324,0.013523,0.002678,0.000431,0.161014
7463000,0.0324,0.013523,0.002678,0.000431,0.118703
7464000,0.0324,0.013523,0.002678,0.000431,0.169123
7465000,0.0324,0.013523,0.002678,0.000431,0.219660
7466000,0.0324,0.013523,0.002678,0.000431,0.219425
7467000,0.0324,0.013523,0.002678,0.000431,0.105423
7468000,0.0324,0.013523,0.002678,0.000431,0.164069
7469000,0.0324,0.013523,0.002678,0.000431,0.267729
7470000,0.0324,0.013523,0.002678,0.000431,0.114472
7471000,0.0324,0.013523,0.002678,0.000431,0.202384
7472000,0.0324,0.013523,0.002678,0.000431,0.229650
7473000,0.0324,0.013523,0.002678,0.000431,0.124110
7474000,0.0324,0.013523,0.002678,0.000431,0.111887
7475000,0.0324,0.013523,0.002678,0.000431,0.241638
7476000,0.0324,0.013523,0.002678,0.000431,0.080389
7477000,0.0324,0.013523,0.002678,0.000431,0.190278
7478000,0.0324,0.013523,0.002678,0.000431,0.119761
7479000,0.0324,0.013523,0.002678,0.000431,0.133747
7480000,0.0324,0.013523,0.002678,0.000431,0.087794
7481000,0.0324,0.013523,0.002678,0.000431,0.202384
7482000,0.0324,0.013523,0.002678,0.000431,0.202148
7483000,0.0324,0.013523,0.002678,0.000431,0.131279
7484000,0.0324,0.013523,0.002678,0.000431,0.146323
7485000,0.0324,0.013523,0.002678,0.000431,0.076158
7486000,0.0324,0.013523,0.002678,0.000431,0.173119
7487000,0.0324,0.013523,0.002678,0.000431,0.226124
7488000,0.0324,0.013523,0.002678,0.000431,0.159016
7489000,0.0324,0.013523,0.002678,0.000431,0.238817
7490000,0.0324,0.013523,0.002678,0.000431,0.161249
7491000,0.0324,0.013523,0.002678,0.000431,0.153257
7492000,0.0324,0.013523,0.002678,0.000431,0.190396
7493000,0.0324,0.013523,0.002678,0.000431,0.197800
7494000,0.0324,0.013523,0.002678,0.000431,0.205792
7495000,0.0324,0.013523,0.002678,0.000431,0.062172
7496000,0.0324,0.013523,0.002678,0.000431,0.295466
7497000,0.0324,0.013523,0.002678,0.000431,0.208495
7498000,0.0324,0.013523,0.002678,0.000431,0.268552
7499000,0.0324,0.013523,0.002678,0.000431,0.173001
7500000,0.0324,0.013523,0.002678,0.000431,0.163012
7501000,0.0324,0.013523,0.002678,0.000431,0.204264
7502000,0.0324,0.013523,0.002678,0.000431,0.154667
7503000,0.0324,0.013523,0.002678,0.000431,0.144677
7504000,0.0324,0.013523,0.002678,0.000431,0.170181
7505000,0.0324,0.013523,0.002678,0.000431,0.234704
7506000,0.0324,0.013523,0.002678,0.000431,0.156195
7507000,0.0324,0.013523,0.002678,0.000431,0.309687
7508000,0.0324,0.013523,0.002678,0.000431,0.053240
7509000,0.0324,0.013523,0.002678,0.000431,0.285593
7510000,0.0324,0.013523,0.002678,0.000431,0.233176
7511000,0.0324,0.013523,0.002678,0.000431,0.157958
7512000,0.0324,0.013523,0.002678,0.000431,0.067461
7513000,0.0324,0.013523,0.002678,0.000431,0.062760
7514000,0.0324,0.013523,0.002678,0.000431,0.151141
7515000,0.0324,0.013523,0.002678,0.000431,0.329902
7516000,0.0324,0.013523,0.002678,0.000431,0.219425
7517000,0.0324,0.013523,0.002678,0.000431,0.088146
7518000,0.0324,0.013523,0.002678,0.000431,0.058294
7519000,0.0324,0.013523,0.002678,0.000431,0.131632
7520000,0.0324,0.013523,0.002678,0.000431,0.169358
7521000,0.0324,0.013523,0.002678,0.000431,0.139741
7522000,0.0324,0.013523,0.002678,0.000431,0.166655
7523000,0.0324,0.013523,0.002678,0.000431,0.124227
7524000,0.0324,0.013523,0.002678,0.000431,0.368921
7525000,0.0324,0.013523,0.002678,0.000431,0.129046
7526000,0.0324,0.013523,0.002678,0.000431,0.102250
7527000,0.0324,0.013523,0.002678,0.000431,0.139506
7528000,0.0324,0.013523,0.002678,0.000431,0.229768
7529000,0.0324,0.013523,0.002678,0.000431,0.354230
7530000,0.0324,0.013523,0.002678,0.000431,0.240345
7531000,0.0324,0.013523,0.002678,0.000431,0.287591
7532000,0.0324,0.013523,0.002678,0.000431,0.082505
7533000,0.0324,0.013523,0.002678,0.000431,0.054063
7534000,0.0324,0.013523,0.002678,0.000431,0.212373
7535000,0.0324,0.013523,0.002678,0.000431,0.163129
7536000,0.0324,0.013523,0.002678,0.000431,0.280070
7537000,0.0324,0.013523,0.002678,0.000431,0.114355
7538000,0.0324,0.013523,0.002678,0.000431,0.073455
7539000,0.0324,0.013523,0.002678,0.000431,0.149613
7540000,0.0324,0.013523,0.002678,0.000431,0.063113
7541000,0.0324,0.013523,0.002678,0.000431,0.194744
7542000,0.0324,0.013523,0.002678,0.000431,0.277131
7543000,0.0324,0.013523,0.002678,0.000431,0.305573
7544000,0.0324,0.013523,0.002678,0.000431,0.121994
7545000,0.0324,0.013523,0.002678,0.000431,0.224714
7546000,0.0324,0.013523,0.002678,0.000431,0.259385
7547000,0.0324,0.013523,0.002678,0.000431,0.164422
7548000,0.0324,0.013523,0.002678,0.000431,0.137390
7549000,0.0324,0.013523,0.002678,0.000431,0.224949
7550000,0.0324,0.013523,0.002678,0.000431,0.280187
7551000,0.0324,0.013523,0.002678,0.000431,0.209905
7552000,0.0324,0.013523,0.002678,0.000431,0.160896
7553000,0.0324,0.013523,0.002678,0.000431,0.172179
7554000,0.0324,0.013523,0.002678,0.000431,0.104835
7555000,0.0324,0.013523,0.002678,0.000431,0.089556
7556000,0.0324,0.013523,0.002678,0.000431,0.206144
7557000,0.0324,0.013523,0.002678,0.000431,0.280657
7558000,0.0324,0.013523,0.002678,0.000431,0.136215
7559000,0.0324,0.013523,0.002678,0.000431,0.096256
7560000,0.0324,0.013523,0.002678,0.000431,0.068989
7561000,0.0324,0.013523,0.002678,0.000431,0.136685
7562000,0.0324,0.013523,0.002678,0.000431,0.170416
7563000,0.0324,0.013523,0.002678,0.000431,0.131984
7564000,0.0324,0.013523,0.002678,0.000431,0.155137
7565000,0.0324,0.013523,0.002678,0.000431,0.311685
7566000,0.0324,0.013523,0.002678,0.000431,0.233058
7567000,0.0324,0.013523,0.002678,0.000431,0.249865
7568000,0.0324,0.013523,0.002678,0.000431,0.106598
7569000,0.0324,0.013523,0.002678,0.000431,0.095785
7570000,0.0324,0.013523,0.002678,0.000431,0.095080
7571000,0.0324,0.013523,0.002678,0.000431,0.165480
7572000,0.0324,0.013523,0.002678,0.000431,0.341537
7573000,0.0324,0.013523,0.002678,0.000431,0.265849
7574000,0.0324,0.013523,0.002678,0.000431,0.130809
7575000,0.0324,0.013523,0.002678,0.000431,0.261265
7576000,0.0324,0.013523,0.002678,0.000431,0.046424
7577000,0.0324,0.013523,0.002678,0.000431,0.090614
7578000,0.0324,0.013523,0.002678,0.000431,0.219073
7579000,0.0324,0.013523,0.002678,0.000431,0.167948
7580000,0.0324,0.013523,0.002678,0.000431,0.479280
7581000,0.0324,0.013523,0.002678,0.000431,0.221306
7582000,0.0324,0.013523,0.002678,0.000431,0.277249
7583000,0.0324,0.013523,0.002678,0.000431,0.244459
7584000,0.0324,0.013523,0.002678,0.000431,0.244106
7585000,0.0324,0.013523,0.002678,0.000431,0.110476
7586000,0.0324,0.013523,0.002678,0.000431,0.102602
7587000,0.0324,0.013523,0.002678,0.000431,0.160191
7588000,0.0324,0.013523,0.002678,0.000431,0.087794
7589000,0.0324,0.013523,0.002678,0.000431,0.343417
7590000,0.0324,0.013523,0.002678,0.000431,0.120466
7591000,0.0324,0.013523,0.002678,0.000431,0.122582
7592000,0.0324,0.013523,0.002678,0.000431,0.072867
7593000,0.0324,0.013523,0.002678,0.000431,0.187105
7594000,0.0324,0.013523,0.002678,0.000431,0.103425
7595000,0.0324,0.013523,0.002678,0.000431,0.100604
7596000,0.0324,0.013523,0.002678,0.000431,0.283360
7597000,0.0324,0.013523,0.002678,0.000431,0.124580
7598000,0.0324,0.013523,0.002678,0.000431,0.064993
7599000,0.0324,0.013523,0.002678,0.000431,0.078156
7600000,0.0324,0.013523,0.002678,0.000431,0.078156
7601000,0.0324,0.013523,0.002678,0.000431,0.123522
7602000,0.0324,0.013523,0.002678,0.000431,0.134805
7603000,0.0324,0.013523,0.002678,0.000431,0.184637
7604000,0.0324,0.013523,0.002678,0.000431,0.182521
7605000,0.0324,0.013523,0.002678,0.000431,0.121524
7606000,0.0324,0.013523,0.002678,0.000431,0.208613
7607000,0.0324,0.013523,0.002678,0.000431,0.196390
7608000,0.0324,0.013523,0.002678,0.000431,0.174882
7609000,0.0324,0.013523,0.002678,0.000431,0.134570
7610000,0.0324,0.013523,0.002678,0.000431,0.143267
7611000,0.0324,0.013523,0.002678,0.000431,0.053828
7612000,0.0324,0.013523,0.002678,0.000431,0.122112
7613000,0.0324,0.013523,0.002678,0.000431,0.087676
7614000,0.0324,0.013523,0.002678,0.000431,0.061937
7615000,0.0324,0.013523,0.002678,0.000431,0.267377
7616000,0.0324,0.013523,0.002678,0.000431,0.119526
7617000,0.0324,0.013523,0.002678,0.000431,0.106128
7618000,0.0324,0.013523,0.002678,0.000431,0.091554
7619000,0.0324,0.013523,0.002678,0.000431,0.166890
7620000,0.0324,0.013523,0.002678,0.000431,0.114237
7621000,0.0324,0.013523,0.002678,0.000431,0.105775
7622000,0.0324,0.013523,0.002678,0.000431,0.260442
7623000,0.0324,0.013523,0.002678,0.000431,0.050772
7624000,0.0324,0.013523,0.002678,0.000431,0.212256
7625000,0.0324,0.013523,0.002678,0.000431,0.151964
7626000,0.0324,0.013523,0.002678,0.000431,0.072632
7627000,0.0324,0.013523,0.002678,0.000431,0.057589
7628000,0.0324,0.013523,0.002678,0.000431,0.189573
7629000,0.0324,0.013523,0.002678,0.000431,0.321087
7630000,0.0324,0.013523,0.002678,0.000431,0.218720
7631000,0.0324,0.013523,0.002678,0.000431,0.187457
7632000,0.0324,0.013523,0.002678,0.000431,0.176527
7633000,0.0324,0.013523,0.002678,0.000431,0.118586
7634000,0.0324,0.013523,0.002678,0.000431,0.204499
7635000,0.0324,0.013523,0.002678,0.000431,0.230473
7636000,0.0324,0.013523,0.002678,0.000431,0.151376
7637000,0.0324,0.013523,0.002678,0.000431,0.181464
7638000,0.0324,0.013523,0.002678,0.000431,0.218955
7639000,0.0324,0.013523,0.002678,0.000431,0.205439
7640000,0.0324,0.013523,0.002678,0.000431,0.175235
7641000,0.0324,0.013523,0.002678,0.000431,0.264909
7642000,0.0324,0.013523,0.002678,0.000431,0.128576
7643000,0.0324,0.013523,0.002678,0.000431,0.143032
7644000,0.0324,0.013523,0.002678,0.000431,0.181934
7645000,0.0324,0.013523,0.002678,0.000431,0.351997
7646000,0.0324,0.013523,0.002678,0.000431,0.034671
7647000,0.0324,0.013523,0.002678,0.000431,0.050420
7648000,0.0324,0.013523,0.002678,0.000431,0.215899
7649000,0.0324,0.013523,0.002678,0.000431,0.147733
7650000,0.0324,0.013523,0.002678,0.000431,0.102602
7651000,0.0324,0.013523,0.002678,0.000431,0.267142
7652000,0.0324,0.013523,0.002678,0.000431,0.058764
7653000,0.0324,0.013523,0.002678,0.000431,0.134570
7654000,0.0324,0.013523,0.002678,0.000431,0.246692
7655000,0.0324,0.013523,0.002678,0.000431,0.123640
7656000,0.0324,0.013523,0.002678,0.000431,0.050302
7657000,0.0324,0.013523,0.002678,0.000431,0.216722
7658000,0.0324,0.013523,0.002678,0.000431,0.079449
7659000,0.0324,0.013523,0.002678,0.000431,0.069107
7660000,0.0324,0.013523,0.002678,0.000431,0.247279
7661000,0.0324,0.013523,0.002678,0.000431,0.154550
7662000,0.0324,0.013523,0.002678,0.000431,0.121054
7663000,0.0324,0.013523,0.002678,0.000431,0.065228
7664000,0.0324,0.013523,0.002678,0.000431,0.377853
7665000,0.0324,0.013523,0.002678,0.000431,0.091554
7666000,0.0324,0.013523,0.002678,0.000431,0.314740
7667000,0.0324,0.013523,0.002678,0.000431,0.328609
7668000,0.0324,0.013523,0.002678,0.000431,0.190631
7669000,0.0324,0.013523,0.002678,0.000431,0.060762
7670000,0.0324,0.013523,0.002678,0.000431,0.255389
7671000,0.0324,0.013523,0.002678,0.000431,0.098136
7672000,0.0324,0.013523,0.002678,0.000431,0.082857
7673000,0.0324,0.013523,0.002678,0.000431,0.457302
7674000,0.0324,0.013523,0.002678,0.000431,0.266201
7675000,0.0324,0.013523,0.002678,0.000431,0.075806
7676000,0.0324,0.013523,0.002678,0.000431,0.202619
7677000,0.0324,0.013523,0.002678,0.000431,0.271020
7678000,0.0324,0.013523,0.002678,0.000431,0.174412
7679000,0.0324,0.013523,0.002678,0.000431,0.225889
7680000,0.0324,0.013523,0.002678,0.000431,0.079802
7681000,0.0324,0.013523,0.002678,0.000431,0.186047
7682000,0.0324,0.013523,0.002678,0.000431,0.065463
7683000,0.0324,0.013523,0.002678,0.000431,0.160896
7684000,0.0324,0.013523,0.002678,0.000431,0.097901
7685000,0.0324,0.013523,0.002678,0.000431,0.099311
7686000,0.0324,0.013523,0.002678,0.000431,0.098254
7687000,0.0324,0.013523,0.002678,0.000431,0.140799
7688000,0.0324,0.013523,0.002678,0.000431,0.037021
7689000,0.0324,0.013523,0.002678,0.000431,0.090849
7690000,0.0324,0.013523,0.002678,0.000431,0.135863
7691000,0.0324,0.013523,0.002678,0.000431,0.153727
7692000,0.0324,0.013523,0.002678,0.000431,0.155490
7693000,0.0324,0.013523,0.002678,0.000431,0.141739
7694000,0.0324,0.013523,0.002678,0.000431,0.081565
7695000,0.0324,0.013523,0.002678,0.000431,0.069812
7696000,0.0324,0.013523,0.002678,0.000431,0.227064
7697000,0.0324,0.013523,0.002678,0.000431,0.047716
7698000,0.0324,0.013523,0.002678,0.000431,0.169123
7699000,0.0324,0.013523,0.002678,0.000431,0.171944
7700000,0.0324,0.013523,0.002678,0.000431,0.095080
7701000,0.0324,0.013523,0.002678,0.000431,0.124932
7702000,0.0324,0.013523,0.002678,0.000431,0.129986
7703000,0.0324,0.013523,0.002678,0.000431,0.293350
7704000,0.0324,0.013523,0.002678,0.000431,0.091554
7705000,0.0324,0.013523,0.002678,0.000431,0.174294
7706000,0.0324,0.013523,0.002678,0.000431,0.163012
7707000,0.0324,0.013523,0.002678,0.000431,0.035023
7708000,0.0324,0.013523,0.002678,0.000431,0.034671
7709000,0.0324,0.013523,0.002678,0.000431,0.158663
7710000,0.0324,0.013523,0.002678,0.000431,0.097901
7711000,0.0324,0.013523,0.002678,0.000431,0.198975
7712000,0.0324,0.013523,0.002678,0.000431,0.159603
7713000,0.0324,0.013523,0.002678,0.000431,0.065346
7714000,0.0324,0.013523,0.002678,0.000431,0.087794
7715000,0.0324,0.013523,0.002678,0.000431,0.121642
7716000,0.0324,0.013523,0.002678,0.000431,0.204264
7717000,0.0324,0.013523,0.002678,0.000431,0.090027
7718000,0.0324,0.013523,0.002678,0.000431,0.104600
7719000,0.0324,0.013523,0.002678,0.000431,0.148086
7720000,0.0324,0.013523,0.002678,0.000431,0.046541
7721000,0.0324,0.013523,0.002678,0.000431,0.057941
7722000,0.0324,0.013523,0.002678,0.000431,0.164069
7723000,0.0324,0.013523,0.002678,0.000431,0.182639
7724000,0.0324,0.013523,0.002678,0.000431,0.120114
7725000,0.0324,0.013523,0.002678,0.000431,0.081094
7726000,0.0324,0.013523,0.002678,0.000431,0.077569
7727000,0.0324,0.013523,0.002678,0.000431,0.152199
7728000,0.0324,0.013523,0.002678,0.000431,0.163364
7729000,0.0324,0.013523,0.002678,0.000431,0.101662
7730000,0.0324,0.013523,0.002678,0.000431,0.208965
7731000,0.0324,0.013523,0.002678,0.000431,0.112945
7732000,0.0324,0.013523,0.002678,0.000431,0.074513
7733000,0.0324,0.013523,0.002678,0.000431,0.139506
7734000,0.0324,0.013523,0.002678,0.000431,0.136920
7735000,0.0324,0.013523,0.002678,0.000431,0.145147
7736000,0.0324,0.013523,0.002678,0.000431,0.106010
7737000,0.0324,0.013523,0.002678,0.000431,0.167478
7738000,0.0324,0.013523,0.002678,0.000431,0.162541
7739000,0.0324,0.013523,0.002678,0.000431,0.151611
7740000,0.0324,0.013523,0.002678,0.000431,0.196625
7741000,0.0324,0.013523,0.002678,0.000431,0.171591
7742000,0.0324,0.013523,0.002678,0.000431,0.100957
7743000,0.0324,0.013523,0.002678,0.000431,0.287121
7744000,0.0324,0.013523,0.002678,0.000431,0.105305
7745000,0.0324,0.013523,0.002678,0.000431,0.166537
7746000,0.0324,0.013523,0.002678,0.000431,0.179583
7747000,0.0324,0.013523,0.002678,0.000431,0.056649
7748000,0.0324,0.013523,0.002678,0.000431,0.087558
7749000,0.0324,0.013523,0.002678,0.000431,0.171239
7750000,0.0324,0.013523,0.002678,0.000431,0.276544
7751000,0.0324,0.013523,0.002678,0.000431,0.171826
7752000,0.0324,0.013523,0.002678,0.000431,0.159016
7753000,0.0324,0.013523,0.002678,0.000431,0.156900
7754000,0.0324,0.013523,0.002678,0.000431,0.110594
7755000,0.0324,0.013523,0.002678,0.000431,0.124580
7756000,0.0324,0.013523,0.002678,0.000431,0.153727
7757000,0.0324,0.013523,0.002678,0.000431,0.148673
7758000,0.0324,0.013523,0.002678,0.000431,0.156783
7759000,0.0324,0.013523,0.002678,0.000431,0.095080
7760000,0.0324,0.013523,0.002678,0.000431,0.090614
7761000,0.0324,0.013523,0.002678,0.000431,0.094963
7762000,0.0324,0.013523,0.002678,0.000431,0.091437
7763000,0.0324,0.013523,0.002678,0.000431,0.156548
7764000,0.0324,0.013523,0.002678,0.000431,0.248220
7765000,0.0324,0.013523,0.002678,0.000431,0.103660
7766000,0.0324,0.013523,0.002678,0.000431,0.087323
7767000,0.0324,0.013523,0.002678,0.000431,0.055356
7768000,0.0324,0.013523,0.002678,0.000431,0.094023
7769000,0.0324,0.013523,0.002678,0.000431,0.171944
7770000,0.0324,0.013523,0.002678,0.000431,0.147263
7771000,0.0324,0.013523,0.002678,0.000431,0.060880
7772000,0.0324,0.013523,0.002678,0.000431,0.054298
7773000,0.0324,0.013523,0.002678,0.000431,0.133159
7774000,0.0324,0.013523,0.002678,0.000431,0.170651
7775000,0.0324,0.013523,0.002678,0.000431,0.125755
7776000,0.0324,0.013523,0.002678,0.000431,0.135745
7777000,0.0324,0.013523,0.002678,0.000431,0.167595
7778000,0.0324,0.013523,0.002678,0.000431,0.091672
7779000,0.0324,0.013523,0.002678,0.000431,0.047129
7780000,0.0324,0.013523,0.002678,0.000431,0.173354
7781000,0.0324,0.013523,0.002678,0.000431,0.087088
7782000,0.0324,0.013523,0.002678,0.000431,0.201326
7783000,0.0324,0.013523,0.002678,0.000431,0.128811
7784000,0.0324,0.013523,0.002678,0.000431,0.092495
7785000,0.0324,0.013523,0.002678,0.000431,0.035376
7786000,0.0324,0.013523,0.002678,0.000431,0.115765
7787000,0.0324,0.013523,0.002678,0.000431,0.120349
7788000,0.0324,0.013523,0.002678,0.000431,0.188398
7789000,0.0324,0.013523,0.002678,0.000431,0.202384
7790000,0.0324,0.013523,0.002678,0.000431,0.165950
7791000,0.0324,0.013523,0.002678,0.000431,0.057119
7792000,0.0324,0.013523,0.002678,0.000431,0.072867
7793000,0.0324,0.013523,0.002678,0.000431,0.129634
7794000,0.0324,0.013523,0.002678,0.000431,0.095080
7795000,0.0324,0.013523,0.002678,0.000431,0.159133
7796000,0.0324,0.013523,0.002678,0.000431,0.127518
7797000,0.0324,0.013523,0.002678,0.000431,0.116353
7798000,0.0324,0.013523,0.002678,0.000431,0.050420
7799000,0.0324,0.013523,0.002678,0.000431,0.099311
7800000,0.0324,0.013523,0.002678,0.000431,0.046659
7801000,0.0324,0.013523,0.002678,0.000431,0.080389
7802000,0.0324,0.013523,0.002678,0.000431,0.214959
7803000,0.0324,0.013523,0.002678,0.000431,0.099311
7804000,0.0324,0.013523,0.002678,0.000431,0.155960
7805000,0.0324,0.013523,0.002678,0.000431,0.114943
7806000,0.0324,0.013523,0.002678,0.000431,0.173354
7807000,0.0324,0.013523,0.002678,0.000431,0.065933
7808000,0.0324,0.013523,0.002678,0.000431,0.126460
7809000,0.0324,0.013523,0.002678,0.000431,0.074043
7810000,0.0324,0.013523,0.002678,0.000431,0.066168
7811000,0.0324,0.013523,0.002678,0.000431,0.042780
7812000,0.0324,0.013523,0.002678,0.000431,0.247044
7813000,0.0324,0.013523,0.002678,0.000431,0.071340
7814000,0.0324,0.013523,0.002678,0.000431,0.068636
7815000,0.0324,0.013523,0.002678,0.000431,0.103660
7816000,0.0324,0.013523,0.002678,0.000431,0.076511
7817000,0.0324,0.013523,0.002678,0.000431,0.095668
7818000,0.0324,0.013523,0.002678,0.000431,0.058294
7819000,0.0324,0.013523,0.002678,0.000431,0.081447
7820000,0.0324,0.013523,0.002678,0.000431,0.036199
7821000,0.0324,0.013523,0.002678,0.000431,0.084503
7822000,0.0324,0.013523,0.002678,0.000431,0.050185
7823000,0.0324,0.013523,0.002678,0.000431,0.067931
7824000,0.0324,0.013523,0.002678,0.000431,0.042663
7825000,0.0324,0.013523,0.002678,0.000431,0.156783
7826000,0.0324,0.013523,0.002678,0.000431,0.058764
7827000,0.0324,0.013523,0.002678,0.000431,0.121289
7828000,0.0324,0.013523,0.002678,0.000431,0.086266
7829000,0.0324,0.013523,0.002678,0.000431,0.088146
7830000,0.0324,0.013523,0.002678,0.000431,0.082387
7831000,0.0324,0.013523,0.002678,0.000431,0.064641
7832000,0.0324,0.013523,0.002678,0.000431,0.073690
7833000,0.0324,0.013523,0.002678,0.000431,0.077569
7834000,0.0324,0.013523,0.002678,0.000431,0.177820
7835000,0.0324,0.013523,0.002678,0.000431,0.095315
7836000,0.0324,0.013523,0.002678,0.000431,0.072867
7837000,0.0324,0.013523,0.002678,0.000431,0.052418
7838000,0.0324,0.013523,0.002678,0.000431,0.063230
7839000,0.0324,0.013523,0.002678,0.000431,0.043133
7840000,0.0324,0.013523,0.002678,0.000431,0.101897
7841000,0.0324,0.013523,0.002678,0.000431,0.086853
7842000,0.0324,0.013523,0.002678,0.000431,0.115413
7843000,0.0324,0.013523,0.002678,0.000431,0.150083
7844000,0.0324,0.013523,0.002678,0.000431,0.076981
7845000,0.0324,0.013523,0.002678,0.000431,0.077569
7846000,0.0324,0.013523,0.002678,0.000431,0.115178
7847000,0.0324,0.013523,0.002678,0.000431,0.163952
7848000,0.0324,0.013523,0.002678,0.000431,0.089321
7849000,0.0324,0.013523,0.002678,0.000431,0.121877
7850000,0.0324,0.013523,0.002678,0.000431,0.093905
7851000,0.0324,0.013523,0.002678,0.000431,0.105305
7852000,0.0324,0.013523,0.002678,0.000431,0.062290
7853000,0.0324,0.013523,0.002678,0.000431,0.177115
7854000,0.0324,0.013523,0.002678,0.000431,0.114943
7855000,0.0324,0.013523,0.002678,0.000431,0.107538
7856000,0.0324,0.013523,0.002678,0.000431,0.179701
7857000,0.0324,0.013523,0.002678,0.000431,0.062995
7858000,0.0324,0.013523,0.002678,0.000431,0.066521
7859000,0.0324,0.013523,0.002678,0.000431,0.123640
7860000,0.0324,0.013523,0.002678,0.000431,0.212138
7861000,0.0324,0.013523,0.002678,0.000431,0.071105
7862000,0.0324,0.013523,0.002678,0.000431,0.059587
7863000,0.0324,0.013523,0.002678,0.000431,0.076393
7864000,0.0324,0.013523,0.002678,0.000431,0.088381
7865000,0.0324,0.013523,0.002678,0.000431,0.064053
7866000,0.0324,0.013523,0.002678,0.000431,0.073573
7867000,0.0324,0.013523,0.002678,0.000431,0.131397
7868000,0.0324,0.013523,0.002678,0.000431,0.061820
7869000,0.0324,0.013523,0.002678,0.000431,0.072162
7870000,0.0324,0.013523,0.002678,0.000431,0.080859
7871000,0.0324,0.013523,0.002678,0.000431,0.080037
7872000,0.0324,0.013523,0.002678,0.000431,0.102367
7873000,0.0324,0.013523,0.002678,0.000431,0.098606
7874000,0.0324,0.013523,0.002678,0.000431,0.142914
7875000,0.0324,0.013523,0.002678,0.000431,0.109184
7876000,0.0324,0.013523,0.002678,0.000431,0.071105
7877000,0.0324,0.013523,0.002678,0.000431,0.040195
7878000,0.0324,0.013523,0.002678,0.000431,0.097313
7879000,0.0324,0.013523,0.002678,0.000431,0.128341
7880000,0.0324,0.013523,0.002678,0.000431,0.057354
7881000,0.0324,0.013523,0.002678,0.000431,0.088616
7882000,0.0324,0.013523,0.002678,0.000431,0.086736
7883000,0.0324,0.013523,0.002678,0.000431,0.067579
7884000,0.0324,0.013523,0.002678,0.000431,0.054180
7885000,0.0324,0.013523,0.002678,0.000431,0.112122
7886000,0.0324,0.013523,0.002678,0.000431,0.138331
7887000,0.0324,0.013523,0.002678,0.000431,0.077804
7888000,0.0324,0.013523,0.002678,0.000431,0.152199
7889000,0.0324,0.013523,0.002678,0.000431,0.097901
7890000,0.0324,0.013523,0.002678,0.000431,0.046306
7891000,0.0324,0.013523,0.002678,0.000431,0.064288
7892000,0.0324,0.013523,0.002678,0.000431,0.056296
7893000,0.0324,0.013523,0.002678,0.000431,0.215664
7894000,0.0324,0.013523,0.002678,0.000431,0.068989
7895000,0.0324,0.013523,0.002678,0.000431,0.095785
7896000,0.0324,0.013523,0.002678,0.000431,0.123875
7897000,0.0324,0.013523,0.002678,0.000431,0.046894
7898000,0.0324,0.013523,0.002678,0.000431,0.077804
7899000,0.0324,0.013523,0.002678,0.000431,0.183109
7900000,0.0324,0.013523,0.002678,0.000431,0.074160
7901000,0.0324,0.013523,0.002678,0.000431,0.130809
7902000,0.0324,0.013523,0.002678,0.000431,0.054416
7903000,0.0324,0.013523,0.002678,0.000431,0.056649
7904000,0.0324,0.013523,0.002678,0.000431,0.109184
7905000,0.0324,0.013523,0.002678,0.000431,0.135863
7906000,0.0324,0.013523,0.002678,0.000431,0.075453
7907000,0.0324,0.013523,0.002678,0.000431,0.125755
7908000,0.0324,0.013523,0.002678,0.000431,0.090379
7909000,0.0324,0.013523,0.002678,0.000431,0.034906
7910000,0.0324,0.013523,0.002678,0.000431,0.057471
7911000,0.0324,0.013523,0.002678,0.000431,0.163599
7912000,0.0324,0.013523,0.002678,0.000431,0.095550
7913000,0.0324,0.013523,0.002678,0.000431,0.118468
7914000,0.0324,0.013523,0.002678,0.000431,0.043485
7915000,0.0324,0.013523,0.002678,0.000431,0.060880
7916000,0.0324,0.013523,0.002678,0.000431,0.111534
7917000,0.0324,0.013523,0.002678,0.000431,0.060409
7918000,0.0324,0.013523,0.002678,0.000431,0.121994
7919000,0.0324,0.013523,0.002678,0.000431,0.103660
7920000,0.0324,0.013523,0.002678,0.000431,0.113415
7921000,0.0324,0.013523,0.002678,0.000431,0.046424
7922000,0.0324,0.013523,0.002678,0.000431,0.072397
7923000,0.0324,0.013523,0.002678,0.000431,0.088264
7924000,0.0324,0.013523,0.002678,0.000431,0.052300
7925000,0.0324,0.013523,0.002678,0.000431,0.104718
7926000,0.0324,0.013523,0.002678,0.000431,0.096726
7927000,0.0324,0.013523,0.002678,0.000431,0.065228
7928000,0.0324,0.013523,0.002678,0.000431,0.082387
7929000,0.0324,0.013523,0.002678,0.000431,0.129046
7930000,0.0324,0.013523,0.002678,0.000431,0.068754
7931000,0.0324,0.013523,0.002678,0.000431,0.087676
7932000,0.0324,0.013523,0.002678,0.000431,0.176997
7933000,0.0324,0.013523,0.002678,0.000431,0.176057
7934000,0.0324,0.013523,0.002678,0.000431,0.055356
7935000,0.0324,0.013523,0.002678,0.000431,0.060057
7936000,0.0324,0.013523,0.002678,0.000431,0.037491
7937000,0.0324,0.013523,0.002678,0.000431,0.163599
7938000,0.0324,0.013523,0.002678,0.000431,0.176175
7939000,0.0324,0.013523,0.002678,0.000431,0.086736
7940000,0.0324,0.013523,0.002678,0.000431,0.053593
7941000,0.0324,0.013523,0.002678,0.000431,0.067931
7942000,0.0324,0.013523,0.002678,0.000431,0.055826
7943000,0.0324,0.013523,0.002678,0.000431,0.051712
7944000,0.0324,0.013523,0.002678,0.000431,0.172061
7945000,0.0324,0.013523,0.002678,0.000431,0.180053
7946000,0.0324,0.013523,0.002678,0.000431,0.066991
7947000,0.0324,0.013523,0.002678,0.000431,0.066756
7948000,0.0324,0.013523,0.002678,0.000431,0.066991
7949000,0.0324,0.013523,0.002678,0.000431,0.085678
7950000,0.0324,0.013523,0.002678,0.000431,0.144795
7951000,0.0324,0.013523,0.002678,0.000431,0.153257
7952000,0.0324,0.013523,0.002678,0.000431,0.106128
7953000,0.0324,0.013523,0.002678,0.000431,0.039489
7954000,0.0324,0.013523,0.002678,0.000431,0.045366
7955000,0.0324,0.013523,0.002678,0.000431,0.043720
7956000,0.0324,0.013523,0.002678,0.000431,0.052300
7957000,0.0324,0.013523,0.002678,0.000431,0.134570
7958000,0.0324,0.013523,0.002678,0.000431,0.093905
7959000,0.0324,0.013523,0.002678,0.000431,0.107421
7960000,0.0324,0.013523,0.002678,0.000431,0.096256
7961000,0.0324,0.013523,0.002678,0.000431,0.043720
7962000,0.0324,0.013523,0.002678,0.000431,0.036316
7963000,0.0324,0.013523,0.002678,0.000431,0.073573
7964000,0.0324,0.013523,0.002678,0.000431,0.118116
7965000,0.0324,0.013523,0.002678,0.000431,0.095080
7966000,0.0324,0.013523,0.002678,0.000431,0.057001
7967000,0.0324,0.013523,0.002678,0.000431,0.071340
7968000,0.0324,0.013523,0.002678,0.000431,0.035964
7969000,0.0324,0.013523,0.002678,0.000431,0.036434
7970000,0.0324,0.013523,0.002678,0.000431,0.101427
7971000,0.0324,0.013523,0.002678,0.000431,0.134570
7972000,0.0324,0.013523,0.002678,0.000431,0.108831
7973000,0.0324,0.013523,0.002678,0.000431,0.111182
7974000,0.0324,0.013523,0.002678,0.000431,0.042075
7975000,0.0324,0.013523,0.002678,0.000431,0.060174
7976000,0.0324,0.013523,0.002678,0.000431,0.056531
7977000,0.0324,0.013523,0.002678,0.000431,0.105423
7978000,0.0324,0.013523,0.002678,0.000431,0.045601
7979000,0.0324,0.013523,0.002678,0.000431,0.061585
7980000,0.0324,0.013523,0.002678,0.000431,0.052183
7981000,0.0324,0.013523,0.002678,0.000431,0.088969
7982000,0.0324,0.013523,0.002678,0.000431,0.109184
7983000,0.0324,0.013523,0.002678,0.000431,0.104012
7984000,0.0324,0.013523,0.002678,0.000431,0.141151
7985000,0.0324,0.013523,0.002678,0.000431,0.229533
7986000,0.0324,0.013523,0.002678,0.000431,0.092142
7987000,0.0324,0.013523,0.002678,0.000431,0.061232
7988000,0.0324,0.013523,0.002678,0.000431,0.094140
7989000,0.0324,0.013523,0.002678,0.000431,0.094493
7990000,0.0324,0.013523,0.002678,0.000431,0.048422
7991000,0.0324,0.013523,0.002678,0.000431,0.094023
7992000,0.0324,0.013523,0.002678,0.000431,0.050655
7993000,0.0324,0.013523,0.002678,0.000431,0.040900
7994000,0.0324,0.013523,0.002678,0.000431,0.083327
7995000,0.0324,0.013523,0.002678,0.000431,0.103190
7996000,0.0324,0.013523,0.002678,0.000431,0.119174
7997000,0.0324,0.013523,0.002678,0.000431,0.205087
7998000,0.0324,0.013523,0.002678,0.000431,0.060997
7999000,0.0324,0.013523,0.002678,0.000431,0.063935
