Cycle,Area(mm^2),PeakDynamic(W),SubthresholdLeakage(W),GateLeakage(W),RunTimeDynamic(W)
18000000,0.0324,0.013523,0.002678,0.000431,0.107421
18001000,0.0324,0.013523,0.002678,0.000431,0.116353
18002000,0.0324,0.013523,0.002678,0.000431,0.056178
18003000,0.0324,0.013523,0.002678,0.000431,0.139976
18004000,0.0324,0.013523,0.002678,0.000431,0.090497
18005000,0.0324,0.013523,0.002678,0.000431,0.100839
18006000,0.0324,0.013523,0.002678,0.000431,0.066638
18007000,0.0324,0.013523,0.002678,0.000431,0.106833
18008000,0.0324,0.013523,0.002678,0.000431,0.185577
18009000,0.0324,0.013523,0.002678,0.000431,0.137861
18010000,0.0324,0.013523,0.002678,0.000431,0.215547
18011000,0.0324,0.013523,0.002678,0.000431,0.054063
18012000,0.0324,0.013523,0.002678,0.000431,0.118586
18013000,0.0324,0.013523,0.002678,0.000431,0.052888
18014000,0.0324,0.013523,0.002678,0.000431,0.169358
18015000,0.0324,0.013523,0.002678,0.000431,0.086618
18016000,0.0324,0.013523,0.002678,0.000431,0.074278
18017000,0.0324,0.013523,0.002678,0.000431,0.106245
18018000,0.0324,0.013523,0.002678,0.000431,0.151846
18019000,0.0324,0.013523,0.002678,0.000431,0.155020
18020000,0.0324,0.013523,0.002678,0.000431,0.130926
18021000,0.0324,0.013523,0.002678,0.000431,0.089792
18022000,0.0324,0.013523,0.002678,0.000431,0.079214
18023000,0.0324,0.013523,0.002678,0.000431,0.061467
18024000,0.0324,0.013523,0.002678,0.000431,0.059117
18025000,0.0324,0.013523,0.002678,0.000431,0.056531
18026000,0.0324,0.013523,0.002678,0.000431,0.063700
18027000,0.0324,0.013523,0.002678,0.000431,0.101427
18028000,0.0324,0.013523,0.002678,0.000431,0.041370
18029000,0.0324,0.013523,0.002678,0.000431,0.040430
18030000,0.0324,0.013523,0.002678,0.000431,0.088146
18031000,0.0324,0.013523,0.002678,0.000431,0.100839
18032000,0.0324,0.013523,0.002678,0.000431,0.066286
18033000,0.0324,0.013523,0.002678,0.000431,0.083915
18034000,0.0324,0.013523,0.002678,0.000431,0.315328
18035000,0.0324,0.013523,0.002678,0.000431,0.088499
18036000,0.0324,0.013523,0.002678,0.000431,0.147145
18037000,0.0324,0.013523,0.002678,0.000431,0.085208
18038000,0.0324,0.013523,0.002678,0.000431,0.204146
18039000,0.0324,0.013523,0.002678,0.000431,0.108831
18040000,0.0324,0.013523,0.002678,0.000431,0.190983
18041000,0.0324,0.013523,0.002678,0.000431,0.130691
18042000,0.0324,0.013523,0.002678,0.000431,0.064288
18043000,0.0324,0.013523,0.002678,0.000431,0.102955
18044000,0.0324,0.013523,0.002678,0.000431,0.131867
18045000,0.0324,0.013523,0.002678,0.000431,0.099076
18046000,0.0324,0.013523,0.002678,0.000431,0.118939
18047000,0.0324,0.013523,0.002678,0.000431,0.163834
18048000,0.0324,0.013523,0.002678,0.000431,0.094140
18049000,0.0324,0.013523,0.002678,0.000431,0.214136
18050000,0.0324,0.013523,0.002678,0.000431,0.130691
18051000,0.0324,0.013523,0.002678,0.000431,0.049009
18052000,0.0324,0.013523,0.002678,0.000431,0.071340
18053000,0.0324,0.013523,0.002678,0.000431,0.180641
18054000,0.0324,0.013523,0.002678,0.000431,0.090379
18055000,0.0324,0.013523,0.002678,0.000431,0.090967
18056000,0.0324,0.013523,0.002678,0.000431,0.113885
18057000,0.0324,0.013523,0.002678,0.000431,0.174882
18058000,0.0324,0.013523,0.002678,0.000431,0.037727
18059000,0.0324,0.013523,0.002678,0.000431,0.148673
18060000,0.0324,0.013523,0.002678,0.000431,0.118586
18061000,0.0324,0.013523,0.002678,0.000431,0.075336
18062000,0.0324,0.013523,0.002678,0.000431,0.240698
18063000,0.0324,0.013523,0.002678,0.000431,0.152081
18064000,0.0324,0.013523,0.002678,0.000431,0.123522
18065000,0.0324,0.013523,0.002678,0.000431,0.104953
18066000,0.0324,0.013523,0.002678,0.000431,0.173001
18067000,0.0324,0.013523,0.002678,0.000431,0.097666
18068000,0.0324,0.013523,0.002678,0.000431,0.067814
18069000,0.0324,0.013523,0.002678,0.000431,0.142679
18070000,0.0324,0.013523,0.002678,0.000431,0.080742
18071000,0.0324,0.013523,0.002678,0.000431,0.063230
18072000,0.0324,0.013523,0.002678,0.000431,0.092495
18073000,0.0324,0.013523,0.002678,0.000431,0.154432
18074000,0.0324,0.013523,0.002678,0.000431,0.039254
18075000,0.0324,0.013523,0.002678,0.000431,0.118703
18076000,0.0324,0.013523,0.002678,0.000431,0.057941
18077000,0.0324,0.013523,0.002678,0.000431,0.119996
18078000,0.0324,0.013523,0.002678,0.000431,0.050772
18079000,0.0324,0.013523,0.002678,0.000431,0.217075
18080000,0.0324,0.013523,0.002678,0.000431,0.071105
18081000,0.0324,0.013523,0.002678,0.000431,0.092025
18082000,0.0324,0.013523,0.002678,0.000431,0.065346
18083000,0.0324,0.013523,0.002678,0.000431,0.232588
18084000,0.0324,0.013523,0.002678,0.000431,0.193099
18085000,0.0324,0.013523,0.002678,0.000431,0.191571
18086000,0.0324,0.013523,0.002678,0.000431,0.060174
18087000,0.0324,0.013523,0.002678,0.000431,0.041723
18088000,0.0324,0.013523,0.002678,0.000431,0.112710
18089000,0.0324,0.013523,0.002678,0.000431,0.120349
18090000,0.0324,0.013523,0.002678,0.000431,0.094258
18091000,0.0324,0.013523,0.002678,0.000431,0.071692
18092000,0.0324,0.013523,0.002678,0.000431,0.128928
18093000,0.0324,0.013523,0.002678,0.000431,0.134335
18094000,0.0324,0.013523,0.002678,0.000431,0.073455
18095000,0.0324,0.013523,0.002678,0.000431,0.103777
18096000,0.0324,0.013523,0.002678,0.000431,0.141621
18097000,0.0324,0.013523,0.002678,0.000431,0.064876
18098000,0.0324,0.013523,0.002678,0.000431,0.211668
18099000,0.0324,0.013523,0.002678,0.000431,0.201913
18100000,0.0324,0.013523,0.002678,0.000431,0.068166
18101000,0.0324,0.013523,0.002678,0.000431,0.133747
18102000,0.0324,0.013523,0.002678,0.000431,0.162424
18103000,0.0324,0.013523,0.002678,0.000431,0.060880
18104000,0.0324,0.013523,0.002678,0.000431,0.052770
18105000,0.0324,0.013523,0.002678,0.000431,0.115530
18106000,0.0324,0.013523,0.002678,0.000431,0.079919
18107000,0.0324,0.013523,0.002678,0.000431,0.125403
18108000,0.0324,0.013523,0.002678,0.000431,0.152317
18109000,0.0324,0.013523,0.002678,0.000431,0.192864
18110000,0.0324,0.013523,0.002678,0.000431,0.041605
18111000,0.0324,0.013523,0.002678,0.000431,0.208730
18112000,0.0324,0.013523,0.002678,0.000431,0.145265
18113000,0.0324,0.013523,0.002678,0.000431,0.038667
18114000,0.0324,0.013523,0.002678,0.000431,0.123287
18115000,0.0324,0.013523,0.002678,0.000431,0.119761
18116000,0.0324,0.013523,0.002678,0.000431,0.132689
18117000,0.0324,0.013523,0.002678,0.000431,0.062055
18118000,0.0324,0.013523,0.002678,0.000431,0.280775
18119000,0.0324,0.013523,0.002678,0.000431,0.126578
18120000,0.0324,0.013523,0.002678,0.000431,0.094258
18121000,0.0324,0.013523,0.002678,0.000431,0.125638
18122000,0.0324,0.013523,0.002678,0.000431,0.099311
18123000,0.0324,0.013523,0.002678,0.000431,0.142797
18124000,0.0324,0.013523,0.002678,0.000431,0.096726
18125000,0.0324,0.013523,0.002678,0.000431,0.102132
18126000,0.0324,0.013523,0.002678,0.000431,0.062407
18127000,0.0324,0.013523,0.002678,0.000431,0.228005
18128000,0.0324,0.013523,0.002678,0.000431,0.135157
18129000,0.0324,0.013523,0.002678,0.000431,0.206850
18130000,0.0324,0.013523,0.002678,0.000431,0.064170
18131000,0.0324,0.013523,0.002678,0.000431,0.055003
18132000,0.0324,0.013523,0.002678,0.000431,0.125638
18133000,0.0324,0.013523,0.002678,0.000431,0.184284
18134000,0.0324,0.013523,0.002678,0.000431,0.163364
18135000,0.0324,0.013523,0.002678,0.000431,0.154902
18136000,0.0324,0.013523,0.002678,0.000431,0.132924
18137000,0.0324,0.013523,0.002678,0.000431,0.080624
18138000,0.0324,0.013523,0.002678,0.000431,0.072867
18139000,0.0324,0.013523,0.002678,0.000431,0.109419
18140000,0.0324,0.013523,0.002678,0.000431,0.094610
18141000,0.0324,0.013523,0.002678,0.000431,0.110594
18142000,0.0324,0.013523,0.002678,0.000431,0.182756
18143000,0.0324,0.013523,0.002678,0.000431,0.049127
18144000,0.0324,0.013523,0.002678,0.000431,0.124345
18145000,0.0324,0.013523,0.002678,0.000431,0.075453
18146000,0.0324,0.013523,0.002678,0.000431,0.104247
18147000,0.0324,0.013523,0.002678,0.000431,0.237054
18148000,0.0324,0.013523,0.002678,0.000431,0.101074
18149000,0.0324,0.013523,0.002678,0.000431,0.178643
18150000,0.0324,0.013523,0.002678,0.000431,0.091907
18151000,0.0324,0.013523,0.002678,0.000431,0.141739
18152000,0.0324,0.013523,0.002678,0.000431,0.053123
18153000,0.0324,0.013523,0.002678,0.000431,0.076276
18154000,0.0324,0.013523,0.002678,0.000431,0.066521
18155000,0.0324,0.013523,0.002678,0.000431,0.143149
18156000,0.0324,0.013523,0.002678,0.000431,0.093435
18157000,0.0324,0.013523,0.002678,0.000431,0.251745
18158000,0.0324,0.013523,0.002678,0.000431,0.107891
18159000,0.0324,0.013523,0.002678,0.000431,0.200738
18160000,0.0324,0.013523,0.002678,0.000431,0.122347
18161000,0.0324,0.013523,0.002678,0.000431,0.111534
18162000,0.0324,0.013523,0.002678,0.000431,0.094493
18163000,0.0324,0.013523,0.002678,0.000431,0.253391
18164000,0.0324,0.013523,0.002678,0.000431,0.114237
18165000,0.0324,0.013523,0.002678,0.000431,0.098019
18166000,0.0324,0.013523,0.002678,0.000431,0.084738
18167000,0.0324,0.013523,0.002678,0.000431,0.087206
18168000,0.0324,0.013523,0.002678,0.000431,0.159251
18169000,0.0324,0.013523,0.002678,0.000431,0.041605
18170000,0.0324,0.013523,0.002678,0.000431,0.196037
18171000,0.0324,0.013523,0.002678,0.000431,0.112827
18172000,0.0324,0.013523,0.002678,0.000431,0.086501
18173000,0.0324,0.013523,0.002678,0.000431,0.155020
18174000,0.0324,0.013523,0.002678,0.000431,0.111182
18175000,0.0324,0.013523,0.002678,0.000431,0.186870
18176000,0.0324,0.013523,0.002678,0.000431,0.129281
18177000,0.0324,0.013523,0.002678,0.000431,0.063113
18178000,0.0324,0.013523,0.002678,0.000431,0.117763
18179000,0.0324,0.013523,0.002678,0.000431,0.147733
18180000,0.0324,0.013523,0.002678,0.000431,0.161366
18181000,0.0324,0.013523,0.002678,0.000431,0.151376
18182000,0.0324,0.013523,0.002678,0.000431,0.077921
18183000,0.0324,0.013523,0.002678,0.000431,0.282185
18184000,0.0324,0.013523,0.002678,0.000431,0.112945
18185000,0.0324,0.013523,0.002678,0.000431,0.060292
18186000,0.0324,0.013523,0.002678,0.000431,0.117411
18187000,0.0324,0.013523,0.002678,0.000431,0.135863
18188000,0.0324,0.013523,0.002678,0.000431,0.061467
18189000,0.0324,0.013523,0.002678,0.000431,0.057589
18190000,0.0324,0.013523,0.002678,0.000431,0.128223
18191000,0.0324,0.013523,0.002678,0.000431,0.194862
18192000,0.0324,0.013523,0.002678,0.000431,0.178643
18193000,0.0324,0.013523,0.002678,0.000431,0.089439
18194000,0.0324,0.013523,0.002678,0.000431,0.071692
18195000,0.0324,0.013523,0.002678,0.000431,0.120584
18196000,0.0324,0.013523,0.002678,0.000431,0.146440
18197000,0.0324,0.013523,0.002678,0.000431,0.149848
18198000,0.0324,0.013523,0.002678,0.000431,0.131984
18199000,0.0324,0.013523,0.002678,0.000431,0.152552
18200000,0.0324,0.013523,0.002678,0.000431,0.122699
18201000,0.0324,0.013523,0.002678,0.000431,0.121054
18202000,0.0324,0.013523,0.002678,0.000431,0.107186
18203000,0.0324,0.013523,0.002678,0.000431,0.049832
18204000,0.0324,0.013523,0.002678,0.000431,0.064053
18205000,0.0324,0.013523,0.002678,0.000431,0.123052
18206000,0.0324,0.013523,0.002678,0.000431,0.104600
18207000,0.0324,0.013523,0.002678,0.000431,0.137508
18208000,0.0324,0.013523,0.002678,0.000431,0.170768
18209000,0.0324,0.013523,0.002678,0.000431,0.168183
18210000,0.0324,0.013523,0.002678,0.000431,0.094023
18211000,0.0324,0.013523,0.002678,0.000431,0.034083
18212000,0.0324,0.013523,0.002678,0.000431,0.094023
18213000,0.0324,0.013523,0.002678,0.000431,0.244459
18214000,0.0324,0.013523,0.002678,0.000431,0.244694
18215000,0.0324,0.013523,0.002678,0.000431,0.263616
18216000,0.0324,0.013523,0.002678,0.000431,0.089674
18217000,0.0324,0.013523,0.002678,0.000431,0.169241
18218000,0.0324,0.013523,0.002678,0.000431,0.065463
18219000,0.0324,0.013523,0.002678,0.000431,0.122347
18220000,0.0324,0.013523,0.002678,0.000431,0.100604
18221000,0.0324,0.013523,0.002678,0.000431,0.110124
18222000,0.0324,0.013523,0.002678,0.000431,0.146558
18223000,0.0324,0.013523,0.002678,0.000431,0.048657
18224000,0.0324,0.013523,0.002678,0.000431,0.041487
18225000,0.0324,0.013523,0.002678,0.000431,0.225889
18226000,0.0324,0.013523,0.002678,0.000431,0.187928
18227000,0.0324,0.013523,0.002678,0.000431,0.101309
18228000,0.0324,0.013523,0.002678,0.000431,0.150906
18229000,0.0324,0.013523,0.002678,0.000431,0.064758
18230000,0.0324,0.013523,0.002678,0.000431,0.097196
18231000,0.0324,0.013523,0.002678,0.000431,0.139388
18232000,0.0324,0.013523,0.002678,0.000431,0.056649
18233000,0.0324,0.013523,0.002678,0.000431,0.064170
18234000,0.0324,0.013523,0.002678,0.000431,0.082387
18235000,0.0324,0.013523,0.002678,0.000431,0.144677
18236000,0.0324,0.013523,0.002678,0.000431,0.206144
18237000,0.0324,0.013523,0.002678,0.000431,0.065698
18238000,0.0324,0.013523,0.002678,0.000431,0.343535
18239000,0.0324,0.013523,0.002678,0.000431,0.094258
18240000,0.0324,0.013523,0.002678,0.000431,0.075453
18241000,0.0324,0.013523,0.002678,0.000431,0.326963
18242000,0.0324,0.013523,0.002678,0.000431,0.082505
18243000,0.0324,0.013523,0.002678,0.000431,0.049009
18244000,0.0324,0.013523,0.002678,0.000431,0.135275
18245000,0.0324,0.013523,0.002678,0.000431,0.084738
18246000,0.0324,0.013523,0.002678,0.000431,0.096021
18247000,0.0324,0.013523,0.002678,0.000431,0.082622
18248000,0.0324,0.013523,0.002678,0.000431,0.238465
18249000,0.0324,0.013523,0.002678,0.000431,0.244811
18250000,0.0324,0.013523,0.002678,0.000431,0.077098
18251000,0.0324,0.013523,0.002678,0.000431,0.221893
18252000,0.0324,0.013523,0.002678,0.000431,0.078391
18253000,0.0324,0.013523,0.002678,0.000431,0.053240
18254000,0.0324,0.013523,0.002678,0.000431,0.181581
18255000,0.0324,0.013523,0.002678,0.000431,0.109889
18256000,0.0324,0.013523,0.002678,0.000431,0.087441
18257000,0.0324,0.013523,0.002678,0.000431,0.114237
18258000,0.0324,0.013523,0.002678,0.000431,0.143737
18259000,0.0324,0.013523,0.002678,0.000431,0.150671
18260000,0.0324,0.013523,0.002678,0.000431,0.067931
18261000,0.0324,0.013523,0.002678,0.000431,0.056649
18262000,0.0324,0.013523,0.002678,0.000431,0.139153
18263000,0.0324,0.013523,0.002678,0.000431,0.116353
18264000,0.0324,0.013523,0.002678,0.000431,0.150319
18265000,0.0324,0.013523,0.002678,0.000431,0.151259
18266000,0.0324,0.013523,0.002678,0.000431,0.131632
18267000,0.0324,0.013523,0.002678,0.000431,0.179936
18268000,0.0324,0.013523,0.002678,0.000431,0.178878
18269000,0.0324,0.013523,0.002678,0.000431,0.082505
18270000,0.0324,0.013523,0.002678,0.000431,0.100722
18271000,0.0324,0.013523,0.002678,0.000431,0.071222
18272000,0.0324,0.013523,0.002678,0.000431,0.188398
18273000,0.0324,0.013523,0.002678,0.000431,0.112357
18274000,0.0324,0.013523,0.002678,0.000431,0.124697
18275000,0.0324,0.013523,0.002678,0.000431,0.049127
18276000,0.0324,0.013523,0.002678,0.000431,0.282773
18277000,0.0324,0.013523,0.002678,0.000431,0.227182
18278000,0.0324,0.013523,0.002678,0.000431,0.085325
18279000,0.0324,0.013523,0.002678,0.000431,0.114355
18280000,0.0324,0.013523,0.002678,0.000431,0.144325
18281000,0.0324,0.013523,0.002678,0.000431,0.090732
18282000,0.0324,0.013523,0.002678,0.000431,0.306278
18283000,0.0324,0.013523,0.002678,0.000431,0.192159
18284000,0.0324,0.013523,0.002678,0.000431,0.127048
18285000,0.0324,0.013523,0.002678,0.000431,0.242696
18286000,0.0324,0.013523,0.002678,0.000431,0.253861
18287000,0.0324,0.013523,0.002678,0.000431,0.189338
18288000,0.0324,0.013523,0.002678,0.000431,0.041605
18289000,0.0324,0.013523,0.002678,0.000431,0.064758
18290000,0.0324,0.013523,0.002678,0.000431,0.307806
18291000,0.0324,0.013523,0.002678,0.000431,0.136450
18292000,0.0324,0.013523,0.002678,0.000431,0.137743
18293000,0.0324,0.013523,0.002678,0.000431,0.154079
18294000,0.0324,0.013523,0.002678,0.000431,0.059352
18295000,0.0324,0.013523,0.002678,0.000431,0.209670
18296000,0.0324,0.013523,0.002678,0.000431,0.175940
18297000,0.0324,0.013523,0.002678,0.000431,0.157253
18298000,0.0324,0.013523,0.002678,0.000431,0.165362
18299000,0.0324,0.013523,0.002678,0.000431,0.252568
18300000,0.0324,0.013523,0.002678,0.000431,0.086266
18301000,0.0324,0.013523,0.002678,0.000431,0.131514
18302000,0.0324,0.013523,0.002678,0.000431,0.178173
18303000,0.0324,0.013523,0.002678,0.000431,0.159368
18304000,0.0324,0.013523,0.002678,0.000431,0.125168
18305000,0.0324,0.013523,0.002678,0.000431,0.144325
18306000,0.0324,0.013523,0.002678,0.000431,0.121289
18307000,0.0324,0.013523,0.002678,0.000431,0.088381
18308000,0.0324,0.013523,0.002678,0.000431,0.166420
18309000,0.0324,0.013523,0.002678,0.000431,0.127165
18310000,0.0324,0.013523,0.002678,0.000431,0.153962
18311000,0.0324,0.013523,0.002678,0.000431,0.093905
18312000,0.0324,0.013523,0.002678,0.000431,0.219308
18313000,0.0324,0.013523,0.002678,0.000431,0.126930
18314000,0.0324,0.013523,0.002678,0.000431,0.064053
18315000,0.0324,0.013523,0.002678,0.000431,0.080154
18316000,0.0324,0.013523,0.002678,0.000431,0.141857
18317000,0.0324,0.013523,0.002678,0.000431,0.110124
18318000,0.0324,0.013523,0.002678,0.000431,0.052183
18319000,0.0324,0.013523,0.002678,0.000431,0.165127
18320000,0.0324,0.013523,0.002678,0.000431,0.052770
18321000,0.0324,0.013523,0.002678,0.000431,0.082152
18322000,0.0324,0.013523,0.002678,0.000431,0.140211
18323000,0.0324,0.013523,0.002678,0.000431,0.108714
18324000,0.0324,0.013523,0.002678,0.000431,0.210846
18325000,0.0324,0.013523,0.002678,0.000431,0.278072
18326000,0.0324,0.013523,0.002678,0.000431,0.053240
18327000,0.0324,0.013523,0.002678,0.000431,0.071457
18328000,0.0324,0.013523,0.002678,0.000431,0.101779
18329000,0.0324,0.013523,0.002678,0.000431,0.107773
18330000,0.0324,0.013523,0.002678,0.000431,0.162071
18331000,0.0324,0.013523,0.002678,0.000431,0.128458
18332000,0.0324,0.013523,0.002678,0.000431,0.241873
18333000,0.0324,0.013523,0.002678,0.000431,0.093787
18334000,0.0324,0.013523,0.002678,0.000431,0.124227
18335000,0.0324,0.013523,0.002678,0.000431,0.146675
18336000,0.0324,0.013523,0.002678,0.000431,0.067931
18337000,0.0324,0.013523,0.002678,0.000431,0.113062
18338000,0.0324,0.013523,0.002678,0.000431,0.278659
18339000,0.0324,0.013523,0.002678,0.000431,0.213784
18340000,0.0324,0.013523,0.002678,0.000431,0.108126
18341000,0.0324,0.013523,0.002678,0.000431,0.166890
18342000,0.0324,0.013523,0.002678,0.000431,0.131514
18343000,0.0324,0.013523,0.002678,0.000431,0.154079
18344000,0.0324,0.013523,0.002678,0.000431,0.076746
18345000,0.0324,0.013523,0.002678,0.000431,0.201091
18346000,0.0324,0.013523,0.002678,0.000431,0.076276
18347000,0.0324,0.013523,0.002678,0.000431,0.120231
18348000,0.0324,0.013523,0.002678,0.000431,0.071692
18349000,0.0324,0.013523,0.002678,0.000431,0.124110
18350000,0.0324,0.013523,0.002678,0.000431,0.065111
18351000,0.0324,0.013523,0.002678,0.000431,0.188515
18352000,0.0324,0.013523,0.002678,0.000431,0.231766
18353000,0.0324,0.013523,0.002678,0.000431,0.073338
18354000,0.0324,0.013523,0.002678,0.000431,0.222481
18355000,0.0324,0.013523,0.002678,0.000431,0.191453
18356000,0.0324,0.013523,0.002678,0.000431,0.084503
18357000,0.0324,0.013523,0.002678,0.000431,0.067931
18358000,0.0324,0.013523,0.002678,0.000431,0.127988
18359000,0.0324,0.013523,0.002678,0.000431,0.146558
18360000,0.0324,0.013523,0.002678,0.000431,0.230943
18361000,0.0324,0.013523,0.002678,0.000431,0.182051
18362000,0.0324,0.013523,0.002678,0.000431,0.086501
18363000,0.0324,0.013523,0.002678,0.000431,0.125520
18364000,0.0324,0.013523,0.002678,0.000431,0.190513
18365000,0.0324,0.013523,0.002678,0.000431,0.063935
18366000,0.0324,0.013523,0.002678,0.000431,0.120936
18367000,0.0324,0.013523,0.002678,0.000431,0.298992
18368000,0.0324,0.013523,0.002678,0.000431,0.094493
18369000,0.0324,0.013523,0.002678,0.000431,0.102367
18370000,0.0324,0.013523,0.002678,0.000431,0.153257
18371000,0.0324,0.013523,0.002678,0.000431,0.313683
18372000,0.0324,0.013523,0.002678,0.000431,0.123522
18373000,0.0324,0.013523,0.002678,0.000431,0.057589
18374000,0.0324,0.013523,0.002678,0.000431,0.130221
18375000,0.0324,0.013523,0.002678,0.000431,0.150554
18376000,0.0324,0.013523,0.002678,0.000431,0.224361
18377000,0.0324,0.013523,0.002678,0.000431,0.129751
18378000,0.0324,0.013523,0.002678,0.000431,0.101309
18379000,0.0324,0.013523,0.002678,0.000431,0.150906
18380000,0.0324,0.013523,0.002678,0.000431,0.210493
18381000,0.0324,0.013523,0.002678,0.000431,0.094375
18382000,0.0324,0.013523,0.002678,0.000431,0.183814
18383000,0.0324,0.013523,0.002678,0.000431,0.327316
18384000,0.0324,0.013523,0.002678,0.000431,0.173589
18385000,0.0324,0.013523,0.002678,0.000431,0.176880
18386000,0.0324,0.013523,0.002678,0.000431,0.176057
18387000,0.0324,0.013523,0.002678,0.000431,0.129163
18388000,0.0324,0.013523,0.002678,0.000431,0.112945
18389000,0.0324,0.013523,0.002678,0.000431,0.139976
18390000,0.0324,0.013523,0.002678,0.000431,0.272783
18391000,0.0324,0.013523,0.002678,0.000431,0.074748
18392000,0.0324,0.013523,0.002678,0.000431,0.152199
18393000,0.0324,0.013523,0.002678,0.000431,0.193099
18394000,0.0324,0.013523,0.002678,0.000431,0.255859
18395000,0.0324,0.013523,0.002678,0.000431,0.151376
18396000,0.0324,0.013523,0.002678,0.000431,0.244811
18397000,0.0324,0.013523,0.002678,0.000431,0.142797
18398000,0.0324,0.013523,0.002678,0.000431,0.072632
18399000,0.0324,0.013523,0.002678,0.000431,0.150789
18400000,0.0324,0.013523,0.002678,0.000431,0.141621
18401000,0.0324,0.013523,0.002678,0.000431,0.102014
18402000,0.0324,0.013523,0.002678,0.000431,0.069224
18403000,0.0324,0.013523,0.002678,0.000431,0.115295
18404000,0.0324,0.013523,0.002678,0.000431,0.078626
18405000,0.0324,0.013523,0.002678,0.000431,0.133394
18406000,0.0324,0.013523,0.002678,0.000431,0.266319
18407000,0.0324,0.013523,0.002678,0.000431,0.097666
18408000,0.0324,0.013523,0.002678,0.000431,0.116588
18409000,0.0324,0.013523,0.002678,0.000431,0.239640
18410000,0.0324,0.013523,0.002678,0.000431,0.200503
18411000,0.0324,0.013523,0.002678,0.000431,0.112592
18412000,0.0324,0.013523,0.002678,0.000431,0.077686
18413000,0.0324,0.013523,0.002678,0.000431,0.057589
18414000,0.0324,0.013523,0.002678,0.000431,0.131279
18415000,0.0324,0.013523,0.002678,0.000431,0.124345
18416000,0.0324,0.013523,0.002678,0.000431,0.117058
18417000,0.0324,0.013523,0.002678,0.000431,0.097666
18418000,0.0324,0.013523,0.002678,0.000431,0.190161
18419000,0.0324,0.013523,0.002678,0.000431,0.261500
18420000,0.0324,0.013523,0.002678,0.000431,0.095315
18421000,0.0324,0.013523,0.002678,0.000431,0.099899
18422000,0.0324,0.013523,0.002678,0.000431,0.231178
18423000,0.0324,0.013523,0.002678,0.000431,0.164539
18424000,0.0324,0.013523,0.002678,0.000431,0.146910
18425000,0.0324,0.013523,0.002678,0.000431,0.229415
18426000,0.0324,0.013523,0.002678,0.000431,0.114002
18427000,0.0324,0.013523,0.002678,0.000431,0.269845
18428000,0.0324,0.013523,0.002678,0.000431,0.286886
18429000,0.0324,0.013523,0.002678,0.000431,0.149496
18430000,0.0324,0.013523,0.002678,0.000431,0.102955
18431000,0.0324,0.013523,0.002678,0.000431,0.083092
18432000,0.0324,0.013523,0.002678,0.000431,0.112827
18433000,0.0324,0.013523,0.002678,0.000431,0.186752
18434000,0.0324,0.013523,0.002678,0.000431,0.154902
18435000,0.0324,0.013523,0.002678,0.000431,0.198623
18436000,0.0324,0.013523,0.002678,0.000431,0.110359
18437000,0.0324,0.013523,0.002678,0.000431,0.037609
18438000,0.0324,0.013523,0.002678,0.000431,0.097078
18439000,0.0324,0.013523,0.002678,0.000431,0.243989
18440000,0.0324,0.013523,0.002678,0.000431,0.136568
18441000,0.0324,0.013523,0.002678,0.000431,0.180523
18442000,0.0324,0.013523,0.002678,0.000431,0.172766
18443000,0.0324,0.013523,0.002678,0.000431,0.128106
18444000,0.0324,0.013523,0.002678,0.000431,0.177585
18445000,0.0324,0.013523,0.002678,0.000431,0.164892
18446000,0.0324,0.013523,0.002678,0.000431,0.211903
18447000,0.0324,0.013523,0.002678,0.000431,0.148673
18448000,0.0324,0.013523,0.002678,0.000431,0.210728
18449000,0.0324,0.013523,0.002678,0.000431,0.076276
18450000,0.0324,0.013523,0.002678,0.000431,0.075453
18451000,0.0324,0.013523,0.002678,0.000431,0.172414
18452000,0.0324,0.013523,0.002678,0.000431,0.129869
18453000,0.0324,0.013523,0.002678,0.000431,0.205557
18454000,0.0324,0.013523,0.002678,0.000431,0.223891
18455000,0.0324,0.013523,0.002678,0.000431,0.104012
18456000,0.0324,0.013523,0.002678,0.000431,0.108949
18457000,0.0324,0.013523,0.002678,0.000431,0.290765
18458000,0.0324,0.013523,0.002678,0.000431,0.243283
18459000,0.0324,0.013523,0.002678,0.000431,0.160661
18460000,0.0324,0.013523,0.002678,0.000431,0.158075
18461000,0.0324,0.013523,0.002678,0.000431,0.275486
18462000,0.0324,0.013523,0.002678,0.000431,0.186870
18463000,0.0324,0.013523,0.002678,0.000431,0.153257
18464000,0.0324,0.013523,0.002678,0.000431,0.323320
18465000,0.0324,0.013523,0.002678,0.000431,0.145030
18466000,0.0324,0.013523,0.002678,0.000431,0.041723
18467000,0.0324,0.013523,0.002678,0.000431,0.153962
18468000,0.0324,0.013523,0.002678,0.000431,0.256446
18469000,0.0324,0.013523,0.002678,0.000431,0.208730
18470000,0.0324,0.013523,0.002678,0.000431,0.095668
18471000,0.0324,0.013523,0.002678,0.000431,0.053005
18472000,0.0324,0.013523,0.002678,0.000431,0.092965
18473000,0.0324,0.013523,0.002678,0.000431,0.245399
18474000,0.0324,0.013523,0.002678,0.000431,0.215429
18475000,0.0324,0.013523,0.002678,0.000431,0.095903
18476000,0.0324,0.013523,0.002678,0.000431,0.147145
18477000,0.0324,0.013523,0.002678,0.000431,0.176175
18478000,0.0324,0.013523,0.002678,0.000431,0.161954
18479000,0.0324,0.013523,0.002678,0.000431,0.103307
18480000,0.0324,0.013523,0.002678,0.000431,0.213666
18481000,0.0324,0.013523,0.002678,0.000431,0.123522
18482000,0.0324,0.013523,0.002678,0.000431,0.136098
18483000,0.0324,0.013523,0.002678,0.000431,0.082387
18484000,0.0324,0.013523,0.002678,0.000431,0.091672
18485000,0.0324,0.013523,0.002678,0.000431,0.194039
18486000,0.0324,0.013523,0.002678,0.000431,0.140564
18487000,0.0324,0.013523,0.002678,0.000431,0.229297
18488000,0.0324,0.013523,0.002678,0.000431,0.202501
18489000,0.0324,0.013523,0.002678,0.000431,0.151141
18490000,0.0324,0.013523,0.002678,0.000431,0.174647
18491000,0.0324,0.013523,0.002678,0.000431,0.154432
18492000,0.0324,0.013523,0.002678,0.000431,0.159016
18493000,0.0324,0.013523,0.002678,0.000431,0.281950
18494000,0.0324,0.013523,0.002678,0.000431,0.091790
18495000,0.0324,0.013523,0.002678,0.000431,0.131514
18496000,0.0324,0.013523,0.002678,0.000431,0.198035
18497000,0.0324,0.013523,0.002678,0.000431,0.114472
18498000,0.0324,0.013523,0.002678,0.000431,0.084150
18499000,0.0324,0.013523,0.002678,0.000431,0.115178
18500000,0.0324,0.013523,0.002678,0.000431,0.220953
18501000,0.0324,0.013523,0.002678,0.000431,0.103307
18502000,0.0324,0.013523,0.002678,0.000431,0.059822
18503000,0.0324,0.013523,0.002678,0.000431,0.112945
18504000,0.0324,0.013523,0.002678,0.000431,0.081917
18505000,0.0324,0.013523,0.002678,0.000431,0.219543
18506000,0.0324,0.013523,0.002678,0.000431,0.209200
18507000,0.0324,0.013523,0.002678,0.000431,0.143149
18508000,0.0324,0.013523,0.002678,0.000431,0.119761
18509000,0.0324,0.013523,0.002678,0.000431,0.231178
18510000,0.0324,0.013523,0.002678,0.000431,0.121289
18511000,0.0324,0.013523,0.002678,0.000431,0.063113
18512000,0.0324,0.013523,0.002678,0.000431,0.116353
18513000,0.0324,0.013523,0.002678,0.000431,0.171709
18514000,0.0324,0.013523,0.002678,0.000431,0.114120
18515000,0.0324,0.013523,0.002678,0.000431,0.082505
18516000,0.0324,0.013523,0.002678,0.000431,0.117058
18517000,0.0324,0.013523,0.002678,0.000431,0.146440
18518000,0.0324,0.013523,0.002678,0.000431,0.161719
18519000,0.0324,0.013523,0.002678,0.000431,0.218602
18520000,0.0324,0.013523,0.002678,0.000431,0.101662
18521000,0.0324,0.013523,0.002678,0.000431,0.152317
18522000,0.0324,0.013523,0.002678,0.000431,0.175705
18523000,0.0324,0.013523,0.002678,0.000431,0.118116
18524000,0.0324,0.013523,0.002678,0.000431,0.075923
18525000,0.0324,0.013523,0.002678,0.000431,0.204617
18526000,0.0324,0.013523,0.002678,0.000431,0.201443
18527000,0.0324,0.013523,0.002678,0.000431,0.170063
18528000,0.0324,0.013523,0.002678,0.000431,0.166185
18529000,0.0324,0.013523,0.002678,0.000431,0.073220
18530000,0.0324,0.013523,0.002678,0.000431,0.183461
18531000,0.0324,0.013523,0.002678,0.000431,0.110241
18532000,0.0324,0.013523,0.002678,0.000431,0.261500
18533000,0.0324,0.013523,0.002678,0.000431,0.147615
18534000,0.0324,0.013523,0.002678,0.000431,0.149731
18535000,0.0324,0.013523,0.002678,0.000431,0.171239
18536000,0.0324,0.013523,0.002678,0.000431,0.213079
18537000,0.0324,0.013523,0.002678,0.000431,0.116823
18538000,0.0324,0.013523,0.002678,0.000431,0.135275
18539000,0.0324,0.013523,0.002678,0.000431,0.138566
18540000,0.0324,0.013523,0.002678,0.000431,0.334838
18541000,0.0324,0.013523,0.002678,0.000431,0.219895
18542000,0.0324,0.013523,0.002678,0.000431,0.116470
18543000,0.0324,0.013523,0.002678,0.000431,0.121407
18544000,0.0324,0.013523,0.002678,0.000431,0.279129
18545000,0.0324,0.013523,0.002678,0.000431,0.109654
18546000,0.0324,0.013523,0.002678,0.000431,0.131984
18547000,0.0324,0.013523,0.002678,0.000431,0.094023
18548000,0.0324,0.013523,0.002678,0.000431,0.170298
18549000,0.0324,0.013523,0.002678,0.000431,0.214489
18550000,0.0324,0.013523,0.002678,0.000431,0.125520
18551000,0.0324,0.013523,0.002678,0.000431,0.133159
18552000,0.0324,0.013523,0.002678,0.000431,0.160543
18553000,0.0324,0.013523,0.002678,0.000431,0.143972
18554000,0.0324,0.013523,0.002678,0.000431,0.129634
18555000,0.0324,0.013523,0.002678,0.000431,0.201208
18556000,0.0324,0.013523,0.002678,0.000431,0.176997
18557000,0.0324,0.013523,0.002678,0.000431,0.127518
18558000,0.0324,0.013523,0.002678,0.000431,0.138566
18559000,0.0324,0.013523,0.002678,0.000431,0.143149
18560000,0.0324,0.013523,0.002678,0.000431,0.099664
18561000,0.0324,0.013523,0.002678,0.000431,0.171826
18562000,0.0324,0.013523,0.002678,0.000431,0.219895
18563000,0.0324,0.013523,0.002678,0.000431,0.199798
18564000,0.0324,0.013523,0.002678,0.000431,0.111887
18565000,0.0324,0.013523,0.002678,0.000431,0.067344
18566000,0.0324,0.013523,0.002678,0.000431,0.142444
18567000,0.0324,0.013523,0.002678,0.000431,0.222128
18568000,0.0324,0.013523,0.002678,0.000431,0.103660
18569000,0.0324,0.013523,0.002678,0.000431,0.257387
18570000,0.0324,0.013523,0.002678,0.000431,0.289707
18571000,0.0324,0.013523,0.002678,0.000431,0.067579
18572000,0.0324,0.013523,0.002678,0.000431,0.119174
18573000,0.0324,0.013523,0.002678,0.000431,0.226594
18574000,0.0324,0.013523,0.002678,0.000431,0.314740
18575000,0.0324,0.013523,0.002678,0.000431,0.215782
18576000,0.0324,0.013523,0.002678,0.000431,0.214724
18577000,0.0324,0.013523,0.002678,0.000431,0.209200
18578000,0.0324,0.013523,0.002678,0.000431,0.215077
18579000,0.0324,0.013523,0.002678,0.000431,0.119996
18580000,0.0324,0.013523,0.002678,0.000431,0.101897
18581000,0.0324,0.013523,0.002678,0.000431,0.071575
18582000,0.0324,0.013523,0.002678,0.000431,0.124345
18583000,0.0324,0.013523,0.002678,0.000431,0.146675
18584000,0.0324,0.013523,0.002678,0.000431,0.130456
18585000,0.0324,0.013523,0.002678,0.000431,0.161249
18586000,0.0324,0.013523,0.002678,0.000431,0.163247
18587000,0.0324,0.013523,0.002678,0.000431,0.124580
18588000,0.0324,0.013523,0.002678,0.000431,0.045013
18589000,0.0324,0.013523,0.002678,0.000431,0.177115
18590000,0.0324,0.013523,0.002678,0.000431,0.182756
18591000,0.0324,0.013523,0.002678,0.000431,0.127753
18592000,0.0324,0.013523,0.002678,0.000431,0.095198
18593000,0.0324,0.013523,0.002678,0.000431,0.157840
18594000,0.0324,0.013523,0.002678,0.000431,0.073338
18595000,0.0324,0.013523,0.002678,0.000431,0.091790
18596000,0.0324,0.013523,0.002678,0.000431,0.342242
18597000,0.0324,0.013523,0.002678,0.000431,0.119056
18598000,0.0324,0.013523,0.002678,0.000431,0.126930
18599000,0.0324,0.013523,0.002678,0.000431,0.116470
18600000,0.0324,0.013523,0.002678,0.000431,0.106245
18601000,0.0324,0.013523,0.002678,0.000431,0.167595
18602000,0.0324,0.013523,0.002678,0.000431,0.150319
18603000,0.0324,0.013523,0.002678,0.000431,0.226359
18604000,0.0324,0.013523,0.002678,0.000431,0.151611
18605000,0.0324,0.013523,0.002678,0.000431,0.041135
18606000,0.0324,0.013523,0.002678,0.000431,0.079332
18607000,0.0324,0.013523,0.002678,0.000431,0.148673
18608000,0.0324,0.013523,0.002678,0.000431,0.082270
18609000,0.0324,0.013523,0.002678,0.000431,0.208495
18610000,0.0324,0.013523,0.002678,0.000431,0.257152
18611000,0.0324,0.013523,0.002678,0.000431,0.126460
18612000,0.0324,0.013523,0.002678,0.000431,0.133747
18613000,0.0324,0.013523,0.002678,0.000431,0.144442
18614000,0.0324,0.013523,0.002678,0.000431,0.070987
18615000,0.0324,0.013523,0.002678,0.000431,0.197095
18616000,0.0324,0.013523,0.002678,0.000431,0.156783
18617000,0.0324,0.013523,0.002678,0.000431,0.146910
18618000,0.0324,0.013523,0.002678,0.000431,0.089204
18619000,0.0324,0.013523,0.002678,0.000431,0.111534
18620000,0.0324,0.013523,0.002678,0.000431,0.074278
18621000,0.0324,0.013523,0.002678,0.000431,0.089792
18622000,0.0324,0.013523,0.002678,0.000431,0.225889
18623000,0.0324,0.013523,0.002678,0.000431,0.273253
18624000,0.0324,0.013523,0.002678,0.000431,0.204029
18625000,0.0324,0.013523,0.002678,0.000431,0.119174
18626000,0.0324,0.013523,0.002678,0.000431,0.143267
18627000,0.0324,0.013523,0.002678,0.000431,0.138213
18628000,0.0324,0.013523,0.002678,0.000431,0.090379
18629000,0.0324,0.013523,0.002678,0.000431,0.150319
18630000,0.0324,0.013523,0.002678,0.000431,0.149966
18631000,0.0324,0.013523,0.002678,0.000431,0.133042
18632000,0.0324,0.013523,0.002678,0.000431,0.364337
18633000,0.0324,0.013523,0.002678,0.000431,0.099429
18634000,0.0324,0.013523,0.002678,0.000431,0.071457
18635000,0.0324,0.013523,0.002678,0.000431,0.314388
18636000,0.0324,0.013523,0.002678,0.000431,0.109654
18637000,0.0324,0.013523,0.002678,0.000431,0.061350
18638000,0.0324,0.013523,0.002678,0.000431,0.108596
18639000,0.0324,0.013523,0.002678,0.000431,0.111887
18640000,0.0324,0.013523,0.002678,0.000431,0.216957
18641000,0.0324,0.013523,0.002678,0.000431,0.294056
18642000,0.0324,0.013523,0.002678,0.000431,0.151611
18643000,0.0324,0.013523,0.002678,0.000431,0.088734
18644000,0.0324,0.013523,0.002678,0.000431,0.247514
18645000,0.0324,0.013523,0.002678,0.000431,0.262793
18646000,0.0324,0.013523,0.002678,0.000431,0.140446
18647000,0.0324,0.013523,0.002678,0.000431,0.079214
18648000,0.0324,0.013523,0.002678,0.000431,0.078861
18649000,0.0324,0.013523,0.002678,0.000431,0.160779
18650000,0.0324,0.013523,0.002678,0.000431,0.110006
18651000,0.0324,0.013523,0.002678,0.000431,0.075101
18652000,0.0324,0.013523,0.002678,0.000431,0.229768
18653000,0.0324,0.013523,0.002678,0.000431,0.221306
18654000,0.0324,0.013523,0.002678,0.000431,0.086383
18655000,0.0324,0.013523,0.002678,0.000431,0.067696
18656000,0.0324,0.013523,0.002678,0.000431,0.128693
18657000,0.0324,0.013523,0.002678,0.000431,0.067931
18658000,0.0324,0.013523,0.002678,0.000431,0.113885
18659000,0.0324,0.013523,0.002678,0.000431,0.209200
18660000,0.0324,0.013523,0.002678,0.000431,0.110594
18661000,0.0324,0.013523,0.002678,0.000431,0.141386
18662000,0.0324,0.013523,0.002678,0.000431,0.109184
18663000,0.0324,0.013523,0.002678,0.000431,0.147145
18664000,0.0324,0.013523,0.002678,0.000431,0.192511
18665000,0.0324,0.013523,0.002678,0.000431,0.262793
18666000,0.0324,0.013523,0.002678,0.000431,0.119761
18667000,0.0324,0.013523,0.002678,0.000431,0.186987
18668000,0.0324,0.013523,0.002678,0.000431,0.195567
18669000,0.0324,0.013523,0.002678,0.000431,0.065463
18670000,0.0324,0.013523,0.002678,0.000431,0.057119
18671000,0.0324,0.013523,0.002678,0.000431,0.228592
18672000,0.0324,0.013523,0.002678,0.000431,0.123992
18673000,0.0324,0.013523,0.002678,0.000431,0.128458
18674000,0.0324,0.013523,0.002678,0.000431,0.172414
18675000,0.0324,0.013523,0.002678,0.000431,0.071575
18676000,0.0324,0.013523,0.002678,0.000431,0.082857
18677000,0.0324,0.013523,0.002678,0.000431,0.129751
18678000,0.0324,0.013523,0.002678,0.000431,0.100016
18679000,0.0324,0.013523,0.002678,0.000431,0.151024
18680000,0.0324,0.013523,0.002678,0.000431,0.327786
18681000,0.0324,0.013523,0.002678,0.000431,0.240110
18682000,0.0324,0.013523,0.002678,0.000431,0.051125
18683000,0.0324,0.013523,0.002678,0.000431,0.104600
18684000,0.0324,0.013523,0.002678,0.000431,0.110712
18685000,0.0324,0.013523,0.002678,0.000431,0.188868
18686000,0.0324,0.013523,0.002678,0.000431,0.120466
18687000,0.0324,0.013523,0.002678,0.000431,0.076863
18688000,0.0324,0.013523,0.002678,0.000431,0.104012
18689000,0.0324,0.013523,0.002678,0.000431,0.249160
18690000,0.0324,0.013523,0.002678,0.000431,0.146088
18691000,0.0324,0.013523,0.002678,0.000431,0.120114
18692000,0.0324,0.013523,0.002678,0.000431,0.087323
18693000,0.0324,0.013523,0.002678,0.000431,0.298404
18694000,0.0324,0.013523,0.002678,0.000431,0.212961
18695000,0.0324,0.013523,0.002678,0.000431,0.131044
18696000,0.0324,0.013523,0.002678,0.000431,0.123287
18697000,0.0324,0.013523,0.002678,0.000431,0.105070
18698000,0.0324,0.013523,0.002678,0.000431,0.087088
18699000,0.0324,0.013523,0.002678,0.000431,0.212961
18700000,0.0324,0.013523,0.002678,0.000431,0.105070
18701000,0.0324,0.013523,0.002678,0.000431,0.082505
18702000,0.0324,0.013523,0.002678,0.000431,0.182169
18703000,0.0324,0.013523,0.002678,0.000431,0.208848
18704000,0.0324,0.013523,0.002678,0.000431,0.102720
18705000,0.0324,0.013523,0.002678,0.000431,0.132454
18706000,0.0324,0.013523,0.002678,0.000431,0.097783
18707000,0.0324,0.013523,0.002678,0.000431,0.182874
18708000,0.0324,0.013523,0.002678,0.000431,0.193334
18709000,0.0324,0.013523,0.002678,0.000431,0.172061
18710000,0.0324,0.013523,0.002678,0.000431,0.164069
18711000,0.0324,0.013523,0.002678,0.000431,0.168418
18712000,0.0324,0.013523,0.002678,0.000431,0.061702
18713000,0.0324,0.013523,0.002678,0.000431,0.092260
18714000,0.0324,0.013523,0.002678,0.000431,0.052653
18715000,0.0324,0.013523,0.002678,0.000431,0.041487
18716000,0.0324,0.013523,0.002678,0.000431,0.192276
18717000,0.0324,0.013523,0.002678,0.000431,0.052653
18718000,0.0324,0.013523,0.002678,0.000431,0.182874
18719000,0.0324,0.013523,0.002678,0.000431,0.129751
18720000,0.0324,0.013523,0.002678,0.000431,0.124345
18721000,0.0324,0.013523,0.002678,0.000431,0.064288
18722000,0.0324,0.013523,0.002678,0.000431,0.129634
18723000,0.0324,0.013523,0.002678,0.000431,0.112592
18724000,0.0324,0.013523,0.002678,0.000431,0.273371
18725000,0.0324,0.013523,0.002678,0.000431,0.087206
18726000,0.0324,0.013523,0.002678,0.000431,0.125990
18727000,0.0324,0.013523,0.002678,0.000431,0.086266
18728000,0.0324,0.013523,0.002678,0.000431,0.131984
18729000,0.0324,0.013523,0.002678,0.000431,0.219895
18730000,0.0324,0.013523,0.002678,0.000431,0.033613
18731000,0.0324,0.013523,0.002678,0.000431,0.162777
18732000,0.0324,0.013523,0.002678,0.000431,0.388783
18733000,0.0324,0.013523,0.002678,0.000431,0.089204
18734000,0.0324,0.013523,0.002678,0.000431,0.115765
18735000,0.0324,0.013523,0.002678,0.000431,0.094963
18736000,0.0324,0.013523,0.002678,0.000431,0.132337
18737000,0.0324,0.013523,0.002678,0.000431,0.064053
18738000,0.0324,0.013523,0.002678,0.000431,0.156312
18739000,0.0324,0.013523,0.002678,0.000431,0.068636
18740000,0.0324,0.013523,0.002678,0.000431,0.161836
18741000,0.0324,0.013523,0.002678,0.000431,0.063818
18742000,0.0324,0.013523,0.002678,0.000431,0.116823
18743000,0.0324,0.013523,0.002678,0.000431,0.111887
18744000,0.0324,0.013523,0.002678,0.000431,0.189220
18745000,0.0324,0.013523,0.002678,0.000431,0.129751
18746000,0.0324,0.013523,0.002678,0.000431,0.149026
18747000,0.0324,0.013523,0.002678,0.000431,0.101897
18748000,0.0324,0.013523,0.002678,0.000431,0.060057
18749000,0.0324,0.013523,0.002678,0.000431,0.112710
18750000,0.0324,0.013523,0.002678,0.000431,0.154315
18751000,0.0324,0.013523,0.002678,0.000431,0.129399
18752000,0.0324,0.013523,0.002678,0.000431,0.173237
18753000,0.0324,0.013523,0.002678,0.000431,0.218955
18754000,0.0324,0.013523,0.002678,0.000431,0.141386
18755000,0.0324,0.013523,0.002678,0.000431,0.084738
18756000,0.0324,0.013523,0.002678,0.000431,0.121289
18757000,0.0324,0.013523,0.002678,0.000431,0.093787
18758000,0.0324,0.013523,0.002678,0.000431,0.236819
18759000,0.0324,0.013523,0.002678,0.000431,0.137861
18760000,0.0324,0.013523,0.002678,0.000431,0.114002
18761000,0.0324,0.013523,0.002678,0.000431,0.223774
18762000,0.0324,0.013523,0.002678,0.000431,0.069577
18763000,0.0324,0.013523,0.002678,0.000431,0.100957
18764000,0.0324,0.013523,0.002678,0.000431,0.172884
18765000,0.0324,0.013523,0.002678,0.000431,0.198388
18766000,0.0324,0.013523,0.002678,0.000431,0.133277
18767000,0.0324,0.013523,0.002678,0.000431,0.149731
18768000,0.0324,0.013523,0.002678,0.000431,0.094258
18769000,0.0324,0.013523,0.002678,0.000431,0.039960
18770000,0.0324,0.013523,0.002678,0.000431,0.090144
18771000,0.0324,0.013523,0.002678,0.000431,0.153022
18772000,0.0324,0.013523,0.002678,0.000431,0.089674
18773000,0.0324,0.013523,0.002678,0.000431,0.078979
18774000,0.0324,0.013523,0.002678,0.000431,0.113062
18775000,0.0324,0.013523,0.002678,0.000431,0.105070
18776000,0.0324,0.013523,0.002678,0.000431,0.108831
18777000,0.0324,0.013523,0.002678,0.000431,0.102367
18778000,0.0324,0.013523,0.002678,0.000431,0.171121
18779000,0.0324,0.013523,0.002678,0.000431,0.176762
18780000,0.0324,0.013523,0.002678,0.000431,0.089909
18781000,0.0324,0.013523,0.002678,0.000431,0.046541
18782000,0.0324,0.013523,0.002678,0.000431,0.077569
18783000,0.0324,0.013523,0.002678,0.000431,0.081565
18784000,0.0324,0.013523,0.002678,0.000431,0.169123
18785000,0.0324,0.013523,0.002678,0.000431,0.117881
18786000,0.0324,0.013523,0.002678,0.000431,0.259972
18787000,0.0324,0.013523,0.002678,0.000431,0.136450
18788000,0.0324,0.013523,0.002678,0.000431,0.110712
18789000,0.0324,0.013523,0.002678,0.000431,0.282185
18790000,0.0324,0.013523,0.002678,0.000431,0.071692
18791000,0.0324,0.013523,0.002678,0.000431,0.084738
18792000,0.0324,0.013523,0.002678,0.000431,0.262088
18793000,0.0324,0.013523,0.002678,0.000431,0.307571
18794000,0.0324,0.013523,0.002678,0.000431,0.060409
18795000,0.0324,0.013523,0.002678,0.000431,0.125873
18796000,0.0324,0.013523,0.002678,0.000431,0.077921
18797000,0.0324,0.013523,0.002678,0.000431,0.084855
18798000,0.0324,0.013523,0.002678,0.000431,0.139271
18799000,0.0324,0.013523,0.002678,0.000431,0.104365
18800000,0.0324,0.013523,0.002678,0.000431,0.188280
18801000,0.0324,0.013523,0.002678,0.000431,0.086266
18802000,0.0324,0.013523,0.002678,0.000431,0.139506
18803000,0.0324,0.013523,0.002678,0.000431,0.086383
18804000,0.0324,0.013523,0.002678,0.000431,0.071457
18805000,0.0324,0.013523,0.002678,0.000431,0.129399
18806000,0.0324,0.013523,0.002678,0.000431,0.209318
18807000,0.0324,0.013523,0.002678,0.000431,0.113650
18808000,0.0324,0.013523,0.002678,0.000431,0.241873
18809000,0.0324,0.013523,0.002678,0.000431,0.052770
18810000,0.0324,0.013523,0.002678,0.000431,0.291235
18811000,0.0324,0.013523,0.002678,0.000431,0.057471
18812000,0.0324,0.013523,0.002678,0.000431,0.226007
18813000,0.0324,0.013523,0.002678,0.000431,0.156195
18814000,0.0324,0.013523,0.002678,0.000431,0.104247
18815000,0.0324,0.013523,0.002678,0.000431,0.106716
18816000,0.0324,0.013523,0.002678,0.000431,0.071340
18817000,0.0324,0.013523,0.002678,0.000431,0.162189
18818000,0.0324,0.013523,0.002678,0.000431,0.074513
18819000,0.0324,0.013523,0.002678,0.000431,0.153374
18820000,0.0324,0.013523,0.002678,0.000431,0.169593
18821000,0.0324,0.013523,0.002678,0.000431,0.123875
18822000,0.0324,0.013523,0.002678,0.000431,0.078744
18823000,0.0324,0.013523,0.002678,0.000431,0.048774
18824000,0.0324,0.013523,0.002678,0.000431,0.057941
18825000,0.0324,0.013523,0.002678,0.000431,0.154197
18826000,0.0324,0.013523,0.002678,0.000431,0.086971
18827000,0.0324,0.013523,0.002678,0.000431,0.129281
18828000,0.0324,0.013523,0.002678,0.000431,0.224714
18829000,0.0324,0.013523,0.002678,0.000431,0.105070
18830000,0.0324,0.013523,0.002678,0.000431,0.149848
18831000,0.0324,0.013523,0.002678,0.000431,0.097548
18832000,0.0324,0.013523,0.002678,0.000431,0.124227
18833000,0.0324,0.013523,0.002678,0.000431,0.240933
18834000,0.0324,0.013523,0.002678,0.000431,0.054063
18835000,0.0324,0.013523,0.002678,0.000431,0.080154
18836000,0.0324,0.013523,0.002678,0.000431,0.185930
18837000,0.0324,0.013523,0.002678,0.000431,0.113885
18838000,0.0324,0.013523,0.002678,0.000431,0.270667
18839000,0.0324,0.013523,0.002678,0.000431,0.064170
18840000,0.0324,0.013523,0.002678,0.000431,0.071457
18841000,0.0324,0.013523,0.002678,0.000431,0.066403
18842000,0.0324,0.013523,0.002678,0.000431,0.191336
18843000,0.0324,0.013523,0.002678,0.000431,0.131984
18844000,0.0324,0.013523,0.002678,0.000431,0.225654
18845000,0.0324,0.013523,0.002678,0.000431,0.292880
18846000,0.0324,0.013523,0.002678,0.000431,0.154197
18847000,0.0324,0.013523,0.002678,0.000431,0.066403
18848000,0.0324,0.013523,0.002678,0.000431,0.158075
18849000,0.0324,0.013523,0.002678,0.000431,0.088969
18850000,0.0324,0.013523,0.002678,0.000431,0.079214
18851000,0.0324,0.013523,0.002678,0.000431,0.190396
18852000,0.0324,0.013523,0.002678,0.000431,0.083915
18853000,0.0324,0.013523,0.002678,0.000431,0.083210
18854000,0.0324,0.013523,0.002678,0.000431,0.262793
18855000,0.0324,0.013523,0.002678,0.000431,0.095668
18856000,0.0324,0.013523,0.002678,0.000431,0.157723
18857000,0.0324,0.013523,0.002678,0.000431,0.165362
18858000,0.0324,0.013523,0.002678,0.000431,0.060527
18859000,0.0324,0.013523,0.002678,0.000431,0.086618
18860000,0.0324,0.013523,0.002678,0.000431,0.065816
18861000,0.0324,0.013523,0.002678,0.000431,0.077334
18862000,0.0324,0.013523,0.002678,0.000431,0.196625
18863000,0.0324,0.013523,0.002678,0.000431,0.118468
18864000,0.0324,0.013523,0.002678,0.000431,0.187340
18865000,0.0324,0.013523,0.002678,0.000431,0.094140
18866000,0.0324,0.013523,0.002678,0.000431,0.159251
18867000,0.0324,0.013523,0.002678,0.000431,0.093905
18868000,0.0324,0.013523,0.002678,0.000431,0.199328
18869000,0.0324,0.013523,0.002678,0.000431,0.033848
18870000,0.0324,0.013523,0.002678,0.000431,0.086736
18871000,0.0324,0.013523,0.002678,0.000431,0.086618
18872000,0.0324,0.013523,0.002678,0.000431,0.079096
18873000,0.0324,0.013523,0.002678,0.000431,0.108126
18874000,0.0324,0.013523,0.002678,0.000431,0.249277
18875000,0.0324,0.013523,0.002678,0.000431,0.065816
18876000,0.0324,0.013523,0.002678,0.000431,0.090732
18877000,0.0324,0.013523,0.002678,0.000431,0.116470
18878000,0.0324,0.013523,0.002678,0.000431,0.223186
18879000,0.0324,0.013523,0.002678,0.000431,0.134335
18880000,0.0324,0.013523,0.002678,0.000431,0.084268
18881000,0.0324,0.013523,0.002678,0.000431,0.156665
18882000,0.0324,0.013523,0.002678,0.000431,0.076158
18883000,0.0324,0.013523,0.002678,0.000431,0.257857
18884000,0.0324,0.013523,0.002678,0.000431,0.069224
18885000,0.0324,0.013523,0.002678,0.000431,0.033966
18886000,0.0324,0.013523,0.002678,0.000431,0.112592
18887000,0.0324,0.013523,0.002678,0.000431,0.266319
18888000,0.0324,0.013523,0.002678,0.000431,0.287356
18889000,0.0324,0.013523,0.002678,0.000431,0.081447
18890000,0.0324,0.013523,0.002678,0.000431,0.131749
18891000,0.0324,0.013523,0.002678,0.000431,0.063465
18892000,0.0324,0.013523,0.002678,0.000431,0.074865
18893000,0.0324,0.013523,0.002678,0.000431,0.157253
18894000,0.0324,0.013523,0.002678,0.000431,0.153962
18895000,0.0324,0.013523,0.002678,0.000431,0.134922
18896000,0.0324,0.013523,0.002678,0.000431,0.071692
18897000,0.0324,0.013523,0.002678,0.000431,0.045131
18898000,0.0324,0.013523,0.002678,0.000431,0.091790
18899000,0.0324,0.013523,0.002678,0.000431,0.091084
18900000,0.0324,0.013523,0.002678,0.000431,0.360694
18901000,0.0324,0.013523,0.002678,0.000431,0.154079
18902000,0.0324,0.013523,0.002678,0.000431,0.116705
18903000,0.0324,0.013523,0.002678,0.000431,0.048892
18904000,0.0324,0.013523,0.002678,0.000431,0.109536
18905000,0.0324,0.013523,0.002678,0.000431,0.151024
18906000,0.0324,0.013523,0.002678,0.000431,0.179936
18907000,0.0324,0.013523,0.002678,0.000431,0.217192
18908000,0.0324,0.013523,0.002678,0.000431,0.108831
18909000,0.0324,0.013523,0.002678,0.000431,0.103660
18910000,0.0324,0.013523,0.002678,0.000431,0.065581
18911000,0.0324,0.013523,0.002678,0.000431,0.143854
18912000,0.0324,0.013523,0.002678,0.000431,0.245634
18913000,0.0324,0.013523,0.002678,0.000431,0.283008
18914000,0.0324,0.013523,0.002678,0.000431,0.209083
18915000,0.0324,0.013523,0.002678,0.000431,0.199563
18916000,0.0324,0.013523,0.002678,0.000431,0.041370
18917000,0.0324,0.013523,0.002678,0.000431,0.043133
18918000,0.0324,0.013523,0.002678,0.000431,0.088969
18919000,0.0324,0.013523,0.002678,0.000431,0.076981
18920000,0.0324,0.013523,0.002678,0.000431,0.167830
18921000,0.0324,0.013523,0.002678,0.000431,0.102367
18922000,0.0324,0.013523,0.002678,0.000431,0.060880
18923000,0.0324,0.013523,0.002678,0.000431,0.040547
18924000,0.0324,0.013523,0.002678,0.000431,0.087441
18925000,0.0324,0.013523,0.002678,0.000431,0.058764
18926000,0.0324,0.013523,0.002678,0.000431,0.311567
18927000,0.0324,0.013523,0.002678,0.000431,0.088499
18928000,0.0324,0.013523,0.002678,0.000431,0.074513
18929000,0.0324,0.013523,0.002678,0.000431,0.049009
18930000,0.0324,0.013523,0.002678,0.000431,0.165362
18931000,0.0324,0.013523,0.002678,0.000431,0.086853
18932000,0.0324,0.013523,0.002678,0.000431,0.082152
18933000,0.0324,0.013523,0.002678,0.000431,0.295936
18934000,0.0324,0.013523,0.002678,0.000431,0.137626
18935000,0.0324,0.013523,0.002678,0.000431,0.082975
18936000,0.0324,0.013523,0.002678,0.000431,0.056884
18937000,0.0324,0.013523,0.002678,0.000431,0.206850
18938000,0.0324,0.013523,0.002678,0.000431,0.073103
18939000,0.0324,0.013523,0.002678,0.000431,0.203324
18940000,0.0324,0.013523,0.002678,0.000431,0.069812
18941000,0.0324,0.013523,0.002678,0.000431,0.082622
18942000,0.0324,0.013523,0.002678,0.000431,0.107303
18943000,0.0324,0.013523,0.002678,0.000431,0.169006
18944000,0.0324,0.013523,0.002678,0.000431,0.058764
18945000,0.0324,0.013523,0.002678,0.000431,0.155725
18946000,0.0324,0.013523,0.002678,0.000431,0.236114
18947000,0.0324,0.013523,0.002678,0.000431,0.098959
18948000,0.0324,0.013523,0.002678,0.000431,0.116353
18949000,0.0324,0.013523,0.002678,0.000431,0.145500
18950000,0.0324,0.013523,0.002678,0.000431,0.103895
18951000,0.0324,0.013523,0.002678,0.000431,0.125990
18952000,0.0324,0.013523,0.002678,0.000431,0.174177
18953000,0.0324,0.013523,0.002678,0.000431,0.168183
18954000,0.0324,0.013523,0.002678,0.000431,0.122464
18955000,0.0324,0.013523,0.002678,0.000431,0.149731
18956000,0.0324,0.013523,0.002678,0.000431,0.194274
18957000,0.0324,0.013523,0.002678,0.000431,0.114708
18958000,0.0324,0.013523,0.002678,0.000431,0.213079
18959000,0.0324,0.013523,0.002678,0.000431,0.116118
18960000,0.0324,0.013523,0.002678,0.000431,0.068401
18961000,0.0324,0.013523,0.002678,0.000431,0.121407
18962000,0.0324,0.013523,0.002678,0.000431,0.093787
18963000,0.0324,0.013523,0.002678,0.000431,0.147145
18964000,0.0324,0.013523,0.002678,0.000431,0.073220
18965000,0.0324,0.013523,0.002678,0.000431,0.117646
18966000,0.0324,0.013523,0.002678,0.000431,0.327081
18967000,0.0324,0.013523,0.002678,0.000431,0.098136
18968000,0.0324,0.013523,0.002678,0.000431,0.080272
18969000,0.0324,0.013523,0.002678,0.000431,0.175235
18970000,0.0324,0.013523,0.002678,0.000431,0.118351
18971000,0.0324,0.013523,0.002678,0.000431,0.163012
18972000,0.0324,0.013523,0.002678,0.000431,0.072162
18973000,0.0324,0.013523,0.002678,0.000431,0.066051
18974000,0.0324,0.013523,0.002678,0.000431,0.081094
18975000,0.0324,0.013523,0.002678,0.000431,0.080859
18976000,0.0324,0.013523,0.002678,0.000431,0.077804
18977000,0.0324,0.013523,0.002678,0.000431,0.210728
18978000,0.0324,0.013523,0.002678,0.000431,0.067109
18979000,0.0324,0.013523,0.002678,0.000431,0.204029
18980000,0.0324,0.013523,0.002678,0.000431,0.148086
18981000,0.0324,0.013523,0.002678,0.000431,0.077686
18982000,0.0324,0.013523,0.002678,0.000431,0.162894
18983000,0.0324,0.013523,0.002678,0.000431,0.057236
18984000,0.0324,0.013523,0.002678,0.000431,0.261500
18985000,0.0324,0.013523,0.002678,0.000431,0.137861
18986000,0.0324,0.013523,0.002678,0.000431,0.226594
18987000,0.0324,0.013523,0.002678,0.000431,0.082740
18988000,0.0324,0.013523,0.002678,0.000431,0.112357
18989000,0.0324,0.013523,0.002678,0.000431,0.130104
18990000,0.0324,0.013523,0.002678,0.000431,0.110124
18991000,0.0324,0.013523,0.002678,0.000431,0.091554
18992000,0.0324,0.013523,0.002678,0.000431,0.074748
18993000,0.0324,0.013523,0.002678,0.000431,0.101897
18994000,0.0324,0.013523,0.002678,0.000431,0.094963
18995000,0.0324,0.013523,0.002678,0.000431,0.074983
18996000,0.0324,0.013523,0.002678,0.000431,0.104600
18997000,0.0324,0.013523,0.002678,0.000431,0.203559
18998000,0.0324,0.013523,0.002678,0.000431,0.100369
18999000,0.0324,0.013523,0.002678,0.000431,0.128928
