Cycle,Area(mm^2),PeakDynamic(W),SubthresholdLeakage(W),GateLeakage(W),RunTimeDynamic(W)
24000000,0.0324,0.013523,0.002678,0.000431,0.145970
24001000,0.0324,0.013523,0.002678,0.000431,0.052770
24002000,0.0324,0.013523,0.002678,0.000431,0.064993
24003000,0.0324,0.013523,0.002678,0.000431,0.042075
24004000,0.0324,0.013523,0.002678,0.000431,0.113885
24005000,0.0324,0.013523,0.002678,0.000431,0.113297
24006000,0.0324,0.013523,0.002678,0.000431,0.082975
24007000,0.0324,0.013523,0.002678,0.000431,0.102837
24008000,0.0324,0.013523,0.002678,0.000431,0.092377
24009000,0.0324,0.013523,0.002678,0.000431,0.077686
24010000,0.0324,0.013523,0.002678,0.000431,0.055003
24011000,0.0324,0.013523,0.002678,0.000431,0.043956
24012000,0.0324,0.013523,0.002678,0.000431,0.035258
24013000,0.0324,0.013523,0.002678,0.000431,0.084150
24014000,0.0324,0.013523,0.002678,0.000431,0.076628
24015000,0.0324,0.013523,0.002678,0.000431,0.073220
24016000,0.0324,0.013523,0.002678,0.000431,0.080859
24017000,0.0324,0.013523,0.002678,0.000431,0.059117
24018000,0.0324,0.013523,0.002678,0.000431,0.066521
24019000,0.0324,0.013523,0.002678,0.000431,0.058294
24020000,0.0324,0.013523,0.002678,0.000431,0.092847
24021000,0.0324,0.013523,0.002678,0.000431,0.041252
24022000,0.0324,0.013523,0.002678,0.000431,0.051125
24023000,0.0324,0.013523,0.002678,0.000431,0.089439
24024000,0.0324,0.013523,0.002678,0.000431,0.105188
24025000,0.0324,0.013523,0.002678,0.000431,0.047951
24026000,0.0324,0.013523,0.002678,0.000431,0.061232
24027000,0.0324,0.013523,0.002678,0.000431,0.050185
24028000,0.0324,0.013523,0.002678,0.000431,0.049949
24029000,0.0324,0.013523,0.002678,0.000431,0.084973
24030000,0.0324,0.013523,0.002678,0.000431,0.048422
24031000,0.0324,0.013523,0.002678,0.000431,0.074748
24032000,0.0324,0.013523,0.002678,0.000431,0.097783
24033000,0.0324,0.013523,0.002678,0.000431,0.036434
24034000,0.0324,0.013523,0.002678,0.000431,0.043956
24035000,0.0324,0.013523,0.002678,0.000431,0.078039
24036000,0.0324,0.013523,0.002678,0.000431,0.073220
24037000,0.0324,0.013523,0.002678,0.000431,0.037139
24038000,0.0324,0.013523,0.002678,0.000431,0.072045
24039000,0.0324,0.013523,0.002678,0.000431,0.095433
24040000,0.0324,0.013523,0.002678,0.000431,0.036199
24041000,0.0324,0.013523,0.002678,0.000431,0.134805
24042000,0.0324,0.013523,0.002678,0.000431,0.075571
24043000,0.0324,0.013523,0.002678,0.000431,0.063700
24044000,0.0324,0.013523,0.002678,0.000431,0.044778
24045000,0.0324,0.013523,0.002678,0.000431,0.068166
24046000,0.0324,0.013523,0.002678,0.000431,0.055826
24047000,0.0324,0.013523,0.002678,0.000431,0.063700
24048000,0.0324,0.013523,0.002678,0.000431,0.058764
24049000,0.0324,0.013523,0.002678,0.000431,0.078509
24050000,0.0324,0.013523,0.002678,0.000431,0.097548
24051000,0.0324,0.013523,0.002678,0.000431,0.045248
24052000,0.0324,0.013523,0.002678,0.000431,0.068872
24053000,0.0324,0.013523,0.002678,0.000431,0.080037
24054000,0.0324,0.013523,0.002678,0.000431,0.243989
24055000,0.0324,0.013523,0.002678,0.000431,0.102014
24056000,0.0324,0.013523,0.002678,0.000431,0.095903
24057000,0.0324,0.013523,0.002678,0.000431,0.072867
24058000,0.0324,0.013523,0.002678,0.000431,0.038314
24059000,0.0324,0.013523,0.002678,0.000431,0.077569
24060000,0.0324,0.013523,0.002678,0.000431,0.060174
24061000,0.0324,0.013523,0.002678,0.000431,0.072280
24062000,0.0324,0.013523,0.002678,0.000431,0.132924
24063000,0.0324,0.013523,0.002678,0.000431,0.054651
24064000,0.0324,0.013523,0.002678,0.000431,0.108243
24065000,0.0324,0.013523,0.002678,0.000431,0.062290
24066000,0.0324,0.013523,0.002678,0.000431,0.078979
24067000,0.0324,0.013523,0.002678,0.000431,0.045718
24068000,0.0324,0.013523,0.002678,0.000431,0.068754
24069000,0.0324,0.013523,0.002678,0.000431,0.095198
24070000,0.0324,0.013523,0.002678,0.000431,0.082505
24071000,0.0324,0.013523,0.002678,0.000431,0.056884
24072000,0.0324,0.013523,0.002678,0.000431,0.070987
24073000,0.0324,0.013523,0.002678,0.000431,0.308629
24074000,0.0324,0.013523,0.002678,0.000431,0.051360
24075000,0.0324,0.013523,0.002678,0.000431,0.078156
24076000,0.0324,0.013523,0.002678,0.000431,0.092965
24077000,0.0324,0.013523,0.002678,0.000431,0.057824
24078000,0.0324,0.013523,0.002678,0.000431,0.110241
24079000,0.0324,0.013523,0.002678,0.000431,0.073338
24080000,0.0324,0.013523,0.002678,0.000431,0.082152
24081000,0.0324,0.013523,0.002678,0.000431,0.070164
24082000,0.0324,0.013523,0.002678,0.000431,0.117881
24083000,0.0324,0.013523,0.002678,0.000431,0.121994
24084000,0.0324,0.013523,0.002678,0.000431,0.038197
24085000,0.0324,0.013523,0.002678,0.000431,0.035258
24086000,0.0324,0.013523,0.002678,0.000431,0.087911
24087000,0.0324,0.013523,0.002678,0.000431,0.042310
24088000,0.0324,0.013523,0.002678,0.000431,0.109419
24089000,0.0324,0.013523,0.002678,0.000431,0.051477
24090000,0.0324,0.013523,0.002678,0.000431,0.111769
24091000,0.0324,0.013523,0.002678,0.000431,0.043838
24092000,0.0324,0.013523,0.002678,0.000431,0.161954
24093000,0.0324,0.013523,0.002678,0.000431,0.102602
24094000,0.0324,0.013523,0.002678,0.000431,0.062643
24095000,0.0324,0.013523,0.002678,0.000431,0.132572
24096000,0.0324,0.013523,0.002678,0.000431,0.064641
24097000,0.0324,0.013523,0.002678,0.000431,0.070164
24098000,0.0324,0.013523,0.002678,0.000431,0.055121
24099000,0.0324,0.013523,0.002678,0.000431,0.093787
24100000,0.0324,0.013523,0.002678,0.000431,0.065111
24101000,0.0324,0.013523,0.002678,0.000431,0.100369
24102000,0.0324,0.013523,0.002678,0.000431,0.051477
24103000,0.0324,0.013523,0.002678,0.000431,0.059352
24104000,0.0324,0.013523,0.002678,0.000431,0.037256
24105000,0.0324,0.013523,0.002678,0.000431,0.067579
24106000,0.0324,0.013523,0.002678,0.000431,0.141974
24107000,0.0324,0.013523,0.002678,0.000431,0.093082
24108000,0.0324,0.013523,0.002678,0.000431,0.076628
24109000,0.0324,0.013523,0.002678,0.000431,0.040665
24110000,0.0324,0.013523,0.002678,0.000431,0.045131
24111000,0.0324,0.013523,0.002678,0.000431,0.052535
24112000,0.0324,0.013523,0.002678,0.000431,0.086266
24113000,0.0324,0.013523,0.002678,0.000431,0.053123
24114000,0.0324,0.013523,0.002678,0.000431,0.076158
24115000,0.0324,0.013523,0.002678,0.000431,0.053710
24116000,0.0324,0.013523,0.002678,0.000431,0.147733
24117000,0.0324,0.013523,0.002678,0.000431,0.036434
24118000,0.0324,0.013523,0.002678,0.000431,0.076276
24119000,0.0324,0.013523,0.002678,0.000431,0.114472
24120000,0.0324,0.013523,0.002678,0.000431,0.037727
24121000,0.0324,0.013523,0.002678,0.000431,0.097666
24122000,0.0324,0.013523,0.002678,0.000431,0.039372
24123000,0.0324,0.013523,0.002678,0.000431,0.040900
24124000,0.0324,0.013523,0.002678,0.000431,0.093317
24125000,0.0324,0.013523,0.002678,0.000431,0.111417
24126000,0.0324,0.013523,0.002678,0.000431,0.053828
24127000,0.0324,0.013523,0.002678,0.000431,0.047599
24128000,0.0324,0.013523,0.002678,0.000431,0.052770
24129000,0.0324,0.013523,0.002678,0.000431,0.043956
24130000,0.0324,0.013523,0.002678,0.000431,0.036434
24131000,0.0324,0.013523,0.002678,0.000431,0.070634
24132000,0.0324,0.013523,0.002678,0.000431,0.083327
24133000,0.0324,0.013523,0.002678,0.000431,0.076041
24134000,0.0324,0.013523,0.002678,0.000431,0.086736
24135000,0.0324,0.013523,0.002678,0.000431,0.060762
24136000,0.0324,0.013523,0.002678,0.000431,0.093670
24137000,0.0324,0.013523,0.002678,0.000431,0.122347
24138000,0.0324,0.013523,0.002678,0.000431,0.056766
24139000,0.0324,0.013523,0.002678,0.000431,0.039607
24140000,0.0324,0.013523,0.002678,0.000431,0.073925
24141000,0.0324,0.013523,0.002678,0.000431,0.082505
24142000,0.0324,0.013523,0.002678,0.000431,0.076628
24143000,0.0324,0.013523,0.002678,0.000431,0.056178
24144000,0.0324,0.013523,0.002678,0.000431,0.093435
24145000,0.0324,0.013523,0.002678,0.000431,0.082387
24146000,0.0324,0.013523,0.002678,0.000431,0.069812
24147000,0.0324,0.013523,0.002678,0.000431,0.079802
24148000,0.0324,0.013523,0.002678,0.000431,0.041135
24149000,0.0324,0.013523,0.002678,0.000431,0.045248
24150000,0.0324,0.013523,0.002678,0.000431,0.075923
24151000,0.0324,0.013523,0.002678,0.000431,0.065463
24152000,0.0324,0.013523,0.002678,0.000431,0.083210
24153000,0.0324,0.013523,0.002678,0.000431,0.091437
24154000,0.0324,0.013523,0.002678,0.000431,0.039372
24155000,0.0324,0.013523,0.002678,0.000431,0.069224
24156000,0.0324,0.013523,0.002678,0.000431,0.044896
24157000,0.0324,0.013523,0.002678,0.000431,0.065933
24158000,0.0324,0.013523,0.002678,0.000431,0.038902
24159000,0.0324,0.013523,0.002678,0.000431,0.071927
24160000,0.0324,0.013523,0.002678,0.000431,0.050890
24161000,0.0324,0.013523,0.002678,0.000431,0.054886
24162000,0.0324,0.013523,0.002678,0.000431,0.054533
24163000,0.0324,0.013523,0.002678,0.000431,0.101897
24164000,0.0324,0.013523,0.002678,0.000431,0.104247
24165000,0.0324,0.013523,0.002678,0.000431,0.079919
24166000,0.0324,0.013523,0.002678,0.000431,0.098841
24167000,0.0324,0.013523,0.002678,0.000431,0.044661
24168000,0.0324,0.013523,0.002678,0.000431,0.060409
24169000,0.0324,0.013523,0.002678,0.000431,0.085090
24170000,0.0324,0.013523,0.002678,0.000431,0.061585
24171000,0.0324,0.013523,0.002678,0.000431,0.102485
24172000,0.0324,0.013523,0.002678,0.000431,0.057119
24173000,0.0324,0.013523,0.002678,0.000431,0.035023
24174000,0.0324,0.013523,0.002678,0.000431,0.035258
24175000,0.0324,0.013523,0.002678,0.000431,0.042075
24176000,0.0324,0.013523,0.002678,0.000431,0.083210
24177000,0.0324,0.013523,0.002678,0.000431,0.039960
24178000,0.0324,0.013523,0.002678,0.000431,0.099664
24179000,0.0324,0.013523,0.002678,0.000431,0.125050
24180000,0.0324,0.013523,0.002678,0.000431,0.068989
24181000,0.0324,0.013523,0.002678,0.000431,0.111064
24182000,0.0324,0.013523,0.002678,0.000431,0.057471
24183000,0.0324,0.013523,0.002678,0.000431,0.105305
24184000,0.0324,0.013523,0.002678,0.000431,0.086618
24185000,0.0324,0.013523,0.002678,0.000431,0.053710
24186000,0.0324,0.013523,0.002678,0.000431,0.046189
24187000,0.0324,0.013523,0.002678,0.000431,0.041370
24188000,0.0324,0.013523,0.002678,0.000431,0.105305
24189000,0.0324,0.013523,0.002678,0.000431,0.120936
24190000,0.0324,0.013523,0.002678,0.000431,0.066874
24191000,0.0324,0.013523,0.002678,0.000431,0.057236
24192000,0.0324,0.013523,0.002678,0.000431,0.035141
24193000,0.0324,0.013523,0.002678,0.000431,0.035258
24194000,0.0324,0.013523,0.002678,0.000431,0.035023
24195000,0.0324,0.013523,0.002678,0.000431,0.078861
24196000,0.0324,0.013523,0.002678,0.000431,0.146088
24197000,0.0324,0.013523,0.002678,0.000431,0.046894
24198000,0.0324,0.013523,0.002678,0.000431,0.081682
24199000,0.0324,0.013523,0.002678,0.000431,0.040547
24200000,0.0324,0.013523,0.002678,0.000431,0.063583
24201000,0.0324,0.013523,0.002678,0.000431,0.064288
24202000,0.0324,0.013523,0.002678,0.000431,0.219190
24203000,0.0324,0.013523,0.002678,0.000431,0.087323
24204000,0.0324,0.013523,0.002678,0.000431,0.088264
24205000,0.0324,0.013523,0.002678,0.000431,0.068989
24206000,0.0324,0.013523,0.002678,0.000431,0.041958
24207000,0.0324,0.013523,0.002678,0.000431,0.061585
24208000,0.0324,0.013523,0.002678,0.000431,0.054298
24209000,0.0324,0.013523,0.002678,0.000431,0.136098
24210000,0.0324,0.013523,0.002678,0.000431,0.136803
24211000,0.0324,0.013523,0.002678,0.000431,0.050890
24212000,0.0324,0.013523,0.002678,0.000431,0.059704
24213000,0.0324,0.013523,0.002678,0.000431,0.052183
24214000,0.0324,0.013523,0.002678,0.000431,0.090849
24215000,0.0324,0.013523,0.002678,0.000431,0.073103
24216000,0.0324,0.013523,0.002678,0.000431,0.078861
24217000,0.0324,0.013523,0.002678,0.000431,0.082857
24218000,0.0324,0.013523,0.002678,0.000431,0.076393
24219000,0.0324,0.013523,0.002678,0.000431,0.037139
24220000,0.0324,0.013523,0.002678,0.000431,0.037609
24221000,0.0324,0.013523,0.002678,0.000431,0.060057
24222000,0.0324,0.013523,0.002678,0.000431,0.127636
24223000,0.0324,0.013523,0.002678,0.000431,0.061702
24224000,0.0324,0.013523,0.002678,0.000431,0.105540
24225000,0.0324,0.013523,0.002678,0.000431,0.047834
24226000,0.0324,0.013523,0.002678,0.000431,0.037374
24227000,0.0324,0.013523,0.002678,0.000431,0.049597
24228000,0.0324,0.013523,0.002678,0.000431,0.049479
24229000,0.0324,0.013523,0.002678,0.000431,0.102602
24230000,0.0324,0.013523,0.002678,0.000431,0.049714
24231000,0.0324,0.013523,0.002678,0.000431,0.059939
24232000,0.0324,0.013523,0.002678,0.000431,0.037374
24233000,0.0324,0.013523,0.002678,0.000431,0.056884
24234000,0.0324,0.013523,0.002678,0.000431,0.111534
24235000,0.0324,0.013523,0.002678,0.000431,0.058176
24236000,0.0324,0.013523,0.002678,0.000431,0.094610
24237000,0.0324,0.013523,0.002678,0.000431,0.073220
24238000,0.0324,0.013523,0.002678,0.000431,0.039842
24239000,0.0324,0.013523,0.002678,0.000431,0.045954
24240000,0.0324,0.013523,0.002678,0.000431,0.137861
24241000,0.0324,0.013523,0.002678,0.000431,0.087676
24242000,0.0324,0.013523,0.002678,0.000431,0.046306
24243000,0.0324,0.013523,0.002678,0.000431,0.101309
24244000,0.0324,0.013523,0.002678,0.000431,0.053475
24245000,0.0324,0.013523,0.002678,0.000431,0.037491
24246000,0.0324,0.013523,0.002678,0.000431,0.042545
24247000,0.0324,0.013523,0.002678,0.000431,0.064288
24248000,0.0324,0.013523,0.002678,0.000431,0.049479
24249000,0.0324,0.013523,0.002678,0.000431,0.118116
24250000,0.0324,0.013523,0.002678,0.000431,0.046894
24251000,0.0324,0.013523,0.002678,0.000431,0.046189
24252000,0.0324,0.013523,0.002678,0.000431,0.037374
24253000,0.0324,0.013523,0.002678,0.000431,0.104247
24254000,0.0324,0.013523,0.002678,0.000431,0.062525
24255000,0.0324,0.013523,0.002678,0.000431,0.070164
24256000,0.0324,0.013523,0.002678,0.000431,0.034788
24257000,0.0324,0.013523,0.002678,0.000431,0.069459
24258000,0.0324,0.013523,0.002678,0.000431,0.047129
24259000,0.0324,0.013523,0.002678,0.000431,0.069929
24260000,0.0324,0.013523,0.002678,0.000431,0.070752
24261000,0.0324,0.013523,0.002678,0.000431,0.047716
24262000,0.0324,0.013523,0.002678,0.000431,0.046306
24263000,0.0324,0.013523,0.002678,0.000431,0.056178
24264000,0.0324,0.013523,0.002678,0.000431,0.045718
24265000,0.0324,0.013523,0.002678,0.000431,0.036669
24266000,0.0324,0.013523,0.002678,0.000431,0.085678
24267000,0.0324,0.013523,0.002678,0.000431,0.064053
24268000,0.0324,0.013523,0.002678,0.000431,0.042663
24269000,0.0324,0.013523,0.002678,0.000431,0.084738
24270000,0.0324,0.013523,0.002678,0.000431,0.035376
24271000,0.0324,0.013523,0.002678,0.000431,0.074865
24272000,0.0324,0.013523,0.002678,0.000431,0.064053
24273000,0.0324,0.013523,0.002678,0.000431,0.064993
24274000,0.0324,0.013523,0.002678,0.000431,0.086031
24275000,0.0324,0.013523,0.002678,0.000431,0.049832
24276000,0.0324,0.013523,0.002678,0.000431,0.056766
24277000,0.0324,0.013523,0.002678,0.000431,0.046894
24278000,0.0324,0.013523,0.002678,0.000431,0.048774
24279000,0.0324,0.013523,0.002678,0.000431,0.074160
24280000,0.0324,0.013523,0.002678,0.000431,0.086618
24281000,0.0324,0.013523,0.002678,0.000431,0.051242
24282000,0.0324,0.013523,0.002678,0.000431,0.062172
24283000,0.0324,0.013523,0.002678,0.000431,0.040430
24284000,0.0324,0.013523,0.002678,0.000431,0.041605
24285000,0.0324,0.013523,0.002678,0.000431,0.042428
24286000,0.0324,0.013523,0.002678,0.000431,0.051360
24287000,0.0324,0.013523,0.002678,0.000431,0.082035
24288000,0.0324,0.013523,0.002678,0.000431,0.064523
24289000,0.0324,0.013523,0.002678,0.000431,0.116470
24290000,0.0324,0.013523,0.002678,0.000431,0.032673
24291000,0.0324,0.013523,0.002678,0.000431,0.065698
24292000,0.0324,0.013523,0.002678,0.000431,0.081212
24293000,0.0324,0.013523,0.002678,0.000431,0.092730
24294000,0.0324,0.013523,0.002678,0.000431,0.046541
24295000,0.0324,0.013523,0.002678,0.000431,0.053710
24296000,0.0324,0.013523,0.002678,0.000431,0.057589
24297000,0.0324,0.013523,0.002678,0.000431,0.029265
24298000,0.0324,0.013523,0.002678,0.000431,0.051477
24299000,0.0324,0.013523,0.002678,0.000431,0.072867
24300000,0.0324,0.013523,0.002678,0.000431,0.080507
24301000,0.0324,0.013523,0.002678,0.000431,0.028207
24302000,0.0324,0.013523,0.002678,0.000431,0.028207
24303000,0.0324,0.013523,0.002678,0.000431,0.043133
24304000,0.0324,0.013523,0.002678,0.000431,0.031262
24305000,0.0324,0.013523,0.002678,0.000431,0.032555
24306000,0.0324,0.013523,0.002678,0.000431,0.036786
24307000,0.0324,0.013523,0.002678,0.000431,0.042780
24308000,0.0324,0.013523,0.002678,0.000431,0.049597
24309000,0.0324,0.013523,0.002678,0.000431,0.036786
24310000,0.0324,0.013523,0.002678,0.000431,0.036316
24311000,0.0324,0.013523,0.002678,0.000431,0.037962
24312000,0.0324,0.013523,0.002678,0.000431,0.070869
24313000,0.0324,0.013523,0.002678,0.000431,0.041252
24314000,0.0324,0.013523,0.002678,0.000431,0.056414
24315000,0.0324,0.013523,0.002678,0.000431,0.047129
24316000,0.0324,0.013523,0.002678,0.000431,0.059117
24317000,0.0324,0.013523,0.002678,0.000431,0.039254
24318000,0.0324,0.013523,0.002678,0.000431,0.062055
24319000,0.0324,0.013523,0.002678,0.000431,0.053475
24320000,0.0324,0.013523,0.002678,0.000431,0.044661
24321000,0.0324,0.013523,0.002678,0.000431,0.033260
24322000,0.0324,0.013523,0.002678,0.000431,0.037727
24323000,0.0324,0.013523,0.002678,0.000431,0.038079
24324000,0.0324,0.013523,0.002678,0.000431,0.033496
24325000,0.0324,0.013523,0.002678,0.000431,0.040665
24326000,0.0324,0.013523,0.002678,0.000431,0.063465
24327000,0.0324,0.013523,0.002678,0.000431,0.040782
24328000,0.0324,0.013523,0.002678,0.000431,0.025151
24329000,0.0324,0.013523,0.002678,0.000431,0.024681
24330000,0.0324,0.013523,0.002678,0.000431,0.032555
24331000,0.0324,0.013523,0.002678,0.000431,0.025856
24332000,0.0324,0.013523,0.002678,0.000431,0.041723
24333000,0.0324,0.013523,0.002678,0.000431,0.042898
24334000,0.0324,0.013523,0.002678,0.000431,0.028207
24335000,0.0324,0.013523,0.002678,0.000431,0.049714
24336000,0.0324,0.013523,0.002678,0.000431,0.034201
24337000,0.0324,0.013523,0.002678,0.000431,0.061820
24338000,0.0324,0.013523,0.002678,0.000431,0.043603
24339000,0.0324,0.013523,0.002678,0.000431,0.050302
24340000,0.0324,0.013523,0.002678,0.000431,0.036904
24341000,0.0324,0.013523,0.002678,0.000431,0.052653
24342000,0.0324,0.013523,0.002678,0.000431,0.051712
24343000,0.0324,0.013523,0.002678,0.000431,0.030322
24344000,0.0324,0.013523,0.002678,0.000431,0.030557
24345000,0.0324,0.013523,0.002678,0.000431,0.043133
24346000,0.0324,0.013523,0.002678,0.000431,0.062643
24347000,0.0324,0.013523,0.002678,0.000431,0.027972
24348000,0.0324,0.013523,0.002678,0.000431,0.040077
24349000,0.0324,0.013523,0.002678,0.000431,0.038549
24350000,0.0324,0.013523,0.002678,0.000431,0.030792
24351000,0.0324,0.013523,0.002678,0.000431,0.053123
24352000,0.0324,0.013523,0.002678,0.000431,0.031145
24353000,0.0324,0.013523,0.002678,0.000431,0.054533
24354000,0.0324,0.013523,0.002678,0.000431,0.060645
24355000,0.0324,0.013523,0.002678,0.000431,0.084385
24356000,0.0324,0.013523,0.002678,0.000431,0.024681
24357000,0.0324,0.013523,0.002678,0.000431,0.132219
24358000,0.0324,0.013523,0.002678,0.000431,0.104600
24359000,0.0324,0.013523,0.002678,0.000431,0.047246
24360000,0.0324,0.013523,0.002678,0.000431,0.034788
24361000,0.0324,0.013523,0.002678,0.000431,0.053358
24362000,0.0324,0.013523,0.002678,0.000431,0.038549
24363000,0.0324,0.013523,0.002678,0.000431,0.053240
24364000,0.0324,0.013523,0.002678,0.000431,0.237877
24365000,0.0324,0.013523,0.002678,0.000431,0.030205
24366000,0.0324,0.013523,0.002678,0.000431,0.121172
24367000,0.0324,0.013523,0.002678,0.000431,0.253391
24368000,0.0324,0.013523,0.002678,0.000431,0.067344
24369000,0.0324,0.013523,0.002678,0.000431,0.228357
24370000,0.0324,0.013523,0.002678,0.000431,0.181816
24371000,0.0324,0.013523,0.002678,0.000431,0.025856
24372000,0.0324,0.013523,0.002678,0.000431,0.040547
24373000,0.0324,0.013523,0.002678,0.000431,0.024798
24374000,0.0324,0.013523,0.002678,0.000431,0.122817
24375000,0.0324,0.013523,0.002678,0.000431,0.240698
24376000,0.0324,0.013523,0.002678,0.000431,0.191571
24377000,0.0324,0.013523,0.002678,0.000431,0.142797
24378000,0.0324,0.013523,0.002678,0.000431,0.022448
24379000,0.0324,0.013523,0.002678,0.000431,0.034201
24380000,0.0324,0.013523,0.002678,0.000431,0.018805
24381000,0.0324,0.013523,0.002678,0.000431,0.032438
24382000,0.0324,0.013523,0.002678,0.000431,0.084973
24383000,0.0324,0.013523,0.002678,0.000431,0.256799
24384000,0.0324,0.013523,0.002678,0.000431,0.049949
24385000,0.0324,0.013523,0.002678,0.000431,0.038314
24386000,0.0324,0.013523,0.002678,0.000431,0.015161
24387000,0.0324,0.013523,0.002678,0.000431,0.037727
24388000,0.0324,0.013523,0.002678,0.000431,0.016336
24389000,0.0324,0.013523,0.002678,0.000431,0.029029
24390000,0.0324,0.013523,0.002678,0.000431,0.048774
24391000,0.0324,0.013523,0.002678,0.000431,0.037727
24392000,0.0324,0.013523,0.002678,0.000431,0.026561
24393000,0.0324,0.013523,0.002678,0.000431,0.022330
24394000,0.0324,0.013523,0.002678,0.000431,0.022683
24395000,0.0324,0.013523,0.002678,0.000431,0.014926
24396000,0.0324,0.013523,0.002678,0.000431,0.111064
24397000,0.0324,0.013523,0.002678,0.000431,0.039607
24398000,0.0324,0.013523,0.002678,0.000431,0.022683
24399000,0.0324,0.013523,0.002678,0.000431,0.015161
24400000,0.0324,0.013523,0.002678,0.000431,0.041487
24401000,0.0324,0.013523,0.002678,0.000431,0.016924
24402000,0.0324,0.013523,0.002678,0.000431,0.020332
24403000,0.0324,0.013523,0.002678,0.000431,0.030675
24404000,0.0324,0.013523,0.002678,0.000431,0.015514
24405000,0.0324,0.013523,0.002678,0.000431,0.011753
24406000,0.0324,0.013523,0.002678,0.000431,0.011753
24407000,0.0324,0.013523,0.002678,0.000431,0.011753
24408000,0.0324,0.013523,0.002678,0.000431,0.011753
24409000,0.0324,0.013523,0.002678,0.000431,0.056061
24410000,0.0324,0.013523,0.002678,0.000431,0.019040
24411000,0.0324,0.013523,0.002678,0.000431,0.018099
24412000,0.0324,0.013523,0.002678,0.000431,0.010578
24413000,0.0324,0.013523,0.002678,0.000431,0.024563
24414000,0.0324,0.013523,0.002678,0.000431,0.009402
24415000,0.0324,0.013523,0.002678,0.000431,0.019862
24416000,0.0324,0.013523,0.002678,0.000431,0.027267
24417000,0.0324,0.013523,0.002678,0.000431,0.010930
24418000,0.0324,0.013523,0.002678,0.000431,0.009402
24419000,0.0324,0.013523,0.002678,0.000431,0.009402
24420000,0.0324,0.013523,0.002678,0.000431,0.016807
24421000,0.0324,0.013523,0.002678,0.000431,0.009285
24422000,0.0324,0.013523,0.002678,0.000431,0.016924
24423000,0.0324,0.013523,0.002678,0.000431,0.009167
24424000,0.0324,0.013523,0.002678,0.000431,0.009402
24425000,0.0324,0.013523,0.002678,0.000431,0.009402
24426000,0.0324,0.013523,0.002678,0.000431,0.016924
24427000,0.0324,0.013523,0.002678,0.000431,0.009402
24428000,0.0324,0.013523,0.002678,0.000431,0.020685
24429000,0.0324,0.013523,0.002678,0.000431,0.023271
24430000,0.0324,0.013523,0.002678,0.000431,0.012811
24431000,0.0324,0.013523,0.002678,0.000431,0.007992
24432000,0.0324,0.013523,0.002678,0.000431,0.008227
24433000,0.0324,0.013523,0.002678,0.000431,0.007992
24434000,0.0324,0.013523,0.002678,0.000431,0.023271
24435000,0.0324,0.013523,0.002678,0.000431,0.045483
24436000,0.0324,0.013523,0.002678,0.000431,0.008109
24437000,0.0324,0.013523,0.002678,0.000431,0.013281
24438000,0.0324,0.013523,0.002678,0.000431,0.007052
24439000,0.0324,0.013523,0.002678,0.000431,0.033496
24440000,0.0324,0.013523,0.002678,0.000431,0.063113
24441000,0.0324,0.013523,0.002678,0.000431,0.022095
24442000,0.0324,0.013523,0.002678,0.000431,0.097078
24443000,0.0324,0.013523,0.002678,0.000431,0.014573
24444000,0.0324,0.013523,0.002678,0.000431,0.007052
24445000,0.0324,0.013523,0.002678,0.000431,0.007052
24446000,0.0324,0.013523,0.002678,0.000431,0.037139
24447000,0.0324,0.013523,0.002678,0.000431,0.094845
24448000,0.0324,0.013523,0.002678,0.000431,0.081212
24449000,0.0324,0.013523,0.002678,0.000431,0.025151
24450000,0.0324,0.013523,0.002678,0.000431,0.013516
24451000,0.0324,0.013523,0.002678,0.000431,0.005876
24452000,0.0324,0.013523,0.002678,0.000431,0.005876
24453000,0.0324,0.013523,0.002678,0.000431,0.005876
24454000,0.0324,0.013523,0.002678,0.000431,0.088616
24455000,0.0324,0.013523,0.002678,0.000431,0.005876
24456000,0.0324,0.013523,0.002678,0.000431,0.005876
24457000,0.0324,0.013523,0.002678,0.000431,0.005876
24458000,0.0324,0.013523,0.002678,0.000431,0.005876
24459000,0.0324,0.013523,0.002678,0.000431,0.028442
24460000,0.0324,0.013523,0.002678,0.000431,0.032555
24461000,0.0324,0.013523,0.002678,0.000431,0.091790
24462000,0.0324,0.013523,0.002678,0.000431,0.040430
24463000,0.0324,0.013523,0.002678,0.000431,0.005876
24464000,0.0324,0.013523,0.002678,0.000431,0.008109
24465000,0.0324,0.013523,0.002678,0.000431,0.015631
24466000,0.0324,0.013523,0.002678,0.000431,0.005876
24467000,0.0324,0.013523,0.002678,0.000431,0.050537
24468000,0.0324,0.013523,0.002678,0.000431,0.014338
24469000,0.0324,0.013523,0.002678,0.000431,0.009520
24470000,0.0324,0.013523,0.002678,0.000431,0.009990
24471000,0.0324,0.013523,0.002678,0.000431,0.005876
24472000,0.0324,0.013523,0.002678,0.000431,0.005876
24473000,0.0324,0.013523,0.002678,0.000431,0.025269
24474000,0.0324,0.013523,0.002678,0.000431,0.129163
24475000,0.0324,0.013523,0.002678,0.000431,0.028442
24476000,0.0324,0.013523,0.002678,0.000431,0.009520
24477000,0.0324,0.013523,0.002678,0.000431,0.009520
24478000,0.0324,0.013523,0.002678,0.000431,0.020920
24479000,0.0324,0.013523,0.002678,0.000431,0.005876
24480000,0.0324,0.013523,0.002678,0.000431,0.016219
24481000,0.0324,0.013523,0.002678,0.000431,0.013398
24482000,0.0324,0.013523,0.002678,0.000431,0.020802
24483000,0.0324,0.013523,0.002678,0.000431,0.019275
24484000,0.0324,0.013523,0.002678,0.000431,0.011870
24485000,0.0324,0.013523,0.002678,0.000431,0.005876
24486000,0.0324,0.013523,0.002678,0.000431,0.005876
24487000,0.0324,0.013523,0.002678,0.000431,0.005876
24488000,0.0324,0.013523,0.002678,0.000431,0.005876
24489000,0.0324,0.013523,0.002678,0.000431,0.027031
24490000,0.0324,0.013523,0.002678,0.000431,0.013398
24491000,0.0324,0.013523,0.002678,0.000431,0.005876
24492000,0.0324,0.013523,0.002678,0.000431,0.005876
24493000,0.0324,0.013523,0.002678,0.000431,0.032555
24494000,0.0324,0.013523,0.002678,0.000431,0.009167
24495000,0.0324,0.013523,0.002678,0.000431,0.005759
24496000,0.0324,0.013523,0.002678,0.000431,0.005876
24497000,0.0324,0.013523,0.002678,0.000431,0.008932
24498000,0.0324,0.013523,0.002678,0.000431,0.005876
24499000,0.0324,0.013523,0.002678,0.000431,0.028442
24500000,0.0324,0.013523,0.002678,0.000431,0.028324
24501000,0.0324,0.013523,0.002678,0.000431,0.005759
24502000,0.0324,0.013523,0.002678,0.000431,0.005876
24503000,0.0324,0.013523,0.002678,0.000431,0.022448
24504000,0.0324,0.013523,0.002678,0.000431,0.011870
24505000,0.0324,0.013523,0.002678,0.000431,0.007404
24506000,0.0324,0.013523,0.002678,0.000431,0.026914
24507000,0.0324,0.013523,0.002678,0.000431,0.005876
24508000,0.0324,0.013523,0.002678,0.000431,0.005876
24509000,0.0324,0.013523,0.002678,0.000431,0.005759
24510000,0.0324,0.013523,0.002678,0.000431,0.005759
24511000,0.0324,0.013523,0.002678,0.000431,0.005876
24512000,0.0324,0.013523,0.002678,0.000431,0.017159
24513000,0.0324,0.013523,0.002678,0.000431,0.017159
24514000,0.0324,0.013523,0.002678,0.000431,0.013398
24515000,0.0324,0.013523,0.002678,0.000431,0.062995
24516000,0.0324,0.013523,0.002678,0.000431,0.020920
24517000,0.0324,0.013523,0.002678,0.000431,0.005876
24518000,0.0324,0.013523,0.002678,0.000431,0.005876
24519000,0.0324,0.013523,0.002678,0.000431,0.088616
24520000,0.0324,0.013523,0.002678,0.000431,0.060997
24521000,0.0324,0.013523,0.002678,0.000431,0.030675
24522000,0.0324,0.013523,0.002678,0.000431,0.079096
24523000,0.0324,0.013523,0.002678,0.000431,0.005759
24524000,0.0324,0.013523,0.002678,0.000431,0.013163
24525000,0.0324,0.013523,0.002678,0.000431,0.005876
24526000,0.0324,0.013523,0.002678,0.000431,0.020920
24527000,0.0324,0.013523,0.002678,0.000431,0.005876
24528000,0.0324,0.013523,0.002678,0.000431,0.165127
24529000,0.0324,0.013523,0.002678,0.000431,0.143502
24530000,0.0324,0.013523,0.002678,0.000431,0.005876
24531000,0.0324,0.013523,0.002678,0.000431,0.020920
24532000,0.0324,0.013523,0.002678,0.000431,0.005876
24533000,0.0324,0.013523,0.002678,0.000431,0.005876
24534000,0.0324,0.013523,0.002678,0.000431,0.005876
24535000,0.0324,0.013523,0.002678,0.000431,0.044896
24536000,0.0324,0.013523,0.002678,0.000431,0.011988
24537000,0.0324,0.013523,0.002678,0.000431,0.012928
24538000,0.0324,0.013523,0.002678,0.000431,0.066286
24539000,0.0324,0.013523,0.002678,0.000431,0.043485
24540000,0.0324,0.013523,0.002678,0.000431,0.005876
24541000,0.0324,0.013523,0.002678,0.000431,0.043250
24542000,0.0324,0.013523,0.002678,0.000431,0.036199
24543000,0.0324,0.013523,0.002678,0.000431,0.005876
24544000,0.0324,0.013523,0.002678,0.000431,0.067579
24545000,0.0324,0.013523,0.002678,0.000431,0.014926
24546000,0.0324,0.013523,0.002678,0.000431,0.005876
24547000,0.0324,0.013523,0.002678,0.000431,0.005876
24548000,0.0324,0.013523,0.002678,0.000431,0.146440
24549000,0.0324,0.013523,0.002678,0.000431,0.026326
24550000,0.0324,0.013523,0.002678,0.000431,0.005641
24551000,0.0324,0.013523,0.002678,0.000431,0.005876
24552000,0.0324,0.013523,0.002678,0.000431,0.119996
24553000,0.0324,0.013523,0.002678,0.000431,0.074630
24554000,0.0324,0.013523,0.002678,0.000431,0.051007
24555000,0.0324,0.013523,0.002678,0.000431,0.278542
24556000,0.0324,0.013523,0.002678,0.000431,0.097078
24557000,0.0324,0.013523,0.002678,0.000431,0.019510
24558000,0.0324,0.013523,0.002678,0.000431,0.060645
24559000,0.0324,0.013523,0.002678,0.000431,0.017982
24560000,0.0324,0.013523,0.002678,0.000431,0.030910
24561000,0.0324,0.013523,0.002678,0.000431,0.043485
24562000,0.0324,0.013523,0.002678,0.000431,0.005876
24563000,0.0324,0.013523,0.002678,0.000431,0.013398
24564000,0.0324,0.013523,0.002678,0.000431,0.005876
24565000,0.0324,0.013523,0.002678,0.000431,0.005876
24566000,0.0324,0.013523,0.002678,0.000431,0.005876
24567000,0.0324,0.013523,0.002678,0.000431,0.013398
24568000,0.0324,0.013523,0.002678,0.000431,0.058529
24569000,0.0324,0.013523,0.002678,0.000431,0.005876
24570000,0.0324,0.013523,0.002678,0.000431,0.013398
24571000,0.0324,0.013523,0.002678,0.000431,0.013398
24572000,0.0324,0.013523,0.002678,0.000431,0.005876
24573000,0.0324,0.013523,0.002678,0.000431,0.024681
24574000,0.0324,0.013523,0.002678,0.000431,0.014809
24575000,0.0324,0.013523,0.002678,0.000431,0.015749
24576000,0.0324,0.013523,0.002678,0.000431,0.013398
24577000,0.0324,0.013523,0.002678,0.000431,0.005876
24578000,0.0324,0.013523,0.002678,0.000431,0.005876
24579000,0.0324,0.013523,0.002678,0.000431,0.030205
24580000,0.0324,0.013523,0.002678,0.000431,0.049009
24581000,0.0324,0.013523,0.002678,0.000431,0.005876
24582000,0.0324,0.013523,0.002678,0.000431,0.009755
24583000,0.0324,0.013523,0.002678,0.000431,0.131514
24584000,0.0324,0.013523,0.002678,0.000431,0.019040
24585000,0.0324,0.013523,0.002678,0.000431,0.005876
24586000,0.0324,0.013523,0.002678,0.000431,0.032908
24587000,0.0324,0.013523,0.002678,0.000431,0.033025
24588000,0.0324,0.013523,0.002678,0.000431,0.019392
24589000,0.0324,0.013523,0.002678,0.000431,0.020920
24590000,0.0324,0.013523,0.002678,0.000431,0.028207
24591000,0.0324,0.013523,0.002678,0.000431,0.005876
24592000,0.0324,0.013523,0.002678,0.000431,0.033731
24593000,0.0324,0.013523,0.002678,0.000431,0.030675
24594000,0.0324,0.013523,0.002678,0.000431,0.035964
24595000,0.0324,0.013523,0.002678,0.000431,0.005876
24596000,0.0324,0.013523,0.002678,0.000431,0.066051
24597000,0.0324,0.013523,0.002678,0.000431,0.005876
24598000,0.0324,0.013523,0.002678,0.000431,0.005876
24599000,0.0324,0.013523,0.002678,0.000431,0.013398
24600000,0.0324,0.013523,0.002678,0.000431,0.005759
24601000,0.0324,0.013523,0.002678,0.000431,0.177585
24602000,0.0324,0.013523,0.002678,0.000431,0.014338
24603000,0.0324,0.013523,0.002678,0.000431,0.013398
24604000,0.0324,0.013523,0.002678,0.000431,0.005876
24605000,0.0324,0.013523,0.002678,0.000431,0.011048
24606000,0.0324,0.013523,0.002678,0.000431,0.071457
24607000,0.0324,0.013523,0.002678,0.000431,0.005876
24608000,0.0324,0.013523,0.002678,0.000431,0.005876
24609000,0.0324,0.013523,0.002678,0.000431,0.020920
24610000,0.0324,0.013523,0.002678,0.000431,0.005876
24611000,0.0324,0.013523,0.002678,0.000431,0.005876
24612000,0.0324,0.013523,0.002678,0.000431,0.043368
24613000,0.0324,0.013523,0.002678,0.000431,0.005759
24614000,0.0324,0.013523,0.002678,0.000431,0.043603
24615000,0.0324,0.013523,0.002678,0.000431,0.027737
24616000,0.0324,0.013523,0.002678,0.000431,0.074160
24617000,0.0324,0.013523,0.002678,0.000431,0.005759
24618000,0.0324,0.013523,0.002678,0.000431,0.005759
24619000,0.0324,0.013523,0.002678,0.000431,0.028442
24620000,0.0324,0.013523,0.002678,0.000431,0.005876
24621000,0.0324,0.013523,0.002678,0.000431,0.005876
24622000,0.0324,0.013523,0.002678,0.000431,0.054886
24623000,0.0324,0.013523,0.002678,0.000431,0.009755
24624000,0.0324,0.013523,0.002678,0.000431,0.005876
24625000,0.0324,0.013523,0.002678,0.000431,0.005876
24626000,0.0324,0.013523,0.002678,0.000431,0.005876
24627000,0.0324,0.013523,0.002678,0.000431,0.035376
24628000,0.0324,0.013523,0.002678,0.000431,0.031850
24629000,0.0324,0.013523,0.002678,0.000431,0.153492
24630000,0.0324,0.013523,0.002678,0.000431,0.005876
24631000,0.0324,0.013523,0.002678,0.000431,0.005876
24632000,0.0324,0.013523,0.002678,0.000431,0.036199
24633000,0.0324,0.013523,0.002678,0.000431,0.005876
24634000,0.0324,0.013523,0.002678,0.000431,0.005876
24635000,0.0324,0.013523,0.002678,0.000431,0.025974
24636000,0.0324,0.013523,0.002678,0.000431,0.038432
24637000,0.0324,0.013523,0.002678,0.000431,0.005876
24638000,0.0324,0.013523,0.002678,0.000431,0.019157
24639000,0.0324,0.013523,0.002678,0.000431,0.007639
24640000,0.0324,0.013523,0.002678,0.000431,0.019392
24641000,0.0324,0.013523,0.002678,0.000431,0.103895
24642000,0.0324,0.013523,0.002678,0.000431,0.223186
24643000,0.0324,0.013523,0.002678,0.000431,0.037609
24644000,0.0324,0.013523,0.002678,0.000431,0.005876
24645000,0.0324,0.013523,0.002678,0.000431,0.032673
24646000,0.0324,0.013523,0.002678,0.000431,0.005876
24647000,0.0324,0.013523,0.002678,0.000431,0.005876
24648000,0.0324,0.013523,0.002678,0.000431,0.080272
24649000,0.0324,0.013523,0.002678,0.000431,0.029029
24650000,0.0324,0.013523,0.002678,0.000431,0.005876
24651000,0.0324,0.013523,0.002678,0.000431,0.013398
24652000,0.0324,0.013523,0.002678,0.000431,0.185224
24653000,0.0324,0.013523,0.002678,0.000431,0.005876
24654000,0.0324,0.013523,0.002678,0.000431,0.033848
24655000,0.0324,0.013523,0.002678,0.000431,0.033848
24656000,0.0324,0.013523,0.002678,0.000431,0.068636
24657000,0.0324,0.013523,0.002678,0.000431,0.038079
24658000,0.0324,0.013523,0.002678,0.000431,0.039019
24659000,0.0324,0.013523,0.002678,0.000431,0.005876
24660000,0.0324,0.013523,0.002678,0.000431,0.024916
24661000,0.0324,0.013523,0.002678,0.000431,0.022565
24662000,0.0324,0.013523,0.002678,0.000431,0.059234
24663000,0.0324,0.013523,0.002678,0.000431,0.014338
24664000,0.0324,0.013523,0.002678,0.000431,0.005876
24665000,0.0324,0.013523,0.002678,0.000431,0.013398
24666000,0.0324,0.013523,0.002678,0.000431,0.062055
24667000,0.0324,0.013523,0.002678,0.000431,0.005641
24668000,0.0324,0.013523,0.002678,0.000431,0.009167
24669000,0.0324,0.013523,0.002678,0.000431,0.058529
24670000,0.0324,0.013523,0.002678,0.000431,0.028442
24671000,0.0324,0.013523,0.002678,0.000431,0.005876
24672000,0.0324,0.013523,0.002678,0.000431,0.028442
24673000,0.0324,0.013523,0.002678,0.000431,0.005876
24674000,0.0324,0.013523,0.002678,0.000431,0.005876
24675000,0.0324,0.013523,0.002678,0.000431,0.022683
24676000,0.0324,0.013523,0.002678,0.000431,0.020802
24677000,0.0324,0.013523,0.002678,0.000431,0.015279
24678000,0.0324,0.013523,0.002678,0.000431,0.043250
24679000,0.0324,0.013523,0.002678,0.000431,0.103425
24680000,0.0324,0.013523,0.002678,0.000431,0.051477
24681000,0.0324,0.013523,0.002678,0.000431,0.017629
24682000,0.0324,0.013523,0.002678,0.000431,0.020920
24683000,0.0324,0.013523,0.002678,0.000431,0.005876
24684000,0.0324,0.013523,0.002678,0.000431,0.005876
24685000,0.0324,0.013523,0.002678,0.000431,0.043485
24686000,0.0324,0.013523,0.002678,0.000431,0.013398
24687000,0.0324,0.013523,0.002678,0.000431,0.032085
24688000,0.0324,0.013523,0.002678,0.000431,0.058882
24689000,0.0324,0.013523,0.002678,0.000431,0.007639
24690000,0.0324,0.013523,0.002678,0.000431,0.220130
24691000,0.0324,0.013523,0.002678,0.000431,0.015279
24692000,0.0324,0.013523,0.002678,0.000431,0.013398
24693000,0.0324,0.013523,0.002678,0.000431,0.013633
24694000,0.0324,0.013523,0.002678,0.000431,0.020920
24695000,0.0324,0.013523,0.002678,0.000431,0.005876
24696000,0.0324,0.013523,0.002678,0.000431,0.007874
24697000,0.0324,0.013523,0.002678,0.000431,0.094140
24698000,0.0324,0.013523,0.002678,0.000431,0.073573
24699000,0.0324,0.013523,0.002678,0.000431,0.059587
24700000,0.0324,0.013523,0.002678,0.000431,0.072397
24701000,0.0324,0.013523,0.002678,0.000431,0.147968
24702000,0.0324,0.013523,0.002678,0.000431,0.006934
24703000,0.0324,0.013523,0.002678,0.000431,0.031145
24704000,0.0324,0.013523,0.002678,0.000431,0.047364
24705000,0.0324,0.013523,0.002678,0.000431,0.036199
24706000,0.0324,0.013523,0.002678,0.000431,0.084973
24707000,0.0324,0.013523,0.002678,0.000431,0.007992
24708000,0.0324,0.013523,0.002678,0.000431,0.007992
24709000,0.0324,0.013523,0.002678,0.000431,0.005876
24710000,0.0324,0.013523,0.002678,0.000431,0.032203
24711000,0.0324,0.013523,0.002678,0.000431,0.009637
24712000,0.0324,0.013523,0.002678,0.000431,0.005641
24713000,0.0324,0.013523,0.002678,0.000431,0.006347
24714000,0.0324,0.013523,0.002678,0.000431,0.012811
24715000,0.0324,0.013523,0.002678,0.000431,0.009520
24716000,0.0324,0.013523,0.002678,0.000431,0.009637
24717000,0.0324,0.013523,0.002678,0.000431,0.046776
24718000,0.0324,0.013523,0.002678,0.000431,0.005876
24719000,0.0324,0.013523,0.002678,0.000431,0.005876
24720000,0.0324,0.013523,0.002678,0.000431,0.042780
24721000,0.0324,0.013523,0.002678,0.000431,0.017394
24722000,0.0324,0.013523,0.002678,0.000431,0.005876
24723000,0.0324,0.013523,0.002678,0.000431,0.049009
24724000,0.0324,0.013523,0.002678,0.000431,0.030440
24725000,0.0324,0.013523,0.002678,0.000431,0.090614
24726000,0.0324,0.013523,0.002678,0.000431,0.033496
24727000,0.0324,0.013523,0.002678,0.000431,0.035729
24728000,0.0324,0.013523,0.002678,0.000431,0.017629
24729000,0.0324,0.013523,0.002678,0.000431,0.013398
24730000,0.0324,0.013523,0.002678,0.000431,0.034436
24731000,0.0324,0.013523,0.002678,0.000431,0.037491
24732000,0.0324,0.013523,0.002678,0.000431,0.005876
24733000,0.0324,0.013523,0.002678,0.000431,0.007874
24734000,0.0324,0.013523,0.002678,0.000431,0.192159
24735000,0.0324,0.013523,0.002678,0.000431,0.110476
24736000,0.0324,0.013523,0.002678,0.000431,0.009637
24737000,0.0324,0.013523,0.002678,0.000431,0.005876
24738000,0.0324,0.013523,0.002678,0.000431,0.005876
24739000,0.0324,0.013523,0.002678,0.000431,0.005876
24740000,0.0324,0.013523,0.002678,0.000431,0.058529
24741000,0.0324,0.013523,0.002678,0.000431,0.121524
24742000,0.0324,0.013523,0.002678,0.000431,0.032908
24743000,0.0324,0.013523,0.002678,0.000431,0.005876
24744000,0.0324,0.013523,0.002678,0.000431,0.005876
24745000,0.0324,0.013523,0.002678,0.000431,0.005876
24746000,0.0324,0.013523,0.002678,0.000431,0.005876
24747000,0.0324,0.013523,0.002678,0.000431,0.009637
24748000,0.0324,0.013523,0.002678,0.000431,0.024681
24749000,0.0324,0.013523,0.002678,0.000431,0.020920
24750000,0.0324,0.013523,0.002678,0.000431,0.005876
24751000,0.0324,0.013523,0.002678,0.000431,0.005876
24752000,0.0324,0.013523,0.002678,0.000431,0.005641
24753000,0.0324,0.013523,0.002678,0.000431,0.005876
24754000,0.0324,0.013523,0.002678,0.000431,0.020920
24755000,0.0324,0.013523,0.002678,0.000431,0.098959
24756000,0.0324,0.013523,0.002678,0.000431,0.005876
24757000,0.0324,0.013523,0.002678,0.000431,0.005876
24758000,0.0324,0.013523,0.002678,0.000431,0.005876
24759000,0.0324,0.013523,0.002678,0.000431,0.005876
24760000,0.0324,0.013523,0.002678,0.000431,0.148556
24761000,0.0324,0.013523,0.002678,0.000431,0.049949
24762000,0.0324,0.013523,0.002678,0.000431,0.074630
24763000,0.0324,0.013523,0.002678,0.000431,0.005876
24764000,0.0324,0.013523,0.002678,0.000431,0.005641
24765000,0.0324,0.013523,0.002678,0.000431,0.122934
24766000,0.0324,0.013523,0.002678,0.000431,0.005876
24767000,0.0324,0.013523,0.002678,0.000431,0.046776
24768000,0.0324,0.013523,0.002678,0.000431,0.005876
24769000,0.0324,0.013523,0.002678,0.000431,0.005876
24770000,0.0324,0.013523,0.002678,0.000431,0.005876
24771000,0.0324,0.013523,0.002678,0.000431,0.022800
24772000,0.0324,0.013523,0.002678,0.000431,0.049127
24773000,0.0324,0.013523,0.002678,0.000431,0.005406
24774000,0.0324,0.013523,0.002678,0.000431,0.020920
24775000,0.0324,0.013523,0.002678,0.000431,0.005876
24776000,0.0324,0.013523,0.002678,0.000431,0.005876
24777000,0.0324,0.013523,0.002678,0.000431,0.023623
24778000,0.0324,0.013523,0.002678,0.000431,0.040782
24779000,0.0324,0.013523,0.002678,0.000431,0.005876
24780000,0.0324,0.013523,0.002678,0.000431,0.028442
24781000,0.0324,0.013523,0.002678,0.000431,0.054298
24782000,0.0324,0.013523,0.002678,0.000431,0.005759
24783000,0.0324,0.013523,0.002678,0.000431,0.005641
24784000,0.0324,0.013523,0.002678,0.000431,0.126108
24785000,0.0324,0.013523,0.002678,0.000431,0.035964
24786000,0.0324,0.013523,0.002678,0.000431,0.013398
24787000,0.0324,0.013523,0.002678,0.000431,0.013398
24788000,0.0324,0.013523,0.002678,0.000431,0.005876
24789000,0.0324,0.013523,0.002678,0.000431,0.005876
24790000,0.0324,0.013523,0.002678,0.000431,0.021038
24791000,0.0324,0.013523,0.002678,0.000431,0.088499
24792000,0.0324,0.013523,0.002678,0.000431,0.005876
24793000,0.0324,0.013523,0.002678,0.000431,0.020920
24794000,0.0324,0.013523,0.002678,0.000431,0.005876
24795000,0.0324,0.013523,0.002678,0.000431,0.005876
24796000,0.0324,0.013523,0.002678,0.000431,0.005876
24797000,0.0324,0.013523,0.002678,0.000431,0.028442
24798000,0.0324,0.013523,0.002678,0.000431,0.005876
24799000,0.0324,0.013523,0.002678,0.000431,0.013163
24800000,0.0324,0.013523,0.002678,0.000431,0.020920
24801000,0.0324,0.013523,0.002678,0.000431,0.005876
24802000,0.0324,0.013523,0.002678,0.000431,0.005876
24803000,0.0324,0.013523,0.002678,0.000431,0.005876
24804000,0.0324,0.013523,0.002678,0.000431,0.071105
24805000,0.0324,0.013523,0.002678,0.000431,0.008345
24806000,0.0324,0.013523,0.002678,0.000431,0.013398
24807000,0.0324,0.013523,0.002678,0.000431,0.005876
24808000,0.0324,0.013523,0.002678,0.000431,0.005876
24809000,0.0324,0.013523,0.002678,0.000431,0.005876
24810000,0.0324,0.013523,0.002678,0.000431,0.039725
24811000,0.0324,0.013523,0.002678,0.000431,0.032203
24812000,0.0324,0.013523,0.002678,0.000431,0.005876
24813000,0.0324,0.013523,0.002678,0.000431,0.005524
24814000,0.0324,0.013523,0.002678,0.000431,0.005759
24815000,0.0324,0.013523,0.002678,0.000431,0.005876
24816000,0.0324,0.013523,0.002678,0.000431,0.005876
24817000,0.0324,0.013523,0.002678,0.000431,0.032085
24818000,0.0324,0.013523,0.002678,0.000431,0.017042
24819000,0.0324,0.013523,0.002678,0.000431,0.013398
24820000,0.0324,0.013523,0.002678,0.000431,0.005876
24821000,0.0324,0.013523,0.002678,0.000431,0.005876
24822000,0.0324,0.013523,0.002678,0.000431,0.005876
24823000,0.0324,0.013523,0.002678,0.000431,0.103660
24824000,0.0324,0.013523,0.002678,0.000431,0.005641
24825000,0.0324,0.013523,0.002678,0.000431,0.005876
24826000,0.0324,0.013523,0.002678,0.000431,0.005759
24827000,0.0324,0.013523,0.002678,0.000431,0.005759
24828000,0.0324,0.013523,0.002678,0.000431,0.005876
24829000,0.0324,0.013523,0.002678,0.000431,0.005876
24830000,0.0324,0.013523,0.002678,0.000431,0.013398
24831000,0.0324,0.013523,0.002678,0.000431,0.058529
24832000,0.0324,0.013523,0.002678,0.000431,0.005876
24833000,0.0324,0.013523,0.002678,0.000431,0.005876
24834000,0.0324,0.013523,0.002678,0.000431,0.005876
24835000,0.0324,0.013523,0.002678,0.000431,0.005876
24836000,0.0324,0.013523,0.002678,0.000431,0.005876
24837000,0.0324,0.013523,0.002678,0.000431,0.005876
24838000,0.0324,0.013523,0.002678,0.000431,0.013398
24839000,0.0324,0.013523,0.002678,0.000431,0.013163
24840000,0.0324,0.013523,0.002678,0.000431,0.005876
24841000,0.0324,0.013523,0.002678,0.000431,0.005876
24842000,0.0324,0.013523,0.002678,0.000431,0.080624
24843000,0.0324,0.013523,0.002678,0.000431,0.043720
24844000,0.0324,0.013523,0.002678,0.000431,0.005876
24845000,0.0324,0.013523,0.002678,0.000431,0.005876
24846000,0.0324,0.013523,0.002678,0.000431,0.005876
24847000,0.0324,0.013523,0.002678,0.000431,0.005876
24848000,0.0324,0.013523,0.002678,0.000431,0.016336
24849000,0.0324,0.013523,0.002678,0.000431,0.092965
24850000,0.0324,0.013523,0.002678,0.000431,0.034083
24851000,0.0324,0.013523,0.002678,0.000431,0.022448
24852000,0.0324,0.013523,0.002678,0.000431,0.036316
24853000,0.0324,0.013523,0.002678,0.000431,0.005759
24854000,0.0324,0.013523,0.002678,0.000431,0.005759
24855000,0.0324,0.013523,0.002678,0.000431,0.013398
24856000,0.0324,0.013523,0.002678,0.000431,0.017159
24857000,0.0324,0.013523,0.002678,0.000431,0.047246
24858000,0.0324,0.013523,0.002678,0.000431,0.028442
24859000,0.0324,0.013523,0.002678,0.000431,0.020920
24860000,0.0324,0.013523,0.002678,0.000431,0.005876
24861000,0.0324,0.013523,0.002678,0.000431,0.017394
24862000,0.0324,0.013523,0.002678,0.000431,0.144325
24863000,0.0324,0.013523,0.002678,0.000431,0.017159
24864000,0.0324,0.013523,0.002678,0.000431,0.084620
24865000,0.0324,0.013523,0.002678,0.000431,0.005876
24866000,0.0324,0.013523,0.002678,0.000431,0.005876
24867000,0.0324,0.013523,0.002678,0.000431,0.005876
24868000,0.0324,0.013523,0.002678,0.000431,0.015866
24869000,0.0324,0.013523,0.002678,0.000431,0.016454
24870000,0.0324,0.013523,0.002678,0.000431,0.030440
24871000,0.0324,0.013523,0.002678,0.000431,0.047129
24872000,0.0324,0.013523,0.002678,0.000431,0.009755
24873000,0.0324,0.013523,0.002678,0.000431,0.005876
24874000,0.0324,0.013523,0.002678,0.000431,0.013398
24875000,0.0324,0.013523,0.002678,0.000431,0.035964
24876000,0.0324,0.013523,0.002678,0.000431,0.035964
24877000,0.0324,0.013523,0.002678,0.000431,0.058529
24878000,0.0324,0.013523,0.002678,0.000431,0.043485
24879000,0.0324,0.013523,0.002678,0.000431,0.005524
24880000,0.0324,0.013523,0.002678,0.000431,0.005759
24881000,0.0324,0.013523,0.002678,0.000431,0.051007
24882000,0.0324,0.013523,0.002678,0.000431,0.005876
24883000,0.0324,0.013523,0.002678,0.000431,0.005876
24884000,0.0324,0.013523,0.002678,0.000431,0.009637
24885000,0.0324,0.013523,0.002678,0.000431,0.009637
24886000,0.0324,0.013523,0.002678,0.000431,0.005876
24887000,0.0324,0.013523,0.002678,0.000431,0.005759
24888000,0.0324,0.013523,0.002678,0.000431,0.088381
24889000,0.0324,0.013523,0.002678,0.000431,0.013281
24890000,0.0324,0.013523,0.002678,0.000431,0.005876
24891000,0.0324,0.013523,0.002678,0.000431,0.013398
24892000,0.0324,0.013523,0.002678,0.000431,0.005876
24893000,0.0324,0.013523,0.002678,0.000431,0.005876
24894000,0.0324,0.013523,0.002678,0.000431,0.028442
24895000,0.0324,0.013523,0.002678,0.000431,0.005876
24896000,0.0324,0.013523,0.002678,0.000431,0.051007
24897000,0.0324,0.013523,0.002678,0.000431,0.005876
24898000,0.0324,0.013523,0.002678,0.000431,0.005876
24899000,0.0324,0.013523,0.002678,0.000431,0.005876
24900000,0.0324,0.013523,0.002678,0.000431,0.028442
24901000,0.0324,0.013523,0.002678,0.000431,0.005876
24902000,0.0324,0.013523,0.002678,0.000431,0.030440
24903000,0.0324,0.013523,0.002678,0.000431,0.094140
24904000,0.0324,0.013523,0.002678,0.000431,0.013163
24905000,0.0324,0.013523,0.002678,0.000431,0.005876
24906000,0.0324,0.013523,0.002678,0.000431,0.013398
24907000,0.0324,0.013523,0.002678,0.000431,0.035964
24908000,0.0324,0.013523,0.002678,0.000431,0.005876
24909000,0.0324,0.013523,0.002678,0.000431,0.015279
24910000,0.0324,0.013523,0.002678,0.000431,0.038549
24911000,0.0324,0.013523,0.002678,0.000431,0.091672
24912000,0.0324,0.013523,0.002678,0.000431,0.005876
24913000,0.0324,0.013523,0.002678,0.000431,0.024681
24914000,0.0324,0.013523,0.002678,0.000431,0.024681
24915000,0.0324,0.013523,0.002678,0.000431,0.005876
24916000,0.0324,0.013523,0.002678,0.000431,0.057354
24917000,0.0324,0.013523,0.002678,0.000431,0.020920
24918000,0.0324,0.013523,0.002678,0.000431,0.005876
24919000,0.0324,0.013523,0.002678,0.000431,0.037021
24920000,0.0324,0.013523,0.002678,0.000431,0.070869
24921000,0.0324,0.013523,0.002678,0.000431,0.020920
24922000,0.0324,0.013523,0.002678,0.000431,0.051007
24923000,0.0324,0.013523,0.002678,0.000431,0.013398
24924000,0.0324,0.013523,0.002678,0.000431,0.020920
24925000,0.0324,0.013523,0.002678,0.000431,0.005876
24926000,0.0324,0.013523,0.002678,0.000431,0.043485
24927000,0.0324,0.013523,0.002678,0.000431,0.013398
24928000,0.0324,0.013523,0.002678,0.000431,0.005641
24929000,0.0324,0.013523,0.002678,0.000431,0.005876
24930000,0.0324,0.013523,0.002678,0.000431,0.040430
24931000,0.0324,0.013523,0.002678,0.000431,0.023976
24932000,0.0324,0.013523,0.002678,0.000431,0.034788
24933000,0.0324,0.013523,0.002678,0.000431,0.014573
24934000,0.0324,0.013523,0.002678,0.000431,0.005876
24935000,0.0324,0.013523,0.002678,0.000431,0.035023
24936000,0.0324,0.013523,0.002678,0.000431,0.021860
24937000,0.0324,0.013523,0.002678,0.000431,0.132572
24938000,0.0324,0.013523,0.002678,0.000431,0.005876
24939000,0.0324,0.013523,0.002678,0.000431,0.014573
24940000,0.0324,0.013523,0.002678,0.000431,0.005876
24941000,0.0324,0.013523,0.002678,0.000431,0.005876
24942000,0.0324,0.013523,0.002678,0.000431,0.028442
24943000,0.0324,0.013523,0.002678,0.000431,0.020097
24944000,0.0324,0.013523,0.002678,0.000431,0.056296
24945000,0.0324,0.013523,0.002678,0.000431,0.032673
24946000,0.0324,0.013523,0.002678,0.000431,0.005759
24947000,0.0324,0.013523,0.002678,0.000431,0.005759
24948000,0.0324,0.013523,0.002678,0.000431,0.043720
24949000,0.0324,0.013523,0.002678,0.000431,0.067226
24950000,0.0324,0.013523,0.002678,0.000431,0.005876
24951000,0.0324,0.013523,0.002678,0.000431,0.119526
24952000,0.0324,0.013523,0.002678,0.000431,0.018452
24953000,0.0324,0.013523,0.002678,0.000431,0.005876
24954000,0.0324,0.013523,0.002678,0.000431,0.005876
24955000,0.0324,0.013523,0.002678,0.000431,0.009167
24956000,0.0324,0.013523,0.002678,0.000431,0.010107
24957000,0.0324,0.013523,0.002678,0.000431,0.051007
24958000,0.0324,0.013523,0.002678,0.000431,0.132572
24959000,0.0324,0.013523,0.002678,0.000431,0.013398
24960000,0.0324,0.013523,0.002678,0.000431,0.005876
24961000,0.0324,0.013523,0.002678,0.000431,0.005876
24962000,0.0324,0.013523,0.002678,0.000431,0.035846
24963000,0.0324,0.013523,0.002678,0.000431,0.005759
24964000,0.0324,0.013523,0.002678,0.000431,0.013398
24965000,0.0324,0.013523,0.002678,0.000431,0.047246
24966000,0.0324,0.013523,0.002678,0.000431,0.017394
24967000,0.0324,0.013523,0.002678,0.000431,0.005876
24968000,0.0324,0.013523,0.002678,0.000431,0.005641
24969000,0.0324,0.013523,0.002678,0.000431,0.005876
24970000,0.0324,0.013523,0.002678,0.000431,0.005876
24971000,0.0324,0.013523,0.002678,0.000431,0.035964
24972000,0.0324,0.013523,0.002678,0.000431,0.005876
24973000,0.0324,0.013523,0.002678,0.000431,0.005876
24974000,0.0324,0.013523,0.002678,0.000431,0.022330
24975000,0.0324,0.013523,0.002678,0.000431,0.028677
24976000,0.0324,0.013523,0.002678,0.000431,0.005876
24977000,0.0324,0.013523,0.002678,0.000431,0.031498
24978000,0.0324,0.013523,0.002678,0.000431,0.010342
24979000,0.0324,0.013523,0.002678,0.000431,0.005876
24980000,0.0324,0.013523,0.002678,0.000431,0.020685
24981000,0.0324,0.013523,0.002678,0.000431,0.024916
24982000,0.0324,0.013523,0.002678,0.000431,0.039960
24983000,0.0324,0.013523,0.002678,0.000431,0.005876
24984000,0.0324,0.013523,0.002678,0.000431,0.058529
24985000,0.0324,0.013523,0.002678,0.000431,0.005876
24986000,0.0324,0.013523,0.002678,0.000431,0.005759
24987000,0.0324,0.013523,0.002678,0.000431,0.021978
24988000,0.0324,0.013523,0.002678,0.000431,0.005876
24989000,0.0324,0.013523,0.002678,0.000431,0.005876
24990000,0.0324,0.013523,0.002678,0.000431,0.028207
24991000,0.0324,0.013523,0.002678,0.000431,0.029500
24992000,0.0324,0.013523,0.002678,0.000431,0.005759
24993000,0.0324,0.013523,0.002678,0.000431,0.009637
24994000,0.0324,0.013523,0.002678,0.000431,0.017159
24995000,0.0324,0.013523,0.002678,0.000431,0.009872
24996000,0.0324,0.013523,0.002678,0.000431,0.018099
24997000,0.0324,0.013523,0.002678,0.000431,0.013398
24998000,0.0324,0.013523,0.002678,0.000431,0.005876
24999000,0.0324,0.013523,0.002678,0.000431,0.005876
