Cycle,Area(mm^2),PeakDynamic(W),SubthresholdLeakage(W),GateLeakage(W),RunTimeDynamic(W)
2000000,0.0324,0.013523,0.002678,0.000431,0.222951
2001000,0.0324,0.013523,0.002678,0.000431,0.171356
2002000,0.0324,0.013523,0.002678,0.000431,0.107186
2003000,0.0324,0.013523,0.002678,0.000431,0.067696
2004000,0.0324,0.013523,0.002678,0.000431,0.157840
2005000,0.0324,0.013523,0.002678,0.000431,0.110359
2006000,0.0324,0.013523,0.002678,0.000431,0.169123
2007000,0.0324,0.013523,0.002678,0.000431,0.092377
2008000,0.0324,0.013523,0.002678,0.000431,0.133159
2009000,0.0324,0.013523,0.002678,0.000431,0.164304
2010000,0.0324,0.013523,0.002678,0.000431,0.035258
2011000,0.0324,0.013523,0.002678,0.000431,0.101074
2012000,0.0324,0.013523,0.002678,0.000431,0.113297
2013000,0.0324,0.013523,0.002678,0.000431,0.124697
2014000,0.0324,0.013523,0.002678,0.000431,0.190396
2015000,0.0324,0.013523,0.002678,0.000431,0.177585
2016000,0.0324,0.013523,0.002678,0.000431,0.061467
2017000,0.0324,0.013523,0.002678,0.000431,0.068754
2018000,0.0324,0.013523,0.002678,0.000431,0.090144
2019000,0.0324,0.013523,0.002678,0.000431,0.239405
2020000,0.0324,0.013523,0.002678,0.000431,0.042428
2021000,0.0324,0.013523,0.002678,0.000431,0.089909
2022000,0.0324,0.013523,0.002678,0.000431,0.082975
2023000,0.0324,0.013523,0.002678,0.000431,0.037374
2024000,0.0324,0.013523,0.002678,0.000431,0.076158
2025000,0.0324,0.013523,0.002678,0.000431,0.133865
2026000,0.0324,0.013523,0.002678,0.000431,0.176645
2027000,0.0324,0.013523,0.002678,0.000431,0.102367
2028000,0.0324,0.013523,0.002678,0.000431,0.114943
2029000,0.0324,0.013523,0.002678,0.000431,0.035141
2030000,0.0324,0.013523,0.002678,0.000431,0.079449
2031000,0.0324,0.013523,0.002678,0.000431,0.163247
2032000,0.0324,0.013523,0.002678,0.000431,0.140329
2033000,0.0324,0.013523,0.002678,0.000431,0.073455
2034000,0.0324,0.013523,0.002678,0.000431,0.133042
2035000,0.0324,0.013523,0.002678,0.000431,0.095433
2036000,0.0324,0.013523,0.002678,0.000431,0.050185
2037000,0.0324,0.013523,0.002678,0.000431,0.121407
2038000,0.0324,0.013523,0.002678,0.000431,0.183344
2039000,0.0324,0.013523,0.002678,0.000431,0.149731
2040000,0.0324,0.013523,0.002678,0.000431,0.167125
2041000,0.0324,0.013523,0.002678,0.000431,0.088146
2042000,0.0324,0.013523,0.002678,0.000431,0.078626
2043000,0.0324,0.013523,0.002678,0.000431,0.083798
2044000,0.0324,0.013523,0.002678,0.000431,0.150436
2045000,0.0324,0.013523,0.002678,0.000431,0.257152
2046000,0.0324,0.013523,0.002678,0.000431,0.082270
2047000,0.0324,0.013523,0.002678,0.000431,0.270197
2048000,0.0324,0.013523,0.002678,0.000431,0.061350
2049000,0.0324,0.013523,0.002678,0.000431,0.076981
2050000,0.0324,0.013523,0.002678,0.000431,0.101427
2051000,0.0324,0.013523,0.002678,0.000431,0.104953
2052000,0.0324,0.013523,0.002678,0.000431,0.071457
2053000,0.0324,0.013523,0.002678,0.000431,0.114002
2054000,0.0324,0.013523,0.002678,0.000431,0.050302
2055000,0.0324,0.013523,0.002678,0.000431,0.050302
2056000,0.0324,0.013523,0.002678,0.000431,0.155020
2057000,0.0324,0.013523,0.002678,0.000431,0.133277
2058000,0.0324,0.013523,0.002678,0.000431,0.211903
2059000,0.0324,0.013523,0.002678,0.000431,0.142914
2060000,0.0324,0.013523,0.002678,0.000431,0.217897
2061000,0.0324,0.013523,0.002678,0.000431,0.091437
2062000,0.0324,0.013523,0.002678,0.000431,0.043720
2063000,0.0324,0.013523,0.002678,0.000431,0.162659
2064000,0.0324,0.013523,0.002678,0.000431,0.237172
2065000,0.0324,0.013523,0.002678,0.000431,0.080742
2066000,0.0324,0.013523,0.002678,0.000431,0.099076
2067000,0.0324,0.013523,0.002678,0.000431,0.234586
2068000,0.0324,0.013523,0.002678,0.000431,0.042663
2069000,0.0324,0.013523,0.002678,0.000431,0.042663
2070000,0.0324,0.013523,0.002678,0.000431,0.068989
2071000,0.0324,0.013523,0.002678,0.000431,0.144442
2072000,0.0324,0.013523,0.002678,0.000431,0.091437
2073000,0.0324,0.013523,0.002678,0.000431,0.194979
2074000,0.0324,0.013523,0.002678,0.000431,0.082387
2075000,0.0324,0.013523,0.002678,0.000431,0.035258
2076000,0.0324,0.013523,0.002678,0.000431,0.103307
2077000,0.0324,0.013523,0.002678,0.000431,0.230943
2078000,0.0324,0.013523,0.002678,0.000431,0.087088
2079000,0.0324,0.013523,0.002678,0.000431,0.080154
2080000,0.0324,0.013523,0.002678,0.000431,0.121054
2081000,0.0324,0.013523,0.002678,0.000431,0.054886
2082000,0.0324,0.013523,0.002678,0.000431,0.064523
2083000,0.0324,0.013523,0.002678,0.000431,0.146558
2084000,0.0324,0.013523,0.002678,0.000431,0.218132
2085000,0.0324,0.013523,0.002678,0.000431,0.109184
2086000,0.0324,0.013523,0.002678,0.000431,0.211081
2087000,0.0324,0.013523,0.002678,0.000431,0.055356
2088000,0.0324,0.013523,0.002678,0.000431,0.035611
2089000,0.0324,0.013523,0.002678,0.000431,0.136333
2090000,0.0324,0.013523,0.002678,0.000431,0.237995
2091000,0.0324,0.013523,0.002678,0.000431,0.069107
2092000,0.0324,0.013523,0.002678,0.000431,0.215429
2093000,0.0324,0.013523,0.002678,0.000431,0.102485
2094000,0.0324,0.013523,0.002678,0.000431,0.064993
2095000,0.0324,0.013523,0.002678,0.000431,0.054063
2096000,0.0324,0.013523,0.002678,0.000431,0.142797
2097000,0.0324,0.013523,0.002678,0.000431,0.164187
2098000,0.0324,0.013523,0.002678,0.000431,0.118116
2099000,0.0324,0.013523,0.002678,0.000431,0.238347
2100000,0.0324,0.013523,0.002678,0.000431,0.050067
2101000,0.0324,0.013523,0.002678,0.000431,0.035141
2102000,0.0324,0.013523,0.002678,0.000431,0.185812
2103000,0.0324,0.013523,0.002678,0.000431,0.237289
2104000,0.0324,0.013523,0.002678,0.000431,0.057589
2105000,0.0324,0.013523,0.002678,0.000431,0.261030
2106000,0.0324,0.013523,0.002678,0.000431,0.170298
2107000,0.0324,0.013523,0.002678,0.000431,0.042780
2108000,0.0324,0.013523,0.002678,0.000431,0.057824
2109000,0.0324,0.013523,0.002678,0.000431,0.229297
2110000,0.0324,0.013523,0.002678,0.000431,0.126813
2111000,0.0324,0.013523,0.002678,0.000431,0.114472
2112000,0.0324,0.013523,0.002678,0.000431,0.135040
2113000,0.0324,0.013523,0.002678,0.000431,0.119996
2114000,0.0324,0.013523,0.002678,0.000431,0.042780
2115000,0.0324,0.013523,0.002678,0.000431,0.165832
2116000,0.0324,0.013523,0.002678,0.000431,0.234351
2117000,0.0324,0.013523,0.002678,0.000431,0.119056
2118000,0.0324,0.013523,0.002678,0.000431,0.157135
2119000,0.0324,0.013523,0.002678,0.000431,0.093435
2120000,0.0324,0.013523,0.002678,0.000431,0.035258
2121000,0.0324,0.013523,0.002678,0.000431,0.046189
2122000,0.0324,0.013523,0.002678,0.000431,0.370801
2123000,0.0324,0.013523,0.002678,0.000431,0.147380
2124000,0.0324,0.013523,0.002678,0.000431,0.187105
2125000,0.0324,0.013523,0.002678,0.000431,0.206850
2126000,0.0324,0.013523,0.002678,0.000431,0.125285
2127000,0.0324,0.013523,0.002678,0.000431,0.042310
2128000,0.0324,0.013523,0.002678,0.000431,0.099311
2129000,0.0324,0.013523,0.002678,0.000431,0.313330
2130000,0.0324,0.013523,0.002678,0.000431,0.038902
2131000,0.0324,0.013523,0.002678,0.000431,0.268552
2132000,0.0324,0.013523,0.002678,0.000431,0.128458
2133000,0.0324,0.013523,0.002678,0.000431,0.039137
2134000,0.0324,0.013523,0.002678,0.000431,0.069929
2135000,0.0324,0.013523,0.002678,0.000431,0.218132
2136000,0.0324,0.013523,0.002678,0.000431,0.110594
2137000,0.0324,0.013523,0.002678,0.000431,0.133630
2138000,0.0324,0.013523,0.002678,0.000431,0.191924
2139000,0.0324,0.013523,0.002678,0.000431,0.118703
2140000,0.0324,0.013523,0.002678,0.000431,0.087441
2141000,0.0324,0.013523,0.002678,0.000431,0.120466
2142000,0.0324,0.013523,0.002678,0.000431,0.159721
2143000,0.0324,0.013523,0.002678,0.000431,0.051477
2144000,0.0324,0.013523,0.002678,0.000431,0.112592
2145000,0.0324,0.013523,0.002678,0.000431,0.143384
2146000,0.0324,0.013523,0.002678,0.000431,0.042310
2147000,0.0324,0.013523,0.002678,0.000431,0.050185
2148000,0.0324,0.013523,0.002678,0.000431,0.174412
2149000,0.0324,0.013523,0.002678,0.000431,0.129281
2150000,0.0324,0.013523,0.002678,0.000431,0.065581
2151000,0.0324,0.013523,0.002678,0.000431,0.044896
2152000,0.0324,0.013523,0.002678,0.000431,0.100369
2153000,0.0324,0.013523,0.002678,0.000431,0.046541
2154000,0.0324,0.013523,0.002678,0.000431,0.234586
2155000,0.0324,0.013523,0.002678,0.000431,0.341654
2156000,0.0324,0.013523,0.002678,0.000431,0.054533
2157000,0.0324,0.013523,0.002678,0.000431,0.225772
2158000,0.0324,0.013523,0.002678,0.000431,0.052653
2159000,0.0324,0.013523,0.002678,0.000431,0.072397
2160000,0.0324,0.013523,0.002678,0.000431,0.121759
2161000,0.0324,0.013523,0.002678,0.000431,0.206497
2162000,0.0324,0.013523,0.002678,0.000431,0.092847
2163000,0.0324,0.013523,0.002678,0.000431,0.143032
2164000,0.0324,0.013523,0.002678,0.000431,0.145500
2165000,0.0324,0.013523,0.002678,0.000431,0.050302
2166000,0.0324,0.013523,0.002678,0.000431,0.035258
2167000,0.0324,0.013523,0.002678,0.000431,0.295583
2168000,0.0324,0.013523,0.002678,0.000431,0.158075
2169000,0.0324,0.013523,0.002678,0.000431,0.056414
2170000,0.0324,0.013523,0.002678,0.000431,0.081565
2171000,0.0324,0.013523,0.002678,0.000431,0.134100
2172000,0.0324,0.013523,0.002678,0.000431,0.116823
2173000,0.0324,0.013523,0.002678,0.000431,0.076393
2174000,0.0324,0.013523,0.002678,0.000431,0.202854
2175000,0.0324,0.013523,0.002678,0.000431,0.104247
2176000,0.0324,0.013523,0.002678,0.000431,0.191101
2177000,0.0324,0.013523,0.002678,0.000431,0.150201
2178000,0.0324,0.013523,0.002678,0.000431,0.035141
2179000,0.0324,0.013523,0.002678,0.000431,0.061467
2180000,0.0324,0.013523,0.002678,0.000431,0.233999
2181000,0.0324,0.013523,0.002678,0.000431,0.057706
2182000,0.0324,0.013523,0.002678,0.000431,0.034906
2183000,0.0324,0.013523,0.002678,0.000431,0.134100
2184000,0.0324,0.013523,0.002678,0.000431,0.146675
2185000,0.0324,0.013523,0.002678,0.000431,0.035023
2186000,0.0324,0.013523,0.002678,0.000431,0.144795
2187000,0.0324,0.013523,0.002678,0.000431,0.240933
2188000,0.0324,0.013523,0.002678,0.000431,0.065346
2189000,0.0324,0.013523,0.002678,0.000431,0.096608
2190000,0.0324,0.013523,0.002678,0.000431,0.183109
2191000,0.0324,0.013523,0.002678,0.000431,0.074278
2192000,0.0324,0.013523,0.002678,0.000431,0.042780
2193000,0.0324,0.013523,0.002678,0.000431,0.152199
2194000,0.0324,0.013523,0.002678,0.000431,0.200268
2195000,0.0324,0.013523,0.002678,0.000431,0.117058
2196000,0.0324,0.013523,0.002678,0.000431,0.157840
2197000,0.0324,0.013523,0.002678,0.000431,0.085796
2198000,0.0324,0.013523,0.002678,0.000431,0.054063
2199000,0.0324,0.013523,0.002678,0.000431,0.139036
2200000,0.0324,0.013523,0.002678,0.000431,0.246692
2201000,0.0324,0.013523,0.002678,0.000431,0.102720
2202000,0.0324,0.013523,0.002678,0.000431,0.136685
2203000,0.0324,0.013523,0.002678,0.000431,0.226712
2204000,0.0324,0.013523,0.002678,0.000431,0.102955
2205000,0.0324,0.013523,0.002678,0.000431,0.123522
2206000,0.0324,0.013523,0.002678,0.000431,0.395130
2207000,0.0324,0.013523,0.002678,0.000431,0.210963
2208000,0.0324,0.013523,0.002678,0.000431,0.086618
2209000,0.0324,0.013523,0.002678,0.000431,0.149143
2210000,0.0324,0.013523,0.002678,0.000431,0.157840
2211000,0.0324,0.013523,0.002678,0.000431,0.062878
2212000,0.0324,0.013523,0.002678,0.000431,0.282773
2213000,0.0324,0.013523,0.002678,0.000431,0.210493
2214000,0.0324,0.013523,0.002678,0.000431,0.093200
2215000,0.0324,0.013523,0.002678,0.000431,0.143149
2216000,0.0324,0.013523,0.002678,0.000431,0.055003
2217000,0.0324,0.013523,0.002678,0.000431,0.080037
2218000,0.0324,0.013523,0.002678,0.000431,0.075688
2219000,0.0324,0.013523,0.002678,0.000431,0.195449
2220000,0.0324,0.013523,0.002678,0.000431,0.157605
2221000,0.0324,0.013523,0.002678,0.000431,0.076511
2222000,0.0324,0.013523,0.002678,0.000431,0.204029
2223000,0.0324,0.013523,0.002678,0.000431,0.080037
2224000,0.0324,0.013523,0.002678,0.000431,0.044661
2225000,0.0324,0.013523,0.002678,0.000431,0.206027
2226000,0.0324,0.013523,0.002678,0.000431,0.253626
2227000,0.0324,0.013523,0.002678,0.000431,0.116353
2228000,0.0324,0.013523,0.002678,0.000431,0.186635
2229000,0.0324,0.013523,0.002678,0.000431,0.114237
2230000,0.0324,0.013523,0.002678,0.000431,0.083915
2231000,0.0324,0.013523,0.002678,0.000431,0.081917
2232000,0.0324,0.013523,0.002678,0.000431,0.245281
2233000,0.0324,0.013523,0.002678,0.000431,0.102250
2234000,0.0324,0.013523,0.002678,0.000431,0.095080
2235000,0.0324,0.013523,0.002678,0.000431,0.157958
2236000,0.0324,0.013523,0.002678,0.000431,0.103777
2237000,0.0324,0.013523,0.002678,0.000431,0.086501
2238000,0.0324,0.013523,0.002678,0.000431,0.221776
2239000,0.0324,0.013523,0.002678,0.000431,0.125285
2240000,0.0324,0.013523,0.002678,0.000431,0.108008
2241000,0.0324,0.013523,0.002678,0.000431,0.153257
2242000,0.0324,0.013523,0.002678,0.000431,0.092142
2243000,0.0324,0.013523,0.002678,0.000431,0.087676
2244000,0.0324,0.013523,0.002678,0.000431,0.105658
2245000,0.0324,0.013523,0.002678,0.000431,0.375855
2246000,0.0324,0.013523,0.002678,0.000431,0.097901
2247000,0.0324,0.013523,0.002678,0.000431,0.166302
2248000,0.0324,0.013523,0.002678,0.000431,0.125990
2249000,0.0324,0.013523,0.002678,0.000431,0.038667
2250000,0.0324,0.013523,0.002678,0.000431,0.061232
2251000,0.0324,0.013523,0.002678,0.000431,0.296641
2252000,0.0324,0.013523,0.002678,0.000431,0.191688
2253000,0.0324,0.013523,0.002678,0.000431,0.084268
2254000,0.0324,0.013523,0.002678,0.000431,0.136215
2255000,0.0324,0.013523,0.002678,0.000431,0.102955
2256000,0.0324,0.013523,0.002678,0.000431,0.050185
2257000,0.0324,0.013523,0.002678,0.000431,0.184989
2258000,0.0324,0.013523,0.002678,0.000431,0.224714
2259000,0.0324,0.013523,0.002678,0.000431,0.168888
2260000,0.0324,0.013523,0.002678,0.000431,0.251158
2261000,0.0324,0.013523,0.002678,0.000431,0.104600
2262000,0.0324,0.013523,0.002678,0.000431,0.049949
2263000,0.0324,0.013523,0.002678,0.000431,0.108243
2264000,0.0324,0.013523,0.002678,0.000431,0.249042
2265000,0.0324,0.013523,0.002678,0.000431,0.154902
2266000,0.0324,0.013523,0.002678,0.000431,0.095903
2267000,0.0324,0.013523,0.002678,0.000431,0.147028
2268000,0.0324,0.013523,0.002678,0.000431,0.087558
2269000,0.0324,0.013523,0.002678,0.000431,0.065228
2270000,0.0324,0.013523,0.002678,0.000431,0.152434
2271000,0.0324,0.013523,0.002678,0.000431,0.263851
2272000,0.0324,0.013523,0.002678,0.000431,0.095315
2273000,0.0324,0.013523,0.002678,0.000431,0.218837
2274000,0.0324,0.013523,0.002678,0.000431,0.182874
2275000,0.0324,0.013523,0.002678,0.000431,0.127283
2276000,0.0324,0.013523,0.002678,0.000431,0.153844
2277000,0.0324,0.013523,0.002678,0.000431,0.259150
2278000,0.0324,0.013523,0.002678,0.000431,0.096961
2279000,0.0324,0.013523,0.002678,0.000431,0.096256
2280000,0.0324,0.013523,0.002678,0.000431,0.278659
2281000,0.0324,0.013523,0.002678,0.000431,0.091554
2282000,0.0324,0.013523,0.002678,0.000431,0.065228
2283000,0.0324,0.013523,0.002678,0.000431,0.150436
2284000,0.0324,0.013523,0.002678,0.000431,0.187457
2285000,0.0324,0.013523,0.002678,0.000431,0.100369
2286000,0.0324,0.013523,0.002678,0.000431,0.169358
2287000,0.0324,0.013523,0.002678,0.000431,0.099194
2288000,0.0324,0.013523,0.002678,0.000431,0.114120
2289000,0.0324,0.013523,0.002678,0.000431,0.080742
2290000,0.0324,0.013523,0.002678,0.000431,0.182991
2291000,0.0324,0.013523,0.002678,0.000431,0.119761
2292000,0.0324,0.013523,0.002678,0.000431,0.107303
2293000,0.0324,0.013523,0.002678,0.000431,0.229768
2294000,0.0324,0.013523,0.002678,0.000431,0.099664
2295000,0.0324,0.013523,0.002678,0.000431,0.035023
2296000,0.0324,0.013523,0.002678,0.000431,0.155255
2297000,0.0324,0.013523,0.002678,0.000431,0.096256
2298000,0.0324,0.013523,0.002678,0.000431,0.083445
2299000,0.0324,0.013523,0.002678,0.000431,0.147498
2300000,0.0324,0.013523,0.002678,0.000431,0.082975
2301000,0.0324,0.013523,0.002678,0.000431,0.058647
2302000,0.0324,0.013523,0.002678,0.000431,0.175822
2303000,0.0324,0.013523,0.002678,0.000431,0.244459
2304000,0.0324,0.013523,0.002678,0.000431,0.102837
2305000,0.0324,0.013523,0.002678,0.000431,0.174764
2306000,0.0324,0.013523,0.002678,0.000431,0.246809
2307000,0.0324,0.013523,0.002678,0.000431,0.109184
2308000,0.0324,0.013523,0.002678,0.000431,0.061115
2309000,0.0324,0.013523,0.002678,0.000431,0.348354
2310000,0.0324,0.013523,0.002678,0.000431,0.095080
2311000,0.0324,0.013523,0.002678,0.000431,0.079684
2312000,0.0324,0.013523,0.002678,0.000431,0.256094
2313000,0.0324,0.013523,0.002678,0.000431,0.307219
2314000,0.0324,0.013523,0.002678,0.000431,0.114355
2315000,0.0324,0.013523,0.002678,0.000431,0.081330
2316000,0.0324,0.013523,0.002678,0.000431,0.339656
2317000,0.0324,0.013523,0.002678,0.000431,0.095315
2318000,0.0324,0.013523,0.002678,0.000431,0.120466
2319000,0.0324,0.013523,0.002678,0.000431,0.144795
2320000,0.0324,0.013523,0.002678,0.000431,0.061585
2321000,0.0324,0.013523,0.002678,0.000431,0.065933
2322000,0.0324,0.013523,0.002678,0.000431,0.350939
2323000,0.0324,0.013523,0.002678,0.000431,0.090614
2324000,0.0324,0.013523,0.002678,0.000431,0.136568
2325000,0.0324,0.013523,0.002678,0.000431,0.147968
2326000,0.0324,0.013523,0.002678,0.000431,0.057706
2327000,0.0324,0.013523,0.002678,0.000431,0.042663
2328000,0.0324,0.013523,0.002678,0.000431,0.313213
2329000,0.0324,0.013523,0.002678,0.000431,0.373152
2330000,0.0324,0.013523,0.002678,0.000431,0.054533
2331000,0.0324,0.013523,0.002678,0.000431,0.144677
2332000,0.0324,0.013523,0.002678,0.000431,0.250218
2333000,0.0324,0.013523,0.002678,0.000431,0.089086
2334000,0.0324,0.013523,0.002678,0.000431,0.057706
2335000,0.0324,0.013523,0.002678,0.000431,0.292293
2336000,0.0324,0.013523,0.002678,0.000431,0.059822
2337000,0.0324,0.013523,0.002678,0.000431,0.039019
2338000,0.0324,0.013523,0.002678,0.000431,0.170181
2339000,0.0324,0.013523,0.002678,0.000431,0.034906
2340000,0.0324,0.013523,0.002678,0.000431,0.050185
2341000,0.0324,0.013523,0.002678,0.000431,0.236819
2342000,0.0324,0.013523,0.002678,0.000431,0.395365
2343000,0.0324,0.013523,0.002678,0.000431,0.104365
2344000,0.0324,0.013523,0.002678,0.000431,0.154315
2345000,0.0324,0.013523,0.002678,0.000431,0.240228
2346000,0.0324,0.013523,0.002678,0.000431,0.144207
2347000,0.0324,0.013523,0.002678,0.000431,0.258209
2348000,0.0324,0.013523,0.002678,0.000431,0.388548
2349000,0.0324,0.013523,0.002678,0.000431,0.053945
2350000,0.0324,0.013523,0.002678,0.000431,0.116941
2351000,0.0324,0.013523,0.002678,0.000431,0.128811
2352000,0.0324,0.013523,0.002678,0.000431,0.035258
2353000,0.0324,0.013523,0.002678,0.000431,0.035258
2354000,0.0324,0.013523,0.002678,0.000431,0.184167
2355000,0.0324,0.013523,0.002678,0.000431,0.292763
2356000,0.0324,0.013523,0.002678,0.000431,0.050185
2357000,0.0324,0.013523,0.002678,0.000431,0.176292
2358000,0.0324,0.013523,0.002678,0.000431,0.187457
2359000,0.0324,0.013523,0.002678,0.000431,0.057824
2360000,0.0324,0.013523,0.002678,0.000431,0.087676
2361000,0.0324,0.013523,0.002678,0.000431,0.267964
2362000,0.0324,0.013523,0.002678,0.000431,0.156195
2363000,0.0324,0.013523,0.002678,0.000431,0.091319
2364000,0.0324,0.013523,0.002678,0.000431,0.098489
2365000,0.0324,0.013523,0.002678,0.000431,0.117646
2366000,0.0324,0.013523,0.002678,0.000431,0.072985
2367000,0.0324,0.013523,0.002678,0.000431,0.292058
2368000,0.0324,0.013523,0.002678,0.000431,0.151964
2369000,0.0324,0.013523,0.002678,0.000431,0.090027
2370000,0.0324,0.013523,0.002678,0.000431,0.184402
2371000,0.0324,0.013523,0.002678,0.000431,0.148438
2372000,0.0324,0.013523,0.002678,0.000431,0.035141
2373000,0.0324,0.013523,0.002678,0.000431,0.263733
2374000,0.0324,0.013523,0.002678,0.000431,0.460593
2375000,0.0324,0.013523,0.002678,0.000431,0.089321
2376000,0.0324,0.013523,0.002678,0.000431,0.193099
2377000,0.0324,0.013523,0.002678,0.000431,0.199328
2378000,0.0324,0.013523,0.002678,0.000431,0.095550
2379000,0.0324,0.013523,0.002678,0.000431,0.132454
2380000,0.0324,0.013523,0.002678,0.000431,0.332135
2381000,0.0324,0.013523,0.002678,0.000431,0.370449
2382000,0.0324,0.013523,0.002678,0.000431,0.213901
2383000,0.0324,0.013523,0.002678,0.000431,0.080272
2384000,0.0324,0.013523,0.002678,0.000431,0.170651
2385000,0.0324,0.013523,0.002678,0.000431,0.080389
2386000,0.0324,0.013523,0.002678,0.000431,0.171004
2387000,0.0324,0.013523,0.002678,0.000431,0.104130
2388000,0.0324,0.013523,0.002678,0.000431,0.254331
2389000,0.0324,0.013523,0.002678,0.000431,0.144677
2390000,0.0324,0.013523,0.002678,0.000431,0.252333
2391000,0.0324,0.013523,0.002678,0.000431,0.080507
2392000,0.0324,0.013523,0.002678,0.000431,0.112945
2393000,0.0324,0.013523,0.002678,0.000431,0.282538
2394000,0.0324,0.013523,0.002678,0.000431,0.139036
2395000,0.0324,0.013523,0.002678,0.000431,0.058999
2396000,0.0324,0.013523,0.002678,0.000431,0.347883
2397000,0.0324,0.013523,0.002678,0.000431,0.074043
2398000,0.0324,0.013523,0.002678,0.000431,0.035258
2399000,0.0324,0.013523,0.002678,0.000431,0.320852
2400000,0.0324,0.013523,0.002678,0.000431,0.125403
2401000,0.0324,0.013523,0.002678,0.000431,0.059469
2402000,0.0324,0.013523,0.002678,0.000431,0.166185
2403000,0.0324,0.013523,0.002678,0.000431,0.256094
2404000,0.0324,0.013523,0.002678,0.000431,0.051477
2405000,0.0324,0.013523,0.002678,0.000431,0.077686
2406000,0.0324,0.013523,0.002678,0.000431,0.365865
2407000,0.0324,0.013523,0.002678,0.000431,0.246574
2408000,0.0324,0.013523,0.002678,0.000431,0.081565
2409000,0.0324,0.013523,0.002678,0.000431,0.094023
2410000,0.0324,0.013523,0.002678,0.000431,0.046541
2411000,0.0324,0.013523,0.002678,0.000431,0.053710
2412000,0.0324,0.013523,0.002678,0.000431,0.215077
2413000,0.0324,0.013523,0.002678,0.000431,0.136215
2414000,0.0324,0.013523,0.002678,0.000431,0.204499
2415000,0.0324,0.013523,0.002678,0.000431,0.118233
2416000,0.0324,0.013523,0.002678,0.000431,0.225419
2417000,0.0324,0.013523,0.002678,0.000431,0.140446
2418000,0.0324,0.013523,0.002678,0.000431,0.098606
2419000,0.0324,0.013523,0.002678,0.000431,0.287004
2420000,0.0324,0.013523,0.002678,0.000431,0.069107
2421000,0.0324,0.013523,0.002678,0.000431,0.121759
2422000,0.0324,0.013523,0.002678,0.000431,0.171239
2423000,0.0324,0.013523,0.002678,0.000431,0.058764
2424000,0.0324,0.013523,0.002678,0.000431,0.075218
2425000,0.0324,0.013523,0.002678,0.000431,0.296759
2426000,0.0324,0.013523,0.002678,0.000431,0.166185
2427000,0.0324,0.013523,0.002678,0.000431,0.180171
2428000,0.0324,0.013523,0.002678,0.000431,0.216487
2429000,0.0324,0.013523,0.002678,0.000431,0.161954
2430000,0.0324,0.013523,0.002678,0.000431,0.081094
2431000,0.0324,0.013523,0.002678,0.000431,0.149848
2432000,0.0324,0.013523,0.002678,0.000431,0.476224
2433000,0.0324,0.013523,0.002678,0.000431,0.072867
2434000,0.0324,0.013523,0.002678,0.000431,0.055708
2435000,0.0324,0.013523,0.002678,0.000431,0.155137
2436000,0.0324,0.013523,0.002678,0.000431,0.084620
2437000,0.0324,0.013523,0.002678,0.000431,0.074513
2438000,0.0324,0.013523,0.002678,0.000431,0.183932
2439000,0.0324,0.013523,0.002678,0.000431,0.270197
2440000,0.0324,0.013523,0.002678,0.000431,0.053593
2441000,0.0324,0.013523,0.002678,0.000431,0.146088
2442000,0.0324,0.013523,0.002678,0.000431,0.063230
2443000,0.0324,0.013523,0.002678,0.000431,0.038784
2444000,0.0324,0.013523,0.002678,0.000431,0.294878
2445000,0.0324,0.013523,0.002678,0.000431,0.192864
2446000,0.0324,0.013523,0.002678,0.000431,0.108949
2447000,0.0324,0.013523,0.002678,0.000431,0.134452
2448000,0.0324,0.013523,0.002678,0.000431,0.253626
2449000,0.0324,0.013523,0.002678,0.000431,0.072867
2450000,0.0324,0.013523,0.002678,0.000431,0.158781
2451000,0.0324,0.013523,0.002678,0.000431,0.251863
2452000,0.0324,0.013523,0.002678,0.000431,0.153492
2453000,0.0324,0.013523,0.002678,0.000431,0.069224
2454000,0.0324,0.013523,0.002678,0.000431,0.136685
2455000,0.0324,0.013523,0.002678,0.000431,0.087911
2456000,0.0324,0.013523,0.002678,0.000431,0.145147
2457000,0.0324,0.013523,0.002678,0.000431,0.410526
2458000,0.0324,0.013523,0.002678,0.000431,0.268434
2459000,0.0324,0.013523,0.002678,0.000431,0.091672
2460000,0.0324,0.013523,0.002678,0.000431,0.225537
2461000,0.0324,0.013523,0.002678,0.000431,0.127871
2462000,0.0324,0.013523,0.002678,0.000431,0.172179
2463000,0.0324,0.013523,0.002678,0.000431,0.083445
2464000,0.0324,0.013523,0.002678,0.000431,0.362339
2465000,0.0324,0.013523,0.002678,0.000431,0.155372
2466000,0.0324,0.013523,0.002678,0.000431,0.082505
2467000,0.0324,0.013523,0.002678,0.000431,0.185577
2468000,0.0324,0.013523,0.002678,0.000431,0.065346
2469000,0.0324,0.013523,0.002678,0.000431,0.048539
2470000,0.0324,0.013523,0.002678,0.000431,0.371859
2471000,0.0324,0.013523,0.002678,0.000431,0.258209
2472000,0.0324,0.013523,0.002678,0.000431,0.072632
2473000,0.0324,0.013523,0.002678,0.000431,0.110712
2474000,0.0324,0.013523,0.002678,0.000431,0.092260
2475000,0.0324,0.013523,0.002678,0.000431,0.104247
2476000,0.0324,0.013523,0.002678,0.000431,0.116823
2477000,0.0324,0.013523,0.002678,0.000431,0.468467
2478000,0.0324,0.013523,0.002678,0.000431,0.237760
2479000,0.0324,0.013523,0.002678,0.000431,0.054298
2480000,0.0324,0.013523,0.002678,0.000431,0.192159
2481000,0.0324,0.013523,0.002678,0.000431,0.038902
2482000,0.0324,0.013523,0.002678,0.000431,0.178055
2483000,0.0324,0.013523,0.002678,0.000431,0.301695
2484000,0.0324,0.013523,0.002678,0.000431,0.253743
2485000,0.0324,0.013523,0.002678,0.000431,0.042545
2486000,0.0324,0.013523,0.002678,0.000431,0.229885
2487000,0.0324,0.013523,0.002678,0.000431,0.264909
2488000,0.0324,0.013523,0.002678,0.000431,0.053828
2489000,0.0324,0.013523,0.002678,0.000431,0.121877
2490000,0.0324,0.013523,0.002678,0.000431,0.236702
2491000,0.0324,0.013523,0.002678,0.000431,0.174647
2492000,0.0324,0.013523,0.002678,0.000431,0.082387
2493000,0.0324,0.013523,0.002678,0.000431,0.346003
2494000,0.0324,0.013523,0.002678,0.000431,0.107068
2495000,0.0324,0.013523,0.002678,0.000431,0.057589
2496000,0.0324,0.013523,0.002678,0.000431,0.295113
2497000,0.0324,0.013523,0.002678,0.000431,0.227300
2498000,0.0324,0.013523,0.002678,0.000431,0.244929
2499000,0.0324,0.013523,0.002678,0.000431,0.141739
2500000,0.0324,0.013523,0.002678,0.000431,0.244459
2501000,0.0324,0.013523,0.002678,0.000431,0.035023
2502000,0.0324,0.013523,0.002678,0.000431,0.070399
2503000,0.0324,0.013523,0.002678,0.000431,0.179466
2504000,0.0324,0.013523,0.002678,0.000431,0.126225
2505000,0.0324,0.013523,0.002678,0.000431,0.107303
2506000,0.0324,0.013523,0.002678,0.000431,0.232941
2507000,0.0324,0.013523,0.002678,0.000431,0.066051
2508000,0.0324,0.013523,0.002678,0.000431,0.035141
2509000,0.0324,0.013523,0.002678,0.000431,0.212373
2510000,0.0324,0.013523,0.002678,0.000431,0.106833
2511000,0.0324,0.013523,0.002678,0.000431,0.095198
2512000,0.0324,0.013523,0.002678,0.000431,0.313095
2513000,0.0324,0.013523,0.002678,0.000431,0.136215
2514000,0.0324,0.013523,0.002678,0.000431,0.039607
2515000,0.0324,0.013523,0.002678,0.000431,0.217310
2516000,0.0324,0.013523,0.002678,0.000431,0.281245
2517000,0.0324,0.013523,0.002678,0.000431,0.094845
2518000,0.0324,0.013523,0.002678,0.000431,0.091790
2519000,0.0324,0.013523,0.002678,0.000431,0.243401
2520000,0.0324,0.013523,0.002678,0.000431,0.220835
2521000,0.0324,0.013523,0.002678,0.000431,0.050302
2522000,0.0324,0.013523,0.002678,0.000431,0.189455
2523000,0.0324,0.013523,0.002678,0.000431,0.139388
2524000,0.0324,0.013523,0.002678,0.000431,0.070282
2525000,0.0324,0.013523,0.002678,0.000431,0.121524
2526000,0.0324,0.013523,0.002678,0.000431,0.103072
2527000,0.0324,0.013523,0.002678,0.000431,0.098606
2528000,0.0324,0.013523,0.002678,0.000431,0.118351
2529000,0.0324,0.013523,0.002678,0.000431,0.171709
2530000,0.0324,0.013523,0.002678,0.000431,0.153374
2531000,0.0324,0.013523,0.002678,0.000431,0.133982
2532000,0.0324,0.013523,0.002678,0.000431,0.283360
2533000,0.0324,0.013523,0.002678,0.000431,0.155607
2534000,0.0324,0.013523,0.002678,0.000431,0.072750
2535000,0.0324,0.013523,0.002678,0.000431,0.182874
2536000,0.0324,0.013523,0.002678,0.000431,0.176997
2537000,0.0324,0.013523,0.002678,0.000431,0.096021
2538000,0.0324,0.013523,0.002678,0.000431,0.169123
2539000,0.0324,0.013523,0.002678,0.000431,0.177115
2540000,0.0324,0.013523,0.002678,0.000431,0.067344
2541000,0.0324,0.013523,0.002678,0.000431,0.122582
2542000,0.0324,0.013523,0.002678,0.000431,0.147615
2543000,0.0324,0.013523,0.002678,0.000431,0.132337
2544000,0.0324,0.013523,0.002678,0.000431,0.106716
2545000,0.0324,0.013523,0.002678,0.000431,0.076276
2546000,0.0324,0.013523,0.002678,0.000431,0.084033
2547000,0.0324,0.013523,0.002678,0.000431,0.150671
2548000,0.0324,0.013523,0.002678,0.000431,0.222598
2549000,0.0324,0.013523,0.002678,0.000431,0.077804
2550000,0.0324,0.013523,0.002678,0.000431,0.068636
2551000,0.0324,0.013523,0.002678,0.000431,0.176175
2552000,0.0324,0.013523,0.002678,0.000431,0.188985
2553000,0.0324,0.013523,0.002678,0.000431,0.105775
2554000,0.0324,0.013523,0.002678,0.000431,0.133747
2555000,0.0324,0.013523,0.002678,0.000431,0.427332
2556000,0.0324,0.013523,0.002678,0.000431,0.200386
2557000,0.0324,0.013523,0.002678,0.000431,0.096373
2558000,0.0324,0.013523,0.002678,0.000431,0.178173
2559000,0.0324,0.013523,0.002678,0.000431,0.102720
2560000,0.0324,0.013523,0.002678,0.000431,0.064876
2561000,0.0324,0.013523,0.002678,0.000431,0.117998
2562000,0.0324,0.013523,0.002678,0.000431,0.125285
2563000,0.0324,0.013523,0.002678,0.000431,0.080859
2564000,0.0324,0.013523,0.002678,0.000431,0.206850
2565000,0.0324,0.013523,0.002678,0.000431,0.195449
2566000,0.0324,0.013523,0.002678,0.000431,0.176410
2567000,0.0324,0.013523,0.002678,0.000431,0.121289
2568000,0.0324,0.013523,0.002678,0.000431,0.258327
2569000,0.0324,0.013523,0.002678,0.000431,0.327904
2570000,0.0324,0.013523,0.002678,0.000431,0.260325
2571000,0.0324,0.013523,0.002678,0.000431,0.156312
2572000,0.0324,0.013523,0.002678,0.000431,0.095550
2573000,0.0324,0.013523,0.002678,0.000431,0.159956
2574000,0.0324,0.013523,0.002678,0.000431,0.082270
2575000,0.0324,0.013523,0.002678,0.000431,0.271373
2576000,0.0324,0.013523,0.002678,0.000431,0.195919
2577000,0.0324,0.013523,0.002678,0.000431,0.257739
2578000,0.0324,0.013523,0.002678,0.000431,0.176645
2579000,0.0324,0.013523,0.002678,0.000431,0.062055
2580000,0.0324,0.013523,0.002678,0.000431,0.222598
2581000,0.0324,0.013523,0.002678,0.000431,0.106363
2582000,0.0324,0.013523,0.002678,0.000431,0.147615
2583000,0.0324,0.013523,0.002678,0.000431,0.140211
2584000,0.0324,0.013523,0.002678,0.000431,0.133630
2585000,0.0324,0.013523,0.002678,0.000431,0.185224
2586000,0.0324,0.013523,0.002678,0.000431,0.095080
2587000,0.0324,0.013523,0.002678,0.000431,0.147733
2588000,0.0324,0.013523,0.002678,0.000431,0.287239
2589000,0.0324,0.013523,0.002678,0.000431,0.144090
2590000,0.0324,0.013523,0.002678,0.000431,0.140916
2591000,0.0324,0.013523,0.002678,0.000431,0.195332
2592000,0.0324,0.013523,0.002678,0.000431,0.204029
2593000,0.0324,0.013523,0.002678,0.000431,0.214489
2594000,0.0324,0.013523,0.002678,0.000431,0.072280
2595000,0.0324,0.013523,0.002678,0.000431,0.114237
2596000,0.0324,0.013523,0.002678,0.000431,0.302870
2597000,0.0324,0.013523,0.002678,0.000431,0.103425
2598000,0.0324,0.013523,0.002678,0.000431,0.111652
2599000,0.0324,0.013523,0.002678,0.000431,0.160073
2600000,0.0324,0.013523,0.002678,0.000431,0.185224
2601000,0.0324,0.013523,0.002678,0.000431,0.115648
2602000,0.0324,0.013523,0.002678,0.000431,0.108126
2603000,0.0324,0.013523,0.002678,0.000431,0.195567
2604000,0.0324,0.013523,0.002678,0.000431,0.159956
2605000,0.0324,0.013523,0.002678,0.000431,0.168183
2606000,0.0324,0.013523,0.002678,0.000431,0.090967
2607000,0.0324,0.013523,0.002678,0.000431,0.139623
2608000,0.0324,0.013523,0.002678,0.000431,0.237524
2609000,0.0324,0.013523,0.002678,0.000431,0.305573
2610000,0.0324,0.013523,0.002678,0.000431,0.137390
2611000,0.0324,0.013523,0.002678,0.000431,0.195214
2612000,0.0324,0.013523,0.002678,0.000431,0.131397
2613000,0.0324,0.013523,0.002678,0.000431,0.153374
2614000,0.0324,0.013523,0.002678,0.000431,0.131161
2615000,0.0324,0.013523,0.002678,0.000431,0.170063
2616000,0.0324,0.013523,0.002678,0.000431,0.074043
2617000,0.0324,0.013523,0.002678,0.000431,0.111652
2618000,0.0324,0.013523,0.002678,0.000431,0.100252
2619000,0.0324,0.013523,0.002678,0.000431,0.076393
2620000,0.0324,0.013523,0.002678,0.000431,0.124110
2621000,0.0324,0.013523,0.002678,0.000431,0.166772
2622000,0.0324,0.013523,0.002678,0.000431,0.254684
2623000,0.0324,0.013523,0.002678,0.000431,0.301460
2624000,0.0324,0.013523,0.002678,0.000431,0.117881
2625000,0.0324,0.013523,0.002678,0.000431,0.050302
2626000,0.0324,0.013523,0.002678,0.000431,0.170063
2627000,0.0324,0.013523,0.002678,0.000431,0.193569
2628000,0.0324,0.013523,0.002678,0.000431,0.133159
2629000,0.0324,0.013523,0.002678,0.000431,0.133630
2630000,0.0324,0.013523,0.002678,0.000431,0.118116
2631000,0.0324,0.013523,0.002678,0.000431,0.174529
2632000,0.0324,0.013523,0.002678,0.000431,0.174177
2633000,0.0324,0.013523,0.002678,0.000431,0.110712
2634000,0.0324,0.013523,0.002678,0.000431,0.115060
2635000,0.0324,0.013523,0.002678,0.000431,0.132689
2636000,0.0324,0.013523,0.002678,0.000431,0.106716
2637000,0.0324,0.013523,0.002678,0.000431,0.169946
2638000,0.0324,0.013523,0.002678,0.000431,0.042428
2639000,0.0324,0.013523,0.002678,0.000431,0.116470
2640000,0.0324,0.013523,0.002678,0.000431,0.056649
2641000,0.0324,0.013523,0.002678,0.000431,0.185107
2642000,0.0324,0.013523,0.002678,0.000431,0.098371
2643000,0.0324,0.013523,0.002678,0.000431,0.105305
2644000,0.0324,0.013523,0.002678,0.000431,0.087911
2645000,0.0324,0.013523,0.002678,0.000431,0.119291
2646000,0.0324,0.013523,0.002678,0.000431,0.080507
2647000,0.0324,0.013523,0.002678,0.000431,0.255036
2648000,0.0324,0.013523,0.002678,0.000431,0.166890
2649000,0.0324,0.013523,0.002678,0.000431,0.068284
2650000,0.0324,0.013523,0.002678,0.000431,0.182169
2651000,0.0324,0.013523,0.002678,0.000431,0.200621
2652000,0.0324,0.013523,0.002678,0.000431,0.076511
2653000,0.0324,0.013523,0.002678,0.000431,0.194274
2654000,0.0324,0.013523,0.002678,0.000431,0.239993
2655000,0.0324,0.013523,0.002678,0.000431,0.108714
2656000,0.0324,0.013523,0.002678,0.000431,0.084033
2657000,0.0324,0.013523,0.002678,0.000431,0.091437
2658000,0.0324,0.013523,0.002678,0.000431,0.181228
2659000,0.0324,0.013523,0.002678,0.000431,0.070869
2660000,0.0324,0.013523,0.002678,0.000431,0.234234
2661000,0.0324,0.013523,0.002678,0.000431,0.211433
2662000,0.0324,0.013523,0.002678,0.000431,0.131984
2663000,0.0324,0.013523,0.002678,0.000431,0.111299
2664000,0.0324,0.013523,0.002678,0.000431,0.190748
2665000,0.0324,0.013523,0.002678,0.000431,0.184637
2666000,0.0324,0.013523,0.002678,0.000431,0.354700
2667000,0.0324,0.013523,0.002678,0.000431,0.161836
2668000,0.0324,0.013523,0.002678,0.000431,0.149496
2669000,0.0324,0.013523,0.002678,0.000431,0.263381
2670000,0.0324,0.013523,0.002678,0.000431,0.119174
2671000,0.0324,0.013523,0.002678,0.000431,0.183226
2672000,0.0324,0.013523,0.002678,0.000431,0.216017
2673000,0.0324,0.013523,0.002678,0.000431,0.161249
2674000,0.0324,0.013523,0.002678,0.000431,0.216369
2675000,0.0324,0.013523,0.002678,0.000431,0.159368
2676000,0.0324,0.013523,0.002678,0.000431,0.095903
2677000,0.0324,0.013523,0.002678,0.000431,0.102837
2678000,0.0324,0.013523,0.002678,0.000431,0.117881
2679000,0.0324,0.013523,0.002678,0.000431,0.089086
2680000,0.0324,0.013523,0.002678,0.000431,0.173354
2681000,0.0324,0.013523,0.002678,0.000431,0.095785
2682000,0.0324,0.013523,0.002678,0.000431,0.076511
2683000,0.0324,0.013523,0.002678,0.000431,0.144912
2684000,0.0324,0.013523,0.002678,0.000431,0.158193
2685000,0.0324,0.013523,0.002678,0.000431,0.153727
2686000,0.0324,0.013523,0.002678,0.000431,0.176997
2687000,0.0324,0.013523,0.002678,0.000431,0.051360
2688000,0.0324,0.013523,0.002678,0.000431,0.095080
2689000,0.0324,0.013523,0.002678,0.000431,0.090967
2690000,0.0324,0.013523,0.002678,0.000431,0.213549
2691000,0.0324,0.013523,0.002678,0.000431,0.158781
2692000,0.0324,0.013523,0.002678,0.000431,0.156783
2693000,0.0324,0.013523,0.002678,0.000431,0.177820
2694000,0.0324,0.013523,0.002678,0.000431,0.214371
2695000,0.0324,0.013523,0.002678,0.000431,0.119644
2696000,0.0324,0.013523,0.002678,0.000431,0.133865
2697000,0.0324,0.013523,0.002678,0.000431,0.165950
2698000,0.0324,0.013523,0.002678,0.000431,0.086971
2699000,0.0324,0.013523,0.002678,0.000431,0.114943
2700000,0.0324,0.013523,0.002678,0.000431,0.097901
2701000,0.0324,0.013523,0.002678,0.000431,0.080389
2702000,0.0324,0.013523,0.002678,0.000431,0.125050
2703000,0.0324,0.013523,0.002678,0.000431,0.135628
2704000,0.0324,0.013523,0.002678,0.000431,0.117058
2705000,0.0324,0.013523,0.002678,0.000431,0.152669
2706000,0.0324,0.013523,0.002678,0.000431,0.096961
2707000,0.0324,0.013523,0.002678,0.000431,0.238465
2708000,0.0324,0.013523,0.002678,0.000431,0.104835
2709000,0.0324,0.013523,0.002678,0.000431,0.124815
2710000,0.0324,0.013523,0.002678,0.000431,0.176292
2711000,0.0324,0.013523,0.002678,0.000431,0.140446
2712000,0.0324,0.013523,0.002678,0.000431,0.202619
2713000,0.0324,0.013523,0.002678,0.000431,0.167008
2714000,0.0324,0.013523,0.002678,0.000431,0.081447
2715000,0.0324,0.013523,0.002678,0.000431,0.114002
2716000,0.0324,0.013523,0.002678,0.000431,0.200738
2717000,0.0324,0.013523,0.002678,0.000431,0.076628
2718000,0.0324,0.013523,0.002678,0.000431,0.113767
2719000,0.0324,0.013523,0.002678,0.000431,0.089439
2720000,0.0324,0.013523,0.002678,0.000431,0.078626
2721000,0.0324,0.013523,0.002678,0.000431,0.078274
2722000,0.0324,0.013523,0.002678,0.000431,0.107656
2723000,0.0324,0.013523,0.002678,0.000431,0.170651
2724000,0.0324,0.013523,0.002678,0.000431,0.142562
2725000,0.0324,0.013523,0.002678,0.000431,0.189103
2726000,0.0324,0.013523,0.002678,0.000431,0.150789
2727000,0.0324,0.013523,0.002678,0.000431,0.051360
2728000,0.0324,0.013523,0.002678,0.000431,0.094023
2729000,0.0324,0.013523,0.002678,0.000431,0.118821
2730000,0.0324,0.013523,0.002678,0.000431,0.062525
2731000,0.0324,0.013523,0.002678,0.000431,0.222951
2732000,0.0324,0.013523,0.002678,0.000431,0.178055
2733000,0.0324,0.013523,0.002678,0.000431,0.131397
2734000,0.0324,0.013523,0.002678,0.000431,0.199210
2735000,0.0324,0.013523,0.002678,0.000431,0.159603
2736000,0.0324,0.013523,0.002678,0.000431,0.094023
2737000,0.0324,0.013523,0.002678,0.000431,0.204146
2738000,0.0324,0.013523,0.002678,0.000431,0.095315
2739000,0.0324,0.013523,0.002678,0.000431,0.244106
2740000,0.0324,0.013523,0.002678,0.000431,0.110359
2741000,0.0324,0.013523,0.002678,0.000431,0.149966
2742000,0.0324,0.013523,0.002678,0.000431,0.176175
2743000,0.0324,0.013523,0.002678,0.000431,0.152434
2744000,0.0324,0.013523,0.002678,0.000431,0.200973
2745000,0.0324,0.013523,0.002678,0.000431,0.210140
2746000,0.0324,0.013523,0.002678,0.000431,0.232941
2747000,0.0324,0.013523,0.002678,0.000431,0.108831
2748000,0.0324,0.013523,0.002678,0.000431,0.171356
2749000,0.0324,0.013523,0.002678,0.000431,0.101544
2750000,0.0324,0.013523,0.002678,0.000431,0.188045
2751000,0.0324,0.013523,0.002678,0.000431,0.110241
2752000,0.0324,0.013523,0.002678,0.000431,0.057706
2753000,0.0324,0.013523,0.002678,0.000431,0.112122
2754000,0.0324,0.013523,0.002678,0.000431,0.087558
2755000,0.0324,0.013523,0.002678,0.000431,0.080624
2756000,0.0324,0.013523,0.002678,0.000431,0.158428
2757000,0.0324,0.013523,0.002678,0.000431,0.070164
2758000,0.0324,0.013523,0.002678,0.000431,0.262205
2759000,0.0324,0.013523,0.002678,0.000431,0.204852
2760000,0.0324,0.013523,0.002678,0.000431,0.063465
2761000,0.0324,0.013523,0.002678,0.000431,0.113180
2762000,0.0324,0.013523,0.002678,0.000431,0.145265
2763000,0.0324,0.013523,0.002678,0.000431,0.140564
2764000,0.0324,0.013523,0.002678,0.000431,0.124110
2765000,0.0324,0.013523,0.002678,0.000431,0.234116
2766000,0.0324,0.013523,0.002678,0.000431,0.117763
2767000,0.0324,0.013523,0.002678,0.000431,0.054063
2768000,0.0324,0.013523,0.002678,0.000431,0.211903
2769000,0.0324,0.013523,0.002678,0.000431,0.127636
2770000,0.0324,0.013523,0.002678,0.000431,0.080154
2771000,0.0324,0.013523,0.002678,0.000431,0.151964
2772000,0.0324,0.013523,0.002678,0.000431,0.166772
2773000,0.0324,0.013523,0.002678,0.000431,0.038079
2774000,0.0324,0.013523,0.002678,0.000431,0.182639
2775000,0.0324,0.013523,0.002678,0.000431,0.139741
2776000,0.0324,0.013523,0.002678,0.000431,0.177350
2777000,0.0324,0.013523,0.002678,0.000431,0.116000
2778000,0.0324,0.013523,0.002678,0.000431,0.126695
2779000,0.0324,0.013523,0.002678,0.000431,0.038902
2780000,0.0324,0.013523,0.002678,0.000431,0.059704
2781000,0.0324,0.013523,0.002678,0.000431,0.048069
2782000,0.0324,0.013523,0.002678,0.000431,0.170298
2783000,0.0324,0.013523,0.002678,0.000431,0.059822
2784000,0.0324,0.013523,0.002678,0.000431,0.133865
2785000,0.0324,0.013523,0.002678,0.000431,0.061585
2786000,0.0324,0.013523,0.002678,0.000431,0.056296
2787000,0.0324,0.013523,0.002678,0.000431,0.151024
2788000,0.0324,0.013523,0.002678,0.000431,0.054416
2789000,0.0324,0.013523,0.002678,0.000431,0.325318
2790000,0.0324,0.013523,0.002678,0.000431,0.124580
2791000,0.0324,0.013523,0.002678,0.000431,0.099194
2792000,0.0324,0.013523,0.002678,0.000431,0.069107
2793000,0.0324,0.013523,0.002678,0.000431,0.208377
2794000,0.0324,0.013523,0.002678,0.000431,0.095550
2795000,0.0324,0.013523,0.002678,0.000431,0.125990
2796000,0.0324,0.013523,0.002678,0.000431,0.144795
2797000,0.0324,0.013523,0.002678,0.000431,0.166655
2798000,0.0324,0.013523,0.002678,0.000431,0.197682
2799000,0.0324,0.013523,0.002678,0.000431,0.097313
2800000,0.0324,0.013523,0.002678,0.000431,0.064523
2801000,0.0324,0.013523,0.002678,0.000431,0.097901
2802000,0.0324,0.013523,0.002678,0.000431,0.215312
2803000,0.0324,0.013523,0.002678,0.000431,0.056531
2804000,0.0324,0.013523,0.002678,0.000431,0.155842
2805000,0.0324,0.013523,0.002678,0.000431,0.086383
2806000,0.0324,0.013523,0.002678,0.000431,0.131397
2807000,0.0324,0.013523,0.002678,0.000431,0.107186
2808000,0.0324,0.013523,0.002678,0.000431,0.192276
2809000,0.0324,0.013523,0.002678,0.000431,0.171121
2810000,0.0324,0.013523,0.002678,0.000431,0.201091
2811000,0.0324,0.013523,0.002678,0.000431,0.194392
2812000,0.0324,0.013523,0.002678,0.000431,0.175940
2813000,0.0324,0.013523,0.002678,0.000431,0.140329
2814000,0.0324,0.013523,0.002678,0.000431,0.092377
2815000,0.0324,0.013523,0.002678,0.000431,0.178408
2816000,0.0324,0.013523,0.002678,0.000431,0.100487
2817000,0.0324,0.013523,0.002678,0.000431,0.286534
2818000,0.0324,0.013523,0.002678,0.000431,0.135275
2819000,0.0324,0.013523,0.002678,0.000431,0.061350
2820000,0.0324,0.013523,0.002678,0.000431,0.053710
2821000,0.0324,0.013523,0.002678,0.000431,0.194627
2822000,0.0324,0.013523,0.002678,0.000431,0.166302
2823000,0.0324,0.013523,0.002678,0.000431,0.234351
2824000,0.0324,0.013523,0.002678,0.000431,0.229533
2825000,0.0324,0.013523,0.002678,0.000431,0.174412
2826000,0.0324,0.013523,0.002678,0.000431,0.087323
2827000,0.0324,0.013523,0.002678,0.000431,0.128928
2828000,0.0324,0.013523,0.002678,0.000431,0.302282
2829000,0.0324,0.013523,0.002678,0.000431,0.157605
2830000,0.0324,0.013523,0.002678,0.000431,0.127165
2831000,0.0324,0.013523,0.002678,0.000431,0.149966
2832000,0.0324,0.013523,0.002678,0.000431,0.134687
2833000,0.0324,0.013523,0.002678,0.000431,0.101544
2834000,0.0324,0.013523,0.002678,0.000431,0.188515
2835000,0.0324,0.013523,0.002678,0.000431,0.177232
2836000,0.0324,0.013523,0.002678,0.000431,0.073925
2837000,0.0324,0.013523,0.002678,0.000431,0.072632
2838000,0.0324,0.013523,0.002678,0.000431,0.084855
2839000,0.0324,0.013523,0.002678,0.000431,0.150554
2840000,0.0324,0.013523,0.002678,0.000431,0.107891
2841000,0.0324,0.013523,0.002678,0.000431,0.266084
2842000,0.0324,0.013523,0.002678,0.000431,0.226947
2843000,0.0324,0.013523,0.002678,0.000431,0.117646
2844000,0.0324,0.013523,0.002678,0.000431,0.045483
2845000,0.0324,0.013523,0.002678,0.000431,0.075923
2846000,0.0324,0.013523,0.002678,0.000431,0.137038
2847000,0.0324,0.013523,0.002678,0.000431,0.144677
2848000,0.0324,0.013523,0.002678,0.000431,0.227652
2849000,0.0324,0.013523,0.002678,0.000431,0.124932
2850000,0.0324,0.013523,0.002678,0.000431,0.095315
2851000,0.0324,0.013523,0.002678,0.000431,0.046306
2852000,0.0324,0.013523,0.002678,0.000431,0.064288
2853000,0.0324,0.013523,0.002678,0.000431,0.084150
2854000,0.0324,0.013523,0.002678,0.000431,0.192041
2855000,0.0324,0.013523,0.002678,0.000431,0.128341
2856000,0.0324,0.013523,0.002678,0.000431,0.082270
2857000,0.0324,0.013523,0.002678,0.000431,0.057354
2858000,0.0324,0.013523,0.002678,0.000431,0.078156
2859000,0.0324,0.013523,0.002678,0.000431,0.124697
2860000,0.0324,0.013523,0.002678,0.000431,0.095903
2861000,0.0324,0.013523,0.002678,0.000431,0.103425
2862000,0.0324,0.013523,0.002678,0.000431,0.242108
2863000,0.0324,0.013523,0.002678,0.000431,0.140799
2864000,0.0324,0.013523,0.002678,0.000431,0.109301
2865000,0.0324,0.013523,0.002678,0.000431,0.105305
2866000,0.0324,0.013523,0.002678,0.000431,0.213666
2867000,0.0324,0.013523,0.002678,0.000431,0.176057
2868000,0.0324,0.013523,0.002678,0.000431,0.168653
2869000,0.0324,0.013523,0.002678,0.000431,0.061232
2870000,0.0324,0.013523,0.002678,0.000431,0.050302
2871000,0.0324,0.013523,0.002678,0.000431,0.269610
2872000,0.0324,0.013523,0.002678,0.000431,0.259972
2873000,0.0324,0.013523,0.002678,0.000431,0.089792
2874000,0.0324,0.013523,0.002678,0.000431,0.168770
2875000,0.0324,0.013523,0.002678,0.000431,0.214606
2876000,0.0324,0.013523,0.002678,0.000431,0.054416
2877000,0.0324,0.013523,0.002678,0.000431,0.103190
2878000,0.0324,0.013523,0.002678,0.000431,0.211081
2879000,0.0324,0.013523,0.002678,0.000431,0.166772
2880000,0.0324,0.013523,0.002678,0.000431,0.149966
2881000,0.0324,0.013523,0.002678,0.000431,0.213666
2882000,0.0324,0.013523,0.002678,0.000431,0.118821
2883000,0.0324,0.013523,0.002678,0.000431,0.174647
2884000,0.0324,0.013523,0.002678,0.000431,0.039019
2885000,0.0324,0.013523,0.002678,0.000431,0.173707
2886000,0.0324,0.013523,0.002678,0.000431,0.062055
2887000,0.0324,0.013523,0.002678,0.000431,0.167478
2888000,0.0324,0.013523,0.002678,0.000431,0.192981
2889000,0.0324,0.013523,0.002678,0.000431,0.042780
2890000,0.0324,0.013523,0.002678,0.000431,0.102602
2891000,0.0324,0.013523,0.002678,0.000431,0.207790
2892000,0.0324,0.013523,0.002678,0.000431,0.128928
2893000,0.0324,0.013523,0.002678,0.000431,0.065816
2894000,0.0324,0.013523,0.002678,0.000431,0.161836
2895000,0.0324,0.013523,0.002678,0.000431,0.084503
2896000,0.0324,0.013523,0.002678,0.000431,0.088264
2897000,0.0324,0.013523,0.002678,0.000431,0.173942
2898000,0.0324,0.013523,0.002678,0.000431,0.111652
2899000,0.0324,0.013523,0.002678,0.000431,0.101192
2900000,0.0324,0.013523,0.002678,0.000431,0.055238
2901000,0.0324,0.013523,0.002678,0.000431,0.094728
2902000,0.0324,0.013523,0.002678,0.000431,0.169828
2903000,0.0324,0.013523,0.002678,0.000431,0.080977
2904000,0.0324,0.013523,0.002678,0.000431,0.234586
2905000,0.0324,0.013523,0.002678,0.000431,0.081330
2906000,0.0324,0.013523,0.002678,0.000431,0.045366
2907000,0.0324,0.013523,0.002678,0.000431,0.197330
2908000,0.0324,0.013523,0.002678,0.000431,0.200973
2909000,0.0324,0.013523,0.002678,0.000431,0.117763
2910000,0.0324,0.013523,0.002678,0.000431,0.130104
2911000,0.0324,0.013523,0.002678,0.000431,0.277131
2912000,0.0324,0.013523,0.002678,0.000431,0.086736
2913000,0.0324,0.013523,0.002678,0.000431,0.232118
2914000,0.0324,0.013523,0.002678,0.000431,0.113180
2915000,0.0324,0.013523,0.002678,0.000431,0.082740
2916000,0.0324,0.013523,0.002678,0.000431,0.132102
2917000,0.0324,0.013523,0.002678,0.000431,0.212491
2918000,0.0324,0.013523,0.002678,0.000431,0.090967
2919000,0.0324,0.013523,0.002678,0.000431,0.042545
2920000,0.0324,0.013523,0.002678,0.000431,0.117528
2921000,0.0324,0.013523,0.002678,0.000431,0.135275
2922000,0.0324,0.013523,0.002678,0.000431,0.142209
2923000,0.0324,0.013523,0.002678,0.000431,0.169593
2924000,0.0324,0.013523,0.002678,0.000431,0.110124
2925000,0.0324,0.013523,0.002678,0.000431,0.050185
2926000,0.0324,0.013523,0.002678,0.000431,0.230590
2927000,0.0324,0.013523,0.002678,0.000431,0.065346
2928000,0.0324,0.013523,0.002678,0.000431,0.089321
2929000,0.0324,0.013523,0.002678,0.000431,0.194157
2930000,0.0324,0.013523,0.002678,0.000431,0.168183
2931000,0.0324,0.013523,0.002678,0.000431,0.079802
2932000,0.0324,0.013523,0.002678,0.000431,0.054651
2933000,0.0324,0.013523,0.002678,0.000431,0.074395
2934000,0.0324,0.013523,0.002678,0.000431,0.096491
2935000,0.0324,0.013523,0.002678,0.000431,0.205204
2936000,0.0324,0.013523,0.002678,0.000431,0.197917
2937000,0.0324,0.013523,0.002678,0.000431,0.247162
2938000,0.0324,0.013523,0.002678,0.000431,0.047951
2939000,0.0324,0.013523,0.002678,0.000431,0.111417
2940000,0.0324,0.013523,0.002678,0.000431,0.183579
2941000,0.0324,0.013523,0.002678,0.000431,0.243048
2942000,0.0324,0.013523,0.002678,0.000431,0.110829
2943000,0.0324,0.013523,0.002678,0.000431,0.211668
2944000,0.0324,0.013523,0.002678,0.000431,0.067344
2945000,0.0324,0.013523,0.002678,0.000431,0.083798
2946000,0.0324,0.013523,0.002678,0.000431,0.146088
2947000,0.0324,0.013523,0.002678,0.000431,0.323320
2948000,0.0324,0.013523,0.002678,0.000431,0.045131
2949000,0.0324,0.013523,0.002678,0.000431,0.146205
2950000,0.0324,0.013523,0.002678,0.000431,0.082152
2951000,0.0324,0.013523,0.002678,0.000431,0.042428
2952000,0.0324,0.013523,0.002678,0.000431,0.143149
2953000,0.0324,0.013523,0.002678,0.000431,0.142562
2954000,0.0324,0.013523,0.002678,0.000431,0.141739
2955000,0.0324,0.013523,0.002678,0.000431,0.155372
2956000,0.0324,0.013523,0.002678,0.000431,0.102014
2957000,0.0324,0.013523,0.002678,0.000431,0.065346
2958000,0.0324,0.013523,0.002678,0.000431,0.066168
2959000,0.0324,0.013523,0.002678,0.000431,0.155255
2960000,0.0324,0.013523,0.002678,0.000431,0.180523
2961000,0.0324,0.013523,0.002678,0.000431,0.218837
2962000,0.0324,0.013523,0.002678,0.000431,0.174529
2963000,0.0324,0.013523,0.002678,0.000431,0.052888
2964000,0.0324,0.013523,0.002678,0.000431,0.143032
2965000,0.0324,0.013523,0.002678,0.000431,0.076511
2966000,0.0324,0.013523,0.002678,0.000431,0.089556
2967000,0.0324,0.013523,0.002678,0.000431,0.235291
2968000,0.0324,0.013523,0.002678,0.000431,0.107538
2969000,0.0324,0.013523,0.002678,0.000431,0.102720
2970000,0.0324,0.013523,0.002678,0.000431,0.062407
2971000,0.0324,0.013523,0.002678,0.000431,0.131632
2972000,0.0324,0.013523,0.002678,0.000431,0.119644
2973000,0.0324,0.013523,0.002678,0.000431,0.228240
2974000,0.0324,0.013523,0.002678,0.000431,0.142209
2975000,0.0324,0.013523,0.002678,0.000431,0.131984
2976000,0.0324,0.013523,0.002678,0.000431,0.049244
2977000,0.0324,0.013523,0.002678,0.000431,0.196272
2978000,0.0324,0.013523,0.002678,0.000431,0.338246
2979000,0.0324,0.013523,0.002678,0.000431,0.093552
2980000,0.0324,0.013523,0.002678,0.000431,0.222128
2981000,0.0324,0.013523,0.002678,0.000431,0.090379
2982000,0.0324,0.013523,0.002678,0.000431,0.131044
2983000,0.0324,0.013523,0.002678,0.000431,0.099429
2984000,0.0324,0.013523,0.002678,0.000431,0.097901
2985000,0.0324,0.013523,0.002678,0.000431,0.139741
2986000,0.0324,0.013523,0.002678,0.000431,0.259737
2987000,0.0324,0.013523,0.002678,0.000431,0.173707
2988000,0.0324,0.013523,0.002678,0.000431,0.082740
2989000,0.0324,0.013523,0.002678,0.000431,0.128223
2990000,0.0324,0.013523,0.002678,0.000431,0.143267
2991000,0.0324,0.013523,0.002678,0.000431,0.113062
2992000,0.0324,0.013523,0.002678,0.000431,0.089556
2993000,0.0324,0.013523,0.002678,0.000431,0.199915
2994000,0.0324,0.013523,0.002678,0.000431,0.161131
2995000,0.0324,0.013523,0.002678,0.000431,0.229062
2996000,0.0324,0.013523,0.002678,0.000431,0.057471
2997000,0.0324,0.013523,0.002678,0.000431,0.087323
2998000,0.0324,0.013523,0.002678,0.000431,0.074983
2999000,0.0324,0.013523,0.002678,0.000431,0.179230
