Cycle,Area(mm^2),PeakDynamic(W),SubthresholdLeakage(W),GateLeakage(W),RunTimeDynamic(W)
11000000,0.0324,0.013523,0.002678,0.000431,0.039607
11001000,0.0324,0.013523,0.002678,0.000431,0.004701
11002000,0.0324,0.013523,0.002678,0.000431,0.004701
11003000,0.0324,0.013523,0.002678,0.000431,0.004701
11004000,0.0324,0.013523,0.002678,0.000431,0.027149
11005000,0.0324,0.013523,0.002678,0.000431,0.159368
11006000,0.0324,0.013523,0.002678,0.000431,0.014221
11007000,0.0324,0.013523,0.002678,0.000431,0.036199
11008000,0.0324,0.013523,0.002678,0.000431,0.024563
11009000,0.0324,0.013523,0.002678,0.000431,0.029735
11010000,0.0324,0.013523,0.002678,0.000431,0.004701
11011000,0.0324,0.013523,0.002678,0.000431,0.004701
11012000,0.0324,0.013523,0.002678,0.000431,0.004701
11013000,0.0324,0.013523,0.002678,0.000431,0.027267
11014000,0.0324,0.013523,0.002678,0.000431,0.004701
11015000,0.0324,0.013523,0.002678,0.000431,0.004701
11016000,0.0324,0.013523,0.002678,0.000431,0.004701
11017000,0.0324,0.013523,0.002678,0.000431,0.004466
11018000,0.0324,0.013523,0.002678,0.000431,0.038549
11019000,0.0324,0.013523,0.002678,0.000431,0.015749
11020000,0.0324,0.013523,0.002678,0.000431,0.004701
11021000,0.0324,0.013523,0.002678,0.000431,0.046659
11022000,0.0324,0.013523,0.002678,0.000431,0.015631
11023000,0.0324,0.013523,0.002678,0.000431,0.004701
11024000,0.0324,0.013523,0.002678,0.000431,0.004701
11025000,0.0324,0.013523,0.002678,0.000431,0.102250
11026000,0.0324,0.013523,0.002678,0.000431,0.019745
11027000,0.0324,0.013523,0.002678,0.000431,0.004701
11028000,0.0324,0.013523,0.002678,0.000431,0.012223
11029000,0.0324,0.013523,0.002678,0.000431,0.004701
11030000,0.0324,0.013523,0.002678,0.000431,0.004701
11031000,0.0324,0.013523,0.002678,0.000431,0.010342
11032000,0.0324,0.013523,0.002678,0.000431,0.029147
11033000,0.0324,0.013523,0.002678,0.000431,0.004701
11034000,0.0324,0.013523,0.002678,0.000431,0.004701
11035000,0.0324,0.013523,0.002678,0.000431,0.004701
11036000,0.0324,0.013523,0.002678,0.000431,0.004701
11037000,0.0324,0.013523,0.002678,0.000431,0.004701
11038000,0.0324,0.013523,0.002678,0.000431,0.057354
11039000,0.0324,0.013523,0.002678,0.000431,0.034788
11040000,0.0324,0.013523,0.002678,0.000431,0.009167
11041000,0.0324,0.013523,0.002678,0.000431,0.045483
11042000,0.0324,0.013523,0.002678,0.000431,0.004584
11043000,0.0324,0.013523,0.002678,0.000431,0.004701
11044000,0.0324,0.013523,0.002678,0.000431,0.026091
11045000,0.0324,0.013523,0.002678,0.000431,0.058764
11046000,0.0324,0.013523,0.002678,0.000431,0.004701
11047000,0.0324,0.013523,0.002678,0.000431,0.057354
11048000,0.0324,0.013523,0.002678,0.000431,0.004701
11049000,0.0324,0.013523,0.002678,0.000431,0.004466
11050000,0.0324,0.013523,0.002678,0.000431,0.004701
11051000,0.0324,0.013523,0.002678,0.000431,0.034788
11052000,0.0324,0.013523,0.002678,0.000431,0.004701
11053000,0.0324,0.013523,0.002678,0.000431,0.015984
11054000,0.0324,0.013523,0.002678,0.000431,0.015984
11055000,0.0324,0.013523,0.002678,0.000431,0.004701
11056000,0.0324,0.013523,0.002678,0.000431,0.004701
11057000,0.0324,0.013523,0.002678,0.000431,0.027149
11058000,0.0324,0.013523,0.002678,0.000431,0.004584
11059000,0.0324,0.013523,0.002678,0.000431,0.004466
11060000,0.0324,0.013523,0.002678,0.000431,0.019745
11061000,0.0324,0.013523,0.002678,0.000431,0.004701
11062000,0.0324,0.013523,0.002678,0.000431,0.004701
11063000,0.0324,0.013523,0.002678,0.000431,0.004701
11064000,0.0324,0.013523,0.002678,0.000431,0.057354
11065000,0.0324,0.013523,0.002678,0.000431,0.019745
11066000,0.0324,0.013523,0.002678,0.000431,0.017629
11067000,0.0324,0.013523,0.002678,0.000431,0.006817
11068000,0.0324,0.013523,0.002678,0.000431,0.004701
11069000,0.0324,0.013523,0.002678,0.000431,0.004701
11070000,0.0324,0.013523,0.002678,0.000431,0.057354
11071000,0.0324,0.013523,0.002678,0.000431,0.122229
11072000,0.0324,0.013523,0.002678,0.000431,0.014809
11073000,0.0324,0.013523,0.002678,0.000431,0.004701
11074000,0.0324,0.013523,0.002678,0.000431,0.004701
11075000,0.0324,0.013523,0.002678,0.000431,0.004701
11076000,0.0324,0.013523,0.002678,0.000431,0.015161
11077000,0.0324,0.013523,0.002678,0.000431,0.047129
11078000,0.0324,0.013523,0.002678,0.000431,0.004701
11079000,0.0324,0.013523,0.002678,0.000431,0.027267
11080000,0.0324,0.013523,0.002678,0.000431,0.004701
11081000,0.0324,0.013523,0.002678,0.000431,0.004584
11082000,0.0324,0.013523,0.002678,0.000431,0.004584
11083000,0.0324,0.013523,0.002678,0.000431,0.049832
11084000,0.0324,0.013523,0.002678,0.000431,0.012223
11085000,0.0324,0.013523,0.002678,0.000431,0.006582
11086000,0.0324,0.013523,0.002678,0.000431,0.010342
11087000,0.0324,0.013523,0.002678,0.000431,0.004701
11088000,0.0324,0.013523,0.002678,0.000431,0.004701
11089000,0.0324,0.013523,0.002678,0.000431,0.021508
11090000,0.0324,0.013523,0.002678,0.000431,0.050772
11091000,0.0324,0.013523,0.002678,0.000431,0.092025
11092000,0.0324,0.013523,0.002678,0.000431,0.042310
11093000,0.0324,0.013523,0.002678,0.000431,0.004701
11094000,0.0324,0.013523,0.002678,0.000431,0.004701
11095000,0.0324,0.013523,0.002678,0.000431,0.034788
11096000,0.0324,0.013523,0.002678,0.000431,0.027267
11097000,0.0324,0.013523,0.002678,0.000431,0.042310
11098000,0.0324,0.013523,0.002678,0.000431,0.022330
11099000,0.0324,0.013523,0.002678,0.000431,0.054533
11100000,0.0324,0.013523,0.002678,0.000431,0.004701
11101000,0.0324,0.013523,0.002678,0.000431,0.004819
11102000,0.0324,0.013523,0.002678,0.000431,0.012340
11103000,0.0324,0.013523,0.002678,0.000431,0.016101
11104000,0.0324,0.013523,0.002678,0.000431,0.008580
11105000,0.0324,0.013523,0.002678,0.000431,0.019745
11106000,0.0324,0.013523,0.002678,0.000431,0.004701
11107000,0.0324,0.013523,0.002678,0.000431,0.004701
11108000,0.0324,0.013523,0.002678,0.000431,0.064876
11109000,0.0324,0.013523,0.002678,0.000431,0.019745
11110000,0.0324,0.013523,0.002678,0.000431,0.050067
11111000,0.0324,0.013523,0.002678,0.000431,0.011988
11112000,0.0324,0.013523,0.002678,0.000431,0.012223
11113000,0.0324,0.013523,0.002678,0.000431,0.004701
11114000,0.0324,0.013523,0.002678,0.000431,0.031262
11115000,0.0324,0.013523,0.002678,0.000431,0.060645
11116000,0.0324,0.013523,0.002678,0.000431,0.019745
11117000,0.0324,0.013523,0.002678,0.000431,0.004701
11118000,0.0324,0.013523,0.002678,0.000431,0.019745
11119000,0.0324,0.013523,0.002678,0.000431,0.004701
11120000,0.0324,0.013523,0.002678,0.000431,0.004701
11121000,0.0324,0.013523,0.002678,0.000431,0.014456
11122000,0.0324,0.013523,0.002678,0.000431,0.047364
11123000,0.0324,0.013523,0.002678,0.000431,0.019745
11124000,0.0324,0.013523,0.002678,0.000431,0.012458
11125000,0.0324,0.013523,0.002678,0.000431,0.004701
11126000,0.0324,0.013523,0.002678,0.000431,0.004701
11127000,0.0324,0.013523,0.002678,0.000431,0.004701
11128000,0.0324,0.013523,0.002678,0.000431,0.007169
11129000,0.0324,0.013523,0.002678,0.000431,0.009755
11130000,0.0324,0.013523,0.002678,0.000431,0.065346
11131000,0.0324,0.013523,0.002678,0.000431,0.004701
11132000,0.0324,0.013523,0.002678,0.000431,0.004701
11133000,0.0324,0.013523,0.002678,0.000431,0.004701
11134000,0.0324,0.013523,0.002678,0.000431,0.049832
11135000,0.0324,0.013523,0.002678,0.000431,0.035023
11136000,0.0324,0.013523,0.002678,0.000431,0.008462
11137000,0.0324,0.013523,0.002678,0.000431,0.031027
11138000,0.0324,0.013523,0.002678,0.000431,0.004701
11139000,0.0324,0.013523,0.002678,0.000431,0.004584
11140000,0.0324,0.013523,0.002678,0.000431,0.057471
11141000,0.0324,0.013523,0.002678,0.000431,0.042310
11142000,0.0324,0.013523,0.002678,0.000431,0.004701
11143000,0.0324,0.013523,0.002678,0.000431,0.012223
11144000,0.0324,0.013523,0.002678,0.000431,0.004701
11145000,0.0324,0.013523,0.002678,0.000431,0.004701
11146000,0.0324,0.013523,0.002678,0.000431,0.004701
11147000,0.0324,0.013523,0.002678,0.000431,0.046071
11148000,0.0324,0.013523,0.002678,0.000431,0.008345
11149000,0.0324,0.013523,0.002678,0.000431,0.022213
11150000,0.0324,0.013523,0.002678,0.000431,0.098136
11151000,0.0324,0.013523,0.002678,0.000431,0.006229
11152000,0.0324,0.013523,0.002678,0.000431,0.004701
11153000,0.0324,0.013523,0.002678,0.000431,0.019745
11154000,0.0324,0.013523,0.002678,0.000431,0.034553
11155000,0.0324,0.013523,0.002678,0.000431,0.004701
11156000,0.0324,0.013523,0.002678,0.000431,0.004701
11157000,0.0324,0.013523,0.002678,0.000431,0.012223
11158000,0.0324,0.013523,0.002678,0.000431,0.004701
11159000,0.0324,0.013523,0.002678,0.000431,0.004701
11160000,0.0324,0.013523,0.002678,0.000431,0.012340
11161000,0.0324,0.013523,0.002678,0.000431,0.034906
11162000,0.0324,0.013523,0.002678,0.000431,0.004701
11163000,0.0324,0.013523,0.002678,0.000431,0.012458
11164000,0.0324,0.013523,0.002678,0.000431,0.027267
11165000,0.0324,0.013523,0.002678,0.000431,0.004701
11166000,0.0324,0.013523,0.002678,0.000431,0.012223
11167000,0.0324,0.013523,0.002678,0.000431,0.035023
11168000,0.0324,0.013523,0.002678,0.000431,0.019745
11169000,0.0324,0.013523,0.002678,0.000431,0.004701
11170000,0.0324,0.013523,0.002678,0.000431,0.012223
11171000,0.0324,0.013523,0.002678,0.000431,0.004701
11172000,0.0324,0.013523,0.002678,0.000431,0.004701
11173000,0.0324,0.013523,0.002678,0.000431,0.004701
11174000,0.0324,0.013523,0.002678,0.000431,0.012223
11175000,0.0324,0.013523,0.002678,0.000431,0.027267
11176000,0.0324,0.013523,0.002678,0.000431,0.013163
11177000,0.0324,0.013523,0.002678,0.000431,0.078979
11178000,0.0324,0.013523,0.002678,0.000431,0.004701
11179000,0.0324,0.013523,0.002678,0.000431,0.004584
11180000,0.0324,0.013523,0.002678,0.000431,0.008580
11181000,0.0324,0.013523,0.002678,0.000431,0.015749
11182000,0.0324,0.013523,0.002678,0.000431,0.004701
11183000,0.0324,0.013523,0.002678,0.000431,0.004701
11184000,0.0324,0.013523,0.002678,0.000431,0.004701
11185000,0.0324,0.013523,0.002678,0.000431,0.004701
11186000,0.0324,0.013523,0.002678,0.000431,0.042310
11187000,0.0324,0.013523,0.002678,0.000431,0.023623
11188000,0.0324,0.013523,0.002678,0.000431,0.015749
11189000,0.0324,0.013523,0.002678,0.000431,0.020802
11190000,0.0324,0.013523,0.002678,0.000431,0.018569
11191000,0.0324,0.013523,0.002678,0.000431,0.004584
11192000,0.0324,0.013523,0.002678,0.000431,0.012105
11193000,0.0324,0.013523,0.002678,0.000431,0.008462
11194000,0.0324,0.013523,0.002678,0.000431,0.121289
11195000,0.0324,0.013523,0.002678,0.000431,0.004701
11196000,0.0324,0.013523,0.002678,0.000431,0.034788
11197000,0.0324,0.013523,0.002678,0.000431,0.004466
11198000,0.0324,0.013523,0.002678,0.000431,0.004701
11199000,0.0324,0.013523,0.002678,0.000431,0.019980
11200000,0.0324,0.013523,0.002678,0.000431,0.019980
11201000,0.0324,0.013523,0.002678,0.000431,0.004701
11202000,0.0324,0.013523,0.002678,0.000431,0.004701
11203000,0.0324,0.013523,0.002678,0.000431,0.012223
11204000,0.0324,0.013523,0.002678,0.000431,0.004701
11205000,0.0324,0.013523,0.002678,0.000431,0.049832
11206000,0.0324,0.013523,0.002678,0.000431,0.027267
11207000,0.0324,0.013523,0.002678,0.000431,0.042310
11208000,0.0324,0.013523,0.002678,0.000431,0.004701
11209000,0.0324,0.013523,0.002678,0.000431,0.004936
11210000,0.0324,0.013523,0.002678,0.000431,0.004701
11211000,0.0324,0.013523,0.002678,0.000431,0.004701
11212000,0.0324,0.013523,0.002678,0.000431,0.042310
11213000,0.0324,0.013523,0.002678,0.000431,0.026209
11214000,0.0324,0.013523,0.002678,0.000431,0.013281
11215000,0.0324,0.013523,0.002678,0.000431,0.012223
11216000,0.0324,0.013523,0.002678,0.000431,0.004701
11217000,0.0324,0.013523,0.002678,0.000431,0.004701
11218000,0.0324,0.013523,0.002678,0.000431,0.004701
11219000,0.0324,0.013523,0.002678,0.000431,0.027149
11220000,0.0324,0.013523,0.002678,0.000431,0.004584
11221000,0.0324,0.013523,0.002678,0.000431,0.008462
11222000,0.0324,0.013523,0.002678,0.000431,0.023506
11223000,0.0324,0.013523,0.002678,0.000431,0.004701
11224000,0.0324,0.013523,0.002678,0.000431,0.004701
11225000,0.0324,0.013523,0.002678,0.000431,0.013398
11226000,0.0324,0.013523,0.002678,0.000431,0.041370
11227000,0.0324,0.013523,0.002678,0.000431,0.004701
11228000,0.0324,0.013523,0.002678,0.000431,0.087441
11229000,0.0324,0.013523,0.002678,0.000431,0.012223
11230000,0.0324,0.013523,0.002678,0.000431,0.004701
11231000,0.0324,0.013523,0.002678,0.000431,0.004701
11232000,0.0324,0.013523,0.002678,0.000431,0.090144
11233000,0.0324,0.013523,0.002678,0.000431,0.017042
11234000,0.0324,0.013523,0.002678,0.000431,0.004466
11235000,0.0324,0.013523,0.002678,0.000431,0.004701
11236000,0.0324,0.013523,0.002678,0.000431,0.004701
11237000,0.0324,0.013523,0.002678,0.000431,0.004466
11238000,0.0324,0.013523,0.002678,0.000431,0.008580
11239000,0.0324,0.013523,0.002678,0.000431,0.016101
11240000,0.0324,0.013523,0.002678,0.000431,0.004701
11241000,0.0324,0.013523,0.002678,0.000431,0.004701
11242000,0.0324,0.013523,0.002678,0.000431,0.057589
11243000,0.0324,0.013523,0.002678,0.000431,0.004701
11244000,0.0324,0.013523,0.002678,0.000431,0.019745
11245000,0.0324,0.013523,0.002678,0.000431,0.027502
11246000,0.0324,0.013523,0.002678,0.000431,0.004701
11247000,0.0324,0.013523,0.002678,0.000431,0.004701
11248000,0.0324,0.013523,0.002678,0.000431,0.007169
11249000,0.0324,0.013523,0.002678,0.000431,0.017277
11250000,0.0324,0.013523,0.002678,0.000431,0.009990
11251000,0.0324,0.013523,0.002678,0.000431,0.073103
11252000,0.0324,0.013523,0.002678,0.000431,0.051360
11253000,0.0324,0.013523,0.002678,0.000431,0.004466
11254000,0.0324,0.013523,0.002678,0.000431,0.004701
11255000,0.0324,0.013523,0.002678,0.000431,0.004701
11256000,0.0324,0.013523,0.002678,0.000431,0.004701
11257000,0.0324,0.013523,0.002678,0.000431,0.049832
11258000,0.0324,0.013523,0.002678,0.000431,0.012223
11259000,0.0324,0.013523,0.002678,0.000431,0.004584
11260000,0.0324,0.013523,0.002678,0.000431,0.004584
11261000,0.0324,0.013523,0.002678,0.000431,0.038432
11262000,0.0324,0.013523,0.002678,0.000431,0.008580
11263000,0.0324,0.013523,0.002678,0.000431,0.004701
11264000,0.0324,0.013523,0.002678,0.000431,0.019745
11265000,0.0324,0.013523,0.002678,0.000431,0.027267
11266000,0.0324,0.013523,0.002678,0.000431,0.004701
11267000,0.0324,0.013523,0.002678,0.000431,0.004701
11268000,0.0324,0.013523,0.002678,0.000431,0.026914
11269000,0.0324,0.013523,0.002678,0.000431,0.050420
11270000,0.0324,0.013523,0.002678,0.000431,0.004701
11271000,0.0324,0.013523,0.002678,0.000431,0.004701
11272000,0.0324,0.013523,0.002678,0.000431,0.004701
11273000,0.0324,0.013523,0.002678,0.000431,0.004701
11274000,0.0324,0.013523,0.002678,0.000431,0.004584
11275000,0.0324,0.013523,0.002678,0.000431,0.011048
11276000,0.0324,0.013523,0.002678,0.000431,0.005759
11277000,0.0324,0.013523,0.002678,0.000431,0.008345
11278000,0.0324,0.013523,0.002678,0.000431,0.023388
11279000,0.0324,0.013523,0.002678,0.000431,0.004701
11280000,0.0324,0.013523,0.002678,0.000431,0.004701
11281000,0.0324,0.013523,0.002678,0.000431,0.004701
11282000,0.0324,0.013523,0.002678,0.000431,0.004701
11283000,0.0324,0.013523,0.002678,0.000431,0.012223
11284000,0.0324,0.013523,0.002678,0.000431,0.004701
11285000,0.0324,0.013523,0.002678,0.000431,0.115648
11286000,0.0324,0.013523,0.002678,0.000431,0.006582
11287000,0.0324,0.013523,0.002678,0.000431,0.004701
11288000,0.0324,0.013523,0.002678,0.000431,0.011048
11289000,0.0324,0.013523,0.002678,0.000431,0.013398
11290000,0.0324,0.013523,0.002678,0.000431,0.004701
11291000,0.0324,0.013523,0.002678,0.000431,0.012223
11292000,0.0324,0.013523,0.002678,0.000431,0.004701
11293000,0.0324,0.013523,0.002678,0.000431,0.004466
11294000,0.0324,0.013523,0.002678,0.000431,0.004701
11295000,0.0324,0.013523,0.002678,0.000431,0.004701
11296000,0.0324,0.013523,0.002678,0.000431,0.117528
11297000,0.0324,0.013523,0.002678,0.000431,0.004701
11298000,0.0324,0.013523,0.002678,0.000431,0.004701
11299000,0.0324,0.013523,0.002678,0.000431,0.004584
11300000,0.0324,0.013523,0.002678,0.000431,0.004584
11301000,0.0324,0.013523,0.002678,0.000431,0.004701
11302000,0.0324,0.013523,0.002678,0.000431,0.046071
11303000,0.0324,0.013523,0.002678,0.000431,0.008462
11304000,0.0324,0.013523,0.002678,0.000431,0.019745
11305000,0.0324,0.013523,0.002678,0.000431,0.004701
11306000,0.0324,0.013523,0.002678,0.000431,0.035023
11307000,0.0324,0.013523,0.002678,0.000431,0.049832
11308000,0.0324,0.013523,0.002678,0.000431,0.004701
11309000,0.0324,0.013523,0.002678,0.000431,0.012223
11310000,0.0324,0.013523,0.002678,0.000431,0.004701
11311000,0.0324,0.013523,0.002678,0.000431,0.004701
11312000,0.0324,0.013523,0.002678,0.000431,0.004701
11313000,0.0324,0.013523,0.002678,0.000431,0.004701
11314000,0.0324,0.013523,0.002678,0.000431,0.004466
11315000,0.0324,0.013523,0.002678,0.000431,0.087676
11316000,0.0324,0.013523,0.002678,0.000431,0.004701
11317000,0.0324,0.013523,0.002678,0.000431,0.004701
11318000,0.0324,0.013523,0.002678,0.000431,0.004701
11319000,0.0324,0.013523,0.002678,0.000431,0.004584
11320000,0.0324,0.013523,0.002678,0.000431,0.004584
11321000,0.0324,0.013523,0.002678,0.000431,0.057706
11322000,0.0324,0.013523,0.002678,0.000431,0.069342
11323000,0.0324,0.013523,0.002678,0.000431,0.038197
11324000,0.0324,0.013523,0.002678,0.000431,0.004701
11325000,0.0324,0.013523,0.002678,0.000431,0.005171
11326000,0.0324,0.013523,0.002678,0.000431,0.034318
11327000,0.0324,0.013523,0.002678,0.000431,0.004701
11328000,0.0324,0.013523,0.002678,0.000431,0.072397
11329000,0.0324,0.013523,0.002678,0.000431,0.004701
11330000,0.0324,0.013523,0.002678,0.000431,0.004701
11331000,0.0324,0.013523,0.002678,0.000431,0.004701
11332000,0.0324,0.013523,0.002678,0.000431,0.004701
11333000,0.0324,0.013523,0.002678,0.000431,0.004466
11334000,0.0324,0.013523,0.002678,0.000431,0.061115
11335000,0.0324,0.013523,0.002678,0.000431,0.066168
11336000,0.0324,0.013523,0.002678,0.000431,0.007169
11337000,0.0324,0.013523,0.002678,0.000431,0.004701
11338000,0.0324,0.013523,0.002678,0.000431,0.012223
11339000,0.0324,0.013523,0.002678,0.000431,0.004701
11340000,0.0324,0.013523,0.002678,0.000431,0.004466
11341000,0.0324,0.013523,0.002678,0.000431,0.042545
11342000,0.0324,0.013523,0.002678,0.000431,0.004701
11343000,0.0324,0.013523,0.002678,0.000431,0.004701
11344000,0.0324,0.013523,0.002678,0.000431,0.004701
11345000,0.0324,0.013523,0.002678,0.000431,0.004701
11346000,0.0324,0.013523,0.002678,0.000431,0.004701
11347000,0.0324,0.013523,0.002678,0.000431,0.008462
11348000,0.0324,0.013523,0.002678,0.000431,0.015984
11349000,0.0324,0.013523,0.002678,0.000431,0.004701
11350000,0.0324,0.013523,0.002678,0.000431,0.017629
11351000,0.0324,0.013523,0.002678,0.000431,0.044426
11352000,0.0324,0.013523,0.002678,0.000431,0.004701
11353000,0.0324,0.013523,0.002678,0.000431,0.012223
11354000,0.0324,0.013523,0.002678,0.000431,0.049597
11355000,0.0324,0.013523,0.002678,0.000431,0.004701
11356000,0.0324,0.013523,0.002678,0.000431,0.004701
11357000,0.0324,0.013523,0.002678,0.000431,0.027267
11358000,0.0324,0.013523,0.002678,0.000431,0.004701
11359000,0.0324,0.013523,0.002678,0.000431,0.004701
11360000,0.0324,0.013523,0.002678,0.000431,0.076158
11361000,0.0324,0.013523,0.002678,0.000431,0.008462
11362000,0.0324,0.013523,0.002678,0.000431,0.004701
11363000,0.0324,0.013523,0.002678,0.000431,0.004936
11364000,0.0324,0.013523,0.002678,0.000431,0.004701
11365000,0.0324,0.013523,0.002678,0.000431,0.004701
11366000,0.0324,0.013523,0.002678,0.000431,0.019745
11367000,0.0324,0.013523,0.002678,0.000431,0.019745
11368000,0.0324,0.013523,0.002678,0.000431,0.004701
11369000,0.0324,0.013523,0.002678,0.000431,0.004701
11370000,0.0324,0.013523,0.002678,0.000431,0.019745
11371000,0.0324,0.013523,0.002678,0.000431,0.004701
11372000,0.0324,0.013523,0.002678,0.000431,0.004701
11373000,0.0324,0.013523,0.002678,0.000431,0.019510
11374000,0.0324,0.013523,0.002678,0.000431,0.004701
11375000,0.0324,0.013523,0.002678,0.000431,0.004701
11376000,0.0324,0.013523,0.002678,0.000431,0.004701
11377000,0.0324,0.013523,0.002678,0.000431,0.004701
11378000,0.0324,0.013523,0.002678,0.000431,0.025386
11379000,0.0324,0.013523,0.002678,0.000431,0.091790
11380000,0.0324,0.013523,0.002678,0.000431,0.077216
11381000,0.0324,0.013523,0.002678,0.000431,0.004701
11382000,0.0324,0.013523,0.002678,0.000431,0.004701
11383000,0.0324,0.013523,0.002678,0.000431,0.102485
11384000,0.0324,0.013523,0.002678,0.000431,0.004701
11385000,0.0324,0.013523,0.002678,0.000431,0.027267
11386000,0.0324,0.013523,0.002678,0.000431,0.019745
11387000,0.0324,0.013523,0.002678,0.000431,0.004701
11388000,0.0324,0.013523,0.002678,0.000431,0.004701
11389000,0.0324,0.013523,0.002678,0.000431,0.004701
11390000,0.0324,0.013523,0.002678,0.000431,0.004701
11391000,0.0324,0.013523,0.002678,0.000431,0.044073
11392000,0.0324,0.013523,0.002678,0.000431,0.025504
11393000,0.0324,0.013523,0.002678,0.000431,0.004701
11394000,0.0324,0.013523,0.002678,0.000431,0.004466
11395000,0.0324,0.013523,0.002678,0.000431,0.004701
11396000,0.0324,0.013523,0.002678,0.000431,0.019745
11397000,0.0324,0.013523,0.002678,0.000431,0.004701
11398000,0.0324,0.013523,0.002678,0.000431,0.019745
11399000,0.0324,0.013523,0.002678,0.000431,0.121524
11400000,0.0324,0.013523,0.002678,0.000431,0.023506
11401000,0.0324,0.013523,0.002678,0.000431,0.004466
11402000,0.0324,0.013523,0.002678,0.000431,0.019745
11403000,0.0324,0.013523,0.002678,0.000431,0.004701
11404000,0.0324,0.013523,0.002678,0.000431,0.019980
11405000,0.0324,0.013523,0.002678,0.000431,0.066051
11406000,0.0324,0.013523,0.002678,0.000431,0.048657
11407000,0.0324,0.013523,0.002678,0.000431,0.004701
11408000,0.0324,0.013523,0.002678,0.000431,0.004466
11409000,0.0324,0.013523,0.002678,0.000431,0.004701
11410000,0.0324,0.013523,0.002678,0.000431,0.008462
11411000,0.0324,0.013523,0.002678,0.000431,0.046071
11412000,0.0324,0.013523,0.002678,0.000431,0.004701
11413000,0.0324,0.013523,0.002678,0.000431,0.034788
11414000,0.0324,0.013523,0.002678,0.000431,0.004701
11415000,0.0324,0.013523,0.002678,0.000431,0.049832
11416000,0.0324,0.013523,0.002678,0.000431,0.004701
11417000,0.0324,0.013523,0.002678,0.000431,0.004701
11418000,0.0324,0.013523,0.002678,0.000431,0.012223
11419000,0.0324,0.013523,0.002678,0.000431,0.030557
11420000,0.0324,0.013523,0.002678,0.000431,0.023741
11421000,0.0324,0.013523,0.002678,0.000431,0.051242
11422000,0.0324,0.013523,0.002678,0.000431,0.033378
11423000,0.0324,0.013523,0.002678,0.000431,0.021860
11424000,0.0324,0.013523,0.002678,0.000431,0.032673
11425000,0.0324,0.013523,0.002678,0.000431,0.019745
11426000,0.0324,0.013523,0.002678,0.000431,0.027267
11427000,0.0324,0.013523,0.002678,0.000431,0.004701
11428000,0.0324,0.013523,0.002678,0.000431,0.004466
11429000,0.0324,0.013523,0.002678,0.000431,0.019745
11430000,0.0324,0.013523,0.002678,0.000431,0.012223
11431000,0.0324,0.013523,0.002678,0.000431,0.027267
11432000,0.0324,0.013523,0.002678,0.000431,0.004701
11433000,0.0324,0.013523,0.002678,0.000431,0.004701
11434000,0.0324,0.013523,0.002678,0.000431,0.004701
11435000,0.0324,0.013523,0.002678,0.000431,0.027267
11436000,0.0324,0.013523,0.002678,0.000431,0.004701
11437000,0.0324,0.013523,0.002678,0.000431,0.028089
11438000,0.0324,0.013523,0.002678,0.000431,0.056531
11439000,0.0324,0.013523,0.002678,0.000431,0.019745
11440000,0.0324,0.013523,0.002678,0.000431,0.004701
11441000,0.0324,0.013523,0.002678,0.000431,0.004466
11442000,0.0324,0.013523,0.002678,0.000431,0.004701
11443000,0.0324,0.013523,0.002678,0.000431,0.004701
11444000,0.0324,0.013523,0.002678,0.000431,0.050302
11445000,0.0324,0.013523,0.002678,0.000431,0.012223
11446000,0.0324,0.013523,0.002678,0.000431,0.021273
11447000,0.0324,0.013523,0.002678,0.000431,0.010695
11448000,0.0324,0.013523,0.002678,0.000431,0.019510
11449000,0.0324,0.013523,0.002678,0.000431,0.004701
11450000,0.0324,0.013523,0.002678,0.000431,0.004701
11451000,0.0324,0.013523,0.002678,0.000431,0.004701
11452000,0.0324,0.013523,0.002678,0.000431,0.004701
11453000,0.0324,0.013523,0.002678,0.000431,0.035023
11454000,0.0324,0.013523,0.002678,0.000431,0.024211
11455000,0.0324,0.013523,0.002678,0.000431,0.040547
11456000,0.0324,0.013523,0.002678,0.000431,0.009520
11457000,0.0324,0.013523,0.002678,0.000431,0.040900
11458000,0.0324,0.013523,0.002678,0.000431,0.051242
11459000,0.0324,0.013523,0.002678,0.000431,0.004701
11460000,0.0324,0.013523,0.002678,0.000431,0.049832
11461000,0.0324,0.013523,0.002678,0.000431,0.004701
11462000,0.0324,0.013523,0.002678,0.000431,0.004701
11463000,0.0324,0.013523,0.002678,0.000431,0.042545
11464000,0.0324,0.013523,0.002678,0.000431,0.006699
11465000,0.0324,0.013523,0.002678,0.000431,0.010225
11466000,0.0324,0.013523,0.002678,0.000431,0.008462
11467000,0.0324,0.013523,0.002678,0.000431,0.015984
11468000,0.0324,0.013523,0.002678,0.000431,0.004584
11469000,0.0324,0.013523,0.002678,0.000431,0.004584
11470000,0.0324,0.013523,0.002678,0.000431,0.019745
11471000,0.0324,0.013523,0.002678,0.000431,0.072397
11472000,0.0324,0.013523,0.002678,0.000431,0.004701
11473000,0.0324,0.013523,0.002678,0.000431,0.004701
11474000,0.0324,0.013523,0.002678,0.000431,0.004701
11475000,0.0324,0.013523,0.002678,0.000431,0.049832
11476000,0.0324,0.013523,0.002678,0.000431,0.012458
11477000,0.0324,0.013523,0.002678,0.000431,0.004701
11478000,0.0324,0.013523,0.002678,0.000431,0.012223
11479000,0.0324,0.013523,0.002678,0.000431,0.034553
11480000,0.0324,0.013523,0.002678,0.000431,0.035023
11481000,0.0324,0.013523,0.002678,0.000431,0.034083
11482000,0.0324,0.013523,0.002678,0.000431,0.012811
11483000,0.0324,0.013523,0.002678,0.000431,0.004819
11484000,0.0324,0.013523,0.002678,0.000431,0.019745
11485000,0.0324,0.013523,0.002678,0.000431,0.004701
11486000,0.0324,0.013523,0.002678,0.000431,0.004701
11487000,0.0324,0.013523,0.002678,0.000431,0.004701
11488000,0.0324,0.013523,0.002678,0.000431,0.019510
11489000,0.0324,0.013523,0.002678,0.000431,0.012223
11490000,0.0324,0.013523,0.002678,0.000431,0.030910
11491000,0.0324,0.013523,0.002678,0.000431,0.038667
11492000,0.0324,0.013523,0.002678,0.000431,0.034788
11493000,0.0324,0.013523,0.002678,0.000431,0.004701
11494000,0.0324,0.013523,0.002678,0.000431,0.042310
11495000,0.0324,0.013523,0.002678,0.000431,0.015984
11496000,0.0324,0.013523,0.002678,0.000431,0.008345
11497000,0.0324,0.013523,0.002678,0.000431,0.064758
11498000,0.0324,0.013523,0.002678,0.000431,0.004701
11499000,0.0324,0.013523,0.002678,0.000431,0.012223
11500000,0.0324,0.013523,0.002678,0.000431,0.004584
11501000,0.0324,0.013523,0.002678,0.000431,0.042193
11502000,0.0324,0.013523,0.002678,0.000431,0.012458
11503000,0.0324,0.013523,0.002678,0.000431,0.004701
11504000,0.0324,0.013523,0.002678,0.000431,0.004701
11505000,0.0324,0.013523,0.002678,0.000431,0.093082
11506000,0.0324,0.013523,0.002678,0.000431,0.021860
11507000,0.0324,0.013523,0.002678,0.000431,0.019745
11508000,0.0324,0.013523,0.002678,0.000431,0.049832
11509000,0.0324,0.013523,0.002678,0.000431,0.004701
11510000,0.0324,0.013523,0.002678,0.000431,0.004701
11511000,0.0324,0.013523,0.002678,0.000431,0.004701
11512000,0.0324,0.013523,0.002678,0.000431,0.012223
11513000,0.0324,0.013523,0.002678,0.000431,0.016219
11514000,0.0324,0.013523,0.002678,0.000431,0.031027
11515000,0.0324,0.013523,0.002678,0.000431,0.057589
11516000,0.0324,0.013523,0.002678,0.000431,0.004701
11517000,0.0324,0.013523,0.002678,0.000431,0.004701
11518000,0.0324,0.013523,0.002678,0.000431,0.011400
11519000,0.0324,0.013523,0.002678,0.000431,0.005524
11520000,0.0324,0.013523,0.002678,0.000431,0.057354
11521000,0.0324,0.013523,0.002678,0.000431,0.005994
11522000,0.0324,0.013523,0.002678,0.000431,0.033260
11523000,0.0324,0.013523,0.002678,0.000431,0.004701
11524000,0.0324,0.013523,0.002678,0.000431,0.007639
11525000,0.0324,0.013523,0.002678,0.000431,0.047129
11526000,0.0324,0.013523,0.002678,0.000431,0.064641
11527000,0.0324,0.013523,0.002678,0.000431,0.004701
11528000,0.0324,0.013523,0.002678,0.000431,0.034788
11529000,0.0324,0.013523,0.002678,0.000431,0.004701
11530000,0.0324,0.013523,0.002678,0.000431,0.004701
11531000,0.0324,0.013523,0.002678,0.000431,0.004466
11532000,0.0324,0.013523,0.002678,0.000431,0.004701
11533000,0.0324,0.013523,0.002678,0.000431,0.102485
11534000,0.0324,0.013523,0.002678,0.000431,0.012223
11535000,0.0324,0.013523,0.002678,0.000431,0.027031
11536000,0.0324,0.013523,0.002678,0.000431,0.004701
11537000,0.0324,0.013523,0.002678,0.000431,0.004701
11538000,0.0324,0.013523,0.002678,0.000431,0.004701
11539000,0.0324,0.013523,0.002678,0.000431,0.004701
11540000,0.0324,0.013523,0.002678,0.000431,0.004584
11541000,0.0324,0.013523,0.002678,0.000431,0.004584
11542000,0.0324,0.013523,0.002678,0.000431,0.004701
11543000,0.0324,0.013523,0.002678,0.000431,0.004701
11544000,0.0324,0.013523,0.002678,0.000431,0.027267
11545000,0.0324,0.013523,0.002678,0.000431,0.004701
11546000,0.0324,0.013523,0.002678,0.000431,0.079684
11547000,0.0324,0.013523,0.002678,0.000431,0.051360
11548000,0.0324,0.013523,0.002678,0.000431,0.025974
11549000,0.0324,0.013523,0.002678,0.000431,0.004701
11550000,0.0324,0.013523,0.002678,0.000431,0.004701
11551000,0.0324,0.013523,0.002678,0.000431,0.012223
11552000,0.0324,0.013523,0.002678,0.000431,0.049832
11553000,0.0324,0.013523,0.002678,0.000431,0.027031
11554000,0.0324,0.013523,0.002678,0.000431,0.019745
11555000,0.0324,0.013523,0.002678,0.000431,0.004701
11556000,0.0324,0.013523,0.002678,0.000431,0.004701
11557000,0.0324,0.013523,0.002678,0.000431,0.004701
11558000,0.0324,0.013523,0.002678,0.000431,0.008462
11559000,0.0324,0.013523,0.002678,0.000431,0.053358
11560000,0.0324,0.013523,0.002678,0.000431,0.004701
11561000,0.0324,0.013523,0.002678,0.000431,0.004701
11562000,0.0324,0.013523,0.002678,0.000431,0.004701
11563000,0.0324,0.013523,0.002678,0.000431,0.012223
11564000,0.0324,0.013523,0.002678,0.000431,0.012223
11565000,0.0324,0.013523,0.002678,0.000431,0.008462
11566000,0.0324,0.013523,0.002678,0.000431,0.008462
11567000,0.0324,0.013523,0.002678,0.000431,0.004701
11568000,0.0324,0.013523,0.002678,0.000431,0.004701
11569000,0.0324,0.013523,0.002678,0.000431,0.004701
11570000,0.0324,0.013523,0.002678,0.000431,0.012223
11571000,0.0324,0.013523,0.002678,0.000431,0.017394
11572000,0.0324,0.013523,0.002678,0.000431,0.022095
11573000,0.0324,0.013523,0.002678,0.000431,0.004701
11574000,0.0324,0.013523,0.002678,0.000431,0.004701
11575000,0.0324,0.013523,0.002678,0.000431,0.004701
11576000,0.0324,0.013523,0.002678,0.000431,0.012223
11577000,0.0324,0.013523,0.002678,0.000431,0.012223
11578000,0.0324,0.013523,0.002678,0.000431,0.004701
11579000,0.0324,0.013523,0.002678,0.000431,0.004701
11580000,0.0324,0.013523,0.002678,0.000431,0.004584
11581000,0.0324,0.013523,0.002678,0.000431,0.004584
11582000,0.0324,0.013523,0.002678,0.000431,0.004701
11583000,0.0324,0.013523,0.002678,0.000431,0.011988
11584000,0.0324,0.013523,0.002678,0.000431,0.044661
11585000,0.0324,0.013523,0.002678,0.000431,0.077804
11586000,0.0324,0.013523,0.002678,0.000431,0.004701
11587000,0.0324,0.013523,0.002678,0.000431,0.004701
11588000,0.0324,0.013523,0.002678,0.000431,0.004701
11589000,0.0324,0.013523,0.002678,0.000431,0.038549
11590000,0.0324,0.013523,0.002678,0.000431,0.015984
11591000,0.0324,0.013523,0.002678,0.000431,0.035141
11592000,0.0324,0.013523,0.002678,0.000431,0.004819
11593000,0.0324,0.013523,0.002678,0.000431,0.004466
11594000,0.0324,0.013523,0.002678,0.000431,0.004701
11595000,0.0324,0.013523,0.002678,0.000431,0.004701
11596000,0.0324,0.013523,0.002678,0.000431,0.012223
11597000,0.0324,0.013523,0.002678,0.000431,0.079449
11598000,0.0324,0.013523,0.002678,0.000431,0.005406
11599000,0.0324,0.013523,0.002678,0.000431,0.004466
11600000,0.0324,0.013523,0.002678,0.000431,0.004701
11601000,0.0324,0.013523,0.002678,0.000431,0.004701
11602000,0.0324,0.013523,0.002678,0.000431,0.041370
11603000,0.0324,0.013523,0.002678,0.000431,0.011518
11604000,0.0324,0.013523,0.002678,0.000431,0.096608
11605000,0.0324,0.013523,0.002678,0.000431,0.004701
11606000,0.0324,0.013523,0.002678,0.000431,0.004701
11607000,0.0324,0.013523,0.002678,0.000431,0.004701
11608000,0.0324,0.013523,0.002678,0.000431,0.004701
11609000,0.0324,0.013523,0.002678,0.000431,0.042310
11610000,0.0324,0.013523,0.002678,0.000431,0.049832
11611000,0.0324,0.013523,0.002678,0.000431,0.004701
11612000,0.0324,0.013523,0.002678,0.000431,0.004701
11613000,0.0324,0.013523,0.002678,0.000431,0.004701
11614000,0.0324,0.013523,0.002678,0.000431,0.004701
11615000,0.0324,0.013523,0.002678,0.000431,0.041487
11616000,0.0324,0.013523,0.002678,0.000431,0.038314
11617000,0.0324,0.013523,0.002678,0.000431,0.102485
11618000,0.0324,0.013523,0.002678,0.000431,0.040077
11619000,0.0324,0.013523,0.002678,0.000431,0.004701
11620000,0.0324,0.013523,0.002678,0.000431,0.004584
11621000,0.0324,0.013523,0.002678,0.000431,0.026209
11622000,0.0324,0.013523,0.002678,0.000431,0.013163
11623000,0.0324,0.013523,0.002678,0.000431,0.108243
11624000,0.0324,0.013523,0.002678,0.000431,0.164187
11625000,0.0324,0.013523,0.002678,0.000431,0.004701
11626000,0.0324,0.013523,0.002678,0.000431,0.004701
11627000,0.0324,0.013523,0.002678,0.000431,0.004701
11628000,0.0324,0.013523,0.002678,0.000431,0.072280
11629000,0.0324,0.013523,0.002678,0.000431,0.004819
11630000,0.0324,0.013523,0.002678,0.000431,0.004701
11631000,0.0324,0.013523,0.002678,0.000431,0.004701
11632000,0.0324,0.013523,0.002678,0.000431,0.004701
11633000,0.0324,0.013523,0.002678,0.000431,0.004466
11634000,0.0324,0.013523,0.002678,0.000431,0.042193
11635000,0.0324,0.013523,0.002678,0.000431,0.050185
11636000,0.0324,0.013523,0.002678,0.000431,0.004701
11637000,0.0324,0.013523,0.002678,0.000431,0.004701
11638000,0.0324,0.013523,0.002678,0.000431,0.004701
11639000,0.0324,0.013523,0.002678,0.000431,0.004701
11640000,0.0324,0.013523,0.002678,0.000431,0.004584
11641000,0.0324,0.013523,0.002678,0.000431,0.057706
11642000,0.0324,0.013523,0.002678,0.000431,0.012223
11643000,0.0324,0.013523,0.002678,0.000431,0.004701
11644000,0.0324,0.013523,0.002678,0.000431,0.008462
11645000,0.0324,0.013523,0.002678,0.000431,0.008462
11646000,0.0324,0.013523,0.002678,0.000431,0.004701
11647000,0.0324,0.013523,0.002678,0.000431,0.004701
11648000,0.0324,0.013523,0.002678,0.000431,0.027267
11649000,0.0324,0.013523,0.002678,0.000431,0.004701
11650000,0.0324,0.013523,0.002678,0.000431,0.004701
11651000,0.0324,0.013523,0.002678,0.000431,0.019745
11652000,0.0324,0.013523,0.002678,0.000431,0.004701
11653000,0.0324,0.013523,0.002678,0.000431,0.004701
11654000,0.0324,0.013523,0.002678,0.000431,0.051360
11655000,0.0324,0.013523,0.002678,0.000431,0.010460
11656000,0.0324,0.013523,0.002678,0.000431,0.004701
11657000,0.0324,0.013523,0.002678,0.000431,0.004936
11658000,0.0324,0.013523,0.002678,0.000431,0.004701
11659000,0.0324,0.013523,0.002678,0.000431,0.004701
11660000,0.0324,0.013523,0.002678,0.000431,0.036669
11661000,0.0324,0.013523,0.002678,0.000431,0.122934
11662000,0.0324,0.013523,0.002678,0.000431,0.004701
11663000,0.0324,0.013523,0.002678,0.000431,0.004701
11664000,0.0324,0.013523,0.002678,0.000431,0.004701
11665000,0.0324,0.013523,0.002678,0.000431,0.004701
11666000,0.0324,0.013523,0.002678,0.000431,0.004701
11667000,0.0324,0.013523,0.002678,0.000431,0.012223
11668000,0.0324,0.013523,0.002678,0.000431,0.004701
11669000,0.0324,0.013523,0.002678,0.000431,0.004701
11670000,0.0324,0.013523,0.002678,0.000431,0.004701
11671000,0.0324,0.013523,0.002678,0.000431,0.004701
11672000,0.0324,0.013523,0.002678,0.000431,0.004701
11673000,0.0324,0.013523,0.002678,0.000431,0.004584
11674000,0.0324,0.013523,0.002678,0.000431,0.076393
11675000,0.0324,0.013523,0.002678,0.000431,0.015631
11676000,0.0324,0.013523,0.002678,0.000431,0.028089
11677000,0.0324,0.013523,0.002678,0.000431,0.071810
11678000,0.0324,0.013523,0.002678,0.000431,0.004701
11679000,0.0324,0.013523,0.002678,0.000431,0.043485
11680000,0.0324,0.013523,0.002678,0.000431,0.011048
11681000,0.0324,0.013523,0.002678,0.000431,0.019745
11682000,0.0324,0.013523,0.002678,0.000431,0.004701
11683000,0.0324,0.013523,0.002678,0.000431,0.004701
11684000,0.0324,0.013523,0.002678,0.000431,0.004701
11685000,0.0324,0.013523,0.002678,0.000431,0.004701
11686000,0.0324,0.013523,0.002678,0.000431,0.049832
11687000,0.0324,0.013523,0.002678,0.000431,0.034788
11688000,0.0324,0.013523,0.002678,0.000431,0.019745
11689000,0.0324,0.013523,0.002678,0.000431,0.004701
11690000,0.0324,0.013523,0.002678,0.000431,0.004701
11691000,0.0324,0.013523,0.002678,0.000431,0.004701
11692000,0.0324,0.013523,0.002678,0.000431,0.069694
11693000,0.0324,0.013523,0.002678,0.000431,0.089909
11694000,0.0324,0.013523,0.002678,0.000431,0.049244
11695000,0.0324,0.013523,0.002678,0.000431,0.012105
11696000,0.0324,0.013523,0.002678,0.000431,0.004701
11697000,0.0324,0.013523,0.002678,0.000431,0.004701
11698000,0.0324,0.013523,0.002678,0.000431,0.004701
11699000,0.0324,0.013523,0.002678,0.000431,0.019627
11700000,0.0324,0.013523,0.002678,0.000431,0.098606
11701000,0.0324,0.013523,0.002678,0.000431,0.038549
11702000,0.0324,0.013523,0.002678,0.000431,0.004466
11703000,0.0324,0.013523,0.002678,0.000431,0.004701
11704000,0.0324,0.013523,0.002678,0.000431,0.004701
11705000,0.0324,0.013523,0.002678,0.000431,0.004701
11706000,0.0324,0.013523,0.002678,0.000431,0.004701
11707000,0.0324,0.013523,0.002678,0.000431,0.012223
11708000,0.0324,0.013523,0.002678,0.000431,0.012223
11709000,0.0324,0.013523,0.002678,0.000431,0.004701
11710000,0.0324,0.013523,0.002678,0.000431,0.004701
11711000,0.0324,0.013523,0.002678,0.000431,0.004701
11712000,0.0324,0.013523,0.002678,0.000431,0.004701
11713000,0.0324,0.013523,0.002678,0.000431,0.057354
11714000,0.0324,0.013523,0.002678,0.000431,0.012223
11715000,0.0324,0.013523,0.002678,0.000431,0.004701
11716000,0.0324,0.013523,0.002678,0.000431,0.004701
11717000,0.0324,0.013523,0.002678,0.000431,0.004701
11718000,0.0324,0.013523,0.002678,0.000431,0.017277
11719000,0.0324,0.013523,0.002678,0.000431,0.014691
11720000,0.0324,0.013523,0.002678,0.000431,0.128106
11721000,0.0324,0.013523,0.002678,0.000431,0.233176
11722000,0.0324,0.013523,0.002678,0.000431,0.035258
11723000,0.0324,0.013523,0.002678,0.000431,0.004701
11724000,0.0324,0.013523,0.002678,0.000431,0.004701
11725000,0.0324,0.013523,0.002678,0.000431,0.027267
11726000,0.0324,0.013523,0.002678,0.000431,0.012223
11727000,0.0324,0.013523,0.002678,0.000431,0.004466
11728000,0.0324,0.013523,0.002678,0.000431,0.019745
11729000,0.0324,0.013523,0.002678,0.000431,0.004701
11730000,0.0324,0.013523,0.002678,0.000431,0.004701
11731000,0.0324,0.013523,0.002678,0.000431,0.004701
11732000,0.0324,0.013523,0.002678,0.000431,0.029147
11733000,0.0324,0.013523,0.002678,0.000431,0.017864
11734000,0.0324,0.013523,0.002678,0.000431,0.004701
11735000,0.0324,0.013523,0.002678,0.000431,0.004701
11736000,0.0324,0.013523,0.002678,0.000431,0.004701
11737000,0.0324,0.013523,0.002678,0.000431,0.004701
11738000,0.0324,0.013523,0.002678,0.000431,0.004701
11739000,0.0324,0.013523,0.002678,0.000431,0.004701
11740000,0.0324,0.013523,0.002678,0.000431,0.014926
11741000,0.0324,0.013523,0.002678,0.000431,0.009520
11742000,0.0324,0.013523,0.002678,0.000431,0.004584
11743000,0.0324,0.013523,0.002678,0.000431,0.004584
11744000,0.0324,0.013523,0.002678,0.000431,0.004701
11745000,0.0324,0.013523,0.002678,0.000431,0.004584
11746000,0.0324,0.013523,0.002678,0.000431,0.091554
11747000,0.0324,0.013523,0.002678,0.000431,0.060174
11748000,0.0324,0.013523,0.002678,0.000431,0.004701
11749000,0.0324,0.013523,0.002678,0.000431,0.004701
11750000,0.0324,0.013523,0.002678,0.000431,0.004701
11751000,0.0324,0.013523,0.002678,0.000431,0.004701
11752000,0.0324,0.013523,0.002678,0.000431,0.057354
11753000,0.0324,0.013523,0.002678,0.000431,0.012223
11754000,0.0324,0.013523,0.002678,0.000431,0.004701
11755000,0.0324,0.013523,0.002678,0.000431,0.004701
11756000,0.0324,0.013523,0.002678,0.000431,0.004701
11757000,0.0324,0.013523,0.002678,0.000431,0.012223
11758000,0.0324,0.013523,0.002678,0.000431,0.034788
11759000,0.0324,0.013523,0.002678,0.000431,0.019745
11760000,0.0324,0.013523,0.002678,0.000431,0.027267
11761000,0.0324,0.013523,0.002678,0.000431,0.004466
11762000,0.0324,0.013523,0.002678,0.000431,0.004701
11763000,0.0324,0.013523,0.002678,0.000431,0.022683
11764000,0.0324,0.013523,0.002678,0.000431,0.038667
11765000,0.0324,0.013523,0.002678,0.000431,0.020450
11766000,0.0324,0.013523,0.002678,0.000431,0.012223
11767000,0.0324,0.013523,0.002678,0.000431,0.004701
11768000,0.0324,0.013523,0.002678,0.000431,0.004701
11769000,0.0324,0.013523,0.002678,0.000431,0.042310
11770000,0.0324,0.013523,0.002678,0.000431,0.012223
11771000,0.0324,0.013523,0.002678,0.000431,0.027267
11772000,0.0324,0.013523,0.002678,0.000431,0.019510
11773000,0.0324,0.013523,0.002678,0.000431,0.027267
11774000,0.0324,0.013523,0.002678,0.000431,0.004701
11775000,0.0324,0.013523,0.002678,0.000431,0.015984
11776000,0.0324,0.013523,0.002678,0.000431,0.023388
11777000,0.0324,0.013523,0.002678,0.000431,0.004584
11778000,0.0324,0.013523,0.002678,0.000431,0.004701
11779000,0.0324,0.013523,0.002678,0.000431,0.076158
11780000,0.0324,0.013523,0.002678,0.000431,0.015984
11781000,0.0324,0.013523,0.002678,0.000431,0.004701
11782000,0.0324,0.013523,0.002678,0.000431,0.004701
11783000,0.0324,0.013523,0.002678,0.000431,0.004701
11784000,0.0324,0.013523,0.002678,0.000431,0.042545
11785000,0.0324,0.013523,0.002678,0.000431,0.004584
11786000,0.0324,0.013523,0.002678,0.000431,0.004584
11787000,0.0324,0.013523,0.002678,0.000431,0.004701
11788000,0.0324,0.013523,0.002678,0.000431,0.015631
11789000,0.0324,0.013523,0.002678,0.000431,0.008815
11790000,0.0324,0.013523,0.002678,0.000431,0.057471
11791000,0.0324,0.013523,0.002678,0.000431,0.080037
11792000,0.0324,0.013523,0.002678,0.000431,0.004466
11793000,0.0324,0.013523,0.002678,0.000431,0.004701
11794000,0.0324,0.013523,0.002678,0.000431,0.008109
11795000,0.0324,0.013523,0.002678,0.000431,0.076276
11796000,0.0324,0.013523,0.002678,0.000431,0.004701
11797000,0.0324,0.013523,0.002678,0.000431,0.027267
11798000,0.0324,0.013523,0.002678,0.000431,0.027267
11799000,0.0324,0.013523,0.002678,0.000431,0.004701
11800000,0.0324,0.013523,0.002678,0.000431,0.004701
11801000,0.0324,0.013523,0.002678,0.000431,0.012223
11802000,0.0324,0.013523,0.002678,0.000431,0.004701
11803000,0.0324,0.013523,0.002678,0.000431,0.004701
11804000,0.0324,0.013523,0.002678,0.000431,0.016807
11805000,0.0324,0.013523,0.002678,0.000431,0.022683
11806000,0.0324,0.013523,0.002678,0.000431,0.004701
11807000,0.0324,0.013523,0.002678,0.000431,0.012693
11808000,0.0324,0.013523,0.002678,0.000431,0.132102
11809000,0.0324,0.013523,0.002678,0.000431,0.004701
11810000,0.0324,0.013523,0.002678,0.000431,0.012223
11811000,0.0324,0.013523,0.002678,0.000431,0.154432
11812000,0.0324,0.013523,0.002678,0.000431,0.012693
11813000,0.0324,0.013523,0.002678,0.000431,0.004701
11814000,0.0324,0.013523,0.002678,0.000431,0.004701
11815000,0.0324,0.013523,0.002678,0.000431,0.004701
11816000,0.0324,0.013523,0.002678,0.000431,0.071105
11817000,0.0324,0.013523,0.002678,0.000431,0.005994
11818000,0.0324,0.013523,0.002678,0.000431,0.057589
11819000,0.0324,0.013523,0.002678,0.000431,0.004701
11820000,0.0324,0.013523,0.002678,0.000431,0.004701
11821000,0.0324,0.013523,0.002678,0.000431,0.034788
11822000,0.0324,0.013523,0.002678,0.000431,0.004701
11823000,0.0324,0.013523,0.002678,0.000431,0.019745
11824000,0.0324,0.013523,0.002678,0.000431,0.082270
11825000,0.0324,0.013523,0.002678,0.000431,0.076863
11826000,0.0324,0.013523,0.002678,0.000431,0.004701
11827000,0.0324,0.013523,0.002678,0.000431,0.004701
11828000,0.0324,0.013523,0.002678,0.000431,0.004701
11829000,0.0324,0.013523,0.002678,0.000431,0.027502
11830000,0.0324,0.013523,0.002678,0.000431,0.004701
11831000,0.0324,0.013523,0.002678,0.000431,0.049479
11832000,0.0324,0.013523,0.002678,0.000431,0.005289
11833000,0.0324,0.013523,0.002678,0.000431,0.004701
11834000,0.0324,0.013523,0.002678,0.000431,0.004701
11835000,0.0324,0.013523,0.002678,0.000431,0.015514
11836000,0.0324,0.013523,0.002678,0.000431,0.061820
11837000,0.0324,0.013523,0.002678,0.000431,0.042310
11838000,0.0324,0.013523,0.002678,0.000431,0.004701
11839000,0.0324,0.013523,0.002678,0.000431,0.004701
11840000,0.0324,0.013523,0.002678,0.000431,0.057354
11841000,0.0324,0.013523,0.002678,0.000431,0.004701
11842000,0.0324,0.013523,0.002678,0.000431,0.004701
11843000,0.0324,0.013523,0.002678,0.000431,0.004701
11844000,0.0324,0.013523,0.002678,0.000431,0.012223
11845000,0.0324,0.013523,0.002678,0.000431,0.004701
11846000,0.0324,0.013523,0.002678,0.000431,0.014809
11847000,0.0324,0.013523,0.002678,0.000431,0.047716
11848000,0.0324,0.013523,0.002678,0.000431,0.019627
11849000,0.0324,0.013523,0.002678,0.000431,0.012576
11850000,0.0324,0.013523,0.002678,0.000431,0.034788
11851000,0.0324,0.013523,0.002678,0.000431,0.004701
11852000,0.0324,0.013523,0.002678,0.000431,0.004701
11853000,0.0324,0.013523,0.002678,0.000431,0.004701
11854000,0.0324,0.013523,0.002678,0.000431,0.004466
11855000,0.0324,0.013523,0.002678,0.000431,0.004701
11856000,0.0324,0.013523,0.002678,0.000431,0.004701
11857000,0.0324,0.013523,0.002678,0.000431,0.019745
11858000,0.0324,0.013523,0.002678,0.000431,0.004466
11859000,0.0324,0.013523,0.002678,0.000431,0.004701
11860000,0.0324,0.013523,0.002678,0.000431,0.042310
11861000,0.0324,0.013523,0.002678,0.000431,0.004701
11862000,0.0324,0.013523,0.002678,0.000431,0.004584
11863000,0.0324,0.013523,0.002678,0.000431,0.049714
11864000,0.0324,0.013523,0.002678,0.000431,0.004701
11865000,0.0324,0.013523,0.002678,0.000431,0.004701
11866000,0.0324,0.013523,0.002678,0.000431,0.004701
11867000,0.0324,0.013523,0.002678,0.000431,0.004701
11868000,0.0324,0.013523,0.002678,0.000431,0.034788
11869000,0.0324,0.013523,0.002678,0.000431,0.012223
11870000,0.0324,0.013523,0.002678,0.000431,0.004701
11871000,0.0324,0.013523,0.002678,0.000431,0.004701
11872000,0.0324,0.013523,0.002678,0.000431,0.023506
11873000,0.0324,0.013523,0.002678,0.000431,0.008462
11874000,0.0324,0.013523,0.002678,0.000431,0.012223
11875000,0.0324,0.013523,0.002678,0.000431,0.004701
11876000,0.0324,0.013523,0.002678,0.000431,0.027267
11877000,0.0324,0.013523,0.002678,0.000431,0.004701
11878000,0.0324,0.013523,0.002678,0.000431,0.004701
11879000,0.0324,0.013523,0.002678,0.000431,0.019980
11880000,0.0324,0.013523,0.002678,0.000431,0.004701
11881000,0.0324,0.013523,0.002678,0.000431,0.004701
11882000,0.0324,0.013523,0.002678,0.000431,0.068754
11883000,0.0324,0.013523,0.002678,0.000431,0.030910
11884000,0.0324,0.013523,0.002678,0.000431,0.004701
11885000,0.0324,0.013523,0.002678,0.000431,0.042310
11886000,0.0324,0.013523,0.002678,0.000431,0.004701
11887000,0.0324,0.013523,0.002678,0.000431,0.004701
11888000,0.0324,0.013523,0.002678,0.000431,0.004701
11889000,0.0324,0.013523,0.002678,0.000431,0.087323
11890000,0.0324,0.013523,0.002678,0.000431,0.004584
11891000,0.0324,0.013523,0.002678,0.000431,0.004701
11892000,0.0324,0.013523,0.002678,0.000431,0.004701
11893000,0.0324,0.013523,0.002678,0.000431,0.020332
11894000,0.0324,0.013523,0.002678,0.000431,0.019040
11895000,0.0324,0.013523,0.002678,0.000431,0.042193
11896000,0.0324,0.013523,0.002678,0.000431,0.012223
11897000,0.0324,0.013523,0.002678,0.000431,0.004701
11898000,0.0324,0.013523,0.002678,0.000431,0.012105
11899000,0.0324,0.013523,0.002678,0.000431,0.004584
11900000,0.0324,0.013523,0.002678,0.000431,0.079919
11901000,0.0324,0.013523,0.002678,0.000431,0.004701
11902000,0.0324,0.013523,0.002678,0.000431,0.013398
11903000,0.0324,0.013523,0.002678,0.000431,0.038197
11904000,0.0324,0.013523,0.002678,0.000431,0.023388
11905000,0.0324,0.013523,0.002678,0.000431,0.026561
11906000,0.0324,0.013523,0.002678,0.000431,0.021273
11907000,0.0324,0.013523,0.002678,0.000431,0.018217
11908000,0.0324,0.013523,0.002678,0.000431,0.019745
11909000,0.0324,0.013523,0.002678,0.000431,0.004466
11910000,0.0324,0.013523,0.002678,0.000431,0.004701
11911000,0.0324,0.013523,0.002678,0.000431,0.019510
11912000,0.0324,0.013523,0.002678,0.000431,0.004701
11913000,0.0324,0.013523,0.002678,0.000431,0.004701
11914000,0.0324,0.013523,0.002678,0.000431,0.042310
11915000,0.0324,0.013523,0.002678,0.000431,0.019745
11916000,0.0324,0.013523,0.002678,0.000431,0.004701
11917000,0.0324,0.013523,0.002678,0.000431,0.039607
11918000,0.0324,0.013523,0.002678,0.000431,0.014926
11919000,0.0324,0.013523,0.002678,0.000431,0.012223
11920000,0.0324,0.013523,0.002678,0.000431,0.017394
11921000,0.0324,0.013523,0.002678,0.000431,0.051947
11922000,0.0324,0.013523,0.002678,0.000431,0.004701
11923000,0.0324,0.013523,0.002678,0.000431,0.004701
11924000,0.0324,0.013523,0.002678,0.000431,0.004701
11925000,0.0324,0.013523,0.002678,0.000431,0.004701
11926000,0.0324,0.013523,0.002678,0.000431,0.012223
11927000,0.0324,0.013523,0.002678,0.000431,0.027267
11928000,0.0324,0.013523,0.002678,0.000431,0.012223
11929000,0.0324,0.013523,0.002678,0.000431,0.004584
11930000,0.0324,0.013523,0.002678,0.000431,0.004584
11931000,0.0324,0.013523,0.002678,0.000431,0.004701
11932000,0.0324,0.013523,0.002678,0.000431,0.027267
11933000,0.0324,0.013523,0.002678,0.000431,0.008462
11934000,0.0324,0.013523,0.002678,0.000431,0.023506
11935000,0.0324,0.013523,0.002678,0.000431,0.004701
11936000,0.0324,0.013523,0.002678,0.000431,0.005759
11937000,0.0324,0.013523,0.002678,0.000431,0.064288
11938000,0.0324,0.013523,0.002678,0.000431,0.004584
11939000,0.0324,0.013523,0.002678,0.000431,0.004584
11940000,0.0324,0.013523,0.002678,0.000431,0.048539
11941000,0.0324,0.013523,0.002678,0.000431,0.028559
11942000,0.0324,0.013523,0.002678,0.000431,0.004701
11943000,0.0324,0.013523,0.002678,0.000431,0.004701
11944000,0.0324,0.013523,0.002678,0.000431,0.004701
11945000,0.0324,0.013523,0.002678,0.000431,0.004701
11946000,0.0324,0.013523,0.002678,0.000431,0.033260
11947000,0.0324,0.013523,0.002678,0.000431,0.073925
11948000,0.0324,0.013523,0.002678,0.000431,0.004701
11949000,0.0324,0.013523,0.002678,0.000431,0.004466
11950000,0.0324,0.013523,0.002678,0.000431,0.012223
11951000,0.0324,0.013523,0.002678,0.000431,0.022213
11952000,0.0324,0.013523,0.002678,0.000431,0.032085
11953000,0.0324,0.013523,0.002678,0.000431,0.074395
11954000,0.0324,0.013523,0.002678,0.000431,0.017747
11955000,0.0324,0.013523,0.002678,0.000431,0.004701
11956000,0.0324,0.013523,0.002678,0.000431,0.004701
11957000,0.0324,0.013523,0.002678,0.000431,0.004701
11958000,0.0324,0.013523,0.002678,0.000431,0.057354
11959000,0.0324,0.013523,0.002678,0.000431,0.004936
11960000,0.0324,0.013523,0.002678,0.000431,0.004701
11961000,0.0324,0.013523,0.002678,0.000431,0.004701
11962000,0.0324,0.013523,0.002678,0.000431,0.021860
11963000,0.0324,0.013523,0.002678,0.000431,0.010107
11964000,0.0324,0.013523,0.002678,0.000431,0.038079
11965000,0.0324,0.013523,0.002678,0.000431,0.018687
11966000,0.0324,0.013523,0.002678,0.000431,0.070047
11967000,0.0324,0.013523,0.002678,0.000431,0.005289
11968000,0.0324,0.013523,0.002678,0.000431,0.004701
11969000,0.0324,0.013523,0.002678,0.000431,0.064993
11970000,0.0324,0.013523,0.002678,0.000431,0.004584
11971000,0.0324,0.013523,0.002678,0.000431,0.004701
11972000,0.0324,0.013523,0.002678,0.000431,0.004701
11973000,0.0324,0.013523,0.002678,0.000431,0.012223
11974000,0.0324,0.013523,0.002678,0.000431,0.004701
11975000,0.0324,0.013523,0.002678,0.000431,0.021625
11976000,0.0324,0.013523,0.002678,0.000431,0.017864
11977000,0.0324,0.013523,0.002678,0.000431,0.004701
11978000,0.0324,0.013523,0.002678,0.000431,0.004584
11979000,0.0324,0.013523,0.002678,0.000431,0.034671
11980000,0.0324,0.013523,0.002678,0.000431,0.004701
11981000,0.0324,0.013523,0.002678,0.000431,0.004701
11982000,0.0324,0.013523,0.002678,0.000431,0.004701
11983000,0.0324,0.013523,0.002678,0.000431,0.007992
11984000,0.0324,0.013523,0.002678,0.000431,0.008932
11985000,0.0324,0.013523,0.002678,0.000431,0.027267
11986000,0.0324,0.013523,0.002678,0.000431,0.004701
11987000,0.0324,0.013523,0.002678,0.000431,0.004701
11988000,0.0324,0.013523,0.002678,0.000431,0.004701
11989000,0.0324,0.013523,0.002678,0.000431,0.004584
11990000,0.0324,0.013523,0.002678,0.000431,0.004584
11991000,0.0324,0.013523,0.002678,0.000431,0.019157
11992000,0.0324,0.013523,0.002678,0.000431,0.020097
11993000,0.0324,0.013523,0.002678,0.000431,0.004701
11994000,0.0324,0.013523,0.002678,0.000431,0.014809
11995000,0.0324,0.013523,0.002678,0.000431,0.039725
11996000,0.0324,0.013523,0.002678,0.000431,0.019745
11997000,0.0324,0.013523,0.002678,0.000431,0.019745
11998000,0.0324,0.013523,0.002678,0.000431,0.023506
11999000,0.0324,0.013523,0.002678,0.000431,0.008462
