Cycle,Area(mm^2),PeakDynamic(W),SubthresholdLeakage(W),GateLeakage(W),RunTimeDynamic(W)
25000000,0.0324,0.013523,0.002678,0.000431,0.064993
25001000,0.0324,0.013523,0.002678,0.000431,0.005759
25002000,0.0324,0.013523,0.002678,0.000431,0.013281
25003000,0.0324,0.013523,0.002678,0.000431,0.005759
25004000,0.0324,0.013523,0.002678,0.000431,0.043485
25005000,0.0324,0.013523,0.002678,0.000431,0.005876
25006000,0.0324,0.013523,0.002678,0.000431,0.037139
25007000,0.0324,0.013523,0.002678,0.000431,0.013633
25008000,0.0324,0.013523,0.002678,0.000431,0.005876
25009000,0.0324,0.013523,0.002678,0.000431,0.005876
25010000,0.0324,0.013523,0.002678,0.000431,0.053005
25011000,0.0324,0.013523,0.002678,0.000431,0.048774
25012000,0.0324,0.013523,0.002678,0.000431,0.032790
25013000,0.0324,0.013523,0.002678,0.000431,0.039137
25014000,0.0324,0.013523,0.002678,0.000431,0.028442
25015000,0.0324,0.013523,0.002678,0.000431,0.005876
25016000,0.0324,0.013523,0.002678,0.000431,0.005876
25017000,0.0324,0.013523,0.002678,0.000431,0.043485
25018000,0.0324,0.013523,0.002678,0.000431,0.005876
25019000,0.0324,0.013523,0.002678,0.000431,0.043485
25020000,0.0324,0.013523,0.002678,0.000431,0.005876
25021000,0.0324,0.013523,0.002678,0.000431,0.056061
25022000,0.0324,0.013523,0.002678,0.000431,0.015866
25023000,0.0324,0.013523,0.002678,0.000431,0.030322
25024000,0.0324,0.013523,0.002678,0.000431,0.026326
25025000,0.0324,0.013523,0.002678,0.000431,0.020920
25026000,0.0324,0.013523,0.002678,0.000431,0.005641
25027000,0.0324,0.013523,0.002678,0.000431,0.013633
25028000,0.0324,0.013523,0.002678,0.000431,0.005876
25029000,0.0324,0.013523,0.002678,0.000431,0.005876
25030000,0.0324,0.013523,0.002678,0.000431,0.020920
25031000,0.0324,0.013523,0.002678,0.000431,0.005876
25032000,0.0324,0.013523,0.002678,0.000431,0.013633
25033000,0.0324,0.013523,0.002678,0.000431,0.005876
25034000,0.0324,0.013523,0.002678,0.000431,0.058529
25035000,0.0324,0.013523,0.002678,0.000431,0.022095
25036000,0.0324,0.013523,0.002678,0.000431,0.005876
25037000,0.0324,0.013523,0.002678,0.000431,0.005876
25038000,0.0324,0.013523,0.002678,0.000431,0.005876
25039000,0.0324,0.013523,0.002678,0.000431,0.020802
25040000,0.0324,0.013523,0.002678,0.000431,0.005641
25041000,0.0324,0.013523,0.002678,0.000431,0.035846
25042000,0.0324,0.013523,0.002678,0.000431,0.005759
25043000,0.0324,0.013523,0.002678,0.000431,0.028559
25044000,0.0324,0.013523,0.002678,0.000431,0.005876
25045000,0.0324,0.013523,0.002678,0.000431,0.005876
25046000,0.0324,0.013523,0.002678,0.000431,0.027267
25047000,0.0324,0.013523,0.002678,0.000431,0.005876
25048000,0.0324,0.013523,0.002678,0.000431,0.028442
25049000,0.0324,0.013523,0.002678,0.000431,0.005876
25050000,0.0324,0.013523,0.002678,0.000431,0.005876
25051000,0.0324,0.013523,0.002678,0.000431,0.005876
25052000,0.0324,0.013523,0.002678,0.000431,0.005876
25053000,0.0324,0.013523,0.002678,0.000431,0.020920
25054000,0.0324,0.013523,0.002678,0.000431,0.024093
25055000,0.0324,0.013523,0.002678,0.000431,0.009050
25056000,0.0324,0.013523,0.002678,0.000431,0.005876
25057000,0.0324,0.013523,0.002678,0.000431,0.005876
25058000,0.0324,0.013523,0.002678,0.000431,0.005876
25059000,0.0324,0.013523,0.002678,0.000431,0.005876
25060000,0.0324,0.013523,0.002678,0.000431,0.020920
25061000,0.0324,0.013523,0.002678,0.000431,0.005876
25062000,0.0324,0.013523,0.002678,0.000431,0.005876
25063000,0.0324,0.013523,0.002678,0.000431,0.005876
25064000,0.0324,0.013523,0.002678,0.000431,0.005641
25065000,0.0324,0.013523,0.002678,0.000431,0.005876
25066000,0.0324,0.013523,0.002678,0.000431,0.005641
25067000,0.0324,0.013523,0.002678,0.000431,0.020685
25068000,0.0324,0.013523,0.002678,0.000431,0.013633
25069000,0.0324,0.013523,0.002678,0.000431,0.005876
25070000,0.0324,0.013523,0.002678,0.000431,0.005876
25071000,0.0324,0.013523,0.002678,0.000431,0.005876
25072000,0.0324,0.013523,0.002678,0.000431,0.022095
25073000,0.0324,0.013523,0.002678,0.000431,0.042310
25074000,0.0324,0.013523,0.002678,0.000431,0.005876
25075000,0.0324,0.013523,0.002678,0.000431,0.017159
25076000,0.0324,0.013523,0.002678,0.000431,0.017159
25077000,0.0324,0.013523,0.002678,0.000431,0.005876
25078000,0.0324,0.013523,0.002678,0.000431,0.023153
25079000,0.0324,0.013523,0.002678,0.000431,0.139036
25080000,0.0324,0.013523,0.002678,0.000431,0.020567
25081000,0.0324,0.013523,0.002678,0.000431,0.013281
25082000,0.0324,0.013523,0.002678,0.000431,0.066286
25083000,0.0324,0.013523,0.002678,0.000431,0.005641
25084000,0.0324,0.013523,0.002678,0.000431,0.005876
25085000,0.0324,0.013523,0.002678,0.000431,0.086736
25086000,0.0324,0.013523,0.002678,0.000431,0.022565
25087000,0.0324,0.013523,0.002678,0.000431,0.035964
25088000,0.0324,0.013523,0.002678,0.000431,0.032203
25089000,0.0324,0.013523,0.002678,0.000431,0.009637
25090000,0.0324,0.013523,0.002678,0.000431,0.005876
25091000,0.0324,0.013523,0.002678,0.000431,0.005876
25092000,0.0324,0.013523,0.002678,0.000431,0.005876
25093000,0.0324,0.013523,0.002678,0.000431,0.013398
25094000,0.0324,0.013523,0.002678,0.000431,0.013398
25095000,0.0324,0.013523,0.002678,0.000431,0.020920
25096000,0.0324,0.013523,0.002678,0.000431,0.005876
25097000,0.0324,0.013523,0.002678,0.000431,0.005876
25098000,0.0324,0.013523,0.002678,0.000431,0.005876
25099000,0.0324,0.013523,0.002678,0.000431,0.013398
25100000,0.0324,0.013523,0.002678,0.000431,0.017159
25101000,0.0324,0.013523,0.002678,0.000431,0.031850
25102000,0.0324,0.013523,0.002678,0.000431,0.051360
25103000,0.0324,0.013523,0.002678,0.000431,0.005876
25104000,0.0324,0.013523,0.002678,0.000431,0.005641
25105000,0.0324,0.013523,0.002678,0.000431,0.028442
25106000,0.0324,0.013523,0.002678,0.000431,0.028442
25107000,0.0324,0.013523,0.002678,0.000431,0.028442
25108000,0.0324,0.013523,0.002678,0.000431,0.006111
25109000,0.0324,0.013523,0.002678,0.000431,0.005876
25110000,0.0324,0.013523,0.002678,0.000431,0.005876
25111000,0.0324,0.013523,0.002678,0.000431,0.013398
25112000,0.0324,0.013523,0.002678,0.000431,0.011870
25113000,0.0324,0.013523,0.002678,0.000431,0.048187
25114000,0.0324,0.013523,0.002678,0.000431,0.050420
25115000,0.0324,0.013523,0.002678,0.000431,0.009637
25116000,0.0324,0.013523,0.002678,0.000431,0.005876
25117000,0.0324,0.013523,0.002678,0.000431,0.005876
25118000,0.0324,0.013523,0.002678,0.000431,0.043720
25119000,0.0324,0.013523,0.002678,0.000431,0.020920
25120000,0.0324,0.013523,0.002678,0.000431,0.005641
25121000,0.0324,0.013523,0.002678,0.000431,0.013633
25122000,0.0324,0.013523,0.002678,0.000431,0.005641
25123000,0.0324,0.013523,0.002678,0.000431,0.005641
25124000,0.0324,0.013523,0.002678,0.000431,0.005876
25125000,0.0324,0.013523,0.002678,0.000431,0.051007
25126000,0.0324,0.013523,0.002678,0.000431,0.055591
25127000,0.0324,0.013523,0.002678,0.000431,0.016101
25128000,0.0324,0.013523,0.002678,0.000431,0.005876
25129000,0.0324,0.013523,0.002678,0.000431,0.005876
25130000,0.0324,0.013523,0.002678,0.000431,0.009637
25131000,0.0324,0.013523,0.002678,0.000431,0.009637
25132000,0.0324,0.013523,0.002678,0.000431,0.005876
25133000,0.0324,0.013523,0.002678,0.000431,0.043485
25134000,0.0324,0.013523,0.002678,0.000431,0.020920
25135000,0.0324,0.013523,0.002678,0.000431,0.005876
25136000,0.0324,0.013523,0.002678,0.000431,0.005876
25137000,0.0324,0.013523,0.002678,0.000431,0.020920
25138000,0.0324,0.013523,0.002678,0.000431,0.005876
25139000,0.0324,0.013523,0.002678,0.000431,0.020920
25140000,0.0324,0.013523,0.002678,0.000431,0.015279
25141000,0.0324,0.013523,0.002678,0.000431,0.011518
25142000,0.0324,0.013523,0.002678,0.000431,0.005876
25143000,0.0324,0.013523,0.002678,0.000431,0.005759
25144000,0.0324,0.013523,0.002678,0.000431,0.051125
25145000,0.0324,0.013523,0.002678,0.000431,0.015866
25146000,0.0324,0.013523,0.002678,0.000431,0.056061
25147000,0.0324,0.013523,0.002678,0.000431,0.028207
25148000,0.0324,0.013523,0.002678,0.000431,0.005876
25149000,0.0324,0.013523,0.002678,0.000431,0.005876
25150000,0.0324,0.013523,0.002678,0.000431,0.032085
25151000,0.0324,0.013523,0.002678,0.000431,0.009520
25152000,0.0324,0.013523,0.002678,0.000431,0.171121
25153000,0.0324,0.013523,0.002678,0.000431,0.032203
25154000,0.0324,0.013523,0.002678,0.000431,0.017159
25155000,0.0324,0.013523,0.002678,0.000431,0.005876
25156000,0.0324,0.013523,0.002678,0.000431,0.005876
25157000,0.0324,0.013523,0.002678,0.000431,0.142092
25158000,0.0324,0.013523,0.002678,0.000431,0.084150
25159000,0.0324,0.013523,0.002678,0.000431,0.067579
25160000,0.0324,0.013523,0.002678,0.000431,0.005876
25161000,0.0324,0.013523,0.002678,0.000431,0.005876
25162000,0.0324,0.013523,0.002678,0.000431,0.005641
25163000,0.0324,0.013523,0.002678,0.000431,0.005876
25164000,0.0324,0.013523,0.002678,0.000431,0.107656
25165000,0.0324,0.013523,0.002678,0.000431,0.047129
25166000,0.0324,0.013523,0.002678,0.000431,0.013281
25167000,0.0324,0.013523,0.002678,0.000431,0.005876
25168000,0.0324,0.013523,0.002678,0.000431,0.005876
25169000,0.0324,0.013523,0.002678,0.000431,0.005876
25170000,0.0324,0.013523,0.002678,0.000431,0.005876
25171000,0.0324,0.013523,0.002678,0.000431,0.054768
25172000,0.0324,0.013523,0.002678,0.000431,0.047246
25173000,0.0324,0.013523,0.002678,0.000431,0.051007
25174000,0.0324,0.013523,0.002678,0.000431,0.005876
25175000,0.0324,0.013523,0.002678,0.000431,0.005876
25176000,0.0324,0.013523,0.002678,0.000431,0.005876
25177000,0.0324,0.013523,0.002678,0.000431,0.051947
25178000,0.0324,0.013523,0.002678,0.000431,0.020920
25179000,0.0324,0.013523,0.002678,0.000431,0.028442
25180000,0.0324,0.013523,0.002678,0.000431,0.028442
25181000,0.0324,0.013523,0.002678,0.000431,0.005876
25182000,0.0324,0.013523,0.002678,0.000431,0.005876
25183000,0.0324,0.013523,0.002678,0.000431,0.012693
25184000,0.0324,0.013523,0.002678,0.000431,0.028912
25185000,0.0324,0.013523,0.002678,0.000431,0.009637
25186000,0.0324,0.013523,0.002678,0.000431,0.024563
25187000,0.0324,0.013523,0.002678,0.000431,0.005759
25188000,0.0324,0.013523,0.002678,0.000431,0.005759
25189000,0.0324,0.013523,0.002678,0.000431,0.005759
25190000,0.0324,0.013523,0.002678,0.000431,0.043485
25191000,0.0324,0.013523,0.002678,0.000431,0.013398
25192000,0.0324,0.013523,0.002678,0.000431,0.014338
25193000,0.0324,0.013523,0.002678,0.000431,0.005876
25194000,0.0324,0.013523,0.002678,0.000431,0.005876
25195000,0.0324,0.013523,0.002678,0.000431,0.005876
25196000,0.0324,0.013523,0.002678,0.000431,0.013398
25197000,0.0324,0.013523,0.002678,0.000431,0.054768
25198000,0.0324,0.013523,0.002678,0.000431,0.061467
25199000,0.0324,0.013523,0.002678,0.000431,0.059117
25200000,0.0324,0.013523,0.002678,0.000431,0.005876
25201000,0.0324,0.013523,0.002678,0.000431,0.005876
25202000,0.0324,0.013523,0.002678,0.000431,0.005641
25203000,0.0324,0.013523,0.002678,0.000431,0.017159
25204000,0.0324,0.013523,0.002678,0.000431,0.077334
25205000,0.0324,0.013523,0.002678,0.000431,0.009520
25206000,0.0324,0.013523,0.002678,0.000431,0.032085
25207000,0.0324,0.013523,0.002678,0.000431,0.005876
25208000,0.0324,0.013523,0.002678,0.000431,0.005876
25209000,0.0324,0.013523,0.002678,0.000431,0.005876
25210000,0.0324,0.013523,0.002678,0.000431,0.084855
25211000,0.0324,0.013523,0.002678,0.000431,0.114943
25212000,0.0324,0.013523,0.002678,0.000431,0.028442
25213000,0.0324,0.013523,0.002678,0.000431,0.005876
25214000,0.0324,0.013523,0.002678,0.000431,0.005876
25215000,0.0324,0.013523,0.002678,0.000431,0.005876
25216000,0.0324,0.013523,0.002678,0.000431,0.005876
25217000,0.0324,0.013523,0.002678,0.000431,0.066051
25218000,0.0324,0.013523,0.002678,0.000431,0.035964
25219000,0.0324,0.013523,0.002678,0.000431,0.042780
25220000,0.0324,0.013523,0.002678,0.000431,0.051712
25221000,0.0324,0.013523,0.002678,0.000431,0.005876
25222000,0.0324,0.013523,0.002678,0.000431,0.005876
25223000,0.0324,0.013523,0.002678,0.000431,0.019157
25224000,0.0324,0.013523,0.002678,0.000431,0.015161
25225000,0.0324,0.013523,0.002678,0.000431,0.005876
25226000,0.0324,0.013523,0.002678,0.000431,0.020920
25227000,0.0324,0.013523,0.002678,0.000431,0.065816
25228000,0.0324,0.013523,0.002678,0.000431,0.005759
25229000,0.0324,0.013523,0.002678,0.000431,0.024563
25230000,0.0324,0.013523,0.002678,0.000431,0.027737
25231000,0.0324,0.013523,0.002678,0.000431,0.010107
25232000,0.0324,0.013523,0.002678,0.000431,0.005876
25233000,0.0324,0.013523,0.002678,0.000431,0.005876
25234000,0.0324,0.013523,0.002678,0.000431,0.020920
25235000,0.0324,0.013523,0.002678,0.000431,0.005876
25236000,0.0324,0.013523,0.002678,0.000431,0.111182
25237000,0.0324,0.013523,0.002678,0.000431,0.051007
25238000,0.0324,0.013523,0.002678,0.000431,0.005876
25239000,0.0324,0.013523,0.002678,0.000431,0.017159
25240000,0.0324,0.013523,0.002678,0.000431,0.017159
25241000,0.0324,0.013523,0.002678,0.000431,0.005876
25242000,0.0324,0.013523,0.002678,0.000431,0.040782
25243000,0.0324,0.013523,0.002678,0.000431,0.015866
25244000,0.0324,0.013523,0.002678,0.000431,0.028442
25245000,0.0324,0.013523,0.002678,0.000431,0.005759
25246000,0.0324,0.013523,0.002678,0.000431,0.005759
25247000,0.0324,0.013523,0.002678,0.000431,0.005876
25248000,0.0324,0.013523,0.002678,0.000431,0.005876
25249000,0.0324,0.013523,0.002678,0.000431,0.118703
25250000,0.0324,0.013523,0.002678,0.000431,0.013398
25251000,0.0324,0.013523,0.002678,0.000431,0.028442
25252000,0.0324,0.013523,0.002678,0.000431,0.005876
25253000,0.0324,0.013523,0.002678,0.000431,0.005876
25254000,0.0324,0.013523,0.002678,0.000431,0.005876
25255000,0.0324,0.013523,0.002678,0.000431,0.028442
25256000,0.0324,0.013523,0.002678,0.000431,0.017864
25257000,0.0324,0.013523,0.002678,0.000431,0.039489
25258000,0.0324,0.013523,0.002678,0.000431,0.020685
25259000,0.0324,0.013523,0.002678,0.000431,0.005876
25260000,0.0324,0.013523,0.002678,0.000431,0.005876
25261000,0.0324,0.013523,0.002678,0.000431,0.035964
25262000,0.0324,0.013523,0.002678,0.000431,0.005876
25263000,0.0324,0.013523,0.002678,0.000431,0.020920
25264000,0.0324,0.013523,0.002678,0.000431,0.020802
25265000,0.0324,0.013523,0.002678,0.000431,0.005759
25266000,0.0324,0.013523,0.002678,0.000431,0.005876
25267000,0.0324,0.013523,0.002678,0.000431,0.035729
25268000,0.0324,0.013523,0.002678,0.000431,0.013281
25269000,0.0324,0.013523,0.002678,0.000431,0.005759
25270000,0.0324,0.013523,0.002678,0.000431,0.039137
25271000,0.0324,0.013523,0.002678,0.000431,0.032790
25272000,0.0324,0.013523,0.002678,0.000431,0.005876
25273000,0.0324,0.013523,0.002678,0.000431,0.005876
25274000,0.0324,0.013523,0.002678,0.000431,0.051007
25275000,0.0324,0.013523,0.002678,0.000431,0.017159
25276000,0.0324,0.013523,0.002678,0.000431,0.039725
25277000,0.0324,0.013523,0.002678,0.000431,0.020920
25278000,0.0324,0.013523,0.002678,0.000431,0.005876
25279000,0.0324,0.013523,0.002678,0.000431,0.005876
25280000,0.0324,0.013523,0.002678,0.000431,0.013398
25281000,0.0324,0.013523,0.002678,0.000431,0.013398
25282000,0.0324,0.013523,0.002678,0.000431,0.013281
25283000,0.0324,0.013523,0.002678,0.000431,0.017747
25284000,0.0324,0.013523,0.002678,0.000431,0.054063
25285000,0.0324,0.013523,0.002678,0.000431,0.005759
25286000,0.0324,0.013523,0.002678,0.000431,0.005759
25287000,0.0324,0.013523,0.002678,0.000431,0.005876
25288000,0.0324,0.013523,0.002678,0.000431,0.013398
25289000,0.0324,0.013523,0.002678,0.000431,0.005876
25290000,0.0324,0.013523,0.002678,0.000431,0.028324
25291000,0.0324,0.013523,0.002678,0.000431,0.036081
25292000,0.0324,0.013523,0.002678,0.000431,0.035964
25293000,0.0324,0.013523,0.002678,0.000431,0.028442
25294000,0.0324,0.013523,0.002678,0.000431,0.005876
25295000,0.0324,0.013523,0.002678,0.000431,0.005876
25296000,0.0324,0.013523,0.002678,0.000431,0.005876
25297000,0.0324,0.013523,0.002678,0.000431,0.035964
25298000,0.0324,0.013523,0.002678,0.000431,0.005876
25299000,0.0324,0.013523,0.002678,0.000431,0.018452
25300000,0.0324,0.013523,0.002678,0.000431,0.008345
25301000,0.0324,0.013523,0.002678,0.000431,0.005876
25302000,0.0324,0.013523,0.002678,0.000431,0.005876
25303000,0.0324,0.013523,0.002678,0.000431,0.017042
25304000,0.0324,0.013523,0.002678,0.000431,0.024681
25305000,0.0324,0.013523,0.002678,0.000431,0.005759
25306000,0.0324,0.013523,0.002678,0.000431,0.020920
25307000,0.0324,0.013523,0.002678,0.000431,0.005641
25308000,0.0324,0.013523,0.002678,0.000431,0.017042
25309000,0.0324,0.013523,0.002678,0.000431,0.054651
25310000,0.0324,0.013523,0.002678,0.000431,0.051007
25311000,0.0324,0.013523,0.002678,0.000431,0.005876
25312000,0.0324,0.013523,0.002678,0.000431,0.028442
25313000,0.0324,0.013523,0.002678,0.000431,0.005876
25314000,0.0324,0.013523,0.002678,0.000431,0.005876
25315000,0.0324,0.013523,0.002678,0.000431,0.092612
25316000,0.0324,0.013523,0.002678,0.000431,0.031968
25317000,0.0324,0.013523,0.002678,0.000431,0.073573
25318000,0.0324,0.013523,0.002678,0.000431,0.009872
25319000,0.0324,0.013523,0.002678,0.000431,0.219543
25320000,0.0324,0.013523,0.002678,0.000431,0.005876
25321000,0.0324,0.013523,0.002678,0.000431,0.005876
25322000,0.0324,0.013523,0.002678,0.000431,0.035964
25323000,0.0324,0.013523,0.002678,0.000431,0.028207
25324000,0.0324,0.013523,0.002678,0.000431,0.005876
25325000,0.0324,0.013523,0.002678,0.000431,0.056884
25326000,0.0324,0.013523,0.002678,0.000431,0.030087
25327000,0.0324,0.013523,0.002678,0.000431,0.005876
25328000,0.0324,0.013523,0.002678,0.000431,0.005641
25329000,0.0324,0.013523,0.002678,0.000431,0.005876
25330000,0.0324,0.013523,0.002678,0.000431,0.028442
25331000,0.0324,0.013523,0.002678,0.000431,0.005876
25332000,0.0324,0.013523,0.002678,0.000431,0.005876
25333000,0.0324,0.013523,0.002678,0.000431,0.005876
25334000,0.0324,0.013523,0.002678,0.000431,0.005876
25335000,0.0324,0.013523,0.002678,0.000431,0.005876
25336000,0.0324,0.013523,0.002678,0.000431,0.010342
25337000,0.0324,0.013523,0.002678,0.000431,0.053828
25338000,0.0324,0.013523,0.002678,0.000431,0.005876
25339000,0.0324,0.013523,0.002678,0.000431,0.073573
25340000,0.0324,0.013523,0.002678,0.000431,0.005876
25341000,0.0324,0.013523,0.002678,0.000431,0.005876
25342000,0.0324,0.013523,0.002678,0.000431,0.005876
25343000,0.0324,0.013523,0.002678,0.000431,0.085090
25344000,0.0324,0.013523,0.002678,0.000431,0.039489
25345000,0.0324,0.013523,0.002678,0.000431,0.019862
25346000,0.0324,0.013523,0.002678,0.000431,0.014221
25347000,0.0324,0.013523,0.002678,0.000431,0.005876
25348000,0.0324,0.013523,0.002678,0.000431,0.051007
25349000,0.0324,0.013523,0.002678,0.000431,0.013398
25350000,0.0324,0.013523,0.002678,0.000431,0.179818
25351000,0.0324,0.013523,0.002678,0.000431,0.026561
25352000,0.0324,0.013523,0.002678,0.000431,0.058529
25353000,0.0324,0.013523,0.002678,0.000431,0.005876
25354000,0.0324,0.013523,0.002678,0.000431,0.005876
25355000,0.0324,0.013523,0.002678,0.000431,0.005876
25356000,0.0324,0.013523,0.002678,0.000431,0.005876
25357000,0.0324,0.013523,0.002678,0.000431,0.005876
25358000,0.0324,0.013523,0.002678,0.000431,0.051007
25359000,0.0324,0.013523,0.002678,0.000431,0.005876
25360000,0.0324,0.013523,0.002678,0.000431,0.005876
25361000,0.0324,0.013523,0.002678,0.000431,0.089674
25362000,0.0324,0.013523,0.002678,0.000431,0.019862
25363000,0.0324,0.013523,0.002678,0.000431,0.031498
25364000,0.0324,0.013523,0.002678,0.000431,0.198153
25365000,0.0324,0.013523,0.002678,0.000431,0.175352
25366000,0.0324,0.013523,0.002678,0.000431,0.031027
25367000,0.0324,0.013523,0.002678,0.000431,0.005876
25368000,0.0324,0.013523,0.002678,0.000431,0.010225
25369000,0.0324,0.013523,0.002678,0.000431,0.054298
25370000,0.0324,0.013523,0.002678,0.000431,0.028559
25371000,0.0324,0.013523,0.002678,0.000431,0.013398
25372000,0.0324,0.013523,0.002678,0.000431,0.005876
25373000,0.0324,0.013523,0.002678,0.000431,0.005876
25374000,0.0324,0.013523,0.002678,0.000431,0.005876
25375000,0.0324,0.013523,0.002678,0.000431,0.043485
25376000,0.0324,0.013523,0.002678,0.000431,0.013163
25377000,0.0324,0.013523,0.002678,0.000431,0.032673
25378000,0.0324,0.013523,0.002678,0.000431,0.196742
25379000,0.0324,0.013523,0.002678,0.000431,0.005876
25380000,0.0324,0.013523,0.002678,0.000431,0.005876
25381000,0.0324,0.013523,0.002678,0.000431,0.005759
25382000,0.0324,0.013523,0.002678,0.000431,0.028559
25383000,0.0324,0.013523,0.002678,0.000431,0.013516
25384000,0.0324,0.013523,0.002678,0.000431,0.103542
25385000,0.0324,0.013523,0.002678,0.000431,0.163717
25386000,0.0324,0.013523,0.002678,0.000431,0.005759
25387000,0.0324,0.013523,0.002678,0.000431,0.005876
25388000,0.0324,0.013523,0.002678,0.000431,0.013633
25389000,0.0324,0.013523,0.002678,0.000431,0.005876
25390000,0.0324,0.013523,0.002678,0.000431,0.073573
25391000,0.0324,0.013523,0.002678,0.000431,0.005876
25392000,0.0324,0.013523,0.002678,0.000431,0.005876
25393000,0.0324,0.013523,0.002678,0.000431,0.005876
25394000,0.0324,0.013523,0.002678,0.000431,0.005876
25395000,0.0324,0.013523,0.002678,0.000431,0.013398
25396000,0.0324,0.013523,0.002678,0.000431,0.005876
25397000,0.0324,0.013523,0.002678,0.000431,0.046189
25398000,0.0324,0.013523,0.002678,0.000431,0.100957
25399000,0.0324,0.013523,0.002678,0.000431,0.020920
25400000,0.0324,0.013523,0.002678,0.000431,0.005876
25401000,0.0324,0.013523,0.002678,0.000431,0.014221
25402000,0.0324,0.013523,0.002678,0.000431,0.155255
25403000,0.0324,0.013523,0.002678,0.000431,0.005876
25404000,0.0324,0.013523,0.002678,0.000431,0.005876
25405000,0.0324,0.013523,0.002678,0.000431,0.073573
25406000,0.0324,0.013523,0.002678,0.000431,0.035964
25407000,0.0324,0.013523,0.002678,0.000431,0.005876
25408000,0.0324,0.013523,0.002678,0.000431,0.008815
25409000,0.0324,0.013523,0.002678,0.000431,0.050185
25410000,0.0324,0.013523,0.002678,0.000431,0.066874
25411000,0.0324,0.013523,0.002678,0.000431,0.142092
25412000,0.0324,0.013523,0.002678,0.000431,0.032203
25413000,0.0324,0.013523,0.002678,0.000431,0.005876
25414000,0.0324,0.013523,0.002678,0.000431,0.005524
25415000,0.0324,0.013523,0.002678,0.000431,0.021038
25416000,0.0324,0.013523,0.002678,0.000431,0.013398
25417000,0.0324,0.013523,0.002678,0.000431,0.028442
25418000,0.0324,0.013523,0.002678,0.000431,0.013163
25419000,0.0324,0.013523,0.002678,0.000431,0.148556
25420000,0.0324,0.013523,0.002678,0.000431,0.005876
25421000,0.0324,0.013523,0.002678,0.000431,0.005876
25422000,0.0324,0.013523,0.002678,0.000431,0.013398
25423000,0.0324,0.013523,0.002678,0.000431,0.028442
25424000,0.0324,0.013523,0.002678,0.000431,0.043720
25425000,0.0324,0.013523,0.002678,0.000431,0.005876
25426000,0.0324,0.013523,0.002678,0.000431,0.028442
25427000,0.0324,0.013523,0.002678,0.000431,0.005876
25428000,0.0324,0.013523,0.002678,0.000431,0.009637
25429000,0.0324,0.013523,0.002678,0.000431,0.061585
25430000,0.0324,0.013523,0.002678,0.000431,0.058999
25431000,0.0324,0.013523,0.002678,0.000431,0.005876
25432000,0.0324,0.013523,0.002678,0.000431,0.024681
25433000,0.0324,0.013523,0.002678,0.000431,0.009637
25434000,0.0324,0.013523,0.002678,0.000431,0.009402
25435000,0.0324,0.013523,0.002678,0.000431,0.059704
25436000,0.0324,0.013523,0.002678,0.000431,0.045836
25437000,0.0324,0.013523,0.002678,0.000431,0.028442
25438000,0.0324,0.013523,0.002678,0.000431,0.005876
25439000,0.0324,0.013523,0.002678,0.000431,0.025621
25440000,0.0324,0.013523,0.002678,0.000431,0.008697
25441000,0.0324,0.013523,0.002678,0.000431,0.099899
25442000,0.0324,0.013523,0.002678,0.000431,0.031968
25443000,0.0324,0.013523,0.002678,0.000431,0.005876
25444000,0.0324,0.013523,0.002678,0.000431,0.066051
25445000,0.0324,0.013523,0.002678,0.000431,0.013398
25446000,0.0324,0.013523,0.002678,0.000431,0.005876
25447000,0.0324,0.013523,0.002678,0.000431,0.063583
25448000,0.0324,0.013523,0.002678,0.000431,0.031145
25449000,0.0324,0.013523,0.002678,0.000431,0.007052
25450000,0.0324,0.013523,0.002678,0.000431,0.094963
25451000,0.0324,0.013523,0.002678,0.000431,0.005876
25452000,0.0324,0.013523,0.002678,0.000431,0.005876
25453000,0.0324,0.013523,0.002678,0.000431,0.019040
25454000,0.0324,0.013523,0.002678,0.000431,0.060409
25455000,0.0324,0.013523,0.002678,0.000431,0.005876
25456000,0.0324,0.013523,0.002678,0.000431,0.005876
25457000,0.0324,0.013523,0.002678,0.000431,0.005876
25458000,0.0324,0.013523,0.002678,0.000431,0.009637
25459000,0.0324,0.013523,0.002678,0.000431,0.009637
25460000,0.0324,0.013523,0.002678,0.000431,0.005876
25461000,0.0324,0.013523,0.002678,0.000431,0.005876
25462000,0.0324,0.013523,0.002678,0.000431,0.035964
25463000,0.0324,0.013523,0.002678,0.000431,0.043133
25464000,0.0324,0.013523,0.002678,0.000431,0.005759
25465000,0.0324,0.013523,0.002678,0.000431,0.009637
25466000,0.0324,0.013523,0.002678,0.000431,0.039725
25467000,0.0324,0.013523,0.002678,0.000431,0.021155
25468000,0.0324,0.013523,0.002678,0.000431,0.013398
25469000,0.0324,0.013523,0.002678,0.000431,0.005876
25470000,0.0324,0.013523,0.002678,0.000431,0.013398
25471000,0.0324,0.013523,0.002678,0.000431,0.005876
25472000,0.0324,0.013523,0.002678,0.000431,0.005876
25473000,0.0324,0.013523,0.002678,0.000431,0.013398
25474000,0.0324,0.013523,0.002678,0.000431,0.081094
25475000,0.0324,0.013523,0.002678,0.000431,0.005759
25476000,0.0324,0.013523,0.002678,0.000431,0.050890
25477000,0.0324,0.013523,0.002678,0.000431,0.006111
25478000,0.0324,0.013523,0.002678,0.000431,0.005876
25479000,0.0324,0.013523,0.002678,0.000431,0.005876
25480000,0.0324,0.013523,0.002678,0.000431,0.051007
25481000,0.0324,0.013523,0.002678,0.000431,0.082035
25482000,0.0324,0.013523,0.002678,0.000431,0.035023
25483000,0.0324,0.013523,0.002678,0.000431,0.005876
25484000,0.0324,0.013523,0.002678,0.000431,0.020920
25485000,0.0324,0.013523,0.002678,0.000431,0.005641
25486000,0.0324,0.013523,0.002678,0.000431,0.009637
25487000,0.0324,0.013523,0.002678,0.000431,0.009637
25488000,0.0324,0.013523,0.002678,0.000431,0.007992
25489000,0.0324,0.013523,0.002678,0.000431,0.011283
25490000,0.0324,0.013523,0.002678,0.000431,0.013398
25491000,0.0324,0.013523,0.002678,0.000431,0.005876
25492000,0.0324,0.013523,0.002678,0.000431,0.011753
25493000,0.0324,0.013523,0.002678,0.000431,0.045131
25494000,0.0324,0.013523,0.002678,0.000431,0.145617
25495000,0.0324,0.013523,0.002678,0.000431,0.076746
25496000,0.0324,0.013523,0.002678,0.000431,0.080154
25497000,0.0324,0.013523,0.002678,0.000431,0.014338
25498000,0.0324,0.013523,0.002678,0.000431,0.005876
25499000,0.0324,0.013523,0.002678,0.000431,0.007639
25500000,0.0324,0.013523,0.002678,0.000431,0.102955
25501000,0.0324,0.013523,0.002678,0.000431,0.026914
25502000,0.0324,0.013523,0.002678,0.000431,0.013398
25503000,0.0324,0.013523,0.002678,0.000431,0.058529
25504000,0.0324,0.013523,0.002678,0.000431,0.005876
25505000,0.0324,0.013523,0.002678,0.000431,0.005876
25506000,0.0324,0.013523,0.002678,0.000431,0.005876
25507000,0.0324,0.013523,0.002678,0.000431,0.066051
25508000,0.0324,0.013523,0.002678,0.000431,0.058764
25509000,0.0324,0.013523,0.002678,0.000431,0.005876
25510000,0.0324,0.013523,0.002678,0.000431,0.005876
25511000,0.0324,0.013523,0.002678,0.000431,0.005876
25512000,0.0324,0.013523,0.002678,0.000431,0.016924
25513000,0.0324,0.013523,0.002678,0.000431,0.115295
25514000,0.0324,0.013523,0.002678,0.000431,0.013516
25515000,0.0324,0.013523,0.002678,0.000431,0.028324
25516000,0.0324,0.013523,0.002678,0.000431,0.005641
25517000,0.0324,0.013523,0.002678,0.000431,0.005759
25518000,0.0324,0.013523,0.002678,0.000431,0.005876
25519000,0.0324,0.013523,0.002678,0.000431,0.005641
25520000,0.0324,0.013523,0.002678,0.000431,0.043485
25521000,0.0324,0.013523,0.002678,0.000431,0.013398
25522000,0.0324,0.013523,0.002678,0.000431,0.064993
25523000,0.0324,0.013523,0.002678,0.000431,0.021978
25524000,0.0324,0.013523,0.002678,0.000431,0.005876
25525000,0.0324,0.013523,0.002678,0.000431,0.005876
25526000,0.0324,0.013523,0.002678,0.000431,0.075453
25527000,0.0324,0.013523,0.002678,0.000431,0.019040
25528000,0.0324,0.013523,0.002678,0.000431,0.043720
25529000,0.0324,0.013523,0.002678,0.000431,0.013398
25530000,0.0324,0.013523,0.002678,0.000431,0.005876
25531000,0.0324,0.013523,0.002678,0.000431,0.005876
25532000,0.0324,0.013523,0.002678,0.000431,0.009637
25533000,0.0324,0.013523,0.002678,0.000431,0.047011
25534000,0.0324,0.013523,0.002678,0.000431,0.028442
25535000,0.0324,0.013523,0.002678,0.000431,0.021155
25536000,0.0324,0.013523,0.002678,0.000431,0.043485
25537000,0.0324,0.013523,0.002678,0.000431,0.005876
25538000,0.0324,0.013523,0.002678,0.000431,0.005876
25539000,0.0324,0.013523,0.002678,0.000431,0.066051
25540000,0.0324,0.013523,0.002678,0.000431,0.049362
25541000,0.0324,0.013523,0.002678,0.000431,0.030087
25542000,0.0324,0.013523,0.002678,0.000431,0.013398
25543000,0.0324,0.013523,0.002678,0.000431,0.005876
25544000,0.0324,0.013523,0.002678,0.000431,0.005876
25545000,0.0324,0.013523,0.002678,0.000431,0.047364
25546000,0.0324,0.013523,0.002678,0.000431,0.046894
25547000,0.0324,0.013523,0.002678,0.000431,0.111182
25548000,0.0324,0.013523,0.002678,0.000431,0.028442
25549000,0.0324,0.013523,0.002678,0.000431,0.051007
25550000,0.0324,0.013523,0.002678,0.000431,0.005876
25551000,0.0324,0.013523,0.002678,0.000431,0.005876
25552000,0.0324,0.013523,0.002678,0.000431,0.013398
25553000,0.0324,0.013523,0.002678,0.000431,0.005876
25554000,0.0324,0.013523,0.002678,0.000431,0.020920
25555000,0.0324,0.013523,0.002678,0.000431,0.028324
25556000,0.0324,0.013523,0.002678,0.000431,0.005759
25557000,0.0324,0.013523,0.002678,0.000431,0.005876
25558000,0.0324,0.013523,0.002678,0.000431,0.013398
25559000,0.0324,0.013523,0.002678,0.000431,0.005876
25560000,0.0324,0.013523,0.002678,0.000431,0.054768
25561000,0.0324,0.013523,0.002678,0.000431,0.024681
25562000,0.0324,0.013523,0.002678,0.000431,0.005876
25563000,0.0324,0.013523,0.002678,0.000431,0.005759
25564000,0.0324,0.013523,0.002678,0.000431,0.005759
25565000,0.0324,0.013523,0.002678,0.000431,0.013398
25566000,0.0324,0.013523,0.002678,0.000431,0.078274
25567000,0.0324,0.013523,0.002678,0.000431,0.016219
25568000,0.0324,0.013523,0.002678,0.000431,0.005876
25569000,0.0324,0.013523,0.002678,0.000431,0.005876
25570000,0.0324,0.013523,0.002678,0.000431,0.005876
25571000,0.0324,0.013523,0.002678,0.000431,0.100134
25572000,0.0324,0.013523,0.002678,0.000431,0.031733
25573000,0.0324,0.013523,0.002678,0.000431,0.058294
25574000,0.0324,0.013523,0.002678,0.000431,0.005641
25575000,0.0324,0.013523,0.002678,0.000431,0.005876
25576000,0.0324,0.013523,0.002678,0.000431,0.005876
25577000,0.0324,0.013523,0.002678,0.000431,0.005876
25578000,0.0324,0.013523,0.002678,0.000431,0.103660
25579000,0.0324,0.013523,0.002678,0.000431,0.033966
25580000,0.0324,0.013523,0.002678,0.000431,0.015396
25581000,0.0324,0.013523,0.002678,0.000431,0.020920
25582000,0.0324,0.013523,0.002678,0.000431,0.005876
25583000,0.0324,0.013523,0.002678,0.000431,0.005876
25584000,0.0324,0.013523,0.002678,0.000431,0.062290
25585000,0.0324,0.013523,0.002678,0.000431,0.023741
25586000,0.0324,0.013523,0.002678,0.000431,0.021625
25587000,0.0324,0.013523,0.002678,0.000431,0.017042
25588000,0.0324,0.013523,0.002678,0.000431,0.017042
25589000,0.0324,0.013523,0.002678,0.000431,0.005876
25590000,0.0324,0.013523,0.002678,0.000431,0.005876
25591000,0.0324,0.013523,0.002678,0.000431,0.035964
25592000,0.0324,0.013523,0.002678,0.000431,0.066051
25593000,0.0324,0.013523,0.002678,0.000431,0.020920
25594000,0.0324,0.013523,0.002678,0.000431,0.107421
25595000,0.0324,0.013523,0.002678,0.000431,0.016924
25596000,0.0324,0.013523,0.002678,0.000431,0.005876
25597000,0.0324,0.013523,0.002678,0.000431,0.013398
25598000,0.0324,0.013523,0.002678,0.000431,0.005876
25599000,0.0324,0.013523,0.002678,0.000431,0.024681
25600000,0.0324,0.013523,0.002678,0.000431,0.013398
25601000,0.0324,0.013523,0.002678,0.000431,0.069812
25602000,0.0324,0.013523,0.002678,0.000431,0.005876
25603000,0.0324,0.013523,0.002678,0.000431,0.005876
25604000,0.0324,0.013523,0.002678,0.000431,0.020920
25605000,0.0324,0.013523,0.002678,0.000431,0.013398
25606000,0.0324,0.013523,0.002678,0.000431,0.013398
25607000,0.0324,0.013523,0.002678,0.000431,0.020920
25608000,0.0324,0.013523,0.002678,0.000431,0.005876
25609000,0.0324,0.013523,0.002678,0.000431,0.010578
25610000,0.0324,0.013523,0.002678,0.000431,0.023741
25611000,0.0324,0.013523,0.002678,0.000431,0.005876
25612000,0.0324,0.013523,0.002678,0.000431,0.118233
25613000,0.0324,0.013523,0.002678,0.000431,0.005641
25614000,0.0324,0.013523,0.002678,0.000431,0.013398
25615000,0.0324,0.013523,0.002678,0.000431,0.005876
25616000,0.0324,0.013523,0.002678,0.000431,0.058529
25617000,0.0324,0.013523,0.002678,0.000431,0.005876
25618000,0.0324,0.013523,0.002678,0.000431,0.019392
25619000,0.0324,0.013523,0.002678,0.000431,0.045248
25620000,0.0324,0.013523,0.002678,0.000431,0.005876
25621000,0.0324,0.013523,0.002678,0.000431,0.005876
25622000,0.0324,0.013523,0.002678,0.000431,0.005876
25623000,0.0324,0.013523,0.002678,0.000431,0.020920
25624000,0.0324,0.013523,0.002678,0.000431,0.005876
25625000,0.0324,0.013523,0.002678,0.000431,0.007522
25626000,0.0324,0.013523,0.002678,0.000431,0.030322
25627000,0.0324,0.013523,0.002678,0.000431,0.009637
25628000,0.0324,0.013523,0.002678,0.000431,0.005641
25629000,0.0324,0.013523,0.002678,0.000431,0.013398
25630000,0.0324,0.013523,0.002678,0.000431,0.005876
25631000,0.0324,0.013523,0.002678,0.000431,0.005876
25632000,0.0324,0.013523,0.002678,0.000431,0.020920
25633000,0.0324,0.013523,0.002678,0.000431,0.005876
25634000,0.0324,0.013523,0.002678,0.000431,0.005876
25635000,0.0324,0.013523,0.002678,0.000431,0.028207
25636000,0.0324,0.013523,0.002678,0.000431,0.020920
25637000,0.0324,0.013523,0.002678,0.000431,0.013398
25638000,0.0324,0.013523,0.002678,0.000431,0.017159
25639000,0.0324,0.013523,0.002678,0.000431,0.024446
25640000,0.0324,0.013523,0.002678,0.000431,0.005876
25641000,0.0324,0.013523,0.002678,0.000431,0.005876
25642000,0.0324,0.013523,0.002678,0.000431,0.028442
25643000,0.0324,0.013523,0.002678,0.000431,0.013398
25644000,0.0324,0.013523,0.002678,0.000431,0.005876
25645000,0.0324,0.013523,0.002678,0.000431,0.013398
25646000,0.0324,0.013523,0.002678,0.000431,0.013398
25647000,0.0324,0.013523,0.002678,0.000431,0.005876
25648000,0.0324,0.013523,0.002678,0.000431,0.006111
25649000,0.0324,0.013523,0.002678,0.000431,0.035611
25650000,0.0324,0.013523,0.002678,0.000431,0.013751
25651000,0.0324,0.013523,0.002678,0.000431,0.020920
25652000,0.0324,0.013523,0.002678,0.000431,0.055003
25653000,0.0324,0.013523,0.002678,0.000431,0.009285
25654000,0.0324,0.013523,0.002678,0.000431,0.009520
25655000,0.0324,0.013523,0.002678,0.000431,0.009755
25656000,0.0324,0.013523,0.002678,0.000431,0.005994
25657000,0.0324,0.013523,0.002678,0.000431,0.005876
25658000,0.0324,0.013523,0.002678,0.000431,0.006111
25659000,0.0324,0.013523,0.002678,0.000431,0.024681
25660000,0.0324,0.013523,0.002678,0.000431,0.009637
25661000,0.0324,0.013523,0.002678,0.000431,0.005876
25662000,0.0324,0.013523,0.002678,0.000431,0.095903
25663000,0.0324,0.013523,0.002678,0.000431,0.005876
25664000,0.0324,0.013523,0.002678,0.000431,0.017159
25665000,0.0324,0.013523,0.002678,0.000431,0.017042
25666000,0.0324,0.013523,0.002678,0.000431,0.005759
25667000,0.0324,0.013523,0.002678,0.000431,0.027502
25668000,0.0324,0.013523,0.002678,0.000431,0.036904
25669000,0.0324,0.013523,0.002678,0.000431,0.005876
25670000,0.0324,0.013523,0.002678,0.000431,0.011165
25671000,0.0324,0.013523,0.002678,0.000431,0.023388
25672000,0.0324,0.013523,0.002678,0.000431,0.051007
25673000,0.0324,0.013523,0.002678,0.000431,0.005876
25674000,0.0324,0.013523,0.002678,0.000431,0.013398
25675000,0.0324,0.013523,0.002678,0.000431,0.028324
25676000,0.0324,0.013523,0.002678,0.000431,0.005759
25677000,0.0324,0.013523,0.002678,0.000431,0.074748
25678000,0.0324,0.013523,0.002678,0.000431,0.102602
25679000,0.0324,0.013523,0.002678,0.000431,0.027854
25680000,0.0324,0.013523,0.002678,0.000431,0.005876
25681000,0.0324,0.013523,0.002678,0.000431,0.005876
25682000,0.0324,0.013523,0.002678,0.000431,0.005876
25683000,0.0324,0.013523,0.002678,0.000431,0.005759
25684000,0.0324,0.013523,0.002678,0.000431,0.005994
25685000,0.0324,0.013523,0.002678,0.000431,0.005876
25686000,0.0324,0.013523,0.002678,0.000431,0.005876
25687000,0.0324,0.013523,0.002678,0.000431,0.013281
25688000,0.0324,0.013523,0.002678,0.000431,0.005759
25689000,0.0324,0.013523,0.002678,0.000431,0.005876
25690000,0.0324,0.013523,0.002678,0.000431,0.009637
25691000,0.0324,0.013523,0.002678,0.000431,0.055943
25692000,0.0324,0.013523,0.002678,0.000431,0.027267
25693000,0.0324,0.013523,0.002678,0.000431,0.005759
25694000,0.0324,0.013523,0.002678,0.000431,0.033848
25695000,0.0324,0.013523,0.002678,0.000431,0.007874
25696000,0.0324,0.013523,0.002678,0.000431,0.005876
25697000,0.0324,0.013523,0.002678,0.000431,0.020920
25698000,0.0324,0.013523,0.002678,0.000431,0.096373
25699000,0.0324,0.013523,0.002678,0.000431,0.005876
25700000,0.0324,0.013523,0.002678,0.000431,0.035729
25701000,0.0324,0.013523,0.002678,0.000431,0.028442
25702000,0.0324,0.013523,0.002678,0.000431,0.005876
25703000,0.0324,0.013523,0.002678,0.000431,0.005876
25704000,0.0324,0.013523,0.002678,0.000431,0.005876
25705000,0.0324,0.013523,0.002678,0.000431,0.013398
25706000,0.0324,0.013523,0.002678,0.000431,0.028442
25707000,0.0324,0.013523,0.002678,0.000431,0.013398
25708000,0.0324,0.013523,0.002678,0.000431,0.005876
25709000,0.0324,0.013523,0.002678,0.000431,0.005876
25710000,0.0324,0.013523,0.002678,0.000431,0.005876
25711000,0.0324,0.013523,0.002678,0.000431,0.028442
25712000,0.0324,0.013523,0.002678,0.000431,0.017159
25713000,0.0324,0.013523,0.002678,0.000431,0.022800
25714000,0.0324,0.013523,0.002678,0.000431,0.045366
25715000,0.0324,0.013523,0.002678,0.000431,0.005876
25716000,0.0324,0.013523,0.002678,0.000431,0.005876
25717000,0.0324,0.013523,0.002678,0.000431,0.022565
25718000,0.0324,0.013523,0.002678,0.000431,0.019275
25719000,0.0324,0.013523,0.002678,0.000431,0.020920
25720000,0.0324,0.013523,0.002678,0.000431,0.013398
25721000,0.0324,0.013523,0.002678,0.000431,0.005876
25722000,0.0324,0.013523,0.002678,0.000431,0.005876
25723000,0.0324,0.013523,0.002678,0.000431,0.009520
25724000,0.0324,0.013523,0.002678,0.000431,0.024563
25725000,0.0324,0.013523,0.002678,0.000431,0.025621
25726000,0.0324,0.013523,0.002678,0.000431,0.008697
25727000,0.0324,0.013523,0.002678,0.000431,0.005759
25728000,0.0324,0.013523,0.002678,0.000431,0.005759
25729000,0.0324,0.013523,0.002678,0.000431,0.005876
25730000,0.0324,0.013523,0.002678,0.000431,0.058529
25731000,0.0324,0.013523,0.002678,0.000431,0.043485
25732000,0.0324,0.013523,0.002678,0.000431,0.035964
25733000,0.0324,0.013523,0.002678,0.000431,0.013281
25734000,0.0324,0.013523,0.002678,0.000431,0.005759
25735000,0.0324,0.013523,0.002678,0.000431,0.005876
25736000,0.0324,0.013523,0.002678,0.000431,0.058176
25737000,0.0324,0.013523,0.002678,0.000431,0.021273
25738000,0.0324,0.013523,0.002678,0.000431,0.013398
25739000,0.0324,0.013523,0.002678,0.000431,0.053005
25740000,0.0324,0.013523,0.002678,0.000431,0.026209
25741000,0.0324,0.013523,0.002678,0.000431,0.005876
25742000,0.0324,0.013523,0.002678,0.000431,0.005876
25743000,0.0324,0.013523,0.002678,0.000431,0.020920
25744000,0.0324,0.013523,0.002678,0.000431,0.020920
25745000,0.0324,0.013523,0.002678,0.000431,0.005876
25746000,0.0324,0.013523,0.002678,0.000431,0.005876
25747000,0.0324,0.013523,0.002678,0.000431,0.005876
25748000,0.0324,0.013523,0.002678,0.000431,0.005641
25749000,0.0324,0.013523,0.002678,0.000431,0.005876
25750000,0.0324,0.013523,0.002678,0.000431,0.035964
25751000,0.0324,0.013523,0.002678,0.000431,0.050890
25752000,0.0324,0.013523,0.002678,0.000431,0.013281
25753000,0.0324,0.013523,0.002678,0.000431,0.005876
25754000,0.0324,0.013523,0.002678,0.000431,0.005876
25755000,0.0324,0.013523,0.002678,0.000431,0.005876
25756000,0.0324,0.013523,0.002678,0.000431,0.050302
25757000,0.0324,0.013523,0.002678,0.000431,0.014103
25758000,0.0324,0.013523,0.002678,0.000431,0.013398
25759000,0.0324,0.013523,0.002678,0.000431,0.020920
25760000,0.0324,0.013523,0.002678,0.000431,0.005876
25761000,0.0324,0.013523,0.002678,0.000431,0.005759
25762000,0.0324,0.013523,0.002678,0.000431,0.005759
25763000,0.0324,0.013523,0.002678,0.000431,0.020920
25764000,0.0324,0.013523,0.002678,0.000431,0.020920
25765000,0.0324,0.013523,0.002678,0.000431,0.028442
25766000,0.0324,0.013523,0.002678,0.000431,0.005876
25767000,0.0324,0.013523,0.002678,0.000431,0.005876
25768000,0.0324,0.013523,0.002678,0.000431,0.005876
25769000,0.0324,0.013523,0.002678,0.000431,0.005876
25770000,0.0324,0.013523,0.002678,0.000431,0.050772
25771000,0.0324,0.013523,0.002678,0.000431,0.081330
25772000,0.0324,0.013523,0.002678,0.000431,0.043485
25773000,0.0324,0.013523,0.002678,0.000431,0.005876
25774000,0.0324,0.013523,0.002678,0.000431,0.005641
25775000,0.0324,0.013523,0.002678,0.000431,0.005876
25776000,0.0324,0.013523,0.002678,0.000431,0.081094
25777000,0.0324,0.013523,0.002678,0.000431,0.005876
25778000,0.0324,0.013523,0.002678,0.000431,0.013398
25779000,0.0324,0.013523,0.002678,0.000431,0.005876
25780000,0.0324,0.013523,0.002678,0.000431,0.005641
25781000,0.0324,0.013523,0.002678,0.000431,0.017159
25782000,0.0324,0.013523,0.002678,0.000431,0.043485
25783000,0.0324,0.013523,0.002678,0.000431,0.024681
25784000,0.0324,0.013523,0.002678,0.000431,0.017159
25785000,0.0324,0.013523,0.002678,0.000431,0.009637
25786000,0.0324,0.013523,0.002678,0.000431,0.005876
25787000,0.0324,0.013523,0.002678,0.000431,0.005876
25788000,0.0324,0.013523,0.002678,0.000431,0.020685
25789000,0.0324,0.013523,0.002678,0.000431,0.020920
25790000,0.0324,0.013523,0.002678,0.000431,0.013398
25791000,0.0324,0.013523,0.002678,0.000431,0.035846
25792000,0.0324,0.013523,0.002678,0.000431,0.005759
25793000,0.0324,0.013523,0.002678,0.000431,0.005876
25794000,0.0324,0.013523,0.002678,0.000431,0.005876
25795000,0.0324,0.013523,0.002678,0.000431,0.076746
25796000,0.0324,0.013523,0.002678,0.000431,0.092730
25797000,0.0324,0.013523,0.002678,0.000431,0.005876
25798000,0.0324,0.013523,0.002678,0.000431,0.005876
25799000,0.0324,0.013523,0.002678,0.000431,0.005876
25800000,0.0324,0.013523,0.002678,0.000431,0.005876
25801000,0.0324,0.013523,0.002678,0.000431,0.058412
25802000,0.0324,0.013523,0.002678,0.000431,0.103542
25803000,0.0324,0.013523,0.002678,0.000431,0.020920
25804000,0.0324,0.013523,0.002678,0.000431,0.035964
25805000,0.0324,0.013523,0.002678,0.000431,0.005876
25806000,0.0324,0.013523,0.002678,0.000431,0.005876
25807000,0.0324,0.013523,0.002678,0.000431,0.005876
25808000,0.0324,0.013523,0.002678,0.000431,0.009637
25809000,0.0324,0.013523,0.002678,0.000431,0.023741
25810000,0.0324,0.013523,0.002678,0.000431,0.022095
25811000,0.0324,0.013523,0.002678,0.000431,0.005876
25812000,0.0324,0.013523,0.002678,0.000431,0.005876
25813000,0.0324,0.013523,0.002678,0.000431,0.005876
25814000,0.0324,0.013523,0.002678,0.000431,0.028207
25815000,0.0324,0.013523,0.002678,0.000431,0.028442
25816000,0.0324,0.013523,0.002678,0.000431,0.014691
25817000,0.0324,0.013523,0.002678,0.000431,0.034436
25818000,0.0324,0.013523,0.002678,0.000431,0.005876
25819000,0.0324,0.013523,0.002678,0.000431,0.005876
25820000,0.0324,0.013523,0.002678,0.000431,0.049832
25821000,0.0324,0.013523,0.002678,0.000431,0.049714
25822000,0.0324,0.013523,0.002678,0.000431,0.030675
25823000,0.0324,0.013523,0.002678,0.000431,0.020920
25824000,0.0324,0.013523,0.002678,0.000431,0.005876
25825000,0.0324,0.013523,0.002678,0.000431,0.005876
25826000,0.0324,0.013523,0.002678,0.000431,0.005876
25827000,0.0324,0.013523,0.002678,0.000431,0.020920
25828000,0.0324,0.013523,0.002678,0.000431,0.084385
25829000,0.0324,0.013523,0.002678,0.000431,0.023036
25830000,0.0324,0.013523,0.002678,0.000431,0.008227
25831000,0.0324,0.013523,0.002678,0.000431,0.005876
25832000,0.0324,0.013523,0.002678,0.000431,0.005641
25833000,0.0324,0.013523,0.002678,0.000431,0.007404
25834000,0.0324,0.013523,0.002678,0.000431,0.023153
25835000,0.0324,0.013523,0.002678,0.000431,0.107421
25836000,0.0324,0.013523,0.002678,0.000431,0.005759
25837000,0.0324,0.013523,0.002678,0.000431,0.005759
25838000,0.0324,0.013523,0.002678,0.000431,0.005876
25839000,0.0324,0.013523,0.002678,0.000431,0.005876
25840000,0.0324,0.013523,0.002678,0.000431,0.043250
25841000,0.0324,0.013523,0.002678,0.000431,0.035964
25842000,0.0324,0.013523,0.002678,0.000431,0.035964
25843000,0.0324,0.013523,0.002678,0.000431,0.005876
25844000,0.0324,0.013523,0.002678,0.000431,0.005876
25845000,0.0324,0.013523,0.002678,0.000431,0.005876
25846000,0.0324,0.013523,0.002678,0.000431,0.019392
25847000,0.0324,0.013523,0.002678,0.000431,0.029970
25848000,0.0324,0.013523,0.002678,0.000431,0.020920
25849000,0.0324,0.013523,0.002678,0.000431,0.066051
25850000,0.0324,0.013523,0.002678,0.000431,0.005876
25851000,0.0324,0.013523,0.002678,0.000431,0.005876
25852000,0.0324,0.013523,0.002678,0.000431,0.005876
25853000,0.0324,0.013523,0.002678,0.000431,0.035964
25854000,0.0324,0.013523,0.002678,0.000431,0.020685
25855000,0.0324,0.013523,0.002678,0.000431,0.013398
25856000,0.0324,0.013523,0.002678,0.000431,0.005876
25857000,0.0324,0.013523,0.002678,0.000431,0.005641
25858000,0.0324,0.013523,0.002678,0.000431,0.005876
25859000,0.0324,0.013523,0.002678,0.000431,0.005876
25860000,0.0324,0.013523,0.002678,0.000431,0.025269
25861000,0.0324,0.013523,0.002678,0.000431,0.097431
25862000,0.0324,0.013523,0.002678,0.000431,0.022565
25863000,0.0324,0.013523,0.002678,0.000431,0.005876
25864000,0.0324,0.013523,0.002678,0.000431,0.005876
25865000,0.0324,0.013523,0.002678,0.000431,0.005876
25866000,0.0324,0.013523,0.002678,0.000431,0.005876
25867000,0.0324,0.013523,0.002678,0.000431,0.118703
25868000,0.0324,0.013523,0.002678,0.000431,0.005876
25869000,0.0324,0.013523,0.002678,0.000431,0.005876
25870000,0.0324,0.013523,0.002678,0.000431,0.005876
25871000,0.0324,0.013523,0.002678,0.000431,0.005641
25872000,0.0324,0.013523,0.002678,0.000431,0.013163
25873000,0.0324,0.013523,0.002678,0.000431,0.009872
25874000,0.0324,0.013523,0.002678,0.000431,0.062055
25875000,0.0324,0.013523,0.002678,0.000431,0.020920
25876000,0.0324,0.013523,0.002678,0.000431,0.005759
25877000,0.0324,0.013523,0.002678,0.000431,0.005759
25878000,0.0324,0.013523,0.002678,0.000431,0.005876
25879000,0.0324,0.013523,0.002678,0.000431,0.013398
25880000,0.0324,0.013523,0.002678,0.000431,0.020802
25881000,0.0324,0.013523,0.002678,0.000431,0.035846
25882000,0.0324,0.013523,0.002678,0.000431,0.005876
25883000,0.0324,0.013523,0.002678,0.000431,0.005876
25884000,0.0324,0.013523,0.002678,0.000431,0.005876
25885000,0.0324,0.013523,0.002678,0.000431,0.005876
25886000,0.0324,0.013523,0.002678,0.000431,0.028442
25887000,0.0324,0.013523,0.002678,0.000431,0.024681
25888000,0.0324,0.013523,0.002678,0.000431,0.009637
25889000,0.0324,0.013523,0.002678,0.000431,0.005876
25890000,0.0324,0.013523,0.002678,0.000431,0.005876
25891000,0.0324,0.013523,0.002678,0.000431,0.005876
25892000,0.0324,0.013523,0.002678,0.000431,0.013398
25893000,0.0324,0.013523,0.002678,0.000431,0.118703
25894000,0.0324,0.013523,0.002678,0.000431,0.005876
25895000,0.0324,0.013523,0.002678,0.000431,0.005876
25896000,0.0324,0.013523,0.002678,0.000431,0.005641
25897000,0.0324,0.013523,0.002678,0.000431,0.005876
25898000,0.0324,0.013523,0.002678,0.000431,0.005876
25899000,0.0324,0.013523,0.002678,0.000431,0.020920
25900000,0.0324,0.013523,0.002678,0.000431,0.027502
25901000,0.0324,0.013523,0.002678,0.000431,0.014338
25902000,0.0324,0.013523,0.002678,0.000431,0.005876
25903000,0.0324,0.013523,0.002678,0.000431,0.005876
25904000,0.0324,0.013523,0.002678,0.000431,0.005876
25905000,0.0324,0.013523,0.002678,0.000431,0.014456
25906000,0.0324,0.013523,0.002678,0.000431,0.034906
25907000,0.0324,0.013523,0.002678,0.000431,0.005876
25908000,0.0324,0.013523,0.002678,0.000431,0.005876
25909000,0.0324,0.013523,0.002678,0.000431,0.005876
25910000,0.0324,0.013523,0.002678,0.000431,0.005876
25911000,0.0324,0.013523,0.002678,0.000431,0.005641
25912000,0.0324,0.013523,0.002678,0.000431,0.103425
25913000,0.0324,0.013523,0.002678,0.000431,0.073573
25914000,0.0324,0.013523,0.002678,0.000431,0.005876
25915000,0.0324,0.013523,0.002678,0.000431,0.005759
25916000,0.0324,0.013523,0.002678,0.000431,0.005759
25917000,0.0324,0.013523,0.002678,0.000431,0.005641
25918000,0.0324,0.013523,0.002678,0.000431,0.049597
25919000,0.0324,0.013523,0.002678,0.000431,0.063700
25920000,0.0324,0.013523,0.002678,0.000431,0.032203
25921000,0.0324,0.013523,0.002678,0.000431,0.005876
25922000,0.0324,0.013523,0.002678,0.000431,0.005876
25923000,0.0324,0.013523,0.002678,0.000431,0.005876
25924000,0.0324,0.013523,0.002678,0.000431,0.092377
25925000,0.0324,0.013523,0.002678,0.000431,0.024681
25926000,0.0324,0.013523,0.002678,0.000431,0.005876
25927000,0.0324,0.013523,0.002678,0.000431,0.005876
25928000,0.0324,0.013523,0.002678,0.000431,0.005876
25929000,0.0324,0.013523,0.002678,0.000431,0.005876
25930000,0.0324,0.013523,0.002678,0.000431,0.005876
25931000,0.0324,0.013523,0.002678,0.000431,0.051007
25932000,0.0324,0.013523,0.002678,0.000431,0.040195
25933000,0.0324,0.013523,0.002678,0.000431,0.016689
25934000,0.0324,0.013523,0.002678,0.000431,0.005876
25935000,0.0324,0.013523,0.002678,0.000431,0.005876
25936000,0.0324,0.013523,0.002678,0.000431,0.005641
25937000,0.0324,0.013523,0.002678,0.000431,0.028442
25938000,0.0324,0.013523,0.002678,0.000431,0.111182
25939000,0.0324,0.013523,0.002678,0.000431,0.013398
25940000,0.0324,0.013523,0.002678,0.000431,0.005876
25941000,0.0324,0.013523,0.002678,0.000431,0.005876
25942000,0.0324,0.013523,0.002678,0.000431,0.005876
25943000,0.0324,0.013523,0.002678,0.000431,0.005876
25944000,0.0324,0.013523,0.002678,0.000431,0.024681
25945000,0.0324,0.013523,0.002678,0.000431,0.100957
25946000,0.0324,0.013523,0.002678,0.000431,0.012340
25947000,0.0324,0.013523,0.002678,0.000431,0.005876
25948000,0.0324,0.013523,0.002678,0.000431,0.005876
25949000,0.0324,0.013523,0.002678,0.000431,0.005876
25950000,0.0324,0.013523,0.002678,0.000431,0.020920
25951000,0.0324,0.013523,0.002678,0.000431,0.039372
25952000,0.0324,0.013523,0.002678,0.000431,0.084738
25953000,0.0324,0.013523,0.002678,0.000431,0.005876
25954000,0.0324,0.013523,0.002678,0.000431,0.005876
25955000,0.0324,0.013523,0.002678,0.000431,0.005759
25956000,0.0324,0.013523,0.002678,0.000431,0.005759
25957000,0.0324,0.013523,0.002678,0.000431,0.043485
25958000,0.0324,0.013523,0.002678,0.000431,0.028442
25959000,0.0324,0.013523,0.002678,0.000431,0.005876
25960000,0.0324,0.013523,0.002678,0.000431,0.005876
25961000,0.0324,0.013523,0.002678,0.000431,0.005876
25962000,0.0324,0.013523,0.002678,0.000431,0.005876
25963000,0.0324,0.013523,0.002678,0.000431,0.024681
25964000,0.0324,0.013523,0.002678,0.000431,0.039725
25965000,0.0324,0.013523,0.002678,0.000431,0.005876
25966000,0.0324,0.013523,0.002678,0.000431,0.005876
25967000,0.0324,0.013523,0.002678,0.000431,0.005876
25968000,0.0324,0.013523,0.002678,0.000431,0.005876
25969000,0.0324,0.013523,0.002678,0.000431,0.005876
25970000,0.0324,0.013523,0.002678,0.000431,0.084268
25971000,0.0324,0.013523,0.002678,0.000431,0.062878
25972000,0.0324,0.013523,0.002678,0.000431,0.005876
25973000,0.0324,0.013523,0.002678,0.000431,0.005641
25974000,0.0324,0.013523,0.002678,0.000431,0.005876
25975000,0.0324,0.013523,0.002678,0.000431,0.005876
25976000,0.0324,0.013523,0.002678,0.000431,0.080859
25977000,0.0324,0.013523,0.002678,0.000431,0.035964
25978000,0.0324,0.013523,0.002678,0.000431,0.005876
25979000,0.0324,0.013523,0.002678,0.000431,0.005876
25980000,0.0324,0.013523,0.002678,0.000431,0.005876
25981000,0.0324,0.013523,0.002678,0.000431,0.005876
25982000,0.0324,0.013523,0.002678,0.000431,0.011165
25983000,0.0324,0.013523,0.002678,0.000431,0.069694
25984000,0.0324,0.013523,0.002678,0.000431,0.049597
25985000,0.0324,0.013523,0.002678,0.000431,0.005876
25986000,0.0324,0.013523,0.002678,0.000431,0.005876
25987000,0.0324,0.013523,0.002678,0.000431,0.005876
25988000,0.0324,0.013523,0.002678,0.000431,0.005876
25989000,0.0324,0.013523,0.002678,0.000431,0.028442
25990000,0.0324,0.013523,0.002678,0.000431,0.077686
25991000,0.0324,0.013523,0.002678,0.000431,0.054063
25992000,0.0324,0.013523,0.002678,0.000431,0.005524
25993000,0.0324,0.013523,0.002678,0.000431,0.005876
25994000,0.0324,0.013523,0.002678,0.000431,0.005876
25995000,0.0324,0.013523,0.002678,0.000431,0.005759
25996000,0.0324,0.013523,0.002678,0.000431,0.033613
25997000,0.0324,0.013523,0.002678,0.000431,0.060762
25998000,0.0324,0.013523,0.002678,0.000431,0.005876
25999000,0.0324,0.013523,0.002678,0.000431,0.005876
