Cycle,Area(mm^2),PeakDynamic(W),SubthresholdLeakage(W),GateLeakage(W),RunTimeDynamic(W)
27000000,0.0324,0.013523,0.002678,0.000431,0.020920
27001000,0.0324,0.013523,0.002678,0.000431,0.096373
27002000,0.0324,0.013523,0.002678,0.000431,0.013398
27003000,0.0324,0.013523,0.002678,0.000431,0.028442
27004000,0.0324,0.013523,0.002678,0.000431,0.005876
27005000,0.0324,0.013523,0.002678,0.000431,0.028442
27006000,0.0324,0.013523,0.002678,0.000431,0.005876
27007000,0.0324,0.013523,0.002678,0.000431,0.039725
27008000,0.0324,0.013523,0.002678,0.000431,0.045836
27009000,0.0324,0.013523,0.002678,0.000431,0.029852
27010000,0.0324,0.013523,0.002678,0.000431,0.005876
27011000,0.0324,0.013523,0.002678,0.000431,0.020920
27012000,0.0324,0.013523,0.002678,0.000431,0.005876
27013000,0.0324,0.013523,0.002678,0.000431,0.035964
27014000,0.0324,0.013523,0.002678,0.000431,0.035964
27015000,0.0324,0.013523,0.002678,0.000431,0.013986
27016000,0.0324,0.013523,0.002678,0.000431,0.035376
27017000,0.0324,0.013523,0.002678,0.000431,0.005876
27018000,0.0324,0.013523,0.002678,0.000431,0.005876
27019000,0.0324,0.013523,0.002678,0.000431,0.005876
27020000,0.0324,0.013523,0.002678,0.000431,0.043485
27021000,0.0324,0.013523,0.002678,0.000431,0.005759
27022000,0.0324,0.013523,0.002678,0.000431,0.032908
27023000,0.0324,0.013523,0.002678,0.000431,0.023858
27024000,0.0324,0.013523,0.002678,0.000431,0.035964
27025000,0.0324,0.013523,0.002678,0.000431,0.005876
27026000,0.0324,0.013523,0.002678,0.000431,0.020920
27027000,0.0324,0.013523,0.002678,0.000431,0.023388
27028000,0.0324,0.013523,0.002678,0.000431,0.010930
27029000,0.0324,0.013523,0.002678,0.000431,0.035964
27030000,0.0324,0.013523,0.002678,0.000431,0.010578
27031000,0.0324,0.013523,0.002678,0.000431,0.031027
27032000,0.0324,0.013523,0.002678,0.000431,0.005641
27033000,0.0324,0.013523,0.002678,0.000431,0.009637
27034000,0.0324,0.013523,0.002678,0.000431,0.047246
27035000,0.0324,0.013523,0.002678,0.000431,0.009637
27036000,0.0324,0.013523,0.002678,0.000431,0.017159
27037000,0.0324,0.013523,0.002678,0.000431,0.028442
27038000,0.0324,0.013523,0.002678,0.000431,0.005876
27039000,0.0324,0.013523,0.002678,0.000431,0.005524
27040000,0.0324,0.013523,0.002678,0.000431,0.013281
27041000,0.0324,0.013523,0.002678,0.000431,0.013398
27042000,0.0324,0.013523,0.002678,0.000431,0.005876
27043000,0.0324,0.013523,0.002678,0.000431,0.005876
27044000,0.0324,0.013523,0.002678,0.000431,0.005876
27045000,0.0324,0.013523,0.002678,0.000431,0.037844
27046000,0.0324,0.013523,0.002678,0.000431,0.019040
27047000,0.0324,0.013523,0.002678,0.000431,0.073573
27048000,0.0324,0.013523,0.002678,0.000431,0.033966
27049000,0.0324,0.013523,0.002678,0.000431,0.007874
27050000,0.0324,0.013523,0.002678,0.000431,0.005876
27051000,0.0324,0.013523,0.002678,0.000431,0.005876
27052000,0.0324,0.013523,0.002678,0.000431,0.066638
27053000,0.0324,0.013523,0.002678,0.000431,0.069694
27054000,0.0324,0.013523,0.002678,0.000431,0.031498
27055000,0.0324,0.013523,0.002678,0.000431,0.005876
27056000,0.0324,0.013523,0.002678,0.000431,0.032203
27057000,0.0324,0.013523,0.002678,0.000431,0.009637
27058000,0.0324,0.013523,0.002678,0.000431,0.078509
27059000,0.0324,0.013523,0.002678,0.000431,0.098019
27060000,0.0324,0.013523,0.002678,0.000431,0.013163
27061000,0.0324,0.013523,0.002678,0.000431,0.013398
27062000,0.0324,0.013523,0.002678,0.000431,0.020920
27063000,0.0324,0.013523,0.002678,0.000431,0.033966
27064000,0.0324,0.013523,0.002678,0.000431,0.007874
27065000,0.0324,0.013523,0.002678,0.000431,0.037139
27066000,0.0324,0.013523,0.002678,0.000431,0.012223
27067000,0.0324,0.013523,0.002678,0.000431,0.005876
27068000,0.0324,0.013523,0.002678,0.000431,0.005876
27069000,0.0324,0.013523,0.002678,0.000431,0.005876
27070000,0.0324,0.013523,0.002678,0.000431,0.005759
27071000,0.0324,0.013523,0.002678,0.000431,0.005759
27072000,0.0324,0.013523,0.002678,0.000431,0.033613
27073000,0.0324,0.013523,0.002678,0.000431,0.080154
27074000,0.0324,0.013523,0.002678,0.000431,0.074748
27075000,0.0324,0.013523,0.002678,0.000431,0.007522
27076000,0.0324,0.013523,0.002678,0.000431,0.047011
27077000,0.0324,0.013523,0.002678,0.000431,0.006699
27078000,0.0324,0.013523,0.002678,0.000431,0.199915
27079000,0.0324,0.013523,0.002678,0.000431,0.005876
27080000,0.0324,0.013523,0.002678,0.000431,0.043720
27081000,0.0324,0.013523,0.002678,0.000431,0.005876
27082000,0.0324,0.013523,0.002678,0.000431,0.005876
27083000,0.0324,0.013523,0.002678,0.000431,0.005876
27084000,0.0324,0.013523,0.002678,0.000431,0.009637
27085000,0.0324,0.013523,0.002678,0.000431,0.025269
27086000,0.0324,0.013523,0.002678,0.000431,0.177703
27087000,0.0324,0.013523,0.002678,0.000431,0.013281
27088000,0.0324,0.013523,0.002678,0.000431,0.005759
27089000,0.0324,0.013523,0.002678,0.000431,0.005759
27090000,0.0324,0.013523,0.002678,0.000431,0.005876
27091000,0.0324,0.013523,0.002678,0.000431,0.043485
27092000,0.0324,0.013523,0.002678,0.000431,0.005876
27093000,0.0324,0.013523,0.002678,0.000431,0.133512
27094000,0.0324,0.013523,0.002678,0.000431,0.005876
27095000,0.0324,0.013523,0.002678,0.000431,0.005876
27096000,0.0324,0.013523,0.002678,0.000431,0.005876
27097000,0.0324,0.013523,0.002678,0.000431,0.013398
27098000,0.0324,0.013523,0.002678,0.000431,0.005759
27099000,0.0324,0.013523,0.002678,0.000431,0.046189
27100000,0.0324,0.013523,0.002678,0.000431,0.040900
27101000,0.0324,0.013523,0.002678,0.000431,0.005876
27102000,0.0324,0.013523,0.002678,0.000431,0.005876
27103000,0.0324,0.013523,0.002678,0.000431,0.028442
27104000,0.0324,0.013523,0.002678,0.000431,0.043485
27105000,0.0324,0.013523,0.002678,0.000431,0.005876
27106000,0.0324,0.013523,0.002678,0.000431,0.096373
27107000,0.0324,0.013523,0.002678,0.000431,0.005876
27108000,0.0324,0.013523,0.002678,0.000431,0.005876
27109000,0.0324,0.013523,0.002678,0.000431,0.005876
27110000,0.0324,0.013523,0.002678,0.000431,0.036199
27111000,0.0324,0.013523,0.002678,0.000431,0.005876
27112000,0.0324,0.013523,0.002678,0.000431,0.013633
27113000,0.0324,0.013523,0.002678,0.000431,0.005876
27114000,0.0324,0.013523,0.002678,0.000431,0.005876
27115000,0.0324,0.013523,0.002678,0.000431,0.005876
27116000,0.0324,0.013523,0.002678,0.000431,0.118116
27117000,0.0324,0.013523,0.002678,0.000431,0.032085
27118000,0.0324,0.013523,0.002678,0.000431,0.009637
27119000,0.0324,0.013523,0.002678,0.000431,0.005759
27120000,0.0324,0.013523,0.002678,0.000431,0.005759
27121000,0.0324,0.013523,0.002678,0.000431,0.005641
27122000,0.0324,0.013523,0.002678,0.000431,0.013516
27123000,0.0324,0.013523,0.002678,0.000431,0.013516
27124000,0.0324,0.013523,0.002678,0.000431,0.103895
27125000,0.0324,0.013523,0.002678,0.000431,0.039725
27126000,0.0324,0.013523,0.002678,0.000431,0.009637
27127000,0.0324,0.013523,0.002678,0.000431,0.005641
27128000,0.0324,0.013523,0.002678,0.000431,0.005876
27129000,0.0324,0.013523,0.002678,0.000431,0.066168
27130000,0.0324,0.013523,0.002678,0.000431,0.032673
27131000,0.0324,0.013523,0.002678,0.000431,0.032790
27132000,0.0324,0.013523,0.002678,0.000431,0.155607
27133000,0.0324,0.013523,0.002678,0.000431,0.005876
27134000,0.0324,0.013523,0.002678,0.000431,0.005876
27135000,0.0324,0.013523,0.002678,0.000431,0.005876
27136000,0.0324,0.013523,0.002678,0.000431,0.005641
27137000,0.0324,0.013523,0.002678,0.000431,0.049244
27138000,0.0324,0.013523,0.002678,0.000431,0.045483
27139000,0.0324,0.013523,0.002678,0.000431,0.021155
27140000,0.0324,0.013523,0.002678,0.000431,0.005876
27141000,0.0324,0.013523,0.002678,0.000431,0.005876
27142000,0.0324,0.013523,0.002678,0.000431,0.013398
27143000,0.0324,0.013523,0.002678,0.000431,0.013398
27144000,0.0324,0.013523,0.002678,0.000431,0.005876
27145000,0.0324,0.013523,0.002678,0.000431,0.103660
27146000,0.0324,0.013523,0.002678,0.000431,0.005876
27147000,0.0324,0.013523,0.002678,0.000431,0.005876
27148000,0.0324,0.013523,0.002678,0.000431,0.005876
27149000,0.0324,0.013523,0.002678,0.000431,0.023741
27150000,0.0324,0.013523,0.002678,0.000431,0.078509
27151000,0.0324,0.013523,0.002678,0.000431,0.005876
27152000,0.0324,0.013523,0.002678,0.000431,0.013398
27153000,0.0324,0.013523,0.002678,0.000431,0.005876
27154000,0.0324,0.013523,0.002678,0.000431,0.008697
27155000,0.0324,0.013523,0.002678,0.000431,0.048187
27156000,0.0324,0.013523,0.002678,0.000431,0.005641
27157000,0.0324,0.013523,0.002678,0.000431,0.081447
27158000,0.0324,0.013523,0.002678,0.000431,0.065933
27159000,0.0324,0.013523,0.002678,0.000431,0.005876
27160000,0.0324,0.013523,0.002678,0.000431,0.005759
27161000,0.0324,0.013523,0.002678,0.000431,0.043133
27162000,0.0324,0.013523,0.002678,0.000431,0.005876
27163000,0.0324,0.013523,0.002678,0.000431,0.020920
27164000,0.0324,0.013523,0.002678,0.000431,0.058529
27165000,0.0324,0.013523,0.002678,0.000431,0.013398
27166000,0.0324,0.013523,0.002678,0.000431,0.005876
27167000,0.0324,0.013523,0.002678,0.000431,0.005876
27168000,0.0324,0.013523,0.002678,0.000431,0.005759
27169000,0.0324,0.013523,0.002678,0.000431,0.005759
27170000,0.0324,0.013523,0.002678,0.000431,0.095785
27171000,0.0324,0.013523,0.002678,0.000431,0.006934
27172000,0.0324,0.013523,0.002678,0.000431,0.005876
27173000,0.0324,0.013523,0.002678,0.000431,0.005876
27174000,0.0324,0.013523,0.002678,0.000431,0.051007
27175000,0.0324,0.013523,0.002678,0.000431,0.013398
27176000,0.0324,0.013523,0.002678,0.000431,0.005641
27177000,0.0324,0.013523,0.002678,0.000431,0.005876
27178000,0.0324,0.013523,0.002678,0.000431,0.020920
27179000,0.0324,0.013523,0.002678,0.000431,0.005876
27180000,0.0324,0.013523,0.002678,0.000431,0.013398
27181000,0.0324,0.013523,0.002678,0.000431,0.013398
27182000,0.0324,0.013523,0.002678,0.000431,0.066051
27183000,0.0324,0.013523,0.002678,0.000431,0.035964
27184000,0.0324,0.013523,0.002678,0.000431,0.088499
27185000,0.0324,0.013523,0.002678,0.000431,0.050655
27186000,0.0324,0.013523,0.002678,0.000431,0.005876
27187000,0.0324,0.013523,0.002678,0.000431,0.005876
27188000,0.0324,0.013523,0.002678,0.000431,0.035964
27189000,0.0324,0.013523,0.002678,0.000431,0.005876
27190000,0.0324,0.013523,0.002678,0.000431,0.005876
27191000,0.0324,0.013523,0.002678,0.000431,0.058764
27192000,0.0324,0.013523,0.002678,0.000431,0.005876
27193000,0.0324,0.013523,0.002678,0.000431,0.021390
27194000,0.0324,0.013523,0.002678,0.000431,0.012928
27195000,0.0324,0.013523,0.002678,0.000431,0.005876
27196000,0.0324,0.013523,0.002678,0.000431,0.035729
27197000,0.0324,0.013523,0.002678,0.000431,0.005876
27198000,0.0324,0.013523,0.002678,0.000431,0.005876
27199000,0.0324,0.013523,0.002678,0.000431,0.005876
27200000,0.0324,0.013523,0.002678,0.000431,0.005876
27201000,0.0324,0.013523,0.002678,0.000431,0.012928
27202000,0.0324,0.013523,0.002678,0.000431,0.013398
27203000,0.0324,0.013523,0.002678,0.000431,0.095903
27204000,0.0324,0.013523,0.002678,0.000431,0.005876
27205000,0.0324,0.013523,0.002678,0.000431,0.005876
27206000,0.0324,0.013523,0.002678,0.000431,0.005876
27207000,0.0324,0.013523,0.002678,0.000431,0.005876
27208000,0.0324,0.013523,0.002678,0.000431,0.005876
27209000,0.0324,0.013523,0.002678,0.000431,0.047246
27210000,0.0324,0.013523,0.002678,0.000431,0.009637
27211000,0.0324,0.013523,0.002678,0.000431,0.005876
27212000,0.0324,0.013523,0.002678,0.000431,0.035729
27213000,0.0324,0.013523,0.002678,0.000431,0.005876
27214000,0.0324,0.013523,0.002678,0.000431,0.005876
27215000,0.0324,0.013523,0.002678,0.000431,0.013398
27216000,0.0324,0.013523,0.002678,0.000431,0.051007
27217000,0.0324,0.013523,0.002678,0.000431,0.005876
27218000,0.0324,0.013523,0.002678,0.000431,0.051007
27219000,0.0324,0.013523,0.002678,0.000431,0.005876
27220000,0.0324,0.013523,0.002678,0.000431,0.013398
27221000,0.0324,0.013523,0.002678,0.000431,0.005876
27222000,0.0324,0.013523,0.002678,0.000431,0.013633
27223000,0.0324,0.013523,0.002678,0.000431,0.005876
27224000,0.0324,0.013523,0.002678,0.000431,0.037962
27225000,0.0324,0.013523,0.002678,0.000431,0.071692
27226000,0.0324,0.013523,0.002678,0.000431,0.028324
27227000,0.0324,0.013523,0.002678,0.000431,0.045366
27228000,0.0324,0.013523,0.002678,0.000431,0.019275
27229000,0.0324,0.013523,0.002678,0.000431,0.013398
27230000,0.0324,0.013523,0.002678,0.000431,0.005876
27231000,0.0324,0.013523,0.002678,0.000431,0.005876
27232000,0.0324,0.013523,0.002678,0.000431,0.005876
27233000,0.0324,0.013523,0.002678,0.000431,0.005876
27234000,0.0324,0.013523,0.002678,0.000431,0.028442
27235000,0.0324,0.013523,0.002678,0.000431,0.024681
27236000,0.0324,0.013523,0.002678,0.000431,0.009402
27237000,0.0324,0.013523,0.002678,0.000431,0.005876
27238000,0.0324,0.013523,0.002678,0.000431,0.005759
27239000,0.0324,0.013523,0.002678,0.000431,0.005759
27240000,0.0324,0.013523,0.002678,0.000431,0.043485
27241000,0.0324,0.013523,0.002678,0.000431,0.005641
27242000,0.0324,0.013523,0.002678,0.000431,0.006111
27243000,0.0324,0.013523,0.002678,0.000431,0.005876
27244000,0.0324,0.013523,0.002678,0.000431,0.005876
27245000,0.0324,0.013523,0.002678,0.000431,0.005876
27246000,0.0324,0.013523,0.002678,0.000431,0.058529
27247000,0.0324,0.013523,0.002678,0.000431,0.005876
27248000,0.0324,0.013523,0.002678,0.000431,0.132572
27249000,0.0324,0.013523,0.002678,0.000431,0.029147
27250000,0.0324,0.013523,0.002678,0.000431,0.005876
27251000,0.0324,0.013523,0.002678,0.000431,0.028442
27252000,0.0324,0.013523,0.002678,0.000431,0.015984
27253000,0.0324,0.013523,0.002678,0.000431,0.063465
27254000,0.0324,0.013523,0.002678,0.000431,0.005876
27255000,0.0324,0.013523,0.002678,0.000431,0.005876
27256000,0.0324,0.013523,0.002678,0.000431,0.005876
27257000,0.0324,0.013523,0.002678,0.000431,0.009637
27258000,0.0324,0.013523,0.002678,0.000431,0.009637
27259000,0.0324,0.013523,0.002678,0.000431,0.022330
27260000,0.0324,0.013523,0.002678,0.000431,0.027267
27261000,0.0324,0.013523,0.002678,0.000431,0.103072
27262000,0.0324,0.013523,0.002678,0.000431,0.013986
27263000,0.0324,0.013523,0.002678,0.000431,0.005876
27264000,0.0324,0.013523,0.002678,0.000431,0.017159
27265000,0.0324,0.013523,0.002678,0.000431,0.009637
27266000,0.0324,0.013523,0.002678,0.000431,0.105540
27267000,0.0324,0.013523,0.002678,0.000431,0.011518
27268000,0.0324,0.013523,0.002678,0.000431,0.005876
27269000,0.0324,0.013523,0.002678,0.000431,0.005876
27270000,0.0324,0.013523,0.002678,0.000431,0.005876
27271000,0.0324,0.013523,0.002678,0.000431,0.005876
27272000,0.0324,0.013523,0.002678,0.000431,0.005876
27273000,0.0324,0.013523,0.002678,0.000431,0.005641
27274000,0.0324,0.013523,0.002678,0.000431,0.028442
27275000,0.0324,0.013523,0.002678,0.000431,0.005876
27276000,0.0324,0.013523,0.002678,0.000431,0.007757
27277000,0.0324,0.013523,0.002678,0.000431,0.026326
27278000,0.0324,0.013523,0.002678,0.000431,0.005876
27279000,0.0324,0.013523,0.002678,0.000431,0.028442
27280000,0.0324,0.013523,0.002678,0.000431,0.009637
27281000,0.0324,0.013523,0.002678,0.000431,0.031968
27282000,0.0324,0.013523,0.002678,0.000431,0.005876
27283000,0.0324,0.013523,0.002678,0.000431,0.005876
27284000,0.0324,0.013523,0.002678,0.000431,0.005876
27285000,0.0324,0.013523,0.002678,0.000431,0.032673
27286000,0.0324,0.013523,0.002678,0.000431,0.017159
27287000,0.0324,0.013523,0.002678,0.000431,0.073573
27288000,0.0324,0.013523,0.002678,0.000431,0.024798
27289000,0.0324,0.013523,0.002678,0.000431,0.039372
27290000,0.0324,0.013523,0.002678,0.000431,0.005876
27291000,0.0324,0.013523,0.002678,0.000431,0.005876
27292000,0.0324,0.013523,0.002678,0.000431,0.005876
27293000,0.0324,0.013523,0.002678,0.000431,0.009637
27294000,0.0324,0.013523,0.002678,0.000431,0.017159
27295000,0.0324,0.013523,0.002678,0.000431,0.035964
27296000,0.0324,0.013523,0.002678,0.000431,0.005759
27297000,0.0324,0.013523,0.002678,0.000431,0.005759
27298000,0.0324,0.013523,0.002678,0.000431,0.009637
27299000,0.0324,0.013523,0.002678,0.000431,0.024681
27300000,0.0324,0.013523,0.002678,0.000431,0.096608
27301000,0.0324,0.013523,0.002678,0.000431,0.040782
27302000,0.0324,0.013523,0.002678,0.000431,0.023858
27303000,0.0324,0.013523,0.002678,0.000431,0.005876
27304000,0.0324,0.013523,0.002678,0.000431,0.023858
27305000,0.0324,0.013523,0.002678,0.000431,0.048304
27306000,0.0324,0.013523,0.002678,0.000431,0.005876
27307000,0.0324,0.013523,0.002678,0.000431,0.005876
27308000,0.0324,0.013523,0.002678,0.000431,0.005876
27309000,0.0324,0.013523,0.002678,0.000431,0.035964
27310000,0.0324,0.013523,0.002678,0.000431,0.005876
27311000,0.0324,0.013523,0.002678,0.000431,0.020685
27312000,0.0324,0.013523,0.002678,0.000431,0.081917
27313000,0.0324,0.013523,0.002678,0.000431,0.020215
27314000,0.0324,0.013523,0.002678,0.000431,0.005759
27315000,0.0324,0.013523,0.002678,0.000431,0.020920
27316000,0.0324,0.013523,0.002678,0.000431,0.013281
27317000,0.0324,0.013523,0.002678,0.000431,0.024798
27318000,0.0324,0.013523,0.002678,0.000431,0.146675
27319000,0.0324,0.013523,0.002678,0.000431,0.071692
27320000,0.0324,0.013523,0.002678,0.000431,0.005876
27321000,0.0324,0.013523,0.002678,0.000431,0.005876
27322000,0.0324,0.013523,0.002678,0.000431,0.035964
27323000,0.0324,0.013523,0.002678,0.000431,0.005876
27324000,0.0324,0.013523,0.002678,0.000431,0.073690
27325000,0.0324,0.013523,0.002678,0.000431,0.047599
27326000,0.0324,0.013523,0.002678,0.000431,0.009637
27327000,0.0324,0.013523,0.002678,0.000431,0.005876
27328000,0.0324,0.013523,0.002678,0.000431,0.005641
27329000,0.0324,0.013523,0.002678,0.000431,0.005876
27330000,0.0324,0.013523,0.002678,0.000431,0.005876
27331000,0.0324,0.013523,0.002678,0.000431,0.081094
27332000,0.0324,0.013523,0.002678,0.000431,0.028677
27333000,0.0324,0.013523,0.002678,0.000431,0.005876
27334000,0.0324,0.013523,0.002678,0.000431,0.005876
27335000,0.0324,0.013523,0.002678,0.000431,0.005876
27336000,0.0324,0.013523,0.002678,0.000431,0.005759
27337000,0.0324,0.013523,0.002678,0.000431,0.028324
27338000,0.0324,0.013523,0.002678,0.000431,0.021155
27339000,0.0324,0.013523,0.002678,0.000431,0.005876
27340000,0.0324,0.013523,0.002678,0.000431,0.005876
27341000,0.0324,0.013523,0.002678,0.000431,0.005876
27342000,0.0324,0.013523,0.002678,0.000431,0.005876
27343000,0.0324,0.013523,0.002678,0.000431,0.009637
27344000,0.0324,0.013523,0.002678,0.000431,0.009637
27345000,0.0324,0.013523,0.002678,0.000431,0.005876
27346000,0.0324,0.013523,0.002678,0.000431,0.005876
27347000,0.0324,0.013523,0.002678,0.000431,0.011518
27348000,0.0324,0.013523,0.002678,0.000431,0.007757
27349000,0.0324,0.013523,0.002678,0.000431,0.005876
27350000,0.0324,0.013523,0.002678,0.000431,0.098019
27351000,0.0324,0.013523,0.002678,0.000431,0.045131
27352000,0.0324,0.013523,0.002678,0.000431,0.024681
27353000,0.0324,0.013523,0.002678,0.000431,0.005759
27354000,0.0324,0.013523,0.002678,0.000431,0.073455
27355000,0.0324,0.013523,0.002678,0.000431,0.005876
27356000,0.0324,0.013523,0.002678,0.000431,0.013398
27357000,0.0324,0.013523,0.002678,0.000431,0.043485
27358000,0.0324,0.013523,0.002678,0.000431,0.005876
27359000,0.0324,0.013523,0.002678,0.000431,0.014809
27360000,0.0324,0.013523,0.002678,0.000431,0.083210
27361000,0.0324,0.013523,0.002678,0.000431,0.009637
27362000,0.0324,0.013523,0.002678,0.000431,0.020920
27363000,0.0324,0.013523,0.002678,0.000431,0.013398
27364000,0.0324,0.013523,0.002678,0.000431,0.005876
27365000,0.0324,0.013523,0.002678,0.000431,0.005876
27366000,0.0324,0.013523,0.002678,0.000431,0.013398
27367000,0.0324,0.013523,0.002678,0.000431,0.035964
27368000,0.0324,0.013523,0.002678,0.000431,0.019392
27369000,0.0324,0.013523,0.002678,0.000431,0.048892
27370000,0.0324,0.013523,0.002678,0.000431,0.016807
27371000,0.0324,0.013523,0.002678,0.000431,0.015396
27372000,0.0324,0.013523,0.002678,0.000431,0.101427
27373000,0.0324,0.013523,0.002678,0.000431,0.013398
27374000,0.0324,0.013523,0.002678,0.000431,0.043485
27375000,0.0324,0.013523,0.002678,0.000431,0.005876
27376000,0.0324,0.013523,0.002678,0.000431,0.005759
27377000,0.0324,0.013523,0.002678,0.000431,0.005759
27378000,0.0324,0.013523,0.002678,0.000431,0.005876
27379000,0.0324,0.013523,0.002678,0.000431,0.027502
27380000,0.0324,0.013523,0.002678,0.000431,0.114943
27381000,0.0324,0.013523,0.002678,0.000431,0.010107
27382000,0.0324,0.013523,0.002678,0.000431,0.005876
27383000,0.0324,0.013523,0.002678,0.000431,0.058529
27384000,0.0324,0.013523,0.002678,0.000431,0.012811
27385000,0.0324,0.013523,0.002678,0.000431,0.040312
27386000,0.0324,0.013523,0.002678,0.000431,0.066874
27387000,0.0324,0.013523,0.002678,0.000431,0.008815
27388000,0.0324,0.013523,0.002678,0.000431,0.028442
27389000,0.0324,0.013523,0.002678,0.000431,0.005876
27390000,0.0324,0.013523,0.002678,0.000431,0.043720
27391000,0.0324,0.013523,0.002678,0.000431,0.013398
27392000,0.0324,0.013523,0.002678,0.000431,0.005876
27393000,0.0324,0.013523,0.002678,0.000431,0.035729
27394000,0.0324,0.013523,0.002678,0.000431,0.017159
27395000,0.0324,0.013523,0.002678,0.000431,0.093905
27396000,0.0324,0.013523,0.002678,0.000431,0.018452
27397000,0.0324,0.013523,0.002678,0.000431,0.037139
27398000,0.0324,0.013523,0.002678,0.000431,0.028207
27399000,0.0324,0.013523,0.002678,0.000431,0.039725
27400000,0.0324,0.013523,0.002678,0.000431,0.017159
27401000,0.0324,0.013523,0.002678,0.000431,0.058529
27402000,0.0324,0.013523,0.002678,0.000431,0.005876
27403000,0.0324,0.013523,0.002678,0.000431,0.005876
27404000,0.0324,0.013523,0.002678,0.000431,0.051007
27405000,0.0324,0.013523,0.002678,0.000431,0.013633
27406000,0.0324,0.013523,0.002678,0.000431,0.041017
27407000,0.0324,0.013523,0.002678,0.000431,0.008580
27408000,0.0324,0.013523,0.002678,0.000431,0.005641
27409000,0.0324,0.013523,0.002678,0.000431,0.005876
27410000,0.0324,0.013523,0.002678,0.000431,0.020920
27411000,0.0324,0.013523,0.002678,0.000431,0.005876
27412000,0.0324,0.013523,0.002678,0.000431,0.005876
27413000,0.0324,0.013523,0.002678,0.000431,0.024093
27414000,0.0324,0.013523,0.002678,0.000431,0.041252
27415000,0.0324,0.013523,0.002678,0.000431,0.072867
27416000,0.0324,0.013523,0.002678,0.000431,0.005759
27417000,0.0324,0.013523,0.002678,0.000431,0.005759
27418000,0.0324,0.013523,0.002678,0.000431,0.005876
27419000,0.0324,0.013523,0.002678,0.000431,0.013398
27420000,0.0324,0.013523,0.002678,0.000431,0.020920
27421000,0.0324,0.013523,0.002678,0.000431,0.005876
27422000,0.0324,0.013523,0.002678,0.000431,0.047129
27423000,0.0324,0.013523,0.002678,0.000431,0.017277
27424000,0.0324,0.013523,0.002678,0.000431,0.005876
27425000,0.0324,0.013523,0.002678,0.000431,0.005876
27426000,0.0324,0.013523,0.002678,0.000431,0.005876
27427000,0.0324,0.013523,0.002678,0.000431,0.018569
27428000,0.0324,0.013523,0.002678,0.000431,0.023271
27429000,0.0324,0.013523,0.002678,0.000431,0.035964
27430000,0.0324,0.013523,0.002678,0.000431,0.005876
27431000,0.0324,0.013523,0.002678,0.000431,0.005876
27432000,0.0324,0.013523,0.002678,0.000431,0.005876
27433000,0.0324,0.013523,0.002678,0.000431,0.035729
27434000,0.0324,0.013523,0.002678,0.000431,0.043485
27435000,0.0324,0.013523,0.002678,0.000431,0.028442
27436000,0.0324,0.013523,0.002678,0.000431,0.005876
27437000,0.0324,0.013523,0.002678,0.000431,0.005641
27438000,0.0324,0.013523,0.002678,0.000431,0.005876
27439000,0.0324,0.013523,0.002678,0.000431,0.028207
27440000,0.0324,0.013523,0.002678,0.000431,0.049362
27441000,0.0324,0.013523,0.002678,0.000431,0.007522
27442000,0.0324,0.013523,0.002678,0.000431,0.020920
27443000,0.0324,0.013523,0.002678,0.000431,0.005876
27444000,0.0324,0.013523,0.002678,0.000431,0.005876
27445000,0.0324,0.013523,0.002678,0.000431,0.005876
27446000,0.0324,0.013523,0.002678,0.000431,0.028442
27447000,0.0324,0.013523,0.002678,0.000431,0.051007
27448000,0.0324,0.013523,0.002678,0.000431,0.005641
27449000,0.0324,0.013523,0.002678,0.000431,0.005876
27450000,0.0324,0.013523,0.002678,0.000431,0.005876
27451000,0.0324,0.013523,0.002678,0.000431,0.005876
27452000,0.0324,0.013523,0.002678,0.000431,0.058882
27453000,0.0324,0.013523,0.002678,0.000431,0.116941
27454000,0.0324,0.013523,0.002678,0.000431,0.049479
27455000,0.0324,0.013523,0.002678,0.000431,0.091790
27456000,0.0324,0.013523,0.002678,0.000431,0.005876
27457000,0.0324,0.013523,0.002678,0.000431,0.005641
27458000,0.0324,0.013523,0.002678,0.000431,0.005876
27459000,0.0324,0.013523,0.002678,0.000431,0.036199
27460000,0.0324,0.013523,0.002678,0.000431,0.051007
27461000,0.0324,0.013523,0.002678,0.000431,0.005876
27462000,0.0324,0.013523,0.002678,0.000431,0.005759
27463000,0.0324,0.013523,0.002678,0.000431,0.005759
27464000,0.0324,0.013523,0.002678,0.000431,0.005876
27465000,0.0324,0.013523,0.002678,0.000431,0.058529
27466000,0.0324,0.013523,0.002678,0.000431,0.035964
27467000,0.0324,0.013523,0.002678,0.000431,0.013398
27468000,0.0324,0.013523,0.002678,0.000431,0.013398
27469000,0.0324,0.013523,0.002678,0.000431,0.005876
27470000,0.0324,0.013523,0.002678,0.000431,0.005876
27471000,0.0324,0.013523,0.002678,0.000431,0.018569
27472000,0.0324,0.013523,0.002678,0.000431,0.120819
27473000,0.0324,0.013523,0.002678,0.000431,0.028442
27474000,0.0324,0.013523,0.002678,0.000431,0.013398
27475000,0.0324,0.013523,0.002678,0.000431,0.005876
27476000,0.0324,0.013523,0.002678,0.000431,0.005876
27477000,0.0324,0.013523,0.002678,0.000431,0.005641
27478000,0.0324,0.013523,0.002678,0.000431,0.043720
27479000,0.0324,0.013523,0.002678,0.000431,0.020920
27480000,0.0324,0.013523,0.002678,0.000431,0.054063
27481000,0.0324,0.013523,0.002678,0.000431,0.047716
27482000,0.0324,0.013523,0.002678,0.000431,0.005876
27483000,0.0324,0.013523,0.002678,0.000431,0.005876
27484000,0.0324,0.013523,0.002678,0.000431,0.009637
27485000,0.0324,0.013523,0.002678,0.000431,0.009637
27486000,0.0324,0.013523,0.002678,0.000431,0.039019
27487000,0.0324,0.013523,0.002678,0.000431,0.025386
27488000,0.0324,0.013523,0.002678,0.000431,0.005876
27489000,0.0324,0.013523,0.002678,0.000431,0.005876
27490000,0.0324,0.013523,0.002678,0.000431,0.005876
27491000,0.0324,0.013523,0.002678,0.000431,0.118468
27492000,0.0324,0.013523,0.002678,0.000431,0.028442
27493000,0.0324,0.013523,0.002678,0.000431,0.072750
27494000,0.0324,0.013523,0.002678,0.000431,0.006699
27495000,0.0324,0.013523,0.002678,0.000431,0.005876
27496000,0.0324,0.013523,0.002678,0.000431,0.005876
27497000,0.0324,0.013523,0.002678,0.000431,0.013398
27498000,0.0324,0.013523,0.002678,0.000431,0.018334
27499000,0.0324,0.013523,0.002678,0.000431,0.015984
27500000,0.0324,0.013523,0.002678,0.000431,0.013398
27501000,0.0324,0.013523,0.002678,0.000431,0.005876
27502000,0.0324,0.013523,0.002678,0.000431,0.005876
27503000,0.0324,0.013523,0.002678,0.000431,0.005876
27504000,0.0324,0.013523,0.002678,0.000431,0.005876
27505000,0.0324,0.013523,0.002678,0.000431,0.013163
27506000,0.0324,0.013523,0.002678,0.000431,0.005641
27507000,0.0324,0.013523,0.002678,0.000431,0.051007
27508000,0.0324,0.013523,0.002678,0.000431,0.005876
27509000,0.0324,0.013523,0.002678,0.000431,0.005876
27510000,0.0324,0.013523,0.002678,0.000431,0.005641
27511000,0.0324,0.013523,0.002678,0.000431,0.058529
27512000,0.0324,0.013523,0.002678,0.000431,0.005876
27513000,0.0324,0.013523,0.002678,0.000431,0.049244
27514000,0.0324,0.013523,0.002678,0.000431,0.022683
27515000,0.0324,0.013523,0.002678,0.000431,0.005876
27516000,0.0324,0.013523,0.002678,0.000431,0.005876
27517000,0.0324,0.013523,0.002678,0.000431,0.047011
27518000,0.0324,0.013523,0.002678,0.000431,0.017159
27519000,0.0324,0.013523,0.002678,0.000431,0.047481
27520000,0.0324,0.013523,0.002678,0.000431,0.009637
27521000,0.0324,0.013523,0.002678,0.000431,0.005876
27522000,0.0324,0.013523,0.002678,0.000431,0.005876
27523000,0.0324,0.013523,0.002678,0.000431,0.005876
27524000,0.0324,0.013523,0.002678,0.000431,0.058764
27525000,0.0324,0.013523,0.002678,0.000431,0.046424
27526000,0.0324,0.013523,0.002678,0.000431,0.040782
27527000,0.0324,0.013523,0.002678,0.000431,0.005876
27528000,0.0324,0.013523,0.002678,0.000431,0.005876
27529000,0.0324,0.013523,0.002678,0.000431,0.005876
27530000,0.0324,0.013523,0.002678,0.000431,0.118468
27531000,0.0324,0.013523,0.002678,0.000431,0.058529
27532000,0.0324,0.013523,0.002678,0.000431,0.043485
27533000,0.0324,0.013523,0.002678,0.000431,0.005876
27534000,0.0324,0.013523,0.002678,0.000431,0.005876
27535000,0.0324,0.013523,0.002678,0.000431,0.005876
27536000,0.0324,0.013523,0.002678,0.000431,0.005876
27537000,0.0324,0.013523,0.002678,0.000431,0.173354
27538000,0.0324,0.013523,0.002678,0.000431,0.049127
27539000,0.0324,0.013523,0.002678,0.000431,0.013751
27540000,0.0324,0.013523,0.002678,0.000431,0.005876
27541000,0.0324,0.013523,0.002678,0.000431,0.005876
27542000,0.0324,0.013523,0.002678,0.000431,0.005876
27543000,0.0324,0.013523,0.002678,0.000431,0.022330
27544000,0.0324,0.013523,0.002678,0.000431,0.019157
27545000,0.0324,0.013523,0.002678,0.000431,0.020802
27546000,0.0324,0.013523,0.002678,0.000431,0.005641
27547000,0.0324,0.013523,0.002678,0.000431,0.005876
27548000,0.0324,0.013523,0.002678,0.000431,0.005876
27549000,0.0324,0.013523,0.002678,0.000431,0.007639
27550000,0.0324,0.013523,0.002678,0.000431,0.132454
27551000,0.0324,0.013523,0.002678,0.000431,0.020920
27552000,0.0324,0.013523,0.002678,0.000431,0.005759
27553000,0.0324,0.013523,0.002678,0.000431,0.005759
27554000,0.0324,0.013523,0.002678,0.000431,0.005876
27555000,0.0324,0.013523,0.002678,0.000431,0.005876
27556000,0.0324,0.013523,0.002678,0.000431,0.058764
27557000,0.0324,0.013523,0.002678,0.000431,0.005641
27558000,0.0324,0.013523,0.002678,0.000431,0.013398
27559000,0.0324,0.013523,0.002678,0.000431,0.005876
27560000,0.0324,0.013523,0.002678,0.000431,0.005876
27561000,0.0324,0.013523,0.002678,0.000431,0.005641
27562000,0.0324,0.013523,0.002678,0.000431,0.062525
27563000,0.0324,0.013523,0.002678,0.000431,0.077569
27564000,0.0324,0.013523,0.002678,0.000431,0.020920
27565000,0.0324,0.013523,0.002678,0.000431,0.005876
27566000,0.0324,0.013523,0.002678,0.000431,0.005876
27567000,0.0324,0.013523,0.002678,0.000431,0.005876
27568000,0.0324,0.013523,0.002678,0.000431,0.005876
27569000,0.0324,0.013523,0.002678,0.000431,0.036551
27570000,0.0324,0.013523,0.002678,0.000431,0.012811
27571000,0.0324,0.013523,0.002678,0.000431,0.005876
27572000,0.0324,0.013523,0.002678,0.000431,0.005876
27573000,0.0324,0.013523,0.002678,0.000431,0.005876
27574000,0.0324,0.013523,0.002678,0.000431,0.009637
27575000,0.0324,0.013523,0.002678,0.000431,0.009637
27576000,0.0324,0.013523,0.002678,0.000431,0.051242
27577000,0.0324,0.013523,0.002678,0.000431,0.020685
27578000,0.0324,0.013523,0.002678,0.000431,0.005876
27579000,0.0324,0.013523,0.002678,0.000431,0.005876
27580000,0.0324,0.013523,0.002678,0.000431,0.005876
27581000,0.0324,0.013523,0.002678,0.000431,0.005876
27582000,0.0324,0.013523,0.002678,0.000431,0.028442
27583000,0.0324,0.013523,0.002678,0.000431,0.026091
27584000,0.0324,0.013523,0.002678,0.000431,0.030557
27585000,0.0324,0.013523,0.002678,0.000431,0.005641
27586000,0.0324,0.013523,0.002678,0.000431,0.005876
27587000,0.0324,0.013523,0.002678,0.000431,0.069342
27588000,0.0324,0.013523,0.002678,0.000431,0.021390
27589000,0.0324,0.013523,0.002678,0.000431,0.009637
27590000,0.0324,0.013523,0.002678,0.000431,0.088616
27591000,0.0324,0.013523,0.002678,0.000431,0.005876
27592000,0.0324,0.013523,0.002678,0.000431,0.005876
27593000,0.0324,0.013523,0.002678,0.000431,0.005876
27594000,0.0324,0.013523,0.002678,0.000431,0.096373
27595000,0.0324,0.013523,0.002678,0.000431,0.164304
27596000,0.0324,0.013523,0.002678,0.000431,0.024798
27597000,0.0324,0.013523,0.002678,0.000431,0.024798
27598000,0.0324,0.013523,0.002678,0.000431,0.005876
27599000,0.0324,0.013523,0.002678,0.000431,0.005876
27600000,0.0324,0.013523,0.002678,0.000431,0.005876
27601000,0.0324,0.013523,0.002678,0.000431,0.074865
27602000,0.0324,0.013523,0.002678,0.000431,0.049479
27603000,0.0324,0.013523,0.002678,0.000431,0.005876
27604000,0.0324,0.013523,0.002678,0.000431,0.005876
27605000,0.0324,0.013523,0.002678,0.000431,0.005876
27606000,0.0324,0.013523,0.002678,0.000431,0.005876
27607000,0.0324,0.013523,0.002678,0.000431,0.005876
27608000,0.0324,0.013523,0.002678,0.000431,0.043485
27609000,0.0324,0.013523,0.002678,0.000431,0.005876
27610000,0.0324,0.013523,0.002678,0.000431,0.005876
27611000,0.0324,0.013523,0.002678,0.000431,0.005876
27612000,0.0324,0.013523,0.002678,0.000431,0.005876
27613000,0.0324,0.013523,0.002678,0.000431,0.036199
27614000,0.0324,0.013523,0.002678,0.000431,0.032203
27615000,0.0324,0.013523,0.002678,0.000431,0.032203
27616000,0.0324,0.013523,0.002678,0.000431,0.005876
27617000,0.0324,0.013523,0.002678,0.000431,0.005641
27618000,0.0324,0.013523,0.002678,0.000431,0.005876
27619000,0.0324,0.013523,0.002678,0.000431,0.005876
27620000,0.0324,0.013523,0.002678,0.000431,0.005641
27621000,0.0324,0.013523,0.002678,0.000431,0.103660
27622000,0.0324,0.013523,0.002678,0.000431,0.020920
27623000,0.0324,0.013523,0.002678,0.000431,0.005876
27624000,0.0324,0.013523,0.002678,0.000431,0.005876
27625000,0.0324,0.013523,0.002678,0.000431,0.005641
27626000,0.0324,0.013523,0.002678,0.000431,0.005876
27627000,0.0324,0.013523,0.002678,0.000431,0.035964
27628000,0.0324,0.013523,0.002678,0.000431,0.034083
27629000,0.0324,0.013523,0.002678,0.000431,0.007757
27630000,0.0324,0.013523,0.002678,0.000431,0.005641
27631000,0.0324,0.013523,0.002678,0.000431,0.005876
27632000,0.0324,0.013523,0.002678,0.000431,0.028442
27633000,0.0324,0.013523,0.002678,0.000431,0.013398
27634000,0.0324,0.013523,0.002678,0.000431,0.013398
27635000,0.0324,0.013523,0.002678,0.000431,0.059939
27636000,0.0324,0.013523,0.002678,0.000431,0.049597
27637000,0.0324,0.013523,0.002678,0.000431,0.005876
27638000,0.0324,0.013523,0.002678,0.000431,0.005876
27639000,0.0324,0.013523,0.002678,0.000431,0.035964
27640000,0.0324,0.013523,0.002678,0.000431,0.043485
27641000,0.0324,0.013523,0.002678,0.000431,0.013281
27642000,0.0324,0.013523,0.002678,0.000431,0.005759
27643000,0.0324,0.013523,0.002678,0.000431,0.005876
27644000,0.0324,0.013523,0.002678,0.000431,0.075806
27645000,0.0324,0.013523,0.002678,0.000431,0.010930
27646000,0.0324,0.013523,0.002678,0.000431,0.062525
27647000,0.0324,0.013523,0.002678,0.000431,0.017159
27648000,0.0324,0.013523,0.002678,0.000431,0.058529
27649000,0.0324,0.013523,0.002678,0.000431,0.005876
27650000,0.0324,0.013523,0.002678,0.000431,0.035964
27651000,0.0324,0.013523,0.002678,0.000431,0.005876
27652000,0.0324,0.013523,0.002678,0.000431,0.013163
27653000,0.0324,0.013523,0.002678,0.000431,0.066286
27654000,0.0324,0.013523,0.002678,0.000431,0.014809
27655000,0.0324,0.013523,0.002678,0.000431,0.071927
27656000,0.0324,0.013523,0.002678,0.000431,0.013398
27657000,0.0324,0.013523,0.002678,0.000431,0.005759
27658000,0.0324,0.013523,0.002678,0.000431,0.005759
27659000,0.0324,0.013523,0.002678,0.000431,0.102837
27660000,0.0324,0.013523,0.002678,0.000431,0.055591
27661000,0.0324,0.013523,0.002678,0.000431,0.017159
27662000,0.0324,0.013523,0.002678,0.000431,0.005876
27663000,0.0324,0.013523,0.002678,0.000431,0.035964
27664000,0.0324,0.013523,0.002678,0.000431,0.005876
27665000,0.0324,0.013523,0.002678,0.000431,0.009402
27666000,0.0324,0.013523,0.002678,0.000431,0.062525
27667000,0.0324,0.013523,0.002678,0.000431,0.028442
27668000,0.0324,0.013523,0.002678,0.000431,0.005876
27669000,0.0324,0.013523,0.002678,0.000431,0.043720
27670000,0.0324,0.013523,0.002678,0.000431,0.005876
27671000,0.0324,0.013523,0.002678,0.000431,0.005876
27672000,0.0324,0.013523,0.002678,0.000431,0.005876
27673000,0.0324,0.013523,0.002678,0.000431,0.171591
27674000,0.0324,0.013523,0.002678,0.000431,0.081330
27675000,0.0324,0.013523,0.002678,0.000431,0.005641
27676000,0.0324,0.013523,0.002678,0.000431,0.020920
27677000,0.0324,0.013523,0.002678,0.000431,0.005641
27678000,0.0324,0.013523,0.002678,0.000431,0.005876
27679000,0.0324,0.013523,0.002678,0.000431,0.009637
27680000,0.0324,0.013523,0.002678,0.000431,0.009637
27681000,0.0324,0.013523,0.002678,0.000431,0.005876
27682000,0.0324,0.013523,0.002678,0.000431,0.028442
27683000,0.0324,0.013523,0.002678,0.000431,0.005876
27684000,0.0324,0.013523,0.002678,0.000431,0.005759
27685000,0.0324,0.013523,0.002678,0.000431,0.005759
27686000,0.0324,0.013523,0.002678,0.000431,0.073573
27687000,0.0324,0.013523,0.002678,0.000431,0.005876
27688000,0.0324,0.013523,0.002678,0.000431,0.017394
27689000,0.0324,0.013523,0.002678,0.000431,0.024211
27690000,0.0324,0.013523,0.002678,0.000431,0.005876
27691000,0.0324,0.013523,0.002678,0.000431,0.005876
27692000,0.0324,0.013523,0.002678,0.000431,0.043485
27693000,0.0324,0.013523,0.002678,0.000431,0.021155
27694000,0.0324,0.013523,0.002678,0.000431,0.005876
27695000,0.0324,0.013523,0.002678,0.000431,0.028442
27696000,0.0324,0.013523,0.002678,0.000431,0.005876
27697000,0.0324,0.013523,0.002678,0.000431,0.005876
27698000,0.0324,0.013523,0.002678,0.000431,0.005876
27699000,0.0324,0.013523,0.002678,0.000431,0.096138
27700000,0.0324,0.013523,0.002678,0.000431,0.005876
27701000,0.0324,0.013523,0.002678,0.000431,0.021508
27702000,0.0324,0.013523,0.002678,0.000431,0.012811
27703000,0.0324,0.013523,0.002678,0.000431,0.005876
27704000,0.0324,0.013523,0.002678,0.000431,0.005876
27705000,0.0324,0.013523,0.002678,0.000431,0.027502
27706000,0.0324,0.013523,0.002678,0.000431,0.044191
27707000,0.0324,0.013523,0.002678,0.000431,0.005876
27708000,0.0324,0.013523,0.002678,0.000431,0.013398
27709000,0.0324,0.013523,0.002678,0.000431,0.005876
27710000,0.0324,0.013523,0.002678,0.000431,0.005876
27711000,0.0324,0.013523,0.002678,0.000431,0.016807
27712000,0.0324,0.013523,0.002678,0.000431,0.077686
27713000,0.0324,0.013523,0.002678,0.000431,0.005876
27714000,0.0324,0.013523,0.002678,0.000431,0.020920
27715000,0.0324,0.013523,0.002678,0.000431,0.005641
27716000,0.0324,0.013523,0.002678,0.000431,0.005876
27717000,0.0324,0.013523,0.002678,0.000431,0.021978
27718000,0.0324,0.013523,0.002678,0.000431,0.136450
27719000,0.0324,0.013523,0.002678,0.000431,0.017159
27720000,0.0324,0.013523,0.002678,0.000431,0.005876
27721000,0.0324,0.013523,0.002678,0.000431,0.005876
27722000,0.0324,0.013523,0.002678,0.000431,0.005876
27723000,0.0324,0.013523,0.002678,0.000431,0.005876
27724000,0.0324,0.013523,0.002678,0.000431,0.050890
27725000,0.0324,0.013523,0.002678,0.000431,0.028324
27726000,0.0324,0.013523,0.002678,0.000431,0.028442
27727000,0.0324,0.013523,0.002678,0.000431,0.020920
27728000,0.0324,0.013523,0.002678,0.000431,0.005759
27729000,0.0324,0.013523,0.002678,0.000431,0.005759
27730000,0.0324,0.013523,0.002678,0.000431,0.051007
27731000,0.0324,0.013523,0.002678,0.000431,0.035964
27732000,0.0324,0.013523,0.002678,0.000431,0.005876
27733000,0.0324,0.013523,0.002678,0.000431,0.013398
27734000,0.0324,0.013523,0.002678,0.000431,0.013398
27735000,0.0324,0.013523,0.002678,0.000431,0.005876
27736000,0.0324,0.013523,0.002678,0.000431,0.028442
27737000,0.0324,0.013523,0.002678,0.000431,0.096726
27738000,0.0324,0.013523,0.002678,0.000431,0.016571
27739000,0.0324,0.013523,0.002678,0.000431,0.084620
27740000,0.0324,0.013523,0.002678,0.000431,0.066051
27741000,0.0324,0.013523,0.002678,0.000431,0.005876
27742000,0.0324,0.013523,0.002678,0.000431,0.005876
27743000,0.0324,0.013523,0.002678,0.000431,0.013163
27744000,0.0324,0.013523,0.002678,0.000431,0.005876
27745000,0.0324,0.013523,0.002678,0.000431,0.051007
27746000,0.0324,0.013523,0.002678,0.000431,0.027031
27747000,0.0324,0.013523,0.002678,0.000431,0.134687
27748000,0.0324,0.013523,0.002678,0.000431,0.005876
27749000,0.0324,0.013523,0.002678,0.000431,0.013633
27750000,0.0324,0.013523,0.002678,0.000431,0.036434
27751000,0.0324,0.013523,0.002678,0.000431,0.043015
27752000,0.0324,0.013523,0.002678,0.000431,0.103425
27753000,0.0324,0.013523,0.002678,0.000431,0.009637
27754000,0.0324,0.013523,0.002678,0.000431,0.017159
27755000,0.0324,0.013523,0.002678,0.000431,0.030910
27756000,0.0324,0.013523,0.002678,0.000431,0.063348
27757000,0.0324,0.013523,0.002678,0.000431,0.009755
27758000,0.0324,0.013523,0.002678,0.000431,0.081094
27759000,0.0324,0.013523,0.002678,0.000431,0.032085
27760000,0.0324,0.013523,0.002678,0.000431,0.005876
27761000,0.0324,0.013523,0.002678,0.000431,0.005876
27762000,0.0324,0.013523,0.002678,0.000431,0.013398
27763000,0.0324,0.013523,0.002678,0.000431,0.028442
27764000,0.0324,0.013523,0.002678,0.000431,0.006111
27765000,0.0324,0.013523,0.002678,0.000431,0.005759
27766000,0.0324,0.013523,0.002678,0.000431,0.005524
27767000,0.0324,0.013523,0.002678,0.000431,0.005876
27768000,0.0324,0.013523,0.002678,0.000431,0.019745
27769000,0.0324,0.013523,0.002678,0.000431,0.060997
27770000,0.0324,0.013523,0.002678,0.000431,0.024916
27771000,0.0324,0.013523,0.002678,0.000431,0.015631
27772000,0.0324,0.013523,0.002678,0.000431,0.005876
27773000,0.0324,0.013523,0.002678,0.000431,0.020920
27774000,0.0324,0.013523,0.002678,0.000431,0.005876
27775000,0.0324,0.013523,0.002678,0.000431,0.020920
27776000,0.0324,0.013523,0.002678,0.000431,0.005876
27777000,0.0324,0.013523,0.002678,0.000431,0.020920
27778000,0.0324,0.013523,0.002678,0.000431,0.005876
27779000,0.0324,0.013523,0.002678,0.000431,0.020920
27780000,0.0324,0.013523,0.002678,0.000431,0.005641
27781000,0.0324,0.013523,0.002678,0.000431,0.058529
27782000,0.0324,0.013523,0.002678,0.000431,0.082505
27783000,0.0324,0.013523,0.002678,0.000431,0.030557
27784000,0.0324,0.013523,0.002678,0.000431,0.033378
27785000,0.0324,0.013523,0.002678,0.000431,0.015866
27786000,0.0324,0.013523,0.002678,0.000431,0.017042
27787000,0.0324,0.013523,0.002678,0.000431,0.005876
27788000,0.0324,0.013523,0.002678,0.000431,0.028442
27789000,0.0324,0.013523,0.002678,0.000431,0.028442
27790000,0.0324,0.013523,0.002678,0.000431,0.020920
27791000,0.0324,0.013523,0.002678,0.000431,0.028442
27792000,0.0324,0.013523,0.002678,0.000431,0.020920
27793000,0.0324,0.013523,0.002678,0.000431,0.005876
27794000,0.0324,0.013523,0.002678,0.000431,0.035729
27795000,0.0324,0.013523,0.002678,0.000431,0.005876
27796000,0.0324,0.013523,0.002678,0.000431,0.005876
27797000,0.0324,0.013523,0.002678,0.000431,0.028442
27798000,0.0324,0.013523,0.002678,0.000431,0.005876
27799000,0.0324,0.013523,0.002678,0.000431,0.005876
27800000,0.0324,0.013523,0.002678,0.000431,0.005876
27801000,0.0324,0.013523,0.002678,0.000431,0.013398
27802000,0.0324,0.013523,0.002678,0.000431,0.013398
27803000,0.0324,0.013523,0.002678,0.000431,0.145852
27804000,0.0324,0.013523,0.002678,0.000431,0.038667
27805000,0.0324,0.013523,0.002678,0.000431,0.111652
27806000,0.0324,0.013523,0.002678,0.000431,0.005876
27807000,0.0324,0.013523,0.002678,0.000431,0.005876
27808000,0.0324,0.013523,0.002678,0.000431,0.020920
27809000,0.0324,0.013523,0.002678,0.000431,0.005876
27810000,0.0324,0.013523,0.002678,0.000431,0.005876
27811000,0.0324,0.013523,0.002678,0.000431,0.020920
27812000,0.0324,0.013523,0.002678,0.000431,0.005876
27813000,0.0324,0.013523,0.002678,0.000431,0.016924
27814000,0.0324,0.013523,0.002678,0.000431,0.013633
27815000,0.0324,0.013523,0.002678,0.000431,0.009637
27816000,0.0324,0.013523,0.002678,0.000431,0.072045
27817000,0.0324,0.013523,0.002678,0.000431,0.007639
27818000,0.0324,0.013523,0.002678,0.000431,0.043485
27819000,0.0324,0.013523,0.002678,0.000431,0.005876
27820000,0.0324,0.013523,0.002678,0.000431,0.013398
27821000,0.0324,0.013523,0.002678,0.000431,0.058529
27822000,0.0324,0.013523,0.002678,0.000431,0.024798
27823000,0.0324,0.013523,0.002678,0.000431,0.017042
27824000,0.0324,0.013523,0.002678,0.000431,0.020920
27825000,0.0324,0.013523,0.002678,0.000431,0.005876
27826000,0.0324,0.013523,0.002678,0.000431,0.020450
27827000,0.0324,0.013523,0.002678,0.000431,0.021273
27828000,0.0324,0.013523,0.002678,0.000431,0.013046
27829000,0.0324,0.013523,0.002678,0.000431,0.050772
27830000,0.0324,0.013523,0.002678,0.000431,0.005876
27831000,0.0324,0.013523,0.002678,0.000431,0.005876
27832000,0.0324,0.013523,0.002678,0.000431,0.005876
27833000,0.0324,0.013523,0.002678,0.000431,0.035964
27834000,0.0324,0.013523,0.002678,0.000431,0.005759
27835000,0.0324,0.013523,0.002678,0.000431,0.080742
27836000,0.0324,0.013523,0.002678,0.000431,0.005876
27837000,0.0324,0.013523,0.002678,0.000431,0.051007
27838000,0.0324,0.013523,0.002678,0.000431,0.005876
27839000,0.0324,0.013523,0.002678,0.000431,0.024916
27840000,0.0324,0.013523,0.002678,0.000431,0.088851
27841000,0.0324,0.013523,0.002678,0.000431,0.062643
27842000,0.0324,0.013523,0.002678,0.000431,0.103777
27843000,0.0324,0.013523,0.002678,0.000431,0.018805
27844000,0.0324,0.013523,0.002678,0.000431,0.030322
27845000,0.0324,0.013523,0.002678,0.000431,0.009755
27846000,0.0324,0.013523,0.002678,0.000431,0.009755
27847000,0.0324,0.013523,0.002678,0.000431,0.005876
27848000,0.0324,0.013523,0.002678,0.000431,0.081094
27849000,0.0324,0.013523,0.002678,0.000431,0.005876
27850000,0.0324,0.013523,0.002678,0.000431,0.005876
27851000,0.0324,0.013523,0.002678,0.000431,0.005876
27852000,0.0324,0.013523,0.002678,0.000431,0.005876
27853000,0.0324,0.013523,0.002678,0.000431,0.020920
27854000,0.0324,0.013523,0.002678,0.000431,0.026326
27855000,0.0324,0.013523,0.002678,0.000431,0.008227
27856000,0.0324,0.013523,0.002678,0.000431,0.034553
27857000,0.0324,0.013523,0.002678,0.000431,0.022800
27858000,0.0324,0.013523,0.002678,0.000431,0.017629
27859000,0.0324,0.013523,0.002678,0.000431,0.012928
27860000,0.0324,0.013523,0.002678,0.000431,0.009637
27861000,0.0324,0.013523,0.002678,0.000431,0.020920
27862000,0.0324,0.013523,0.002678,0.000431,0.005876
27863000,0.0324,0.013523,0.002678,0.000431,0.058529
27864000,0.0324,0.013523,0.002678,0.000431,0.005876
27865000,0.0324,0.013523,0.002678,0.000431,0.020920
27866000,0.0324,0.013523,0.002678,0.000431,0.020802
27867000,0.0324,0.013523,0.002678,0.000431,0.005876
27868000,0.0324,0.013523,0.002678,0.000431,0.028324
27869000,0.0324,0.013523,0.002678,0.000431,0.020685
27870000,0.0324,0.013523,0.002678,0.000431,0.005876
27871000,0.0324,0.013523,0.002678,0.000431,0.065816
27872000,0.0324,0.013523,0.002678,0.000431,0.108596
27873000,0.0324,0.013523,0.002678,0.000431,0.033143
27874000,0.0324,0.013523,0.002678,0.000431,0.034083
27875000,0.0324,0.013523,0.002678,0.000431,0.005876
27876000,0.0324,0.013523,0.002678,0.000431,0.005876
27877000,0.0324,0.013523,0.002678,0.000431,0.005759
27878000,0.0324,0.013523,0.002678,0.000431,0.020802
27879000,0.0324,0.013523,0.002678,0.000431,0.028442
27880000,0.0324,0.013523,0.002678,0.000431,0.028442
27881000,0.0324,0.013523,0.002678,0.000431,0.005876
27882000,0.0324,0.013523,0.002678,0.000431,0.035964
27883000,0.0324,0.013523,0.002678,0.000431,0.005876
27884000,0.0324,0.013523,0.002678,0.000431,0.005876
27885000,0.0324,0.013523,0.002678,0.000431,0.005876
27886000,0.0324,0.013523,0.002678,0.000431,0.005876
27887000,0.0324,0.013523,0.002678,0.000431,0.013398
27888000,0.0324,0.013523,0.002678,0.000431,0.005876
27889000,0.0324,0.013523,0.002678,0.000431,0.005876
27890000,0.0324,0.013523,0.002678,0.000431,0.014573
27891000,0.0324,0.013523,0.002678,0.000431,0.079684
27892000,0.0324,0.013523,0.002678,0.000431,0.088616
27893000,0.0324,0.013523,0.002678,0.000431,0.065933
27894000,0.0324,0.013523,0.002678,0.000431,0.005759
27895000,0.0324,0.013523,0.002678,0.000431,0.051007
27896000,0.0324,0.013523,0.002678,0.000431,0.005876
27897000,0.0324,0.013523,0.002678,0.000431,0.005876
27898000,0.0324,0.013523,0.002678,0.000431,0.020920
27899000,0.0324,0.013523,0.002678,0.000431,0.020920
27900000,0.0324,0.013523,0.002678,0.000431,0.013398
27901000,0.0324,0.013523,0.002678,0.000431,0.031380
27902000,0.0324,0.013523,0.002678,0.000431,0.062878
27903000,0.0324,0.013523,0.002678,0.000431,0.009637
27904000,0.0324,0.013523,0.002678,0.000431,0.010342
27905000,0.0324,0.013523,0.002678,0.000431,0.027737
27906000,0.0324,0.013523,0.002678,0.000431,0.110712
27907000,0.0324,0.013523,0.002678,0.000431,0.005876
27908000,0.0324,0.013523,0.002678,0.000431,0.013398
27909000,0.0324,0.013523,0.002678,0.000431,0.005876
27910000,0.0324,0.013523,0.002678,0.000431,0.013398
27911000,0.0324,0.013523,0.002678,0.000431,0.020920
27912000,0.0324,0.013523,0.002678,0.000431,0.015749
27913000,0.0324,0.013523,0.002678,0.000431,0.025856
27914000,0.0324,0.013523,0.002678,0.000431,0.013398
27915000,0.0324,0.013523,0.002678,0.000431,0.005876
27916000,0.0324,0.013523,0.002678,0.000431,0.023623
27917000,0.0324,0.013523,0.002678,0.000431,0.014456
27918000,0.0324,0.013523,0.002678,0.000431,0.009637
27919000,0.0324,0.013523,0.002678,0.000431,0.073573
27920000,0.0324,0.013523,0.002678,0.000431,0.005876
27921000,0.0324,0.013523,0.002678,0.000431,0.028442
27922000,0.0324,0.013523,0.002678,0.000431,0.005876
27923000,0.0324,0.013523,0.002678,0.000431,0.005876
27924000,0.0324,0.013523,0.002678,0.000431,0.066051
27925000,0.0324,0.013523,0.002678,0.000431,0.005876
27926000,0.0324,0.013523,0.002678,0.000431,0.005876
27927000,0.0324,0.013523,0.002678,0.000431,0.020920
27928000,0.0324,0.013523,0.002678,0.000431,0.005876
27929000,0.0324,0.013523,0.002678,0.000431,0.028442
27930000,0.0324,0.013523,0.002678,0.000431,0.044896
27931000,0.0324,0.013523,0.002678,0.000431,0.034318
27932000,0.0324,0.013523,0.002678,0.000431,0.088616
27933000,0.0324,0.013523,0.002678,0.000431,0.005876
27934000,0.0324,0.013523,0.002678,0.000431,0.065581
27935000,0.0324,0.013523,0.002678,0.000431,0.005641
27936000,0.0324,0.013523,0.002678,0.000431,0.005876
27937000,0.0324,0.013523,0.002678,0.000431,0.013398
27938000,0.0324,0.013523,0.002678,0.000431,0.089086
27939000,0.0324,0.013523,0.002678,0.000431,0.005876
27940000,0.0324,0.013523,0.002678,0.000431,0.013398
27941000,0.0324,0.013523,0.002678,0.000431,0.005876
27942000,0.0324,0.013523,0.002678,0.000431,0.088499
27943000,0.0324,0.013523,0.002678,0.000431,0.013986
27944000,0.0324,0.013523,0.002678,0.000431,0.005876
27945000,0.0324,0.013523,0.002678,0.000431,0.013398
27946000,0.0324,0.013523,0.002678,0.000431,0.005876
27947000,0.0324,0.013523,0.002678,0.000431,0.005876
27948000,0.0324,0.013523,0.002678,0.000431,0.005876
27949000,0.0324,0.013523,0.002678,0.000431,0.005876
27950000,0.0324,0.013523,0.002678,0.000431,0.005876
27951000,0.0324,0.013523,0.002678,0.000431,0.021155
27952000,0.0324,0.013523,0.002678,0.000431,0.035846
27953000,0.0324,0.013523,0.002678,0.000431,0.005759
27954000,0.0324,0.013523,0.002678,0.000431,0.005876
27955000,0.0324,0.013523,0.002678,0.000431,0.020920
27956000,0.0324,0.013523,0.002678,0.000431,0.013398
27957000,0.0324,0.013523,0.002678,0.000431,0.020802
27958000,0.0324,0.013523,0.002678,0.000431,0.110829
27959000,0.0324,0.013523,0.002678,0.000431,0.005876
27960000,0.0324,0.013523,0.002678,0.000431,0.005641
27961000,0.0324,0.013523,0.002678,0.000431,0.009872
27962000,0.0324,0.013523,0.002678,0.000431,0.080859
27963000,0.0324,0.013523,0.002678,0.000431,0.024681
27964000,0.0324,0.013523,0.002678,0.000431,0.020920
27965000,0.0324,0.013523,0.002678,0.000431,0.020920
27966000,0.0324,0.013523,0.002678,0.000431,0.005876
27967000,0.0324,0.013523,0.002678,0.000431,0.005876
27968000,0.0324,0.013523,0.002678,0.000431,0.013163
27969000,0.0324,0.013523,0.002678,0.000431,0.005876
27970000,0.0324,0.013523,0.002678,0.000431,0.005876
27971000,0.0324,0.013523,0.002678,0.000431,0.028442
27972000,0.0324,0.013523,0.002678,0.000431,0.005876
27973000,0.0324,0.013523,0.002678,0.000431,0.005876
27974000,0.0324,0.013523,0.002678,0.000431,0.005641
27975000,0.0324,0.013523,0.002678,0.000431,0.027972
27976000,0.0324,0.013523,0.002678,0.000431,0.081565
27977000,0.0324,0.013523,0.002678,0.000431,0.051007
27978000,0.0324,0.013523,0.002678,0.000431,0.035964
27979000,0.0324,0.013523,0.002678,0.000431,0.005876
27980000,0.0324,0.013523,0.002678,0.000431,0.005876
27981000,0.0324,0.013523,0.002678,0.000431,0.013398
27982000,0.0324,0.013523,0.002678,0.000431,0.005876
27983000,0.0324,0.013523,0.002678,0.000431,0.022800
27984000,0.0324,0.013523,0.002678,0.000431,0.034083
27985000,0.0324,0.013523,0.002678,0.000431,0.005876
27986000,0.0324,0.013523,0.002678,0.000431,0.005876
27987000,0.0324,0.013523,0.002678,0.000431,0.005876
27988000,0.0324,0.013523,0.002678,0.000431,0.005876
27989000,0.0324,0.013523,0.002678,0.000431,0.015044
27990000,0.0324,0.013523,0.002678,0.000431,0.130926
27991000,0.0324,0.013523,0.002678,0.000431,0.037139
27992000,0.0324,0.013523,0.002678,0.000431,0.005759
27993000,0.0324,0.013523,0.002678,0.000431,0.005759
27994000,0.0324,0.013523,0.002678,0.000431,0.013398
27995000,0.0324,0.013523,0.002678,0.000431,0.005876
27996000,0.0324,0.013523,0.002678,0.000431,0.041840
27997000,0.0324,0.013523,0.002678,0.000431,0.090027
27998000,0.0324,0.013523,0.002678,0.000431,0.005876
27999000,0.0324,0.013523,0.002678,0.000431,0.005876
