Cycle,Area(mm^2),PeakDynamic(W),SubthresholdLeakage(W),GateLeakage(W),RunTimeDynamic(W)
5000000,0.0324,0.013523,0.002678,0.000431,0.324495
5001000,0.0324,0.013523,0.002678,0.000431,0.192511
5002000,0.0324,0.013523,0.002678,0.000431,0.135628
5003000,0.0324,0.013523,0.002678,0.000431,0.126343
5004000,0.0324,0.013523,0.002678,0.000431,0.085796
5005000,0.0324,0.013523,0.002678,0.000431,0.062878
5006000,0.0324,0.013523,0.002678,0.000431,0.060880
5007000,0.0324,0.013523,0.002678,0.000431,0.048304
5008000,0.0324,0.013523,0.002678,0.000431,0.030675
5009000,0.0324,0.013523,0.002678,0.000431,0.031145
5010000,0.0324,0.013523,0.002678,0.000431,0.023036
5011000,0.0324,0.013523,0.002678,0.000431,0.016689
5012000,0.0324,0.013523,0.002678,0.000431,0.017512
5013000,0.0324,0.013523,0.002678,0.000431,0.007992
5014000,0.0324,0.013523,0.002678,0.000431,0.008815
5015000,0.0324,0.013523,0.002678,0.000431,0.005289
5016000,0.0324,0.013523,0.002678,0.000431,0.005289
5017000,0.0324,0.013523,0.002678,0.000431,0.005171
5018000,0.0324,0.013523,0.002678,0.000431,0.005289
5019000,0.0324,0.013523,0.002678,0.000431,0.005054
5020000,0.0324,0.013523,0.002678,0.000431,0.006582
5021000,0.0324,0.013523,0.002678,0.000431,0.007874
5022000,0.0324,0.013523,0.002678,0.000431,0.003408
5023000,0.0324,0.013523,0.002678,0.000431,0.003408
5024000,0.0324,0.013523,0.002678,0.000431,0.004113
5025000,0.0324,0.013523,0.002678,0.000431,0.000940
5026000,0.0324,0.013523,0.002678,0.000431,0.000940
5027000,0.0324,0.013523,0.002678,0.000431,0.000823
5028000,0.0324,0.013523,0.002678,0.000431,0.000823
5029000,0.0324,0.013523,0.002678,0.000431,0.000823
5030000,0.0324,0.013523,0.002678,0.000431,0.000823
5031000,0.0324,0.013523,0.002678,0.000431,0.000823
5032000,0.0324,0.013523,0.002678,0.000431,0.000823
5033000,0.0324,0.013523,0.002678,0.000431,0.000940
5034000,0.0324,0.013523,0.002678,0.000431,0.000823
5035000,0.0324,0.013523,0.002678,0.000431,0.000823
5036000,0.0324,0.013523,0.002678,0.000431,0.000705
5037000,0.0324,0.013523,0.002678,0.000431,0.000940
5038000,0.0324,0.013523,0.002678,0.000431,0.000940
5039000,0.0324,0.013523,0.002678,0.000431,0.000940
5040000,0.0324,0.013523,0.002678,0.000431,0.000705
5041000,0.0324,0.013523,0.002678,0.000431,0.000940
5042000,0.0324,0.013523,0.002678,0.000431,0.000940
5043000,0.0324,0.013523,0.002678,0.000431,0.000823
5044000,0.0324,0.013523,0.002678,0.000431,0.000823
5045000,0.0324,0.013523,0.002678,0.000431,0.000940
5046000,0.0324,0.013523,0.002678,0.000431,0.000940
5047000,0.0324,0.013523,0.002678,0.000431,0.000823
5048000,0.0324,0.013523,0.002678,0.000431,0.000823
5049000,0.0324,0.013523,0.002678,0.000431,0.000940
5050000,0.0324,0.013523,0.002678,0.000431,0.000823
5051000,0.0324,0.013523,0.002678,0.000431,0.000940
5052000,0.0324,0.013523,0.002678,0.000431,0.000823
5053000,0.0324,0.013523,0.002678,0.000431,0.000823
5054000,0.0324,0.013523,0.002678,0.000431,0.000823
5055000,0.0324,0.013523,0.002678,0.000431,0.000823
5056000,0.0324,0.013523,0.002678,0.000431,0.000823
5057000,0.0324,0.013523,0.002678,0.000431,0.000940
5058000,0.0324,0.013523,0.002678,0.000431,0.000705
5059000,0.0324,0.013523,0.002678,0.000431,0.000823
5060000,0.0324,0.013523,0.002678,0.000431,0.000940
5061000,0.0324,0.013523,0.002678,0.000431,0.000823
5062000,0.0324,0.013523,0.002678,0.000431,0.000940
5063000,0.0324,0.013523,0.002678,0.000431,0.000823
5064000,0.0324,0.013523,0.002678,0.000431,0.000823
5065000,0.0324,0.013523,0.002678,0.000431,0.000940
5066000,0.0324,0.013523,0.002678,0.000431,0.000940
5067000,0.0324,0.013523,0.002678,0.000431,0.000940
5068000,0.0324,0.013523,0.002678,0.000431,0.000705
5069000,0.0324,0.013523,0.002678,0.000431,0.000940
5070000,0.0324,0.013523,0.002678,0.000431,0.000823
5071000,0.0324,0.013523,0.002678,0.000431,0.000823
5072000,0.0324,0.013523,0.002678,0.000431,0.000940
5073000,0.0324,0.013523,0.002678,0.000431,0.000705
5074000,0.0324,0.013523,0.002678,0.000431,0.000940
5075000,0.0324,0.013523,0.002678,0.000431,0.000823
5076000,0.0324,0.013523,0.002678,0.000431,0.000823
5077000,0.0324,0.013523,0.002678,0.000431,0.000823
5078000,0.0324,0.013523,0.002678,0.000431,0.000823
5079000,0.0324,0.013523,0.002678,0.000431,0.000823
5080000,0.0324,0.013523,0.002678,0.000431,0.000823
5081000,0.0324,0.013523,0.002678,0.000431,0.000940
5082000,0.0324,0.013523,0.002678,0.000431,0.000705
5083000,0.0324,0.013523,0.002678,0.000431,0.000940
5084000,0.0324,0.013523,0.002678,0.000431,0.000940
5085000,0.0324,0.013523,0.002678,0.000431,0.000940
5086000,0.0324,0.013523,0.002678,0.000431,0.000705
5087000,0.0324,0.013523,0.002678,0.000431,0.000940
5088000,0.0324,0.013523,0.002678,0.000431,0.000940
5089000,0.0324,0.013523,0.002678,0.000431,0.000823
5090000,0.0324,0.013523,0.002678,0.000431,0.000823
5091000,0.0324,0.013523,0.002678,0.000431,0.000823
5092000,0.0324,0.013523,0.002678,0.000431,0.000823
5093000,0.0324,0.013523,0.002678,0.000431,0.000823
5094000,0.0324,0.013523,0.002678,0.000431,0.000823
5095000,0.0324,0.013523,0.002678,0.000431,0.000940
5096000,0.0324,0.013523,0.002678,0.000431,0.000705
5097000,0.0324,0.013523,0.002678,0.000431,0.000823
5098000,0.0324,0.013523,0.002678,0.000431,0.000940
5099000,0.0324,0.013523,0.002678,0.000431,0.000823
5100000,0.0324,0.013523,0.002678,0.000431,0.000940
5101000,0.0324,0.013523,0.002678,0.000431,0.000940
5102000,0.0324,0.013523,0.002678,0.000431,0.000823
5103000,0.0324,0.013523,0.002678,0.000431,0.000823
5104000,0.0324,0.013523,0.002678,0.000431,0.000940
5105000,0.0324,0.013523,0.002678,0.000431,0.000940
5106000,0.0324,0.013523,0.002678,0.000431,0.000823
5107000,0.0324,0.013523,0.002678,0.000431,0.000823
5108000,0.0324,0.013523,0.002678,0.000431,0.000940
5109000,0.0324,0.013523,0.002678,0.000431,0.000823
5110000,0.0324,0.013523,0.002678,0.000431,0.000940
5111000,0.0324,0.013523,0.002678,0.000431,0.000823
5112000,0.0324,0.013523,0.002678,0.000431,0.000940
5113000,0.0324,0.013523,0.002678,0.000431,0.000823
5114000,0.0324,0.013523,0.002678,0.000431,0.000823
5115000,0.0324,0.013523,0.002678,0.000431,0.000940
5116000,0.0324,0.013523,0.002678,0.000431,0.000940
5117000,0.0324,0.013523,0.002678,0.000431,0.000823
5118000,0.0324,0.013523,0.002678,0.000431,0.000823
5119000,0.0324,0.013523,0.002678,0.000431,0.000940
5120000,0.0324,0.013523,0.002678,0.000431,0.000940
5121000,0.0324,0.013523,0.002678,0.000431,0.000940
5122000,0.0324,0.013523,0.002678,0.000431,0.000705
5123000,0.0324,0.013523,0.002678,0.000431,0.000940
5124000,0.0324,0.013523,0.002678,0.000431,0.000940
5125000,0.0324,0.013523,0.002678,0.000431,0.000823
5126000,0.0324,0.013523,0.002678,0.000431,0.000823
5127000,0.0324,0.013523,0.002678,0.000431,0.000940
5128000,0.0324,0.013523,0.002678,0.000431,0.000940
5129000,0.0324,0.013523,0.002678,0.000431,0.000823
5130000,0.0324,0.013523,0.002678,0.000431,0.000823
5131000,0.0324,0.013523,0.002678,0.000431,0.000940
5132000,0.0324,0.013523,0.002678,0.000431,0.000940
5133000,0.0324,0.013523,0.002678,0.000431,0.000940
5134000,0.0324,0.013523,0.002678,0.000431,0.000705
5135000,0.0324,0.013523,0.002678,0.000431,0.000940
5136000,0.0324,0.013523,0.002678,0.000431,0.000940
5137000,0.0324,0.013523,0.002678,0.000431,0.000940
5138000,0.0324,0.013523,0.002678,0.000431,0.000705
5139000,0.0324,0.013523,0.002678,0.000431,0.000940
5140000,0.0324,0.013523,0.002678,0.000431,0.000940
5141000,0.0324,0.013523,0.002678,0.000431,0.000823
5142000,0.0324,0.013523,0.002678,0.000431,0.000940
5143000,0.0324,0.013523,0.002678,0.000431,0.000823
5144000,0.0324,0.013523,0.002678,0.000431,0.000940
5145000,0.0324,0.013523,0.002678,0.000431,0.000823
5146000,0.0324,0.013523,0.002678,0.000431,0.000823
5147000,0.0324,0.013523,0.002678,0.000431,0.000940
5148000,0.0324,0.013523,0.002678,0.000431,0.000940
5149000,0.0324,0.013523,0.002678,0.000431,0.000705
5150000,0.0324,0.013523,0.002678,0.000431,0.000940
5151000,0.0324,0.013523,0.002678,0.000431,0.252803
5152000,0.0324,0.013523,0.002678,0.000431,0.740780
5153000,0.0324,0.013523,0.002678,0.000431,0.476694
5154000,0.0324,0.013523,0.002678,0.000431,0.133042
5155000,0.0324,0.013523,0.002678,0.000431,0.189690
5156000,0.0324,0.013523,0.002678,0.000431,0.597043
5157000,0.0324,0.013523,0.002678,0.000431,0.253861
5158000,0.0324,0.013523,0.002678,0.000431,0.301342
5159000,0.0324,0.013523,0.002678,0.000431,0.165010
5160000,0.0324,0.013523,0.002678,0.000431,0.148908
5161000,0.0324,0.013523,0.002678,0.000431,0.108126
5162000,0.0324,0.013523,0.002678,0.000431,0.416285
5163000,0.0324,0.013523,0.002678,0.000431,0.338246
5164000,0.0324,0.013523,0.002678,0.000431,0.140564
5165000,0.0324,0.013523,0.002678,0.000431,0.108008
5166000,0.0324,0.013523,0.002678,0.000431,0.078626
5167000,0.0324,0.013523,0.002678,0.000431,0.055356
5168000,0.0324,0.013523,0.002678,0.000431,0.046306
5169000,0.0324,0.013523,0.002678,0.000431,0.049597
5170000,0.0324,0.013523,0.002678,0.000431,0.031145
5171000,0.0324,0.013523,0.002678,0.000431,0.027267
5172000,0.0324,0.013523,0.002678,0.000431,0.027502
5173000,0.0324,0.013523,0.002678,0.000431,0.028324
5174000,0.0324,0.013523,0.002678,0.000431,0.026561
5175000,0.0324,0.013523,0.002678,0.000431,0.015514
5176000,0.0324,0.013523,0.002678,0.000431,0.012576
5177000,0.0324,0.013523,0.002678,0.000431,0.017864
5178000,0.0324,0.013523,0.002678,0.000431,0.012693
5179000,0.0324,0.013523,0.002678,0.000431,0.008697
5180000,0.0324,0.013523,0.002678,0.000431,0.009755
5181000,0.0324,0.013523,0.002678,0.000431,0.014809
5182000,0.0324,0.013523,0.002678,0.000431,0.007052
5183000,0.0324,0.013523,0.002678,0.000431,0.006582
5184000,0.0324,0.013523,0.002678,0.000431,0.009050
5185000,0.0324,0.013523,0.002678,0.000431,0.005406
5186000,0.0324,0.013523,0.002678,0.000431,0.004231
5187000,0.0324,0.013523,0.002678,0.000431,0.004113
5188000,0.0324,0.013523,0.002678,0.000431,0.004349
5189000,0.0324,0.013523,0.002678,0.000431,0.004231
5190000,0.0324,0.013523,0.002678,0.000431,0.004113
5191000,0.0324,0.013523,0.002678,0.000431,0.004349
5192000,0.0324,0.013523,0.002678,0.000431,0.006934
5193000,0.0324,0.013523,0.002678,0.000431,0.003643
5194000,0.0324,0.013523,0.002678,0.000431,0.002468
5195000,0.0324,0.013523,0.002678,0.000431,0.002703
5196000,0.0324,0.013523,0.002678,0.000431,0.002468
5197000,0.0324,0.013523,0.002678,0.000431,0.002351
5198000,0.0324,0.013523,0.002678,0.000431,0.002468
5199000,0.0324,0.013523,0.002678,0.000431,0.002703
5200000,0.0324,0.013523,0.002678,0.000431,0.002468
5201000,0.0324,0.013523,0.002678,0.000431,0.002233
5202000,0.0324,0.013523,0.002678,0.000431,0.002703
5203000,0.0324,0.013523,0.002678,0.000431,0.002468
5204000,0.0324,0.013523,0.002678,0.000431,0.002468
5205000,0.0324,0.013523,0.002678,0.000431,0.002233
5206000,0.0324,0.013523,0.002678,0.000431,0.002821
5207000,0.0324,0.013523,0.002678,0.000431,0.002468
5208000,0.0324,0.013523,0.002678,0.000431,0.002468
5209000,0.0324,0.013523,0.002678,0.000431,0.002351
5210000,0.0324,0.013523,0.002678,0.000431,0.002586
5211000,0.0324,0.013523,0.002678,0.000431,0.002586
5212000,0.0324,0.013523,0.002678,0.000431,0.002233
5213000,0.0324,0.013523,0.002678,0.000431,0.002703
5214000,0.0324,0.013523,0.002678,0.000431,0.002351
5215000,0.0324,0.013523,0.002678,0.000431,0.002586
5216000,0.0324,0.013523,0.002678,0.000431,0.002468
5217000,0.0324,0.013523,0.002678,0.000431,0.002468
5218000,0.0324,0.013523,0.002678,0.000431,0.002586
5219000,0.0324,0.013523,0.002678,0.000431,0.002351
5220000,0.0324,0.013523,0.002678,0.000431,0.002586
5221000,0.0324,0.013523,0.002678,0.000431,0.002586
5222000,0.0324,0.013523,0.002678,0.000431,0.002351
5223000,0.0324,0.013523,0.002678,0.000431,0.002468
5224000,0.0324,0.013523,0.002678,0.000431,0.002586
5225000,0.0324,0.013523,0.002678,0.000431,0.002351
5226000,0.0324,0.013523,0.002678,0.000431,0.002468
5227000,0.0324,0.013523,0.002678,0.000431,0.002586
5228000,0.0324,0.013523,0.002678,0.000431,0.002703
5229000,0.0324,0.013523,0.002678,0.000431,0.002233
5230000,0.0324,0.013523,0.002678,0.000431,0.002468
5231000,0.0324,0.013523,0.002678,0.000431,0.002703
5232000,0.0324,0.013523,0.002678,0.000431,0.002586
5233000,0.0324,0.013523,0.002678,0.000431,0.002116
5234000,0.0324,0.013523,0.002678,0.000431,0.002586
5235000,0.0324,0.013523,0.002678,0.000431,0.002821
5236000,0.0324,0.013523,0.002678,0.000431,0.002351
5237000,0.0324,0.013523,0.002678,0.000431,0.002351
5238000,0.0324,0.013523,0.002678,0.000431,0.002586
5239000,0.0324,0.013523,0.002678,0.000431,0.002586
5240000,0.0324,0.013523,0.002678,0.000431,0.002468
5241000,0.0324,0.013523,0.002678,0.000431,0.002351
5242000,0.0324,0.013523,0.002678,0.000431,0.002586
5243000,0.0324,0.013523,0.002678,0.000431,0.002468
5244000,0.0324,0.013523,0.002678,0.000431,0.002351
5245000,0.0324,0.013523,0.002678,0.000431,0.002821
5246000,0.0324,0.013523,0.002678,0.000431,0.002468
5247000,0.0324,0.013523,0.002678,0.000431,0.002468
5248000,0.0324,0.013523,0.002678,0.000431,0.002586
5249000,0.0324,0.013523,0.002678,0.000431,0.002586
5250000,0.0324,0.013523,0.002678,0.000431,0.002351
5251000,0.0324,0.013523,0.002678,0.000431,0.002586
5252000,0.0324,0.013523,0.002678,0.000431,0.002586
5253000,0.0324,0.013523,0.002678,0.000431,0.002703
5254000,0.0324,0.013523,0.002678,0.000431,0.002351
5255000,0.0324,0.013523,0.002678,0.000431,0.002468
5256000,0.0324,0.013523,0.002678,0.000431,0.002586
5257000,0.0324,0.013523,0.002678,0.000431,0.002468
5258000,0.0324,0.013523,0.002678,0.000431,0.002468
5259000,0.0324,0.013523,0.002678,0.000431,0.002586
5260000,0.0324,0.013523,0.002678,0.000431,0.005759
5261000,0.0324,0.013523,0.002678,0.000431,0.001410
5262000,0.0324,0.013523,0.002678,0.000431,0.001645
5263000,0.0324,0.013523,0.002678,0.000431,0.001645
5264000,0.0324,0.013523,0.002678,0.000431,0.001880
5265000,0.0324,0.013523,0.002678,0.000431,0.001410
5266000,0.0324,0.013523,0.002678,0.000431,0.002938
5267000,0.0324,0.013523,0.002678,0.000431,0.471406
5268000,0.0324,0.013523,0.002678,0.000431,0.790024
5269000,0.0324,0.013523,0.002678,0.000431,0.135157
5270000,0.0324,0.013523,0.002678,0.000431,0.135863
5271000,0.0324,0.013523,0.002678,0.000431,0.182874
5272000,0.0324,0.013523,0.002678,0.000431,0.550267
5273000,0.0324,0.013523,0.002678,0.000431,0.229650
5274000,0.0324,0.013523,0.002678,0.000431,0.320734
5275000,0.0324,0.013523,0.002678,0.000431,0.191218
5276000,0.0324,0.013523,0.002678,0.000431,0.144912
5277000,0.0324,0.013523,0.002678,0.000431,0.146323
5278000,0.0324,0.013523,0.002678,0.000431,0.234351
5279000,0.0324,0.013523,0.002678,0.000431,0.489035
5280000,0.0324,0.013523,0.002678,0.000431,0.183697
5281000,0.0324,0.013523,0.002678,0.000431,0.135745
5282000,0.0324,0.013523,0.002678,0.000431,0.116470
5283000,0.0324,0.013523,0.002678,0.000431,0.095198
5284000,0.0324,0.013523,0.002678,0.000431,0.067226
5285000,0.0324,0.013523,0.002678,0.000431,0.058059
5286000,0.0324,0.013523,0.002678,0.000431,0.062995
5287000,0.0324,0.013523,0.002678,0.000431,0.040077
5288000,0.0324,0.013523,0.002678,0.000431,0.027619
5289000,0.0324,0.013523,0.002678,0.000431,0.025034
5290000,0.0324,0.013523,0.002678,0.000431,0.020685
5291000,0.0324,0.013523,0.002678,0.000431,0.020332
5292000,0.0324,0.013523,0.002678,0.000431,0.021743
5293000,0.0324,0.013523,0.002678,0.000431,0.009872
5294000,0.0324,0.013523,0.002678,0.000431,0.010813
5295000,0.0324,0.013523,0.002678,0.000431,0.011165
5296000,0.0324,0.013523,0.002678,0.000431,0.005876
5297000,0.0324,0.013523,0.002678,0.000431,0.005759
5298000,0.0324,0.013523,0.002678,0.000431,0.006111
5299000,0.0324,0.013523,0.002678,0.000431,0.006229
5300000,0.0324,0.013523,0.002678,0.000431,0.005524
5301000,0.0324,0.013523,0.002678,0.000431,0.008462
5302000,0.0324,0.013523,0.002678,0.000431,0.005289
5303000,0.0324,0.013523,0.002678,0.000431,0.004231
5304000,0.0324,0.013523,0.002678,0.000431,0.002586
5305000,0.0324,0.013523,0.002678,0.000431,0.003761
5306000,0.0324,0.013523,0.002678,0.000431,0.003643
5307000,0.0324,0.013523,0.002678,0.000431,0.000940
5308000,0.0324,0.013523,0.002678,0.000431,0.144325
5309000,0.0324,0.013523,0.002678,0.000431,0.726677
5310000,0.0324,0.013523,0.002678,0.000431,0.517829
5311000,0.0324,0.013523,0.002678,0.000431,0.134922
5312000,0.0324,0.013523,0.002678,0.000431,0.132102
5313000,0.0324,0.013523,0.002678,0.000431,0.571304
5314000,0.0324,0.013523,0.002678,0.000431,0.250335
5315000,0.0324,0.013523,0.002678,0.000431,0.312507
5316000,0.0324,0.013523,0.002678,0.000431,0.266907
5317000,0.0324,0.013523,0.002678,0.000431,0.141504
5318000,0.0324,0.013523,0.002678,0.000431,0.139976
5319000,0.0324,0.013523,0.002678,0.000431,0.235644
5320000,0.0324,0.013523,0.002678,0.000431,0.485862
5321000,0.0324,0.013523,0.002678,0.000431,0.178408
5322000,0.0324,0.013523,0.002678,0.000431,0.134687
5323000,0.0324,0.013523,0.002678,0.000431,0.109889
5324000,0.0324,0.013523,0.002678,0.000431,0.087794
5325000,0.0324,0.013523,0.002678,0.000431,0.071222
5326000,0.0324,0.013523,0.002678,0.000431,0.061702
5327000,0.0324,0.013523,0.002678,0.000431,0.055003
5328000,0.0324,0.013523,0.002678,0.000431,0.029500
5329000,0.0324,0.013523,0.002678,0.000431,0.028324
5330000,0.0324,0.013523,0.002678,0.000431,0.033260
5331000,0.0324,0.013523,0.002678,0.000431,0.019157
5332000,0.0324,0.013523,0.002678,0.000431,0.014926
5333000,0.0324,0.013523,0.002678,0.000431,0.015631
5334000,0.0324,0.013523,0.002678,0.000431,0.013516
5335000,0.0324,0.013523,0.002678,0.000431,0.014456
5336000,0.0324,0.013523,0.002678,0.000431,0.010695
5337000,0.0324,0.013523,0.002678,0.000431,0.009637
5338000,0.0324,0.013523,0.002678,0.000431,0.011283
5339000,0.0324,0.013523,0.002678,0.000431,0.007522
5340000,0.0324,0.013523,0.002678,0.000431,0.010813
5341000,0.0324,0.013523,0.002678,0.000431,0.005994
5342000,0.0324,0.013523,0.002678,0.000431,0.007404
5343000,0.0324,0.013523,0.002678,0.000431,0.006699
5344000,0.0324,0.013523,0.002678,0.000431,0.005054
5345000,0.0324,0.013523,0.002678,0.000431,0.004701
5346000,0.0324,0.013523,0.002678,0.000431,0.006934
5347000,0.0324,0.013523,0.002678,0.000431,0.003643
5348000,0.0324,0.013523,0.002678,0.000431,0.006111
5349000,0.0324,0.013523,0.002678,0.000431,0.002468
5350000,0.0324,0.013523,0.002678,0.000431,0.002586
5351000,0.0324,0.013523,0.002678,0.000431,0.002586
5352000,0.0324,0.013523,0.002678,0.000431,0.002703
5353000,0.0324,0.013523,0.002678,0.000431,0.002351
5354000,0.0324,0.013523,0.002678,0.000431,0.002703
5355000,0.0324,0.013523,0.002678,0.000431,0.002586
5356000,0.0324,0.013523,0.002678,0.000431,0.002703
5357000,0.0324,0.013523,0.002678,0.000431,0.003408
5358000,0.0324,0.013523,0.002678,0.000431,0.002821
5359000,0.0324,0.013523,0.002678,0.000431,0.001645
5360000,0.0324,0.013523,0.002678,0.000431,0.001763
5361000,0.0324,0.013523,0.002678,0.000431,0.003996
5362000,0.0324,0.013523,0.002678,0.000431,0.000705
5363000,0.0324,0.013523,0.002678,0.000431,0.000940
5364000,0.0324,0.013523,0.002678,0.000431,0.000940
5365000,0.0324,0.013523,0.002678,0.000431,0.000705
5366000,0.0324,0.013523,0.002678,0.000431,0.000940
5367000,0.0324,0.013523,0.002678,0.000431,0.000705
5368000,0.0324,0.013523,0.002678,0.000431,0.000940
5369000,0.0324,0.013523,0.002678,0.000431,0.000823
5370000,0.0324,0.013523,0.002678,0.000431,0.000823
5371000,0.0324,0.013523,0.002678,0.000431,0.000940
5372000,0.0324,0.013523,0.002678,0.000431,0.000705
5373000,0.0324,0.013523,0.002678,0.000431,0.000940
5374000,0.0324,0.013523,0.002678,0.000431,0.000823
5375000,0.0324,0.013523,0.002678,0.000431,0.000823
5376000,0.0324,0.013523,0.002678,0.000431,0.000823
5377000,0.0324,0.013523,0.002678,0.000431,0.000823
5378000,0.0324,0.013523,0.002678,0.000431,0.000823
5379000,0.0324,0.013523,0.002678,0.000431,0.000823
5380000,0.0324,0.013523,0.002678,0.000431,0.000823
5381000,0.0324,0.013523,0.002678,0.000431,0.000823
5382000,0.0324,0.013523,0.002678,0.000431,0.000823
5383000,0.0324,0.013523,0.002678,0.000431,0.000823
5384000,0.0324,0.013523,0.002678,0.000431,0.000940
5385000,0.0324,0.013523,0.002678,0.000431,0.000940
5386000,0.0324,0.013523,0.002678,0.000431,0.000823
5387000,0.0324,0.013523,0.002678,0.000431,0.000823
5388000,0.0324,0.013523,0.002678,0.000431,0.000940
5389000,0.0324,0.013523,0.002678,0.000431,0.000823
5390000,0.0324,0.013523,0.002678,0.000431,0.000940
5391000,0.0324,0.013523,0.002678,0.000431,0.000823
5392000,0.0324,0.013523,0.002678,0.000431,0.071340
5393000,0.0324,0.013523,0.002678,0.000431,0.724796
5394000,0.0324,0.013523,0.002678,0.000431,0.585996
5395000,0.0324,0.013523,0.002678,0.000431,0.133512
5396000,0.0324,0.013523,0.002678,0.000431,0.132572
5397000,0.0324,0.013523,0.002678,0.000431,0.540982
5398000,0.0324,0.013523,0.002678,0.000431,0.241168
5399000,0.0324,0.013523,0.002678,0.000431,0.222011
5400000,0.0324,0.013523,0.002678,0.000431,0.276426
5401000,0.0324,0.013523,0.002678,0.000431,0.140564
5402000,0.0324,0.013523,0.002678,0.000431,0.151611
5403000,0.0324,0.013523,0.002678,0.000431,0.138801
5404000,0.0324,0.013523,0.002678,0.000431,0.274076
5405000,0.0324,0.013523,0.002678,0.000431,0.466117
5406000,0.0324,0.013523,0.002678,0.000431,0.187928
5407000,0.0324,0.013523,0.002678,0.000431,0.135745
5408000,0.0324,0.013523,0.002678,0.000431,0.116470
5409000,0.0324,0.013523,0.002678,0.000431,0.075101
5410000,0.0324,0.013523,0.002678,0.000431,0.071927
5411000,0.0324,0.013523,0.002678,0.000431,0.057941
5412000,0.0324,0.013523,0.002678,0.000431,0.055356
5413000,0.0324,0.013523,0.002678,0.000431,0.042428
5414000,0.0324,0.013523,0.002678,0.000431,0.037139
5415000,0.0324,0.013523,0.002678,0.000431,0.026444
5416000,0.0324,0.013523,0.002678,0.000431,0.023388
5417000,0.0324,0.013523,0.002678,0.000431,0.024328
5418000,0.0324,0.013523,0.002678,0.000431,0.011988
5419000,0.0324,0.013523,0.002678,0.000431,0.017512
5420000,0.0324,0.013523,0.002678,0.000431,0.009755
5421000,0.0324,0.013523,0.002678,0.000431,0.009402
5422000,0.0324,0.013523,0.002678,0.000431,0.009167
5423000,0.0324,0.013523,0.002678,0.000431,0.009990
5424000,0.0324,0.013523,0.002678,0.000431,0.010342
5425000,0.0324,0.013523,0.002678,0.000431,0.007052
5426000,0.0324,0.013523,0.002678,0.000431,0.006699
5427000,0.0324,0.013523,0.002678,0.000431,0.008462
5428000,0.0324,0.013523,0.002678,0.000431,0.006347
5429000,0.0324,0.013523,0.002678,0.000431,0.005759
5430000,0.0324,0.013523,0.002678,0.000431,0.007757
5431000,0.0324,0.013523,0.002678,0.000431,0.005876
5432000,0.0324,0.013523,0.002678,0.000431,0.005406
5433000,0.0324,0.013523,0.002678,0.000431,0.005289
5434000,0.0324,0.013523,0.002678,0.000431,0.004584
5435000,0.0324,0.013523,0.002678,0.000431,0.005524
5436000,0.0324,0.013523,0.002678,0.000431,0.006817
5437000,0.0324,0.013523,0.002678,0.000431,0.004466
5438000,0.0324,0.013523,0.002678,0.000431,0.005171
5439000,0.0324,0.013523,0.002678,0.000431,0.003878
5440000,0.0324,0.013523,0.002678,0.000431,0.003643
5441000,0.0324,0.013523,0.002678,0.000431,0.003996
5442000,0.0324,0.013523,0.002678,0.000431,0.003643
5443000,0.0324,0.013523,0.002678,0.000431,0.002821
5444000,0.0324,0.013523,0.002678,0.000431,0.002116
5445000,0.0324,0.013523,0.002678,0.000431,0.002703
5446000,0.0324,0.013523,0.002678,0.000431,0.002468
5447000,0.0324,0.013523,0.002678,0.000431,0.002351
5448000,0.0324,0.013523,0.002678,0.000431,0.002703
5449000,0.0324,0.013523,0.002678,0.000431,0.002586
5450000,0.0324,0.013523,0.002678,0.000431,0.006817
5451000,0.0324,0.013523,0.002678,0.000431,0.001058
5452000,0.0324,0.013523,0.002678,0.000431,0.000823
5453000,0.0324,0.013523,0.002678,0.000431,0.074513
5454000,0.0324,0.013523,0.002678,0.000431,0.725031
5455000,0.0324,0.013523,0.002678,0.000431,0.552030
5456000,0.0324,0.013523,0.002678,0.000431,0.137038
5457000,0.0324,0.013523,0.002678,0.000431,0.132572
5458000,0.0324,0.013523,0.002678,0.000431,0.572010
5459000,0.0324,0.013523,0.002678,0.000431,0.243401
5460000,0.0324,0.013523,0.002678,0.000431,0.269022
5461000,0.0324,0.013523,0.002678,0.000431,0.304280
5462000,0.0324,0.013523,0.002678,0.000431,0.144442
5463000,0.0324,0.013523,0.002678,0.000431,0.156665
5464000,0.0324,0.013523,0.002678,0.000431,0.160543
5465000,0.0324,0.013523,0.002678,0.000431,0.548034
5466000,0.0324,0.013523,0.002678,0.000431,0.182521
5467000,0.0324,0.013523,0.002678,0.000431,0.131044
5468000,0.0324,0.013523,0.002678,0.000431,0.121877
5469000,0.0324,0.013523,0.002678,0.000431,0.092377
5470000,0.0324,0.013523,0.002678,0.000431,0.081565
5471000,0.0324,0.013523,0.002678,0.000431,0.077921
5472000,0.0324,0.013523,0.002678,0.000431,0.056531
5473000,0.0324,0.013523,0.002678,0.000431,0.045601
5474000,0.0324,0.013523,0.002678,0.000431,0.044896
5475000,0.0324,0.013523,0.002678,0.000431,0.039960
5476000,0.0324,0.013523,0.002678,0.000431,0.030675
5477000,0.0324,0.013523,0.002678,0.000431,0.033496
5478000,0.0324,0.013523,0.002678,0.000431,0.030675
5479000,0.0324,0.013523,0.002678,0.000431,0.027031
5480000,0.0324,0.013523,0.002678,0.000431,0.024798
5481000,0.0324,0.013523,0.002678,0.000431,0.021273
5482000,0.0324,0.013523,0.002678,0.000431,0.013281
5483000,0.0324,0.013523,0.002678,0.000431,0.018922
5484000,0.0324,0.013523,0.002678,0.000431,0.013281
5485000,0.0324,0.013523,0.002678,0.000431,0.010225
5486000,0.0324,0.013523,0.002678,0.000431,0.012693
5487000,0.0324,0.013523,0.002678,0.000431,0.012105
5488000,0.0324,0.013523,0.002678,0.000431,0.009285
5489000,0.0324,0.013523,0.002678,0.000431,0.006464
5490000,0.0324,0.013523,0.002678,0.000431,0.011048
5491000,0.0324,0.013523,0.002678,0.000431,0.005289
5492000,0.0324,0.013523,0.002678,0.000431,0.004701
5493000,0.0324,0.013523,0.002678,0.000431,0.005641
5494000,0.0324,0.013523,0.002678,0.000431,0.005406
5495000,0.0324,0.013523,0.002678,0.000431,0.004819
5496000,0.0324,0.013523,0.002678,0.000431,0.004819
5497000,0.0324,0.013523,0.002678,0.000431,0.004701
5498000,0.0324,0.013523,0.002678,0.000431,0.004466
5499000,0.0324,0.013523,0.002678,0.000431,0.003761
5500000,0.0324,0.013523,0.002678,0.000431,0.004231
5501000,0.0324,0.013523,0.002678,0.000431,0.003996
5502000,0.0324,0.013523,0.002678,0.000431,0.003878
5503000,0.0324,0.013523,0.002678,0.000431,0.003878
5504000,0.0324,0.013523,0.002678,0.000431,0.003996
5505000,0.0324,0.013523,0.002678,0.000431,0.004231
5506000,0.0324,0.013523,0.002678,0.000431,0.004113
5507000,0.0324,0.013523,0.002678,0.000431,0.003643
5508000,0.0324,0.013523,0.002678,0.000431,0.003996
5509000,0.0324,0.013523,0.002678,0.000431,0.003878
5510000,0.0324,0.013523,0.002678,0.000431,0.004466
5511000,0.0324,0.013523,0.002678,0.000431,0.003878
5512000,0.0324,0.013523,0.002678,0.000431,0.003761
5513000,0.0324,0.013523,0.002678,0.000431,0.003878
5514000,0.0324,0.013523,0.002678,0.000431,0.004349
5515000,0.0324,0.013523,0.002678,0.000431,0.003996
5516000,0.0324,0.013523,0.002678,0.000431,0.007052
5517000,0.0324,0.013523,0.002678,0.000431,0.002703
5518000,0.0324,0.013523,0.002678,0.000431,0.003408
5519000,0.0324,0.013523,0.002678,0.000431,0.003408
5520000,0.0324,0.013523,0.002678,0.000431,0.002586
5521000,0.0324,0.013523,0.002678,0.000431,0.003056
5522000,0.0324,0.013523,0.002678,0.000431,0.002938
5523000,0.0324,0.013523,0.002678,0.000431,0.003408
5524000,0.0324,0.013523,0.002678,0.000431,0.003056
5525000,0.0324,0.013523,0.002678,0.000431,0.002586
5526000,0.0324,0.013523,0.002678,0.000431,0.002938
5527000,0.0324,0.013523,0.002678,0.000431,0.003408
5528000,0.0324,0.013523,0.002678,0.000431,0.003056
5529000,0.0324,0.013523,0.002678,0.000431,0.003056
5530000,0.0324,0.013523,0.002678,0.000431,0.002586
5531000,0.0324,0.013523,0.002678,0.000431,0.003291
5532000,0.0324,0.013523,0.002678,0.000431,0.003056
5533000,0.0324,0.013523,0.002678,0.000431,0.003056
5534000,0.0324,0.013523,0.002678,0.000431,0.003056
5535000,0.0324,0.013523,0.002678,0.000431,0.002586
5536000,0.0324,0.013523,0.002678,0.000431,0.003291
5537000,0.0324,0.013523,0.002678,0.000431,0.003056
5538000,0.0324,0.013523,0.002678,0.000431,0.002351
5539000,0.0324,0.013523,0.002678,0.000431,0.001645
5540000,0.0324,0.013523,0.002678,0.000431,0.001645
5541000,0.0324,0.013523,0.002678,0.000431,0.001645
5542000,0.0324,0.013523,0.002678,0.000431,0.001645
5543000,0.0324,0.013523,0.002678,0.000431,0.001645
5544000,0.0324,0.013523,0.002678,0.000431,0.001528
5545000,0.0324,0.013523,0.002678,0.000431,0.001763
5546000,0.0324,0.013523,0.002678,0.000431,0.001645
5547000,0.0324,0.013523,0.002678,0.000431,0.001645
5548000,0.0324,0.013523,0.002678,0.000431,0.001645
5549000,0.0324,0.013523,0.002678,0.000431,0.001645
5550000,0.0324,0.013523,0.002678,0.000431,0.001645
5551000,0.0324,0.013523,0.002678,0.000431,0.001645
5552000,0.0324,0.013523,0.002678,0.000431,0.001645
5553000,0.0324,0.013523,0.002678,0.000431,0.001880
5554000,0.0324,0.013523,0.002678,0.000431,0.001410
5555000,0.0324,0.013523,0.002678,0.000431,0.001645
5556000,0.0324,0.013523,0.002678,0.000431,0.001763
5557000,0.0324,0.013523,0.002678,0.000431,0.059234
5558000,0.0324,0.013523,0.002678,0.000431,0.684249
5559000,0.0324,0.013523,0.002678,0.000431,0.598924
5560000,0.0324,0.013523,0.002678,0.000431,0.131632
5561000,0.0324,0.013523,0.002678,0.000431,0.135392
5562000,0.0324,0.013523,0.002678,0.000431,0.551677
5563000,0.0324,0.013523,0.002678,0.000431,0.233764
5564000,0.0324,0.013523,0.002678,0.000431,0.307336
5565000,0.0324,0.013523,0.002678,0.000431,0.277602
5566000,0.0324,0.013523,0.002678,0.000431,0.138566
5567000,0.0324,0.013523,0.002678,0.000431,0.178878
5568000,0.0324,0.013523,0.002678,0.000431,0.097783
5569000,0.0324,0.013523,0.002678,0.000431,0.533460
5570000,0.0324,0.013523,0.002678,0.000431,0.188398
5571000,0.0324,0.013523,0.002678,0.000431,0.128811
5572000,0.0324,0.013523,0.002678,0.000431,0.107773
5573000,0.0324,0.013523,0.002678,0.000431,0.096608
5574000,0.0324,0.013523,0.002678,0.000431,0.083092
5575000,0.0324,0.013523,0.002678,0.000431,0.062055
5576000,0.0324,0.013523,0.002678,0.000431,0.057706
5577000,0.0324,0.013523,0.002678,0.000431,0.048657
5578000,0.0324,0.013523,0.002678,0.000431,0.034906
5579000,0.0324,0.013523,0.002678,0.000431,0.039960
5580000,0.0324,0.013523,0.002678,0.000431,0.026444
5581000,0.0324,0.013523,0.002678,0.000431,0.024916
5582000,0.0324,0.013523,0.002678,0.000431,0.020215
5583000,0.0324,0.013523,0.002678,0.000431,0.026561
5584000,0.0324,0.013523,0.002678,0.000431,0.015631
5585000,0.0324,0.013523,0.002678,0.000431,0.015631
5586000,0.0324,0.013523,0.002678,0.000431,0.011635
5587000,0.0324,0.013523,0.002678,0.000431,0.010695
5588000,0.0324,0.013523,0.002678,0.000431,0.008815
5589000,0.0324,0.013523,0.002678,0.000431,0.013163
5590000,0.0324,0.013523,0.002678,0.000431,0.007052
5591000,0.0324,0.013523,0.002678,0.000431,0.008462
5592000,0.0324,0.013523,0.002678,0.000431,0.010342
5593000,0.0324,0.013523,0.002678,0.000431,0.008697
5594000,0.0324,0.013523,0.002678,0.000431,0.006229
5595000,0.0324,0.013523,0.002678,0.000431,0.002116
5596000,0.0324,0.013523,0.002678,0.000431,0.002586
5597000,0.0324,0.013523,0.002678,0.000431,0.002586
5598000,0.0324,0.013523,0.002678,0.000431,0.002351
5599000,0.0324,0.013523,0.002678,0.000431,0.002586
5600000,0.0324,0.013523,0.002678,0.000431,0.005171
5601000,0.0324,0.013523,0.002678,0.000431,0.001763
5602000,0.0324,0.013523,0.002678,0.000431,0.049832
5603000,0.0324,0.013523,0.002678,0.000431,0.643349
5604000,0.0324,0.013523,0.002678,0.000431,0.603272
5605000,0.0324,0.013523,0.002678,0.000431,0.133042
5606000,0.0324,0.013523,0.002678,0.000431,0.133982
5607000,0.0324,0.013523,0.002678,0.000431,0.542510
5608000,0.0324,0.013523,0.002678,0.000431,0.221541
5609000,0.0324,0.013523,0.002678,0.000431,0.264909
5610000,0.0324,0.013523,0.002678,0.000431,0.317561
5611000,0.0324,0.013523,0.002678,0.000431,0.151259
5612000,0.0324,0.013523,0.002678,0.000431,0.149966
5613000,0.0324,0.013523,0.002678,0.000431,0.114237
5614000,0.0324,0.013523,0.002678,0.000431,0.472111
5615000,0.0324,0.013523,0.002678,0.000431,0.301460
5616000,0.0324,0.013523,0.002678,0.000431,0.170651
5617000,0.0324,0.013523,0.002678,0.000431,0.129281
5618000,0.0324,0.013523,0.002678,0.000431,0.093082
5619000,0.0324,0.013523,0.002678,0.000431,0.094845
5620000,0.0324,0.013523,0.002678,0.000431,0.066638
5621000,0.0324,0.013523,0.002678,0.000431,0.064876
5622000,0.0324,0.013523,0.002678,0.000431,0.040782
5623000,0.0324,0.013523,0.002678,0.000431,0.034083
5624000,0.0324,0.013523,0.002678,0.000431,0.037491
5625000,0.0324,0.013523,0.002678,0.000431,0.033848
5626000,0.0324,0.013523,0.002678,0.000431,0.018569
5627000,0.0324,0.013523,0.002678,0.000431,0.016924
5628000,0.0324,0.013523,0.002678,0.000431,0.019040
5629000,0.0324,0.013523,0.002678,0.000431,0.013163
5630000,0.0324,0.013523,0.002678,0.000431,0.007757
5631000,0.0324,0.013523,0.002678,0.000431,0.007639
5632000,0.0324,0.013523,0.002678,0.000431,0.007287
5633000,0.0324,0.013523,0.002678,0.000431,0.006934
5634000,0.0324,0.013523,0.002678,0.000431,0.007169
5635000,0.0324,0.013523,0.002678,0.000431,0.006934
5636000,0.0324,0.013523,0.002678,0.000431,0.006582
5637000,0.0324,0.013523,0.002678,0.000431,0.008345
5638000,0.0324,0.013523,0.002678,0.000431,0.007287
5639000,0.0324,0.013523,0.002678,0.000431,0.004819
5640000,0.0324,0.013523,0.002678,0.000431,0.005054
5641000,0.0324,0.013523,0.002678,0.000431,0.005171
5642000,0.0324,0.013523,0.002678,0.000431,0.007052
5643000,0.0324,0.013523,0.002678,0.000431,0.006347
5644000,0.0324,0.013523,0.002678,0.000431,0.006111
5645000,0.0324,0.013523,0.002678,0.000431,0.003643
5646000,0.0324,0.013523,0.002678,0.000431,0.003291
5647000,0.0324,0.013523,0.002678,0.000431,0.003526
5648000,0.0324,0.013523,0.002678,0.000431,0.003291
5649000,0.0324,0.013523,0.002678,0.000431,0.003408
5650000,0.0324,0.013523,0.002678,0.000431,0.003408
5651000,0.0324,0.013523,0.002678,0.000431,0.003291
5652000,0.0324,0.013523,0.002678,0.000431,0.003526
5653000,0.0324,0.013523,0.002678,0.000431,0.003408
5654000,0.0324,0.013523,0.002678,0.000431,0.003408
5655000,0.0324,0.013523,0.002678,0.000431,0.003291
5656000,0.0324,0.013523,0.002678,0.000431,0.003291
5657000,0.0324,0.013523,0.002678,0.000431,0.005524
5658000,0.0324,0.013523,0.002678,0.000431,0.002351
5659000,0.0324,0.013523,0.002678,0.000431,0.002586
5660000,0.0324,0.013523,0.002678,0.000431,0.002468
5661000,0.0324,0.013523,0.002678,0.000431,0.002468
5662000,0.0324,0.013523,0.002678,0.000431,0.002468
5663000,0.0324,0.013523,0.002678,0.000431,0.002586
5664000,0.0324,0.013523,0.002678,0.000431,0.002586
5665000,0.0324,0.013523,0.002678,0.000431,0.002351
5666000,0.0324,0.013523,0.002678,0.000431,0.002703
5667000,0.0324,0.013523,0.002678,0.000431,0.002468
5668000,0.0324,0.013523,0.002678,0.000431,0.002468
5669000,0.0324,0.013523,0.002678,0.000431,0.002233
5670000,0.0324,0.013523,0.002678,0.000431,0.002821
5671000,0.0324,0.013523,0.002678,0.000431,0.002586
5672000,0.0324,0.013523,0.002678,0.000431,0.003878
5673000,0.0324,0.013523,0.002678,0.000431,0.001645
5674000,0.0324,0.013523,0.002678,0.000431,0.001645
5675000,0.0324,0.013523,0.002678,0.000431,0.001763
5676000,0.0324,0.013523,0.002678,0.000431,0.001645
5677000,0.0324,0.013523,0.002678,0.000431,0.001763
5678000,0.0324,0.013523,0.002678,0.000431,0.001645
5679000,0.0324,0.013523,0.002678,0.000431,0.001645
5680000,0.0324,0.013523,0.002678,0.000431,0.001763
5681000,0.0324,0.013523,0.002678,0.000431,0.001645
5682000,0.0324,0.013523,0.002678,0.000431,0.001645
5683000,0.0324,0.013523,0.002678,0.000431,0.001645
5684000,0.0324,0.013523,0.002678,0.000431,0.001763
5685000,0.0324,0.013523,0.002678,0.000431,0.001528
5686000,0.0324,0.013523,0.002678,0.000431,0.001763
5687000,0.0324,0.013523,0.002678,0.000431,0.001763
5688000,0.0324,0.013523,0.002678,0.000431,0.001528
5689000,0.0324,0.013523,0.002678,0.000431,0.001645
5690000,0.0324,0.013523,0.002678,0.000431,0.001645
5691000,0.0324,0.013523,0.002678,0.000431,0.001763
5692000,0.0324,0.013523,0.002678,0.000431,0.001645
5693000,0.0324,0.013523,0.002678,0.000431,0.001645
5694000,0.0324,0.013523,0.002678,0.000431,0.001528
5695000,0.0324,0.013523,0.002678,0.000431,0.001880
5696000,0.0324,0.013523,0.002678,0.000431,0.001763
5697000,0.0324,0.013523,0.002678,0.000431,0.001528
5698000,0.0324,0.013523,0.002678,0.000431,0.001645
5699000,0.0324,0.013523,0.002678,0.000431,0.001645
5700000,0.0324,0.013523,0.002678,0.000431,0.001880
5701000,0.0324,0.013523,0.002678,0.000431,0.001763
5702000,0.0324,0.013523,0.002678,0.000431,0.001528
5703000,0.0324,0.013523,0.002678,0.000431,0.001763
5704000,0.0324,0.013523,0.002678,0.000431,0.001528
5705000,0.0324,0.013523,0.002678,0.000431,0.004349
5706000,0.0324,0.013523,0.002678,0.000431,0.000705
5707000,0.0324,0.013523,0.002678,0.000431,0.000940
5708000,0.0324,0.013523,0.002678,0.000431,0.000823
5709000,0.0324,0.013523,0.002678,0.000431,0.000823
5710000,0.0324,0.013523,0.002678,0.000431,0.000823
5711000,0.0324,0.013523,0.002678,0.000431,0.000823
5712000,0.0324,0.013523,0.002678,0.000431,0.000940
5713000,0.0324,0.013523,0.002678,0.000431,0.000705
5714000,0.0324,0.013523,0.002678,0.000431,0.000940
5715000,0.0324,0.013523,0.002678,0.000431,0.000823
5716000,0.0324,0.013523,0.002678,0.000431,0.000823
5717000,0.0324,0.013523,0.002678,0.000431,0.000705
5718000,0.0324,0.013523,0.002678,0.000431,0.000940
5719000,0.0324,0.013523,0.002678,0.000431,0.000940
5720000,0.0324,0.013523,0.002678,0.000431,0.000705
5721000,0.0324,0.013523,0.002678,0.000431,0.000940
5722000,0.0324,0.013523,0.002678,0.000431,0.000705
5723000,0.0324,0.013523,0.002678,0.000431,0.000940
5724000,0.0324,0.013523,0.002678,0.000431,0.000823
5725000,0.0324,0.013523,0.002678,0.000431,0.000823
5726000,0.0324,0.013523,0.002678,0.000431,0.000940
5727000,0.0324,0.013523,0.002678,0.000431,0.000705
5728000,0.0324,0.013523,0.002678,0.000431,0.000940
5729000,0.0324,0.013523,0.002678,0.000431,0.000823
5730000,0.0324,0.013523,0.002678,0.000431,0.000823
5731000,0.0324,0.013523,0.002678,0.000431,0.000823
5732000,0.0324,0.013523,0.002678,0.000431,0.000823
5733000,0.0324,0.013523,0.002678,0.000431,0.000823
5734000,0.0324,0.013523,0.002678,0.000431,0.000823
5735000,0.0324,0.013523,0.002678,0.000431,0.000940
5736000,0.0324,0.013523,0.002678,0.000431,0.000940
5737000,0.0324,0.013523,0.002678,0.000431,0.000940
5738000,0.0324,0.013523,0.002678,0.000431,0.000940
5739000,0.0324,0.013523,0.002678,0.000431,0.000823
5740000,0.0324,0.013523,0.002678,0.000431,0.000823
5741000,0.0324,0.013523,0.002678,0.000431,0.000940
5742000,0.0324,0.013523,0.002678,0.000431,0.000823
5743000,0.0324,0.013523,0.002678,0.000431,0.000940
5744000,0.0324,0.013523,0.002678,0.000431,0.000823
5745000,0.0324,0.013523,0.002678,0.000431,0.000940
5746000,0.0324,0.013523,0.002678,0.000431,0.000823
5747000,0.0324,0.013523,0.002678,0.000431,0.000823
5748000,0.0324,0.013523,0.002678,0.000431,0.000940
5749000,0.0324,0.013523,0.002678,0.000431,0.000940
5750000,0.0324,0.013523,0.002678,0.000431,0.000823
5751000,0.0324,0.013523,0.002678,0.000431,0.000823
5752000,0.0324,0.013523,0.002678,0.000431,0.000940
5753000,0.0324,0.013523,0.002678,0.000431,0.000940
5754000,0.0324,0.013523,0.002678,0.000431,0.000705
5755000,0.0324,0.013523,0.002678,0.000431,0.000940
5756000,0.0324,0.013523,0.002678,0.000431,0.000940
5757000,0.0324,0.013523,0.002678,0.000431,0.000940
5758000,0.0324,0.013523,0.002678,0.000431,0.000705
5759000,0.0324,0.013523,0.002678,0.000431,0.000940
5760000,0.0324,0.013523,0.002678,0.000431,0.000940
5761000,0.0324,0.013523,0.002678,0.000431,0.000823
5762000,0.0324,0.013523,0.002678,0.000431,0.000940
5763000,0.0324,0.013523,0.002678,0.000431,0.000823
5764000,0.0324,0.013523,0.002678,0.000431,0.000940
5765000,0.0324,0.013523,0.002678,0.000431,0.000823
5766000,0.0324,0.013523,0.002678,0.000431,0.000823
5767000,0.0324,0.013523,0.002678,0.000431,0.000940
5768000,0.0324,0.013523,0.002678,0.000431,0.000823
5769000,0.0324,0.013523,0.002678,0.000431,0.000940
5770000,0.0324,0.013523,0.002678,0.000431,0.000823
5771000,0.0324,0.013523,0.002678,0.000431,0.000940
5772000,0.0324,0.013523,0.002678,0.000431,0.000940
5773000,0.0324,0.013523,0.002678,0.000431,0.000705
5774000,0.0324,0.013523,0.002678,0.000431,0.000940
5775000,0.0324,0.013523,0.002678,0.000431,0.000940
5776000,0.0324,0.013523,0.002678,0.000431,0.000940
5777000,0.0324,0.013523,0.002678,0.000431,0.000705
5778000,0.0324,0.013523,0.002678,0.000431,0.000940
5779000,0.0324,0.013523,0.002678,0.000431,0.000940
5780000,0.0324,0.013523,0.002678,0.000431,0.000823
5781000,0.0324,0.013523,0.002678,0.000431,0.000823
5782000,0.0324,0.013523,0.002678,0.000431,0.070869
5783000,0.0324,0.013523,0.002678,0.000431,0.721270
5784000,0.0324,0.013523,0.002678,0.000431,0.578474
5785000,0.0324,0.013523,0.002678,0.000431,0.133747
5786000,0.0324,0.013523,0.002678,0.000431,0.132572
5787000,0.0324,0.013523,0.002678,0.000431,0.559904
5788000,0.0324,0.013523,0.002678,0.000431,0.236114
5789000,0.0324,0.013523,0.002678,0.000431,0.302400
5790000,0.0324,0.013523,0.002678,0.000431,0.288767
5791000,0.0324,0.013523,0.002678,0.000431,0.140094
5792000,0.0324,0.013523,0.002678,0.000431,0.174529
5793000,0.0324,0.013523,0.002678,0.000431,0.102837
5794000,0.0324,0.013523,0.002678,0.000431,0.551325
5795000,0.0324,0.013523,0.002678,0.000431,0.244576
5796000,0.0324,0.013523,0.002678,0.000431,0.152787
5797000,0.0324,0.013523,0.002678,0.000431,0.118703
5798000,0.0324,0.013523,0.002678,0.000431,0.095198
5799000,0.0324,0.013523,0.002678,0.000431,0.080154
5800000,0.0324,0.013523,0.002678,0.000431,0.063348
5801000,0.0324,0.013523,0.002678,0.000431,0.051947
5802000,0.0324,0.013523,0.002678,0.000431,0.047129
5803000,0.0324,0.013523,0.002678,0.000431,0.042545
5804000,0.0324,0.013523,0.002678,0.000431,0.032673
5805000,0.0324,0.013523,0.002678,0.000431,0.023506
5806000,0.0324,0.013523,0.002678,0.000431,0.027737
5807000,0.0324,0.013523,0.002678,0.000431,0.014338
5808000,0.0324,0.013523,0.002678,0.000431,0.014103
5809000,0.0324,0.013523,0.002678,0.000431,0.011400
5810000,0.0324,0.013523,0.002678,0.000431,0.005994
5811000,0.0324,0.013523,0.002678,0.000431,0.006229
5812000,0.0324,0.013523,0.002678,0.000431,0.008109
5813000,0.0324,0.013523,0.002678,0.000431,0.010225
5814000,0.0324,0.013523,0.002678,0.000431,0.003643
5815000,0.0324,0.013523,0.002678,0.000431,0.003526
5816000,0.0324,0.013523,0.002678,0.000431,0.003173
5817000,0.0324,0.013523,0.002678,0.000431,0.003408
5818000,0.0324,0.013523,0.002678,0.000431,0.003761
5819000,0.0324,0.013523,0.002678,0.000431,0.003173
5820000,0.0324,0.013523,0.002678,0.000431,0.003526
5821000,0.0324,0.013523,0.002678,0.000431,0.003408
5822000,0.0324,0.013523,0.002678,0.000431,0.005289
5823000,0.0324,0.013523,0.002678,0.000431,0.002586
5824000,0.0324,0.013523,0.002678,0.000431,0.002351
5825000,0.0324,0.013523,0.002678,0.000431,0.005289
5826000,0.0324,0.013523,0.002678,0.000431,0.001880
5827000,0.0324,0.013523,0.002678,0.000431,0.001645
5828000,0.0324,0.013523,0.002678,0.000431,0.001763
5829000,0.0324,0.013523,0.002678,0.000431,0.003878
5830000,0.0324,0.013523,0.002678,0.000431,0.001058
5831000,0.0324,0.013523,0.002678,0.000431,0.000823
5832000,0.0324,0.013523,0.002678,0.000431,0.000823
5833000,0.0324,0.013523,0.002678,0.000431,0.000940
5834000,0.0324,0.013523,0.002678,0.000431,0.000823
5835000,0.0324,0.013523,0.002678,0.000431,0.000823
5836000,0.0324,0.013523,0.002678,0.000431,0.000940
5837000,0.0324,0.013523,0.002678,0.000431,0.000940
5838000,0.0324,0.013523,0.002678,0.000431,0.000940
5839000,0.0324,0.013523,0.002678,0.000431,0.000705
5840000,0.0324,0.013523,0.002678,0.000431,0.000940
5841000,0.0324,0.013523,0.002678,0.000431,0.000940
5842000,0.0324,0.013523,0.002678,0.000431,0.000940
5843000,0.0324,0.013523,0.002678,0.000431,0.000705
5844000,0.0324,0.013523,0.002678,0.000431,0.000940
5845000,0.0324,0.013523,0.002678,0.000431,0.000940
5846000,0.0324,0.013523,0.002678,0.000431,0.000940
5847000,0.0324,0.013523,0.002678,0.000431,0.020450
5848000,0.0324,0.013523,0.002678,0.000431,0.714571
5849000,0.0324,0.013523,0.002678,0.000431,0.615965
5850000,0.0324,0.013523,0.002678,0.000431,0.132572
5851000,0.0324,0.013523,0.002678,0.000431,0.133865
5852000,0.0324,0.013523,0.002678,0.000431,0.535106
5853000,0.0324,0.013523,0.002678,0.000431,0.224831
5854000,0.0324,0.013523,0.002678,0.000431,0.250570
5855000,0.0324,0.013523,0.002678,0.000431,0.308982
5856000,0.0324,0.013523,0.002678,0.000431,0.141504
5857000,0.0324,0.013523,0.002678,0.000431,0.161719
5858000,0.0324,0.013523,0.002678,0.000431,0.106481
5859000,0.0324,0.013523,0.002678,0.000431,0.395130
5860000,0.0324,0.013523,0.002678,0.000431,0.424394
5861000,0.0324,0.013523,0.002678,0.000431,0.203324
5862000,0.0324,0.013523,0.002678,0.000431,0.173237
5863000,0.0324,0.013523,0.002678,0.000431,0.133982
5864000,0.0324,0.013523,0.002678,0.000431,0.115883
5865000,0.0324,0.013523,0.002678,0.000431,0.102837
5866000,0.0324,0.013523,0.002678,0.000431,0.093670
5867000,0.0324,0.013523,0.002678,0.000431,0.057941
5868000,0.0324,0.013523,0.002678,0.000431,0.063818
5869000,0.0324,0.013523,0.002678,0.000431,0.048187
5870000,0.0324,0.013523,0.002678,0.000431,0.038667
5871000,0.0324,0.013523,0.002678,0.000431,0.039254
5872000,0.0324,0.013523,0.002678,0.000431,0.033496
5873000,0.0324,0.013523,0.002678,0.000431,0.023036
5874000,0.0324,0.013523,0.002678,0.000431,0.025856
5875000,0.0324,0.013523,0.002678,0.000431,0.018569
5876000,0.0324,0.013523,0.002678,0.000431,0.014573
5877000,0.0324,0.013523,0.002678,0.000431,0.008932
5878000,0.0324,0.013523,0.002678,0.000431,0.009050
5879000,0.0324,0.013523,0.002678,0.000431,0.013751
5880000,0.0324,0.013523,0.002678,0.000431,0.005641
5881000,0.0324,0.013523,0.002678,0.000431,0.006817
5882000,0.0324,0.013523,0.002678,0.000431,0.004466
5883000,0.0324,0.013523,0.002678,0.000431,0.002586
5884000,0.0324,0.013523,0.002678,0.000431,0.002233
5885000,0.0324,0.013523,0.002678,0.000431,0.002468
5886000,0.0324,0.013523,0.002678,0.000431,0.003996
5887000,0.0324,0.013523,0.002678,0.000431,0.004231
5888000,0.0324,0.013523,0.002678,0.000431,0.291822
5889000,0.0324,0.013523,0.002678,0.000431,0.836566
5890000,0.0324,0.013523,0.002678,0.000431,0.319912
5891000,0.0324,0.013523,0.002678,0.000431,0.131632
5892000,0.0324,0.013523,0.002678,0.000431,0.145500
5893000,0.0324,0.013523,0.002678,0.000431,0.593047
5894000,0.0324,0.013523,0.002678,0.000431,0.275604
5895000,0.0324,0.013523,0.002678,0.000431,0.278894
5896000,0.0324,0.013523,0.002678,0.000431,0.218955
5897000,0.0324,0.013523,0.002678,0.000431,0.144912
5898000,0.0324,0.013523,0.002678,0.000431,0.148556
5899000,0.0324,0.013523,0.002678,0.000431,0.232823
5900000,0.0324,0.013523,0.002678,0.000431,0.498437
5901000,0.0324,0.013523,0.002678,0.000431,0.203559
5902000,0.0324,0.013523,0.002678,0.000431,0.147145
5903000,0.0324,0.013523,0.002678,0.000431,0.124227
5904000,0.0324,0.013523,0.002678,0.000431,0.090497
5905000,0.0324,0.013523,0.002678,0.000431,0.069694
5906000,0.0324,0.013523,0.002678,0.000431,0.065228
5907000,0.0324,0.013523,0.002678,0.000431,0.051125
5908000,0.0324,0.013523,0.002678,0.000431,0.034083
5909000,0.0324,0.013523,0.002678,0.000431,0.038902
5910000,0.0324,0.013523,0.002678,0.000431,0.030557
5911000,0.0324,0.013523,0.002678,0.000431,0.031615
5912000,0.0324,0.013523,0.002678,0.000431,0.024446
5913000,0.0324,0.013523,0.002678,0.000431,0.023388
5914000,0.0324,0.013523,0.002678,0.000431,0.029617
5915000,0.0324,0.013523,0.002678,0.000431,0.019157
5916000,0.0324,0.013523,0.002678,0.000431,0.019157
5917000,0.0324,0.013523,0.002678,0.000431,0.017864
5918000,0.0324,0.013523,0.002678,0.000431,0.013633
5919000,0.0324,0.013523,0.002678,0.000431,0.016689
5920000,0.0324,0.013523,0.002678,0.000431,0.009285
5921000,0.0324,0.013523,0.002678,0.000431,0.005759
5922000,0.0324,0.013523,0.002678,0.000431,0.008227
5923000,0.0324,0.013523,0.002678,0.000431,0.007052
5924000,0.0324,0.013523,0.002678,0.000431,0.005289
5925000,0.0324,0.013523,0.002678,0.000431,0.007052
5926000,0.0324,0.013523,0.002678,0.000431,0.006464
5927000,0.0324,0.013523,0.002678,0.000431,0.000940
5928000,0.0324,0.013523,0.002678,0.000431,0.000940
5929000,0.0324,0.013523,0.002678,0.000431,0.000940
5930000,0.0324,0.013523,0.002678,0.000431,0.000705
5931000,0.0324,0.013523,0.002678,0.000431,0.000940
5932000,0.0324,0.013523,0.002678,0.000431,0.000940
5933000,0.0324,0.013523,0.002678,0.000431,0.000940
5934000,0.0324,0.013523,0.002678,0.000431,0.000823
5935000,0.0324,0.013523,0.002678,0.000431,0.000823
5936000,0.0324,0.013523,0.002678,0.000431,0.000940
5937000,0.0324,0.013523,0.002678,0.000431,0.000823
5938000,0.0324,0.013523,0.002678,0.000431,0.000940
5939000,0.0324,0.013523,0.002678,0.000431,0.000823
5940000,0.0324,0.013523,0.002678,0.000431,0.000940
5941000,0.0324,0.013523,0.002678,0.000431,0.000823
5942000,0.0324,0.013523,0.002678,0.000431,0.000823
5943000,0.0324,0.013523,0.002678,0.000431,0.000940
5944000,0.0324,0.013523,0.002678,0.000431,0.000940
5945000,0.0324,0.013523,0.002678,0.000431,0.000705
5946000,0.0324,0.013523,0.002678,0.000431,0.000940
5947000,0.0324,0.013523,0.002678,0.000431,0.000940
5948000,0.0324,0.013523,0.002678,0.000431,0.000940
5949000,0.0324,0.013523,0.002678,0.000431,0.107538
5950000,0.0324,0.013523,0.002678,0.000431,0.741368
5951000,0.0324,0.013523,0.002678,0.000431,0.529112
5952000,0.0324,0.013523,0.002678,0.000431,0.134217
5953000,0.0324,0.013523,0.002678,0.000431,0.132572
5954000,0.0324,0.013523,0.002678,0.000431,0.565193
5955000,0.0324,0.013523,0.002678,0.000431,0.280305
5956000,0.0324,0.013523,0.002678,0.000431,0.234116
5957000,0.0324,0.013523,0.002678,0.000431,0.239993
5958000,0.0324,0.013523,0.002678,0.000431,0.141386
5959000,0.0324,0.013523,0.002678,0.000431,0.156548
5960000,0.0324,0.013523,0.002678,0.000431,0.107186
5961000,0.0324,0.013523,0.002678,0.000431,0.478105
5962000,0.0324,0.013523,0.002678,0.000431,0.250453
5963000,0.0324,0.013523,0.002678,0.000431,0.138683
5964000,0.0324,0.013523,0.002678,0.000431,0.118351
5965000,0.0324,0.013523,0.002678,0.000431,0.091084
5966000,0.0324,0.013523,0.002678,0.000431,0.079684
5967000,0.0324,0.013523,0.002678,0.000431,0.062172
5968000,0.0324,0.013523,0.002678,0.000431,0.058647
5969000,0.0324,0.013523,0.002678,0.000431,0.050420
5970000,0.0324,0.013523,0.002678,0.000431,0.034083
5971000,0.0324,0.013523,0.002678,0.000431,0.034201
5972000,0.0324,0.013523,0.002678,0.000431,0.036904
5973000,0.0324,0.013523,0.002678,0.000431,0.027502
5974000,0.0324,0.013523,0.002678,0.000431,0.019627
5975000,0.0324,0.013523,0.002678,0.000431,0.021155
5976000,0.0324,0.013523,0.002678,0.000431,0.016571
5977000,0.0324,0.013523,0.002678,0.000431,0.018217
5978000,0.0324,0.013523,0.002678,0.000431,0.013868
5979000,0.0324,0.013523,0.002678,0.000431,0.012340
5980000,0.0324,0.013523,0.002678,0.000431,0.013986
5981000,0.0324,0.013523,0.002678,0.000431,0.006347
5982000,0.0324,0.013523,0.002678,0.000431,0.008109
5983000,0.0324,0.013523,0.002678,0.000431,0.007874
5984000,0.0324,0.013523,0.002678,0.000431,0.004231
5985000,0.0324,0.013523,0.002678,0.000431,0.004936
5986000,0.0324,0.013523,0.002678,0.000431,0.006464
5987000,0.0324,0.013523,0.002678,0.000431,0.003761
5988000,0.0324,0.013523,0.002678,0.000431,0.055003
5989000,0.0324,0.013523,0.002678,0.000431,0.637473
5990000,0.0324,0.013523,0.002678,0.000431,0.612557
5991000,0.0324,0.013523,0.002678,0.000431,0.132572
5992000,0.0324,0.013523,0.002678,0.000431,0.133512
5993000,0.0324,0.013523,0.002678,0.000431,0.572597
5994000,0.0324,0.013523,0.002678,0.000431,0.225654
5995000,0.0324,0.013523,0.002678,0.000431,0.281598
5996000,0.0324,0.013523,0.002678,0.000431,0.304398
5997000,0.0324,0.013523,0.002678,0.000431,0.140564
5998000,0.0324,0.013523,0.002678,0.000431,0.159133
5999000,0.0324,0.013523,0.002678,0.000431,0.107538
