Cycle,Area(mm^2),PeakDynamic(W),SubthresholdLeakage(W),GateLeakage(W),RunTimeDynamic(W)
50000000,0.0324,0.013523,0.002678,0.000431,0.692594
50001000,0.0324,0.013523,0.002678,0.000431,0.139036
50002000,0.0324,0.013523,0.002678,0.000431,0.135863
50003000,0.0324,0.013523,0.002678,0.000431,0.552735
50004000,0.0324,0.013523,0.002678,0.000431,0.234821
50005000,0.0324,0.013523,0.002678,0.000431,0.290177
50006000,0.0324,0.013523,0.002678,0.000431,0.203206
50007000,0.0324,0.013523,0.002678,0.000431,0.157135
50008000,0.0324,0.013523,0.002678,0.000431,0.112474
50009000,0.0324,0.013523,0.002678,0.000431,0.470583
50010000,0.0324,0.013523,0.002678,0.000431,0.227182
50011000,0.0324,0.013523,0.002678,0.000431,0.133865
50012000,0.0324,0.013523,0.002678,0.000431,0.132924
50013000,0.0324,0.013523,0.002678,0.000431,0.112239
50014000,0.0324,0.013523,0.002678,0.000431,0.088499
50015000,0.0324,0.013523,0.002678,0.000431,0.066756
50016000,0.0324,0.013523,0.002678,0.000431,0.050890
50017000,0.0324,0.013523,0.002678,0.000431,0.037962
50018000,0.0324,0.013523,0.002678,0.000431,0.027737
50019000,0.0324,0.013523,0.002678,0.000431,0.021155
50020000,0.0324,0.013523,0.002678,0.000431,0.007992
50021000,0.0324,0.013523,0.002678,0.000431,0.006699
50022000,0.0324,0.013523,0.002678,0.000431,0.007052
50023000,0.0324,0.013523,0.002678,0.000431,0.008462
50024000,0.0324,0.013523,0.002678,0.000431,0.006229
50025000,0.0324,0.013523,0.002678,0.000431,0.007639
50026000,0.0324,0.013523,0.002678,0.000431,0.006229
50027000,0.0324,0.013523,0.002678,0.000431,0.005171
50028000,0.0324,0.013523,0.002678,0.000431,0.005641
50029000,0.0324,0.013523,0.002678,0.000431,0.006817
50030000,0.0324,0.013523,0.002678,0.000431,0.008932
50031000,0.0324,0.013523,0.002678,0.000431,0.001763
50032000,0.0324,0.013523,0.002678,0.000431,0.002703
50033000,0.0324,0.013523,0.002678,0.000431,0.002116
50034000,0.0324,0.013523,0.002678,0.000431,0.000940
50035000,0.0324,0.013523,0.002678,0.000431,0.000823
50036000,0.0324,0.013523,0.002678,0.000431,0.000823
50037000,0.0324,0.013523,0.002678,0.000431,0.000823
50038000,0.0324,0.013523,0.002678,0.000431,0.000823
50039000,0.0324,0.013523,0.002678,0.000431,0.000940
50040000,0.0324,0.013523,0.002678,0.000431,0.000705
50041000,0.0324,0.013523,0.002678,0.000431,0.000940
50042000,0.0324,0.013523,0.002678,0.000431,0.000823
50043000,0.0324,0.013523,0.002678,0.000431,0.000823
50044000,0.0324,0.013523,0.002678,0.000431,0.000823
50045000,0.0324,0.013523,0.002678,0.000431,0.000823
50046000,0.0324,0.013523,0.002678,0.000431,0.000823
50047000,0.0324,0.013523,0.002678,0.000431,0.000823
50048000,0.0324,0.013523,0.002678,0.000431,0.000940
50049000,0.0324,0.013523,0.002678,0.000431,0.000823
50050000,0.0324,0.013523,0.002678,0.000431,0.000705
50051000,0.0324,0.013523,0.002678,0.000431,0.000940
50052000,0.0324,0.013523,0.002678,0.000431,0.000823
50053000,0.0324,0.013523,0.002678,0.000431,0.000823
50054000,0.0324,0.013523,0.002678,0.000431,0.002233
50055000,0.0324,0.013523,0.002678,0.000431,0.506076
50056000,0.0324,0.013523,0.002678,0.000431,0.688950
50057000,0.0324,0.013523,0.002678,0.000431,0.150201
50058000,0.0324,0.013523,0.002678,0.000431,0.137626
50059000,0.0324,0.013523,0.002678,0.000431,0.514421
50060000,0.0324,0.013523,0.002678,0.000431,0.236349
50061000,0.0324,0.013523,0.002678,0.000431,0.337776
50062000,0.0324,0.013523,0.002678,0.000431,0.209905
50063000,0.0324,0.013523,0.002678,0.000431,0.182051
50064000,0.0324,0.013523,0.002678,0.000431,0.087206
50065000,0.0324,0.013523,0.002678,0.000431,0.565663
50066000,0.0324,0.013523,0.002678,0.000431,0.288649
50067000,0.0324,0.013523,0.002678,0.000431,0.207320
50068000,0.0324,0.013523,0.002678,0.000431,0.173824
50069000,0.0324,0.013523,0.002678,0.000431,0.160661
50070000,0.0324,0.013523,0.002678,0.000431,0.104718
50071000,0.0324,0.013523,0.002678,0.000431,0.096608
50072000,0.0324,0.013523,0.002678,0.000431,0.061115
50073000,0.0324,0.013523,0.002678,0.000431,0.047834
50074000,0.0324,0.013523,0.002678,0.000431,0.045601
50075000,0.0324,0.013523,0.002678,0.000431,0.049362
50076000,0.0324,0.013523,0.002678,0.000431,0.036551
50077000,0.0324,0.013523,0.002678,0.000431,0.025739
50078000,0.0324,0.013523,0.002678,0.000431,0.026679
50079000,0.0324,0.013523,0.002678,0.000431,0.027619
50080000,0.0324,0.013523,0.002678,0.000431,0.016454
50081000,0.0324,0.013523,0.002678,0.000431,0.010813
50082000,0.0324,0.013523,0.002678,0.000431,0.015044
50083000,0.0324,0.013523,0.002678,0.000431,0.007522
50084000,0.0324,0.013523,0.002678,0.000431,0.003878
50085000,0.0324,0.013523,0.002678,0.000431,0.015161
50086000,0.0324,0.013523,0.002678,0.000431,0.817173
50087000,0.0324,0.013523,0.002678,0.000431,0.549797
50088000,0.0324,0.013523,0.002678,0.000431,0.146910
50089000,0.0324,0.013523,0.002678,0.000431,0.143267
50090000,0.0324,0.013523,0.002678,0.000431,0.536869
50091000,0.0324,0.013523,0.002678,0.000431,0.273253
50092000,0.0324,0.013523,0.002678,0.000431,0.305456
50093000,0.0324,0.013523,0.002678,0.000431,0.156783
50094000,0.0324,0.013523,0.002678,0.000431,0.168888
50095000,0.0324,0.013523,0.002678,0.000431,0.152434
50096000,0.0324,0.013523,0.002678,0.000431,0.533931
50097000,0.0324,0.013523,0.002678,0.000431,0.205674
50098000,0.0324,0.013523,0.002678,0.000431,0.191101
50099000,0.0324,0.013523,0.002678,0.000431,0.165950
50100000,0.0324,0.013523,0.002678,0.000431,0.122582
50101000,0.0324,0.013523,0.002678,0.000431,0.109654
50102000,0.0324,0.013523,0.002678,0.000431,0.105423
50103000,0.0324,0.013523,0.002678,0.000431,0.078391
50104000,0.0324,0.013523,0.002678,0.000431,0.052770
50105000,0.0324,0.013523,0.002678,0.000431,0.053005
50106000,0.0324,0.013523,0.002678,0.000431,0.040665
50107000,0.0324,0.013523,0.002678,0.000431,0.029382
50108000,0.0324,0.013523,0.002678,0.000431,0.027149
50109000,0.0324,0.013523,0.002678,0.000431,0.031498
50110000,0.0324,0.013523,0.002678,0.000431,0.011518
50111000,0.0324,0.013523,0.002678,0.000431,0.020450
50112000,0.0324,0.013523,0.002678,0.000431,0.012458
50113000,0.0324,0.013523,0.002678,0.000431,0.003291
50114000,0.0324,0.013523,0.002678,0.000431,0.003173
50115000,0.0324,0.013523,0.002678,0.000431,0.002351
50116000,0.0324,0.013523,0.002678,0.000431,0.020685
50117000,0.0324,0.013523,0.002678,0.000431,0.748184
50118000,0.0324,0.013523,0.002678,0.000431,0.559434
50119000,0.0324,0.013523,0.002678,0.000431,0.136450
50120000,0.0324,0.013523,0.002678,0.000431,0.137743
50121000,0.0324,0.013523,0.002678,0.000431,0.520180
50122000,0.0324,0.013523,0.002678,0.000431,0.260442
50123000,0.0324,0.013523,0.002678,0.000431,0.332017
50124000,0.0324,0.013523,0.002678,0.000431,0.145265
50125000,0.0324,0.013523,0.002678,0.000431,0.176645
50126000,0.0324,0.013523,0.002678,0.000431,0.139976
50127000,0.0324,0.013523,0.002678,0.000431,0.527349
50128000,0.0324,0.013523,0.002678,0.000431,0.210963
50129000,0.0324,0.013523,0.002678,0.000431,0.187457
50130000,0.0324,0.013523,0.002678,0.000431,0.152669
50131000,0.0324,0.013523,0.002678,0.000431,0.128693
50132000,0.0324,0.013523,0.002678,0.000431,0.090614
50133000,0.0324,0.013523,0.002678,0.000431,0.072750
50134000,0.0324,0.013523,0.002678,0.000431,0.056766
50135000,0.0324,0.013523,0.002678,0.000431,0.041252
50136000,0.0324,0.013523,0.002678,0.000431,0.031968
50137000,0.0324,0.013523,0.002678,0.000431,0.029500
50138000,0.0324,0.013523,0.002678,0.000431,0.016571
50139000,0.0324,0.013523,0.002678,0.000431,0.013281
50140000,0.0324,0.013523,0.002678,0.000431,0.009637
50141000,0.0324,0.013523,0.002678,0.000431,0.015044
50142000,0.0324,0.013523,0.002678,0.000431,0.003996
50143000,0.0324,0.013523,0.002678,0.000431,0.288179
50144000,0.0324,0.013523,0.002678,0.000431,0.789437
50145000,0.0324,0.013523,0.002678,0.000431,0.327316
50146000,0.0324,0.013523,0.002678,0.000431,0.140446
50147000,0.0324,0.013523,0.002678,0.000431,0.527937
50148000,0.0324,0.013523,0.002678,0.000431,0.303693
50149000,0.0324,0.013523,0.002678,0.000431,0.275839
50150000,0.0324,0.013523,0.002678,0.000431,0.202266
50151000,0.0324,0.013523,0.002678,0.000431,0.190631
50152000,0.0324,0.013523,0.002678,0.000431,0.086501
50153000,0.0324,0.013523,0.002678,0.000431,0.530405
50154000,0.0324,0.013523,0.002678,0.000431,0.180406
50155000,0.0324,0.013523,0.002678,0.000431,0.143384
50156000,0.0324,0.013523,0.002678,0.000431,0.121407
50157000,0.0324,0.013523,0.002678,0.000431,0.120466
50158000,0.0324,0.013523,0.002678,0.000431,0.083915
50159000,0.0324,0.013523,0.002678,0.000431,0.070752
50160000,0.0324,0.013523,0.002678,0.000431,0.054063
50161000,0.0324,0.013523,0.002678,0.000431,0.038432
50162000,0.0324,0.013523,0.002678,0.000431,0.027619
50163000,0.0324,0.013523,0.002678,0.000431,0.025856
50164000,0.0324,0.013523,0.002678,0.000431,0.030792
50165000,0.0324,0.013523,0.002678,0.000431,0.017512
50166000,0.0324,0.013523,0.002678,0.000431,0.023623
50167000,0.0324,0.013523,0.002678,0.000431,0.013398
50168000,0.0324,0.013523,0.002678,0.000431,0.010342
50169000,0.0324,0.013523,0.002678,0.000431,0.003526
50170000,0.0324,0.013523,0.002678,0.000431,0.001645
50171000,0.0324,0.013523,0.002678,0.000431,0.002938
50172000,0.0324,0.013523,0.002678,0.000431,0.002116
50173000,0.0324,0.013523,0.002678,0.000431,0.000940
50174000,0.0324,0.013523,0.002678,0.000431,0.000705
50175000,0.0324,0.013523,0.002678,0.000431,0.000940
50176000,0.0324,0.013523,0.002678,0.000431,0.000705
50177000,0.0324,0.013523,0.002678,0.000431,0.000940
50178000,0.0324,0.013523,0.002678,0.000431,0.000705
50179000,0.0324,0.013523,0.002678,0.000431,0.000940
50180000,0.0324,0.013523,0.002678,0.000431,0.000823
50181000,0.0324,0.013523,0.002678,0.000431,0.000823
50182000,0.0324,0.013523,0.002678,0.000431,0.000940
50183000,0.0324,0.013523,0.002678,0.000431,0.000705
50184000,0.0324,0.013523,0.002678,0.000431,0.000940
50185000,0.0324,0.013523,0.002678,0.000431,0.000823
50186000,0.0324,0.013523,0.002678,0.000431,0.000823
50187000,0.0324,0.013523,0.002678,0.000431,0.000823
50188000,0.0324,0.013523,0.002678,0.000431,0.000823
50189000,0.0324,0.013523,0.002678,0.000431,0.000823
50190000,0.0324,0.013523,0.002678,0.000431,0.000823
50191000,0.0324,0.013523,0.002678,0.000431,0.000940
50192000,0.0324,0.013523,0.002678,0.000431,0.000705
50193000,0.0324,0.013523,0.002678,0.000431,0.000940
50194000,0.0324,0.013523,0.002678,0.000431,0.000823
50195000,0.0324,0.013523,0.002678,0.000431,0.000823
50196000,0.0324,0.013523,0.002678,0.000431,0.000705
50197000,0.0324,0.013523,0.002678,0.000431,0.000940
50198000,0.0324,0.013523,0.002678,0.000431,0.000940
50199000,0.0324,0.013523,0.002678,0.000431,0.000705
50200000,0.0324,0.013523,0.002678,0.000431,0.000940
50201000,0.0324,0.013523,0.002678,0.000431,0.000705
50202000,0.0324,0.013523,0.002678,0.000431,0.000940
50203000,0.0324,0.013523,0.002678,0.000431,0.000705
50204000,0.0324,0.013523,0.002678,0.000431,0.000940
50205000,0.0324,0.013523,0.002678,0.000431,0.000705
50206000,0.0324,0.013523,0.002678,0.000431,0.000940
50207000,0.0324,0.013523,0.002678,0.000431,0.000823
50208000,0.0324,0.013523,0.002678,0.000431,0.000823
50209000,0.0324,0.013523,0.002678,0.000431,0.000823
50210000,0.0324,0.013523,0.002678,0.000431,0.000823
50211000,0.0324,0.013523,0.002678,0.000431,0.000940
50212000,0.0324,0.013523,0.002678,0.000431,0.000823
50213000,0.0324,0.013523,0.002678,0.000431,0.000823
50214000,0.0324,0.013523,0.002678,0.000431,0.000823
50215000,0.0324,0.013523,0.002678,0.000431,0.000823
50216000,0.0324,0.013523,0.002678,0.000431,0.000940
50217000,0.0324,0.013523,0.002678,0.000431,0.000940
50218000,0.0324,0.013523,0.002678,0.000431,0.071810
50219000,0.0324,0.013523,0.002678,0.000431,0.666620
50220000,0.0324,0.013523,0.002678,0.000431,0.539689
50221000,0.0324,0.013523,0.002678,0.000431,0.141857
50222000,0.0324,0.013523,0.002678,0.000431,0.216017
50223000,0.0324,0.013523,0.002678,0.000431,0.592695
50224000,0.0324,0.013523,0.002678,0.000431,0.240228
50225000,0.0324,0.013523,0.002678,0.000431,0.264321
50226000,0.0324,0.013523,0.002678,0.000431,0.152434
50227000,0.0324,0.013523,0.002678,0.000431,0.125285
50228000,0.0324,0.013523,0.002678,0.000431,0.353407
50229000,0.0324,0.013523,0.002678,0.000431,0.374327
50230000,0.0324,0.013523,0.002678,0.000431,0.176175
50231000,0.0324,0.013523,0.002678,0.000431,0.153257
50232000,0.0324,0.013523,0.002678,0.000431,0.137626
50233000,0.0324,0.013523,0.002678,0.000431,0.110947
50234000,0.0324,0.013523,0.002678,0.000431,0.092260
50235000,0.0324,0.013523,0.002678,0.000431,0.068519
50236000,0.0324,0.013523,0.002678,0.000431,0.043485
50237000,0.0324,0.013523,0.002678,0.000431,0.024916
50238000,0.0324,0.013523,0.002678,0.000431,0.022448
50239000,0.0324,0.013523,0.002678,0.000431,0.013633
50240000,0.0324,0.013523,0.002678,0.000431,0.009520
50241000,0.0324,0.013523,0.002678,0.000431,0.006699
50242000,0.0324,0.013523,0.002678,0.000431,0.008345
50243000,0.0324,0.013523,0.002678,0.000431,0.007992
50244000,0.0324,0.013523,0.002678,0.000431,0.004113
50245000,0.0324,0.013523,0.002678,0.000431,0.004231
50246000,0.0324,0.013523,0.002678,0.000431,0.006582
50247000,0.0324,0.013523,0.002678,0.000431,0.003291
50248000,0.0324,0.013523,0.002678,0.000431,0.003643
50249000,0.0324,0.013523,0.002678,0.000431,0.003173
50250000,0.0324,0.013523,0.002678,0.000431,0.003761
50251000,0.0324,0.013523,0.002678,0.000431,0.003408
50252000,0.0324,0.013523,0.002678,0.000431,0.003291
50253000,0.0324,0.013523,0.002678,0.000431,0.003408
50254000,0.0324,0.013523,0.002678,0.000431,0.008580
50255000,0.0324,0.013523,0.002678,0.000431,0.001058
50256000,0.0324,0.013523,0.002678,0.000431,0.072515
50257000,0.0324,0.013523,0.002678,0.000431,0.695414
50258000,0.0324,0.013523,0.002678,0.000431,0.547329
50259000,0.0324,0.013523,0.002678,0.000431,0.134805
50260000,0.0324,0.013523,0.002678,0.000431,0.181228
50261000,0.0324,0.013523,0.002678,0.000431,0.522530
50262000,0.0324,0.013523,0.002678,0.000431,0.262675
50263000,0.0324,0.013523,0.002678,0.000431,0.333310
50264000,0.0324,0.013523,0.002678,0.000431,0.150789
50265000,0.0324,0.013523,0.002678,0.000431,0.142209
50266000,0.0324,0.013523,0.002678,0.000431,0.245986
50267000,0.0324,0.013523,0.002678,0.000431,0.498319
50268000,0.0324,0.013523,0.002678,0.000431,0.192159
50269000,0.0324,0.013523,0.002678,0.000431,0.176880
50270000,0.0324,0.013523,0.002678,0.000431,0.144442
50271000,0.0324,0.013523,0.002678,0.000431,0.119056
50272000,0.0324,0.013523,0.002678,0.000431,0.094023
50273000,0.0324,0.013523,0.002678,0.000431,0.075688
50274000,0.0324,0.013523,0.002678,0.000431,0.066168
50275000,0.0324,0.013523,0.002678,0.000431,0.052300
50276000,0.0324,0.013523,0.002678,0.000431,0.034201
50277000,0.0324,0.013523,0.002678,0.000431,0.040430
50278000,0.0324,0.013523,0.002678,0.000431,0.025504
50279000,0.0324,0.013523,0.002678,0.000431,0.021273
50280000,0.0324,0.013523,0.002678,0.000431,0.016571
50281000,0.0324,0.013523,0.002678,0.000431,0.008697
50282000,0.0324,0.013523,0.002678,0.000431,0.009402
50283000,0.0324,0.013523,0.002678,0.000431,0.008815
50284000,0.0324,0.013523,0.002678,0.000431,0.003291
50285000,0.0324,0.013523,0.002678,0.000431,0.005054
50286000,0.0324,0.013523,0.002678,0.000431,0.002468
50287000,0.0324,0.013523,0.002678,0.000431,0.002821
50288000,0.0324,0.013523,0.002678,0.000431,0.002233
50289000,0.0324,0.013523,0.002678,0.000431,0.006229
50290000,0.0324,0.013523,0.002678,0.000431,0.000940
50291000,0.0324,0.013523,0.002678,0.000431,0.000705
50292000,0.0324,0.013523,0.002678,0.000431,0.000940
50293000,0.0324,0.013523,0.002678,0.000431,0.000823
50294000,0.0324,0.013523,0.002678,0.000431,0.000823
50295000,0.0324,0.013523,0.002678,0.000431,0.000823
50296000,0.0324,0.013523,0.002678,0.000431,0.000823
50297000,0.0324,0.013523,0.002678,0.000431,0.000705
50298000,0.0324,0.013523,0.002678,0.000431,0.000940
50299000,0.0324,0.013523,0.002678,0.000431,0.000823
50300000,0.0324,0.013523,0.002678,0.000431,0.000823
50301000,0.0324,0.013523,0.002678,0.000431,0.000823
50302000,0.0324,0.013523,0.002678,0.000431,0.014573
50303000,0.0324,0.013523,0.002678,0.000431,0.769339
50304000,0.0324,0.013523,0.002678,0.000431,0.542275
50305000,0.0324,0.013523,0.002678,0.000431,0.136803
50306000,0.0324,0.013523,0.002678,0.000431,0.146088
50307000,0.0324,0.013523,0.002678,0.000431,0.534166
50308000,0.0324,0.013523,0.002678,0.000431,0.286651
50309000,0.0324,0.013523,0.002678,0.000431,0.304751
50310000,0.0324,0.013523,0.002678,0.000431,0.151259
50311000,0.0324,0.013523,0.002678,0.000431,0.148321
50312000,0.0324,0.013523,0.002678,0.000431,0.238582
50313000,0.0324,0.013523,0.002678,0.000431,0.475284
50314000,0.0324,0.013523,0.002678,0.000431,0.189573
50315000,0.0324,0.013523,0.002678,0.000431,0.168418
50316000,0.0324,0.013523,0.002678,0.000431,0.152904
50317000,0.0324,0.013523,0.002678,0.000431,0.117411
50318000,0.0324,0.013523,0.002678,0.000431,0.107421
50319000,0.0324,0.013523,0.002678,0.000431,0.095550
50320000,0.0324,0.013523,0.002678,0.000431,0.078156
50321000,0.0324,0.013523,0.002678,0.000431,0.076511
50322000,0.0324,0.013523,0.002678,0.000431,0.059939
50323000,0.0324,0.013523,0.002678,0.000431,0.048187
50324000,0.0324,0.013523,0.002678,0.000431,0.043133
50325000,0.0324,0.013523,0.002678,0.000431,0.040312
50326000,0.0324,0.013523,0.002678,0.000431,0.041605
50327000,0.0324,0.013523,0.002678,0.000431,0.032438
50328000,0.0324,0.013523,0.002678,0.000431,0.027384
50329000,0.0324,0.013523,0.002678,0.000431,0.027972
50330000,0.0324,0.013523,0.002678,0.000431,0.024798
50331000,0.0324,0.013523,0.002678,0.000431,0.017629
50332000,0.0324,0.013523,0.002678,0.000431,0.022918
50333000,0.0324,0.013523,0.002678,0.000431,0.013281
50334000,0.0324,0.013523,0.002678,0.000431,0.016219
50335000,0.0324,0.013523,0.002678,0.000431,0.010813
50336000,0.0324,0.013523,0.002678,0.000431,0.010342
50337000,0.0324,0.013523,0.002678,0.000431,0.007169
50338000,0.0324,0.013523,0.002678,0.000431,0.007757
50339000,0.0324,0.013523,0.002678,0.000431,0.006464
50340000,0.0324,0.013523,0.002678,0.000431,0.007757
50341000,0.0324,0.013523,0.002678,0.000431,0.006934
50342000,0.0324,0.013523,0.002678,0.000431,0.002938
50343000,0.0324,0.013523,0.002678,0.000431,0.005994
50344000,0.0324,0.013523,0.002678,0.000431,0.001880
50345000,0.0324,0.013523,0.002678,0.000431,0.002586
50346000,0.0324,0.013523,0.002678,0.000431,0.004231
50347000,0.0324,0.013523,0.002678,0.000431,0.000705
50348000,0.0324,0.013523,0.002678,0.000431,0.000940
50349000,0.0324,0.013523,0.002678,0.000431,0.003761
50350000,0.0324,0.013523,0.002678,0.000431,0.588816
50351000,0.0324,0.013523,0.002678,0.000431,0.685542
50352000,0.0324,0.013523,0.002678,0.000431,0.142562
50353000,0.0324,0.013523,0.002678,0.000431,0.135392
50354000,0.0324,0.013523,0.002678,0.000431,0.633594
50355000,0.0324,0.013523,0.002678,0.000431,0.244106
50356000,0.0324,0.013523,0.002678,0.000431,0.299579
50357000,0.0324,0.013523,0.002678,0.000431,0.157958
50358000,0.0324,0.013523,0.002678,0.000431,0.187693
50359000,0.0324,0.013523,0.002678,0.000431,0.093905
50360000,0.0324,0.013523,0.002678,0.000431,0.548034
50361000,0.0324,0.013523,0.002678,0.000431,0.229062
50362000,0.0324,0.013523,0.002678,0.000431,0.178995
50363000,0.0324,0.013523,0.002678,0.000431,0.132689
50364000,0.0324,0.013523,0.002678,0.000431,0.138918
50365000,0.0324,0.013523,0.002678,0.000431,0.107421
50366000,0.0324,0.013523,0.002678,0.000431,0.092142
50367000,0.0324,0.013523,0.002678,0.000431,0.067931
50368000,0.0324,0.013523,0.002678,0.000431,0.050655
50369000,0.0324,0.013523,0.002678,0.000431,0.042193
50370000,0.0324,0.013523,0.002678,0.000431,0.034788
50371000,0.0324,0.013523,0.002678,0.000431,0.029147
50372000,0.0324,0.013523,0.002678,0.000431,0.027619
50373000,0.0324,0.013523,0.002678,0.000431,0.013633
50374000,0.0324,0.013523,0.002678,0.000431,0.019627
50375000,0.0324,0.013523,0.002678,0.000431,0.010930
50376000,0.0324,0.013523,0.002678,0.000431,0.010930
50377000,0.0324,0.013523,0.002678,0.000431,0.005641
50378000,0.0324,0.013523,0.002678,0.000431,0.007404
50379000,0.0324,0.013523,0.002678,0.000431,0.008109
50380000,0.0324,0.013523,0.002678,0.000431,0.003526
50381000,0.0324,0.013523,0.002678,0.000431,0.002938
50382000,0.0324,0.013523,0.002678,0.000431,0.002586
50383000,0.0324,0.013523,0.002678,0.000431,0.005876
50384000,0.0324,0.013523,0.002678,0.000431,0.003996
50385000,0.0324,0.013523,0.002678,0.000431,0.460710
50386000,0.0324,0.013523,0.002678,0.000431,0.771690
50387000,0.0324,0.013523,0.002678,0.000431,0.172884
50388000,0.0324,0.013523,0.002678,0.000431,0.136333
50389000,0.0324,0.013523,0.002678,0.000431,0.542275
50390000,0.0324,0.013523,0.002678,0.000431,0.245281
50391000,0.0324,0.013523,0.002678,0.000431,0.259855
50392000,0.0324,0.013523,0.002678,0.000431,0.249512
50393000,0.0324,0.013523,0.002678,0.000431,0.150201
50394000,0.0324,0.013523,0.002678,0.000431,0.120231
50395000,0.0324,0.013523,0.002678,0.000431,0.357638
50396000,0.0324,0.013523,0.002678,0.000431,0.385963
50397000,0.0324,0.013523,0.002678,0.000431,0.175117
50398000,0.0324,0.013523,0.002678,0.000431,0.158781
50399000,0.0324,0.013523,0.002678,0.000431,0.127518
50400000,0.0324,0.013523,0.002678,0.000431,0.110829
50401000,0.0324,0.013523,0.002678,0.000431,0.083915
50402000,0.0324,0.013523,0.002678,0.000431,0.066756
50403000,0.0324,0.013523,0.002678,0.000431,0.052183
50404000,0.0324,0.013523,0.002678,0.000431,0.049362
50405000,0.0324,0.013523,0.002678,0.000431,0.035258
50406000,0.0324,0.013523,0.002678,0.000431,0.033966
50407000,0.0324,0.013523,0.002678,0.000431,0.023506
50408000,0.0324,0.013523,0.002678,0.000431,0.027972
50409000,0.0324,0.013523,0.002678,0.000431,0.018452
50410000,0.0324,0.013523,0.002678,0.000431,0.015514
50411000,0.0324,0.013523,0.002678,0.000431,0.008815
50412000,0.0324,0.013523,0.002678,0.000431,0.007992
50413000,0.0324,0.013523,0.002678,0.000431,0.004819
50414000,0.0324,0.013523,0.002678,0.000431,0.003173
50415000,0.0324,0.013523,0.002678,0.000431,0.002233
50416000,0.0324,0.013523,0.002678,0.000431,0.002821
50417000,0.0324,0.013523,0.002678,0.000431,0.002351
50418000,0.0324,0.013523,0.002678,0.000431,0.002586
50419000,0.0324,0.013523,0.002678,0.000431,0.004936
50420000,0.0324,0.013523,0.002678,0.000431,0.005641
50421000,0.0324,0.013523,0.002678,0.000431,0.000940
50422000,0.0324,0.013523,0.002678,0.000431,0.000823
50423000,0.0324,0.013523,0.002678,0.000431,0.249865
50424000,0.0324,0.013523,0.002678,0.000431,0.699175
50425000,0.0324,0.013523,0.002678,0.000431,0.419576
50426000,0.0324,0.013523,0.002678,0.000431,0.135392
50427000,0.0324,0.013523,0.002678,0.000431,0.377148
50428000,0.0324,0.013523,0.002678,0.000431,0.363985
50429000,0.0324,0.013523,0.002678,0.000431,0.286299
50430000,0.0324,0.013523,0.002678,0.000431,0.270080
50431000,0.0324,0.013523,0.002678,0.000431,0.144090
50432000,0.0324,0.013523,0.002678,0.000431,0.141504
50433000,0.0324,0.013523,0.002678,0.000431,0.261265
50434000,0.0324,0.013523,0.002678,0.000431,0.432739
50435000,0.0324,0.013523,0.002678,0.000431,0.137390
50436000,0.0324,0.013523,0.002678,0.000431,0.122229
50437000,0.0324,0.013523,0.002678,0.000431,0.112474
50438000,0.0324,0.013523,0.002678,0.000431,0.081682
50439000,0.0324,0.013523,0.002678,0.000431,0.064641
50440000,0.0324,0.013523,0.002678,0.000431,0.056766
50441000,0.0324,0.013523,0.002678,0.000431,0.047011
50442000,0.0324,0.013523,0.002678,0.000431,0.041958
50443000,0.0324,0.013523,0.002678,0.000431,0.032555
50444000,0.0324,0.013523,0.002678,0.000431,0.026326
50445000,0.0324,0.013523,0.002678,0.000431,0.023741
50446000,0.0324,0.013523,0.002678,0.000431,0.020685
50447000,0.0324,0.013523,0.002678,0.000431,0.024328
50448000,0.0324,0.013523,0.002678,0.000431,0.017864
50449000,0.0324,0.013523,0.002678,0.000431,0.014221
50450000,0.0324,0.013523,0.002678,0.000431,0.012811
50451000,0.0324,0.013523,0.002678,0.000431,0.013633
50452000,0.0324,0.013523,0.002678,0.000431,0.011635
50453000,0.0324,0.013523,0.002678,0.000431,0.010930
50454000,0.0324,0.013523,0.002678,0.000431,0.010460
50455000,0.0324,0.013523,0.002678,0.000431,0.007404
50456000,0.0324,0.013523,0.002678,0.000431,0.008580
50457000,0.0324,0.013523,0.002678,0.000431,0.007287
50458000,0.0324,0.013523,0.002678,0.000431,0.006347
50459000,0.0324,0.013523,0.002678,0.000431,0.009167
50460000,0.0324,0.013523,0.002678,0.000431,0.005876
50461000,0.0324,0.013523,0.002678,0.000431,0.005289
50462000,0.0324,0.013523,0.002678,0.000431,0.006229
50463000,0.0324,0.013523,0.002678,0.000431,0.005406
50464000,0.0324,0.013523,0.002678,0.000431,0.005876
50465000,0.0324,0.013523,0.002678,0.000431,0.005524
50466000,0.0324,0.013523,0.002678,0.000431,0.005054
50467000,0.0324,0.013523,0.002678,0.000431,0.005171
50468000,0.0324,0.013523,0.002678,0.000431,0.004113
50469000,0.0324,0.013523,0.002678,0.000431,0.005054
50470000,0.0324,0.013523,0.002678,0.000431,0.004584
50471000,0.0324,0.013523,0.002678,0.000431,0.004819
50472000,0.0324,0.013523,0.002678,0.000431,0.005406
50473000,0.0324,0.013523,0.002678,0.000431,0.005054
50474000,0.0324,0.013523,0.002678,0.000431,0.004466
50475000,0.0324,0.013523,0.002678,0.000431,0.004349
50476000,0.0324,0.013523,0.002678,0.000431,0.004701
50477000,0.0324,0.013523,0.002678,0.000431,0.006111
50478000,0.0324,0.013523,0.002678,0.000431,0.002468
50479000,0.0324,0.013523,0.002678,0.000431,0.002703
50480000,0.0324,0.013523,0.002678,0.000431,0.003526
50481000,0.0324,0.013523,0.002678,0.000431,0.002821
50482000,0.0324,0.013523,0.002678,0.000431,0.003291
50483000,0.0324,0.013523,0.002678,0.000431,0.016101
50484000,0.0324,0.013523,0.002678,0.000431,0.699763
50485000,0.0324,0.013523,0.002678,0.000431,0.547329
50486000,0.0324,0.013523,0.002678,0.000431,0.135275
50487000,0.0324,0.013523,0.002678,0.000431,0.135392
50488000,0.0324,0.013523,0.002678,0.000431,0.539337
50489000,0.0324,0.013523,0.002678,0.000431,0.264086
50490000,0.0324,0.013523,0.002678,0.000431,0.302870
50491000,0.0324,0.013523,0.002678,0.000431,0.168888
50492000,0.0324,0.013523,0.002678,0.000431,0.164892
50493000,0.0324,0.013523,0.002678,0.000431,0.105775
50494000,0.0324,0.013523,0.002678,0.000431,0.518769
50495000,0.0324,0.013523,0.002678,0.000431,0.239993
50496000,0.0324,0.013523,0.002678,0.000431,0.162894
50497000,0.0324,0.013523,0.002678,0.000431,0.139271
50498000,0.0324,0.013523,0.002678,0.000431,0.117881
50499000,0.0324,0.013523,0.002678,0.000431,0.102132
50500000,0.0324,0.013523,0.002678,0.000431,0.088264
50501000,0.0324,0.013523,0.002678,0.000431,0.077921
50502000,0.0324,0.013523,0.002678,0.000431,0.059704
50503000,0.0324,0.013523,0.002678,0.000431,0.042428
50504000,0.0324,0.013523,0.002678,0.000431,0.038314
50505000,0.0324,0.013523,0.002678,0.000431,0.026209
50506000,0.0324,0.013523,0.002678,0.000431,0.024211
50507000,0.0324,0.013523,0.002678,0.000431,0.020215
50508000,0.0324,0.013523,0.002678,0.000431,0.012928
50509000,0.0324,0.013523,0.002678,0.000431,0.012576
50510000,0.0324,0.013523,0.002678,0.000431,0.006817
50511000,0.0324,0.013523,0.002678,0.000431,0.007404
50512000,0.0324,0.013523,0.002678,0.000431,0.006229
50513000,0.0324,0.013523,0.002678,0.000431,0.007052
50514000,0.0324,0.013523,0.002678,0.000431,0.006582
50515000,0.0324,0.013523,0.002678,0.000431,0.006582
50516000,0.0324,0.013523,0.002678,0.000431,0.009990
50517000,0.0324,0.013523,0.002678,0.000431,0.007992
50518000,0.0324,0.013523,0.002678,0.000431,0.005054
50519000,0.0324,0.013523,0.002678,0.000431,0.004113
50520000,0.0324,0.013523,0.002678,0.000431,0.006111
50521000,0.0324,0.013523,0.002678,0.000431,0.003173
50522000,0.0324,0.013523,0.002678,0.000431,0.003408
50523000,0.0324,0.013523,0.002678,0.000431,0.003056
50524000,0.0324,0.013523,0.002678,0.000431,0.003056
50525000,0.0324,0.013523,0.002678,0.000431,0.004231
50526000,0.0324,0.013523,0.002678,0.000431,0.003408
50527000,0.0324,0.013523,0.002678,0.000431,0.073925
50528000,0.0324,0.013523,0.002678,0.000431,0.737842
50529000,0.0324,0.013523,0.002678,0.000431,0.539219
50530000,0.0324,0.013523,0.002678,0.000431,0.136333
50531000,0.0324,0.013523,0.002678,0.000431,0.207907
50532000,0.0324,0.013523,0.002678,0.000431,0.567896
50533000,0.0324,0.013523,0.002678,0.000431,0.268082
50534000,0.0324,0.013523,0.002678,0.000431,0.272313
50535000,0.0324,0.013523,0.002678,0.000431,0.151024
50536000,0.0324,0.013523,0.002678,0.000431,0.133512
50537000,0.0324,0.013523,0.002678,0.000431,0.275486
50538000,0.0324,0.013523,0.002678,0.000431,0.440026
50539000,0.0324,0.013523,0.002678,0.000431,0.150201
50540000,0.0324,0.013523,0.002678,0.000431,0.150201
50541000,0.0324,0.013523,0.002678,0.000431,0.114825
50542000,0.0324,0.013523,0.002678,0.000431,0.096373
50543000,0.0324,0.013523,0.002678,0.000431,0.081800
50544000,0.0324,0.013523,0.002678,0.000431,0.065581
50545000,0.0324,0.013523,0.002678,0.000431,0.063230
50546000,0.0324,0.013523,0.002678,0.000431,0.029147
50547000,0.0324,0.013523,0.002678,0.000431,0.017394
50548000,0.0324,0.013523,0.002678,0.000431,0.016101
50549000,0.0324,0.013523,0.002678,0.000431,0.006347
50550000,0.0324,0.013523,0.002678,0.000431,0.009167
50551000,0.0324,0.013523,0.002678,0.000431,0.005641
50552000,0.0324,0.013523,0.002678,0.000431,0.005876
50553000,0.0324,0.013523,0.002678,0.000431,0.006229
50554000,0.0324,0.013523,0.002678,0.000431,0.006111
50555000,0.0324,0.013523,0.002678,0.000431,0.009637
50556000,0.0324,0.013523,0.002678,0.000431,0.005289
50557000,0.0324,0.013523,0.002678,0.000431,0.003291
50558000,0.0324,0.013523,0.002678,0.000431,0.003643
50559000,0.0324,0.013523,0.002678,0.000431,0.003408
50560000,0.0324,0.013523,0.002678,0.000431,0.003173
50561000,0.0324,0.013523,0.002678,0.000431,0.005876
50562000,0.0324,0.013523,0.002678,0.000431,0.002703
50563000,0.0324,0.013523,0.002678,0.000431,0.003643
50564000,0.0324,0.013523,0.002678,0.000431,0.001645
50565000,0.0324,0.013523,0.002678,0.000431,0.001645
50566000,0.0324,0.013523,0.002678,0.000431,0.001645
50567000,0.0324,0.013523,0.002678,0.000431,0.001645
50568000,0.0324,0.013523,0.002678,0.000431,0.001763
50569000,0.0324,0.013523,0.002678,0.000431,0.001645
50570000,0.0324,0.013523,0.002678,0.000431,0.001410
50571000,0.0324,0.013523,0.002678,0.000431,0.001880
50572000,0.0324,0.013523,0.002678,0.000431,0.001645
50573000,0.0324,0.013523,0.002678,0.000431,0.001528
50574000,0.0324,0.013523,0.002678,0.000431,0.001645
50575000,0.0324,0.013523,0.002678,0.000431,0.001880
50576000,0.0324,0.013523,0.002678,0.000431,0.001528
50577000,0.0324,0.013523,0.002678,0.000431,0.001763
50578000,0.0324,0.013523,0.002678,0.000431,0.001528
50579000,0.0324,0.013523,0.002678,0.000431,0.001645
50580000,0.0324,0.013523,0.002678,0.000431,0.001880
50581000,0.0324,0.013523,0.002678,0.000431,0.001645
50582000,0.0324,0.013523,0.002678,0.000431,0.002821
50583000,0.0324,0.013523,0.002678,0.000431,0.002468
50584000,0.0324,0.013523,0.002678,0.000431,0.000705
50585000,0.0324,0.013523,0.002678,0.000431,0.000940
50586000,0.0324,0.013523,0.002678,0.000431,0.000940
50587000,0.0324,0.013523,0.002678,0.000431,0.000705
50588000,0.0324,0.013523,0.002678,0.000431,0.000940
50589000,0.0324,0.013523,0.002678,0.000431,0.000705
50590000,0.0324,0.013523,0.002678,0.000431,0.000940
50591000,0.0324,0.013523,0.002678,0.000431,0.000940
50592000,0.0324,0.013523,0.002678,0.000431,0.000705
50593000,0.0324,0.013523,0.002678,0.000431,0.071810
50594000,0.0324,0.013523,0.002678,0.000431,0.718215
50595000,0.0324,0.013523,0.002678,0.000431,0.543450
50596000,0.0324,0.013523,0.002678,0.000431,0.136450
50597000,0.0324,0.013523,0.002678,0.000431,0.280775
50598000,0.0324,0.013523,0.002678,0.000431,0.488565
50599000,0.0324,0.013523,0.002678,0.000431,0.291705
50600000,0.0324,0.013523,0.002678,0.000431,0.233058
50601000,0.0324,0.013523,0.002678,0.000431,0.164657
50602000,0.0324,0.013523,0.002678,0.000431,0.116588
50603000,0.0324,0.013523,0.002678,0.000431,0.480808
50604000,0.0324,0.013523,0.002678,0.000431,0.229415
50605000,0.0324,0.013523,0.002678,0.000431,0.154785
50606000,0.0324,0.013523,0.002678,0.000431,0.121759
50607000,0.0324,0.013523,0.002678,0.000431,0.117411
50608000,0.0324,0.013523,0.002678,0.000431,0.069224
50609000,0.0324,0.013523,0.002678,0.000431,0.056884
50610000,0.0324,0.013523,0.002678,0.000431,0.045718
50611000,0.0324,0.013523,0.002678,0.000431,0.039725
50612000,0.0324,0.013523,0.002678,0.000431,0.032320
50613000,0.0324,0.013523,0.002678,0.000431,0.019980
50614000,0.0324,0.013523,0.002678,0.000431,0.021743
50615000,0.0324,0.013523,0.002678,0.000431,0.016454
50616000,0.0324,0.013523,0.002678,0.000431,0.017864
50617000,0.0324,0.013523,0.002678,0.000431,0.007169
50618000,0.0324,0.013523,0.002678,0.000431,0.004701
50619000,0.0324,0.013523,0.002678,0.000431,0.002938
50620000,0.0324,0.013523,0.002678,0.000431,0.408881
50621000,0.0324,0.013523,0.002678,0.000431,0.767812
50622000,0.0324,0.013523,0.002678,0.000431,0.184754
50623000,0.0324,0.013523,0.002678,0.000431,0.136803
50624000,0.0324,0.013523,0.002678,0.000431,0.479750
50625000,0.0324,0.013523,0.002678,0.000431,0.249747
50626000,0.0324,0.013523,0.002678,0.000431,0.287356
50627000,0.0324,0.013523,0.002678,0.000431,0.267259
50628000,0.0324,0.013523,0.002678,0.000431,0.160073
50629000,0.0324,0.013523,0.002678,0.000431,0.124697
50630000,0.0324,0.013523,0.002678,0.000431,0.342242
50631000,0.0324,0.013523,0.002678,0.000431,0.428743
50632000,0.0324,0.013523,0.002678,0.000431,0.172061
50633000,0.0324,0.013523,0.002678,0.000431,0.157135
50634000,0.0324,0.013523,0.002678,0.000431,0.128458
50635000,0.0324,0.013523,0.002678,0.000431,0.104247
50636000,0.0324,0.013523,0.002678,0.000431,0.074043
50637000,0.0324,0.013523,0.002678,0.000431,0.055591
50638000,0.0324,0.013523,0.002678,0.000431,0.029265
50639000,0.0324,0.013523,0.002678,0.000431,0.018452
50640000,0.0324,0.013523,0.002678,0.000431,0.014809
50641000,0.0324,0.013523,0.002678,0.000431,0.009637
50642000,0.0324,0.013523,0.002678,0.000431,0.007287
50643000,0.0324,0.013523,0.002678,0.000431,0.001880
50644000,0.0324,0.013523,0.002678,0.000431,0.001763
50645000,0.0324,0.013523,0.002678,0.000431,0.001645
50646000,0.0324,0.013523,0.002678,0.000431,0.001763
50647000,0.0324,0.013523,0.002678,0.000431,0.006111
50648000,0.0324,0.013523,0.002678,0.000431,0.000823
50649000,0.0324,0.013523,0.002678,0.000431,0.045366
50650000,0.0324,0.013523,0.002678,0.000431,0.766049
50651000,0.0324,0.013523,0.002678,0.000431,0.554615
50652000,0.0324,0.013523,0.002678,0.000431,0.135980
50653000,0.0324,0.013523,0.002678,0.000431,0.149026
50654000,0.0324,0.013523,0.002678,0.000431,0.524058
50655000,0.0324,0.013523,0.002678,0.000431,0.265261
50656000,0.0324,0.013523,0.002678,0.000431,0.309217
50657000,0.0324,0.013523,0.002678,0.000431,0.152669
50658000,0.0324,0.013523,0.002678,0.000431,0.165127
50659000,0.0324,0.013523,0.002678,0.000431,0.172649
50660000,0.0324,0.013523,0.002678,0.000431,0.547564
50661000,0.0324,0.013523,0.002678,0.000431,0.195567
50662000,0.0324,0.013523,0.002678,0.000431,0.176410
50663000,0.0324,0.013523,0.002678,0.000431,0.159016
50664000,0.0324,0.013523,0.002678,0.000431,0.128223
50665000,0.0324,0.013523,0.002678,0.000431,0.109536
50666000,0.0324,0.013523,0.002678,0.000431,0.073925
50667000,0.0324,0.013523,0.002678,0.000431,0.061232
50668000,0.0324,0.013523,0.002678,0.000431,0.053240
50669000,0.0324,0.013523,0.002678,0.000431,0.027854
50670000,0.0324,0.013523,0.002678,0.000431,0.027149
50671000,0.0324,0.013523,0.002678,0.000431,0.024093
50672000,0.0324,0.013523,0.002678,0.000431,0.010225
50673000,0.0324,0.013523,0.002678,0.000431,0.006347
50674000,0.0324,0.013523,0.002678,0.000431,0.003056
50675000,0.0324,0.013523,0.002678,0.000431,0.005406
50676000,0.0324,0.013523,0.002678,0.000431,0.424512
50677000,0.0324,0.013523,0.002678,0.000431,0.789437
50678000,0.0324,0.013523,0.002678,0.000431,0.221188
50679000,0.0324,0.013523,0.002678,0.000431,0.140916
50680000,0.0324,0.013523,0.002678,0.000431,0.564018
50681000,0.0324,0.013523,0.002678,0.000431,0.256211
50682000,0.0324,0.013523,0.002678,0.000431,0.364455
50683000,0.0324,0.013523,0.002678,0.000431,0.152081
50684000,0.0324,0.013523,0.002678,0.000431,0.129751
50685000,0.0324,0.013523,0.002678,0.000431,0.284771
50686000,0.0324,0.013523,0.002678,0.000431,0.443669
50687000,0.0324,0.013523,0.002678,0.000431,0.180406
50688000,0.0324,0.013523,0.002678,0.000431,0.148556
50689000,0.0324,0.013523,0.002678,0.000431,0.117411
50690000,0.0324,0.013523,0.002678,0.000431,0.105305
50691000,0.0324,0.013523,0.002678,0.000431,0.080272
50692000,0.0324,0.013523,0.002678,0.000431,0.057824
50693000,0.0324,0.013523,0.002678,0.000431,0.050537
50694000,0.0324,0.013523,0.002678,0.000431,0.032320
50695000,0.0324,0.013523,0.002678,0.000431,0.027737
50696000,0.0324,0.013523,0.002678,0.000431,0.015514
50697000,0.0324,0.013523,0.002678,0.000431,0.006699
50698000,0.0324,0.013523,0.002678,0.000431,0.005171
50699000,0.0324,0.013523,0.002678,0.000431,0.006934
50700000,0.0324,0.013523,0.002678,0.000431,0.005876
50701000,0.0324,0.013523,0.002678,0.000431,0.004466
50702000,0.0324,0.013523,0.002678,0.000431,0.007287
50703000,0.0324,0.013523,0.002678,0.000431,0.003291
50704000,0.0324,0.013523,0.002678,0.000431,0.005171
50705000,0.0324,0.013523,0.002678,0.000431,0.005171
50706000,0.0324,0.013523,0.002678,0.000431,0.001528
50707000,0.0324,0.013523,0.002678,0.000431,0.001763
50708000,0.0324,0.013523,0.002678,0.000431,0.001645
50709000,0.0324,0.013523,0.002678,0.000431,0.001645
50710000,0.0324,0.013523,0.002678,0.000431,0.001645
50711000,0.0324,0.013523,0.002678,0.000431,0.001645
50712000,0.0324,0.013523,0.002678,0.000431,0.001645
50713000,0.0324,0.013523,0.002678,0.000431,0.001880
50714000,0.0324,0.013523,0.002678,0.000431,0.001645
50715000,0.0324,0.013523,0.002678,0.000431,0.001645
50716000,0.0324,0.013523,0.002678,0.000431,0.001645
50717000,0.0324,0.013523,0.002678,0.000431,0.001645
50718000,0.0324,0.013523,0.002678,0.000431,0.001763
50719000,0.0324,0.013523,0.002678,0.000431,0.001645
50720000,0.0324,0.013523,0.002678,0.000431,0.001763
50721000,0.0324,0.013523,0.002678,0.000431,0.001763
50722000,0.0324,0.013523,0.002678,0.000431,0.001763
50723000,0.0324,0.013523,0.002678,0.000431,0.001763
50724000,0.0324,0.013523,0.002678,0.000431,0.001528
50725000,0.0324,0.013523,0.002678,0.000431,0.001880
50726000,0.0324,0.013523,0.002678,0.000431,0.001763
50727000,0.0324,0.013523,0.002678,0.000431,0.001645
50728000,0.0324,0.013523,0.002678,0.000431,0.001763
50729000,0.0324,0.013523,0.002678,0.000431,0.015984
50730000,0.0324,0.013523,0.002678,0.000431,0.720800
50731000,0.0324,0.013523,0.002678,0.000431,0.557789
50732000,0.0324,0.013523,0.002678,0.000431,0.135745
50733000,0.0324,0.013523,0.002678,0.000431,0.186987
50734000,0.0324,0.013523,0.002678,0.000431,0.538279
50735000,0.0324,0.013523,0.002678,0.000431,0.254331
50736000,0.0324,0.013523,0.002678,0.000431,0.285241
50737000,0.0324,0.013523,0.002678,0.000431,0.156783
50738000,0.0324,0.013523,0.002678,0.000431,0.148321
50739000,0.0324,0.013523,0.002678,0.000431,0.229297
50740000,0.0324,0.013523,0.002678,0.000431,0.514656
50741000,0.0324,0.013523,0.002678,0.000431,0.223539
50742000,0.0324,0.013523,0.002678,0.000431,0.190866
50743000,0.0324,0.013523,0.002678,0.000431,0.179936
50744000,0.0324,0.013523,0.002678,0.000431,0.146793
50745000,0.0324,0.013523,0.002678,0.000431,0.133512
50746000,0.0324,0.013523,0.002678,0.000431,0.115413
50747000,0.0324,0.013523,0.002678,0.000431,0.079096
50748000,0.0324,0.013523,0.002678,0.000431,0.073808
50749000,0.0324,0.013523,0.002678,0.000431,0.065698
50750000,0.0324,0.013523,0.002678,0.000431,0.049714
50751000,0.0324,0.013523,0.002678,0.000431,0.043485
50752000,0.0324,0.013523,0.002678,0.000431,0.037844
50753000,0.0324,0.013523,0.002678,0.000431,0.035964
50754000,0.0324,0.013523,0.002678,0.000431,0.022565
50755000,0.0324,0.013523,0.002678,0.000431,0.022565
50756000,0.0324,0.013523,0.002678,0.000431,0.014103
50757000,0.0324,0.013523,0.002678,0.000431,0.012340
50758000,0.0324,0.013523,0.002678,0.000431,0.012576
50759000,0.0324,0.013523,0.002678,0.000431,0.010342
50760000,0.0324,0.013523,0.002678,0.000431,0.006347
50761000,0.0324,0.013523,0.002678,0.000431,0.006229
50762000,0.0324,0.013523,0.002678,0.000431,0.006934
50763000,0.0324,0.013523,0.002678,0.000431,0.011870
50764000,0.0324,0.013523,0.002678,0.000431,0.007052
50765000,0.0324,0.013523,0.002678,0.000431,0.006934
50766000,0.0324,0.013523,0.002678,0.000431,0.001998
50767000,0.0324,0.013523,0.002678,0.000431,0.004936
50768000,0.0324,0.013523,0.002678,0.000431,0.000823
50769000,0.0324,0.013523,0.002678,0.000431,0.000823
50770000,0.0324,0.013523,0.002678,0.000431,0.000823
50771000,0.0324,0.013523,0.002678,0.000431,0.000940
50772000,0.0324,0.013523,0.002678,0.000431,0.000705
50773000,0.0324,0.013523,0.002678,0.000431,0.000940
50774000,0.0324,0.013523,0.002678,0.000431,0.000705
50775000,0.0324,0.013523,0.002678,0.000431,0.000940
50776000,0.0324,0.013523,0.002678,0.000431,0.000823
50777000,0.0324,0.013523,0.002678,0.000431,0.000823
50778000,0.0324,0.013523,0.002678,0.000431,0.000940
50779000,0.0324,0.013523,0.002678,0.000431,0.000705
50780000,0.0324,0.013523,0.002678,0.000431,0.000940
50781000,0.0324,0.013523,0.002678,0.000431,0.000823
50782000,0.0324,0.013523,0.002678,0.000431,0.000823
50783000,0.0324,0.013523,0.002678,0.000431,0.000823
50784000,0.0324,0.013523,0.002678,0.000431,0.000823
50785000,0.0324,0.013523,0.002678,0.000431,0.000823
50786000,0.0324,0.013523,0.002678,0.000431,0.000823
50787000,0.0324,0.013523,0.002678,0.000431,0.000705
50788000,0.0324,0.013523,0.002678,0.000431,0.007757
50789000,0.0324,0.013523,0.002678,0.000431,0.682134
50790000,0.0324,0.013523,0.002678,0.000431,0.653222
50791000,0.0324,0.013523,0.002678,0.000431,0.141151
50792000,0.0324,0.013523,0.002678,0.000431,0.147615
50793000,0.0324,0.013523,0.002678,0.000431,0.571775
50794000,0.0324,0.013523,0.002678,0.000431,0.281715
50795000,0.0324,0.013523,0.002678,0.000431,0.332840
50796000,0.0324,0.013523,0.002678,0.000431,0.157018
50797000,0.0324,0.013523,0.002678,0.000431,0.117411
50798000,0.0324,0.013523,0.002678,0.000431,0.351292
50799000,0.0324,0.013523,0.002678,0.000431,0.382437
50800000,0.0324,0.013523,0.002678,0.000431,0.160426
50801000,0.0324,0.013523,0.002678,0.000431,0.145970
50802000,0.0324,0.013523,0.002678,0.000431,0.122817
50803000,0.0324,0.013523,0.002678,0.000431,0.108126
50804000,0.0324,0.013523,0.002678,0.000431,0.093082
50805000,0.0324,0.013523,0.002678,0.000431,0.064170
50806000,0.0324,0.013523,0.002678,0.000431,0.062643
50807000,0.0324,0.013523,0.002678,0.000431,0.048657
50808000,0.0324,0.013523,0.002678,0.000431,0.031027
50809000,0.0324,0.013523,0.002678,0.000431,0.030792
50810000,0.0324,0.013523,0.002678,0.000431,0.032320
50811000,0.0324,0.013523,0.002678,0.000431,0.023271
50812000,0.0324,0.013523,0.002678,0.000431,0.015514
50813000,0.0324,0.013523,0.002678,0.000431,0.017982
50814000,0.0324,0.013523,0.002678,0.000431,0.011400
50815000,0.0324,0.013523,0.002678,0.000431,0.009637
50816000,0.0324,0.013523,0.002678,0.000431,0.012928
50817000,0.0324,0.013523,0.002678,0.000431,0.008697
50818000,0.0324,0.013523,0.002678,0.000431,0.005759
50819000,0.0324,0.013523,0.002678,0.000431,0.004936
50820000,0.0324,0.013523,0.002678,0.000431,0.002233
50821000,0.0324,0.013523,0.002678,0.000431,0.002703
50822000,0.0324,0.013523,0.002678,0.000431,0.003526
50823000,0.0324,0.013523,0.002678,0.000431,0.001763
50824000,0.0324,0.013523,0.002678,0.000431,0.001645
50825000,0.0324,0.013523,0.002678,0.000431,0.001645
50826000,0.0324,0.013523,0.002678,0.000431,0.001880
50827000,0.0324,0.013523,0.002678,0.000431,0.001645
50828000,0.0324,0.013523,0.002678,0.000431,0.004113
50829000,0.0324,0.013523,0.002678,0.000431,0.000705
50830000,0.0324,0.013523,0.002678,0.000431,0.000940
50831000,0.0324,0.013523,0.002678,0.000431,0.001880
50832000,0.0324,0.013523,0.002678,0.000431,0.520062
50833000,0.0324,0.013523,0.002678,0.000431,0.730908
50834000,0.0324,0.013523,0.002678,0.000431,0.143267
50835000,0.0324,0.013523,0.002678,0.000431,0.136803
50836000,0.0324,0.013523,0.002678,0.000431,0.517124
50837000,0.0324,0.013523,0.002678,0.000431,0.243989
50838000,0.0324,0.013523,0.002678,0.000431,0.332252
50839000,0.0324,0.013523,0.002678,0.000431,0.224479
50840000,0.0324,0.013523,0.002678,0.000431,0.167125
50841000,0.0324,0.013523,0.002678,0.000431,0.105188
50842000,0.0324,0.013523,0.002678,0.000431,0.540865
50843000,0.0324,0.013523,0.002678,0.000431,0.249042
50844000,0.0324,0.013523,0.002678,0.000431,0.195802
50845000,0.0324,0.013523,0.002678,0.000431,0.171709
50846000,0.0324,0.013523,0.002678,0.000431,0.143502
50847000,0.0324,0.013523,0.002678,0.000431,0.128223
50848000,0.0324,0.013523,0.002678,0.000431,0.110359
50849000,0.0324,0.013523,0.002678,0.000431,0.077216
50850000,0.0324,0.013523,0.002678,0.000431,0.063818
50851000,0.0324,0.013523,0.002678,0.000431,0.041252
50852000,0.0324,0.013523,0.002678,0.000431,0.039960
50853000,0.0324,0.013523,0.002678,0.000431,0.031498
50854000,0.0324,0.013523,0.002678,0.000431,0.015279
50855000,0.0324,0.013523,0.002678,0.000431,0.022565
50856000,0.0324,0.013523,0.002678,0.000431,0.015279
50857000,0.0324,0.013523,0.002678,0.000431,0.007287
50858000,0.0324,0.013523,0.002678,0.000431,0.006699
50859000,0.0324,0.013523,0.002678,0.000431,0.003526
50860000,0.0324,0.013523,0.002678,0.000431,0.006347
50861000,0.0324,0.013523,0.002678,0.000431,0.006464
50862000,0.0324,0.013523,0.002678,0.000431,0.000823
50863000,0.0324,0.013523,0.002678,0.000431,0.000940
50864000,0.0324,0.013523,0.002678,0.000431,0.000705
50865000,0.0324,0.013523,0.002678,0.000431,0.000823
50866000,0.0324,0.013523,0.002678,0.000431,0.000940
50867000,0.0324,0.013523,0.002678,0.000431,0.000823
50868000,0.0324,0.013523,0.002678,0.000431,0.000823
50869000,0.0324,0.013523,0.002678,0.000431,0.000823
50870000,0.0324,0.013523,0.002678,0.000431,0.000705
50871000,0.0324,0.013523,0.002678,0.000431,0.000940
50872000,0.0324,0.013523,0.002678,0.000431,0.000940
50873000,0.0324,0.013523,0.002678,0.000431,0.000705
50874000,0.0324,0.013523,0.002678,0.000431,0.000940
50875000,0.0324,0.013523,0.002678,0.000431,0.000823
50876000,0.0324,0.013523,0.002678,0.000431,0.001058
50877000,0.0324,0.013523,0.002678,0.000431,0.000705
50878000,0.0324,0.013523,0.002678,0.000431,0.000940
50879000,0.0324,0.013523,0.002678,0.000431,0.000705
50880000,0.0324,0.013523,0.002678,0.000431,0.000823
50881000,0.0324,0.013523,0.002678,0.000431,0.000823
50882000,0.0324,0.013523,0.002678,0.000431,0.000940
50883000,0.0324,0.013523,0.002678,0.000431,0.000705
50884000,0.0324,0.013523,0.002678,0.000431,0.000940
50885000,0.0324,0.013523,0.002678,0.000431,0.000823
50886000,0.0324,0.013523,0.002678,0.000431,0.000823
50887000,0.0324,0.013523,0.002678,0.000431,0.000705
50888000,0.0324,0.013523,0.002678,0.000431,0.000940
50889000,0.0324,0.013523,0.002678,0.000431,0.000940
50890000,0.0324,0.013523,0.002678,0.000431,0.000705
50891000,0.0324,0.013523,0.002678,0.000431,0.000940
50892000,0.0324,0.013523,0.002678,0.000431,0.000705
50893000,0.0324,0.013523,0.002678,0.000431,0.000940
50894000,0.0324,0.013523,0.002678,0.000431,0.047599
50895000,0.0324,0.013523,0.002678,0.000431,0.776391
50896000,0.0324,0.013523,0.002678,0.000431,0.555203
50897000,0.0324,0.013523,0.002678,0.000431,0.135863
50898000,0.0324,0.013523,0.002678,0.000431,0.137626
50899000,0.0324,0.013523,0.002678,0.000431,0.538984
50900000,0.0324,0.013523,0.002678,0.000431,0.270197
50901000,0.0324,0.013523,0.002678,0.000431,0.320029
50902000,0.0324,0.013523,0.002678,0.000431,0.149143
50903000,0.0324,0.013523,0.002678,0.000431,0.174177
50904000,0.0324,0.013523,0.002678,0.000431,0.133747
50905000,0.0324,0.013523,0.002678,0.000431,0.539219
50906000,0.0324,0.013523,0.002678,0.000431,0.184872
50907000,0.0324,0.013523,0.002678,0.000431,0.156900
50908000,0.0324,0.013523,0.002678,0.000431,0.147968
50909000,0.0324,0.013523,0.002678,0.000431,0.110947
50910000,0.0324,0.013523,0.002678,0.000431,0.098959
50911000,0.0324,0.013523,0.002678,0.000431,0.069342
50912000,0.0324,0.013523,0.002678,0.000431,0.065581
50913000,0.0324,0.013523,0.002678,0.000431,0.051477
50914000,0.0324,0.013523,0.002678,0.000431,0.035258
50915000,0.0324,0.013523,0.002678,0.000431,0.035729
50916000,0.0324,0.013523,0.002678,0.000431,0.020685
50917000,0.0324,0.013523,0.002678,0.000431,0.027031
50918000,0.0324,0.013523,0.002678,0.000431,0.014338
50919000,0.0324,0.013523,0.002678,0.000431,0.010460
50920000,0.0324,0.013523,0.002678,0.000431,0.011283
50921000,0.0324,0.013523,0.002678,0.000431,0.009637
50922000,0.0324,0.013523,0.002678,0.000431,0.009167
50923000,0.0324,0.013523,0.002678,0.000431,0.009520
50924000,0.0324,0.013523,0.002678,0.000431,0.009402
50925000,0.0324,0.013523,0.002678,0.000431,0.011048
50926000,0.0324,0.013523,0.002678,0.000431,0.008462
50927000,0.0324,0.013523,0.002678,0.000431,0.008815
50928000,0.0324,0.013523,0.002678,0.000431,0.008227
50929000,0.0324,0.013523,0.002678,0.000431,0.008462
50930000,0.0324,0.013523,0.002678,0.000431,0.011988
50931000,0.0324,0.013523,0.002678,0.000431,0.007052
50932000,0.0324,0.013523,0.002678,0.000431,0.010107
50933000,0.0324,0.013523,0.002678,0.000431,0.006229
50934000,0.0324,0.013523,0.002678,0.000431,0.006229
50935000,0.0324,0.013523,0.002678,0.000431,0.006111
50936000,0.0324,0.013523,0.002678,0.000431,0.006111
50937000,0.0324,0.013523,0.002678,0.000431,0.006464
50938000,0.0324,0.013523,0.002678,0.000431,0.006111
50939000,0.0324,0.013523,0.002678,0.000431,0.006347
50940000,0.0324,0.013523,0.002678,0.000431,0.006111
50941000,0.0324,0.013523,0.002678,0.000431,0.006347
50942000,0.0324,0.013523,0.002678,0.000431,0.007992
50943000,0.0324,0.013523,0.002678,0.000431,0.007169
50944000,0.0324,0.013523,0.002678,0.000431,0.007169
50945000,0.0324,0.013523,0.002678,0.000431,0.002586
50946000,0.0324,0.013523,0.002678,0.000431,0.005289
50947000,0.0324,0.013523,0.002678,0.000431,0.001880
50948000,0.0324,0.013523,0.002678,0.000431,0.003291
50949000,0.0324,0.013523,0.002678,0.000431,0.000823
50950000,0.0324,0.013523,0.002678,0.000431,0.000940
50951000,0.0324,0.013523,0.002678,0.000431,0.000940
50952000,0.0324,0.013523,0.002678,0.000431,0.088499
50953000,0.0324,0.013523,0.002678,0.000431,0.747714
50954000,0.0324,0.013523,0.002678,0.000431,0.503491
50955000,0.0324,0.013523,0.002678,0.000431,0.136333
50956000,0.0324,0.013523,0.002678,0.000431,0.228005
50957000,0.0324,0.013523,0.002678,0.000431,0.545918
50958000,0.0324,0.013523,0.002678,0.000431,0.272313
50959000,0.0324,0.013523,0.002678,0.000431,0.267612
50960000,0.0324,0.013523,0.002678,0.000431,0.144207
50961000,0.0324,0.013523,0.002678,0.000431,0.145617
50962000,0.0324,0.013523,0.002678,0.000431,0.254919
50963000,0.0324,0.013523,0.002678,0.000431,0.470818
50964000,0.0324,0.013523,0.002678,0.000431,0.154079
50965000,0.0324,0.013523,0.002678,0.000431,0.124580
50966000,0.0324,0.013523,0.002678,0.000431,0.123875
50967000,0.0324,0.013523,0.002678,0.000431,0.085208
50968000,0.0324,0.013523,0.002678,0.000431,0.069224
50969000,0.0324,0.013523,0.002678,0.000431,0.064288
50970000,0.0324,0.013523,0.002678,0.000431,0.041605
50971000,0.0324,0.013523,0.002678,0.000431,0.033496
50972000,0.0324,0.013523,0.002678,0.000431,0.029970
50973000,0.0324,0.013523,0.002678,0.000431,0.020920
50974000,0.0324,0.013523,0.002678,0.000431,0.018922
50975000,0.0324,0.013523,0.002678,0.000431,0.012105
50976000,0.0324,0.013523,0.002678,0.000431,0.007522
50977000,0.0324,0.013523,0.002678,0.000431,0.012458
50978000,0.0324,0.013523,0.002678,0.000431,0.007287
50979000,0.0324,0.013523,0.002678,0.000431,0.008345
50980000,0.0324,0.013523,0.002678,0.000431,0.006582
50981000,0.0324,0.013523,0.002678,0.000431,0.010107
50982000,0.0324,0.013523,0.002678,0.000431,0.007052
50983000,0.0324,0.013523,0.002678,0.000431,0.005406
50984000,0.0324,0.013523,0.002678,0.000431,0.009520
50985000,0.0324,0.013523,0.002678,0.000431,0.003996
50986000,0.0324,0.013523,0.002678,0.000431,0.003526
50987000,0.0324,0.013523,0.002678,0.000431,0.005289
50988000,0.0324,0.013523,0.002678,0.000431,0.003878
50989000,0.0324,0.013523,0.002678,0.000431,0.003996
50990000,0.0324,0.013523,0.002678,0.000431,0.004819
50991000,0.0324,0.013523,0.002678,0.000431,0.003878
50992000,0.0324,0.013523,0.002678,0.000431,0.004819
50993000,0.0324,0.013523,0.002678,0.000431,0.004349
50994000,0.0324,0.013523,0.002678,0.000431,0.003408
50995000,0.0324,0.013523,0.002678,0.000431,0.005289
50996000,0.0324,0.013523,0.002678,0.000431,0.003291
50997000,0.0324,0.013523,0.002678,0.000431,0.005641
50998000,0.0324,0.013523,0.002678,0.000431,0.003761
50999000,0.0324,0.013523,0.002678,0.000431,0.003996
