Cycle,Area(mm^2),PeakDynamic(W),SubthresholdLeakage(W),GateLeakage(W),RunTimeDynamic(W)
42000000,0.0324,0.013523,0.002678,0.000431,0.002351
42001000,0.0324,0.013523,0.002678,0.000431,0.612557
42002000,0.0324,0.013523,0.002678,0.000431,0.740192
42003000,0.0324,0.013523,0.002678,0.000431,0.136803
42004000,0.0324,0.013523,0.002678,0.000431,0.135980
42005000,0.0324,0.013523,0.002678,0.000431,0.500317
42006000,0.0324,0.013523,0.002678,0.000431,0.237760
42007000,0.0324,0.013523,0.002678,0.000431,0.283831
42008000,0.0324,0.013523,0.002678,0.000431,0.221071
42009000,0.0324,0.013523,0.002678,0.000431,0.157253
42010000,0.0324,0.013523,0.002678,0.000431,0.131397
42011000,0.0324,0.013523,0.002678,0.000431,0.363162
42012000,0.0324,0.013523,0.002678,0.000431,0.476459
42013000,0.0324,0.013523,0.002678,0.000431,0.232353
42014000,0.0324,0.013523,0.002678,0.000431,0.187340
42015000,0.0324,0.013523,0.002678,0.000431,0.181816
42016000,0.0324,0.013523,0.002678,0.000431,0.145617
42017000,0.0324,0.013523,0.002678,0.000431,0.119996
42018000,0.0324,0.013523,0.002678,0.000431,0.097078
42019000,0.0324,0.013523,0.002678,0.000431,0.077334
42020000,0.0324,0.013523,0.002678,0.000431,0.064993
42021000,0.0324,0.013523,0.002678,0.000431,0.044308
42022000,0.0324,0.013523,0.002678,0.000431,0.037844
42023000,0.0324,0.013523,0.002678,0.000431,0.027737
42024000,0.0324,0.013523,0.002678,0.000431,0.029852
42025000,0.0324,0.013523,0.002678,0.000431,0.017277
42026000,0.0324,0.013523,0.002678,0.000431,0.019275
42027000,0.0324,0.013523,0.002678,0.000431,0.012340
42028000,0.0324,0.013523,0.002678,0.000431,0.012340
42029000,0.0324,0.013523,0.002678,0.000431,0.018217
42030000,0.0324,0.013523,0.002678,0.000431,0.008227
42031000,0.0324,0.013523,0.002678,0.000431,0.005171
42032000,0.0324,0.013523,0.002678,0.000431,0.004231
42033000,0.0324,0.013523,0.002678,0.000431,0.006934
42034000,0.0324,0.013523,0.002678,0.000431,0.004113
42035000,0.0324,0.013523,0.002678,0.000431,0.003408
42036000,0.0324,0.013523,0.002678,0.000431,0.004113
42037000,0.0324,0.013523,0.002678,0.000431,0.009637
42038000,0.0324,0.013523,0.002678,0.000431,0.002233
42039000,0.0324,0.013523,0.002678,0.000431,0.002116
42040000,0.0324,0.013523,0.002678,0.000431,0.001880
42041000,0.0324,0.013523,0.002678,0.000431,0.002233
42042000,0.0324,0.013523,0.002678,0.000431,0.001880
42043000,0.0324,0.013523,0.002678,0.000431,0.001880
42044000,0.0324,0.013523,0.002678,0.000431,0.002351
42045000,0.0324,0.013523,0.002678,0.000431,0.001880
42046000,0.0324,0.013523,0.002678,0.000431,0.001998
42047000,0.0324,0.013523,0.002678,0.000431,0.002233
42048000,0.0324,0.013523,0.002678,0.000431,0.001645
42049000,0.0324,0.013523,0.002678,0.000431,0.002586
42050000,0.0324,0.013523,0.002678,0.000431,0.001763
42051000,0.0324,0.013523,0.002678,0.000431,0.002116
42052000,0.0324,0.013523,0.002678,0.000431,0.002233
42053000,0.0324,0.013523,0.002678,0.000431,0.001645
42054000,0.0324,0.013523,0.002678,0.000431,0.002351
42055000,0.0324,0.013523,0.002678,0.000431,0.001763
42056000,0.0324,0.013523,0.002678,0.000431,0.002351
42057000,0.0324,0.013523,0.002678,0.000431,0.001880
42058000,0.0324,0.013523,0.002678,0.000431,0.001998
42059000,0.0324,0.013523,0.002678,0.000431,0.002351
42060000,0.0324,0.013523,0.002678,0.000431,0.001645
42061000,0.0324,0.013523,0.002678,0.000431,0.002351
42062000,0.0324,0.013523,0.002678,0.000431,0.001998
42063000,0.0324,0.013523,0.002678,0.000431,0.001998
42064000,0.0324,0.013523,0.002678,0.000431,0.002233
42065000,0.0324,0.013523,0.002678,0.000431,0.001763
42066000,0.0324,0.013523,0.002678,0.000431,0.002116
42067000,0.0324,0.013523,0.002678,0.000431,0.002116
42068000,0.0324,0.013523,0.002678,0.000431,0.001880
42069000,0.0324,0.013523,0.002678,0.000431,0.002233
42070000,0.0324,0.013523,0.002678,0.000431,0.001880
42071000,0.0324,0.013523,0.002678,0.000431,0.004349
42072000,0.0324,0.013523,0.002678,0.000431,0.001293
42073000,0.0324,0.013523,0.002678,0.000431,0.000940
42074000,0.0324,0.013523,0.002678,0.000431,0.001528
42075000,0.0324,0.013523,0.002678,0.000431,0.001175
42076000,0.0324,0.013523,0.002678,0.000431,0.001175
42077000,0.0324,0.013523,0.002678,0.000431,0.001410
42078000,0.0324,0.013523,0.002678,0.000431,0.001410
42079000,0.0324,0.013523,0.002678,0.000431,0.001058
42080000,0.0324,0.013523,0.002678,0.000431,0.001058
42081000,0.0324,0.013523,0.002678,0.000431,0.001645
42082000,0.0324,0.013523,0.002678,0.000431,0.001058
42083000,0.0324,0.013523,0.002678,0.000431,0.001763
42084000,0.0324,0.013523,0.002678,0.000431,0.334133
42085000,0.0324,0.013523,0.002678,0.000431,0.842560
42086000,0.0324,0.013523,0.002678,0.000431,0.326376
42087000,0.0324,0.013523,0.002678,0.000431,0.137743
42088000,0.0324,0.013523,0.002678,0.000431,0.564488
42089000,0.0324,0.013523,0.002678,0.000431,0.240933
42090000,0.0324,0.013523,0.002678,0.000431,0.327434
42091000,0.0324,0.013523,0.002678,0.000431,0.169711
42092000,0.0324,0.013523,0.002678,0.000431,0.169006
42093000,0.0324,0.013523,0.002678,0.000431,0.167595
42094000,0.0324,0.013523,0.002678,0.000431,0.541687
42095000,0.0324,0.013523,0.002678,0.000431,0.256682
42096000,0.0324,0.013523,0.002678,0.000431,0.199563
42097000,0.0324,0.013523,0.002678,0.000431,0.170416
42098000,0.0324,0.013523,0.002678,0.000431,0.132807
42099000,0.0324,0.013523,0.002678,0.000431,0.119291
42100000,0.0324,0.013523,0.002678,0.000431,0.093200
42101000,0.0324,0.013523,0.002678,0.000431,0.082740
42102000,0.0324,0.013523,0.002678,0.000431,0.070047
42103000,0.0324,0.013523,0.002678,0.000431,0.054180
42104000,0.0324,0.013523,0.002678,0.000431,0.042428
42105000,0.0324,0.013523,0.002678,0.000431,0.033378
42106000,0.0324,0.013523,0.002678,0.000431,0.033848
42107000,0.0324,0.013523,0.002678,0.000431,0.028442
42108000,0.0324,0.013523,0.002678,0.000431,0.019040
42109000,0.0324,0.013523,0.002678,0.000431,0.016689
42110000,0.0324,0.013523,0.002678,0.000431,0.010107
42111000,0.0324,0.013523,0.002678,0.000431,0.004584
42112000,0.0324,0.013523,0.002678,0.000431,0.006582
42113000,0.0324,0.013523,0.002678,0.000431,0.005289
42114000,0.0324,0.013523,0.002678,0.000431,0.074395
42115000,0.0324,0.013523,0.002678,0.000431,0.787439
42116000,0.0324,0.013523,0.002678,0.000431,0.535106
42117000,0.0324,0.013523,0.002678,0.000431,0.140094
42118000,0.0324,0.013523,0.002678,0.000431,0.322262
42119000,0.0324,0.013523,0.002678,0.000431,0.501258
42120000,0.0324,0.013523,0.002678,0.000431,0.255859
42121000,0.0324,0.013523,0.002678,0.000431,0.262793
42122000,0.0324,0.013523,0.002678,0.000431,0.170298
42123000,0.0324,0.013523,0.002678,0.000431,0.099899
42124000,0.0324,0.013523,0.002678,0.000431,0.534283
42125000,0.0324,0.013523,0.002678,0.000431,0.284066
42126000,0.0324,0.013523,0.002678,0.000431,0.206850
42127000,0.0324,0.013523,0.002678,0.000431,0.171239
42128000,0.0324,0.013523,0.002678,0.000431,0.163364
42129000,0.0324,0.013523,0.002678,0.000431,0.114943
42130000,0.0324,0.013523,0.002678,0.000431,0.101427
42131000,0.0324,0.013523,0.002678,0.000431,0.091554
42132000,0.0324,0.013523,0.002678,0.000431,0.055826
42133000,0.0324,0.013523,0.002678,0.000431,0.041840
42134000,0.0324,0.013523,0.002678,0.000431,0.037962
42135000,0.0324,0.013523,0.002678,0.000431,0.032908
42136000,0.0324,0.013523,0.002678,0.000431,0.030792
42137000,0.0324,0.013523,0.002678,0.000431,0.025621
42138000,0.0324,0.013523,0.002678,0.000431,0.027031
42139000,0.0324,0.013523,0.002678,0.000431,0.022918
42140000,0.0324,0.013523,0.002678,0.000431,0.021038
42141000,0.0324,0.013523,0.002678,0.000431,0.018922
42142000,0.0324,0.013523,0.002678,0.000431,0.020450
42143000,0.0324,0.013523,0.002678,0.000431,0.018452
42144000,0.0324,0.013523,0.002678,0.000431,0.021860
42145000,0.0324,0.013523,0.002678,0.000431,0.017512
42146000,0.0324,0.013523,0.002678,0.000431,0.014926
42147000,0.0324,0.013523,0.002678,0.000431,0.007992
42148000,0.0324,0.013523,0.002678,0.000431,0.009755
42149000,0.0324,0.013523,0.002678,0.000431,0.008580
42150000,0.0324,0.013523,0.002678,0.000431,0.003526
42151000,0.0324,0.013523,0.002678,0.000431,0.015044
42152000,0.0324,0.013523,0.002678,0.000431,0.801542
42153000,0.0324,0.013523,0.002678,0.000431,0.563783
42154000,0.0324,0.013523,0.002678,0.000431,0.137155
42155000,0.0324,0.013523,0.002678,0.000431,0.152552
42156000,0.0324,0.013523,0.002678,0.000431,0.578239
42157000,0.0324,0.013523,0.002678,0.000431,0.271373
42158000,0.0324,0.013523,0.002678,0.000431,0.304633
42159000,0.0324,0.013523,0.002678,0.000431,0.149496
42160000,0.0324,0.013523,0.002678,0.000431,0.122699
42161000,0.0324,0.013523,0.002678,0.000431,0.331782
42162000,0.0324,0.013523,0.002678,0.000431,0.426862
42163000,0.0324,0.013523,0.002678,0.000431,0.187222
42164000,0.0324,0.013523,0.002678,0.000431,0.164422
42165000,0.0324,0.013523,0.002678,0.000431,0.142562
42166000,0.0324,0.013523,0.002678,0.000431,0.110241
42167000,0.0324,0.013523,0.002678,0.000431,0.082035
42168000,0.0324,0.013523,0.002678,0.000431,0.068754
42169000,0.0324,0.013523,0.002678,0.000431,0.054180
42170000,0.0324,0.013523,0.002678,0.000431,0.050067
42171000,0.0324,0.013523,0.002678,0.000431,0.039372
42172000,0.0324,0.013523,0.002678,0.000431,0.023388
42173000,0.0324,0.013523,0.002678,0.000431,0.021743
42174000,0.0324,0.013523,0.002678,0.000431,0.024328
42175000,0.0324,0.013523,0.002678,0.000431,0.014103
42176000,0.0324,0.013523,0.002678,0.000431,0.012576
42177000,0.0324,0.013523,0.002678,0.000431,0.008815
42178000,0.0324,0.013523,0.002678,0.000431,0.009990
42179000,0.0324,0.013523,0.002678,0.000431,0.012340
42180000,0.0324,0.013523,0.002678,0.000431,0.006229
42181000,0.0324,0.013523,0.002678,0.000431,0.011753
42182000,0.0324,0.013523,0.002678,0.000431,0.009402
42183000,0.0324,0.013523,0.002678,0.000431,0.003056
42184000,0.0324,0.013523,0.002678,0.000431,0.003291
42185000,0.0324,0.013523,0.002678,0.000431,0.003056
42186000,0.0324,0.013523,0.002678,0.000431,0.003643
42187000,0.0324,0.013523,0.002678,0.000431,0.004936
42188000,0.0324,0.013523,0.002678,0.000431,0.002351
42189000,0.0324,0.013523,0.002678,0.000431,0.002821
42190000,0.0324,0.013523,0.002678,0.000431,0.001645
42191000,0.0324,0.013523,0.002678,0.000431,0.001763
42192000,0.0324,0.013523,0.002678,0.000431,0.001763
42193000,0.0324,0.013523,0.002678,0.000431,0.004231
42194000,0.0324,0.013523,0.002678,0.000431,0.000940
42195000,0.0324,0.013523,0.002678,0.000431,0.000705
42196000,0.0324,0.013523,0.002678,0.000431,0.000940
42197000,0.0324,0.013523,0.002678,0.000431,0.000705
42198000,0.0324,0.013523,0.002678,0.000431,0.000940
42199000,0.0324,0.013523,0.002678,0.000431,0.000823
42200000,0.0324,0.013523,0.002678,0.000431,0.000823
42201000,0.0324,0.013523,0.002678,0.000431,0.300872
42202000,0.0324,0.013523,0.002678,0.000431,0.797781
42203000,0.0324,0.013523,0.002678,0.000431,0.304280
42204000,0.0324,0.013523,0.002678,0.000431,0.136333
42205000,0.0324,0.013523,0.002678,0.000431,0.524528
42206000,0.0324,0.013523,0.002678,0.000431,0.269022
42207000,0.0324,0.013523,0.002678,0.000431,0.292528
42208000,0.0324,0.013523,0.002678,0.000431,0.210728
42209000,0.0324,0.013523,0.002678,0.000431,0.178290
42210000,0.0324,0.013523,0.002678,0.000431,0.100369
42211000,0.0324,0.013523,0.002678,0.000431,0.538984
42212000,0.0324,0.013523,0.002678,0.000431,0.278894
42213000,0.0324,0.013523,0.002678,0.000431,0.197565
42214000,0.0324,0.013523,0.002678,0.000431,0.164539
42215000,0.0324,0.013523,0.002678,0.000431,0.122229
42216000,0.0324,0.013523,0.002678,0.000431,0.114237
42217000,0.0324,0.013523,0.002678,0.000431,0.098371
42218000,0.0324,0.013523,0.002678,0.000431,0.078744
42219000,0.0324,0.013523,0.002678,0.000431,0.058059
42220000,0.0324,0.013523,0.002678,0.000431,0.047716
42221000,0.0324,0.013523,0.002678,0.000431,0.037844
42222000,0.0324,0.013523,0.002678,0.000431,0.025151
42223000,0.0324,0.013523,0.002678,0.000431,0.020920
42224000,0.0324,0.013523,0.002678,0.000431,0.027031
42225000,0.0324,0.013523,0.002678,0.000431,0.013868
42226000,0.0324,0.013523,0.002678,0.000431,0.016454
42227000,0.0324,0.013523,0.002678,0.000431,0.011400
42228000,0.0324,0.013523,0.002678,0.000431,0.012458
42229000,0.0324,0.013523,0.002678,0.000431,0.011283
42230000,0.0324,0.013523,0.002678,0.000431,0.011870
42231000,0.0324,0.013523,0.002678,0.000431,0.006464
42232000,0.0324,0.013523,0.002678,0.000431,0.006934
42233000,0.0324,0.013523,0.002678,0.000431,0.009402
42234000,0.0324,0.013523,0.002678,0.000431,0.005054
42235000,0.0324,0.013523,0.002678,0.000431,0.005994
42236000,0.0324,0.013523,0.002678,0.000431,0.004936
42237000,0.0324,0.013523,0.002678,0.000431,0.009050
42238000,0.0324,0.013523,0.002678,0.000431,0.010813
42239000,0.0324,0.013523,0.002678,0.000431,0.281715
42240000,0.0324,0.013523,0.002678,0.000431,0.785323
42241000,0.0324,0.013523,0.002678,0.000431,0.367393
42242000,0.0324,0.013523,0.002678,0.000431,0.136215
42243000,0.0324,0.013523,0.002678,0.000431,0.493853
42244000,0.0324,0.013523,0.002678,0.000431,0.268787
42245000,0.0324,0.013523,0.002678,0.000431,0.289354
42246000,0.0324,0.013523,0.002678,0.000431,0.250923
42247000,0.0324,0.013523,0.002678,0.000431,0.162306
42248000,0.0324,0.013523,0.002678,0.000431,0.110594
42249000,0.0324,0.013523,0.002678,0.000431,0.495264
42250000,0.0324,0.013523,0.002678,0.000431,0.304163
42251000,0.0324,0.013523,0.002678,0.000431,0.200386
42252000,0.0324,0.013523,0.002678,0.000431,0.169006
42253000,0.0324,0.013523,0.002678,0.000431,0.159251
42254000,0.0324,0.013523,0.002678,0.000431,0.122464
42255000,0.0324,0.013523,0.002678,0.000431,0.102485
42256000,0.0324,0.013523,0.002678,0.000431,0.064288
42257000,0.0324,0.013523,0.002678,0.000431,0.062995
42258000,0.0324,0.013523,0.002678,0.000431,0.054768
42259000,0.0324,0.013523,0.002678,0.000431,0.044191
42260000,0.0324,0.013523,0.002678,0.000431,0.035964
42261000,0.0324,0.013523,0.002678,0.000431,0.032438
42262000,0.0324,0.013523,0.002678,0.000431,0.030087
42263000,0.0324,0.013523,0.002678,0.000431,0.023858
42264000,0.0324,0.013523,0.002678,0.000431,0.012928
42265000,0.0324,0.013523,0.002678,0.000431,0.015631
42266000,0.0324,0.013523,0.002678,0.000431,0.015631
42267000,0.0324,0.013523,0.002678,0.000431,0.010578
42268000,0.0324,0.013523,0.002678,0.000431,0.008697
42269000,0.0324,0.013523,0.002678,0.000431,0.004584
42270000,0.0324,0.013523,0.002678,0.000431,0.005876
42271000,0.0324,0.013523,0.002678,0.000431,0.005406
42272000,0.0324,0.013523,0.002678,0.000431,0.001645
42273000,0.0324,0.013523,0.002678,0.000431,0.000823
42274000,0.0324,0.013523,0.002678,0.000431,0.000823
42275000,0.0324,0.013523,0.002678,0.000431,0.000823
42276000,0.0324,0.013523,0.002678,0.000431,0.000940
42277000,0.0324,0.013523,0.002678,0.000431,0.000705
42278000,0.0324,0.013523,0.002678,0.000431,0.000940
42279000,0.0324,0.013523,0.002678,0.000431,0.000823
42280000,0.0324,0.013523,0.002678,0.000431,0.000823
42281000,0.0324,0.013523,0.002678,0.000431,0.000940
42282000,0.0324,0.013523,0.002678,0.000431,0.000705
42283000,0.0324,0.013523,0.002678,0.000431,0.000940
42284000,0.0324,0.013523,0.002678,0.000431,0.000705
42285000,0.0324,0.013523,0.002678,0.000431,0.000940
42286000,0.0324,0.013523,0.002678,0.000431,0.000705
42287000,0.0324,0.013523,0.002678,0.000431,0.000823
42288000,0.0324,0.013523,0.002678,0.000431,0.000940
42289000,0.0324,0.013523,0.002678,0.000431,0.000823
42290000,0.0324,0.013523,0.002678,0.000431,0.000823
42291000,0.0324,0.013523,0.002678,0.000431,0.001763
42292000,0.0324,0.013523,0.002678,0.000431,0.541922
42293000,0.0324,0.013523,0.002678,0.000431,0.756881
42294000,0.0324,0.013523,0.002678,0.000431,0.149966
42295000,0.0324,0.013523,0.002678,0.000431,0.136333
42296000,0.0324,0.013523,0.002678,0.000431,0.533695
42297000,0.0324,0.013523,0.002678,0.000431,0.305691
42298000,0.0324,0.013523,0.002678,0.000431,0.265026
42299000,0.0324,0.013523,0.002678,0.000431,0.194744
42300000,0.0324,0.013523,0.002678,0.000431,0.170298
42301000,0.0324,0.013523,0.002678,0.000431,0.102132
42302000,0.0324,0.013523,0.002678,0.000431,0.517242
42303000,0.0324,0.013523,0.002678,0.000431,0.290060
42304000,0.0324,0.013523,0.002678,0.000431,0.209200
42305000,0.0324,0.013523,0.002678,0.000431,0.191688
42306000,0.0324,0.013523,0.002678,0.000431,0.155725
42307000,0.0324,0.013523,0.002678,0.000431,0.122934
42308000,0.0324,0.013523,0.002678,0.000431,0.104953
42309000,0.0324,0.013523,0.002678,0.000431,0.096021
42310000,0.0324,0.013523,0.002678,0.000431,0.072632
42311000,0.0324,0.013523,0.002678,0.000431,0.044543
42312000,0.0324,0.013523,0.002678,0.000431,0.042075
42313000,0.0324,0.013523,0.002678,0.000431,0.024211
42314000,0.0324,0.013523,0.002678,0.000431,0.018805
42315000,0.0324,0.013523,0.002678,0.000431,0.011283
42316000,0.0324,0.013523,0.002678,0.000431,0.012693
42317000,0.0324,0.013523,0.002678,0.000431,0.009637
42318000,0.0324,0.013523,0.002678,0.000431,0.009050
42319000,0.0324,0.013523,0.002678,0.000431,0.003526
42320000,0.0324,0.013523,0.002678,0.000431,0.003526
42321000,0.0324,0.013523,0.002678,0.000431,0.003526
42322000,0.0324,0.013523,0.002678,0.000431,0.003643
42323000,0.0324,0.013523,0.002678,0.000431,0.003291
42324000,0.0324,0.013523,0.002678,0.000431,0.003291
42325000,0.0324,0.013523,0.002678,0.000431,0.003643
42326000,0.0324,0.013523,0.002678,0.000431,0.003761
42327000,0.0324,0.013523,0.002678,0.000431,0.003291
42328000,0.0324,0.013523,0.002678,0.000431,0.003643
42329000,0.0324,0.013523,0.002678,0.000431,0.003056
42330000,0.0324,0.013523,0.002678,0.000431,0.003761
42331000,0.0324,0.013523,0.002678,0.000431,0.003526
42332000,0.0324,0.013523,0.002678,0.000431,0.003526
42333000,0.0324,0.013523,0.002678,0.000431,0.002938
42334000,0.0324,0.013523,0.002678,0.000431,0.003056
42335000,0.0324,0.013523,0.002678,0.000431,0.002938
42336000,0.0324,0.013523,0.002678,0.000431,0.001645
42337000,0.0324,0.013523,0.002678,0.000431,0.001763
42338000,0.0324,0.013523,0.002678,0.000431,0.004231
42339000,0.0324,0.013523,0.002678,0.000431,0.000940
42340000,0.0324,0.013523,0.002678,0.000431,0.000823
42341000,0.0324,0.013523,0.002678,0.000431,0.000823
42342000,0.0324,0.013523,0.002678,0.000431,0.259620
42343000,0.0324,0.013523,0.002678,0.000431,0.710105
42344000,0.0324,0.013523,0.002678,0.000431,0.440026
42345000,0.0324,0.013523,0.002678,0.000431,0.136333
42346000,0.0324,0.013523,0.002678,0.000431,0.476577
42347000,0.0324,0.013523,0.002678,0.000431,0.255976
42348000,0.0324,0.013523,0.002678,0.000431,0.336718
42349000,0.0324,0.013523,0.002678,0.000431,0.238230
42350000,0.0324,0.013523,0.002678,0.000431,0.184402
42351000,0.0324,0.013523,0.002678,0.000431,0.085678
42352000,0.0324,0.013523,0.002678,0.000431,0.586583
42353000,0.0324,0.013523,0.002678,0.000431,0.274311
42354000,0.0324,0.013523,0.002678,0.000431,0.217780
42355000,0.0324,0.013523,0.002678,0.000431,0.184167
42356000,0.0324,0.013523,0.002678,0.000431,0.138683
42357000,0.0324,0.013523,0.002678,0.000431,0.109536
42358000,0.0324,0.013523,0.002678,0.000431,0.094610
42359000,0.0324,0.013523,0.002678,0.000431,0.074278
42360000,0.0324,0.013523,0.002678,0.000431,0.057589
42361000,0.0324,0.013523,0.002678,0.000431,0.039960
42362000,0.0324,0.013523,0.002678,0.000431,0.031968
42363000,0.0324,0.013523,0.002678,0.000431,0.025034
42364000,0.0324,0.013523,0.002678,0.000431,0.027972
42365000,0.0324,0.013523,0.002678,0.000431,0.013751
42366000,0.0324,0.013523,0.002678,0.000431,0.021390
42367000,0.0324,0.013523,0.002678,0.000431,0.012693
42368000,0.0324,0.013523,0.002678,0.000431,0.010342
42369000,0.0324,0.013523,0.002678,0.000431,0.008697
42370000,0.0324,0.013523,0.002678,0.000431,0.006582
42371000,0.0324,0.013523,0.002678,0.000431,0.004349
42372000,0.0324,0.013523,0.002678,0.000431,0.001763
42373000,0.0324,0.013523,0.002678,0.000431,0.001528
42374000,0.0324,0.013523,0.002678,0.000431,0.004701
42375000,0.0324,0.013523,0.002678,0.000431,0.000823
42376000,0.0324,0.013523,0.002678,0.000431,0.002351
42377000,0.0324,0.013523,0.002678,0.000431,0.325906
42378000,0.0324,0.013523,0.002678,0.000431,0.807184
42379000,0.0324,0.013523,0.002678,0.000431,0.331429
42380000,0.0324,0.013523,0.002678,0.000431,0.136333
42381000,0.0324,0.013523,0.002678,0.000431,0.545918
42382000,0.0324,0.013523,0.002678,0.000431,0.260325
42383000,0.0324,0.013523,0.002678,0.000431,0.312037
42384000,0.0324,0.013523,0.002678,0.000431,0.223421
42385000,0.0324,0.013523,0.002678,0.000431,0.173354
42386000,0.0324,0.013523,0.002678,0.000431,0.101779
42387000,0.0324,0.013523,0.002678,0.000431,0.534636
42388000,0.0324,0.013523,0.002678,0.000431,0.229062
42389000,0.0324,0.013523,0.002678,0.000431,0.180523
42390000,0.0324,0.013523,0.002678,0.000431,0.154315
42391000,0.0324,0.013523,0.002678,0.000431,0.119174
42392000,0.0324,0.013523,0.002678,0.000431,0.096138
42393000,0.0324,0.013523,0.002678,0.000431,0.084150
42394000,0.0324,0.013523,0.002678,0.000431,0.066168
42395000,0.0324,0.013523,0.002678,0.000431,0.055356
42396000,0.0324,0.013523,0.002678,0.000431,0.041487
42397000,0.0324,0.013523,0.002678,0.000431,0.034083
42398000,0.0324,0.013523,0.002678,0.000431,0.019745
42399000,0.0324,0.013523,0.002678,0.000431,0.009637
42400000,0.0324,0.013523,0.002678,0.000431,0.009167
42401000,0.0324,0.013523,0.002678,0.000431,0.009990
42402000,0.0324,0.013523,0.002678,0.000431,0.011400
42403000,0.0324,0.013523,0.002678,0.000431,0.003408
42404000,0.0324,0.013523,0.002678,0.000431,0.005876
42405000,0.0324,0.013523,0.002678,0.000431,0.006229
42406000,0.0324,0.013523,0.002678,0.000431,0.000705
42407000,0.0324,0.013523,0.002678,0.000431,0.000940
42408000,0.0324,0.013523,0.002678,0.000431,0.000705
42409000,0.0324,0.013523,0.002678,0.000431,0.000940
42410000,0.0324,0.013523,0.002678,0.000431,0.000705
42411000,0.0324,0.013523,0.002678,0.000431,0.000940
42412000,0.0324,0.013523,0.002678,0.000431,0.000823
42413000,0.0324,0.013523,0.002678,0.000431,0.001998
42414000,0.0324,0.013523,0.002678,0.000431,0.329667
42415000,0.0324,0.013523,0.002678,0.000431,0.781445
42416000,0.0324,0.013523,0.002678,0.000431,0.272665
42417000,0.0324,0.013523,0.002678,0.000431,0.135392
42418000,0.0324,0.013523,0.002678,0.000431,0.483158
42419000,0.0324,0.013523,0.002678,0.000431,0.292528
42420000,0.0324,0.013523,0.002678,0.000431,0.235879
42421000,0.0324,0.013523,0.002678,0.000431,0.272430
42422000,0.0324,0.013523,0.002678,0.000431,0.154079
42423000,0.0324,0.013523,0.002678,0.000431,0.139271
42424000,0.0324,0.013523,0.002678,0.000431,0.264203
42425000,0.0324,0.013523,0.002678,0.000431,0.493501
42426000,0.0324,0.013523,0.002678,0.000431,0.202501
42427000,0.0324,0.013523,0.002678,0.000431,0.186870
42428000,0.0324,0.013523,0.002678,0.000431,0.149143
42429000,0.0324,0.013523,0.002678,0.000431,0.116118
42430000,0.0324,0.013523,0.002678,0.000431,0.097783
42431000,0.0324,0.013523,0.002678,0.000431,0.069577
42432000,0.0324,0.013523,0.002678,0.000431,0.054651
42433000,0.0324,0.013523,0.002678,0.000431,0.044896
42434000,0.0324,0.013523,0.002678,0.000431,0.038432
42435000,0.0324,0.013523,0.002678,0.000431,0.036786
42436000,0.0324,0.013523,0.002678,0.000431,0.023388
42437000,0.0324,0.013523,0.002678,0.000431,0.021273
42438000,0.0324,0.013523,0.002678,0.000431,0.014573
42439000,0.0324,0.013523,0.002678,0.000431,0.006817
42440000,0.0324,0.013523,0.002678,0.000431,0.009402
42441000,0.0324,0.013523,0.002678,0.000431,0.004466
42442000,0.0324,0.013523,0.002678,0.000431,0.007052
42443000,0.0324,0.013523,0.002678,0.000431,0.003761
42444000,0.0324,0.013523,0.002678,0.000431,0.003526
42445000,0.0324,0.013523,0.002678,0.000431,0.008109
42446000,0.0324,0.013523,0.002678,0.000431,0.001763
42447000,0.0324,0.013523,0.002678,0.000431,0.001763
42448000,0.0324,0.013523,0.002678,0.000431,0.001763
42449000,0.0324,0.013523,0.002678,0.000431,0.003173
42450000,0.0324,0.013523,0.002678,0.000431,0.000940
42451000,0.0324,0.013523,0.002678,0.000431,0.000823
42452000,0.0324,0.013523,0.002678,0.000431,0.002233
42453000,0.0324,0.013523,0.002678,0.000431,0.521237
42454000,0.0324,0.013523,0.002678,0.000431,0.765579
42455000,0.0324,0.013523,0.002678,0.000431,0.157723
42456000,0.0324,0.013523,0.002678,0.000431,0.136803
42457000,0.0324,0.013523,0.002678,0.000431,0.524646
42458000,0.0324,0.013523,0.002678,0.000431,0.269727
42459000,0.0324,0.013523,0.002678,0.000431,0.311215
42460000,0.0324,0.013523,0.002678,0.000431,0.213079
42461000,0.0324,0.013523,0.002678,0.000431,0.165480
42462000,0.0324,0.013523,0.002678,0.000431,0.100957
42463000,0.0324,0.013523,0.002678,0.000431,0.551677
42464000,0.0324,0.013523,0.002678,0.000431,0.310627
42465000,0.0324,0.013523,0.002678,0.000431,0.247279
42466000,0.0324,0.013523,0.002678,0.000431,0.201208
42467000,0.0324,0.013523,0.002678,0.000431,0.169593
42468000,0.0324,0.013523,0.002678,0.000431,0.154432
42469000,0.0324,0.013523,0.002678,0.000431,0.126460
42470000,0.0324,0.013523,0.002678,0.000431,0.110829
42471000,0.0324,0.013523,0.002678,0.000431,0.103425
42472000,0.0324,0.013523,0.002678,0.000431,0.065933
42473000,0.0324,0.013523,0.002678,0.000431,0.054298
42474000,0.0324,0.013523,0.002678,0.000431,0.049127
42475000,0.0324,0.013523,0.002678,0.000431,0.027031
42476000,0.0324,0.013523,0.002678,0.000431,0.034201
42477000,0.0324,0.013523,0.002678,0.000431,0.011400
42478000,0.0324,0.013523,0.002678,0.000431,0.015161
42479000,0.0324,0.013523,0.002678,0.000431,0.010695
42480000,0.0324,0.013523,0.002678,0.000431,0.010225
42481000,0.0324,0.013523,0.002678,0.000431,0.011635
42482000,0.0324,0.013523,0.002678,0.000431,0.008345
42483000,0.0324,0.013523,0.002678,0.000431,0.001880
42484000,0.0324,0.013523,0.002678,0.000431,0.003173
42485000,0.0324,0.013523,0.002678,0.000431,0.000705
42486000,0.0324,0.013523,0.002678,0.000431,0.000940
42487000,0.0324,0.013523,0.002678,0.000431,0.000705
42488000,0.0324,0.013523,0.002678,0.000431,0.000940
42489000,0.0324,0.013523,0.002678,0.000431,0.000705
42490000,0.0324,0.013523,0.002678,0.000431,0.000823
42491000,0.0324,0.013523,0.002678,0.000431,0.014103
42492000,0.0324,0.013523,0.002678,0.000431,0.831042
42493000,0.0324,0.013523,0.002678,0.000431,0.555908
42494000,0.0324,0.013523,0.002678,0.000431,0.141739
42495000,0.0324,0.013523,0.002678,0.000431,0.157958
42496000,0.0324,0.013523,0.002678,0.000431,0.601392
42497000,0.0324,0.013523,0.002678,0.000431,0.238465
42498000,0.0324,0.013523,0.002678,0.000431,0.331665
42499000,0.0324,0.013523,0.002678,0.000431,0.155137
42500000,0.0324,0.013523,0.002678,0.000431,0.133394
42501000,0.0324,0.013523,0.002678,0.000431,0.259972
42502000,0.0324,0.013523,0.002678,0.000431,0.534988
42503000,0.0324,0.013523,0.002678,0.000431,0.228945
42504000,0.0324,0.013523,0.002678,0.000431,0.205909
42505000,0.0324,0.013523,0.002678,0.000431,0.152317
42506000,0.0324,0.013523,0.002678,0.000431,0.112710
42507000,0.0324,0.013523,0.002678,0.000431,0.100369
42508000,0.0324,0.013523,0.002678,0.000431,0.082035
42509000,0.0324,0.013523,0.002678,0.000431,0.038667
42510000,0.0324,0.013523,0.002678,0.000431,0.041135
42511000,0.0324,0.013523,0.002678,0.000431,0.026326
42512000,0.0324,0.013523,0.002678,0.000431,0.024328
42513000,0.0324,0.013523,0.002678,0.000431,0.017982
42514000,0.0324,0.013523,0.002678,0.000431,0.010813
42515000,0.0324,0.013523,0.002678,0.000431,0.007522
42516000,0.0324,0.013523,0.002678,0.000431,0.011635
42517000,0.0324,0.013523,0.002678,0.000431,0.010930
42518000,0.0324,0.013523,0.002678,0.000431,0.007404
42519000,0.0324,0.013523,0.002678,0.000431,0.001998
42520000,0.0324,0.013523,0.002678,0.000431,0.001528
42521000,0.0324,0.013523,0.002678,0.000431,0.001763
42522000,0.0324,0.013523,0.002678,0.000431,0.004231
42523000,0.0324,0.013523,0.002678,0.000431,0.000823
42524000,0.0324,0.013523,0.002678,0.000431,0.000823
42525000,0.0324,0.013523,0.002678,0.000431,0.000823
42526000,0.0324,0.013523,0.002678,0.000431,0.000940
42527000,0.0324,0.013523,0.002678,0.000431,0.000705
42528000,0.0324,0.013523,0.002678,0.000431,0.000823
42529000,0.0324,0.013523,0.002678,0.000431,0.000940
42530000,0.0324,0.013523,0.002678,0.000431,0.014338
42531000,0.0324,0.013523,0.002678,0.000431,0.786969
42532000,0.0324,0.013523,0.002678,0.000431,0.585290
42533000,0.0324,0.013523,0.002678,0.000431,0.137155
42534000,0.0324,0.013523,0.002678,0.000431,0.185342
42535000,0.0324,0.013523,0.002678,0.000431,0.628541
42536000,0.0324,0.013523,0.002678,0.000431,0.293820
42537000,0.0324,0.013523,0.002678,0.000431,0.247279
42538000,0.0324,0.013523,0.002678,0.000431,0.155960
42539000,0.0324,0.013523,0.002678,0.000431,0.103307
42540000,0.0324,0.013523,0.002678,0.000431,0.415815
42541000,0.0324,0.013523,0.002678,0.000431,0.360224
42542000,0.0324,0.013523,0.002678,0.000431,0.199445
42543000,0.0324,0.013523,0.002678,0.000431,0.178525
42544000,0.0324,0.013523,0.002678,0.000431,0.158898
42545000,0.0324,0.013523,0.002678,0.000431,0.137155
42546000,0.0324,0.013523,0.002678,0.000431,0.098724
42547000,0.0324,0.013523,0.002678,0.000431,0.097901
42548000,0.0324,0.013523,0.002678,0.000431,0.069929
42549000,0.0324,0.013523,0.002678,0.000431,0.071810
42550000,0.0324,0.013523,0.002678,0.000431,0.055826
42551000,0.0324,0.013523,0.002678,0.000431,0.052535
42552000,0.0324,0.013523,0.002678,0.000431,0.043485
42553000,0.0324,0.013523,0.002678,0.000431,0.045954
42554000,0.0324,0.013523,0.002678,0.000431,0.030205
42555000,0.0324,0.013523,0.002678,0.000431,0.028912
42556000,0.0324,0.013523,0.002678,0.000431,0.025386
42557000,0.0324,0.013523,0.002678,0.000431,0.012458
42558000,0.0324,0.013523,0.002678,0.000431,0.011753
42559000,0.0324,0.013523,0.002678,0.000431,0.012576
42560000,0.0324,0.013523,0.002678,0.000431,0.010578
42561000,0.0324,0.013523,0.002678,0.000431,0.012340
42562000,0.0324,0.013523,0.002678,0.000431,0.007874
42563000,0.0324,0.013523,0.002678,0.000431,0.009872
42564000,0.0324,0.013523,0.002678,0.000431,0.009402
42565000,0.0324,0.013523,0.002678,0.000431,0.009167
42566000,0.0324,0.013523,0.002678,0.000431,0.007757
42567000,0.0324,0.013523,0.002678,0.000431,0.007404
42568000,0.0324,0.013523,0.002678,0.000431,0.008462
42569000,0.0324,0.013523,0.002678,0.000431,0.007639
42570000,0.0324,0.013523,0.002678,0.000431,0.008580
42571000,0.0324,0.013523,0.002678,0.000431,0.008462
42572000,0.0324,0.013523,0.002678,0.000431,0.007052
42573000,0.0324,0.013523,0.002678,0.000431,0.006817
42574000,0.0324,0.013523,0.002678,0.000431,0.009167
42575000,0.0324,0.013523,0.002678,0.000431,0.007522
42576000,0.0324,0.013523,0.002678,0.000431,0.005524
42577000,0.0324,0.013523,0.002678,0.000431,0.004584
42578000,0.0324,0.013523,0.002678,0.000431,0.006111
42579000,0.0324,0.013523,0.002678,0.000431,0.005641
42580000,0.0324,0.013523,0.002678,0.000431,0.004466
42581000,0.0324,0.013523,0.002678,0.000431,0.005289
42582000,0.0324,0.013523,0.002678,0.000431,0.005759
42583000,0.0324,0.013523,0.002678,0.000431,0.006347
42584000,0.0324,0.013523,0.002678,0.000431,0.004936
42585000,0.0324,0.013523,0.002678,0.000431,0.005524
42586000,0.0324,0.013523,0.002678,0.000431,0.005524
42587000,0.0324,0.013523,0.002678,0.000431,0.005171
42588000,0.0324,0.013523,0.002678,0.000431,0.005406
42589000,0.0324,0.013523,0.002678,0.000431,0.005054
42590000,0.0324,0.013523,0.002678,0.000431,0.005289
42591000,0.0324,0.013523,0.002678,0.000431,0.005406
42592000,0.0324,0.013523,0.002678,0.000431,0.007169
42593000,0.0324,0.013523,0.002678,0.000431,0.004113
42594000,0.0324,0.013523,0.002678,0.000431,0.004819
42595000,0.0324,0.013523,0.002678,0.000431,0.004584
42596000,0.0324,0.013523,0.002678,0.000431,0.004231
42597000,0.0324,0.013523,0.002678,0.000431,0.004349
42598000,0.0324,0.013523,0.002678,0.000431,0.004466
42599000,0.0324,0.013523,0.002678,0.000431,0.004466
42600000,0.0324,0.013523,0.002678,0.000431,0.004584
42601000,0.0324,0.013523,0.002678,0.000431,0.003408
42602000,0.0324,0.013523,0.002678,0.000431,0.004584
42603000,0.0324,0.013523,0.002678,0.000431,0.005994
42604000,0.0324,0.013523,0.002678,0.000431,0.003526
42605000,0.0324,0.013523,0.002678,0.000431,0.004936
42606000,0.0324,0.013523,0.002678,0.000431,0.003996
42607000,0.0324,0.013523,0.002678,0.000431,0.004584
42608000,0.0324,0.013523,0.002678,0.000431,0.004936
42609000,0.0324,0.013523,0.002678,0.000431,0.003878
42610000,0.0324,0.013523,0.002678,0.000431,0.004701
42611000,0.0324,0.013523,0.002678,0.000431,0.004349
42612000,0.0324,0.013523,0.002678,0.000431,0.004231
42613000,0.0324,0.013523,0.002678,0.000431,0.004819
42614000,0.0324,0.013523,0.002678,0.000431,0.004349
42615000,0.0324,0.013523,0.002678,0.000431,0.004349
42616000,0.0324,0.013523,0.002678,0.000431,0.004584
42617000,0.0324,0.013523,0.002678,0.000431,0.004349
42618000,0.0324,0.013523,0.002678,0.000431,0.004936
42619000,0.0324,0.013523,0.002678,0.000431,0.003878
42620000,0.0324,0.013523,0.002678,0.000431,0.004584
42621000,0.0324,0.013523,0.002678,0.000431,0.004584
42622000,0.0324,0.013523,0.002678,0.000431,0.003996
42623000,0.0324,0.013523,0.002678,0.000431,0.005289
42624000,0.0324,0.013523,0.002678,0.000431,0.003526
42625000,0.0324,0.013523,0.002678,0.000431,0.004936
42626000,0.0324,0.013523,0.002678,0.000431,0.004819
42627000,0.0324,0.013523,0.002678,0.000431,0.003996
42628000,0.0324,0.013523,0.002678,0.000431,0.004819
42629000,0.0324,0.013523,0.002678,0.000431,0.003878
42630000,0.0324,0.013523,0.002678,0.000431,0.004231
42631000,0.0324,0.013523,0.002678,0.000431,0.005994
42632000,0.0324,0.013523,0.002678,0.000431,0.004701
42633000,0.0324,0.013523,0.002678,0.000431,0.003643
42634000,0.0324,0.013523,0.002678,0.000431,0.003643
42635000,0.0324,0.013523,0.002678,0.000431,0.002821
42636000,0.0324,0.013523,0.002678,0.000431,0.003526
42637000,0.0324,0.013523,0.002678,0.000431,0.002821
42638000,0.0324,0.013523,0.002678,0.000431,0.003526
42639000,0.0324,0.013523,0.002678,0.000431,0.003291
42640000,0.0324,0.013523,0.002678,0.000431,0.003291
42641000,0.0324,0.013523,0.002678,0.000431,0.003056
42642000,0.0324,0.013523,0.002678,0.000431,0.003291
42643000,0.0324,0.013523,0.002678,0.000431,0.003291
42644000,0.0324,0.013523,0.002678,0.000431,0.003056
42645000,0.0324,0.013523,0.002678,0.000431,0.003761
42646000,0.0324,0.013523,0.002678,0.000431,0.002468
42647000,0.0324,0.013523,0.002678,0.000431,0.003878
42648000,0.0324,0.013523,0.002678,0.000431,0.003291
42649000,0.0324,0.013523,0.002678,0.000431,0.003056
42650000,0.0324,0.013523,0.002678,0.000431,0.003291
42651000,0.0324,0.013523,0.002678,0.000431,0.002938
42652000,0.0324,0.013523,0.002678,0.000431,0.003878
42653000,0.0324,0.013523,0.002678,0.000431,0.002938
42654000,0.0324,0.013523,0.002678,0.000431,0.003408
42655000,0.0324,0.013523,0.002678,0.000431,0.003291
42656000,0.0324,0.013523,0.002678,0.000431,0.002938
42657000,0.0324,0.013523,0.002678,0.000431,0.003878
42658000,0.0324,0.013523,0.002678,0.000431,0.003408
42659000,0.0324,0.013523,0.002678,0.000431,0.003173
42660000,0.0324,0.013523,0.002678,0.000431,0.003526
42661000,0.0324,0.013523,0.002678,0.000431,0.003643
42662000,0.0324,0.013523,0.002678,0.000431,0.003878
42663000,0.0324,0.013523,0.002678,0.000431,0.002938
42664000,0.0324,0.013523,0.002678,0.000431,0.003408
42665000,0.0324,0.013523,0.002678,0.000431,0.003761
42666000,0.0324,0.013523,0.002678,0.000431,0.003056
42667000,0.0324,0.013523,0.002678,0.000431,0.001763
42668000,0.0324,0.013523,0.002678,0.000431,0.002116
42669000,0.0324,0.013523,0.002678,0.000431,0.005171
42670000,0.0324,0.013523,0.002678,0.000431,0.610794
42671000,0.0324,0.013523,0.002678,0.000431,0.687775
42672000,0.0324,0.013523,0.002678,0.000431,0.155137
42673000,0.0324,0.013523,0.002678,0.000431,0.143384
42674000,0.0324,0.013523,0.002678,0.000431,0.554733
42675000,0.0324,0.013523,0.002678,0.000431,0.261853
42676000,0.0324,0.013523,0.002678,0.000431,0.277014
42677000,0.0324,0.013523,0.002678,0.000431,0.190396
42678000,0.0324,0.013523,0.002678,0.000431,0.166537
42679000,0.0324,0.013523,0.002678,0.000431,0.118939
42680000,0.0324,0.013523,0.002678,0.000431,0.477164
42681000,0.0324,0.013523,0.002678,0.000431,0.273606
42682000,0.0324,0.013523,0.002678,0.000431,0.171239
42683000,0.0324,0.013523,0.002678,0.000431,0.149613
42684000,0.0324,0.013523,0.002678,0.000431,0.120349
42685000,0.0324,0.013523,0.002678,0.000431,0.114708
42686000,0.0324,0.013523,0.002678,0.000431,0.085325
42687000,0.0324,0.013523,0.002678,0.000431,0.063935
42688000,0.0324,0.013523,0.002678,0.000431,0.069107
42689000,0.0324,0.013523,0.002678,0.000431,0.049009
42690000,0.0324,0.013523,0.002678,0.000431,0.030557
42691000,0.0324,0.013523,0.002678,0.000431,0.022448
42692000,0.0324,0.013523,0.002678,0.000431,0.012693
42693000,0.0324,0.013523,0.002678,0.000431,0.019275
42694000,0.0324,0.013523,0.002678,0.000431,0.008227
42695000,0.0324,0.013523,0.002678,0.000431,0.008345
42696000,0.0324,0.013523,0.002678,0.000431,0.008697
42697000,0.0324,0.013523,0.002678,0.000431,0.008345
42698000,0.0324,0.013523,0.002678,0.000431,0.001645
42699000,0.0324,0.013523,0.002678,0.000431,0.002233
42700000,0.0324,0.013523,0.002678,0.000431,0.001998
42701000,0.0324,0.013523,0.002678,0.000431,0.001998
42702000,0.0324,0.013523,0.002678,0.000431,0.004231
42703000,0.0324,0.013523,0.002678,0.000431,0.001410
42704000,0.0324,0.013523,0.002678,0.000431,0.001410
42705000,0.0324,0.013523,0.002678,0.000431,0.032320
42706000,0.0324,0.013523,0.002678,0.000431,0.738547
42707000,0.0324,0.013523,0.002678,0.000431,0.561902
42708000,0.0324,0.013523,0.002678,0.000431,0.134922
42709000,0.0324,0.013523,0.002678,0.000431,0.156312
42710000,0.0324,0.013523,0.002678,0.000431,0.589286
42711000,0.0324,0.013523,0.002678,0.000431,0.252686
42712000,0.0324,0.013523,0.002678,0.000431,0.349764
42713000,0.0324,0.013523,0.002678,0.000431,0.144677
42714000,0.0324,0.013523,0.002678,0.000431,0.157840
42715000,0.0324,0.013523,0.002678,0.000431,0.174177
42716000,0.0324,0.013523,0.002678,0.000431,0.555203
42717000,0.0324,0.013523,0.002678,0.000431,0.249747
42718000,0.0324,0.013523,0.002678,0.000431,0.205792
42719000,0.0324,0.013523,0.002678,0.000431,0.159016
42720000,0.0324,0.013523,0.002678,0.000431,0.162306
42721000,0.0324,0.013523,0.002678,0.000431,0.116000
42722000,0.0324,0.013523,0.002678,0.000431,0.111064
42723000,0.0324,0.013523,0.002678,0.000431,0.098254
42724000,0.0324,0.013523,0.002678,0.000431,0.066874
42725000,0.0324,0.013523,0.002678,0.000431,0.046894
42726000,0.0324,0.013523,0.002678,0.000431,0.040782
42727000,0.0324,0.013523,0.002678,0.000431,0.027031
42728000,0.0324,0.013523,0.002678,0.000431,0.022213
42729000,0.0324,0.013523,0.002678,0.000431,0.018334
42730000,0.0324,0.013523,0.002678,0.000431,0.021743
42731000,0.0324,0.013523,0.002678,0.000431,0.012458
42732000,0.0324,0.013523,0.002678,0.000431,0.010813
42733000,0.0324,0.013523,0.002678,0.000431,0.012223
42734000,0.0324,0.013523,0.002678,0.000431,0.007522
42735000,0.0324,0.013523,0.002678,0.000431,0.007287
42736000,0.0324,0.013523,0.002678,0.000431,0.006111
42737000,0.0324,0.013523,0.002678,0.000431,0.005641
42738000,0.0324,0.013523,0.002678,0.000431,0.002703
42739000,0.0324,0.013523,0.002678,0.000431,0.002586
42740000,0.0324,0.013523,0.002678,0.000431,0.002468
42741000,0.0324,0.013523,0.002678,0.000431,0.002468
42742000,0.0324,0.013523,0.002678,0.000431,0.002468
42743000,0.0324,0.013523,0.002678,0.000431,0.002703
42744000,0.0324,0.013523,0.002678,0.000431,0.002586
42745000,0.0324,0.013523,0.002678,0.000431,0.002468
42746000,0.0324,0.013523,0.002678,0.000431,0.002468
42747000,0.0324,0.013523,0.002678,0.000431,0.002586
42748000,0.0324,0.013523,0.002678,0.000431,0.002703
42749000,0.0324,0.013523,0.002678,0.000431,0.003408
42750000,0.0324,0.013523,0.002678,0.000431,0.002938
42751000,0.0324,0.013523,0.002678,0.000431,0.004113
42752000,0.0324,0.013523,0.002678,0.000431,0.000940
42753000,0.0324,0.013523,0.002678,0.000431,0.000823
42754000,0.0324,0.013523,0.002678,0.000431,0.273135
42755000,0.0324,0.013523,0.002678,0.000431,0.808594
42756000,0.0324,0.013523,0.002678,0.000431,0.392897
42757000,0.0324,0.013523,0.002678,0.000431,0.136803
42758000,0.0324,0.013523,0.002678,0.000431,0.411701
42759000,0.0324,0.013523,0.002678,0.000431,0.315328
42760000,0.0324,0.013523,0.002678,0.000431,0.281715
42761000,0.0324,0.013523,0.002678,0.000431,0.303223
42762000,0.0324,0.013523,0.002678,0.000431,0.157370
42763000,0.0324,0.013523,0.002678,0.000431,0.119996
42764000,0.0324,0.013523,0.002678,0.000431,0.326141
42765000,0.0324,0.013523,0.002678,0.000431,0.451426
42766000,0.0324,0.013523,0.002678,0.000431,0.208495
42767000,0.0324,0.013523,0.002678,0.000431,0.168888
42768000,0.0324,0.013523,0.002678,0.000431,0.163129
42769000,0.0324,0.013523,0.002678,0.000431,0.114355
42770000,0.0324,0.013523,0.002678,0.000431,0.098371
42771000,0.0324,0.013523,0.002678,0.000431,0.067579
42772000,0.0324,0.013523,0.002678,0.000431,0.072632
42773000,0.0324,0.013523,0.002678,0.000431,0.051007
42774000,0.0324,0.013523,0.002678,0.000431,0.030440
42775000,0.0324,0.013523,0.002678,0.000431,0.041840
42776000,0.0324,0.013523,0.002678,0.000431,0.026326
42777000,0.0324,0.013523,0.002678,0.000431,0.010813
42778000,0.0324,0.013523,0.002678,0.000431,0.009637
42779000,0.0324,0.013523,0.002678,0.000431,0.003878
42780000,0.0324,0.013523,0.002678,0.000431,0.008227
42781000,0.0324,0.013523,0.002678,0.000431,0.001880
42782000,0.0324,0.013523,0.002678,0.000431,0.001645
42783000,0.0324,0.013523,0.002678,0.000431,0.001645
42784000,0.0324,0.013523,0.002678,0.000431,0.003878
42785000,0.0324,0.013523,0.002678,0.000431,0.000705
42786000,0.0324,0.013523,0.002678,0.000431,0.000940
42787000,0.0324,0.013523,0.002678,0.000431,0.000823
42788000,0.0324,0.013523,0.002678,0.000431,0.000823
42789000,0.0324,0.013523,0.002678,0.000431,0.000940
42790000,0.0324,0.013523,0.002678,0.000431,0.000705
42791000,0.0324,0.013523,0.002678,0.000431,0.000940
42792000,0.0324,0.013523,0.002678,0.000431,0.000823
42793000,0.0324,0.013523,0.002678,0.000431,0.000823
42794000,0.0324,0.013523,0.002678,0.000431,0.000705
42795000,0.0324,0.013523,0.002678,0.000431,0.000940
42796000,0.0324,0.013523,0.002678,0.000431,0.000705
42797000,0.0324,0.013523,0.002678,0.000431,0.000940
42798000,0.0324,0.013523,0.002678,0.000431,0.000705
42799000,0.0324,0.013523,0.002678,0.000431,0.000940
42800000,0.0324,0.013523,0.002678,0.000431,0.000705
42801000,0.0324,0.013523,0.002678,0.000431,0.000940
42802000,0.0324,0.013523,0.002678,0.000431,0.000823
42803000,0.0324,0.013523,0.002678,0.000431,0.000823
42804000,0.0324,0.013523,0.002678,0.000431,0.000940
42805000,0.0324,0.013523,0.002678,0.000431,0.000705
42806000,0.0324,0.013523,0.002678,0.000431,0.072045
42807000,0.0324,0.013523,0.002678,0.000431,0.757587
42808000,0.0324,0.013523,0.002678,0.000431,0.564488
42809000,0.0324,0.013523,0.002678,0.000431,0.135863
42810000,0.0324,0.013523,0.002678,0.000431,0.151494
42811000,0.0324,0.013523,0.002678,0.000431,0.536986
42812000,0.0324,0.013523,0.002678,0.000431,0.277367
42813000,0.0324,0.013523,0.002678,0.000431,0.305338
42814000,0.0324,0.013523,0.002678,0.000431,0.142092
42815000,0.0324,0.013523,0.002678,0.000431,0.198153
42816000,0.0324,0.013523,0.002678,0.000431,0.085325
42817000,0.0324,0.013523,0.002678,0.000431,0.549444
42818000,0.0324,0.013523,0.002678,0.000431,0.250923
42819000,0.0324,0.013523,0.002678,0.000431,0.203324
42820000,0.0324,0.013523,0.002678,0.000431,0.189455
42821000,0.0324,0.013523,0.002678,0.000431,0.158075
42822000,0.0324,0.013523,0.002678,0.000431,0.136098
42823000,0.0324,0.013523,0.002678,0.000431,0.113180
42824000,0.0324,0.013523,0.002678,0.000431,0.089086
42825000,0.0324,0.013523,0.002678,0.000431,0.080624
42826000,0.0324,0.013523,0.002678,0.000431,0.063583
42827000,0.0324,0.013523,0.002678,0.000431,0.048539
42828000,0.0324,0.013523,0.002678,0.000431,0.039725
42829000,0.0324,0.013523,0.002678,0.000431,0.031498
42830000,0.0324,0.013523,0.002678,0.000431,0.028089
42831000,0.0324,0.013523,0.002678,0.000431,0.009285
42832000,0.0324,0.013523,0.002678,0.000431,0.008932
42833000,0.0324,0.013523,0.002678,0.000431,0.008697
42834000,0.0324,0.013523,0.002678,0.000431,0.004113
42835000,0.0324,0.013523,0.002678,0.000431,0.005054
42836000,0.0324,0.013523,0.002678,0.000431,0.001528
42837000,0.0324,0.013523,0.002678,0.000431,0.001763
42838000,0.0324,0.013523,0.002678,0.000431,0.001763
42839000,0.0324,0.013523,0.002678,0.000431,0.001528
42840000,0.0324,0.013523,0.002678,0.000431,0.001880
42841000,0.0324,0.013523,0.002678,0.000431,0.001528
42842000,0.0324,0.013523,0.002678,0.000431,0.001645
42843000,0.0324,0.013523,0.002678,0.000431,0.001645
42844000,0.0324,0.013523,0.002678,0.000431,0.002703
42845000,0.0324,0.013523,0.002678,0.000431,0.073103
42846000,0.0324,0.013523,0.002678,0.000431,0.743131
42847000,0.0324,0.013523,0.002678,0.000431,0.551560
42848000,0.0324,0.013523,0.002678,0.000431,0.136803
42849000,0.0324,0.013523,0.002678,0.000431,0.151846
42850000,0.0324,0.013523,0.002678,0.000431,0.565781
42851000,0.0324,0.013523,0.002678,0.000431,0.246692
42852000,0.0324,0.013523,0.002678,0.000431,0.302988
42853000,0.0324,0.013523,0.002678,0.000431,0.156077
42854000,0.0324,0.013523,0.002678,0.000431,0.160308
42855000,0.0324,0.013523,0.002678,0.000431,0.169006
42856000,0.0324,0.013523,0.002678,0.000431,0.520180
42857000,0.0324,0.013523,0.002678,0.000431,0.151024
42858000,0.0324,0.013523,0.002678,0.000431,0.130809
42859000,0.0324,0.013523,0.002678,0.000431,0.110359
42860000,0.0324,0.013523,0.002678,0.000431,0.093082
42861000,0.0324,0.013523,0.002678,0.000431,0.083563
42862000,0.0324,0.013523,0.002678,0.000431,0.075688
42863000,0.0324,0.013523,0.002678,0.000431,0.054651
42864000,0.0324,0.013523,0.002678,0.000431,0.043368
42865000,0.0324,0.013523,0.002678,0.000431,0.039489
42866000,0.0324,0.013523,0.002678,0.000431,0.036904
42867000,0.0324,0.013523,0.002678,0.000431,0.018687
42868000,0.0324,0.013523,0.002678,0.000431,0.016219
42869000,0.0324,0.013523,0.002678,0.000431,0.013751
42870000,0.0324,0.013523,0.002678,0.000431,0.009872
42871000,0.0324,0.013523,0.002678,0.000431,0.011400
42872000,0.0324,0.013523,0.002678,0.000431,0.010578
42873000,0.0324,0.013523,0.002678,0.000431,0.009637
42874000,0.0324,0.013523,0.002678,0.000431,0.009402
42875000,0.0324,0.013523,0.002678,0.000431,0.008345
42876000,0.0324,0.013523,0.002678,0.000431,0.005759
42877000,0.0324,0.013523,0.002678,0.000431,0.003761
42878000,0.0324,0.013523,0.002678,0.000431,0.005641
42879000,0.0324,0.013523,0.002678,0.000431,0.002468
42880000,0.0324,0.013523,0.002678,0.000431,0.002821
42881000,0.0324,0.013523,0.002678,0.000431,0.002821
42882000,0.0324,0.013523,0.002678,0.000431,0.004113
42883000,0.0324,0.013523,0.002678,0.000431,0.003056
42884000,0.0324,0.013523,0.002678,0.000431,0.000823
42885000,0.0324,0.013523,0.002678,0.000431,0.245751
42886000,0.0324,0.013523,0.002678,0.000431,0.671556
42887000,0.0324,0.013523,0.002678,0.000431,0.431916
42888000,0.0324,0.013523,0.002678,0.000431,0.135863
42889000,0.0324,0.013523,0.002678,0.000431,0.437557
42890000,0.0324,0.013523,0.002678,0.000431,0.274663
42891000,0.0324,0.013523,0.002678,0.000431,0.290177
42892000,0.0324,0.013523,0.002678,0.000431,0.277367
42893000,0.0324,0.013523,0.002678,0.000431,0.151964
42894000,0.0324,0.013523,0.002678,0.000431,0.107421
42895000,0.0324,0.013523,0.002678,0.000431,0.445314
42896000,0.0324,0.013523,0.002678,0.000431,0.338129
42897000,0.0324,0.013523,0.002678,0.000431,0.204734
42898000,0.0324,0.013523,0.002678,0.000431,0.179230
42899000,0.0324,0.013523,0.002678,0.000431,0.153257
42900000,0.0324,0.013523,0.002678,0.000431,0.128576
42901000,0.0324,0.013523,0.002678,0.000431,0.100134
42902000,0.0324,0.013523,0.002678,0.000431,0.077334
42903000,0.0324,0.013523,0.002678,0.000431,0.060762
42904000,0.0324,0.013523,0.002678,0.000431,0.052418
42905000,0.0324,0.013523,0.002678,0.000431,0.034201
42906000,0.0324,0.013523,0.002678,0.000431,0.025151
42907000,0.0324,0.013523,0.002678,0.000431,0.019862
42908000,0.0324,0.013523,0.002678,0.000431,0.027149
42909000,0.0324,0.013523,0.002678,0.000431,0.015044
42910000,0.0324,0.013523,0.002678,0.000431,0.004584
42911000,0.0324,0.013523,0.002678,0.000431,0.001763
42912000,0.0324,0.013523,0.002678,0.000431,0.005641
42913000,0.0324,0.013523,0.002678,0.000431,0.001058
42914000,0.0324,0.013523,0.002678,0.000431,0.001058
42915000,0.0324,0.013523,0.002678,0.000431,0.001645
42916000,0.0324,0.013523,0.002678,0.000431,0.000823
42917000,0.0324,0.013523,0.002678,0.000431,0.001293
42918000,0.0324,0.013523,0.002678,0.000431,0.001293
42919000,0.0324,0.013523,0.002678,0.000431,0.000940
42920000,0.0324,0.013523,0.002678,0.000431,0.001528
42921000,0.0324,0.013523,0.002678,0.000431,0.001058
42922000,0.0324,0.013523,0.002678,0.000431,0.001058
42923000,0.0324,0.013523,0.002678,0.000431,0.001528
42924000,0.0324,0.013523,0.002678,0.000431,0.000940
42925000,0.0324,0.013523,0.002678,0.000431,0.001528
42926000,0.0324,0.013523,0.002678,0.000431,0.001058
42927000,0.0324,0.013523,0.002678,0.000431,0.001293
42928000,0.0324,0.013523,0.002678,0.000431,0.001293
42929000,0.0324,0.013523,0.002678,0.000431,0.013868
42930000,0.0324,0.013523,0.002678,0.000431,0.719978
42931000,0.0324,0.013523,0.002678,0.000431,0.591872
42932000,0.0324,0.013523,0.002678,0.000431,0.145617
42933000,0.0324,0.013523,0.002678,0.000431,0.147263
42934000,0.0324,0.013523,0.002678,0.000431,0.536046
42935000,0.0324,0.013523,0.002678,0.000431,0.277837
42936000,0.0324,0.013523,0.002678,0.000431,0.328491
42937000,0.0324,0.013523,0.002678,0.000431,0.159956
42938000,0.0324,0.013523,0.002678,0.000431,0.114002
42939000,0.0324,0.013523,0.002678,0.000431,0.391251
42940000,0.0324,0.013523,0.002678,0.000431,0.389136
42941000,0.0324,0.013523,0.002678,0.000431,0.211668
42942000,0.0324,0.013523,0.002678,0.000431,0.201796
42943000,0.0324,0.013523,0.002678,0.000431,0.181934
42944000,0.0324,0.013523,0.002678,0.000431,0.149143
42945000,0.0324,0.013523,0.002678,0.000431,0.119056
42946000,0.0324,0.013523,0.002678,0.000431,0.096138
42947000,0.0324,0.013523,0.002678,0.000431,0.093787
42948000,0.0324,0.013523,0.002678,0.000431,0.075571
42949000,0.0324,0.013523,0.002678,0.000431,0.068989
42950000,0.0324,0.013523,0.002678,0.000431,0.069577
42951000,0.0324,0.013523,0.002678,0.000431,0.052535
42952000,0.0324,0.013523,0.002678,0.000431,0.037609
42953000,0.0324,0.013523,0.002678,0.000431,0.034083
42954000,0.0324,0.013523,0.002678,0.000431,0.023271
42955000,0.0324,0.013523,0.002678,0.000431,0.013516
42956000,0.0324,0.013523,0.002678,0.000431,0.008227
42957000,0.0324,0.013523,0.002678,0.000431,0.003878
42958000,0.0324,0.013523,0.002678,0.000431,0.006229
42959000,0.0324,0.013523,0.002678,0.000431,0.004349
42960000,0.0324,0.013523,0.002678,0.000431,0.004466
42961000,0.0324,0.013523,0.002678,0.000431,0.001293
42962000,0.0324,0.013523,0.002678,0.000431,0.001410
42963000,0.0324,0.013523,0.002678,0.000431,0.000823
42964000,0.0324,0.013523,0.002678,0.000431,0.001293
42965000,0.0324,0.013523,0.002678,0.000431,0.001058
42966000,0.0324,0.013523,0.002678,0.000431,0.000940
42967000,0.0324,0.013523,0.002678,0.000431,0.001410
42968000,0.0324,0.013523,0.002678,0.000431,0.001058
42969000,0.0324,0.013523,0.002678,0.000431,0.001175
42970000,0.0324,0.013523,0.002678,0.000431,0.001058
42971000,0.0324,0.013523,0.002678,0.000431,0.001058
42972000,0.0324,0.013523,0.002678,0.000431,0.001293
42973000,0.0324,0.013523,0.002678,0.000431,0.000940
42974000,0.0324,0.013523,0.002678,0.000431,0.001410
42975000,0.0324,0.013523,0.002678,0.000431,0.000823
42976000,0.0324,0.013523,0.002678,0.000431,0.001175
42977000,0.0324,0.013523,0.002678,0.000431,0.001293
42978000,0.0324,0.013523,0.002678,0.000431,0.000823
42979000,0.0324,0.013523,0.002678,0.000431,0.001528
42980000,0.0324,0.013523,0.002678,0.000431,0.000823
42981000,0.0324,0.013523,0.002678,0.000431,0.000823
42982000,0.0324,0.013523,0.002678,0.000431,0.251275
42983000,0.0324,0.013523,0.002678,0.000431,0.714806
42984000,0.0324,0.013523,0.002678,0.000431,0.425217
42985000,0.0324,0.013523,0.002678,0.000431,0.139153
42986000,0.0324,0.013523,0.002678,0.000431,0.513011
42987000,0.0324,0.013523,0.002678,0.000431,0.243283
42988000,0.0324,0.013523,0.002678,0.000431,0.316386
42989000,0.0324,0.013523,0.002678,0.000431,0.154785
42990000,0.0324,0.013523,0.002678,0.000431,0.163717
42991000,0.0324,0.013523,0.002678,0.000431,0.202854
42992000,0.0324,0.013523,0.002678,0.000431,0.498555
42993000,0.0324,0.013523,0.002678,0.000431,0.204617
42994000,0.0324,0.013523,0.002678,0.000431,0.172061
42995000,0.0324,0.013523,0.002678,0.000431,0.152317
42996000,0.0324,0.013523,0.002678,0.000431,0.133042
42997000,0.0324,0.013523,0.002678,0.000431,0.095668
42998000,0.0324,0.013523,0.002678,0.000431,0.093317
42999000,0.0324,0.013523,0.002678,0.000431,0.074983
