Cycle,Area(mm^2),PeakDynamic(W),SubthresholdLeakage(W),GateLeakage(W),RunTimeDynamic(W)
68000000,0.0324,0.013523,0.002678,0.000431,0.053358
68001000,0.0324,0.013523,0.002678,0.000431,0.048422
68002000,0.0324,0.013523,0.002678,0.000431,0.038197
68003000,0.0324,0.013523,0.002678,0.000431,0.023388
68004000,0.0324,0.013523,0.002678,0.000431,0.024916
68005000,0.0324,0.013523,0.002678,0.000431,0.024446
68006000,0.0324,0.013523,0.002678,0.000431,0.019157
68007000,0.0324,0.013523,0.002678,0.000431,0.015396
68008000,0.0324,0.013523,0.002678,0.000431,0.018217
68009000,0.0324,0.013523,0.002678,0.000431,0.011048
68010000,0.0324,0.013523,0.002678,0.000431,0.007052
68011000,0.0324,0.013523,0.002678,0.000431,0.007052
68012000,0.0324,0.013523,0.002678,0.000431,0.004936
68013000,0.0324,0.013523,0.002678,0.000431,0.003878
68014000,0.0324,0.013523,0.002678,0.000431,0.004701
68015000,0.0324,0.013523,0.002678,0.000431,0.002586
68016000,0.0324,0.013523,0.002678,0.000431,0.004113
68017000,0.0324,0.013523,0.002678,0.000431,0.001998
68018000,0.0324,0.013523,0.002678,0.000431,0.001880
68019000,0.0324,0.013523,0.002678,0.000431,0.001645
68020000,0.0324,0.013523,0.002678,0.000431,0.001763
68021000,0.0324,0.013523,0.002678,0.000431,0.003996
68022000,0.0324,0.013523,0.002678,0.000431,0.000940
68023000,0.0324,0.013523,0.002678,0.000431,0.000940
68024000,0.0324,0.013523,0.002678,0.000431,0.000823
68025000,0.0324,0.013523,0.002678,0.000431,0.001058
68026000,0.0324,0.013523,0.002678,0.000431,0.000705
68027000,0.0324,0.013523,0.002678,0.000431,0.271608
68028000,0.0324,0.013523,0.002678,0.000431,0.826693
68029000,0.0324,0.013523,0.002678,0.000431,0.369861
68030000,0.0324,0.013523,0.002678,0.000431,0.137155
68031000,0.0324,0.013523,0.002678,0.000431,0.481278
68032000,0.0324,0.013523,0.002678,0.000431,0.306161
68033000,0.0324,0.013523,0.002678,0.000431,0.301225
68034000,0.0324,0.013523,0.002678,0.000431,0.248572
68035000,0.0324,0.013523,0.002678,0.000431,0.163482
68036000,0.0324,0.013523,0.002678,0.000431,0.107068
68037000,0.0324,0.013523,0.002678,0.000431,0.528759
68038000,0.0324,0.013523,0.002678,0.000431,0.308747
68039000,0.0324,0.013523,0.002678,0.000431,0.241285
68040000,0.0324,0.013523,0.002678,0.000431,0.183579
68041000,0.0324,0.013523,0.002678,0.000431,0.167948
68042000,0.0324,0.013523,0.002678,0.000431,0.134570
68043000,0.0324,0.013523,0.002678,0.000431,0.114237
68044000,0.0324,0.013523,0.002678,0.000431,0.087206
68045000,0.0324,0.013523,0.002678,0.000431,0.067579
68046000,0.0324,0.013523,0.002678,0.000431,0.049127
68047000,0.0324,0.013523,0.002678,0.000431,0.041017
68048000,0.0324,0.013523,0.002678,0.000431,0.031027
68049000,0.0324,0.013523,0.002678,0.000431,0.023271
68050000,0.0324,0.013523,0.002678,0.000431,0.017864
68051000,0.0324,0.013523,0.002678,0.000431,0.014573
68052000,0.0324,0.013523,0.002678,0.000431,0.016219
68053000,0.0324,0.013523,0.002678,0.000431,0.018569
68054000,0.0324,0.013523,0.002678,0.000431,0.007169
68055000,0.0324,0.013523,0.002678,0.000431,0.009755
68056000,0.0324,0.013523,0.002678,0.000431,0.007639
68057000,0.0324,0.013523,0.002678,0.000431,0.007874
68058000,0.0324,0.013523,0.002678,0.000431,0.004466
68059000,0.0324,0.013523,0.002678,0.000431,0.003291
68060000,0.0324,0.013523,0.002678,0.000431,0.000705
68061000,0.0324,0.013523,0.002678,0.000431,0.000940
68062000,0.0324,0.013523,0.002678,0.000431,0.000705
68063000,0.0324,0.013523,0.002678,0.000431,0.000940
68064000,0.0324,0.013523,0.002678,0.000431,0.000705
68065000,0.0324,0.013523,0.002678,0.000431,0.000940
68066000,0.0324,0.013523,0.002678,0.000431,0.000705
68067000,0.0324,0.013523,0.002678,0.000431,0.000940
68068000,0.0324,0.013523,0.002678,0.000431,0.000705
68069000,0.0324,0.013523,0.002678,0.000431,0.000940
68070000,0.0324,0.013523,0.002678,0.000431,0.000823
68071000,0.0324,0.013523,0.002678,0.000431,0.000823
68072000,0.0324,0.013523,0.002678,0.000431,0.000940
68073000,0.0324,0.013523,0.002678,0.000431,0.000705
68074000,0.0324,0.013523,0.002678,0.000431,0.000705
68075000,0.0324,0.013523,0.002678,0.000431,0.000940
68076000,0.0324,0.013523,0.002678,0.000431,0.000705
68077000,0.0324,0.013523,0.002678,0.000431,0.000940
68078000,0.0324,0.013523,0.002678,0.000431,0.000940
68079000,0.0324,0.013523,0.002678,0.000431,0.000705
68080000,0.0324,0.013523,0.002678,0.000431,0.000940
68081000,0.0324,0.013523,0.002678,0.000431,0.000705
68082000,0.0324,0.013523,0.002678,0.000431,0.000940
68083000,0.0324,0.013523,0.002678,0.000431,0.000823
68084000,0.0324,0.013523,0.002678,0.000431,0.000705
68085000,0.0324,0.013523,0.002678,0.000431,0.000823
68086000,0.0324,0.013523,0.002678,0.000431,0.014573
68087000,0.0324,0.013523,0.002678,0.000431,0.779682
68088000,0.0324,0.013523,0.002678,0.000431,0.560727
68089000,0.0324,0.013523,0.002678,0.000431,0.190748
68090000,0.0324,0.013523,0.002678,0.000431,0.192276
68091000,0.0324,0.013523,0.002678,0.000431,0.599159
68092000,0.0324,0.013523,0.002678,0.000431,0.261970
68093000,0.0324,0.013523,0.002678,0.000431,0.289002
68094000,0.0324,0.013523,0.002678,0.000431,0.158663
68095000,0.0324,0.013523,0.002678,0.000431,0.108008
68096000,0.0324,0.013523,0.002678,0.000431,0.425687
68097000,0.0324,0.013523,0.002678,0.000431,0.442023
68098000,0.0324,0.013523,0.002678,0.000431,0.246809
68099000,0.0324,0.013523,0.002678,0.000431,0.203206
68100000,0.0324,0.013523,0.002678,0.000431,0.181464
68101000,0.0324,0.013523,0.002678,0.000431,0.141269
68102000,0.0324,0.013523,0.002678,0.000431,0.125520
68103000,0.0324,0.013523,0.002678,0.000431,0.092847
68104000,0.0324,0.013523,0.002678,0.000431,0.092847
68105000,0.0324,0.013523,0.002678,0.000431,0.058999
68106000,0.0324,0.013523,0.002678,0.000431,0.050067
68107000,0.0324,0.013523,0.002678,0.000431,0.048539
68108000,0.0324,0.013523,0.002678,0.000431,0.037491
68109000,0.0324,0.013523,0.002678,0.000431,0.032555
68110000,0.0324,0.013523,0.002678,0.000431,0.025151
68111000,0.0324,0.013523,0.002678,0.000431,0.024916
68112000,0.0324,0.013523,0.002678,0.000431,0.023741
68113000,0.0324,0.013523,0.002678,0.000431,0.013398
68114000,0.0324,0.013523,0.002678,0.000431,0.013398
68115000,0.0324,0.013523,0.002678,0.000431,0.005876
68116000,0.0324,0.013523,0.002678,0.000431,0.006934
68117000,0.0324,0.013523,0.002678,0.000431,0.004231
68118000,0.0324,0.013523,0.002678,0.000431,0.004349
68119000,0.0324,0.013523,0.002678,0.000431,0.004349
68120000,0.0324,0.013523,0.002678,0.000431,0.004113
68121000,0.0324,0.013523,0.002678,0.000431,0.004113
68122000,0.0324,0.013523,0.002678,0.000431,0.007639
68123000,0.0324,0.013523,0.002678,0.000431,0.004584
68124000,0.0324,0.013523,0.002678,0.000431,0.002703
68125000,0.0324,0.013523,0.002678,0.000431,0.002351
68126000,0.0324,0.013523,0.002678,0.000431,0.002821
68127000,0.0324,0.013523,0.002678,0.000431,0.002351
68128000,0.0324,0.013523,0.002678,0.000431,0.002586
68129000,0.0324,0.013523,0.002678,0.000431,0.006582
68130000,0.0324,0.013523,0.002678,0.000431,0.001763
68131000,0.0324,0.013523,0.002678,0.000431,0.001645
68132000,0.0324,0.013523,0.002678,0.000431,0.001645
68133000,0.0324,0.013523,0.002678,0.000431,0.001410
68134000,0.0324,0.013523,0.002678,0.000431,0.001880
68135000,0.0324,0.013523,0.002678,0.000431,0.001880
68136000,0.0324,0.013523,0.002678,0.000431,0.001410
68137000,0.0324,0.013523,0.002678,0.000431,0.004936
68138000,0.0324,0.013523,0.002678,0.000431,0.000823
68139000,0.0324,0.013523,0.002678,0.000431,0.000940
68140000,0.0324,0.013523,0.002678,0.000431,0.000823
68141000,0.0324,0.013523,0.002678,0.000431,0.000940
68142000,0.0324,0.013523,0.002678,0.000431,0.002468
68143000,0.0324,0.013523,0.002678,0.000431,0.595985
68144000,0.0324,0.013523,0.002678,0.000431,0.745364
68145000,0.0324,0.013523,0.002678,0.000431,0.218367
68146000,0.0324,0.013523,0.002678,0.000431,0.164775
68147000,0.0324,0.013523,0.002678,0.000431,0.569777
68148000,0.0324,0.013523,0.002678,0.000431,0.275604
68149000,0.0324,0.013523,0.002678,0.000431,0.312860
68150000,0.0324,0.013523,0.002678,0.000431,0.150789
68151000,0.0324,0.013523,0.002678,0.000431,0.149966
68152000,0.0324,0.013523,0.002678,0.000431,0.202031
68153000,0.0324,0.013523,0.002678,0.000431,0.553675
68154000,0.0324,0.013523,0.002678,0.000431,0.253861
68155000,0.0324,0.013523,0.002678,0.000431,0.221776
68156000,0.0324,0.013523,0.002678,0.000431,0.182051
68157000,0.0324,0.013523,0.002678,0.000431,0.156430
68158000,0.0324,0.013523,0.002678,0.000431,0.128223
68159000,0.0324,0.013523,0.002678,0.000431,0.098724
68160000,0.0324,0.013523,0.002678,0.000431,0.079919
68161000,0.0324,0.013523,0.002678,0.000431,0.053475
68162000,0.0324,0.013523,0.002678,0.000431,0.042310
68163000,0.0324,0.013523,0.002678,0.000431,0.037374
68164000,0.0324,0.013523,0.002678,0.000431,0.028677
68165000,0.0324,0.013523,0.002678,0.000431,0.020685
68166000,0.0324,0.013523,0.002678,0.000431,0.005641
68167000,0.0324,0.013523,0.002678,0.000431,0.010578
68168000,0.0324,0.013523,0.002678,0.000431,0.005171
68169000,0.0324,0.013523,0.002678,0.000431,0.003761
68170000,0.0324,0.013523,0.002678,0.000431,0.000940
68171000,0.0324,0.013523,0.002678,0.000431,0.009402
68172000,0.0324,0.013523,0.002678,0.000431,0.715982
68173000,0.0324,0.013523,0.002678,0.000431,0.673084
68174000,0.0324,0.013523,0.002678,0.000431,0.146910
68175000,0.0324,0.013523,0.002678,0.000431,0.163717
68176000,0.0324,0.013523,0.002678,0.000431,0.593047
68177000,0.0324,0.013523,0.002678,0.000431,0.289119
68178000,0.0324,0.013523,0.002678,0.000431,0.276544
68179000,0.0324,0.013523,0.002678,0.000431,0.153139
68180000,0.0324,0.013523,0.002678,0.000431,0.120231
68181000,0.0324,0.013523,0.002678,0.000431,0.486214
68182000,0.0324,0.013523,0.002678,0.000431,0.303458
68183000,0.0324,0.013523,0.002678,0.000431,0.190866
68184000,0.0324,0.013523,0.002678,0.000431,0.175117
68185000,0.0324,0.013523,0.002678,0.000431,0.151376
68186000,0.0324,0.013523,0.002678,0.000431,0.116353
68187000,0.0324,0.013523,0.002678,0.000431,0.098841
68188000,0.0324,0.013523,0.002678,0.000431,0.075923
68189000,0.0324,0.013523,0.002678,0.000431,0.073808
68190000,0.0324,0.013523,0.002678,0.000431,0.057354
68191000,0.0324,0.013523,0.002678,0.000431,0.047834
68192000,0.0324,0.013523,0.002678,0.000431,0.038314
68193000,0.0324,0.013523,0.002678,0.000431,0.032555
68194000,0.0324,0.013523,0.002678,0.000431,0.024798
68195000,0.0324,0.013523,0.002678,0.000431,0.019627
68196000,0.0324,0.013523,0.002678,0.000431,0.023623
68197000,0.0324,0.013523,0.002678,0.000431,0.015161
68198000,0.0324,0.013523,0.002678,0.000431,0.015044
68199000,0.0324,0.013523,0.002678,0.000431,0.011753
68200000,0.0324,0.013523,0.002678,0.000431,0.009520
68201000,0.0324,0.013523,0.002678,0.000431,0.009990
68202000,0.0324,0.013523,0.002678,0.000431,0.008815
68203000,0.0324,0.013523,0.002678,0.000431,0.011165
68204000,0.0324,0.013523,0.002678,0.000431,0.009402
68205000,0.0324,0.013523,0.002678,0.000431,0.010107
68206000,0.0324,0.013523,0.002678,0.000431,0.009167
68207000,0.0324,0.013523,0.002678,0.000431,0.021273
68208000,0.0324,0.013523,0.002678,0.000431,0.004113
68209000,0.0324,0.013523,0.002678,0.000431,0.007522
68210000,0.0324,0.013523,0.002678,0.000431,0.004231
68211000,0.0324,0.013523,0.002678,0.000431,0.001175
68212000,0.0324,0.013523,0.002678,0.000431,0.001528
68213000,0.0324,0.013523,0.002678,0.000431,0.001058
68214000,0.0324,0.013523,0.002678,0.000431,0.001410
68215000,0.0324,0.013523,0.002678,0.000431,0.001998
68216000,0.0324,0.013523,0.002678,0.000431,0.318501
68217000,0.0324,0.013523,0.002678,0.000431,0.824578
68218000,0.0324,0.013523,0.002678,0.000431,0.305926
68219000,0.0324,0.013523,0.002678,0.000431,0.138213
68220000,0.0324,0.013523,0.002678,0.000431,0.519592
68221000,0.0324,0.013523,0.002678,0.000431,0.260795
68222000,0.0324,0.013523,0.002678,0.000431,0.299814
68223000,0.0324,0.013523,0.002678,0.000431,0.205087
68224000,0.0324,0.013523,0.002678,0.000431,0.184989
68225000,0.0324,0.013523,0.002678,0.000431,0.086501
68226000,0.0324,0.013523,0.002678,0.000431,0.577533
68227000,0.0324,0.013523,0.002678,0.000431,0.264909
68228000,0.0324,0.013523,0.002678,0.000431,0.182991
68229000,0.0324,0.013523,0.002678,0.000431,0.136568
68230000,0.0324,0.013523,0.002678,0.000431,0.123875
68231000,0.0324,0.013523,0.002678,0.000431,0.114472
68232000,0.0324,0.013523,0.002678,0.000431,0.082152
68233000,0.0324,0.013523,0.002678,0.000431,0.077686
68234000,0.0324,0.013523,0.002678,0.000431,0.043956
68235000,0.0324,0.013523,0.002678,0.000431,0.045718
68236000,0.0324,0.013523,0.002678,0.000431,0.042780
68237000,0.0324,0.013523,0.002678,0.000431,0.023153
68238000,0.0324,0.013523,0.002678,0.000431,0.019862
68239000,0.0324,0.013523,0.002678,0.000431,0.013868
68240000,0.0324,0.013523,0.002678,0.000431,0.016807
68241000,0.0324,0.013523,0.002678,0.000431,0.010813
68242000,0.0324,0.013523,0.002678,0.000431,0.008227
68243000,0.0324,0.013523,0.002678,0.000431,0.008932
68244000,0.0324,0.013523,0.002678,0.000431,0.006817
68245000,0.0324,0.013523,0.002678,0.000431,0.007874
68246000,0.0324,0.013523,0.002678,0.000431,0.002703
68247000,0.0324,0.013523,0.002678,0.000431,0.002586
68248000,0.0324,0.013523,0.002678,0.000431,0.004584
68249000,0.0324,0.013523,0.002678,0.000431,0.001058
68250000,0.0324,0.013523,0.002678,0.000431,0.000940
68251000,0.0324,0.013523,0.002678,0.000431,0.000940
68252000,0.0324,0.013523,0.002678,0.000431,0.001763
68253000,0.0324,0.013523,0.002678,0.000431,0.338011
68254000,0.0324,0.013523,0.002678,0.000431,0.777684
68255000,0.0324,0.013523,0.002678,0.000431,0.351409
68256000,0.0324,0.013523,0.002678,0.000431,0.138213
68257000,0.0324,0.013523,0.002678,0.000431,0.473286
68258000,0.0324,0.013523,0.002678,0.000431,0.268552
68259000,0.0324,0.013523,0.002678,0.000431,0.261500
68260000,0.0324,0.013523,0.002678,0.000431,0.277131
68261000,0.0324,0.013523,0.002678,0.000431,0.158428
68262000,0.0324,0.013523,0.002678,0.000431,0.136568
68263000,0.0324,0.013523,0.002678,0.000431,0.277954
68264000,0.0324,0.013523,0.002678,0.000431,0.504196
68265000,0.0324,0.013523,0.002678,0.000431,0.217662
68266000,0.0324,0.013523,0.002678,0.000431,0.198740
68267000,0.0324,0.013523,0.002678,0.000431,0.169123
68268000,0.0324,0.013523,0.002678,0.000431,0.135628
68269000,0.0324,0.013523,0.002678,0.000431,0.119526
68270000,0.0324,0.013523,0.002678,0.000431,0.085913
68271000,0.0324,0.013523,0.002678,0.000431,0.070634
68272000,0.0324,0.013523,0.002678,0.000431,0.068519
68273000,0.0324,0.013523,0.002678,0.000431,0.064170
68274000,0.0324,0.013523,0.002678,0.000431,0.044896
68275000,0.0324,0.013523,0.002678,0.000431,0.044191
68276000,0.0324,0.013523,0.002678,0.000431,0.043838
68277000,0.0324,0.013523,0.002678,0.000431,0.040430
68278000,0.0324,0.013523,0.002678,0.000431,0.025151
68279000,0.0324,0.013523,0.002678,0.000431,0.020685
68280000,0.0324,0.013523,0.002678,0.000431,0.024916
68281000,0.0324,0.013523,0.002678,0.000431,0.012576
68282000,0.0324,0.013523,0.002678,0.000431,0.008815
68283000,0.0324,0.013523,0.002678,0.000431,0.002821
68284000,0.0324,0.013523,0.002678,0.000431,0.002938
68285000,0.0324,0.013523,0.002678,0.000431,0.002938
68286000,0.0324,0.013523,0.002678,0.000431,0.006464
68287000,0.0324,0.013523,0.002678,0.000431,0.000705
68288000,0.0324,0.013523,0.002678,0.000431,0.014338
68289000,0.0324,0.013523,0.002678,0.000431,0.763933
68290000,0.0324,0.013523,0.002678,0.000431,0.593282
68291000,0.0324,0.013523,0.002678,0.000431,0.144207
68292000,0.0324,0.013523,0.002678,0.000431,0.167830
68293000,0.0324,0.013523,0.002678,0.000431,0.595868
68294000,0.0324,0.013523,0.002678,0.000431,0.248807
68295000,0.0324,0.013523,0.002678,0.000431,0.257622
68296000,0.0324,0.013523,0.002678,0.000431,0.150554
68297000,0.0324,0.013523,0.002678,0.000431,0.153257
68298000,0.0324,0.013523,0.002678,0.000431,0.236114
68299000,0.0324,0.013523,0.002678,0.000431,0.523823
68300000,0.0324,0.013523,0.002678,0.000431,0.206262
68301000,0.0324,0.013523,0.002678,0.000431,0.170063
68302000,0.0324,0.013523,0.002678,0.000431,0.152669
68303000,0.0324,0.013523,0.002678,0.000431,0.125168
68304000,0.0324,0.013523,0.002678,0.000431,0.087441
68305000,0.0324,0.013523,0.002678,0.000431,0.086383
68306000,0.0324,0.013523,0.002678,0.000431,0.070047
68307000,0.0324,0.013523,0.002678,0.000431,0.040430
68308000,0.0324,0.013523,0.002678,0.000431,0.042898
68309000,0.0324,0.013523,0.002678,0.000431,0.040547
68310000,0.0324,0.013523,0.002678,0.000431,0.028559
68311000,0.0324,0.013523,0.002678,0.000431,0.030205
68312000,0.0324,0.013523,0.002678,0.000431,0.023036
68313000,0.0324,0.013523,0.002678,0.000431,0.019275
68314000,0.0324,0.013523,0.002678,0.000431,0.016924
68315000,0.0324,0.013523,0.002678,0.000431,0.011283
68316000,0.0324,0.013523,0.002678,0.000431,0.017629
68317000,0.0324,0.013523,0.002678,0.000431,0.009755
68318000,0.0324,0.013523,0.002678,0.000431,0.009402
68319000,0.0324,0.013523,0.002678,0.000431,0.004819
68320000,0.0324,0.013523,0.002678,0.000431,0.006699
68321000,0.0324,0.013523,0.002678,0.000431,0.008815
68322000,0.0324,0.013523,0.002678,0.000431,0.001528
68323000,0.0324,0.013523,0.002678,0.000431,0.001880
68324000,0.0324,0.013523,0.002678,0.000431,0.001645
68325000,0.0324,0.013523,0.002678,0.000431,0.001645
68326000,0.0324,0.013523,0.002678,0.000431,0.004231
68327000,0.0324,0.013523,0.002678,0.000431,0.000823
68328000,0.0324,0.013523,0.002678,0.000431,0.000940
68329000,0.0324,0.013523,0.002678,0.000431,0.000940
68330000,0.0324,0.013523,0.002678,0.000431,0.000940
68331000,0.0324,0.013523,0.002678,0.000431,0.000705
68332000,0.0324,0.013523,0.002678,0.000431,0.000940
68333000,0.0324,0.013523,0.002678,0.000431,0.000940
68334000,0.0324,0.013523,0.002678,0.000431,0.000940
68335000,0.0324,0.013523,0.002678,0.000431,0.000940
68336000,0.0324,0.013523,0.002678,0.000431,0.257269
68337000,0.0324,0.013523,0.002678,0.000431,0.732318
68338000,0.0324,0.013523,0.002678,0.000431,0.450368
68339000,0.0324,0.013523,0.002678,0.000431,0.138801
68340000,0.0324,0.013523,0.002678,0.000431,0.454481
68341000,0.0324,0.013523,0.002678,0.000431,0.310039
68342000,0.0324,0.013523,0.002678,0.000431,0.296524
68343000,0.0324,0.013523,0.002678,0.000431,0.263381
68344000,0.0324,0.013523,0.002678,0.000431,0.151729
68345000,0.0324,0.013523,0.002678,0.000431,0.116235
68346000,0.0324,0.013523,0.002678,0.000431,0.475519
68347000,0.0324,0.013523,0.002678,0.000431,0.341654
68348000,0.0324,0.013523,0.002678,0.000431,0.220718
68349000,0.0324,0.013523,0.002678,0.000431,0.187105
68350000,0.0324,0.013523,0.002678,0.000431,0.176175
68351000,0.0324,0.013523,0.002678,0.000431,0.126695
68352000,0.0324,0.013523,0.002678,0.000431,0.120584
68353000,0.0324,0.013523,0.002678,0.000431,0.107186
68354000,0.0324,0.013523,0.002678,0.000431,0.090144
68355000,0.0324,0.013523,0.002678,0.000431,0.080389
68356000,0.0324,0.013523,0.002678,0.000431,0.056884
68357000,0.0324,0.013523,0.002678,0.000431,0.059352
68358000,0.0324,0.013523,0.002678,0.000431,0.044661
68359000,0.0324,0.013523,0.002678,0.000431,0.030087
68360000,0.0324,0.013523,0.002678,0.000431,0.021978
68361000,0.0324,0.013523,0.002678,0.000431,0.016219
68362000,0.0324,0.013523,0.002678,0.000431,0.016689
68363000,0.0324,0.013523,0.002678,0.000431,0.021390
68364000,0.0324,0.013523,0.002678,0.000431,0.010225
68365000,0.0324,0.013523,0.002678,0.000431,0.008932
68366000,0.0324,0.013523,0.002678,0.000431,0.008932
68367000,0.0324,0.013523,0.002678,0.000431,0.005171
68368000,0.0324,0.013523,0.002678,0.000431,0.003408
68369000,0.0324,0.013523,0.002678,0.000431,0.007874
68370000,0.0324,0.013523,0.002678,0.000431,0.000705
68371000,0.0324,0.013523,0.002678,0.000431,0.000940
68372000,0.0324,0.013523,0.002678,0.000431,0.000823
68373000,0.0324,0.013523,0.002678,0.000431,0.000823
68374000,0.0324,0.013523,0.002678,0.000431,0.000940
68375000,0.0324,0.013523,0.002678,0.000431,0.000705
68376000,0.0324,0.013523,0.002678,0.000431,0.000823
68377000,0.0324,0.013523,0.002678,0.000431,0.000823
68378000,0.0324,0.013523,0.002678,0.000431,0.000940
68379000,0.0324,0.013523,0.002678,0.000431,0.000705
68380000,0.0324,0.013523,0.002678,0.000431,0.000940
68381000,0.0324,0.013523,0.002678,0.000431,0.000823
68382000,0.0324,0.013523,0.002678,0.000431,0.000823
68383000,0.0324,0.013523,0.002678,0.000431,0.000940
68384000,0.0324,0.013523,0.002678,0.000431,0.000705
68385000,0.0324,0.013523,0.002678,0.000431,0.012223
68386000,0.0324,0.013523,0.002678,0.000431,0.687422
68387000,0.0324,0.013523,0.002678,0.000431,0.664269
68388000,0.0324,0.013523,0.002678,0.000431,0.138801
68389000,0.0324,0.013523,0.002678,0.000431,0.140211
68390000,0.0324,0.013523,0.002678,0.000431,0.517006
68391000,0.0324,0.013523,0.002678,0.000431,0.274311
68392000,0.0324,0.013523,0.002678,0.000431,0.297111
68393000,0.0324,0.013523,0.002678,0.000431,0.182051
68394000,0.0324,0.013523,0.002678,0.000431,0.176527
68395000,0.0324,0.013523,0.002678,0.000431,0.106010
68396000,0.0324,0.013523,0.002678,0.000431,0.554145
68397000,0.0324,0.013523,0.002678,0.000431,0.277014
68398000,0.0324,0.013523,0.002678,0.000431,0.212491
68399000,0.0324,0.013523,0.002678,0.000431,0.177938
68400000,0.0324,0.013523,0.002678,0.000431,0.140446
68401000,0.0324,0.013523,0.002678,0.000431,0.113415
68402000,0.0324,0.013523,0.002678,0.000431,0.100839
68403000,0.0324,0.013523,0.002678,0.000431,0.068872
68404000,0.0324,0.013523,0.002678,0.000431,0.073455
68405000,0.0324,0.013523,0.002678,0.000431,0.043133
68406000,0.0324,0.013523,0.002678,0.000431,0.025974
68407000,0.0324,0.013523,0.002678,0.000431,0.027972
68408000,0.0324,0.013523,0.002678,0.000431,0.020802
68409000,0.0324,0.013523,0.002678,0.000431,0.013516
68410000,0.0324,0.013523,0.002678,0.000431,0.011753
68411000,0.0324,0.013523,0.002678,0.000431,0.010930
68412000,0.0324,0.013523,0.002678,0.000431,0.013163
68413000,0.0324,0.013523,0.002678,0.000431,0.010813
68414000,0.0324,0.013523,0.002678,0.000431,0.003056
68415000,0.0324,0.013523,0.002678,0.000431,0.003291
68416000,0.0324,0.013523,0.002678,0.000431,0.002468
68417000,0.0324,0.013523,0.002678,0.000431,0.002468
68418000,0.0324,0.013523,0.002678,0.000431,0.002233
68419000,0.0324,0.013523,0.002678,0.000431,0.004113
68420000,0.0324,0.013523,0.002678,0.000431,0.001880
68421000,0.0324,0.013523,0.002678,0.000431,0.001293
68422000,0.0324,0.013523,0.002678,0.000431,0.001763
68423000,0.0324,0.013523,0.002678,0.000431,0.001645
68424000,0.0324,0.013523,0.002678,0.000431,0.001410
68425000,0.0324,0.013523,0.002678,0.000431,0.001645
68426000,0.0324,0.013523,0.002678,0.000431,0.001528
68427000,0.0324,0.013523,0.002678,0.000431,0.001528
68428000,0.0324,0.013523,0.002678,0.000431,0.001528
68429000,0.0324,0.013523,0.002678,0.000431,0.001763
68430000,0.0324,0.013523,0.002678,0.000431,0.001410
68431000,0.0324,0.013523,0.002678,0.000431,0.001645
68432000,0.0324,0.013523,0.002678,0.000431,0.001410
68433000,0.0324,0.013523,0.002678,0.000431,0.016101
68434000,0.0324,0.013523,0.002678,0.000431,0.821287
68435000,0.0324,0.013523,0.002678,0.000431,0.565898
68436000,0.0324,0.013523,0.002678,0.000431,0.137861
68437000,0.0324,0.013523,0.002678,0.000431,0.157840
68438000,0.0324,0.013523,0.002678,0.000431,0.555086
68439000,0.0324,0.013523,0.002678,0.000431,0.260090
68440000,0.0324,0.013523,0.002678,0.000431,0.259737
68441000,0.0324,0.013523,0.002678,0.000431,0.155137
68442000,0.0324,0.013523,0.002678,0.000431,0.113767
68443000,0.0324,0.013523,0.002678,0.000431,0.402769
68444000,0.0324,0.013523,0.002678,0.000431,0.422866
68445000,0.0324,0.013523,0.002678,0.000431,0.230590
68446000,0.0324,0.013523,0.002678,0.000431,0.188163
68447000,0.0324,0.013523,0.002678,0.000431,0.149496
68448000,0.0324,0.013523,0.002678,0.000431,0.130574
68449000,0.0324,0.013523,0.002678,0.000431,0.117058
68450000,0.0324,0.013523,0.002678,0.000431,0.087441
68451000,0.0324,0.013523,0.002678,0.000431,0.067109
68452000,0.0324,0.013523,0.002678,0.000431,0.061585
68453000,0.0324,0.013523,0.002678,0.000431,0.043485
68454000,0.0324,0.013523,0.002678,0.000431,0.040077
68455000,0.0324,0.013523,0.002678,0.000431,0.023976
68456000,0.0324,0.013523,0.002678,0.000431,0.024563
68457000,0.0324,0.013523,0.002678,0.000431,0.016924
68458000,0.0324,0.013523,0.002678,0.000431,0.016924
68459000,0.0324,0.013523,0.002678,0.000431,0.013633
68460000,0.0324,0.013523,0.002678,0.000431,0.011753
68461000,0.0324,0.013523,0.002678,0.000431,0.006111
68462000,0.0324,0.013523,0.002678,0.000431,0.006464
68463000,0.0324,0.013523,0.002678,0.000431,0.007992
68464000,0.0324,0.013523,0.002678,0.000431,0.007169
68465000,0.0324,0.013523,0.002678,0.000431,0.003878
68466000,0.0324,0.013523,0.002678,0.000431,0.002586
68467000,0.0324,0.013523,0.002678,0.000431,0.002821
68468000,0.0324,0.013523,0.002678,0.000431,0.007522
68469000,0.0324,0.013523,0.002678,0.000431,0.000940
68470000,0.0324,0.013523,0.002678,0.000431,0.000940
68471000,0.0324,0.013523,0.002678,0.000431,0.000705
68472000,0.0324,0.013523,0.002678,0.000431,0.000940
68473000,0.0324,0.013523,0.002678,0.000431,0.000705
68474000,0.0324,0.013523,0.002678,0.000431,0.000940
68475000,0.0324,0.013523,0.002678,0.000431,0.000705
68476000,0.0324,0.013523,0.002678,0.000431,0.000705
68477000,0.0324,0.013523,0.002678,0.000431,0.000940
68478000,0.0324,0.013523,0.002678,0.000431,0.000940
68479000,0.0324,0.013523,0.002678,0.000431,0.000705
68480000,0.0324,0.013523,0.002678,0.000431,0.271490
68481000,0.0324,0.013523,0.002678,0.000431,0.794373
68482000,0.0324,0.013523,0.002678,0.000431,0.393484
68483000,0.0324,0.013523,0.002678,0.000431,0.136333
68484000,0.0324,0.013523,0.002678,0.000431,0.509250
68485000,0.0324,0.013523,0.002678,0.000431,0.270197
68486000,0.0324,0.013523,0.002678,0.000431,0.269257
68487000,0.0324,0.013523,0.002678,0.000431,0.223068
68488000,0.0324,0.013523,0.002678,0.000431,0.167948
68489000,0.0324,0.013523,0.002678,0.000431,0.110476
68490000,0.0324,0.013523,0.002678,0.000431,0.500670
68491000,0.0324,0.013523,0.002678,0.000431,0.292293
68492000,0.0324,0.013523,0.002678,0.000431,0.179818
68493000,0.0324,0.013523,0.002678,0.000431,0.136920
68494000,0.0324,0.013523,0.002678,0.000431,0.111299
68495000,0.0324,0.013523,0.002678,0.000431,0.096491
68496000,0.0324,0.013523,0.002678,0.000431,0.084973
68497000,0.0324,0.013523,0.002678,0.000431,0.062290
68498000,0.0324,0.013523,0.002678,0.000431,0.039607
68499000,0.0324,0.013523,0.002678,0.000431,0.037727
68500000,0.0324,0.013523,0.002678,0.000431,0.032085
68501000,0.0324,0.013523,0.002678,0.000431,0.023153
68502000,0.0324,0.013523,0.002678,0.000431,0.022918
68503000,0.0324,0.013523,0.002678,0.000431,0.007639
68504000,0.0324,0.013523,0.002678,0.000431,0.007639
68505000,0.0324,0.013523,0.002678,0.000431,0.006229
68506000,0.0324,0.013523,0.002678,0.000431,0.000823
68507000,0.0324,0.013523,0.002678,0.000431,0.000823
68508000,0.0324,0.013523,0.002678,0.000431,0.000940
68509000,0.0324,0.013523,0.002678,0.000431,0.000705
68510000,0.0324,0.013523,0.002678,0.000431,0.000940
68511000,0.0324,0.013523,0.002678,0.000431,0.000705
68512000,0.0324,0.013523,0.002678,0.000431,0.015984
68513000,0.0324,0.013523,0.002678,0.000431,0.723503
68514000,0.0324,0.013523,0.002678,0.000431,0.597866
68515000,0.0324,0.013523,0.002678,0.000431,0.147733
68516000,0.0324,0.013523,0.002678,0.000431,0.142797
68517000,0.0324,0.013523,0.002678,0.000431,0.561432
68518000,0.0324,0.013523,0.002678,0.000431,0.270080
68519000,0.0324,0.013523,0.002678,0.000431,0.334838
68520000,0.0324,0.013523,0.002678,0.000431,0.146323
68521000,0.0324,0.013523,0.002678,0.000431,0.147850
68522000,0.0324,0.013523,0.002678,0.000431,0.235409
68523000,0.0324,0.013523,0.002678,0.000431,0.577298
68524000,0.0324,0.013523,0.002678,0.000431,0.229180
68525000,0.0324,0.013523,0.002678,0.000431,0.218602
68526000,0.0324,0.013523,0.002678,0.000431,0.170416
68527000,0.0324,0.013523,0.002678,0.000431,0.145265
68528000,0.0324,0.013523,0.002678,0.000431,0.106363
68529000,0.0324,0.013523,0.002678,0.000431,0.098371
68530000,0.0324,0.013523,0.002678,0.000431,0.081212
68531000,0.0324,0.013523,0.002678,0.000431,0.051007
68532000,0.0324,0.013523,0.002678,0.000431,0.048774
68533000,0.0324,0.013523,0.002678,0.000431,0.043250
68534000,0.0324,0.013523,0.002678,0.000431,0.032555
68535000,0.0324,0.013523,0.002678,0.000431,0.025504
68536000,0.0324,0.013523,0.002678,0.000431,0.015984
68537000,0.0324,0.013523,0.002678,0.000431,0.009872
68538000,0.0324,0.013523,0.002678,0.000431,0.010813
68539000,0.0324,0.013523,0.002678,0.000431,0.007874
68540000,0.0324,0.013523,0.002678,0.000431,0.007639
68541000,0.0324,0.013523,0.002678,0.000431,0.009872
68542000,0.0324,0.013523,0.002678,0.000431,0.013163
68543000,0.0324,0.013523,0.002678,0.000431,0.002468
68544000,0.0324,0.013523,0.002678,0.000431,0.002586
68545000,0.0324,0.013523,0.002678,0.000431,0.002703
68546000,0.0324,0.013523,0.002678,0.000431,0.002468
68547000,0.0324,0.013523,0.002678,0.000431,0.002703
68548000,0.0324,0.013523,0.002678,0.000431,0.002351
68549000,0.0324,0.013523,0.002678,0.000431,0.002703
68550000,0.0324,0.013523,0.002678,0.000431,0.005641
68551000,0.0324,0.013523,0.002678,0.000431,0.000940
68552000,0.0324,0.013523,0.002678,0.000431,0.000940
68553000,0.0324,0.013523,0.002678,0.000431,0.000705
68554000,0.0324,0.013523,0.002678,0.000431,0.000940
68555000,0.0324,0.013523,0.002678,0.000431,0.000705
68556000,0.0324,0.013523,0.002678,0.000431,0.000940
68557000,0.0324,0.013523,0.002678,0.000431,0.000823
68558000,0.0324,0.013523,0.002678,0.000431,0.000823
68559000,0.0324,0.013523,0.002678,0.000431,0.000940
68560000,0.0324,0.013523,0.002678,0.000431,0.000705
68561000,0.0324,0.013523,0.002678,0.000431,0.000940
68562000,0.0324,0.013523,0.002678,0.000431,0.000823
68563000,0.0324,0.013523,0.002678,0.000431,0.000823
68564000,0.0324,0.013523,0.002678,0.000431,0.000823
68565000,0.0324,0.013523,0.002678,0.000431,0.000823
68566000,0.0324,0.013523,0.002678,0.000431,0.000823
68567000,0.0324,0.013523,0.002678,0.000431,0.000823
68568000,0.0324,0.013523,0.002678,0.000431,0.000940
68569000,0.0324,0.013523,0.002678,0.000431,0.000705
68570000,0.0324,0.013523,0.002678,0.000431,0.000823
68571000,0.0324,0.013523,0.002678,0.000431,0.000940
68572000,0.0324,0.013523,0.002678,0.000431,0.000823
68573000,0.0324,0.013523,0.002678,0.000431,0.000823
68574000,0.0324,0.013523,0.002678,0.000431,0.000823
68575000,0.0324,0.013523,0.002678,0.000431,0.000823
68576000,0.0324,0.013523,0.002678,0.000431,0.000823
68577000,0.0324,0.013523,0.002678,0.000431,0.000940
68578000,0.0324,0.013523,0.002678,0.000431,0.000705
68579000,0.0324,0.013523,0.002678,0.000431,0.000940
68580000,0.0324,0.013523,0.002678,0.000431,0.050185
68581000,0.0324,0.013523,0.002678,0.000431,0.863950
68582000,0.0324,0.013523,0.002678,0.000431,0.530522
68583000,0.0324,0.013523,0.002678,0.000431,0.162071
68584000,0.0324,0.013523,0.002678,0.000431,0.288062
68585000,0.0324,0.013523,0.002678,0.000431,0.494324
68586000,0.0324,0.013523,0.002678,0.000431,0.306043
68587000,0.0324,0.013523,0.002678,0.000431,0.244341
68588000,0.0324,0.013523,0.002678,0.000431,0.182404
68589000,0.0324,0.013523,0.002678,0.000431,0.112827
68590000,0.0324,0.013523,0.002678,0.000431,0.581882
68591000,0.0324,0.013523,0.002678,0.000431,0.257269
68592000,0.0324,0.013523,0.002678,0.000431,0.215312
68593000,0.0324,0.013523,0.002678,0.000431,0.181699
68594000,0.0324,0.013523,0.002678,0.000431,0.152434
68595000,0.0324,0.013523,0.002678,0.000431,0.144442
68596000,0.0324,0.013523,0.002678,0.000431,0.119409
68597000,0.0324,0.013523,0.002678,0.000431,0.096726
68598000,0.0324,0.013523,0.002678,0.000431,0.073103
68599000,0.0324,0.013523,0.002678,0.000431,0.063935
68600000,0.0324,0.013523,0.002678,0.000431,0.048539
68601000,0.0324,0.013523,0.002678,0.000431,0.034201
68602000,0.0324,0.013523,0.002678,0.000431,0.039607
68603000,0.0324,0.013523,0.002678,0.000431,0.034788
68604000,0.0324,0.013523,0.002678,0.000431,0.024328
68605000,0.0324,0.013523,0.002678,0.000431,0.023741
68606000,0.0324,0.013523,0.002678,0.000431,0.015514
68607000,0.0324,0.013523,0.002678,0.000431,0.014573
68608000,0.0324,0.013523,0.002678,0.000431,0.013398
68609000,0.0324,0.013523,0.002678,0.000431,0.012693
68610000,0.0324,0.013523,0.002678,0.000431,0.005876
68611000,0.0324,0.013523,0.002678,0.000431,0.008697
68612000,0.0324,0.013523,0.002678,0.000431,0.004819
68613000,0.0324,0.013523,0.002678,0.000431,0.003761
68614000,0.0324,0.013523,0.002678,0.000431,0.004819
68615000,0.0324,0.013523,0.002678,0.000431,0.003878
68616000,0.0324,0.013523,0.002678,0.000431,0.002821
68617000,0.0324,0.013523,0.002678,0.000431,0.002586
68618000,0.0324,0.013523,0.002678,0.000431,0.004701
68619000,0.0324,0.013523,0.002678,0.000431,0.001293
68620000,0.0324,0.013523,0.002678,0.000431,0.001763
68621000,0.0324,0.013523,0.002678,0.000431,0.001645
68622000,0.0324,0.013523,0.002678,0.000431,0.001410
68623000,0.0324,0.013523,0.002678,0.000431,0.001175
68624000,0.0324,0.013523,0.002678,0.000431,0.001293
68625000,0.0324,0.013523,0.002678,0.000431,0.000823
68626000,0.0324,0.013523,0.002678,0.000431,0.000823
68627000,0.0324,0.013523,0.002678,0.000431,0.000940
68628000,0.0324,0.013523,0.002678,0.000431,0.000705
68629000,0.0324,0.013523,0.002678,0.000431,0.000940
68630000,0.0324,0.013523,0.002678,0.000431,0.000823
68631000,0.0324,0.013523,0.002678,0.000431,0.000823
68632000,0.0324,0.013523,0.002678,0.000431,0.268552
68633000,0.0324,0.013523,0.002678,0.000431,0.758527
68634000,0.0324,0.013523,0.002678,0.000431,0.433209
68635000,0.0324,0.013523,0.002678,0.000431,0.137273
68636000,0.0324,0.013523,0.002678,0.000431,0.466234
68637000,0.0324,0.013523,0.002678,0.000431,0.282538
68638000,0.0324,0.013523,0.002678,0.000431,0.301577
68639000,0.0324,0.013523,0.002678,0.000431,0.239522
68640000,0.0324,0.013523,0.002678,0.000431,0.169593
68641000,0.0324,0.013523,0.002678,0.000431,0.099429
68642000,0.0324,0.013523,0.002678,0.000431,0.531815
68643000,0.0324,0.013523,0.002678,0.000431,0.339892
68644000,0.0324,0.013523,0.002678,0.000431,0.223539
68645000,0.0324,0.013523,0.002678,0.000431,0.191218
68646000,0.0324,0.013523,0.002678,0.000431,0.170298
68647000,0.0324,0.013523,0.002678,0.000431,0.137390
68648000,0.0324,0.013523,0.002678,0.000431,0.097901
68649000,0.0324,0.013523,0.002678,0.000431,0.083798
68650000,0.0324,0.013523,0.002678,0.000431,0.067344
68651000,0.0324,0.013523,0.002678,0.000431,0.055356
68652000,0.0324,0.013523,0.002678,0.000431,0.036316
68653000,0.0324,0.013523,0.002678,0.000431,0.035729
68654000,0.0324,0.013523,0.002678,0.000431,0.024798
68655000,0.0324,0.013523,0.002678,0.000431,0.014926
68656000,0.0324,0.013523,0.002678,0.000431,0.011283
68657000,0.0324,0.013523,0.002678,0.000431,0.013751
68658000,0.0324,0.013523,0.002678,0.000431,0.008697
68659000,0.0324,0.013523,0.002678,0.000431,0.014221
68660000,0.0324,0.013523,0.002678,0.000431,0.008109
68661000,0.0324,0.013523,0.002678,0.000431,0.007404
68662000,0.0324,0.013523,0.002678,0.000431,0.011048
68663000,0.0324,0.013523,0.002678,0.000431,0.006817
68664000,0.0324,0.013523,0.002678,0.000431,0.006582
68665000,0.0324,0.013523,0.002678,0.000431,0.006464
68666000,0.0324,0.013523,0.002678,0.000431,0.006699
68667000,0.0324,0.013523,0.002678,0.000431,0.006229
68668000,0.0324,0.013523,0.002678,0.000431,0.006464
68669000,0.0324,0.013523,0.002678,0.000431,0.007992
68670000,0.0324,0.013523,0.002678,0.000431,0.005759
68671000,0.0324,0.013523,0.002678,0.000431,0.004466
68672000,0.0324,0.013523,0.002678,0.000431,0.005524
68673000,0.0324,0.013523,0.002678,0.000431,0.002233
68674000,0.0324,0.013523,0.002678,0.000431,0.001880
68675000,0.0324,0.013523,0.002678,0.000431,0.001763
68676000,0.0324,0.013523,0.002678,0.000431,0.003408
68677000,0.0324,0.013523,0.002678,0.000431,0.003173
68678000,0.0324,0.013523,0.002678,0.000431,0.308511
68679000,0.0324,0.013523,0.002678,0.000431,0.831512
68680000,0.0324,0.013523,0.002678,0.000431,0.371977
68681000,0.0324,0.013523,0.002678,0.000431,0.139036
68682000,0.0324,0.013523,0.002678,0.000431,0.526526
68683000,0.0324,0.013523,0.002678,0.000431,0.275956
68684000,0.0324,0.013523,0.002678,0.000431,0.314388
68685000,0.0324,0.013523,0.002678,0.000431,0.172766
68686000,0.0324,0.013523,0.002678,0.000431,0.178643
68687000,0.0324,0.013523,0.002678,0.000431,0.145500
68688000,0.0324,0.013523,0.002678,0.000431,0.563665
68689000,0.0324,0.013523,0.002678,0.000431,0.203324
68690000,0.0324,0.013523,0.002678,0.000431,0.154785
68691000,0.0324,0.013523,0.002678,0.000431,0.142327
68692000,0.0324,0.013523,0.002678,0.000431,0.129281
68693000,0.0324,0.013523,0.002678,0.000431,0.093670
68694000,0.0324,0.013523,0.002678,0.000431,0.069342
68695000,0.0324,0.013523,0.002678,0.000431,0.060174
68696000,0.0324,0.013523,0.002678,0.000431,0.049597
68697000,0.0324,0.013523,0.002678,0.000431,0.040547
68698000,0.0324,0.013523,0.002678,0.000431,0.036316
68699000,0.0324,0.013523,0.002678,0.000431,0.029265
68700000,0.0324,0.013523,0.002678,0.000431,0.020567
68701000,0.0324,0.013523,0.002678,0.000431,0.015044
68702000,0.0324,0.013523,0.002678,0.000431,0.016336
68703000,0.0324,0.013523,0.002678,0.000431,0.012223
68704000,0.0324,0.013523,0.002678,0.000431,0.012105
68705000,0.0324,0.013523,0.002678,0.000431,0.012458
68706000,0.0324,0.013523,0.002678,0.000431,0.010342
68707000,0.0324,0.013523,0.002678,0.000431,0.010930
68708000,0.0324,0.013523,0.002678,0.000431,0.006347
68709000,0.0324,0.013523,0.002678,0.000431,0.006229
68710000,0.0324,0.013523,0.002678,0.000431,0.004701
68711000,0.0324,0.013523,0.002678,0.000431,0.003996
68712000,0.0324,0.013523,0.002678,0.000431,0.004466
68713000,0.0324,0.013523,0.002678,0.000431,0.005171
68714000,0.0324,0.013523,0.002678,0.000431,0.010225
68715000,0.0324,0.013523,0.002678,0.000431,0.001763
68716000,0.0324,0.013523,0.002678,0.000431,0.001880
68717000,0.0324,0.013523,0.002678,0.000431,0.001880
68718000,0.0324,0.013523,0.002678,0.000431,0.005524
68719000,0.0324,0.013523,0.002678,0.000431,0.290647
68720000,0.0324,0.013523,0.002678,0.000431,0.794255
68721000,0.0324,0.013523,0.002678,0.000431,0.342712
68722000,0.0324,0.013523,0.002678,0.000431,0.148203
68723000,0.0324,0.013523,0.002678,0.000431,0.478575
68724000,0.0324,0.013523,0.002678,0.000431,0.246339
68725000,0.0324,0.013523,0.002678,0.000431,0.297464
68726000,0.0324,0.013523,0.002678,0.000431,0.236702
68727000,0.0324,0.013523,0.002678,0.000431,0.166890
68728000,0.0324,0.013523,0.002678,0.000431,0.110476
68729000,0.0324,0.013523,0.002678,0.000431,0.526526
68730000,0.0324,0.013523,0.002678,0.000431,0.293115
68731000,0.0324,0.013523,0.002678,0.000431,0.179583
68732000,0.0324,0.013523,0.002678,0.000431,0.161131
68733000,0.0324,0.013523,0.002678,0.000431,0.131161
68734000,0.0324,0.013523,0.002678,0.000431,0.104718
68735000,0.0324,0.013523,0.002678,0.000431,0.081917
68736000,0.0324,0.013523,0.002678,0.000431,0.074160
68737000,0.0324,0.013523,0.002678,0.000431,0.061232
68738000,0.0324,0.013523,0.002678,0.000431,0.045836
68739000,0.0324,0.013523,0.002678,0.000431,0.042780
68740000,0.0324,0.013523,0.002678,0.000431,0.031262
68741000,0.0324,0.013523,0.002678,0.000431,0.031850
68742000,0.0324,0.013523,0.002678,0.000431,0.025974
68743000,0.0324,0.013523,0.002678,0.000431,0.021273
68744000,0.0324,0.013523,0.002678,0.000431,0.017512
68745000,0.0324,0.013523,0.002678,0.000431,0.015866
68746000,0.0324,0.013523,0.002678,0.000431,0.014809
68747000,0.0324,0.013523,0.002678,0.000431,0.012928
68748000,0.0324,0.013523,0.002678,0.000431,0.010460
68749000,0.0324,0.013523,0.002678,0.000431,0.012576
68750000,0.0324,0.013523,0.002678,0.000431,0.012693
68751000,0.0324,0.013523,0.002678,0.000431,0.008580
68752000,0.0324,0.013523,0.002678,0.000431,0.008227
68753000,0.0324,0.013523,0.002678,0.000431,0.007992
68754000,0.0324,0.013523,0.002678,0.000431,0.008462
68755000,0.0324,0.013523,0.002678,0.000431,0.008462
68756000,0.0324,0.013523,0.002678,0.000431,0.008697
68757000,0.0324,0.013523,0.002678,0.000431,0.007992
68758000,0.0324,0.013523,0.002678,0.000431,0.005641
68759000,0.0324,0.013523,0.002678,0.000431,0.005171
68760000,0.0324,0.013523,0.002678,0.000431,0.004584
68761000,0.0324,0.013523,0.002678,0.000431,0.004936
68762000,0.0324,0.013523,0.002678,0.000431,0.002586
68763000,0.0324,0.013523,0.002678,0.000431,0.002586
68764000,0.0324,0.013523,0.002678,0.000431,0.002586
68765000,0.0324,0.013523,0.002678,0.000431,0.002468
68766000,0.0324,0.013523,0.002678,0.000431,0.002703
68767000,0.0324,0.013523,0.002678,0.000431,0.002703
68768000,0.0324,0.013523,0.002678,0.000431,0.002351
68769000,0.0324,0.013523,0.002678,0.000431,0.005759
68770000,0.0324,0.013523,0.002678,0.000431,0.001763
68771000,0.0324,0.013523,0.002678,0.000431,0.001645
68772000,0.0324,0.013523,0.002678,0.000431,0.001763
68773000,0.0324,0.013523,0.002678,0.000431,0.001645
68774000,0.0324,0.013523,0.002678,0.000431,0.001880
68775000,0.0324,0.013523,0.002678,0.000431,0.004349
68776000,0.0324,0.013523,0.002678,0.000431,0.000940
68777000,0.0324,0.013523,0.002678,0.000431,0.073103
68778000,0.0324,0.013523,0.002678,0.000431,0.812120
68779000,0.0324,0.013523,0.002678,0.000431,0.513716
68780000,0.0324,0.013523,0.002678,0.000431,0.145265
68781000,0.0324,0.013523,0.002678,0.000431,0.454952
68782000,0.0324,0.013523,0.002678,0.000431,0.301812
68783000,0.0324,0.013523,0.002678,0.000431,0.334720
68784000,0.0324,0.013523,0.002678,0.000431,0.210258
68785000,0.0324,0.013523,0.002678,0.000431,0.169006
68786000,0.0324,0.013523,0.002678,0.000431,0.160896
68787000,0.0324,0.013523,0.002678,0.000431,0.516066
68788000,0.0324,0.013523,0.002678,0.000431,0.193804
68789000,0.0324,0.013523,0.002678,0.000431,0.159603
68790000,0.0324,0.013523,0.002678,0.000431,0.141151
68791000,0.0324,0.013523,0.002678,0.000431,0.108714
68792000,0.0324,0.013523,0.002678,0.000431,0.088499
68793000,0.0324,0.013523,0.002678,0.000431,0.081212
68794000,0.0324,0.013523,0.002678,0.000431,0.059704
68795000,0.0324,0.013523,0.002678,0.000431,0.060292
68796000,0.0324,0.013523,0.002678,0.000431,0.050655
68797000,0.0324,0.013523,0.002678,0.000431,0.041840
68798000,0.0324,0.013523,0.002678,0.000431,0.035023
68799000,0.0324,0.013523,0.002678,0.000431,0.026326
68800000,0.0324,0.013523,0.002678,0.000431,0.023623
68801000,0.0324,0.013523,0.002678,0.000431,0.019980
68802000,0.0324,0.013523,0.002678,0.000431,0.018452
68803000,0.0324,0.013523,0.002678,0.000431,0.009050
68804000,0.0324,0.013523,0.002678,0.000431,0.009520
68805000,0.0324,0.013523,0.002678,0.000431,0.009285
68806000,0.0324,0.013523,0.002678,0.000431,0.010460
68807000,0.0324,0.013523,0.002678,0.000431,0.005994
68808000,0.0324,0.013523,0.002678,0.000431,0.006464
68809000,0.0324,0.013523,0.002678,0.000431,0.005994
68810000,0.0324,0.013523,0.002678,0.000431,0.006934
68811000,0.0324,0.013523,0.002678,0.000431,0.007992
68812000,0.0324,0.013523,0.002678,0.000431,0.005524
68813000,0.0324,0.013523,0.002678,0.000431,0.005876
68814000,0.0324,0.013523,0.002678,0.000431,0.005054
68815000,0.0324,0.013523,0.002678,0.000431,0.005994
68816000,0.0324,0.013523,0.002678,0.000431,0.005054
68817000,0.0324,0.013523,0.002678,0.000431,0.005524
68818000,0.0324,0.013523,0.002678,0.000431,0.005876
68819000,0.0324,0.013523,0.002678,0.000431,0.004701
68820000,0.0324,0.013523,0.002678,0.000431,0.008109
68821000,0.0324,0.013523,0.002678,0.000431,0.004819
68822000,0.0324,0.013523,0.002678,0.000431,0.004349
68823000,0.0324,0.013523,0.002678,0.000431,0.004936
68824000,0.0324,0.013523,0.002678,0.000431,0.004231
68825000,0.0324,0.013523,0.002678,0.000431,0.004701
68826000,0.0324,0.013523,0.002678,0.000431,0.005759
68827000,0.0324,0.013523,0.002678,0.000431,0.005406
68828000,0.0324,0.013523,0.002678,0.000431,0.003056
68829000,0.0324,0.013523,0.002678,0.000431,0.002586
68830000,0.0324,0.013523,0.002678,0.000431,0.002938
68831000,0.0324,0.013523,0.002678,0.000431,0.002703
68832000,0.0324,0.013523,0.002678,0.000431,0.002821
68833000,0.0324,0.013523,0.002678,0.000431,0.002703
68834000,0.0324,0.013523,0.002678,0.000431,0.002116
68835000,0.0324,0.013523,0.002678,0.000431,0.004349
68836000,0.0324,0.013523,0.002678,0.000431,0.078979
68837000,0.0324,0.013523,0.002678,0.000431,0.748890
68838000,0.0324,0.013523,0.002678,0.000431,0.533460
68839000,0.0324,0.013523,0.002678,0.000431,0.134922
68840000,0.0324,0.013523,0.002678,0.000431,0.236937
68841000,0.0324,0.013523,0.002678,0.000431,0.537926
68842000,0.0324,0.013523,0.002678,0.000431,0.239405
68843000,0.0324,0.013523,0.002678,0.000431,0.272900
68844000,0.0324,0.013523,0.002678,0.000431,0.156548
68845000,0.0324,0.013523,0.002678,0.000431,0.163717
68846000,0.0324,0.013523,0.002678,0.000431,0.184167
68847000,0.0324,0.013523,0.002678,0.000431,0.523823
68848000,0.0324,0.013523,0.002678,0.000431,0.192511
68849000,0.0324,0.013523,0.002678,0.000431,0.157488
68850000,0.0324,0.013523,0.002678,0.000431,0.135863
68851000,0.0324,0.013523,0.002678,0.000431,0.105070
68852000,0.0324,0.013523,0.002678,0.000431,0.094375
68853000,0.0324,0.013523,0.002678,0.000431,0.069342
68854000,0.0324,0.013523,0.002678,0.000431,0.055121
68855000,0.0324,0.013523,0.002678,0.000431,0.056296
68856000,0.0324,0.013523,0.002678,0.000431,0.036669
68857000,0.0324,0.013523,0.002678,0.000431,0.041487
68858000,0.0324,0.013523,0.002678,0.000431,0.031027
68859000,0.0324,0.013523,0.002678,0.000431,0.025034
68860000,0.0324,0.013523,0.002678,0.000431,0.011165
68861000,0.0324,0.013523,0.002678,0.000431,0.010107
68862000,0.0324,0.013523,0.002678,0.000431,0.008462
68863000,0.0324,0.013523,0.002678,0.000431,0.010930
68864000,0.0324,0.013523,0.002678,0.000431,0.002586
68865000,0.0324,0.013523,0.002678,0.000431,0.002468
68866000,0.0324,0.013523,0.002678,0.000431,0.007052
68867000,0.0324,0.013523,0.002678,0.000431,0.001880
68868000,0.0324,0.013523,0.002678,0.000431,0.001528
68869000,0.0324,0.013523,0.002678,0.000431,0.001763
68870000,0.0324,0.013523,0.002678,0.000431,0.001645
68871000,0.0324,0.013523,0.002678,0.000431,0.001763
68872000,0.0324,0.013523,0.002678,0.000431,0.001528
68873000,0.0324,0.013523,0.002678,0.000431,0.001645
68874000,0.0324,0.013523,0.002678,0.000431,0.001763
68875000,0.0324,0.013523,0.002678,0.000431,0.001528
68876000,0.0324,0.013523,0.002678,0.000431,0.001763
68877000,0.0324,0.013523,0.002678,0.000431,0.001645
68878000,0.0324,0.013523,0.002678,0.000431,0.003173
68879000,0.0324,0.013523,0.002678,0.000431,0.000940
68880000,0.0324,0.013523,0.002678,0.000431,0.000823
68881000,0.0324,0.013523,0.002678,0.000431,0.000823
68882000,0.0324,0.013523,0.002678,0.000431,0.000940
68883000,0.0324,0.013523,0.002678,0.000431,0.000940
68884000,0.0324,0.013523,0.002678,0.000431,0.000823
68885000,0.0324,0.013523,0.002678,0.000431,0.000823
68886000,0.0324,0.013523,0.002678,0.000431,0.000940
68887000,0.0324,0.013523,0.002678,0.000431,0.000705
68888000,0.0324,0.013523,0.002678,0.000431,0.000940
68889000,0.0324,0.013523,0.002678,0.000431,0.000940
68890000,0.0324,0.013523,0.002678,0.000431,0.000940
68891000,0.0324,0.013523,0.002678,0.000431,0.000823
68892000,0.0324,0.013523,0.002678,0.000431,0.000940
68893000,0.0324,0.013523,0.002678,0.000431,0.084855
68894000,0.0324,0.013523,0.002678,0.000431,0.789672
68895000,0.0324,0.013523,0.002678,0.000431,0.488800
68896000,0.0324,0.013523,0.002678,0.000431,0.137390
68897000,0.0324,0.013523,0.002678,0.000431,0.330254
68898000,0.0324,0.013523,0.002678,0.000431,0.405942
68899000,0.0324,0.013523,0.002678,0.000431,0.232823
68900000,0.0324,0.013523,0.002678,0.000431,0.240933
68901000,0.0324,0.013523,0.002678,0.000431,0.158310
68902000,0.0324,0.013523,0.002678,0.000431,0.153022
68903000,0.0324,0.013523,0.002678,0.000431,0.236467
68904000,0.0324,0.013523,0.002678,0.000431,0.529817
68905000,0.0324,0.013523,0.002678,0.000431,0.212726
68906000,0.0324,0.013523,0.002678,0.000431,0.187575
68907000,0.0324,0.013523,0.002678,0.000431,0.167713
68908000,0.0324,0.013523,0.002678,0.000431,0.133277
68909000,0.0324,0.013523,0.002678,0.000431,0.100369
68910000,0.0324,0.013523,0.002678,0.000431,0.092377
68911000,0.0324,0.013523,0.002678,0.000431,0.066874
68912000,0.0324,0.013523,0.002678,0.000431,0.056766
68913000,0.0324,0.013523,0.002678,0.000431,0.040195
68914000,0.0324,0.013523,0.002678,0.000431,0.033848
68915000,0.0324,0.013523,0.002678,0.000431,0.020920
68916000,0.0324,0.013523,0.002678,0.000431,0.014691
68917000,0.0324,0.013523,0.002678,0.000431,0.016336
68918000,0.0324,0.013523,0.002678,0.000431,0.011048
68919000,0.0324,0.013523,0.002678,0.000431,0.008815
68920000,0.0324,0.013523,0.002678,0.000431,0.021038
68921000,0.0324,0.013523,0.002678,0.000431,0.009167
68922000,0.0324,0.013523,0.002678,0.000431,0.002703
68923000,0.0324,0.013523,0.002678,0.000431,0.004466
68924000,0.0324,0.013523,0.002678,0.000431,0.001645
68925000,0.0324,0.013523,0.002678,0.000431,0.003056
68926000,0.0324,0.013523,0.002678,0.000431,0.000940
68927000,0.0324,0.013523,0.002678,0.000431,0.000940
68928000,0.0324,0.013523,0.002678,0.000431,0.016689
68929000,0.0324,0.013523,0.002678,0.000431,0.826811
68930000,0.0324,0.013523,0.002678,0.000431,0.560139
68931000,0.0324,0.013523,0.002678,0.000431,0.143384
68932000,0.0324,0.013523,0.002678,0.000431,0.155137
68933000,0.0324,0.013523,0.002678,0.000431,0.547799
68934000,0.0324,0.013523,0.002678,0.000431,0.272078
68935000,0.0324,0.013523,0.002678,0.000431,0.284066
68936000,0.0324,0.013523,0.002678,0.000431,0.151259
68937000,0.0324,0.013523,0.002678,0.000431,0.173237
68938000,0.0324,0.013523,0.002678,0.000431,0.179701
68939000,0.0324,0.013523,0.002678,0.000431,0.511835
68940000,0.0324,0.013523,0.002678,0.000431,0.182874
68941000,0.0324,0.013523,0.002678,0.000431,0.165362
68942000,0.0324,0.013523,0.002678,0.000431,0.144090
68943000,0.0324,0.013523,0.002678,0.000431,0.112945
68944000,0.0324,0.013523,0.002678,0.000431,0.094375
68945000,0.0324,0.013523,0.002678,0.000431,0.071457
68946000,0.0324,0.013523,0.002678,0.000431,0.066991
68947000,0.0324,0.013523,0.002678,0.000431,0.054886
68948000,0.0324,0.013523,0.002678,0.000431,0.050655
68949000,0.0324,0.013523,0.002678,0.000431,0.047364
68950000,0.0324,0.013523,0.002678,0.000431,0.021743
68951000,0.0324,0.013523,0.002678,0.000431,0.008932
68952000,0.0324,0.013523,0.002678,0.000431,0.011635
68953000,0.0324,0.013523,0.002678,0.000431,0.006347
68954000,0.0324,0.013523,0.002678,0.000431,0.007404
68955000,0.0324,0.013523,0.002678,0.000431,0.005994
68956000,0.0324,0.013523,0.002678,0.000431,0.004349
68957000,0.0324,0.013523,0.002678,0.000431,0.005759
68958000,0.0324,0.013523,0.002678,0.000431,0.002468
68959000,0.0324,0.013523,0.002678,0.000431,0.002703
68960000,0.0324,0.013523,0.002678,0.000431,0.002468
68961000,0.0324,0.013523,0.002678,0.000431,0.002351
68962000,0.0324,0.013523,0.002678,0.000431,0.002703
68963000,0.0324,0.013523,0.002678,0.000431,0.002586
68964000,0.0324,0.013523,0.002678,0.000431,0.002351
68965000,0.0324,0.013523,0.002678,0.000431,0.002586
68966000,0.0324,0.013523,0.002678,0.000431,0.002468
68967000,0.0324,0.013523,0.002678,0.000431,0.002351
68968000,0.0324,0.013523,0.002678,0.000431,0.003878
68969000,0.0324,0.013523,0.002678,0.000431,0.001763
68970000,0.0324,0.013523,0.002678,0.000431,0.001645
68971000,0.0324,0.013523,0.002678,0.000431,0.002821
68972000,0.0324,0.013523,0.002678,0.000431,0.277719
68973000,0.0324,0.013523,0.002678,0.000431,0.791200
68974000,0.0324,0.013523,0.002678,0.000431,0.338599
68975000,0.0324,0.013523,0.002678,0.000431,0.136333
68976000,0.0324,0.013523,0.002678,0.000431,0.572245
68977000,0.0324,0.013523,0.002678,0.000431,0.273606
68978000,0.0324,0.013523,0.002678,0.000431,0.298639
68979000,0.0324,0.013523,0.002678,0.000431,0.166655
68980000,0.0324,0.013523,0.002678,0.000431,0.178995
68981000,0.0324,0.013523,0.002678,0.000431,0.143384
68982000,0.0324,0.013523,0.002678,0.000431,0.543568
68983000,0.0324,0.013523,0.002678,0.000431,0.221658
68984000,0.0324,0.013523,0.002678,0.000431,0.171121
68985000,0.0324,0.013523,0.002678,0.000431,0.170416
68986000,0.0324,0.013523,0.002678,0.000431,0.132102
68987000,0.0324,0.013523,0.002678,0.000431,0.116823
68988000,0.0324,0.013523,0.002678,0.000431,0.093435
68989000,0.0324,0.013523,0.002678,0.000431,0.073808
68990000,0.0324,0.013523,0.002678,0.000431,0.073925
68991000,0.0324,0.013523,0.002678,0.000431,0.060174
68992000,0.0324,0.013523,0.002678,0.000431,0.066051
68993000,0.0324,0.013523,0.002678,0.000431,0.043368
68994000,0.0324,0.013523,0.002678,0.000431,0.040900
68995000,0.0324,0.013523,0.002678,0.000431,0.041135
68996000,0.0324,0.013523,0.002678,0.000431,0.023388
68997000,0.0324,0.013523,0.002678,0.000431,0.021978
68998000,0.0324,0.013523,0.002678,0.000431,0.017629
68999000,0.0324,0.013523,0.002678,0.000431,0.018217
