Cycle,Area(mm^2),PeakDynamic(W),SubthresholdLeakage(W),GateLeakage(W),RunTimeDynamic(W)
65000000,0.0324,0.013523,0.002678,0.000431,0.169123
65001000,0.0324,0.013523,0.002678,0.000431,0.555791
65002000,0.0324,0.013523,0.002678,0.000431,0.220248
65003000,0.0324,0.013523,0.002678,0.000431,0.169358
65004000,0.0324,0.013523,0.002678,0.000431,0.159251
65005000,0.0324,0.013523,0.002678,0.000431,0.131984
65006000,0.0324,0.013523,0.002678,0.000431,0.104012
65007000,0.0324,0.013523,0.002678,0.000431,0.097783
65008000,0.0324,0.013523,0.002678,0.000431,0.079449
65009000,0.0324,0.013523,0.002678,0.000431,0.055943
65010000,0.0324,0.013523,0.002678,0.000431,0.049362
65011000,0.0324,0.013523,0.002678,0.000431,0.032438
65012000,0.0324,0.013523,0.002678,0.000431,0.034201
65013000,0.0324,0.013523,0.002678,0.000431,0.024328
65014000,0.0324,0.013523,0.002678,0.000431,0.017629
65015000,0.0324,0.013523,0.002678,0.000431,0.022330
65016000,0.0324,0.013523,0.002678,0.000431,0.012693
65017000,0.0324,0.013523,0.002678,0.000431,0.009050
65018000,0.0324,0.013523,0.002678,0.000431,0.008580
65019000,0.0324,0.013523,0.002678,0.000431,0.008462
65020000,0.0324,0.013523,0.002678,0.000431,0.007052
65021000,0.0324,0.013523,0.002678,0.000431,0.005171
65022000,0.0324,0.013523,0.002678,0.000431,0.004701
65023000,0.0324,0.013523,0.002678,0.000431,0.008345
65024000,0.0324,0.013523,0.002678,0.000431,0.006699
65025000,0.0324,0.013523,0.002678,0.000431,0.002233
65026000,0.0324,0.013523,0.002678,0.000431,0.003291
65027000,0.0324,0.013523,0.002678,0.000431,0.001175
65028000,0.0324,0.013523,0.002678,0.000431,0.000705
65029000,0.0324,0.013523,0.002678,0.000431,0.270315
65030000,0.0324,0.013523,0.002678,0.000431,0.788026
65031000,0.0324,0.013523,0.002678,0.000431,0.374092
65032000,0.0324,0.013523,0.002678,0.000431,0.137273
65033000,0.0324,0.013523,0.002678,0.000431,0.509837
65034000,0.0324,0.013523,0.002678,0.000431,0.264556
65035000,0.0324,0.013523,0.002678,0.000431,0.270902
65036000,0.0324,0.013523,0.002678,0.000431,0.202031
65037000,0.0324,0.013523,0.002678,0.000431,0.167478
65038000,0.0324,0.013523,0.002678,0.000431,0.109419
65039000,0.0324,0.013523,0.002678,0.000431,0.514303
65040000,0.0324,0.013523,0.002678,0.000431,0.245516
65041000,0.0324,0.013523,0.002678,0.000431,0.152552
65042000,0.0324,0.013523,0.002678,0.000431,0.141386
65043000,0.0324,0.013523,0.002678,0.000431,0.129046
65044000,0.0324,0.013523,0.002678,0.000431,0.086971
65045000,0.0324,0.013523,0.002678,0.000431,0.076746
65046000,0.0324,0.013523,0.002678,0.000431,0.065111
65047000,0.0324,0.013523,0.002678,0.000431,0.059587
65048000,0.0324,0.013523,0.002678,0.000431,0.040782
65049000,0.0324,0.013523,0.002678,0.000431,0.038314
65050000,0.0324,0.013523,0.002678,0.000431,0.027737
65051000,0.0324,0.013523,0.002678,0.000431,0.028912
65052000,0.0324,0.013523,0.002678,0.000431,0.015984
65053000,0.0324,0.013523,0.002678,0.000431,0.014926
65054000,0.0324,0.013523,0.002678,0.000431,0.013516
65055000,0.0324,0.013523,0.002678,0.000431,0.009990
65056000,0.0324,0.013523,0.002678,0.000431,0.006582
65057000,0.0324,0.013523,0.002678,0.000431,0.003526
65058000,0.0324,0.013523,0.002678,0.000431,0.003526
65059000,0.0324,0.013523,0.002678,0.000431,0.003291
65060000,0.0324,0.013523,0.002678,0.000431,0.007757
65061000,0.0324,0.013523,0.002678,0.000431,0.001880
65062000,0.0324,0.013523,0.002678,0.000431,0.003291
65063000,0.0324,0.013523,0.002678,0.000431,0.004113
65064000,0.0324,0.013523,0.002678,0.000431,0.566486
65065000,0.0324,0.013523,0.002678,0.000431,0.726912
65066000,0.0324,0.013523,0.002678,0.000431,0.145500
65067000,0.0324,0.013523,0.002678,0.000431,0.137155
65068000,0.0324,0.013523,0.002678,0.000431,0.512540
65069000,0.0324,0.013523,0.002678,0.000431,0.257739
65070000,0.0324,0.013523,0.002678,0.000431,0.321910
65071000,0.0324,0.013523,0.002678,0.000431,0.150789
65072000,0.0324,0.013523,0.002678,0.000431,0.186870
65073000,0.0324,0.013523,0.002678,0.000431,0.103895
65074000,0.0324,0.013523,0.002678,0.000431,0.578121
65075000,0.0324,0.013523,0.002678,0.000431,0.230590
65076000,0.0324,0.013523,0.002678,0.000431,0.175940
65077000,0.0324,0.013523,0.002678,0.000431,0.158663
65078000,0.0324,0.013523,0.002678,0.000431,0.119056
65079000,0.0324,0.013523,0.002678,0.000431,0.103542
65080000,0.0324,0.013523,0.002678,0.000431,0.085208
65081000,0.0324,0.013523,0.002678,0.000431,0.055121
65082000,0.0324,0.013523,0.002678,0.000431,0.051242
65083000,0.0324,0.013523,0.002678,0.000431,0.040312
65084000,0.0324,0.013523,0.002678,0.000431,0.029617
65085000,0.0324,0.013523,0.002678,0.000431,0.023506
65086000,0.0324,0.013523,0.002678,0.000431,0.019392
65087000,0.0324,0.013523,0.002678,0.000431,0.009872
65088000,0.0324,0.013523,0.002678,0.000431,0.019275
65089000,0.0324,0.013523,0.002678,0.000431,0.006582
65090000,0.0324,0.013523,0.002678,0.000431,0.001880
65091000,0.0324,0.013523,0.002678,0.000431,0.570012
65092000,0.0324,0.013523,0.002678,0.000431,0.741015
65093000,0.0324,0.013523,0.002678,0.000431,0.158781
65094000,0.0324,0.013523,0.002678,0.000431,0.137978
65095000,0.0324,0.013523,0.002678,0.000431,0.566486
65096000,0.0324,0.013523,0.002678,0.000431,0.262793
65097000,0.0324,0.013523,0.002678,0.000431,0.291470
65098000,0.0324,0.013523,0.002678,0.000431,0.146675
65099000,0.0324,0.013523,0.002678,0.000431,0.156548
65100000,0.0324,0.013523,0.002678,0.000431,0.211433
65101000,0.0324,0.013523,0.002678,0.000431,0.534518
65102000,0.0324,0.013523,0.002678,0.000431,0.242461
65103000,0.0324,0.013523,0.002678,0.000431,0.200150
65104000,0.0324,0.013523,0.002678,0.000431,0.164539
65105000,0.0324,0.013523,0.002678,0.000431,0.142444
65106000,0.0324,0.013523,0.002678,0.000431,0.119526
65107000,0.0324,0.013523,0.002678,0.000431,0.100134
65108000,0.0324,0.013523,0.002678,0.000431,0.067579
65109000,0.0324,0.013523,0.002678,0.000431,0.070282
65110000,0.0324,0.013523,0.002678,0.000431,0.051947
65111000,0.0324,0.013523,0.002678,0.000431,0.037491
65112000,0.0324,0.013523,0.002678,0.000431,0.028442
65113000,0.0324,0.013523,0.002678,0.000431,0.029147
65114000,0.0324,0.013523,0.002678,0.000431,0.032438
65115000,0.0324,0.013523,0.002678,0.000431,0.023506
65116000,0.0324,0.013523,0.002678,0.000431,0.009990
65117000,0.0324,0.013523,0.002678,0.000431,0.007874
65118000,0.0324,0.013523,0.002678,0.000431,0.006817
65119000,0.0324,0.013523,0.002678,0.000431,0.011400
65120000,0.0324,0.013523,0.002678,0.000431,0.006111
65121000,0.0324,0.013523,0.002678,0.000431,0.008227
65122000,0.0324,0.013523,0.002678,0.000431,0.007052
65123000,0.0324,0.013523,0.002678,0.000431,0.003291
65124000,0.0324,0.013523,0.002678,0.000431,0.003291
65125000,0.0324,0.013523,0.002678,0.000431,0.003291
65126000,0.0324,0.013523,0.002678,0.000431,0.003526
65127000,0.0324,0.013523,0.002678,0.000431,0.006817
65128000,0.0324,0.013523,0.002678,0.000431,0.002468
65129000,0.0324,0.013523,0.002678,0.000431,0.002703
65130000,0.0324,0.013523,0.002678,0.000431,0.002351
65131000,0.0324,0.013523,0.002678,0.000431,0.002586
65132000,0.0324,0.013523,0.002678,0.000431,0.002351
65133000,0.0324,0.013523,0.002678,0.000431,0.002703
65134000,0.0324,0.013523,0.002678,0.000431,0.002233
65135000,0.0324,0.013523,0.002678,0.000431,0.005289
65136000,0.0324,0.013523,0.002678,0.000431,0.001880
65137000,0.0324,0.013523,0.002678,0.000431,0.001528
65138000,0.0324,0.013523,0.002678,0.000431,0.001763
65139000,0.0324,0.013523,0.002678,0.000431,0.001645
65140000,0.0324,0.013523,0.002678,0.000431,0.001645
65141000,0.0324,0.013523,0.002678,0.000431,0.001645
65142000,0.0324,0.013523,0.002678,0.000431,0.003996
65143000,0.0324,0.013523,0.002678,0.000431,0.000823
65144000,0.0324,0.013523,0.002678,0.000431,0.000823
65145000,0.0324,0.013523,0.002678,0.000431,0.000823
65146000,0.0324,0.013523,0.002678,0.000431,0.000823
65147000,0.0324,0.013523,0.002678,0.000431,0.000940
65148000,0.0324,0.013523,0.002678,0.000431,0.000823
65149000,0.0324,0.013523,0.002678,0.000431,0.000823
65150000,0.0324,0.013523,0.002678,0.000431,0.000705
65151000,0.0324,0.013523,0.002678,0.000431,0.000940
65152000,0.0324,0.013523,0.002678,0.000431,0.000940
65153000,0.0324,0.013523,0.002678,0.000431,0.000705
65154000,0.0324,0.013523,0.002678,0.000431,0.000940
65155000,0.0324,0.013523,0.002678,0.000431,0.000705
65156000,0.0324,0.013523,0.002678,0.000431,0.000940
65157000,0.0324,0.013523,0.002678,0.000431,0.000705
65158000,0.0324,0.013523,0.002678,0.000431,0.000940
65159000,0.0324,0.013523,0.002678,0.000431,0.000823
65160000,0.0324,0.013523,0.002678,0.000431,0.000823
65161000,0.0324,0.013523,0.002678,0.000431,0.000940
65162000,0.0324,0.013523,0.002678,0.000431,0.000705
65163000,0.0324,0.013523,0.002678,0.000431,0.000940
65164000,0.0324,0.013523,0.002678,0.000431,0.000823
65165000,0.0324,0.013523,0.002678,0.000431,0.000823
65166000,0.0324,0.013523,0.002678,0.000431,0.000823
65167000,0.0324,0.013523,0.002678,0.000431,0.000823
65168000,0.0324,0.013523,0.002678,0.000431,0.000823
65169000,0.0324,0.013523,0.002678,0.000431,0.000823
65170000,0.0324,0.013523,0.002678,0.000431,0.000940
65171000,0.0324,0.013523,0.002678,0.000431,0.000823
65172000,0.0324,0.013523,0.002678,0.000431,0.000823
65173000,0.0324,0.013523,0.002678,0.000431,0.000823
65174000,0.0324,0.013523,0.002678,0.000431,0.000823
65175000,0.0324,0.013523,0.002678,0.000431,0.000705
65176000,0.0324,0.013523,0.002678,0.000431,0.000940
65177000,0.0324,0.013523,0.002678,0.000431,0.000940
65178000,0.0324,0.013523,0.002678,0.000431,0.000705
65179000,0.0324,0.013523,0.002678,0.000431,0.000940
65180000,0.0324,0.013523,0.002678,0.000431,0.000705
65181000,0.0324,0.013523,0.002678,0.000431,0.000940
65182000,0.0324,0.013523,0.002678,0.000431,0.000823
65183000,0.0324,0.013523,0.002678,0.000431,0.000823
65184000,0.0324,0.013523,0.002678,0.000431,0.000940
65185000,0.0324,0.013523,0.002678,0.000431,0.000705
65186000,0.0324,0.013523,0.002678,0.000431,0.000940
65187000,0.0324,0.013523,0.002678,0.000431,0.000823
65188000,0.0324,0.013523,0.002678,0.000431,0.000823
65189000,0.0324,0.013523,0.002678,0.000431,0.000823
65190000,0.0324,0.013523,0.002678,0.000431,0.000823
65191000,0.0324,0.013523,0.002678,0.000431,0.000940
65192000,0.0324,0.013523,0.002678,0.000431,0.001058
65193000,0.0324,0.013523,0.002678,0.000431,0.000823
65194000,0.0324,0.013523,0.002678,0.000431,0.000940
65195000,0.0324,0.013523,0.002678,0.000431,0.000940
65196000,0.0324,0.013523,0.002678,0.000431,0.000823
65197000,0.0324,0.013523,0.002678,0.000431,0.000940
65198000,0.0324,0.013523,0.002678,0.000431,0.000823
65199000,0.0324,0.013523,0.002678,0.000431,0.000823
65200000,0.0324,0.013523,0.002678,0.000431,0.000823
65201000,0.0324,0.013523,0.002678,0.000431,0.014103
65202000,0.0324,0.013523,0.002678,0.000431,0.766401
65203000,0.0324,0.013523,0.002678,0.000431,0.599041
65204000,0.0324,0.013523,0.002678,0.000431,0.143267
65205000,0.0324,0.013523,0.002678,0.000431,0.136215
65206000,0.0324,0.013523,0.002678,0.000431,0.544743
65207000,0.0324,0.013523,0.002678,0.000431,0.267847
65208000,0.0324,0.013523,0.002678,0.000431,0.346826
65209000,0.0324,0.013523,0.002678,0.000431,0.145852
65210000,0.0324,0.013523,0.002678,0.000431,0.135980
65211000,0.0324,0.013523,0.002678,0.000431,0.298757
65212000,0.0324,0.013523,0.002678,0.000431,0.462591
65213000,0.0324,0.013523,0.002678,0.000431,0.160543
65214000,0.0324,0.013523,0.002678,0.000431,0.146793
65215000,0.0324,0.013523,0.002678,0.000431,0.123052
65216000,0.0324,0.013523,0.002678,0.000431,0.100957
65217000,0.0324,0.013523,0.002678,0.000431,0.072867
65218000,0.0324,0.013523,0.002678,0.000431,0.056178
65219000,0.0324,0.013523,0.002678,0.000431,0.047011
65220000,0.0324,0.013523,0.002678,0.000431,0.039372
65221000,0.0324,0.013523,0.002678,0.000431,0.025269
65222000,0.0324,0.013523,0.002678,0.000431,0.018334
65223000,0.0324,0.013523,0.002678,0.000431,0.016924
65224000,0.0324,0.013523,0.002678,0.000431,0.012223
65225000,0.0324,0.013523,0.002678,0.000431,0.009755
65226000,0.0324,0.013523,0.002678,0.000431,0.007287
65227000,0.0324,0.013523,0.002678,0.000431,0.011518
65228000,0.0324,0.013523,0.002678,0.000431,0.006229
65229000,0.0324,0.013523,0.002678,0.000431,0.005289
65230000,0.0324,0.013523,0.002678,0.000431,0.004349
65231000,0.0324,0.013523,0.002678,0.000431,0.003996
65232000,0.0324,0.013523,0.002678,0.000431,0.004466
65233000,0.0324,0.013523,0.002678,0.000431,0.004584
65234000,0.0324,0.013523,0.002678,0.000431,0.004466
65235000,0.0324,0.013523,0.002678,0.000431,0.004936
65236000,0.0324,0.013523,0.002678,0.000431,0.000940
65237000,0.0324,0.013523,0.002678,0.000431,0.017042
65238000,0.0324,0.013523,0.002678,0.000431,0.785793
65239000,0.0324,0.013523,0.002678,0.000431,0.546859
65240000,0.0324,0.013523,0.002678,0.000431,0.139623
65241000,0.0324,0.013523,0.002678,0.000431,0.162894
65242000,0.0324,0.013523,0.002678,0.000431,0.570599
65243000,0.0324,0.013523,0.002678,0.000431,0.241285
65244000,0.0324,0.013523,0.002678,0.000431,0.289237
65245000,0.0324,0.013523,0.002678,0.000431,0.155607
65246000,0.0324,0.013523,0.002678,0.000431,0.140916
65247000,0.0324,0.013523,0.002678,0.000431,0.249277
65248000,0.0324,0.013523,0.002678,0.000431,0.509602
65249000,0.0324,0.013523,0.002678,0.000431,0.170886
65250000,0.0324,0.013523,0.002678,0.000431,0.156548
65251000,0.0324,0.013523,0.002678,0.000431,0.127401
65252000,0.0324,0.013523,0.002678,0.000431,0.123405
65253000,0.0324,0.013523,0.002678,0.000431,0.100369
65254000,0.0324,0.013523,0.002678,0.000431,0.080154
65255000,0.0324,0.013523,0.002678,0.000431,0.059704
65256000,0.0324,0.013523,0.002678,0.000431,0.052770
65257000,0.0324,0.013523,0.002678,0.000431,0.037962
65258000,0.0324,0.013523,0.002678,0.000431,0.036904
65259000,0.0324,0.013523,0.002678,0.000431,0.032790
65260000,0.0324,0.013523,0.002678,0.000431,0.034083
65261000,0.0324,0.013523,0.002678,0.000431,0.021273
65262000,0.0324,0.013523,0.002678,0.000431,0.024211
65263000,0.0324,0.013523,0.002678,0.000431,0.015749
65264000,0.0324,0.013523,0.002678,0.000431,0.005994
65265000,0.0324,0.013523,0.002678,0.000431,0.005054
65266000,0.0324,0.013523,0.002678,0.000431,0.011400
65267000,0.0324,0.013523,0.002678,0.000431,0.007404
65268000,0.0324,0.013523,0.002678,0.000431,0.002116
65269000,0.0324,0.013523,0.002678,0.000431,0.001763
65270000,0.0324,0.013523,0.002678,0.000431,0.001645
65271000,0.0324,0.013523,0.002678,0.000431,0.001763
65272000,0.0324,0.013523,0.002678,0.000431,0.001763
65273000,0.0324,0.013523,0.002678,0.000431,0.001880
65274000,0.0324,0.013523,0.002678,0.000431,0.001763
65275000,0.0324,0.013523,0.002678,0.000431,0.001998
65276000,0.0324,0.013523,0.002678,0.000431,0.003643
65277000,0.0324,0.013523,0.002678,0.000431,0.000940
65278000,0.0324,0.013523,0.002678,0.000431,0.002586
65279000,0.0324,0.013523,0.002678,0.000431,0.595398
65280000,0.0324,0.013523,0.002678,0.000431,0.715864
65281000,0.0324,0.013523,0.002678,0.000431,0.153492
65282000,0.0324,0.013523,0.002678,0.000431,0.135745
65283000,0.0324,0.013523,0.002678,0.000431,0.510660
65284000,0.0324,0.013523,0.002678,0.000431,0.240345
65285000,0.0324,0.013523,0.002678,0.000431,0.320499
65286000,0.0324,0.013523,0.002678,0.000431,0.208730
65287000,0.0324,0.013523,0.002678,0.000431,0.167713
65288000,0.0324,0.013523,0.002678,0.000431,0.102250
65289000,0.0324,0.013523,0.002678,0.000431,0.518182
65290000,0.0324,0.013523,0.002678,0.000431,0.279717
65291000,0.0324,0.013523,0.002678,0.000431,0.200386
65292000,0.0324,0.013523,0.002678,0.000431,0.163247
65293000,0.0324,0.013523,0.002678,0.000431,0.135628
65294000,0.0324,0.013523,0.002678,0.000431,0.113297
65295000,0.0324,0.013523,0.002678,0.000431,0.087794
65296000,0.0324,0.013523,0.002678,0.000431,0.066874
65297000,0.0324,0.013523,0.002678,0.000431,0.051712
65298000,0.0324,0.013523,0.002678,0.000431,0.051595
65299000,0.0324,0.013523,0.002678,0.000431,0.040782
65300000,0.0324,0.013523,0.002678,0.000431,0.029147
65301000,0.0324,0.013523,0.002678,0.000431,0.029735
65302000,0.0324,0.013523,0.002678,0.000431,0.021273
65303000,0.0324,0.013523,0.002678,0.000431,0.011988
65304000,0.0324,0.013523,0.002678,0.000431,0.012340
65305000,0.0324,0.013523,0.002678,0.000431,0.009402
65306000,0.0324,0.013523,0.002678,0.000431,0.008580
65307000,0.0324,0.013523,0.002678,0.000431,0.005641
65308000,0.0324,0.013523,0.002678,0.000431,0.006229
65309000,0.0324,0.013523,0.002678,0.000431,0.007169
65310000,0.0324,0.013523,0.002678,0.000431,0.004113
65311000,0.0324,0.013523,0.002678,0.000431,0.006817
65312000,0.0324,0.013523,0.002678,0.000431,0.004113
65313000,0.0324,0.013523,0.002678,0.000431,0.004231
65314000,0.0324,0.013523,0.002678,0.000431,0.003526
65315000,0.0324,0.013523,0.002678,0.000431,0.001293
65316000,0.0324,0.013523,0.002678,0.000431,0.000705
65317000,0.0324,0.013523,0.002678,0.000431,0.000940
65318000,0.0324,0.013523,0.002678,0.000431,0.000823
65319000,0.0324,0.013523,0.002678,0.000431,0.000823
65320000,0.0324,0.013523,0.002678,0.000431,0.000705
65321000,0.0324,0.013523,0.002678,0.000431,0.000940
65322000,0.0324,0.013523,0.002678,0.000431,0.000940
65323000,0.0324,0.013523,0.002678,0.000431,0.000705
65324000,0.0324,0.013523,0.002678,0.000431,0.000940
65325000,0.0324,0.013523,0.002678,0.000431,0.000705
65326000,0.0324,0.013523,0.002678,0.000431,0.000940
65327000,0.0324,0.013523,0.002678,0.000431,0.000823
65328000,0.0324,0.013523,0.002678,0.000431,0.000823
65329000,0.0324,0.013523,0.002678,0.000431,0.000940
65330000,0.0324,0.013523,0.002678,0.000431,0.000705
65331000,0.0324,0.013523,0.002678,0.000431,0.000823
65332000,0.0324,0.013523,0.002678,0.000431,0.000823
65333000,0.0324,0.013523,0.002678,0.000431,0.001998
65334000,0.0324,0.013523,0.002678,0.000431,0.464001
65335000,0.0324,0.013523,0.002678,0.000431,0.745834
65336000,0.0324,0.013523,0.002678,0.000431,0.233293
65337000,0.0324,0.013523,0.002678,0.000431,0.136803
65338000,0.0324,0.013523,0.002678,0.000431,0.538749
65339000,0.0324,0.013523,0.002678,0.000431,0.248102
65340000,0.0324,0.013523,0.002678,0.000431,0.383259
65341000,0.0324,0.013523,0.002678,0.000431,0.188985
65342000,0.0324,0.013523,0.002678,0.000431,0.142562
65343000,0.0324,0.013523,0.002678,0.000431,0.237642
65344000,0.0324,0.013523,0.002678,0.000431,0.535106
65345000,0.0324,0.013523,0.002678,0.000431,0.239757
65346000,0.0324,0.013523,0.002678,0.000431,0.225889
65347000,0.0324,0.013523,0.002678,0.000431,0.200150
65348000,0.0324,0.013523,0.002678,0.000431,0.167713
65349000,0.0324,0.013523,0.002678,0.000431,0.136803
65350000,0.0324,0.013523,0.002678,0.000431,0.114472
65351000,0.0324,0.013523,0.002678,0.000431,0.077921
65352000,0.0324,0.013523,0.002678,0.000431,0.089439
65353000,0.0324,0.013523,0.002678,0.000431,0.058059
65354000,0.0324,0.013523,0.002678,0.000431,0.050537
65355000,0.0324,0.013523,0.002678,0.000431,0.036316
65356000,0.0324,0.013523,0.002678,0.000431,0.032555
65357000,0.0324,0.013523,0.002678,0.000431,0.028794
65358000,0.0324,0.013523,0.002678,0.000431,0.015749
65359000,0.0324,0.013523,0.002678,0.000431,0.015044
65360000,0.0324,0.013523,0.002678,0.000431,0.012811
65361000,0.0324,0.013523,0.002678,0.000431,0.014338
65362000,0.0324,0.013523,0.002678,0.000431,0.010225
65363000,0.0324,0.013523,0.002678,0.000431,0.010813
65364000,0.0324,0.013523,0.002678,0.000431,0.006934
65365000,0.0324,0.013523,0.002678,0.000431,0.007169
65366000,0.0324,0.013523,0.002678,0.000431,0.006347
65367000,0.0324,0.013523,0.002678,0.000431,0.001410
65368000,0.0324,0.013523,0.002678,0.000431,0.001058
65369000,0.0324,0.013523,0.002678,0.000431,0.001410
65370000,0.0324,0.013523,0.002678,0.000431,0.072280
65371000,0.0324,0.013523,0.002678,0.000431,0.810357
65372000,0.0324,0.013523,0.002678,0.000431,0.547916
65373000,0.0324,0.013523,0.002678,0.000431,0.145970
65374000,0.0324,0.013523,0.002678,0.000431,0.237760
65375000,0.0324,0.013523,0.002678,0.000431,0.479868
65376000,0.0324,0.013523,0.002678,0.000431,0.284066
65377000,0.0324,0.013523,0.002678,0.000431,0.293233
65378000,0.0324,0.013523,0.002678,0.000431,0.166185
65379000,0.0324,0.013523,0.002678,0.000431,0.117646
65380000,0.0324,0.013523,0.002678,0.000431,0.498790
65381000,0.0324,0.013523,0.002678,0.000431,0.329079
65382000,0.0324,0.013523,0.002678,0.000431,0.237524
65383000,0.0324,0.013523,0.002678,0.000431,0.187340
65384000,0.0324,0.013523,0.002678,0.000431,0.170768
65385000,0.0324,0.013523,0.002678,0.000431,0.147968
65386000,0.0324,0.013523,0.002678,0.000431,0.116118
65387000,0.0324,0.013523,0.002678,0.000431,0.092847
65388000,0.0324,0.013523,0.002678,0.000431,0.082740
65389000,0.0324,0.013523,0.002678,0.000431,0.059352
65390000,0.0324,0.013523,0.002678,0.000431,0.049479
65391000,0.0324,0.013523,0.002678,0.000431,0.045366
65392000,0.0324,0.013523,0.002678,0.000431,0.031262
65393000,0.0324,0.013523,0.002678,0.000431,0.021625
65394000,0.0324,0.013523,0.002678,0.000431,0.019040
65395000,0.0324,0.013523,0.002678,0.000431,0.014809
65396000,0.0324,0.013523,0.002678,0.000431,0.016336
65397000,0.0324,0.013523,0.002678,0.000431,0.012811
65398000,0.0324,0.013523,0.002678,0.000431,0.017864
65399000,0.0324,0.013523,0.002678,0.000431,0.014573
65400000,0.0324,0.013523,0.002678,0.000431,0.009402
65401000,0.0324,0.013523,0.002678,0.000431,0.011988
65402000,0.0324,0.013523,0.002678,0.000431,0.014691
65403000,0.0324,0.013523,0.002678,0.000431,0.007169
65404000,0.0324,0.013523,0.002678,0.000431,0.008227
65405000,0.0324,0.013523,0.002678,0.000431,0.006817
65406000,0.0324,0.013523,0.002678,0.000431,0.008697
65407000,0.0324,0.013523,0.002678,0.000431,0.007404
65408000,0.0324,0.013523,0.002678,0.000431,0.008227
65409000,0.0324,0.013523,0.002678,0.000431,0.007404
65410000,0.0324,0.013523,0.002678,0.000431,0.012928
65411000,0.0324,0.013523,0.002678,0.000431,0.006347
65412000,0.0324,0.013523,0.002678,0.000431,0.005876
65413000,0.0324,0.013523,0.002678,0.000431,0.005524
65414000,0.0324,0.013523,0.002678,0.000431,0.007052
65415000,0.0324,0.013523,0.002678,0.000431,0.006111
65416000,0.0324,0.013523,0.002678,0.000431,0.005406
65417000,0.0324,0.013523,0.002678,0.000431,0.003996
65418000,0.0324,0.013523,0.002678,0.000431,0.005759
65419000,0.0324,0.013523,0.002678,0.000431,0.003761
65420000,0.0324,0.013523,0.002678,0.000431,0.005994
65421000,0.0324,0.013523,0.002678,0.000431,0.004466
65422000,0.0324,0.013523,0.002678,0.000431,0.004936
65423000,0.0324,0.013523,0.002678,0.000431,0.005171
65424000,0.0324,0.013523,0.002678,0.000431,0.004349
65425000,0.0324,0.013523,0.002678,0.000431,0.005994
65426000,0.0324,0.013523,0.002678,0.000431,0.004231
65427000,0.0324,0.013523,0.002678,0.000431,0.005641
65428000,0.0324,0.013523,0.002678,0.000431,0.008227
65429000,0.0324,0.013523,0.002678,0.000431,0.005876
65430000,0.0324,0.013523,0.002678,0.000431,0.003408
65431000,0.0324,0.013523,0.002678,0.000431,0.000823
65432000,0.0324,0.013523,0.002678,0.000431,0.002586
65433000,0.0324,0.013523,0.002678,0.000431,0.604330
65434000,0.0324,0.013523,0.002678,0.000431,0.741015
65435000,0.0324,0.013523,0.002678,0.000431,0.171356
65436000,0.0324,0.013523,0.002678,0.000431,0.141621
65437000,0.0324,0.013523,0.002678,0.000431,0.539807
65438000,0.0324,0.013523,0.002678,0.000431,0.299932
65439000,0.0324,0.013523,0.002678,0.000431,0.290177
65440000,0.0324,0.013523,0.002678,0.000431,0.157958
65441000,0.0324,0.013523,0.002678,0.000431,0.150554
65442000,0.0324,0.013523,0.002678,0.000431,0.221541
65443000,0.0324,0.013523,0.002678,0.000431,0.511600
65444000,0.0324,0.013523,0.002678,0.000431,0.209083
65445000,0.0324,0.013523,0.002678,0.000431,0.172649
65446000,0.0324,0.013523,0.002678,0.000431,0.146205
65447000,0.0324,0.013523,0.002678,0.000431,0.132572
65448000,0.0324,0.013523,0.002678,0.000431,0.108479
65449000,0.0324,0.013523,0.002678,0.000431,0.096021
65450000,0.0324,0.013523,0.002678,0.000431,0.084268
65451000,0.0324,0.013523,0.002678,0.000431,0.064288
65452000,0.0324,0.013523,0.002678,0.000431,0.049714
65453000,0.0324,0.013523,0.002678,0.000431,0.044191
65454000,0.0324,0.013523,0.002678,0.000431,0.040195
65455000,0.0324,0.013523,0.002678,0.000431,0.037609
65456000,0.0324,0.013523,0.002678,0.000431,0.024798
65457000,0.0324,0.013523,0.002678,0.000431,0.022330
65458000,0.0324,0.013523,0.002678,0.000431,0.021508
65459000,0.0324,0.013523,0.002678,0.000431,0.014926
65460000,0.0324,0.013523,0.002678,0.000431,0.011165
65461000,0.0324,0.013523,0.002678,0.000431,0.016101
65462000,0.0324,0.013523,0.002678,0.000431,0.007522
65463000,0.0324,0.013523,0.002678,0.000431,0.011165
65464000,0.0324,0.013523,0.002678,0.000431,0.005641
65465000,0.0324,0.013523,0.002678,0.000431,0.005759
65466000,0.0324,0.013523,0.002678,0.000431,0.005641
65467000,0.0324,0.013523,0.002678,0.000431,0.003526
65468000,0.0324,0.013523,0.002678,0.000431,0.004466
65469000,0.0324,0.013523,0.002678,0.000431,0.008462
65470000,0.0324,0.013523,0.002678,0.000431,0.000823
65471000,0.0324,0.013523,0.002678,0.000431,0.000823
65472000,0.0324,0.013523,0.002678,0.000431,0.000823
65473000,0.0324,0.013523,0.002678,0.000431,0.000823
65474000,0.0324,0.013523,0.002678,0.000431,0.000940
65475000,0.0324,0.013523,0.002678,0.000431,0.000705
65476000,0.0324,0.013523,0.002678,0.000431,0.000823
65477000,0.0324,0.013523,0.002678,0.000431,0.020920
65478000,0.0324,0.013523,0.002678,0.000431,0.789084
65479000,0.0324,0.013523,0.002678,0.000431,0.542275
65480000,0.0324,0.013523,0.002678,0.000431,0.142797
65481000,0.0324,0.013523,0.002678,0.000431,0.159133
65482000,0.0324,0.013523,0.002678,0.000431,0.558141
65483000,0.0324,0.013523,0.002678,0.000431,0.280187
65484000,0.0324,0.013523,0.002678,0.000431,0.306161
65485000,0.0324,0.013523,0.002678,0.000431,0.157135
65486000,0.0324,0.013523,0.002678,0.000431,0.122464
65487000,0.0324,0.013523,0.002678,0.000431,0.359284
65488000,0.0324,0.013523,0.002678,0.000431,0.441436
65489000,0.0324,0.013523,0.002678,0.000431,0.209670
65490000,0.0324,0.013523,0.002678,0.000431,0.191218
65491000,0.0324,0.013523,0.002678,0.000431,0.154432
65492000,0.0324,0.013523,0.002678,0.000431,0.116235
65493000,0.0324,0.013523,0.002678,0.000431,0.100134
65494000,0.0324,0.013523,0.002678,0.000431,0.082505
65495000,0.0324,0.013523,0.002678,0.000431,0.074630
65496000,0.0324,0.013523,0.002678,0.000431,0.054651
65497000,0.0324,0.013523,0.002678,0.000431,0.057119
65498000,0.0324,0.013523,0.002678,0.000431,0.044191
65499000,0.0324,0.013523,0.002678,0.000431,0.030557
65500000,0.0324,0.013523,0.002678,0.000431,0.021625
65501000,0.0324,0.013523,0.002678,0.000431,0.018452
65502000,0.0324,0.013523,0.002678,0.000431,0.018217
65503000,0.0324,0.013523,0.002678,0.000431,0.014338
65504000,0.0324,0.013523,0.002678,0.000431,0.009637
65505000,0.0324,0.013523,0.002678,0.000431,0.010342
65506000,0.0324,0.013523,0.002678,0.000431,0.009402
65507000,0.0324,0.013523,0.002678,0.000431,0.008462
65508000,0.0324,0.013523,0.002678,0.000431,0.004819
65509000,0.0324,0.013523,0.002678,0.000431,0.005641
65510000,0.0324,0.013523,0.002678,0.000431,0.005054
65511000,0.0324,0.013523,0.002678,0.000431,0.003291
65512000,0.0324,0.013523,0.002678,0.000431,0.002586
65513000,0.0324,0.013523,0.002678,0.000431,0.005406
65514000,0.0324,0.013523,0.002678,0.000431,0.000940
65515000,0.0324,0.013523,0.002678,0.000431,0.000940
65516000,0.0324,0.013523,0.002678,0.000431,0.002468
65517000,0.0324,0.013523,0.002678,0.000431,0.376913
65518000,0.0324,0.013523,0.002678,0.000431,0.798839
65519000,0.0324,0.013523,0.002678,0.000431,0.290177
65520000,0.0324,0.013523,0.002678,0.000431,0.146440
65521000,0.0324,0.013523,0.002678,0.000431,0.559669
65522000,0.0324,0.013523,0.002678,0.000431,0.241403
65523000,0.0324,0.013523,0.002678,0.000431,0.302518
65524000,0.0324,0.013523,0.002678,0.000431,0.190043
65525000,0.0324,0.013523,0.002678,0.000431,0.188750
65526000,0.0324,0.013523,0.002678,0.000431,0.087911
65527000,0.0324,0.013523,0.002678,0.000431,0.561902
65528000,0.0324,0.013523,0.002678,0.000431,0.197682
65529000,0.0324,0.013523,0.002678,0.000431,0.140211
65530000,0.0324,0.013523,0.002678,0.000431,0.127988
65531000,0.0324,0.013523,0.002678,0.000431,0.110829
65532000,0.0324,0.013523,0.002678,0.000431,0.093200
65533000,0.0324,0.013523,0.002678,0.000431,0.083798
65534000,0.0324,0.013523,0.002678,0.000431,0.047599
65535000,0.0324,0.013523,0.002678,0.000431,0.043485
65536000,0.0324,0.013523,0.002678,0.000431,0.040547
65537000,0.0324,0.013523,0.002678,0.000431,0.033143
65538000,0.0324,0.013523,0.002678,0.000431,0.019627
65539000,0.0324,0.013523,0.002678,0.000431,0.019980
65540000,0.0324,0.013523,0.002678,0.000431,0.016807
65541000,0.0324,0.013523,0.002678,0.000431,0.014103
65542000,0.0324,0.013523,0.002678,0.000431,0.012340
65543000,0.0324,0.013523,0.002678,0.000431,0.010460
65544000,0.0324,0.013523,0.002678,0.000431,0.008227
65545000,0.0324,0.013523,0.002678,0.000431,0.008109
65546000,0.0324,0.013523,0.002678,0.000431,0.012458
65547000,0.0324,0.013523,0.002678,0.000431,0.006817
65548000,0.0324,0.013523,0.002678,0.000431,0.004701
65549000,0.0324,0.013523,0.002678,0.000431,0.000940
65550000,0.0324,0.013523,0.002678,0.000431,0.000940
65551000,0.0324,0.013523,0.002678,0.000431,0.000823
65552000,0.0324,0.013523,0.002678,0.000431,0.000823
65553000,0.0324,0.013523,0.002678,0.000431,0.000940
65554000,0.0324,0.013523,0.002678,0.000431,0.000940
65555000,0.0324,0.013523,0.002678,0.000431,0.000940
65556000,0.0324,0.013523,0.002678,0.000431,0.000705
65557000,0.0324,0.013523,0.002678,0.000431,0.003056
65558000,0.0324,0.013523,0.002678,0.000431,0.542040
65559000,0.0324,0.013523,0.002678,0.000431,0.723033
65560000,0.0324,0.013523,0.002678,0.000431,0.167243
65561000,0.0324,0.013523,0.002678,0.000431,0.142914
65562000,0.0324,0.013523,0.002678,0.000431,0.575653
65563000,0.0324,0.013523,0.002678,0.000431,0.286064
65564000,0.0324,0.013523,0.002678,0.000431,0.347061
65565000,0.0324,0.013523,0.002678,0.000431,0.174529
65566000,0.0324,0.013523,0.002678,0.000431,0.133277
65567000,0.0324,0.013523,0.002678,0.000431,0.239405
65568000,0.0324,0.013523,0.002678,0.000431,0.535341
65569000,0.0324,0.013523,0.002678,0.000431,0.221776
65570000,0.0324,0.013523,0.002678,0.000431,0.189926
65571000,0.0324,0.013523,0.002678,0.000431,0.170768
65572000,0.0324,0.013523,0.002678,0.000431,0.135863
65573000,0.0324,0.013523,0.002678,0.000431,0.123875
65574000,0.0324,0.013523,0.002678,0.000431,0.088499
65575000,0.0324,0.013523,0.002678,0.000431,0.090849
65576000,0.0324,0.013523,0.002678,0.000431,0.069812
65577000,0.0324,0.013523,0.002678,0.000431,0.053005
65578000,0.0324,0.013523,0.002678,0.000431,0.044661
65579000,0.0324,0.013523,0.002678,0.000431,0.033025
65580000,0.0324,0.013523,0.002678,0.000431,0.030792
65581000,0.0324,0.013523,0.002678,0.000431,0.026561
65582000,0.0324,0.013523,0.002678,0.000431,0.024446
65583000,0.0324,0.013523,0.002678,0.000431,0.015044
65584000,0.0324,0.013523,0.002678,0.000431,0.013516
65585000,0.0324,0.013523,0.002678,0.000431,0.011518
65586000,0.0324,0.013523,0.002678,0.000431,0.015984
65587000,0.0324,0.013523,0.002678,0.000431,0.008580
65588000,0.0324,0.013523,0.002678,0.000431,0.007639
65589000,0.0324,0.013523,0.002678,0.000431,0.007287
65590000,0.0324,0.013523,0.002678,0.000431,0.007052
65591000,0.0324,0.013523,0.002678,0.000431,0.006582
65592000,0.0324,0.013523,0.002678,0.000431,0.009285
65593000,0.0324,0.013523,0.002678,0.000431,0.006229
65594000,0.0324,0.013523,0.002678,0.000431,0.008697
65595000,0.0324,0.013523,0.002678,0.000431,0.004819
65596000,0.0324,0.013523,0.002678,0.000431,0.005406
65597000,0.0324,0.013523,0.002678,0.000431,0.003408
65598000,0.0324,0.013523,0.002678,0.000431,0.003643
65599000,0.0324,0.013523,0.002678,0.000431,0.003526
65600000,0.0324,0.013523,0.002678,0.000431,0.009167
65601000,0.0324,0.013523,0.002678,0.000431,0.002468
65602000,0.0324,0.013523,0.002678,0.000431,0.000940
65603000,0.0324,0.013523,0.002678,0.000431,0.014103
65604000,0.0324,0.013523,0.002678,0.000431,0.749360
65605000,0.0324,0.013523,0.002678,0.000431,0.611264
65606000,0.0324,0.013523,0.002678,0.000431,0.152081
65607000,0.0324,0.013523,0.002678,0.000431,0.198975
65608000,0.0324,0.013523,0.002678,0.000431,0.574125
65609000,0.0324,0.013523,0.002678,0.000431,0.241403
65610000,0.0324,0.013523,0.002678,0.000431,0.278894
65611000,0.0324,0.013523,0.002678,0.000431,0.158898
65612000,0.0324,0.013523,0.002678,0.000431,0.109419
65613000,0.0324,0.013523,0.002678,0.000431,0.394190
65614000,0.0324,0.013523,0.002678,0.000431,0.383965
65615000,0.0324,0.013523,0.002678,0.000431,0.184519
65616000,0.0324,0.013523,0.002678,0.000431,0.148791
65617000,0.0324,0.013523,0.002678,0.000431,0.124345
65618000,0.0324,0.013523,0.002678,0.000431,0.114825
65619000,0.0324,0.013523,0.002678,0.000431,0.079214
65620000,0.0324,0.013523,0.002678,0.000431,0.060527
65621000,0.0324,0.013523,0.002678,0.000431,0.051477
65622000,0.0324,0.013523,0.002678,0.000431,0.043485
65623000,0.0324,0.013523,0.002678,0.000431,0.036434
65624000,0.0324,0.013523,0.002678,0.000431,0.031850
65625000,0.0324,0.013523,0.002678,0.000431,0.021743
65626000,0.0324,0.013523,0.002678,0.000431,0.014809
65627000,0.0324,0.013523,0.002678,0.000431,0.013751
65628000,0.0324,0.013523,0.002678,0.000431,0.010695
65629000,0.0324,0.013523,0.002678,0.000431,0.003173
65630000,0.0324,0.013523,0.002678,0.000431,0.004349
65631000,0.0324,0.013523,0.002678,0.000431,0.005289
65632000,0.0324,0.013523,0.002678,0.000431,0.001058
65633000,0.0324,0.013523,0.002678,0.000431,0.001058
65634000,0.0324,0.013523,0.002678,0.000431,0.001058
65635000,0.0324,0.013523,0.002678,0.000431,0.003056
65636000,0.0324,0.013523,0.002678,0.000431,0.595280
65637000,0.0324,0.013523,0.002678,0.000431,0.726324
65638000,0.0324,0.013523,0.002678,0.000431,0.140329
65639000,0.0324,0.013523,0.002678,0.000431,0.138448
65640000,0.0324,0.013523,0.002678,0.000431,0.542510
65641000,0.0324,0.013523,0.002678,0.000431,0.247514
65642000,0.0324,0.013523,0.002678,0.000431,0.282068
65643000,0.0324,0.013523,0.002678,0.000431,0.154667
65644000,0.0324,0.013523,0.002678,0.000431,0.159368
65645000,0.0324,0.013523,0.002678,0.000431,0.205087
65646000,0.0324,0.013523,0.002678,0.000431,0.516889
65647000,0.0324,0.013523,0.002678,0.000431,0.201091
65648000,0.0324,0.013523,0.002678,0.000431,0.162777
65649000,0.0324,0.013523,0.002678,0.000431,0.149026
65650000,0.0324,0.013523,0.002678,0.000431,0.114472
65651000,0.0324,0.013523,0.002678,0.000431,0.101897
65652000,0.0324,0.013523,0.002678,0.000431,0.082975
65653000,0.0324,0.013523,0.002678,0.000431,0.059234
65654000,0.0324,0.013523,0.002678,0.000431,0.044896
65655000,0.0324,0.013523,0.002678,0.000431,0.039725
65656000,0.0324,0.013523,0.002678,0.000431,0.037021
65657000,0.0324,0.013523,0.002678,0.000431,0.023858
65658000,0.0324,0.013523,0.002678,0.000431,0.021390
65659000,0.0324,0.013523,0.002678,0.000431,0.015984
65660000,0.0324,0.013523,0.002678,0.000431,0.017042
65661000,0.0324,0.013523,0.002678,0.000431,0.008580
65662000,0.0324,0.013523,0.002678,0.000431,0.010460
65663000,0.0324,0.013523,0.002678,0.000431,0.009520
65664000,0.0324,0.013523,0.002678,0.000431,0.011518
65665000,0.0324,0.013523,0.002678,0.000431,0.004584
65666000,0.0324,0.013523,0.002678,0.000431,0.004231
65667000,0.0324,0.013523,0.002678,0.000431,0.007522
65668000,0.0324,0.013523,0.002678,0.000431,0.005406
65669000,0.0324,0.013523,0.002678,0.000431,0.002586
65670000,0.0324,0.013523,0.002678,0.000431,0.002233
65671000,0.0324,0.013523,0.002678,0.000431,0.002468
65672000,0.0324,0.013523,0.002678,0.000431,0.002468
65673000,0.0324,0.013523,0.002678,0.000431,0.005289
65674000,0.0324,0.013523,0.002678,0.000431,0.003996
65675000,0.0324,0.013523,0.002678,0.000431,0.000823
65676000,0.0324,0.013523,0.002678,0.000431,0.000823
65677000,0.0324,0.013523,0.002678,0.000431,0.000823
65678000,0.0324,0.013523,0.002678,0.000431,0.000823
65679000,0.0324,0.013523,0.002678,0.000431,0.000823
65680000,0.0324,0.013523,0.002678,0.000431,0.000823
65681000,0.0324,0.013523,0.002678,0.000431,0.000940
65682000,0.0324,0.013523,0.002678,0.000431,0.000705
65683000,0.0324,0.013523,0.002678,0.000431,0.000705
65684000,0.0324,0.013523,0.002678,0.000431,0.000940
65685000,0.0324,0.013523,0.002678,0.000431,0.000705
65686000,0.0324,0.013523,0.002678,0.000431,0.000940
65687000,0.0324,0.013523,0.002678,0.000431,0.000705
65688000,0.0324,0.013523,0.002678,0.000431,0.000823
65689000,0.0324,0.013523,0.002678,0.000431,0.000823
65690000,0.0324,0.013523,0.002678,0.000431,0.000940
65691000,0.0324,0.013523,0.002678,0.000431,0.000823
65692000,0.0324,0.013523,0.002678,0.000431,0.000823
65693000,0.0324,0.013523,0.002678,0.000431,0.000705
65694000,0.0324,0.013523,0.002678,0.000431,0.000940
65695000,0.0324,0.013523,0.002678,0.000431,0.000940
65696000,0.0324,0.013523,0.002678,0.000431,0.000705
65697000,0.0324,0.013523,0.002678,0.000431,0.000940
65698000,0.0324,0.013523,0.002678,0.000431,0.000705
65699000,0.0324,0.013523,0.002678,0.000431,0.000940
65700000,0.0324,0.013523,0.002678,0.000431,0.000705
65701000,0.0324,0.013523,0.002678,0.000431,0.000940
65702000,0.0324,0.013523,0.002678,0.000431,0.000823
65703000,0.0324,0.013523,0.002678,0.000431,0.000823
65704000,0.0324,0.013523,0.002678,0.000431,0.000705
65705000,0.0324,0.013523,0.002678,0.000431,0.000940
65706000,0.0324,0.013523,0.002678,0.000431,0.037727
65707000,0.0324,0.013523,0.002678,0.000431,0.776391
65708000,0.0324,0.013523,0.002678,0.000431,0.533460
65709000,0.0324,0.013523,0.002678,0.000431,0.154550
65710000,0.0324,0.013523,0.002678,0.000431,0.212961
65711000,0.0324,0.013523,0.002678,0.000431,0.510307
65712000,0.0324,0.013523,0.002678,0.000431,0.301342
65713000,0.0324,0.013523,0.002678,0.000431,0.288532
65714000,0.0324,0.013523,0.002678,0.000431,0.163599
65715000,0.0324,0.013523,0.002678,0.000431,0.106128
65716000,0.0324,0.013523,0.002678,0.000431,0.410291
65717000,0.0324,0.013523,0.002678,0.000431,0.434149
65718000,0.0324,0.013523,0.002678,0.000431,0.221541
65719000,0.0324,0.013523,0.002678,0.000431,0.206262
65720000,0.0324,0.013523,0.002678,0.000431,0.169476
65721000,0.0324,0.013523,0.002678,0.000431,0.146323
65722000,0.0324,0.013523,0.002678,0.000431,0.109184
65723000,0.0324,0.013523,0.002678,0.000431,0.081094
65724000,0.0324,0.013523,0.002678,0.000431,0.073808
65725000,0.0324,0.013523,0.002678,0.000431,0.066168
65726000,0.0324,0.013523,0.002678,0.000431,0.048187
65727000,0.0324,0.013523,0.002678,0.000431,0.030557
65728000,0.0324,0.013523,0.002678,0.000431,0.029735
65729000,0.0324,0.013523,0.002678,0.000431,0.014926
65730000,0.0324,0.013523,0.002678,0.000431,0.014456
65731000,0.0324,0.013523,0.002678,0.000431,0.017159
65732000,0.0324,0.013523,0.002678,0.000431,0.008109
65733000,0.0324,0.013523,0.002678,0.000431,0.007169
65734000,0.0324,0.013523,0.002678,0.000431,0.007874
65735000,0.0324,0.013523,0.002678,0.000431,0.006111
65736000,0.0324,0.013523,0.002678,0.000431,0.010930
65737000,0.0324,0.013523,0.002678,0.000431,0.004936
65738000,0.0324,0.013523,0.002678,0.000431,0.004231
65739000,0.0324,0.013523,0.002678,0.000431,0.002233
65740000,0.0324,0.013523,0.002678,0.000431,0.002703
65741000,0.0324,0.013523,0.002678,0.000431,0.002468
65742000,0.0324,0.013523,0.002678,0.000431,0.002586
65743000,0.0324,0.013523,0.002678,0.000431,0.002586
65744000,0.0324,0.013523,0.002678,0.000431,0.002233
65745000,0.0324,0.013523,0.002678,0.000431,0.002821
65746000,0.0324,0.013523,0.002678,0.000431,0.003291
65747000,0.0324,0.013523,0.002678,0.000431,0.002938
65748000,0.0324,0.013523,0.002678,0.000431,0.004231
65749000,0.0324,0.013523,0.002678,0.000431,0.000823
65750000,0.0324,0.013523,0.002678,0.000431,0.014926
65751000,0.0324,0.013523,0.002678,0.000431,0.826106
65752000,0.0324,0.013523,0.002678,0.000431,0.560962
65753000,0.0324,0.013523,0.002678,0.000431,0.148321
65754000,0.0324,0.013523,0.002678,0.000431,0.194274
65755000,0.0324,0.013523,0.002678,0.000431,0.577533
65756000,0.0324,0.013523,0.002678,0.000431,0.272313
65757000,0.0324,0.013523,0.002678,0.000431,0.298051
65758000,0.0324,0.013523,0.002678,0.000431,0.150671
65759000,0.0324,0.013523,0.002678,0.000431,0.111887
65760000,0.0324,0.013523,0.002678,0.000431,0.389371
65761000,0.0324,0.013523,0.002678,0.000431,0.377971
65762000,0.0324,0.013523,0.002678,0.000431,0.144912
65763000,0.0324,0.013523,0.002678,0.000431,0.132219
65764000,0.0324,0.013523,0.002678,0.000431,0.110594
65765000,0.0324,0.013523,0.002678,0.000431,0.100957
65766000,0.0324,0.013523,0.002678,0.000431,0.076158
65767000,0.0324,0.013523,0.002678,0.000431,0.056178
65768000,0.0324,0.013523,0.002678,0.000431,0.044661
65769000,0.0324,0.013523,0.002678,0.000431,0.031850
65770000,0.0324,0.013523,0.002678,0.000431,0.023741
65771000,0.0324,0.013523,0.002678,0.000431,0.025974
65772000,0.0324,0.013523,0.002678,0.000431,0.019275
65773000,0.0324,0.013523,0.002678,0.000431,0.014221
65774000,0.0324,0.013523,0.002678,0.000431,0.008815
65775000,0.0324,0.013523,0.002678,0.000431,0.009167
65776000,0.0324,0.013523,0.002678,0.000431,0.013516
65777000,0.0324,0.013523,0.002678,0.000431,0.006934
65778000,0.0324,0.013523,0.002678,0.000431,0.006582
65779000,0.0324,0.013523,0.002678,0.000431,0.011283
65780000,0.0324,0.013523,0.002678,0.000431,0.004819
65781000,0.0324,0.013523,0.002678,0.000431,0.004701
65782000,0.0324,0.013523,0.002678,0.000431,0.000823
65783000,0.0324,0.013523,0.002678,0.000431,0.000940
65784000,0.0324,0.013523,0.002678,0.000431,0.000705
65785000,0.0324,0.013523,0.002678,0.000431,0.000823
65786000,0.0324,0.013523,0.002678,0.000431,0.000823
65787000,0.0324,0.013523,0.002678,0.000431,0.000940
65788000,0.0324,0.013523,0.002678,0.000431,0.000705
65789000,0.0324,0.013523,0.002678,0.000431,0.000940
65790000,0.0324,0.013523,0.002678,0.000431,0.000823
65791000,0.0324,0.013523,0.002678,0.000431,0.066286
65792000,0.0324,0.013523,0.002678,0.000431,0.706227
65793000,0.0324,0.013523,0.002678,0.000431,0.549209
65794000,0.0324,0.013523,0.002678,0.000431,0.140564
65795000,0.0324,0.013523,0.002678,0.000431,0.156430
65796000,0.0324,0.013523,0.002678,0.000431,0.575771
65797000,0.0324,0.013523,0.002678,0.000431,0.267612
65798000,0.0324,0.013523,0.002678,0.000431,0.290765
65799000,0.0324,0.013523,0.002678,0.000431,0.156900
65800000,0.0324,0.013523,0.002678,0.000431,0.151494
65801000,0.0324,0.013523,0.002678,0.000431,0.195919
65802000,0.0324,0.013523,0.002678,0.000431,0.549562
65803000,0.0324,0.013523,0.002678,0.000431,0.218250
65804000,0.0324,0.013523,0.002678,0.000431,0.195214
65805000,0.0324,0.013523,0.002678,0.000431,0.149143
65806000,0.0324,0.013523,0.002678,0.000431,0.123052
65807000,0.0324,0.013523,0.002678,0.000431,0.116705
65808000,0.0324,0.013523,0.002678,0.000431,0.095080
65809000,0.0324,0.013523,0.002678,0.000431,0.066638
65810000,0.0324,0.013523,0.002678,0.000431,0.057941
65811000,0.0324,0.013523,0.002678,0.000431,0.043015
65812000,0.0324,0.013523,0.002678,0.000431,0.047011
65813000,0.0324,0.013523,0.002678,0.000431,0.029852
65814000,0.0324,0.013523,0.002678,0.000431,0.023271
65815000,0.0324,0.013523,0.002678,0.000431,0.017512
65816000,0.0324,0.013523,0.002678,0.000431,0.022683
65817000,0.0324,0.013523,0.002678,0.000431,0.018687
65818000,0.0324,0.013523,0.002678,0.000431,0.014221
65819000,0.0324,0.013523,0.002678,0.000431,0.002938
65820000,0.0324,0.013523,0.002678,0.000431,0.267494
65821000,0.0324,0.013523,0.002678,0.000431,0.826811
65822000,0.0324,0.013523,0.002678,0.000431,0.369861
65823000,0.0324,0.013523,0.002678,0.000431,0.141857
65824000,0.0324,0.013523,0.002678,0.000431,0.536046
65825000,0.0324,0.013523,0.002678,0.000431,0.275486
65826000,0.0324,0.013523,0.002678,0.000431,0.288767
65827000,0.0324,0.013523,0.002678,0.000431,0.196155
65828000,0.0324,0.013523,0.002678,0.000431,0.182874
65829000,0.0324,0.013523,0.002678,0.000431,0.102132
65830000,0.0324,0.013523,0.002678,0.000431,0.540982
65831000,0.0324,0.013523,0.002678,0.000431,0.262558
65832000,0.0324,0.013523,0.002678,0.000431,0.181699
65833000,0.0324,0.013523,0.002678,0.000431,0.154550
65834000,0.0324,0.013523,0.002678,0.000431,0.147850
65835000,0.0324,0.013523,0.002678,0.000431,0.104483
65836000,0.0324,0.013523,0.002678,0.000431,0.090027
65837000,0.0324,0.013523,0.002678,0.000431,0.063348
65838000,0.0324,0.013523,0.002678,0.000431,0.047951
65839000,0.0324,0.013523,0.002678,0.000431,0.047716
65840000,0.0324,0.013523,0.002678,0.000431,0.044896
65841000,0.0324,0.013523,0.002678,0.000431,0.040547
65842000,0.0324,0.013523,0.002678,0.000431,0.027149
65843000,0.0324,0.013523,0.002678,0.000431,0.028442
65844000,0.0324,0.013523,0.002678,0.000431,0.026209
65845000,0.0324,0.013523,0.002678,0.000431,0.018569
65846000,0.0324,0.013523,0.002678,0.000431,0.014809
65847000,0.0324,0.013523,0.002678,0.000431,0.008815
65848000,0.0324,0.013523,0.002678,0.000431,0.011753
65849000,0.0324,0.013523,0.002678,0.000431,0.007874
65850000,0.0324,0.013523,0.002678,0.000431,0.007169
65851000,0.0324,0.013523,0.002678,0.000431,0.007052
65852000,0.0324,0.013523,0.002678,0.000431,0.008109
65853000,0.0324,0.013523,0.002678,0.000431,0.008932
65854000,0.0324,0.013523,0.002678,0.000431,0.005876
65855000,0.0324,0.013523,0.002678,0.000431,0.005289
65856000,0.0324,0.013523,0.002678,0.000431,0.007639
65857000,0.0324,0.013523,0.002678,0.000431,0.004466
65858000,0.0324,0.013523,0.002678,0.000431,0.005289
65859000,0.0324,0.013523,0.002678,0.000431,0.005171
65860000,0.0324,0.013523,0.002678,0.000431,0.002468
65861000,0.0324,0.013523,0.002678,0.000431,0.002938
65862000,0.0324,0.013523,0.002678,0.000431,0.002468
65863000,0.0324,0.013523,0.002678,0.000431,0.008932
65864000,0.0324,0.013523,0.002678,0.000431,0.000705
65865000,0.0324,0.013523,0.002678,0.000431,0.000823
65866000,0.0324,0.013523,0.002678,0.000431,0.000940
65867000,0.0324,0.013523,0.002678,0.000431,0.000823
65868000,0.0324,0.013523,0.002678,0.000431,0.000823
65869000,0.0324,0.013523,0.002678,0.000431,0.000823
65870000,0.0324,0.013523,0.002678,0.000431,0.000705
65871000,0.0324,0.013523,0.002678,0.000431,0.000940
65872000,0.0324,0.013523,0.002678,0.000431,0.000940
65873000,0.0324,0.013523,0.002678,0.000431,0.000705
65874000,0.0324,0.013523,0.002678,0.000431,0.000940
65875000,0.0324,0.013523,0.002678,0.000431,0.000705
65876000,0.0324,0.013523,0.002678,0.000431,0.000940
65877000,0.0324,0.013523,0.002678,0.000431,0.000940
65878000,0.0324,0.013523,0.002678,0.000431,0.000705
65879000,0.0324,0.013523,0.002678,0.000431,0.000705
65880000,0.0324,0.013523,0.002678,0.000431,0.000940
65881000,0.0324,0.013523,0.002678,0.000431,0.211433
65882000,0.0324,0.013523,0.002678,0.000431,0.709753
65883000,0.0324,0.013523,0.002678,0.000431,0.483393
65884000,0.0324,0.013523,0.002678,0.000431,0.136333
65885000,0.0324,0.013523,0.002678,0.000431,0.435324
65886000,0.0324,0.013523,0.002678,0.000431,0.348471
65887000,0.0324,0.013523,0.002678,0.000431,0.287709
65888000,0.0324,0.013523,0.002678,0.000431,0.232353
65889000,0.0324,0.013523,0.002678,0.000431,0.160661
65890000,0.0324,0.013523,0.002678,0.000431,0.116000
65891000,0.0324,0.013523,0.002678,0.000431,0.490210
65892000,0.0324,0.013523,0.002678,0.000431,0.357756
65893000,0.0324,0.013523,0.002678,0.000431,0.206850
65894000,0.0324,0.013523,0.002678,0.000431,0.182991
65895000,0.0324,0.013523,0.002678,0.000431,0.155255
65896000,0.0324,0.013523,0.002678,0.000431,0.140211
65897000,0.0324,0.013523,0.002678,0.000431,0.113767
65898000,0.0324,0.013523,0.002678,0.000431,0.099899
65899000,0.0324,0.013523,0.002678,0.000431,0.066521
65900000,0.0324,0.013523,0.002678,0.000431,0.062995
65901000,0.0324,0.013523,0.002678,0.000431,0.042780
65902000,0.0324,0.013523,0.002678,0.000431,0.053123
65903000,0.0324,0.013523,0.002678,0.000431,0.023271
65904000,0.0324,0.013523,0.002678,0.000431,0.030087
65905000,0.0324,0.013523,0.002678,0.000431,0.016924
65906000,0.0324,0.013523,0.002678,0.000431,0.024563
65907000,0.0324,0.013523,0.002678,0.000431,0.012458
65908000,0.0324,0.013523,0.002678,0.000431,0.008815
65909000,0.0324,0.013523,0.002678,0.000431,0.015631
65910000,0.0324,0.013523,0.002678,0.000431,0.004231
65911000,0.0324,0.013523,0.002678,0.000431,0.002233
65912000,0.0324,0.013523,0.002678,0.000431,0.003996
65913000,0.0324,0.013523,0.002678,0.000431,0.000823
65914000,0.0324,0.013523,0.002678,0.000431,0.323790
65915000,0.0324,0.013523,0.002678,0.000431,0.831864
65916000,0.0324,0.013523,0.002678,0.000431,0.336601
65917000,0.0324,0.013523,0.002678,0.000431,0.156195
65918000,0.0324,0.013523,0.002678,0.000431,0.541805
65919000,0.0324,0.013523,0.002678,0.000431,0.241168
65920000,0.0324,0.013523,0.002678,0.000431,0.334603
65921000,0.0324,0.013523,0.002678,0.000431,0.169123
65922000,0.0324,0.013523,0.002678,0.000431,0.173237
65923000,0.0324,0.013523,0.002678,0.000431,0.169241
65924000,0.0324,0.013523,0.002678,0.000431,0.547446
65925000,0.0324,0.013523,0.002678,0.000431,0.198623
65926000,0.0324,0.013523,0.002678,0.000431,0.167948
65927000,0.0324,0.013523,0.002678,0.000431,0.138918
65928000,0.0324,0.013523,0.002678,0.000431,0.111299
65929000,0.0324,0.013523,0.002678,0.000431,0.094728
65930000,0.0324,0.013523,0.002678,0.000431,0.078626
65931000,0.0324,0.013523,0.002678,0.000431,0.045248
65932000,0.0324,0.013523,0.002678,0.000431,0.026679
65933000,0.0324,0.013523,0.002678,0.000431,0.018334
65934000,0.0324,0.013523,0.002678,0.000431,0.018687
65935000,0.0324,0.013523,0.002678,0.000431,0.012811
65936000,0.0324,0.013523,0.002678,0.000431,0.014809
65937000,0.0324,0.013523,0.002678,0.000431,0.003056
65938000,0.0324,0.013523,0.002678,0.000431,0.001763
65939000,0.0324,0.013523,0.002678,0.000431,0.001645
65940000,0.0324,0.013523,0.002678,0.000431,0.001763
65941000,0.0324,0.013523,0.002678,0.000431,0.001410
65942000,0.0324,0.013523,0.002678,0.000431,0.003878
65943000,0.0324,0.013523,0.002678,0.000431,0.000823
65944000,0.0324,0.013523,0.002678,0.000431,0.000823
65945000,0.0324,0.013523,0.002678,0.000431,0.000823
65946000,0.0324,0.013523,0.002678,0.000431,0.000823
65947000,0.0324,0.013523,0.002678,0.000431,0.000823
65948000,0.0324,0.013523,0.002678,0.000431,0.000823
65949000,0.0324,0.013523,0.002678,0.000431,0.000940
65950000,0.0324,0.013523,0.002678,0.000431,0.000705
65951000,0.0324,0.013523,0.002678,0.000431,0.000940
65952000,0.0324,0.013523,0.002678,0.000431,0.000823
65953000,0.0324,0.013523,0.002678,0.000431,0.000823
65954000,0.0324,0.013523,0.002678,0.000431,0.000705
65955000,0.0324,0.013523,0.002678,0.000431,0.000940
65956000,0.0324,0.013523,0.002678,0.000431,0.000940
65957000,0.0324,0.013523,0.002678,0.000431,0.000705
65958000,0.0324,0.013523,0.002678,0.000431,0.000940
65959000,0.0324,0.013523,0.002678,0.000431,0.000705
65960000,0.0324,0.013523,0.002678,0.000431,0.000940
65961000,0.0324,0.013523,0.002678,0.000431,0.000823
65962000,0.0324,0.013523,0.002678,0.000431,0.000823
65963000,0.0324,0.013523,0.002678,0.000431,0.000940
65964000,0.0324,0.013523,0.002678,0.000431,0.000705
65965000,0.0324,0.013523,0.002678,0.000431,0.000823
65966000,0.0324,0.013523,0.002678,0.000431,0.000823
65967000,0.0324,0.013523,0.002678,0.000431,0.000940
65968000,0.0324,0.013523,0.002678,0.000431,0.000705
65969000,0.0324,0.013523,0.002678,0.000431,0.072280
65970000,0.0324,0.013523,0.002678,0.000431,0.769339
65971000,0.0324,0.013523,0.002678,0.000431,0.535106
65972000,0.0324,0.013523,0.002678,0.000431,0.140564
65973000,0.0324,0.013523,0.002678,0.000431,0.294643
65974000,0.0324,0.013523,0.002678,0.000431,0.464706
65975000,0.0324,0.013523,0.002678,0.000431,0.265261
65976000,0.0324,0.013523,0.002678,0.000431,0.248925
65977000,0.0324,0.013523,0.002678,0.000431,0.176292
65978000,0.0324,0.013523,0.002678,0.000431,0.102485
65979000,0.0324,0.013523,0.002678,0.000431,0.530757
65980000,0.0324,0.013523,0.002678,0.000431,0.353055
65981000,0.0324,0.013523,0.002678,0.000431,0.229062
65982000,0.0324,0.013523,0.002678,0.000431,0.207085
65983000,0.0324,0.013523,0.002678,0.000431,0.160896
65984000,0.0324,0.013523,0.002678,0.000431,0.143149
65985000,0.0324,0.013523,0.002678,0.000431,0.099546
65986000,0.0324,0.013523,0.002678,0.000431,0.086853
65987000,0.0324,0.013523,0.002678,0.000431,0.064876
65988000,0.0324,0.013523,0.002678,0.000431,0.044543
65989000,0.0324,0.013523,0.002678,0.000431,0.045131
65990000,0.0324,0.013523,0.002678,0.000431,0.041958
65991000,0.0324,0.013523,0.002678,0.000431,0.034553
65992000,0.0324,0.013523,0.002678,0.000431,0.029617
65993000,0.0324,0.013523,0.002678,0.000431,0.023976
65994000,0.0324,0.013523,0.002678,0.000431,0.022683
65995000,0.0324,0.013523,0.002678,0.000431,0.018922
65996000,0.0324,0.013523,0.002678,0.000431,0.022565
65997000,0.0324,0.013523,0.002678,0.000431,0.013516
65998000,0.0324,0.013523,0.002678,0.000431,0.004349
65999000,0.0324,0.013523,0.002678,0.000431,0.005289
