Cycle,Area(mm^2),PeakDynamic(W),SubthresholdLeakage(W),GateLeakage(W),RunTimeDynamic(W)
58000000,0.0324,0.013523,0.002678,0.000431,0.011870
58001000,0.0324,0.013523,0.002678,0.000431,0.011400
58002000,0.0324,0.013523,0.002678,0.000431,0.005876
58003000,0.0324,0.013523,0.002678,0.000431,0.004231
58004000,0.0324,0.013523,0.002678,0.000431,0.003643
58005000,0.0324,0.013523,0.002678,0.000431,0.004113
58006000,0.0324,0.013523,0.002678,0.000431,0.004349
58007000,0.0324,0.013523,0.002678,0.000431,0.005054
58008000,0.0324,0.013523,0.002678,0.000431,0.003761
58009000,0.0324,0.013523,0.002678,0.000431,0.002586
58010000,0.0324,0.013523,0.002678,0.000431,0.003526
58011000,0.0324,0.013523,0.002678,0.000431,0.003173
58012000,0.0324,0.013523,0.002678,0.000431,0.003761
58013000,0.0324,0.013523,0.002678,0.000431,0.002586
58014000,0.0324,0.013523,0.002678,0.000431,0.002468
58015000,0.0324,0.013523,0.002678,0.000431,0.002468
58016000,0.0324,0.013523,0.002678,0.000431,0.001880
58017000,0.0324,0.013523,0.002678,0.000431,0.002468
58018000,0.0324,0.013523,0.002678,0.000431,0.002468
58019000,0.0324,0.013523,0.002678,0.000431,0.001998
58020000,0.0324,0.013523,0.002678,0.000431,0.002468
58021000,0.0324,0.013523,0.002678,0.000431,0.002351
58022000,0.0324,0.013523,0.002678,0.000431,0.002116
58023000,0.0324,0.013523,0.002678,0.000431,0.002821
58024000,0.0324,0.013523,0.002678,0.000431,0.001410
58025000,0.0324,0.013523,0.002678,0.000431,0.002116
58026000,0.0324,0.013523,0.002678,0.000431,0.002468
58027000,0.0324,0.013523,0.002678,0.000431,0.002468
58028000,0.0324,0.013523,0.002678,0.000431,0.003056
58029000,0.0324,0.013523,0.002678,0.000431,0.000940
58030000,0.0324,0.013523,0.002678,0.000431,0.000705
58031000,0.0324,0.013523,0.002678,0.000431,0.001998
58032000,0.0324,0.013523,0.002678,0.000431,0.506899
58033000,0.0324,0.013523,0.002678,0.000431,0.732671
58034000,0.0324,0.013523,0.002678,0.000431,0.167948
58035000,0.0324,0.013523,0.002678,0.000431,0.135863
58036000,0.0324,0.013523,0.002678,0.000431,0.495029
58037000,0.0324,0.013523,0.002678,0.000431,0.236114
58038000,0.0324,0.013523,0.002678,0.000431,0.302282
58039000,0.0324,0.013523,0.002678,0.000431,0.216134
58040000,0.0324,0.013523,0.002678,0.000431,0.164539
58041000,0.0324,0.013523,0.002678,0.000431,0.115765
58042000,0.0324,0.013523,0.002678,0.000431,0.462003
58043000,0.0324,0.013523,0.002678,0.000431,0.269962
58044000,0.0324,0.013523,0.002678,0.000431,0.152317
58045000,0.0324,0.013523,0.002678,0.000431,0.136568
58046000,0.0324,0.013523,0.002678,0.000431,0.117411
58047000,0.0324,0.013523,0.002678,0.000431,0.093435
58048000,0.0324,0.013523,0.002678,0.000431,0.080859
58049000,0.0324,0.013523,0.002678,0.000431,0.056296
58050000,0.0324,0.013523,0.002678,0.000431,0.053828
58051000,0.0324,0.013523,0.002678,0.000431,0.033966
58052000,0.0324,0.013523,0.002678,0.000431,0.028912
58053000,0.0324,0.013523,0.002678,0.000431,0.021155
58054000,0.0324,0.013523,0.002678,0.000431,0.016689
58055000,0.0324,0.013523,0.002678,0.000431,0.011283
58056000,0.0324,0.013523,0.002678,0.000431,0.008227
58057000,0.0324,0.013523,0.002678,0.000431,0.011988
58058000,0.0324,0.013523,0.002678,0.000431,0.008109
58059000,0.0324,0.013523,0.002678,0.000431,0.005054
58060000,0.0324,0.013523,0.002678,0.000431,0.008697
58061000,0.0324,0.013523,0.002678,0.000431,0.005994
58062000,0.0324,0.013523,0.002678,0.000431,0.003408
58063000,0.0324,0.013523,0.002678,0.000431,0.002821
58064000,0.0324,0.013523,0.002678,0.000431,0.001410
58065000,0.0324,0.013523,0.002678,0.000431,0.002468
58066000,0.0324,0.013523,0.002678,0.000431,0.001528
58067000,0.0324,0.013523,0.002678,0.000431,0.001410
58068000,0.0324,0.013523,0.002678,0.000431,0.002468
58069000,0.0324,0.013523,0.002678,0.000431,0.366100
58070000,0.0324,0.013523,0.002678,0.000431,0.768282
58071000,0.0324,0.013523,0.002678,0.000431,0.222011
58072000,0.0324,0.013523,0.002678,0.000431,0.136803
58073000,0.0324,0.013523,0.002678,0.000431,0.530052
58074000,0.0324,0.013523,0.002678,0.000431,0.263028
58075000,0.0324,0.013523,0.002678,0.000431,0.287709
58076000,0.0324,0.013523,0.002678,0.000431,0.224714
58077000,0.0324,0.013523,0.002678,0.000431,0.170298
58078000,0.0324,0.013523,0.002678,0.000431,0.101897
58079000,0.0324,0.013523,0.002678,0.000431,0.544743
58080000,0.0324,0.013523,0.002678,0.000431,0.235997
58081000,0.0324,0.013523,0.002678,0.000431,0.168300
58082000,0.0324,0.013523,0.002678,0.000431,0.149613
58083000,0.0324,0.013523,0.002678,0.000431,0.128223
58084000,0.0324,0.013523,0.002678,0.000431,0.122112
58085000,0.0324,0.013523,0.002678,0.000431,0.071222
58086000,0.0324,0.013523,0.002678,0.000431,0.070164
58087000,0.0324,0.013523,0.002678,0.000431,0.048069
58088000,0.0324,0.013523,0.002678,0.000431,0.022800
58089000,0.0324,0.013523,0.002678,0.000431,0.017394
58090000,0.0324,0.013523,0.002678,0.000431,0.009755
58091000,0.0324,0.013523,0.002678,0.000431,0.006934
58092000,0.0324,0.013523,0.002678,0.000431,0.009520
58093000,0.0324,0.013523,0.002678,0.000431,0.006464
58094000,0.0324,0.013523,0.002678,0.000431,0.005641
58095000,0.0324,0.013523,0.002678,0.000431,0.001645
58096000,0.0324,0.013523,0.002678,0.000431,0.001528
58097000,0.0324,0.013523,0.002678,0.000431,0.004584
58098000,0.0324,0.013523,0.002678,0.000431,0.000940
58099000,0.0324,0.013523,0.002678,0.000431,0.000823
58100000,0.0324,0.013523,0.002678,0.000431,0.000823
58101000,0.0324,0.013523,0.002678,0.000431,0.002351
58102000,0.0324,0.013523,0.002678,0.000431,0.612204
58103000,0.0324,0.013523,0.002678,0.000431,0.684954
58104000,0.0324,0.013523,0.002678,0.000431,0.138566
58105000,0.0324,0.013523,0.002678,0.000431,0.137273
58106000,0.0324,0.013523,0.002678,0.000431,0.593282
58107000,0.0324,0.013523,0.002678,0.000431,0.271608
58108000,0.0324,0.013523,0.002678,0.000431,0.307101
58109000,0.0324,0.013523,0.002678,0.000431,0.149143
58110000,0.0324,0.013523,0.002678,0.000431,0.163952
58111000,0.0324,0.013523,0.002678,0.000431,0.154902
58112000,0.0324,0.013523,0.002678,0.000431,0.542863
58113000,0.0324,0.013523,0.002678,0.000431,0.193451
58114000,0.0324,0.013523,0.002678,0.000431,0.160308
58115000,0.0324,0.013523,0.002678,0.000431,0.140329
58116000,0.0324,0.013523,0.002678,0.000431,0.106716
58117000,0.0324,0.013523,0.002678,0.000431,0.098724
58118000,0.0324,0.013523,0.002678,0.000431,0.078626
58119000,0.0324,0.013523,0.002678,0.000431,0.058999
58120000,0.0324,0.013523,0.002678,0.000431,0.036199
58121000,0.0324,0.013523,0.002678,0.000431,0.030557
58122000,0.0324,0.013523,0.002678,0.000431,0.028559
58123000,0.0324,0.013523,0.002678,0.000431,0.025034
58124000,0.0324,0.013523,0.002678,0.000431,0.021860
58125000,0.0324,0.013523,0.002678,0.000431,0.017277
58126000,0.0324,0.013523,0.002678,0.000431,0.018452
58127000,0.0324,0.013523,0.002678,0.000431,0.014691
58128000,0.0324,0.013523,0.002678,0.000431,0.013868
58129000,0.0324,0.013523,0.002678,0.000431,0.009637
58130000,0.0324,0.013523,0.002678,0.000431,0.005994
58131000,0.0324,0.013523,0.002678,0.000431,0.005759
58132000,0.0324,0.013523,0.002678,0.000431,0.005289
58133000,0.0324,0.013523,0.002678,0.000431,0.008815
58134000,0.0324,0.013523,0.002678,0.000431,0.003408
58135000,0.0324,0.013523,0.002678,0.000431,0.003643
58136000,0.0324,0.013523,0.002678,0.000431,0.003526
58137000,0.0324,0.013523,0.002678,0.000431,0.003291
58138000,0.0324,0.013523,0.002678,0.000431,0.003173
58139000,0.0324,0.013523,0.002678,0.000431,0.003526
58140000,0.0324,0.013523,0.002678,0.000431,0.003878
58141000,0.0324,0.013523,0.002678,0.000431,0.003056
58142000,0.0324,0.013523,0.002678,0.000431,0.002351
58143000,0.0324,0.013523,0.002678,0.000431,0.003173
58144000,0.0324,0.013523,0.002678,0.000431,0.012458
58145000,0.0324,0.013523,0.002678,0.000431,0.669676
58146000,0.0324,0.013523,0.002678,0.000431,0.630539
58147000,0.0324,0.013523,0.002678,0.000431,0.136568
58148000,0.0324,0.013523,0.002678,0.000431,0.135745
58149000,0.0324,0.013523,0.002678,0.000431,0.530640
58150000,0.0324,0.013523,0.002678,0.000431,0.242226
58151000,0.0324,0.013523,0.002678,0.000431,0.357638
58152000,0.0324,0.013523,0.002678,0.000431,0.159133
58153000,0.0324,0.013523,0.002678,0.000431,0.154079
58154000,0.0324,0.013523,0.002678,0.000431,0.194157
58155000,0.0324,0.013523,0.002678,0.000431,0.539689
58156000,0.0324,0.013523,0.002678,0.000431,0.219895
58157000,0.0324,0.013523,0.002678,0.000431,0.187340
58158000,0.0324,0.013523,0.002678,0.000431,0.164187
58159000,0.0324,0.013523,0.002678,0.000431,0.133159
58160000,0.0324,0.013523,0.002678,0.000431,0.123405
58161000,0.0324,0.013523,0.002678,0.000431,0.086971
58162000,0.0324,0.013523,0.002678,0.000431,0.071105
58163000,0.0324,0.013523,0.002678,0.000431,0.061702
58164000,0.0324,0.013523,0.002678,0.000431,0.043485
58165000,0.0324,0.013523,0.002678,0.000431,0.040312
58166000,0.0324,0.013523,0.002678,0.000431,0.046424
58167000,0.0324,0.013523,0.002678,0.000431,0.025621
58168000,0.0324,0.013523,0.002678,0.000431,0.021038
58169000,0.0324,0.013523,0.002678,0.000431,0.011518
58170000,0.0324,0.013523,0.002678,0.000431,0.002468
58171000,0.0324,0.013523,0.002678,0.000431,0.005876
58172000,0.0324,0.013523,0.002678,0.000431,0.004113
58173000,0.0324,0.013523,0.002678,0.000431,0.000823
58174000,0.0324,0.013523,0.002678,0.000431,0.000823
58175000,0.0324,0.013523,0.002678,0.000431,0.000823
58176000,0.0324,0.013523,0.002678,0.000431,0.000823
58177000,0.0324,0.013523,0.002678,0.000431,0.000940
58178000,0.0324,0.013523,0.002678,0.000431,0.000705
58179000,0.0324,0.013523,0.002678,0.000431,0.000823
58180000,0.0324,0.013523,0.002678,0.000431,0.000940
58181000,0.0324,0.013523,0.002678,0.000431,0.000705
58182000,0.0324,0.013523,0.002678,0.000431,0.000823
58183000,0.0324,0.013523,0.002678,0.000431,0.000940
58184000,0.0324,0.013523,0.002678,0.000431,0.000940
58185000,0.0324,0.013523,0.002678,0.000431,0.000940
58186000,0.0324,0.013523,0.002678,0.000431,0.000940
58187000,0.0324,0.013523,0.002678,0.000431,0.000940
58188000,0.0324,0.013523,0.002678,0.000431,0.000823
58189000,0.0324,0.013523,0.002678,0.000431,0.000823
58190000,0.0324,0.013523,0.002678,0.000431,0.000940
58191000,0.0324,0.013523,0.002678,0.000431,0.266907
58192000,0.0324,0.013523,0.002678,0.000431,0.780505
58193000,0.0324,0.013523,0.002678,0.000431,0.405942
58194000,0.0324,0.013523,0.002678,0.000431,0.135392
58195000,0.0324,0.013523,0.002678,0.000431,0.520650
58196000,0.0324,0.013523,0.002678,0.000431,0.311567
58197000,0.0324,0.013523,0.002678,0.000431,0.246574
58198000,0.0324,0.013523,0.002678,0.000431,0.230708
58199000,0.0324,0.013523,0.002678,0.000431,0.152081
58200000,0.0324,0.013523,0.002678,0.000431,0.117293
58201000,0.0324,0.013523,0.002678,0.000431,0.453894
58202000,0.0324,0.013523,0.002678,0.000431,0.386903
58203000,0.0324,0.013523,0.002678,0.000431,0.226947
58204000,0.0324,0.013523,0.002678,0.000431,0.198153
58205000,0.0324,0.013523,0.002678,0.000431,0.170886
58206000,0.0324,0.013523,0.002678,0.000431,0.144325
58207000,0.0324,0.013523,0.002678,0.000431,0.126225
58208000,0.0324,0.013523,0.002678,0.000431,0.088851
58209000,0.0324,0.013523,0.002678,0.000431,0.080742
58210000,0.0324,0.013523,0.002678,0.000431,0.062525
58211000,0.0324,0.013523,0.002678,0.000431,0.046776
58212000,0.0324,0.013523,0.002678,0.000431,0.032203
58213000,0.0324,0.013523,0.002678,0.000431,0.030322
58214000,0.0324,0.013523,0.002678,0.000431,0.014338
58215000,0.0324,0.013523,0.002678,0.000431,0.012340
58216000,0.0324,0.013523,0.002678,0.000431,0.010813
58217000,0.0324,0.013523,0.002678,0.000431,0.015279
58218000,0.0324,0.013523,0.002678,0.000431,0.010225
58219000,0.0324,0.013523,0.002678,0.000431,0.011635
58220000,0.0324,0.013523,0.002678,0.000431,0.005406
58221000,0.0324,0.013523,0.002678,0.000431,0.005524
58222000,0.0324,0.013523,0.002678,0.000431,0.008462
58223000,0.0324,0.013523,0.002678,0.000431,0.009520
58224000,0.0324,0.013523,0.002678,0.000431,0.003526
58225000,0.0324,0.013523,0.002678,0.000431,0.003056
58226000,0.0324,0.013523,0.002678,0.000431,0.003526
58227000,0.0324,0.013523,0.002678,0.000431,0.003056
58228000,0.0324,0.013523,0.002678,0.000431,0.002468
58229000,0.0324,0.013523,0.002678,0.000431,0.002468
58230000,0.0324,0.013523,0.002678,0.000431,0.003761
58231000,0.0324,0.013523,0.002678,0.000431,0.001998
58232000,0.0324,0.013523,0.002678,0.000431,0.516654
58233000,0.0324,0.013523,0.002678,0.000431,0.803893
58234000,0.0324,0.013523,0.002678,0.000431,0.169476
58235000,0.0324,0.013523,0.002678,0.000431,0.136685
58236000,0.0324,0.013523,0.002678,0.000431,0.523118
58237000,0.0324,0.013523,0.002678,0.000431,0.269962
58238000,0.0324,0.013523,0.002678,0.000431,0.280540
58239000,0.0324,0.013523,0.002678,0.000431,0.232706
58240000,0.0324,0.013523,0.002678,0.000431,0.163012
58241000,0.0324,0.013523,0.002678,0.000431,0.114472
58242000,0.0324,0.013523,0.002678,0.000431,0.462003
58243000,0.0324,0.013523,0.002678,0.000431,0.294408
58244000,0.0324,0.013523,0.002678,0.000431,0.186282
58245000,0.0324,0.013523,0.002678,0.000431,0.156077
58246000,0.0324,0.013523,0.002678,0.000431,0.139036
58247000,0.0324,0.013523,0.002678,0.000431,0.129516
58248000,0.0324,0.013523,0.002678,0.000431,0.097196
58249000,0.0324,0.013523,0.002678,0.000431,0.080272
58250000,0.0324,0.013523,0.002678,0.000431,0.077569
58251000,0.0324,0.013523,0.002678,0.000431,0.073103
58252000,0.0324,0.013523,0.002678,0.000431,0.055121
58253000,0.0324,0.013523,0.002678,0.000431,0.043956
58254000,0.0324,0.013523,0.002678,0.000431,0.029382
58255000,0.0324,0.013523,0.002678,0.000431,0.028089
58256000,0.0324,0.013523,0.002678,0.000431,0.027031
58257000,0.0324,0.013523,0.002678,0.000431,0.012693
58258000,0.0324,0.013523,0.002678,0.000431,0.012340
58259000,0.0324,0.013523,0.002678,0.000431,0.009872
58260000,0.0324,0.013523,0.002678,0.000431,0.009520
58261000,0.0324,0.013523,0.002678,0.000431,0.009637
58262000,0.0324,0.013523,0.002678,0.000431,0.011753
58263000,0.0324,0.013523,0.002678,0.000431,0.007757
58264000,0.0324,0.013523,0.002678,0.000431,0.007757
58265000,0.0324,0.013523,0.002678,0.000431,0.009050
58266000,0.0324,0.013523,0.002678,0.000431,0.011165
58267000,0.0324,0.013523,0.002678,0.000431,0.007404
58268000,0.0324,0.013523,0.002678,0.000431,0.007169
58269000,0.0324,0.013523,0.002678,0.000431,0.003291
58270000,0.0324,0.013523,0.002678,0.000431,0.002821
58271000,0.0324,0.013523,0.002678,0.000431,0.003408
58272000,0.0324,0.013523,0.002678,0.000431,0.002821
58273000,0.0324,0.013523,0.002678,0.000431,0.003408
58274000,0.0324,0.013523,0.002678,0.000431,0.002938
58275000,0.0324,0.013523,0.002678,0.000431,0.002821
58276000,0.0324,0.013523,0.002678,0.000431,0.002821
58277000,0.0324,0.013523,0.002678,0.000431,0.002586
58278000,0.0324,0.013523,0.002678,0.000431,0.002821
58279000,0.0324,0.013523,0.002678,0.000431,0.002351
58280000,0.0324,0.013523,0.002678,0.000431,0.002586
58281000,0.0324,0.013523,0.002678,0.000431,0.003408
58282000,0.0324,0.013523,0.002678,0.000431,0.003056
58283000,0.0324,0.013523,0.002678,0.000431,0.001645
58284000,0.0324,0.013523,0.002678,0.000431,0.001528
58285000,0.0324,0.013523,0.002678,0.000431,0.001528
58286000,0.0324,0.013523,0.002678,0.000431,0.001410
58287000,0.0324,0.013523,0.002678,0.000431,0.202854
58288000,0.0324,0.013523,0.002678,0.000431,0.690831
58289000,0.0324,0.013523,0.002678,0.000431,0.475519
58290000,0.0324,0.013523,0.002678,0.000431,0.136803
58291000,0.0324,0.013523,0.002678,0.000431,0.340714
58292000,0.0324,0.013523,0.002678,0.000431,0.421339
58293000,0.0324,0.013523,0.002678,0.000431,0.279952
58294000,0.0324,0.013523,0.002678,0.000431,0.282420
58295000,0.0324,0.013523,0.002678,0.000431,0.152434
58296000,0.0324,0.013523,0.002678,0.000431,0.110594
58297000,0.0324,0.013523,0.002678,0.000431,0.452601
58298000,0.0324,0.013523,0.002678,0.000431,0.280070
58299000,0.0324,0.013523,0.002678,0.000431,0.168653
58300000,0.0324,0.013523,0.002678,0.000431,0.142679
58301000,0.0324,0.013523,0.002678,0.000431,0.124227
58302000,0.0324,0.013523,0.002678,0.000431,0.111417
58303000,0.0324,0.013523,0.002678,0.000431,0.080859
58304000,0.0324,0.013523,0.002678,0.000431,0.064758
58305000,0.0324,0.013523,0.002678,0.000431,0.061820
58306000,0.0324,0.013523,0.002678,0.000431,0.038197
58307000,0.0324,0.013523,0.002678,0.000431,0.028794
58308000,0.0324,0.013523,0.002678,0.000431,0.009050
58309000,0.0324,0.013523,0.002678,0.000431,0.014809
58310000,0.0324,0.013523,0.002678,0.000431,0.000705
58311000,0.0324,0.013523,0.002678,0.000431,0.244929
58312000,0.0324,0.013523,0.002678,0.000431,0.654750
58313000,0.0324,0.013523,0.002678,0.000431,0.437087
58314000,0.0324,0.013523,0.002678,0.000431,0.135510
58315000,0.0324,0.013523,0.002678,0.000431,0.413817
58316000,0.0324,0.013523,0.002678,0.000431,0.295466
58317000,0.0324,0.013523,0.002678,0.000431,0.255036
58318000,0.0324,0.013523,0.002678,0.000431,0.283360
58319000,0.0324,0.013523,0.002678,0.000431,0.159721
58320000,0.0324,0.013523,0.002678,0.000431,0.144560
58321000,0.0324,0.013523,0.002678,0.000431,0.238230
58322000,0.0324,0.013523,0.002678,0.000431,0.515244
58323000,0.0324,0.013523,0.002678,0.000431,0.197330
58324000,0.0324,0.013523,0.002678,0.000431,0.184402
58325000,0.0324,0.013523,0.002678,0.000431,0.149026
58326000,0.0324,0.013523,0.002678,0.000431,0.114472
58327000,0.0324,0.013523,0.002678,0.000431,0.098136
58328000,0.0324,0.013523,0.002678,0.000431,0.111182
58329000,0.0324,0.013523,0.002678,0.000431,0.066638
58330000,0.0324,0.013523,0.002678,0.000431,0.053358
58331000,0.0324,0.013523,0.002678,0.000431,0.037844
58332000,0.0324,0.013523,0.002678,0.000431,0.023976
58333000,0.0324,0.013523,0.002678,0.000431,0.021038
58334000,0.0324,0.013523,0.002678,0.000431,0.022448
58335000,0.0324,0.013523,0.002678,0.000431,0.013751
58336000,0.0324,0.013523,0.002678,0.000431,0.009285
58337000,0.0324,0.013523,0.002678,0.000431,0.001998
58338000,0.0324,0.013523,0.002678,0.000431,0.002351
58339000,0.0324,0.013523,0.002678,0.000431,0.001763
58340000,0.0324,0.013523,0.002678,0.000431,0.002116
58341000,0.0324,0.013523,0.002678,0.000431,0.002233
58342000,0.0324,0.013523,0.002678,0.000431,0.001998
58343000,0.0324,0.013523,0.002678,0.000431,0.001880
58344000,0.0324,0.013523,0.002678,0.000431,0.002233
58345000,0.0324,0.013523,0.002678,0.000431,0.001645
58346000,0.0324,0.013523,0.002678,0.000431,0.003761
58347000,0.0324,0.013523,0.002678,0.000431,0.000940
58348000,0.0324,0.013523,0.002678,0.000431,0.000940
58349000,0.0324,0.013523,0.002678,0.000431,0.186400
58350000,0.0324,0.013523,0.002678,0.000431,0.721623
58351000,0.0324,0.013523,0.002678,0.000431,0.488682
58352000,0.0324,0.013523,0.002678,0.000431,0.135863
58353000,0.0324,0.013523,0.002678,0.000431,0.170533
58354000,0.0324,0.013523,0.002678,0.000431,0.539454
58355000,0.0324,0.013523,0.002678,0.000431,0.266201
58356000,0.0324,0.013523,0.002678,0.000431,0.313095
58357000,0.0324,0.013523,0.002678,0.000431,0.145735
58358000,0.0324,0.013523,0.002678,0.000431,0.177938
58359000,0.0324,0.013523,0.002678,0.000431,0.112122
58360000,0.0324,0.013523,0.002678,0.000431,0.546976
58361000,0.0324,0.013523,0.002678,0.000431,0.222833
58362000,0.0324,0.013523,0.002678,0.000431,0.174529
58363000,0.0324,0.013523,0.002678,0.000431,0.151729
58364000,0.0324,0.013523,0.002678,0.000431,0.110594
58365000,0.0324,0.013523,0.002678,0.000431,0.093200
58366000,0.0324,0.013523,0.002678,0.000431,0.088264
58367000,0.0324,0.013523,0.002678,0.000431,0.062407
58368000,0.0324,0.013523,0.002678,0.000431,0.055356
58369000,0.0324,0.013523,0.002678,0.000431,0.030910
58370000,0.0324,0.013523,0.002678,0.000431,0.029617
58371000,0.0324,0.013523,0.002678,0.000431,0.015866
58372000,0.0324,0.013523,0.002678,0.000431,0.017864
58373000,0.0324,0.013523,0.002678,0.000431,0.012928
58374000,0.0324,0.013523,0.002678,0.000431,0.011988
58375000,0.0324,0.013523,0.002678,0.000431,0.012693
58376000,0.0324,0.013523,0.002678,0.000431,0.007757
58377000,0.0324,0.013523,0.002678,0.000431,0.005524
58378000,0.0324,0.013523,0.002678,0.000431,0.007992
58379000,0.0324,0.013523,0.002678,0.000431,0.000823
58380000,0.0324,0.013523,0.002678,0.000431,0.002821
58381000,0.0324,0.013523,0.002678,0.000431,0.312625
58382000,0.0324,0.013523,0.002678,0.000431,0.765696
58383000,0.0324,0.013523,0.002678,0.000431,0.299697
58384000,0.0324,0.013523,0.002678,0.000431,0.136333
58385000,0.0324,0.013523,0.002678,0.000431,0.493266
58386000,0.0324,0.013523,0.002678,0.000431,0.247514
58387000,0.0324,0.013523,0.002678,0.000431,0.291117
58388000,0.0324,0.013523,0.002678,0.000431,0.242696
58389000,0.0324,0.013523,0.002678,0.000431,0.162894
58390000,0.0324,0.013523,0.002678,0.000431,0.118351
58391000,0.0324,0.013523,0.002678,0.000431,0.452954
58392000,0.0324,0.013523,0.002678,0.000431,0.274546
58393000,0.0324,0.013523,0.002678,0.000431,0.142562
58394000,0.0324,0.013523,0.002678,0.000431,0.123875
58395000,0.0324,0.013523,0.002678,0.000431,0.109419
58396000,0.0324,0.013523,0.002678,0.000431,0.081917
58397000,0.0324,0.013523,0.002678,0.000431,0.070752
58398000,0.0324,0.013523,0.002678,0.000431,0.044308
58399000,0.0324,0.013523,0.002678,0.000431,0.047951
58400000,0.0324,0.013523,0.002678,0.000431,0.026326
58401000,0.0324,0.013523,0.002678,0.000431,0.017982
58402000,0.0324,0.013523,0.002678,0.000431,0.015514
58403000,0.0324,0.013523,0.002678,0.000431,0.007757
58404000,0.0324,0.013523,0.002678,0.000431,0.008697
58405000,0.0324,0.013523,0.002678,0.000431,0.002938
58406000,0.0324,0.013523,0.002678,0.000431,0.002703
58407000,0.0324,0.013523,0.002678,0.000431,0.003526
58408000,0.0324,0.013523,0.002678,0.000431,0.002938
58409000,0.0324,0.013523,0.002678,0.000431,0.002703
58410000,0.0324,0.013523,0.002678,0.000431,0.002351
58411000,0.0324,0.013523,0.002678,0.000431,0.000823
58412000,0.0324,0.013523,0.002678,0.000431,0.000940
58413000,0.0324,0.013523,0.002678,0.000431,0.000823
58414000,0.0324,0.013523,0.002678,0.000431,0.000940
58415000,0.0324,0.013523,0.002678,0.000431,0.000940
58416000,0.0324,0.013523,0.002678,0.000431,0.000823
58417000,0.0324,0.013523,0.002678,0.000431,0.001058
58418000,0.0324,0.013523,0.002678,0.000431,0.000823
58419000,0.0324,0.013523,0.002678,0.000431,0.000940
58420000,0.0324,0.013523,0.002678,0.000431,0.000940
58421000,0.0324,0.013523,0.002678,0.000431,0.000940
58422000,0.0324,0.013523,0.002678,0.000431,0.000940
58423000,0.0324,0.013523,0.002678,0.000431,0.000940
58424000,0.0324,0.013523,0.002678,0.000431,0.055473
58425000,0.0324,0.013523,0.002678,0.000431,0.668383
58426000,0.0324,0.013523,0.002678,0.000431,0.567309
58427000,0.0324,0.013523,0.002678,0.000431,0.137508
58428000,0.0324,0.013523,0.002678,0.000431,0.169946
58429000,0.0324,0.013523,0.002678,0.000431,0.595163
58430000,0.0324,0.013523,0.002678,0.000431,0.265379
58431000,0.0324,0.013523,0.002678,0.000431,0.309804
58432000,0.0324,0.013523,0.002678,0.000431,0.170886
58433000,0.0324,0.013523,0.002678,0.000431,0.183226
58434000,0.0324,0.013523,0.002678,0.000431,0.087911
58435000,0.0324,0.013523,0.002678,0.000431,0.550502
58436000,0.0324,0.013523,0.002678,0.000431,0.222833
58437000,0.0324,0.013523,0.002678,0.000431,0.175470
58438000,0.0324,0.013523,0.002678,0.000431,0.152669
58439000,0.0324,0.013523,0.002678,0.000431,0.126108
58440000,0.0324,0.013523,0.002678,0.000431,0.101427
58441000,0.0324,0.013523,0.002678,0.000431,0.072632
58442000,0.0324,0.013523,0.002678,0.000431,0.060409
58443000,0.0324,0.013523,0.002678,0.000431,0.050655
58444000,0.0324,0.013523,0.002678,0.000431,0.043603
58445000,0.0324,0.013523,0.002678,0.000431,0.045013
58446000,0.0324,0.013523,0.002678,0.000431,0.032203
58447000,0.0324,0.013523,0.002678,0.000431,0.025504
58448000,0.0324,0.013523,0.002678,0.000431,0.029735
58449000,0.0324,0.013523,0.002678,0.000431,0.020802
58450000,0.0324,0.013523,0.002678,0.000431,0.014926
58451000,0.0324,0.013523,0.002678,0.000431,0.010813
58452000,0.0324,0.013523,0.002678,0.000431,0.008580
58453000,0.0324,0.013523,0.002678,0.000431,0.007639
58454000,0.0324,0.013523,0.002678,0.000431,0.007052
58455000,0.0324,0.013523,0.002678,0.000431,0.006582
58456000,0.0324,0.013523,0.002678,0.000431,0.006347
58457000,0.0324,0.013523,0.002678,0.000431,0.006699
58458000,0.0324,0.013523,0.002678,0.000431,0.006817
58459000,0.0324,0.013523,0.002678,0.000431,0.006464
58460000,0.0324,0.013523,0.002678,0.000431,0.005994
58461000,0.0324,0.013523,0.002678,0.000431,0.006582
58462000,0.0324,0.013523,0.002678,0.000431,0.006699
58463000,0.0324,0.013523,0.002678,0.000431,0.006817
58464000,0.0324,0.013523,0.002678,0.000431,0.006817
58465000,0.0324,0.013523,0.002678,0.000431,0.007287
58466000,0.0324,0.013523,0.002678,0.000431,0.005171
58467000,0.0324,0.013523,0.002678,0.000431,0.005876
58468000,0.0324,0.013523,0.002678,0.000431,0.006464
58469000,0.0324,0.013523,0.002678,0.000431,0.004584
58470000,0.0324,0.013523,0.002678,0.000431,0.006582
58471000,0.0324,0.013523,0.002678,0.000431,0.004819
58472000,0.0324,0.013523,0.002678,0.000431,0.006229
58473000,0.0324,0.013523,0.002678,0.000431,0.005759
58474000,0.0324,0.013523,0.002678,0.000431,0.005289
58475000,0.0324,0.013523,0.002678,0.000431,0.005759
58476000,0.0324,0.013523,0.002678,0.000431,0.005641
58477000,0.0324,0.013523,0.002678,0.000431,0.006229
58478000,0.0324,0.013523,0.002678,0.000431,0.005054
58479000,0.0324,0.013523,0.002678,0.000431,0.005994
58480000,0.0324,0.013523,0.002678,0.000431,0.005759
58481000,0.0324,0.013523,0.002678,0.000431,0.005524
58482000,0.0324,0.013523,0.002678,0.000431,0.005524
58483000,0.0324,0.013523,0.002678,0.000431,0.006111
58484000,0.0324,0.013523,0.002678,0.000431,0.004231
58485000,0.0324,0.013523,0.002678,0.000431,0.005054
58486000,0.0324,0.013523,0.002678,0.000431,0.004231
58487000,0.0324,0.013523,0.002678,0.000431,0.001528
58488000,0.0324,0.013523,0.002678,0.000431,0.001998
58489000,0.0324,0.013523,0.002678,0.000431,0.001763
58490000,0.0324,0.013523,0.002678,0.000431,0.001645
58491000,0.0324,0.013523,0.002678,0.000431,0.001528
58492000,0.0324,0.013523,0.002678,0.000431,0.001998
58493000,0.0324,0.013523,0.002678,0.000431,0.001998
58494000,0.0324,0.013523,0.002678,0.000431,0.001528
58495000,0.0324,0.013523,0.002678,0.000431,0.001880
58496000,0.0324,0.013523,0.002678,0.000431,0.001528
58497000,0.0324,0.013523,0.002678,0.000431,0.001998
58498000,0.0324,0.013523,0.002678,0.000431,0.001645
58499000,0.0324,0.013523,0.002678,0.000431,0.001880
58500000,0.0324,0.013523,0.002678,0.000431,0.001645
58501000,0.0324,0.013523,0.002678,0.000431,0.001763
58502000,0.0324,0.013523,0.002678,0.000431,0.001998
58503000,0.0324,0.013523,0.002678,0.000431,0.001410
58504000,0.0324,0.013523,0.002678,0.000431,0.002116
58505000,0.0324,0.013523,0.002678,0.000431,0.001645
58506000,0.0324,0.013523,0.002678,0.000431,0.001763
58507000,0.0324,0.013523,0.002678,0.000431,0.001998
58508000,0.0324,0.013523,0.002678,0.000431,0.001998
58509000,0.0324,0.013523,0.002678,0.000431,0.001998
58510000,0.0324,0.013523,0.002678,0.000431,0.001410
58511000,0.0324,0.013523,0.002678,0.000431,0.004584
58512000,0.0324,0.013523,0.002678,0.000431,0.542863
58513000,0.0324,0.013523,0.002678,0.000431,0.728087
58514000,0.0324,0.013523,0.002678,0.000431,0.146558
58515000,0.0324,0.013523,0.002678,0.000431,0.148556
58516000,0.0324,0.013523,0.002678,0.000431,0.614437
58517000,0.0324,0.013523,0.002678,0.000431,0.286416
58518000,0.0324,0.013523,0.002678,0.000431,0.279835
58519000,0.0324,0.013523,0.002678,0.000431,0.149496
58520000,0.0324,0.013523,0.002678,0.000431,0.146323
58521000,0.0324,0.013523,0.002678,0.000431,0.238465
58522000,0.0324,0.013523,0.002678,0.000431,0.512658
58523000,0.0324,0.013523,0.002678,0.000431,0.216722
58524000,0.0324,0.013523,0.002678,0.000431,0.191453
58525000,0.0324,0.013523,0.002678,0.000431,0.162306
58526000,0.0324,0.013523,0.002678,0.000431,0.136920
58527000,0.0324,0.013523,0.002678,0.000431,0.114355
58528000,0.0324,0.013523,0.002678,0.000431,0.080389
58529000,0.0324,0.013523,0.002678,0.000431,0.086031
58530000,0.0324,0.013523,0.002678,0.000431,0.068049
58531000,0.0324,0.013523,0.002678,0.000431,0.044426
58532000,0.0324,0.013523,0.002678,0.000431,0.037021
58533000,0.0324,0.013523,0.002678,0.000431,0.030557
58534000,0.0324,0.013523,0.002678,0.000431,0.027502
58535000,0.0324,0.013523,0.002678,0.000431,0.018922
58536000,0.0324,0.013523,0.002678,0.000431,0.017982
58537000,0.0324,0.013523,0.002678,0.000431,0.016924
58538000,0.0324,0.013523,0.002678,0.000431,0.009402
58539000,0.0324,0.013523,0.002678,0.000431,0.012340
58540000,0.0324,0.013523,0.002678,0.000431,0.007757
58541000,0.0324,0.013523,0.002678,0.000431,0.005054
58542000,0.0324,0.013523,0.002678,0.000431,0.004466
58543000,0.0324,0.013523,0.002678,0.000431,0.006934
58544000,0.0324,0.013523,0.002678,0.000431,0.003526
58545000,0.0324,0.013523,0.002678,0.000431,0.003408
58546000,0.0324,0.013523,0.002678,0.000431,0.003643
58547000,0.0324,0.013523,0.002678,0.000431,0.003996
58548000,0.0324,0.013523,0.002678,0.000431,0.003761
58549000,0.0324,0.013523,0.002678,0.000431,0.000940
58550000,0.0324,0.013523,0.002678,0.000431,0.000705
58551000,0.0324,0.013523,0.002678,0.000431,0.000940
58552000,0.0324,0.013523,0.002678,0.000431,0.000705
58553000,0.0324,0.013523,0.002678,0.000431,0.000940
58554000,0.0324,0.013523,0.002678,0.000431,0.000940
58555000,0.0324,0.013523,0.002678,0.000431,0.000705
58556000,0.0324,0.013523,0.002678,0.000431,0.000940
58557000,0.0324,0.013523,0.002678,0.000431,0.000705
58558000,0.0324,0.013523,0.002678,0.000431,0.000940
58559000,0.0324,0.013523,0.002678,0.000431,0.000823
58560000,0.0324,0.013523,0.002678,0.000431,0.000823
58561000,0.0324,0.013523,0.002678,0.000431,0.000823
58562000,0.0324,0.013523,0.002678,0.000431,0.000823
58563000,0.0324,0.013523,0.002678,0.000431,0.000940
58564000,0.0324,0.013523,0.002678,0.000431,0.000705
58565000,0.0324,0.013523,0.002678,0.000431,0.000940
58566000,0.0324,0.013523,0.002678,0.000431,0.000823
58567000,0.0324,0.013523,0.002678,0.000431,0.000823
58568000,0.0324,0.013523,0.002678,0.000431,0.000823
58569000,0.0324,0.013523,0.002678,0.000431,0.000823
58570000,0.0324,0.013523,0.002678,0.000431,0.257622
58571000,0.0324,0.013523,0.002678,0.000431,0.722681
58572000,0.0324,0.013523,0.002678,0.000431,0.450368
58573000,0.0324,0.013523,0.002678,0.000431,0.135863
58574000,0.0324,0.013523,0.002678,0.000431,0.459183
58575000,0.0324,0.013523,0.002678,0.000431,0.332252
58576000,0.0324,0.013523,0.002678,0.000431,0.250218
58577000,0.0324,0.013523,0.002678,0.000431,0.228005
58578000,0.0324,0.013523,0.002678,0.000431,0.157723
58579000,0.0324,0.013523,0.002678,0.000431,0.122112
58580000,0.0324,0.013523,0.002678,0.000431,0.357521
58581000,0.0324,0.013523,0.002678,0.000431,0.380556
58582000,0.0324,0.013523,0.002678,0.000431,0.167830
58583000,0.0324,0.013523,0.002678,0.000431,0.150201
58584000,0.0324,0.013523,0.002678,0.000431,0.144912
58585000,0.0324,0.013523,0.002678,0.000431,0.112474
58586000,0.0324,0.013523,0.002678,0.000431,0.075453
58587000,0.0324,0.013523,0.002678,0.000431,0.088029
58588000,0.0324,0.013523,0.002678,0.000431,0.064523
58589000,0.0324,0.013523,0.002678,0.000431,0.051125
58590000,0.0324,0.013523,0.002678,0.000431,0.037256
58591000,0.0324,0.013523,0.002678,0.000431,0.035023
58592000,0.0324,0.013523,0.002678,0.000431,0.035494
58593000,0.0324,0.013523,0.002678,0.000431,0.025386
58594000,0.0324,0.013523,0.002678,0.000431,0.032790
58595000,0.0324,0.013523,0.002678,0.000431,0.013868
58596000,0.0324,0.013523,0.002678,0.000431,0.013633
58597000,0.0324,0.013523,0.002678,0.000431,0.007169
58598000,0.0324,0.013523,0.002678,0.000431,0.007874
58599000,0.0324,0.013523,0.002678,0.000431,0.002233
58600000,0.0324,0.013523,0.002678,0.000431,0.001880
58601000,0.0324,0.013523,0.002678,0.000431,0.004113
58602000,0.0324,0.013523,0.002678,0.000431,0.000823
58603000,0.0324,0.013523,0.002678,0.000431,0.000823
58604000,0.0324,0.013523,0.002678,0.000431,0.000705
58605000,0.0324,0.013523,0.002678,0.000431,0.000940
58606000,0.0324,0.013523,0.002678,0.000431,0.000940
58607000,0.0324,0.013523,0.002678,0.000431,0.000705
58608000,0.0324,0.013523,0.002678,0.000431,0.000940
58609000,0.0324,0.013523,0.002678,0.000431,0.000705
58610000,0.0324,0.013523,0.002678,0.000431,0.000940
58611000,0.0324,0.013523,0.002678,0.000431,0.000823
58612000,0.0324,0.013523,0.002678,0.000431,0.000823
58613000,0.0324,0.013523,0.002678,0.000431,0.000940
58614000,0.0324,0.013523,0.002678,0.000431,0.000705
58615000,0.0324,0.013523,0.002678,0.000431,0.000940
58616000,0.0324,0.013523,0.002678,0.000431,0.000823
58617000,0.0324,0.013523,0.002678,0.000431,0.000823
58618000,0.0324,0.013523,0.002678,0.000431,0.000823
58619000,0.0324,0.013523,0.002678,0.000431,0.000823
58620000,0.0324,0.013523,0.002678,0.000431,0.000823
58621000,0.0324,0.013523,0.002678,0.000431,0.000823
58622000,0.0324,0.013523,0.002678,0.000431,0.000940
58623000,0.0324,0.013523,0.002678,0.000431,0.000705
58624000,0.0324,0.013523,0.002678,0.000431,0.000940
58625000,0.0324,0.013523,0.002678,0.000431,0.000823
58626000,0.0324,0.013523,0.002678,0.000431,0.000823
58627000,0.0324,0.013523,0.002678,0.000431,0.000940
58628000,0.0324,0.013523,0.002678,0.000431,0.000823
58629000,0.0324,0.013523,0.002678,0.000431,0.000823
58630000,0.0324,0.013523,0.002678,0.000431,0.000823
58631000,0.0324,0.013523,0.002678,0.000431,0.000940
58632000,0.0324,0.013523,0.002678,0.000431,0.000823
58633000,0.0324,0.013523,0.002678,0.000431,0.248220
58634000,0.0324,0.013523,0.002678,0.000431,0.670851
58635000,0.0324,0.013523,0.002678,0.000431,0.449310
58636000,0.0324,0.013523,0.002678,0.000431,0.137743
58637000,0.0324,0.013523,0.002678,0.000431,0.346943
58638000,0.0324,0.013523,0.002678,0.000431,0.357286
58639000,0.0324,0.013523,0.002678,0.000431,0.268082
58640000,0.0324,0.013523,0.002678,0.000431,0.305103
58641000,0.0324,0.013523,0.002678,0.000431,0.150083
58642000,0.0324,0.013523,0.002678,0.000431,0.141269
58643000,0.0324,0.013523,0.002678,0.000431,0.245281
58644000,0.0324,0.013523,0.002678,0.000431,0.450015
58645000,0.0324,0.013523,0.002678,0.000431,0.145147
58646000,0.0324,0.013523,0.002678,0.000431,0.122699
58647000,0.0324,0.013523,0.002678,0.000431,0.109536
58648000,0.0324,0.013523,0.002678,0.000431,0.089204
58649000,0.0324,0.013523,0.002678,0.000431,0.067931
58650000,0.0324,0.013523,0.002678,0.000431,0.056766
58651000,0.0324,0.013523,0.002678,0.000431,0.044308
58652000,0.0324,0.013523,0.002678,0.000431,0.034436
58653000,0.0324,0.013523,0.002678,0.000431,0.030205
58654000,0.0324,0.013523,0.002678,0.000431,0.033848
58655000,0.0324,0.013523,0.002678,0.000431,0.020920
58656000,0.0324,0.013523,0.002678,0.000431,0.012928
58657000,0.0324,0.013523,0.002678,0.000431,0.009990
58658000,0.0324,0.013523,0.002678,0.000431,0.008109
58659000,0.0324,0.013523,0.002678,0.000431,0.007052
58660000,0.0324,0.013523,0.002678,0.000431,0.010460
58661000,0.0324,0.013523,0.002678,0.000431,0.004584
58662000,0.0324,0.013523,0.002678,0.000431,0.005994
58663000,0.0324,0.013523,0.002678,0.000431,0.004584
58664000,0.0324,0.013523,0.002678,0.000431,0.002703
58665000,0.0324,0.013523,0.002678,0.000431,0.004584
58666000,0.0324,0.013523,0.002678,0.000431,0.001410
58667000,0.0324,0.013523,0.002678,0.000431,0.003173
58668000,0.0324,0.013523,0.002678,0.000431,0.000940
58669000,0.0324,0.013523,0.002678,0.000431,0.020802
58670000,0.0324,0.013523,0.002678,0.000431,0.687775
58671000,0.0324,0.013523,0.002678,0.000431,0.558729
58672000,0.0324,0.013523,0.002678,0.000431,0.135040
58673000,0.0324,0.013523,0.002678,0.000431,0.135392
58674000,0.0324,0.013523,0.002678,0.000431,0.600451
58675000,0.0324,0.013523,0.002678,0.000431,0.243989
58676000,0.0324,0.013523,0.002678,0.000431,0.308276
58677000,0.0324,0.013523,0.002678,0.000431,0.165832
58678000,0.0324,0.013523,0.002678,0.000431,0.171591
58679000,0.0324,0.013523,0.002678,0.000431,0.107186
58680000,0.0324,0.013523,0.002678,0.000431,0.523118
58681000,0.0324,0.013523,0.002678,0.000431,0.242813
58682000,0.0324,0.013523,0.002678,0.000431,0.177585
58683000,0.0324,0.013523,0.002678,0.000431,0.158075
58684000,0.0324,0.013523,0.002678,0.000431,0.130926
58685000,0.0324,0.013523,0.002678,0.000431,0.110359
58686000,0.0324,0.013523,0.002678,0.000431,0.088734
58687000,0.0324,0.013523,0.002678,0.000431,0.086266
58688000,0.0324,0.013523,0.002678,0.000431,0.057589
58689000,0.0324,0.013523,0.002678,0.000431,0.044896
58690000,0.0324,0.013523,0.002678,0.000431,0.035964
58691000,0.0324,0.013523,0.002678,0.000431,0.031380
58692000,0.0324,0.013523,0.002678,0.000431,0.021743
58693000,0.0324,0.013523,0.002678,0.000431,0.021273
58694000,0.0324,0.013523,0.002678,0.000431,0.010342
58695000,0.0324,0.013523,0.002678,0.000431,0.005876
58696000,0.0324,0.013523,0.002678,0.000431,0.002351
58697000,0.0324,0.013523,0.002678,0.000431,0.002586
58698000,0.0324,0.013523,0.002678,0.000431,0.003996
58699000,0.0324,0.013523,0.002678,0.000431,0.001645
58700000,0.0324,0.013523,0.002678,0.000431,0.001763
58701000,0.0324,0.013523,0.002678,0.000431,0.001880
58702000,0.0324,0.013523,0.002678,0.000431,0.003408
58703000,0.0324,0.013523,0.002678,0.000431,0.000823
58704000,0.0324,0.013523,0.002678,0.000431,0.000940
58705000,0.0324,0.013523,0.002678,0.000431,0.071810
58706000,0.0324,0.013523,0.002678,0.000431,0.734669
58707000,0.0324,0.013523,0.002678,0.000431,0.552970
58708000,0.0324,0.013523,0.002678,0.000431,0.136215
58709000,0.0324,0.013523,0.002678,0.000431,0.214959
58710000,0.0324,0.013523,0.002678,0.000431,0.498437
58711000,0.0324,0.013523,0.002678,0.000431,0.299814
58712000,0.0324,0.013523,0.002678,0.000431,0.306866
58713000,0.0324,0.013523,0.002678,0.000431,0.157135
58714000,0.0324,0.013523,0.002678,0.000431,0.117176
58715000,0.0324,0.013523,0.002678,0.000431,0.360812
58716000,0.0324,0.013523,0.002678,0.000431,0.372917
58717000,0.0324,0.013523,0.002678,0.000431,0.184402
58718000,0.0324,0.013523,0.002678,0.000431,0.163952
58719000,0.0324,0.013523,0.002678,0.000431,0.121877
58720000,0.0324,0.013523,0.002678,0.000431,0.110359
58721000,0.0324,0.013523,0.002678,0.000431,0.098959
58722000,0.0324,0.013523,0.002678,0.000431,0.076746
58723000,0.0324,0.013523,0.002678,0.000431,0.062525
58724000,0.0324,0.013523,0.002678,0.000431,0.052183
58725000,0.0324,0.013523,0.002678,0.000431,0.036081
58726000,0.0324,0.013523,0.002678,0.000431,0.037256
58727000,0.0324,0.013523,0.002678,0.000431,0.021155
58728000,0.0324,0.013523,0.002678,0.000431,0.026914
58729000,0.0324,0.013523,0.002678,0.000431,0.013163
58730000,0.0324,0.013523,0.002678,0.000431,0.013046
58731000,0.0324,0.013523,0.002678,0.000431,0.010813
58732000,0.0324,0.013523,0.002678,0.000431,0.005171
58733000,0.0324,0.013523,0.002678,0.000431,0.002586
58734000,0.0324,0.013523,0.002678,0.000431,0.005406
58735000,0.0324,0.013523,0.002678,0.000431,0.004113
58736000,0.0324,0.013523,0.002678,0.000431,0.001058
58737000,0.0324,0.013523,0.002678,0.000431,0.001293
58738000,0.0324,0.013523,0.002678,0.000431,0.001293
58739000,0.0324,0.013523,0.002678,0.000431,0.029852
58740000,0.0324,0.013523,0.002678,0.000431,0.728322
58741000,0.0324,0.013523,0.002678,0.000431,0.552030
58742000,0.0324,0.013523,0.002678,0.000431,0.135863
58743000,0.0324,0.013523,0.002678,0.000431,0.139976
58744000,0.0324,0.013523,0.002678,0.000431,0.567896
58745000,0.0324,0.013523,0.002678,0.000431,0.249747
58746000,0.0324,0.013523,0.002678,0.000431,0.312742
58747000,0.0324,0.013523,0.002678,0.000431,0.145617
58748000,0.0324,0.013523,0.002678,0.000431,0.181464
58749000,0.0324,0.013523,0.002678,0.000431,0.093670
58750000,0.0324,0.013523,0.002678,0.000431,0.558259
58751000,0.0324,0.013523,0.002678,0.000431,0.206144
58752000,0.0324,0.013523,0.002678,0.000431,0.162659
58753000,0.0324,0.013523,0.002678,0.000431,0.145852
58754000,0.0324,0.013523,0.002678,0.000431,0.117881
58755000,0.0324,0.013523,0.002678,0.000431,0.117293
58756000,0.0324,0.013523,0.002678,0.000431,0.090144
58757000,0.0324,0.013523,0.002678,0.000431,0.066991
58758000,0.0324,0.013523,0.002678,0.000431,0.055473
58759000,0.0324,0.013523,0.002678,0.000431,0.025621
58760000,0.0324,0.013523,0.002678,0.000431,0.026679
58761000,0.0324,0.013523,0.002678,0.000431,0.019392
58762000,0.0324,0.013523,0.002678,0.000431,0.008109
58763000,0.0324,0.013523,0.002678,0.000431,0.010695
58764000,0.0324,0.013523,0.002678,0.000431,0.007639
58765000,0.0324,0.013523,0.002678,0.000431,0.002938
58766000,0.0324,0.013523,0.002678,0.000431,0.003173
58767000,0.0324,0.013523,0.002678,0.000431,0.532638
58768000,0.0324,0.013523,0.002678,0.000431,0.735609
58769000,0.0324,0.013523,0.002678,0.000431,0.141621
58770000,0.0324,0.013523,0.002678,0.000431,0.136215
58771000,0.0324,0.013523,0.002678,0.000431,0.563313
58772000,0.0324,0.013523,0.002678,0.000431,0.236467
58773000,0.0324,0.013523,0.002678,0.000431,0.345650
58774000,0.0324,0.013523,0.002678,0.000431,0.159956
58775000,0.0324,0.013523,0.002678,0.000431,0.166772
58776000,0.0324,0.013523,0.002678,0.000431,0.169828
58777000,0.0324,0.013523,0.002678,0.000431,0.539807
58778000,0.0324,0.013523,0.002678,0.000431,0.192629
58779000,0.0324,0.013523,0.002678,0.000431,0.172414
58780000,0.0324,0.013523,0.002678,0.000431,0.136098
58781000,0.0324,0.013523,0.002678,0.000431,0.116000
58782000,0.0324,0.013523,0.002678,0.000431,0.105775
58783000,0.0324,0.013523,0.002678,0.000431,0.073220
58784000,0.0324,0.013523,0.002678,0.000431,0.045248
58785000,0.0324,0.013523,0.002678,0.000431,0.043015
58786000,0.0324,0.013523,0.002678,0.000431,0.031850
58787000,0.0324,0.013523,0.002678,0.000431,0.026679
58788000,0.0324,0.013523,0.002678,0.000431,0.018217
58789000,0.0324,0.013523,0.002678,0.000431,0.008815
58790000,0.0324,0.013523,0.002678,0.000431,0.011400
58791000,0.0324,0.013523,0.002678,0.000431,0.013046
58792000,0.0324,0.013523,0.002678,0.000431,0.010342
58793000,0.0324,0.013523,0.002678,0.000431,0.004466
58794000,0.0324,0.013523,0.002678,0.000431,0.001880
58795000,0.0324,0.013523,0.002678,0.000431,0.001528
58796000,0.0324,0.013523,0.002678,0.000431,0.001645
58797000,0.0324,0.013523,0.002678,0.000431,0.001528
58798000,0.0324,0.013523,0.002678,0.000431,0.001645
58799000,0.0324,0.013523,0.002678,0.000431,0.001880
58800000,0.0324,0.013523,0.002678,0.000431,0.001645
58801000,0.0324,0.013523,0.002678,0.000431,0.001880
58802000,0.0324,0.013523,0.002678,0.000431,0.001645
58803000,0.0324,0.013523,0.002678,0.000431,0.001763
58804000,0.0324,0.013523,0.002678,0.000431,0.001763
58805000,0.0324,0.013523,0.002678,0.000431,0.001645
58806000,0.0324,0.013523,0.002678,0.000431,0.001763
58807000,0.0324,0.013523,0.002678,0.000431,0.001763
58808000,0.0324,0.013523,0.002678,0.000431,0.072045
58809000,0.0324,0.013523,0.002678,0.000431,0.748890
58810000,0.0324,0.013523,0.002678,0.000431,0.549444
58811000,0.0324,0.013523,0.002678,0.000431,0.136215
58812000,0.0324,0.013523,0.002678,0.000431,0.294526
58813000,0.0324,0.013523,0.002678,0.000431,0.477047
58814000,0.0324,0.013523,0.002678,0.000431,0.265379
58815000,0.0324,0.013523,0.002678,0.000431,0.264203
58816000,0.0324,0.013523,0.002678,0.000431,0.163012
58817000,0.0324,0.013523,0.002678,0.000431,0.116353
58818000,0.0324,0.013523,0.002678,0.000431,0.466117
58819000,0.0324,0.013523,0.002678,0.000431,0.298051
58820000,0.0324,0.013523,0.002678,0.000431,0.185459
58821000,0.0324,0.013523,0.002678,0.000431,0.168770
58822000,0.0324,0.013523,0.002678,0.000431,0.139506
58823000,0.0324,0.013523,0.002678,0.000431,0.115060
58824000,0.0324,0.013523,0.002678,0.000431,0.075923
58825000,0.0324,0.013523,0.002678,0.000431,0.060174
58826000,0.0324,0.013523,0.002678,0.000431,0.044073
58827000,0.0324,0.013523,0.002678,0.000431,0.023153
58828000,0.0324,0.013523,0.002678,0.000431,0.027502
58829000,0.0324,0.013523,0.002678,0.000431,0.013868
58830000,0.0324,0.013523,0.002678,0.000431,0.010460
58831000,0.0324,0.013523,0.002678,0.000431,0.008462
58832000,0.0324,0.013523,0.002678,0.000431,0.007874
58833000,0.0324,0.013523,0.002678,0.000431,0.001998
58834000,0.0324,0.013523,0.002678,0.000431,0.004349
58835000,0.0324,0.013523,0.002678,0.000431,0.014691
58836000,0.0324,0.013523,0.002678,0.000431,0.754884
58837000,0.0324,0.013523,0.002678,0.000431,0.557436
58838000,0.0324,0.013523,0.002678,0.000431,0.136333
58839000,0.0324,0.013523,0.002678,0.000431,0.137155
58840000,0.0324,0.013523,0.002678,0.000431,0.531462
58841000,0.0324,0.013523,0.002678,0.000431,0.240580
58842000,0.0324,0.013523,0.002678,0.000431,0.334250
58843000,0.0324,0.013523,0.002678,0.000431,0.170533
58844000,0.0324,0.013523,0.002678,0.000431,0.190748
58845000,0.0324,0.013523,0.002678,0.000431,0.085796
58846000,0.0324,0.013523,0.002678,0.000431,0.550267
58847000,0.0324,0.013523,0.002678,0.000431,0.159956
58848000,0.0324,0.013523,0.002678,0.000431,0.128576
58849000,0.0324,0.013523,0.002678,0.000431,0.099194
58850000,0.0324,0.013523,0.002678,0.000431,0.094140
58851000,0.0324,0.013523,0.002678,0.000431,0.068989
58852000,0.0324,0.013523,0.002678,0.000431,0.047011
58853000,0.0324,0.013523,0.002678,0.000431,0.045601
58854000,0.0324,0.013523,0.002678,0.000431,0.030205
58855000,0.0324,0.013523,0.002678,0.000431,0.028559
58856000,0.0324,0.013523,0.002678,0.000431,0.017629
58857000,0.0324,0.013523,0.002678,0.000431,0.016924
58858000,0.0324,0.013523,0.002678,0.000431,0.015396
58859000,0.0324,0.013523,0.002678,0.000431,0.008815
58860000,0.0324,0.013523,0.002678,0.000431,0.004701
58861000,0.0324,0.013523,0.002678,0.000431,0.005054
58862000,0.0324,0.013523,0.002678,0.000431,0.006699
58863000,0.0324,0.013523,0.002678,0.000431,0.004231
58864000,0.0324,0.013523,0.002678,0.000431,0.004349
58865000,0.0324,0.013523,0.002678,0.000431,0.003761
58866000,0.0324,0.013523,0.002678,0.000431,0.004349
58867000,0.0324,0.013523,0.002678,0.000431,0.004113
58868000,0.0324,0.013523,0.002678,0.000431,0.005054
58869000,0.0324,0.013523,0.002678,0.000431,0.003526
58870000,0.0324,0.013523,0.002678,0.000431,0.003173
58871000,0.0324,0.013523,0.002678,0.000431,0.003408
58872000,0.0324,0.013523,0.002678,0.000431,0.005759
58873000,0.0324,0.013523,0.002678,0.000431,0.002703
58874000,0.0324,0.013523,0.002678,0.000431,0.002821
58875000,0.0324,0.013523,0.002678,0.000431,0.001998
58876000,0.0324,0.013523,0.002678,0.000431,0.002821
58877000,0.0324,0.013523,0.002678,0.000431,0.002116
58878000,0.0324,0.013523,0.002678,0.000431,0.002703
58879000,0.0324,0.013523,0.002678,0.000431,0.002468
58880000,0.0324,0.013523,0.002678,0.000431,0.002233
58881000,0.0324,0.013523,0.002678,0.000431,0.002351
58882000,0.0324,0.013523,0.002678,0.000431,0.002586
58883000,0.0324,0.013523,0.002678,0.000431,0.002351
58884000,0.0324,0.013523,0.002678,0.000431,0.002586
58885000,0.0324,0.013523,0.002678,0.000431,0.002351
58886000,0.0324,0.013523,0.002678,0.000431,0.002351
58887000,0.0324,0.013523,0.002678,0.000431,0.002586
58888000,0.0324,0.013523,0.002678,0.000431,0.002586
58889000,0.0324,0.013523,0.002678,0.000431,0.002116
58890000,0.0324,0.013523,0.002678,0.000431,0.002821
58891000,0.0324,0.013523,0.002678,0.000431,0.002233
58892000,0.0324,0.013523,0.002678,0.000431,0.002468
58893000,0.0324,0.013523,0.002678,0.000431,0.001998
58894000,0.0324,0.013523,0.002678,0.000431,0.002703
58895000,0.0324,0.013523,0.002678,0.000431,0.002821
58896000,0.0324,0.013523,0.002678,0.000431,0.001880
58897000,0.0324,0.013523,0.002678,0.000431,0.002821
58898000,0.0324,0.013523,0.002678,0.000431,0.001998
58899000,0.0324,0.013523,0.002678,0.000431,0.002703
58900000,0.0324,0.013523,0.002678,0.000431,0.002468
58901000,0.0324,0.013523,0.002678,0.000431,0.002233
58902000,0.0324,0.013523,0.002678,0.000431,0.002821
58903000,0.0324,0.013523,0.002678,0.000431,0.001998
58904000,0.0324,0.013523,0.002678,0.000431,0.002703
58905000,0.0324,0.013523,0.002678,0.000431,0.002116
58906000,0.0324,0.013523,0.002678,0.000431,0.002586
58907000,0.0324,0.013523,0.002678,0.000431,0.002468
58908000,0.0324,0.013523,0.002678,0.000431,0.002351
58909000,0.0324,0.013523,0.002678,0.000431,0.001880
58910000,0.0324,0.013523,0.002678,0.000431,0.047716
58911000,0.0324,0.013523,0.002678,0.000431,0.697295
58912000,0.0324,0.013523,0.002678,0.000431,0.550149
58913000,0.0324,0.013523,0.002678,0.000431,0.136333
58914000,0.0324,0.013523,0.002678,0.000431,0.139623
58915000,0.0324,0.013523,0.002678,0.000431,0.536516
58916000,0.0324,0.013523,0.002678,0.000431,0.257857
58917000,0.0324,0.013523,0.002678,0.000431,0.306866
58918000,0.0324,0.013523,0.002678,0.000431,0.149613
58919000,0.0324,0.013523,0.002678,0.000431,0.196507
58920000,0.0324,0.013523,0.002678,0.000431,0.083327
58921000,0.0324,0.013523,0.002678,0.000431,0.585173
58922000,0.0324,0.013523,0.002678,0.000431,0.240345
58923000,0.0324,0.013523,0.002678,0.000431,0.168183
58924000,0.0324,0.013523,0.002678,0.000431,0.154667
58925000,0.0324,0.013523,0.002678,0.000431,0.130574
58926000,0.0324,0.013523,0.002678,0.000431,0.101779
58927000,0.0324,0.013523,0.002678,0.000431,0.071457
58928000,0.0324,0.013523,0.002678,0.000431,0.063348
58929000,0.0324,0.013523,0.002678,0.000431,0.052065
58930000,0.0324,0.013523,0.002678,0.000431,0.038079
58931000,0.0324,0.013523,0.002678,0.000431,0.029617
58932000,0.0324,0.013523,0.002678,0.000431,0.017394
58933000,0.0324,0.013523,0.002678,0.000431,0.020215
58934000,0.0324,0.013523,0.002678,0.000431,0.010695
58935000,0.0324,0.013523,0.002678,0.000431,0.013281
58936000,0.0324,0.013523,0.002678,0.000431,0.013868
58937000,0.0324,0.013523,0.002678,0.000431,0.004701
58938000,0.0324,0.013523,0.002678,0.000431,0.002468
58939000,0.0324,0.013523,0.002678,0.000431,0.000823
58940000,0.0324,0.013523,0.002678,0.000431,0.000823
58941000,0.0324,0.013523,0.002678,0.000431,0.000940
58942000,0.0324,0.013523,0.002678,0.000431,0.000823
58943000,0.0324,0.013523,0.002678,0.000431,0.000823
58944000,0.0324,0.013523,0.002678,0.000431,0.000705
58945000,0.0324,0.013523,0.002678,0.000431,0.000940
58946000,0.0324,0.013523,0.002678,0.000431,0.000823
58947000,0.0324,0.013523,0.002678,0.000431,0.000823
58948000,0.0324,0.013523,0.002678,0.000431,0.067931
58949000,0.0324,0.013523,0.002678,0.000431,0.771808
58950000,0.0324,0.013523,0.002678,0.000431,0.557436
58951000,0.0324,0.013523,0.002678,0.000431,0.135980
58952000,0.0324,0.013523,0.002678,0.000431,0.226124
58953000,0.0324,0.013523,0.002678,0.000431,0.574125
58954000,0.0324,0.013523,0.002678,0.000431,0.235997
58955000,0.0324,0.013523,0.002678,0.000431,0.289002
58956000,0.0324,0.013523,0.002678,0.000431,0.160073
58957000,0.0324,0.013523,0.002678,0.000431,0.106716
58958000,0.0324,0.013523,0.002678,0.000431,0.415697
58959000,0.0324,0.013523,0.002678,0.000431,0.372682
58960000,0.0324,0.013523,0.002678,0.000431,0.181228
58961000,0.0324,0.013523,0.002678,0.000431,0.161014
58962000,0.0324,0.013523,0.002678,0.000431,0.143619
58963000,0.0324,0.013523,0.002678,0.000431,0.118116
58964000,0.0324,0.013523,0.002678,0.000431,0.087206
58965000,0.0324,0.013523,0.002678,0.000431,0.066403
58966000,0.0324,0.013523,0.002678,0.000431,0.059822
58967000,0.0324,0.013523,0.002678,0.000431,0.035023
58968000,0.0324,0.013523,0.002678,0.000431,0.028794
58969000,0.0324,0.013523,0.002678,0.000431,0.020215
58970000,0.0324,0.013523,0.002678,0.000431,0.014926
58971000,0.0324,0.013523,0.002678,0.000431,0.023976
58972000,0.0324,0.013523,0.002678,0.000431,0.006464
58973000,0.0324,0.013523,0.002678,0.000431,0.014926
58974000,0.0324,0.013523,0.002678,0.000431,0.006582
58975000,0.0324,0.013523,0.002678,0.000431,0.004231
58976000,0.0324,0.013523,0.002678,0.000431,0.001998
58977000,0.0324,0.013523,0.002678,0.000431,0.001645
58978000,0.0324,0.013523,0.002678,0.000431,0.008580
58979000,0.0324,0.013523,0.002678,0.000431,0.585290
58980000,0.0324,0.013523,0.002678,0.000431,0.727147
58981000,0.0324,0.013523,0.002678,0.000431,0.142209
58982000,0.0324,0.013523,0.002678,0.000431,0.149026
58983000,0.0324,0.013523,0.002678,0.000431,0.564488
58984000,0.0324,0.013523,0.002678,0.000431,0.246222
58985000,0.0324,0.013523,0.002678,0.000431,0.315916
58986000,0.0324,0.013523,0.002678,0.000431,0.150436
58987000,0.0324,0.013523,0.002678,0.000431,0.173824
58988000,0.0324,0.013523,0.002678,0.000431,0.160896
58989000,0.0324,0.013523,0.002678,0.000431,0.529229
58990000,0.0324,0.013523,0.002678,0.000431,0.209435
58991000,0.0324,0.013523,0.002678,0.000431,0.181228
58992000,0.0324,0.013523,0.002678,0.000431,0.172179
58993000,0.0324,0.013523,0.002678,0.000431,0.127401
58994000,0.0324,0.013523,0.002678,0.000431,0.098724
58995000,0.0324,0.013523,0.002678,0.000431,0.090027
58996000,0.0324,0.013523,0.002678,0.000431,0.068049
58997000,0.0324,0.013523,0.002678,0.000431,0.064053
58998000,0.0324,0.013523,0.002678,0.000431,0.049949
58999000,0.0324,0.013523,0.002678,0.000431,0.042193
