Cycle,Area(mm^2),PeakDynamic(W),SubthresholdLeakage(W),GateLeakage(W),RunTimeDynamic(W)
34000000,0.0324,0.013523,0.002678,0.000431,0.004584
34001000,0.0324,0.013523,0.002678,0.000431,0.003173
34002000,0.0324,0.013523,0.002678,0.000431,0.003173
34003000,0.0324,0.013523,0.002678,0.000431,0.003173
34004000,0.0324,0.013523,0.002678,0.000431,0.005054
34005000,0.0324,0.013523,0.002678,0.000431,0.002351
34006000,0.0324,0.013523,0.002678,0.000431,0.002586
34007000,0.0324,0.013523,0.002678,0.000431,0.006464
34008000,0.0324,0.013523,0.002678,0.000431,0.000823
34009000,0.0324,0.013523,0.002678,0.000431,0.185930
34010000,0.0324,0.013523,0.002678,0.000431,0.565898
34011000,0.0324,0.013523,0.002678,0.000431,0.537809
34012000,0.0324,0.013523,0.002678,0.000431,0.135510
34013000,0.0324,0.013523,0.002678,0.000431,0.133042
34014000,0.0324,0.013523,0.002678,0.000431,0.593752
34015000,0.0324,0.013523,0.002678,0.000431,0.278424
34016000,0.0324,0.013523,0.002678,0.000431,0.273018
34017000,0.0324,0.013523,0.002678,0.000431,0.254919
34018000,0.0324,0.013523,0.002678,0.000431,0.150201
34019000,0.0324,0.013523,0.002678,0.000431,0.164539
34020000,0.0324,0.013523,0.002678,0.000431,0.121289
34021000,0.0324,0.013523,0.002678,0.000431,0.494088
34022000,0.0324,0.013523,0.002678,0.000431,0.187810
34023000,0.0324,0.013523,0.002678,0.000431,0.163247
34024000,0.0324,0.013523,0.002678,0.000431,0.134100
34025000,0.0324,0.013523,0.002678,0.000431,0.109536
34026000,0.0324,0.013523,0.002678,0.000431,0.093787
34027000,0.0324,0.013523,0.002678,0.000431,0.073455
34028000,0.0324,0.013523,0.002678,0.000431,0.064876
34029000,0.0324,0.013523,0.002678,0.000431,0.062878
34030000,0.0324,0.013523,0.002678,0.000431,0.066874
34031000,0.0324,0.013523,0.002678,0.000431,0.051007
34032000,0.0324,0.013523,0.002678,0.000431,0.035846
34033000,0.0324,0.013523,0.002678,0.000431,0.033848
34034000,0.0324,0.013523,0.002678,0.000431,0.034906
34035000,0.0324,0.013523,0.002678,0.000431,0.027149
34036000,0.0324,0.013523,0.002678,0.000431,0.023858
34037000,0.0324,0.013523,0.002678,0.000431,0.023623
34038000,0.0324,0.013523,0.002678,0.000431,0.021978
34039000,0.0324,0.013523,0.002678,0.000431,0.017864
34040000,0.0324,0.013523,0.002678,0.000431,0.023741
34041000,0.0324,0.013523,0.002678,0.000431,0.018334
34042000,0.0324,0.013523,0.002678,0.000431,0.013633
34043000,0.0324,0.013523,0.002678,0.000431,0.014691
34044000,0.0324,0.013523,0.002678,0.000431,0.011283
34045000,0.0324,0.013523,0.002678,0.000431,0.006582
34046000,0.0324,0.013523,0.002678,0.000431,0.009872
34047000,0.0324,0.013523,0.002678,0.000431,0.007287
34048000,0.0324,0.013523,0.002678,0.000431,0.004936
34049000,0.0324,0.013523,0.002678,0.000431,0.006699
34050000,0.0324,0.013523,0.002678,0.000431,0.004113
34051000,0.0324,0.013523,0.002678,0.000431,0.004231
34052000,0.0324,0.013523,0.002678,0.000431,0.005994
34053000,0.0324,0.013523,0.002678,0.000431,0.003173
34054000,0.0324,0.013523,0.002678,0.000431,0.005641
34055000,0.0324,0.013523,0.002678,0.000431,0.001410
34056000,0.0324,0.013523,0.002678,0.000431,0.002938
34057000,0.0324,0.013523,0.002678,0.000431,0.526291
34058000,0.0324,0.013523,0.002678,0.000431,0.707637
34059000,0.0324,0.013523,0.002678,0.000431,0.163129
34060000,0.0324,0.013523,0.002678,0.000431,0.133747
34061000,0.0324,0.013523,0.002678,0.000431,0.254449
34062000,0.0324,0.013523,0.002678,0.000431,0.507957
34063000,0.0324,0.013523,0.002678,0.000431,0.232941
34064000,0.0324,0.013523,0.002678,0.000431,0.312507
34065000,0.0324,0.013523,0.002678,0.000431,0.183226
34066000,0.0324,0.013523,0.002678,0.000431,0.151376
34067000,0.0324,0.013523,0.002678,0.000431,0.151024
34068000,0.0324,0.013523,0.002678,0.000431,0.190161
34069000,0.0324,0.013523,0.002678,0.000431,0.459065
34070000,0.0324,0.013523,0.002678,0.000431,0.152081
34071000,0.0324,0.013523,0.002678,0.000431,0.143032
34072000,0.0324,0.013523,0.002678,0.000431,0.106598
34073000,0.0324,0.013523,0.002678,0.000431,0.100134
34074000,0.0324,0.013523,0.002678,0.000431,0.082152
34075000,0.0324,0.013523,0.002678,0.000431,0.065816
34076000,0.0324,0.013523,0.002678,0.000431,0.050537
34077000,0.0324,0.013523,0.002678,0.000431,0.044073
34078000,0.0324,0.013523,0.002678,0.000431,0.043368
34079000,0.0324,0.013523,0.002678,0.000431,0.035141
34080000,0.0324,0.013523,0.002678,0.000431,0.033143
34081000,0.0324,0.013523,0.002678,0.000431,0.028677
34082000,0.0324,0.013523,0.002678,0.000431,0.020685
34083000,0.0324,0.013523,0.002678,0.000431,0.021038
34084000,0.0324,0.013523,0.002678,0.000431,0.020802
34085000,0.0324,0.013523,0.002678,0.000431,0.020920
34086000,0.0324,0.013523,0.002678,0.000431,0.010813
34087000,0.0324,0.013523,0.002678,0.000431,0.012340
34088000,0.0324,0.013523,0.002678,0.000431,0.007522
34089000,0.0324,0.013523,0.002678,0.000431,0.006699
34090000,0.0324,0.013523,0.002678,0.000431,0.009050
34091000,0.0324,0.013523,0.002678,0.000431,0.006111
34092000,0.0324,0.013523,0.002678,0.000431,0.004113
34093000,0.0324,0.013523,0.002678,0.000431,0.005876
34094000,0.0324,0.013523,0.002678,0.000431,0.003643
34095000,0.0324,0.013523,0.002678,0.000431,0.003996
34096000,0.0324,0.013523,0.002678,0.000431,0.003408
34097000,0.0324,0.013523,0.002678,0.000431,0.003526
34098000,0.0324,0.013523,0.002678,0.000431,0.003643
34099000,0.0324,0.013523,0.002678,0.000431,0.003291
34100000,0.0324,0.013523,0.002678,0.000431,0.005524
34101000,0.0324,0.013523,0.002678,0.000431,0.002586
34102000,0.0324,0.013523,0.002678,0.000431,0.003291
34103000,0.0324,0.013523,0.002678,0.000431,0.003056
34104000,0.0324,0.013523,0.002678,0.000431,0.001645
34105000,0.0324,0.013523,0.002678,0.000431,0.003643
34106000,0.0324,0.013523,0.002678,0.000431,0.000823
34107000,0.0324,0.013523,0.002678,0.000431,0.000823
34108000,0.0324,0.013523,0.002678,0.000431,0.000940
34109000,0.0324,0.013523,0.002678,0.000431,0.000705
34110000,0.0324,0.013523,0.002678,0.000431,0.000705
34111000,0.0324,0.013523,0.002678,0.000431,0.000940
34112000,0.0324,0.013523,0.002678,0.000431,0.000823
34113000,0.0324,0.013523,0.002678,0.000431,0.000823
34114000,0.0324,0.013523,0.002678,0.000431,0.000940
34115000,0.0324,0.013523,0.002678,0.000431,0.000705
34116000,0.0324,0.013523,0.002678,0.000431,0.000940
34117000,0.0324,0.013523,0.002678,0.000431,0.000705
34118000,0.0324,0.013523,0.002678,0.000431,0.000940
34119000,0.0324,0.013523,0.002678,0.000431,0.000823
34120000,0.0324,0.013523,0.002678,0.000431,0.000823
34121000,0.0324,0.013523,0.002678,0.000431,0.000823
34122000,0.0324,0.013523,0.002678,0.000431,0.000823
34123000,0.0324,0.013523,0.002678,0.000431,0.000823
34124000,0.0324,0.013523,0.002678,0.000431,0.000823
34125000,0.0324,0.013523,0.002678,0.000431,0.000940
34126000,0.0324,0.013523,0.002678,0.000431,0.000823
34127000,0.0324,0.013523,0.002678,0.000431,0.000823
34128000,0.0324,0.013523,0.002678,0.000431,0.000823
34129000,0.0324,0.013523,0.002678,0.000431,0.000823
34130000,0.0324,0.013523,0.002678,0.000431,0.000823
34131000,0.0324,0.013523,0.002678,0.000431,0.000823
34132000,0.0324,0.013523,0.002678,0.000431,0.000823
34133000,0.0324,0.013523,0.002678,0.000431,0.000823
34134000,0.0324,0.013523,0.002678,0.000431,0.000823
34135000,0.0324,0.013523,0.002678,0.000431,0.241991
34136000,0.0324,0.013523,0.002678,0.000431,0.667795
34137000,0.0324,0.013523,0.002678,0.000431,0.425217
34138000,0.0324,0.013523,0.002678,0.000431,0.131984
34139000,0.0324,0.013523,0.002678,0.000431,0.156665
34140000,0.0324,0.013523,0.002678,0.000431,0.641469
34141000,0.0324,0.013523,0.002678,0.000431,0.237995
34142000,0.0324,0.013523,0.002678,0.000431,0.263263
34143000,0.0324,0.013523,0.002678,0.000431,0.228592
34144000,0.0324,0.013523,0.002678,0.000431,0.146675
34145000,0.0324,0.013523,0.002678,0.000431,0.150554
34146000,0.0324,0.013523,0.002678,0.000431,0.202619
34147000,0.0324,0.013523,0.002678,0.000431,0.457302
34148000,0.0324,0.013523,0.002678,0.000431,0.169006
34149000,0.0324,0.013523,0.002678,0.000431,0.133630
34150000,0.0324,0.013523,0.002678,0.000431,0.119291
34151000,0.0324,0.013523,0.002678,0.000431,0.098489
34152000,0.0324,0.013523,0.002678,0.000431,0.092260
34153000,0.0324,0.013523,0.002678,0.000431,0.070399
34154000,0.0324,0.013523,0.002678,0.000431,0.065228
34155000,0.0324,0.013523,0.002678,0.000431,0.056766
34156000,0.0324,0.013523,0.002678,0.000431,0.042545
34157000,0.0324,0.013523,0.002678,0.000431,0.041135
34158000,0.0324,0.013523,0.002678,0.000431,0.025621
34159000,0.0324,0.013523,0.002678,0.000431,0.022448
34160000,0.0324,0.013523,0.002678,0.000431,0.019862
34161000,0.0324,0.013523,0.002678,0.000431,0.022683
34162000,0.0324,0.013523,0.002678,0.000431,0.020802
34163000,0.0324,0.013523,0.002678,0.000431,0.014221
34164000,0.0324,0.013523,0.002678,0.000431,0.008345
34165000,0.0324,0.013523,0.002678,0.000431,0.008109
34166000,0.0324,0.013523,0.002678,0.000431,0.005759
34167000,0.0324,0.013523,0.002678,0.000431,0.001645
34168000,0.0324,0.013523,0.002678,0.000431,0.001763
34169000,0.0324,0.013523,0.002678,0.000431,0.001763
34170000,0.0324,0.013523,0.002678,0.000431,0.001528
34171000,0.0324,0.013523,0.002678,0.000431,0.001880
34172000,0.0324,0.013523,0.002678,0.000431,0.002938
34173000,0.0324,0.013523,0.002678,0.000431,0.002586
34174000,0.0324,0.013523,0.002678,0.000431,0.000823
34175000,0.0324,0.013523,0.002678,0.000431,0.000823
34176000,0.0324,0.013523,0.002678,0.000431,0.000823
34177000,0.0324,0.013523,0.002678,0.000431,0.000823
34178000,0.0324,0.013523,0.002678,0.000431,0.000940
34179000,0.0324,0.013523,0.002678,0.000431,0.000705
34180000,0.0324,0.013523,0.002678,0.000431,0.000940
34181000,0.0324,0.013523,0.002678,0.000431,0.000705
34182000,0.0324,0.013523,0.002678,0.000431,0.014338
34183000,0.0324,0.013523,0.002678,0.000431,0.653927
34184000,0.0324,0.013523,0.002678,0.000431,0.596808
34185000,0.0324,0.013523,0.002678,0.000431,0.163012
34186000,0.0324,0.013523,0.002678,0.000431,0.134805
34187000,0.0324,0.013523,0.002678,0.000431,0.501023
34188000,0.0324,0.013523,0.002678,0.000431,0.326963
34189000,0.0324,0.013523,0.002678,0.000431,0.269022
34190000,0.0324,0.013523,0.002678,0.000431,0.330724
34191000,0.0324,0.013523,0.002678,0.000431,0.149026
34192000,0.0324,0.013523,0.002678,0.000431,0.179583
34193000,0.0324,0.013523,0.002678,0.000431,0.083798
34194000,0.0324,0.013523,0.002678,0.000431,0.507604
34195000,0.0324,0.013523,0.002678,0.000431,0.212138
34196000,0.0324,0.013523,0.002678,0.000431,0.158546
34197000,0.0324,0.013523,0.002678,0.000431,0.148086
34198000,0.0324,0.013523,0.002678,0.000431,0.115883
34199000,0.0324,0.013523,0.002678,0.000431,0.099664
34200000,0.0324,0.013523,0.002678,0.000431,0.092495
34201000,0.0324,0.013523,0.002678,0.000431,0.069577
34202000,0.0324,0.013523,0.002678,0.000431,0.071810
34203000,0.0324,0.013523,0.002678,0.000431,0.063113
34204000,0.0324,0.013523,0.002678,0.000431,0.052065
34205000,0.0324,0.013523,0.002678,0.000431,0.042428
34206000,0.0324,0.013523,0.002678,0.000431,0.038314
34207000,0.0324,0.013523,0.002678,0.000431,0.035964
34208000,0.0324,0.013523,0.002678,0.000431,0.036316
34209000,0.0324,0.013523,0.002678,0.000431,0.029617
34210000,0.0324,0.013523,0.002678,0.000431,0.031262
34211000,0.0324,0.013523,0.002678,0.000431,0.021155
34212000,0.0324,0.013523,0.002678,0.000431,0.021038
34213000,0.0324,0.013523,0.002678,0.000431,0.019040
34214000,0.0324,0.013523,0.002678,0.000431,0.011400
34215000,0.0324,0.013523,0.002678,0.000431,0.011283
34216000,0.0324,0.013523,0.002678,0.000431,0.007639
34217000,0.0324,0.013523,0.002678,0.000431,0.006817
34218000,0.0324,0.013523,0.002678,0.000431,0.006934
34219000,0.0324,0.013523,0.002678,0.000431,0.007639
34220000,0.0324,0.013523,0.002678,0.000431,0.006934
34221000,0.0324,0.013523,0.002678,0.000431,0.006111
34222000,0.0324,0.013523,0.002678,0.000431,0.006111
34223000,0.0324,0.013523,0.002678,0.000431,0.007522
34224000,0.0324,0.013523,0.002678,0.000431,0.006229
34225000,0.0324,0.013523,0.002678,0.000431,0.004113
34226000,0.0324,0.013523,0.002678,0.000431,0.004584
34227000,0.0324,0.013523,0.002678,0.000431,0.004113
34228000,0.0324,0.013523,0.002678,0.000431,0.007169
34229000,0.0324,0.013523,0.002678,0.000431,0.007169
34230000,0.0324,0.013523,0.002678,0.000431,0.003173
34231000,0.0324,0.013523,0.002678,0.000431,0.001763
34232000,0.0324,0.013523,0.002678,0.000431,0.001645
34233000,0.0324,0.013523,0.002678,0.000431,0.001763
34234000,0.0324,0.013523,0.002678,0.000431,0.003056
34235000,0.0324,0.013523,0.002678,0.000431,0.002233
34236000,0.0324,0.013523,0.002678,0.000431,0.000823
34237000,0.0324,0.013523,0.002678,0.000431,0.000823
34238000,0.0324,0.013523,0.002678,0.000431,0.000940
34239000,0.0324,0.013523,0.002678,0.000431,0.000940
34240000,0.0324,0.013523,0.002678,0.000431,0.000940
34241000,0.0324,0.013523,0.002678,0.000431,0.000940
34242000,0.0324,0.013523,0.002678,0.000431,0.000705
34243000,0.0324,0.013523,0.002678,0.000431,0.000940
34244000,0.0324,0.013523,0.002678,0.000431,0.072045
34245000,0.0324,0.013523,0.002678,0.000431,0.642644
34246000,0.0324,0.013523,0.002678,0.000431,0.592342
34247000,0.0324,0.013523,0.002678,0.000431,0.152787
34248000,0.0324,0.013523,0.002678,0.000431,0.141739
34249000,0.0324,0.013523,0.002678,0.000431,0.608561
34250000,0.0324,0.013523,0.002678,0.000431,0.236937
34251000,0.0324,0.013523,0.002678,0.000431,0.289354
34252000,0.0324,0.013523,0.002678,0.000431,0.278072
34253000,0.0324,0.013523,0.002678,0.000431,0.142092
34254000,0.0324,0.013523,0.002678,0.000431,0.163599
34255000,0.0324,0.013523,0.002678,0.000431,0.143972
34256000,0.0324,0.013523,0.002678,0.000431,0.474344
34257000,0.0324,0.013523,0.002678,0.000431,0.172531
34258000,0.0324,0.013523,0.002678,0.000431,0.128341
34259000,0.0324,0.013523,0.002678,0.000431,0.116000
34260000,0.0324,0.013523,0.002678,0.000431,0.100369
34261000,0.0324,0.013523,0.002678,0.000431,0.090849
34262000,0.0324,0.013523,0.002678,0.000431,0.075336
34263000,0.0324,0.013523,0.002678,0.000431,0.059352
34264000,0.0324,0.013523,0.002678,0.000431,0.066638
34265000,0.0324,0.013523,0.002678,0.000431,0.049127
34266000,0.0324,0.013523,0.002678,0.000431,0.044426
34267000,0.0324,0.013523,0.002678,0.000431,0.035729
34268000,0.0324,0.013523,0.002678,0.000431,0.037609
34269000,0.0324,0.013523,0.002678,0.000431,0.035023
34270000,0.0324,0.013523,0.002678,0.000431,0.023271
34271000,0.0324,0.013523,0.002678,0.000431,0.031262
34272000,0.0324,0.013523,0.002678,0.000431,0.020332
34273000,0.0324,0.013523,0.002678,0.000431,0.018805
34274000,0.0324,0.013523,0.002678,0.000431,0.012223
34275000,0.0324,0.013523,0.002678,0.000431,0.012811
34276000,0.0324,0.013523,0.002678,0.000431,0.018922
34277000,0.0324,0.013523,0.002678,0.000431,0.008227
34278000,0.0324,0.013523,0.002678,0.000431,0.009755
34279000,0.0324,0.013523,0.002678,0.000431,0.007757
34280000,0.0324,0.013523,0.002678,0.000431,0.010813
34281000,0.0324,0.013523,0.002678,0.000431,0.006699
34282000,0.0324,0.013523,0.002678,0.000431,0.006699
34283000,0.0324,0.013523,0.002678,0.000431,0.008345
34284000,0.0324,0.013523,0.002678,0.000431,0.007404
34285000,0.0324,0.013523,0.002678,0.000431,0.004231
34286000,0.0324,0.013523,0.002678,0.000431,0.004349
34287000,0.0324,0.013523,0.002678,0.000431,0.004349
34288000,0.0324,0.013523,0.002678,0.000431,0.006229
34289000,0.0324,0.013523,0.002678,0.000431,0.004819
34290000,0.0324,0.013523,0.002678,0.000431,0.001998
34291000,0.0324,0.013523,0.002678,0.000431,0.005171
34292000,0.0324,0.013523,0.002678,0.000431,0.001058
34293000,0.0324,0.013523,0.002678,0.000431,0.000823
34294000,0.0324,0.013523,0.002678,0.000431,0.000823
34295000,0.0324,0.013523,0.002678,0.000431,0.053945
34296000,0.0324,0.013523,0.002678,0.000431,0.624662
34297000,0.0324,0.013523,0.002678,0.000431,0.612557
34298000,0.0324,0.013523,0.002678,0.000431,0.135628
34299000,0.0324,0.013523,0.002678,0.000431,0.134452
34300000,0.0324,0.013523,0.002678,0.000431,0.588111
34301000,0.0324,0.013523,0.002678,0.000431,0.256211
34302000,0.0324,0.013523,0.002678,0.000431,0.278659
34303000,0.0324,0.013523,0.002678,0.000431,0.266907
34304000,0.0324,0.013523,0.002678,0.000431,0.143267
34305000,0.0324,0.013523,0.002678,0.000431,0.159016
34306000,0.0324,0.013523,0.002678,0.000431,0.103072
34307000,0.0324,0.013523,0.002678,0.000431,0.448605
34308000,0.0324,0.013523,0.002678,0.000431,0.252921
34309000,0.0324,0.013523,0.002678,0.000431,0.150906
34310000,0.0324,0.013523,0.002678,0.000431,0.137626
34311000,0.0324,0.013523,0.002678,0.000431,0.109184
34312000,0.0324,0.013523,0.002678,0.000431,0.092377
34313000,0.0324,0.013523,0.002678,0.000431,0.083092
34314000,0.0324,0.013523,0.002678,0.000431,0.074513
34315000,0.0324,0.013523,0.002678,0.000431,0.063348
34316000,0.0324,0.013523,0.002678,0.000431,0.057941
34317000,0.0324,0.013523,0.002678,0.000431,0.059704
34318000,0.0324,0.013523,0.002678,0.000431,0.044073
34319000,0.0324,0.013523,0.002678,0.000431,0.047716
34320000,0.0324,0.013523,0.002678,0.000431,0.033025
34321000,0.0324,0.013523,0.002678,0.000431,0.032438
34322000,0.0324,0.013523,0.002678,0.000431,0.029147
34323000,0.0324,0.013523,0.002678,0.000431,0.025504
34324000,0.0324,0.013523,0.002678,0.000431,0.020567
34325000,0.0324,0.013523,0.002678,0.000431,0.017864
34326000,0.0324,0.013523,0.002678,0.000431,0.016689
34327000,0.0324,0.013523,0.002678,0.000431,0.017277
34328000,0.0324,0.013523,0.002678,0.000431,0.018452
34329000,0.0324,0.013523,0.002678,0.000431,0.018099
34330000,0.0324,0.013523,0.002678,0.000431,0.013868
34331000,0.0324,0.013523,0.002678,0.000431,0.016101
34332000,0.0324,0.013523,0.002678,0.000431,0.011283
34333000,0.0324,0.013523,0.002678,0.000431,0.013163
34334000,0.0324,0.013523,0.002678,0.000431,0.007522
34335000,0.0324,0.013523,0.002678,0.000431,0.007639
34336000,0.0324,0.013523,0.002678,0.000431,0.007052
34337000,0.0324,0.013523,0.002678,0.000431,0.007874
34338000,0.0324,0.013523,0.002678,0.000431,0.007169
34339000,0.0324,0.013523,0.002678,0.000431,0.007404
34340000,0.0324,0.013523,0.002678,0.000431,0.007522
34341000,0.0324,0.013523,0.002678,0.000431,0.007757
34342000,0.0324,0.013523,0.002678,0.000431,0.006934
34343000,0.0324,0.013523,0.002678,0.000431,0.009520
34344000,0.0324,0.013523,0.002678,0.000431,0.009520
34345000,0.0324,0.013523,0.002678,0.000431,0.005406
34346000,0.0324,0.013523,0.002678,0.000431,0.007052
34347000,0.0324,0.013523,0.002678,0.000431,0.002586
34348000,0.0324,0.013523,0.002678,0.000431,0.002468
34349000,0.0324,0.013523,0.002678,0.000431,0.003056
34350000,0.0324,0.013523,0.002678,0.000431,0.002703
34351000,0.0324,0.013523,0.002678,0.000431,0.001763
34352000,0.0324,0.013523,0.002678,0.000431,0.001528
34353000,0.0324,0.013523,0.002678,0.000431,0.001880
34354000,0.0324,0.013523,0.002678,0.000431,0.001528
34355000,0.0324,0.013523,0.002678,0.000431,0.003291
34356000,0.0324,0.013523,0.002678,0.000431,0.002233
34357000,0.0324,0.013523,0.002678,0.000431,0.444257
34358000,0.0324,0.013523,0.002678,0.000431,0.719272
34359000,0.0324,0.013523,0.002678,0.000431,0.190043
34360000,0.0324,0.013523,0.002678,0.000431,0.137273
34361000,0.0324,0.013523,0.002678,0.000431,0.157135
34362000,0.0324,0.013523,0.002678,0.000431,0.600569
34363000,0.0324,0.013523,0.002678,0.000431,0.283478
34364000,0.0324,0.013523,0.002678,0.000431,0.263146
34365000,0.0324,0.013523,0.002678,0.000431,0.198153
34366000,0.0324,0.013523,0.002678,0.000431,0.140329
34367000,0.0324,0.013523,0.002678,0.000431,0.167595
34368000,0.0324,0.013523,0.002678,0.000431,0.143267
34369000,0.0324,0.013523,0.002678,0.000431,0.479515
34370000,0.0324,0.013523,0.002678,0.000431,0.160191
34371000,0.0324,0.013523,0.002678,0.000431,0.113885
34372000,0.0324,0.013523,0.002678,0.000431,0.102955
34373000,0.0324,0.013523,0.002678,0.000431,0.098019
34374000,0.0324,0.013523,0.002678,0.000431,0.064641
34375000,0.0324,0.013523,0.002678,0.000431,0.053005
34376000,0.0324,0.013523,0.002678,0.000431,0.050420
34377000,0.0324,0.013523,0.002678,0.000431,0.043603
34378000,0.0324,0.013523,0.002678,0.000431,0.046306
34379000,0.0324,0.013523,0.002678,0.000431,0.039019
34380000,0.0324,0.013523,0.002678,0.000431,0.032203
34381000,0.0324,0.013523,0.002678,0.000431,0.030440
34382000,0.0324,0.013523,0.002678,0.000431,0.022095
34383000,0.0324,0.013523,0.002678,0.000431,0.017747
34384000,0.0324,0.013523,0.002678,0.000431,0.022213
34385000,0.0324,0.013523,0.002678,0.000431,0.017864
34386000,0.0324,0.013523,0.002678,0.000431,0.012458
34387000,0.0324,0.013523,0.002678,0.000431,0.011988
34388000,0.0324,0.013523,0.002678,0.000431,0.009520
34389000,0.0324,0.013523,0.002678,0.000431,0.009520
34390000,0.0324,0.013523,0.002678,0.000431,0.010107
34391000,0.0324,0.013523,0.002678,0.000431,0.005406
34392000,0.0324,0.013523,0.002678,0.000431,0.009755
34393000,0.0324,0.013523,0.002678,0.000431,0.004701
34394000,0.0324,0.013523,0.002678,0.000431,0.001645
34395000,0.0324,0.013523,0.002678,0.000431,0.001645
34396000,0.0324,0.013523,0.002678,0.000431,0.003173
34397000,0.0324,0.013523,0.002678,0.000431,0.000823
34398000,0.0324,0.013523,0.002678,0.000431,0.000823
34399000,0.0324,0.013523,0.002678,0.000431,0.000823
34400000,0.0324,0.013523,0.002678,0.000431,0.000823
34401000,0.0324,0.013523,0.002678,0.000431,0.000823
34402000,0.0324,0.013523,0.002678,0.000431,0.000940
34403000,0.0324,0.013523,0.002678,0.000431,0.000705
34404000,0.0324,0.013523,0.002678,0.000431,0.000823
34405000,0.0324,0.013523,0.002678,0.000431,0.000940
34406000,0.0324,0.013523,0.002678,0.000431,0.000823
34407000,0.0324,0.013523,0.002678,0.000431,0.000823
34408000,0.0324,0.013523,0.002678,0.000431,0.000823
34409000,0.0324,0.013523,0.002678,0.000431,0.000705
34410000,0.0324,0.013523,0.002678,0.000431,0.000940
34411000,0.0324,0.013523,0.002678,0.000431,0.000940
34412000,0.0324,0.013523,0.002678,0.000431,0.000705
34413000,0.0324,0.013523,0.002678,0.000431,0.000940
34414000,0.0324,0.013523,0.002678,0.000431,0.000705
34415000,0.0324,0.013523,0.002678,0.000431,0.000940
34416000,0.0324,0.013523,0.002678,0.000431,0.000940
34417000,0.0324,0.013523,0.002678,0.000431,0.013868
34418000,0.0324,0.013523,0.002678,0.000431,0.601274
34419000,0.0324,0.013523,0.002678,0.000431,0.617258
34420000,0.0324,0.013523,0.002678,0.000431,0.136920
34421000,0.0324,0.013523,0.002678,0.000431,0.133042
34422000,0.0324,0.013523,0.002678,0.000431,0.427920
34423000,0.0324,0.013523,0.002678,0.000431,0.416990
34424000,0.0324,0.013523,0.002678,0.000431,0.254801
34425000,0.0324,0.013523,0.002678,0.000431,0.314858
34426000,0.0324,0.013523,0.002678,0.000431,0.139623
34427000,0.0324,0.013523,0.002678,0.000431,0.154197
34428000,0.0324,0.013523,0.002678,0.000431,0.101309
34429000,0.0324,0.013523,0.002678,0.000431,0.438145
34430000,0.0324,0.013523,0.002678,0.000431,0.199680
34431000,0.0324,0.013523,0.002678,0.000431,0.099429
34432000,0.0324,0.013523,0.002678,0.000431,0.072867
34433000,0.0324,0.013523,0.002678,0.000431,0.070752
34434000,0.0324,0.013523,0.002678,0.000431,0.065228
34435000,0.0324,0.013523,0.002678,0.000431,0.047951
34436000,0.0324,0.013523,0.002678,0.000431,0.039372
34437000,0.0324,0.013523,0.002678,0.000431,0.047011
34438000,0.0324,0.013523,0.002678,0.000431,0.036904
34439000,0.0324,0.013523,0.002678,0.000431,0.027267
34440000,0.0324,0.013523,0.002678,0.000431,0.023271
34441000,0.0324,0.013523,0.002678,0.000431,0.020215
34442000,0.0324,0.013523,0.002678,0.000431,0.022213
34443000,0.0324,0.013523,0.002678,0.000431,0.020920
34444000,0.0324,0.013523,0.002678,0.000431,0.016689
34445000,0.0324,0.013523,0.002678,0.000431,0.015984
34446000,0.0324,0.013523,0.002678,0.000431,0.015396
34447000,0.0324,0.013523,0.002678,0.000431,0.017277
34448000,0.0324,0.013523,0.002678,0.000431,0.016571
34449000,0.0324,0.013523,0.002678,0.000431,0.017159
34450000,0.0324,0.013523,0.002678,0.000431,0.012458
34451000,0.0324,0.013523,0.002678,0.000431,0.012340
34452000,0.0324,0.013523,0.002678,0.000431,0.008580
34453000,0.0324,0.013523,0.002678,0.000431,0.009285
34454000,0.0324,0.013523,0.002678,0.000431,0.011048
34455000,0.0324,0.013523,0.002678,0.000431,0.008227
34456000,0.0324,0.013523,0.002678,0.000431,0.008227
34457000,0.0324,0.013523,0.002678,0.000431,0.008932
34458000,0.0324,0.013523,0.002678,0.000431,0.007757
34459000,0.0324,0.013523,0.002678,0.000431,0.007522
34460000,0.0324,0.013523,0.002678,0.000431,0.006582
34461000,0.0324,0.013523,0.002678,0.000431,0.007757
34462000,0.0324,0.013523,0.002678,0.000431,0.007169
34463000,0.0324,0.013523,0.002678,0.000431,0.007522
34464000,0.0324,0.013523,0.002678,0.000431,0.009167
34465000,0.0324,0.013523,0.002678,0.000431,0.006464
34466000,0.0324,0.013523,0.002678,0.000431,0.010695
34467000,0.0324,0.013523,0.002678,0.000431,0.005524
34468000,0.0324,0.013523,0.002678,0.000431,0.004701
34469000,0.0324,0.013523,0.002678,0.000431,0.003291
34470000,0.0324,0.013523,0.002678,0.000431,0.005054
34471000,0.0324,0.013523,0.002678,0.000431,0.002351
34472000,0.0324,0.013523,0.002678,0.000431,0.002468
34473000,0.0324,0.013523,0.002678,0.000431,0.002468
34474000,0.0324,0.013523,0.002678,0.000431,0.002233
34475000,0.0324,0.013523,0.002678,0.000431,0.001880
34476000,0.0324,0.013523,0.002678,0.000431,0.001528
34477000,0.0324,0.013523,0.002678,0.000431,0.001763
34478000,0.0324,0.013523,0.002678,0.000431,0.001645
34479000,0.0324,0.013523,0.002678,0.000431,0.001880
34480000,0.0324,0.013523,0.002678,0.000431,0.001528
34481000,0.0324,0.013523,0.002678,0.000431,0.003761
34482000,0.0324,0.013523,0.002678,0.000431,0.000940
34483000,0.0324,0.013523,0.002678,0.000431,0.000940
34484000,0.0324,0.013523,0.002678,0.000431,0.000823
34485000,0.0324,0.013523,0.002678,0.000431,0.000823
34486000,0.0324,0.013523,0.002678,0.000431,0.000940
34487000,0.0324,0.013523,0.002678,0.000431,0.000940
34488000,0.0324,0.013523,0.002678,0.000431,0.000823
34489000,0.0324,0.013523,0.002678,0.000431,0.000823
34490000,0.0324,0.013523,0.002678,0.000431,0.000940
34491000,0.0324,0.013523,0.002678,0.000431,0.000823
34492000,0.0324,0.013523,0.002678,0.000431,0.000940
34493000,0.0324,0.013523,0.002678,0.000431,0.000823
34494000,0.0324,0.013523,0.002678,0.000431,0.071575
34495000,0.0324,0.013523,0.002678,0.000431,0.558494
34496000,0.0324,0.013523,0.002678,0.000431,0.587406
34497000,0.0324,0.013523,0.002678,0.000431,0.135275
34498000,0.0324,0.013523,0.002678,0.000431,0.133982
34499000,0.0324,0.013523,0.002678,0.000431,0.633477
34500000,0.0324,0.013523,0.002678,0.000431,0.246927
34501000,0.0324,0.013523,0.002678,0.000431,0.230003
34502000,0.0324,0.013523,0.002678,0.000431,0.300285
34503000,0.0324,0.013523,0.002678,0.000431,0.140916
34504000,0.0324,0.013523,0.002678,0.000431,0.155255
34505000,0.0324,0.013523,0.002678,0.000431,0.106128
34506000,0.0324,0.013523,0.002678,0.000431,0.463179
34507000,0.0324,0.013523,0.002678,0.000431,0.201796
34508000,0.0324,0.013523,0.002678,0.000431,0.132572
34509000,0.0324,0.013523,0.002678,0.000431,0.117411
34510000,0.0324,0.013523,0.002678,0.000431,0.098489
34511000,0.0324,0.013523,0.002678,0.000431,0.086383
34512000,0.0324,0.013523,0.002678,0.000431,0.084033
34513000,0.0324,0.013523,0.002678,0.000431,0.062055
34514000,0.0324,0.013523,0.002678,0.000431,0.052183
34515000,0.0324,0.013523,0.002678,0.000431,0.058764
34516000,0.0324,0.013523,0.002678,0.000431,0.042898
34517000,0.0324,0.013523,0.002678,0.000431,0.040312
34518000,0.0324,0.013523,0.002678,0.000431,0.031733
34519000,0.0324,0.013523,0.002678,0.000431,0.035494
34520000,0.0324,0.013523,0.002678,0.000431,0.029617
34521000,0.0324,0.013523,0.002678,0.000431,0.028089
34522000,0.0324,0.013523,0.002678,0.000431,0.021508
34523000,0.0324,0.013523,0.002678,0.000431,0.022330
34524000,0.0324,0.013523,0.002678,0.000431,0.016336
34525000,0.0324,0.013523,0.002678,0.000431,0.020215
34526000,0.0324,0.013523,0.002678,0.000431,0.014573
34527000,0.0324,0.013523,0.002678,0.000431,0.012576
34528000,0.0324,0.013523,0.002678,0.000431,0.012811
34529000,0.0324,0.013523,0.002678,0.000431,0.009050
34530000,0.0324,0.013523,0.002678,0.000431,0.011048
34531000,0.0324,0.013523,0.002678,0.000431,0.008462
34532000,0.0324,0.013523,0.002678,0.000431,0.008345
34533000,0.0324,0.013523,0.002678,0.000431,0.007992
34534000,0.0324,0.013523,0.002678,0.000431,0.008697
34535000,0.0324,0.013523,0.002678,0.000431,0.006699
34536000,0.0324,0.013523,0.002678,0.000431,0.008815
34537000,0.0324,0.013523,0.002678,0.000431,0.006111
34538000,0.0324,0.013523,0.002678,0.000431,0.005876
34539000,0.0324,0.013523,0.002678,0.000431,0.006229
34540000,0.0324,0.013523,0.002678,0.000431,0.008815
34541000,0.0324,0.013523,0.002678,0.000431,0.004231
34542000,0.0324,0.013523,0.002678,0.000431,0.006934
34543000,0.0324,0.013523,0.002678,0.000431,0.005289
34544000,0.0324,0.013523,0.002678,0.000431,0.002821
34545000,0.0324,0.013523,0.002678,0.000431,0.002586
34546000,0.0324,0.013523,0.002678,0.000431,0.002351
34547000,0.0324,0.013523,0.002678,0.000431,0.002821
34548000,0.0324,0.013523,0.002678,0.000431,0.002821
34549000,0.0324,0.013523,0.002678,0.000431,0.002586
34550000,0.0324,0.013523,0.002678,0.000431,0.002351
34551000,0.0324,0.013523,0.002678,0.000431,0.002821
34552000,0.0324,0.013523,0.002678,0.000431,0.002821
34553000,0.0324,0.013523,0.002678,0.000431,0.002233
34554000,0.0324,0.013523,0.002678,0.000431,0.002703
34555000,0.0324,0.013523,0.002678,0.000431,0.002821
34556000,0.0324,0.013523,0.002678,0.000431,0.002821
34557000,0.0324,0.013523,0.002678,0.000431,0.006229
34558000,0.0324,0.013523,0.002678,0.000431,0.000823
34559000,0.0324,0.013523,0.002678,0.000431,0.000940
34560000,0.0324,0.013523,0.002678,0.000431,0.000823
34561000,0.0324,0.013523,0.002678,0.000431,0.000940
34562000,0.0324,0.013523,0.002678,0.000431,0.000823
34563000,0.0324,0.013523,0.002678,0.000431,0.000940
34564000,0.0324,0.013523,0.002678,0.000431,0.000823
34565000,0.0324,0.013523,0.002678,0.000431,0.000823
34566000,0.0324,0.013523,0.002678,0.000431,0.000940
34567000,0.0324,0.013523,0.002678,0.000431,0.000940
34568000,0.0324,0.013523,0.002678,0.000431,0.000823
34569000,0.0324,0.013523,0.002678,0.000431,0.000823
34570000,0.0324,0.013523,0.002678,0.000431,0.000940
34571000,0.0324,0.013523,0.002678,0.000431,0.000940
34572000,0.0324,0.013523,0.002678,0.000431,0.000705
34573000,0.0324,0.013523,0.002678,0.000431,0.000940
34574000,0.0324,0.013523,0.002678,0.000431,0.000940
34575000,0.0324,0.013523,0.002678,0.000431,0.000940
34576000,0.0324,0.013523,0.002678,0.000431,0.000823
34577000,0.0324,0.013523,0.002678,0.000431,0.000823
34578000,0.0324,0.013523,0.002678,0.000431,0.000940
34579000,0.0324,0.013523,0.002678,0.000431,0.000940
34580000,0.0324,0.013523,0.002678,0.000431,0.000823
34581000,0.0324,0.013523,0.002678,0.000431,0.000823
34582000,0.0324,0.013523,0.002678,0.000431,0.000940
34583000,0.0324,0.013523,0.002678,0.000431,0.000940
34584000,0.0324,0.013523,0.002678,0.000431,0.000823
34585000,0.0324,0.013523,0.002678,0.000431,0.000823
34586000,0.0324,0.013523,0.002678,0.000431,0.000940
34587000,0.0324,0.013523,0.002678,0.000431,0.000940
34588000,0.0324,0.013523,0.002678,0.000431,0.000823
34589000,0.0324,0.013523,0.002678,0.000431,0.000823
34590000,0.0324,0.013523,0.002678,0.000431,0.000940
34591000,0.0324,0.013523,0.002678,0.000431,0.000823
34592000,0.0324,0.013523,0.002678,0.000431,0.000940
34593000,0.0324,0.013523,0.002678,0.000431,0.000823
34594000,0.0324,0.013523,0.002678,0.000431,0.000940
34595000,0.0324,0.013523,0.002678,0.000431,0.000823
34596000,0.0324,0.013523,0.002678,0.000431,0.000823
34597000,0.0324,0.013523,0.002678,0.000431,0.000940
34598000,0.0324,0.013523,0.002678,0.000431,0.000940
34599000,0.0324,0.013523,0.002678,0.000431,0.000823
34600000,0.0324,0.013523,0.002678,0.000431,0.000823
34601000,0.0324,0.013523,0.002678,0.000431,0.000940
34602000,0.0324,0.013523,0.002678,0.000431,0.000940
34603000,0.0324,0.013523,0.002678,0.000431,0.000705
34604000,0.0324,0.013523,0.002678,0.000431,0.000940
34605000,0.0324,0.013523,0.002678,0.000431,0.000940
34606000,0.0324,0.013523,0.002678,0.000431,0.000940
34607000,0.0324,0.013523,0.002678,0.000431,0.000823
34608000,0.0324,0.013523,0.002678,0.000431,0.000823
34609000,0.0324,0.013523,0.002678,0.000431,0.000940
34610000,0.0324,0.013523,0.002678,0.000431,0.000940
34611000,0.0324,0.013523,0.002678,0.000431,0.000823
34612000,0.0324,0.013523,0.002678,0.000431,0.000823
34613000,0.0324,0.013523,0.002678,0.000431,0.001763
34614000,0.0324,0.013523,0.002678,0.000431,0.411584
34615000,0.0324,0.013523,0.002678,0.000431,0.699410
34616000,0.0324,0.013523,0.002678,0.000431,0.207437
34617000,0.0324,0.013523,0.002678,0.000431,0.137743
34618000,0.0324,0.013523,0.002678,0.000431,0.146793
34619000,0.0324,0.013523,0.002678,0.000431,0.606210
34620000,0.0324,0.013523,0.002678,0.000431,0.239640
34621000,0.0324,0.013523,0.002678,0.000431,0.289707
34622000,0.0324,0.013523,0.002678,0.000431,0.228475
34623000,0.0324,0.013523,0.002678,0.000431,0.148791
34624000,0.0324,0.013523,0.002678,0.000431,0.156665
34625000,0.0324,0.013523,0.002678,0.000431,0.152904
34626000,0.0324,0.013523,0.002678,0.000431,0.462826
34627000,0.0324,0.013523,0.002678,0.000431,0.177938
34628000,0.0324,0.013523,0.002678,0.000431,0.139741
34629000,0.0324,0.013523,0.002678,0.000431,0.121877
34630000,0.0324,0.013523,0.002678,0.000431,0.110124
34631000,0.0324,0.013523,0.002678,0.000431,0.096726
34632000,0.0324,0.013523,0.002678,0.000431,0.084855
34633000,0.0324,0.013523,0.002678,0.000431,0.077451
34634000,0.0324,0.013523,0.002678,0.000431,0.059352
34635000,0.0324,0.013523,0.002678,0.000431,0.056296
34636000,0.0324,0.013523,0.002678,0.000431,0.047599
34637000,0.0324,0.013523,0.002678,0.000431,0.052300
34638000,0.0324,0.013523,0.002678,0.000431,0.039960
34639000,0.0324,0.013523,0.002678,0.000431,0.030557
34640000,0.0324,0.013523,0.002678,0.000431,0.034436
34641000,0.0324,0.013523,0.002678,0.000431,0.037021
34642000,0.0324,0.013523,0.002678,0.000431,0.018922
34643000,0.0324,0.013523,0.002678,0.000431,0.018569
34644000,0.0324,0.013523,0.002678,0.000431,0.017159
34645000,0.0324,0.013523,0.002678,0.000431,0.017982
34646000,0.0324,0.013523,0.002678,0.000431,0.016807
34647000,0.0324,0.013523,0.002678,0.000431,0.010695
34648000,0.0324,0.013523,0.002678,0.000431,0.009050
34649000,0.0324,0.013523,0.002678,0.000431,0.010930
34650000,0.0324,0.013523,0.002678,0.000431,0.010107
34651000,0.0324,0.013523,0.002678,0.000431,0.008462
34652000,0.0324,0.013523,0.002678,0.000431,0.006111
34653000,0.0324,0.013523,0.002678,0.000431,0.005994
34654000,0.0324,0.013523,0.002678,0.000431,0.005759
34655000,0.0324,0.013523,0.002678,0.000431,0.005054
34656000,0.0324,0.013523,0.002678,0.000431,0.006699
34657000,0.0324,0.013523,0.002678,0.000431,0.006111
34658000,0.0324,0.013523,0.002678,0.000431,0.002586
34659000,0.0324,0.013523,0.002678,0.000431,0.005171
34660000,0.0324,0.013523,0.002678,0.000431,0.002351
34661000,0.0324,0.013523,0.002678,0.000431,0.000823
34662000,0.0324,0.013523,0.002678,0.000431,0.000705
34663000,0.0324,0.013523,0.002678,0.000431,0.000940
34664000,0.0324,0.013523,0.002678,0.000431,0.000940
34665000,0.0324,0.013523,0.002678,0.000431,0.000705
34666000,0.0324,0.013523,0.002678,0.000431,0.013868
34667000,0.0324,0.013523,0.002678,0.000431,0.607268
34668000,0.0324,0.013523,0.002678,0.000431,0.617258
34669000,0.0324,0.013523,0.002678,0.000431,0.147145
34670000,0.0324,0.013523,0.002678,0.000431,0.133512
34671000,0.0324,0.013523,0.002678,0.000431,0.404062
34672000,0.0324,0.013523,0.002678,0.000431,0.377736
34673000,0.0324,0.013523,0.002678,0.000431,0.229297
34674000,0.0324,0.013523,0.002678,0.000431,0.355170
34675000,0.0324,0.013523,0.002678,0.000431,0.170651
34676000,0.0324,0.013523,0.002678,0.000431,0.143737
34677000,0.0324,0.013523,0.002678,0.000431,0.113297
34678000,0.0324,0.013523,0.002678,0.000431,0.352114
34679000,0.0324,0.013523,0.002678,0.000431,0.358696
34680000,0.0324,0.013523,0.002678,0.000431,0.165245
34681000,0.0324,0.013523,0.002678,0.000431,0.130456
34682000,0.0324,0.013523,0.002678,0.000431,0.128106
34683000,0.0324,0.013523,0.002678,0.000431,0.112122
34684000,0.0324,0.013523,0.002678,0.000431,0.095198
34685000,0.0324,0.013523,0.002678,0.000431,0.074865
34686000,0.0324,0.013523,0.002678,0.000431,0.070987
34687000,0.0324,0.013523,0.002678,0.000431,0.063935
34688000,0.0324,0.013523,0.002678,0.000431,0.059587
34689000,0.0324,0.013523,0.002678,0.000431,0.038432
34690000,0.0324,0.013523,0.002678,0.000431,0.040195
34691000,0.0324,0.013523,0.002678,0.000431,0.034436
34692000,0.0324,0.013523,0.002678,0.000431,0.028912
34693000,0.0324,0.013523,0.002678,0.000431,0.025739
34694000,0.0324,0.013523,0.002678,0.000431,0.030087
34695000,0.0324,0.013523,0.002678,0.000431,0.023858
34696000,0.0324,0.013523,0.002678,0.000431,0.016101
34697000,0.0324,0.013523,0.002678,0.000431,0.012928
34698000,0.0324,0.013523,0.002678,0.000431,0.011635
34699000,0.0324,0.013523,0.002678,0.000431,0.015866
34700000,0.0324,0.013523,0.002678,0.000431,0.006817
34701000,0.0324,0.013523,0.002678,0.000431,0.011283
34702000,0.0324,0.013523,0.002678,0.000431,0.004936
34703000,0.0324,0.013523,0.002678,0.000431,0.005054
34704000,0.0324,0.013523,0.002678,0.000431,0.005054
34705000,0.0324,0.013523,0.002678,0.000431,0.004584
34706000,0.0324,0.013523,0.002678,0.000431,0.004701
34707000,0.0324,0.013523,0.002678,0.000431,0.004701
34708000,0.0324,0.013523,0.002678,0.000431,0.005054
34709000,0.0324,0.013523,0.002678,0.000431,0.006582
34710000,0.0324,0.013523,0.002678,0.000431,0.005641
34711000,0.0324,0.013523,0.002678,0.000431,0.004936
34712000,0.0324,0.013523,0.002678,0.000431,0.002116
34713000,0.0324,0.013523,0.002678,0.000431,0.003996
34714000,0.0324,0.013523,0.002678,0.000431,0.001293
34715000,0.0324,0.013523,0.002678,0.000431,0.001645
34716000,0.0324,0.013523,0.002678,0.000431,0.001410
34717000,0.0324,0.013523,0.002678,0.000431,0.001645
34718000,0.0324,0.013523,0.002678,0.000431,0.001410
34719000,0.0324,0.013523,0.002678,0.000431,0.001645
34720000,0.0324,0.013523,0.002678,0.000431,0.001410
34721000,0.0324,0.013523,0.002678,0.000431,0.001645
34722000,0.0324,0.013523,0.002678,0.000431,0.001645
34723000,0.0324,0.013523,0.002678,0.000431,0.001410
34724000,0.0324,0.013523,0.002678,0.000431,0.001645
34725000,0.0324,0.013523,0.002678,0.000431,0.001528
34726000,0.0324,0.013523,0.002678,0.000431,0.001410
34727000,0.0324,0.013523,0.002678,0.000431,0.001763
34728000,0.0324,0.013523,0.002678,0.000431,0.001293
34729000,0.0324,0.013523,0.002678,0.000431,0.001528
34730000,0.0324,0.013523,0.002678,0.000431,0.001880
34731000,0.0324,0.013523,0.002678,0.000431,0.001175
34732000,0.0324,0.013523,0.002678,0.000431,0.001645
34733000,0.0324,0.013523,0.002678,0.000431,0.001645
34734000,0.0324,0.013523,0.002678,0.000431,0.001410
34735000,0.0324,0.013523,0.002678,0.000431,0.001880
34736000,0.0324,0.013523,0.002678,0.000431,0.001293
34737000,0.0324,0.013523,0.002678,0.000431,0.001763
34738000,0.0324,0.013523,0.002678,0.000431,0.001410
34739000,0.0324,0.013523,0.002678,0.000431,0.001645
34740000,0.0324,0.013523,0.002678,0.000431,0.001645
34741000,0.0324,0.013523,0.002678,0.000431,0.001528
34742000,0.0324,0.013523,0.002678,0.000431,0.001528
34743000,0.0324,0.013523,0.002678,0.000431,0.001645
34744000,0.0324,0.013523,0.002678,0.000431,0.001410
34745000,0.0324,0.013523,0.002678,0.000431,0.001645
34746000,0.0324,0.013523,0.002678,0.000431,0.001528
34747000,0.0324,0.013523,0.002678,0.000431,0.001528
34748000,0.0324,0.013523,0.002678,0.000431,0.001880
34749000,0.0324,0.013523,0.002678,0.000431,0.001175
34750000,0.0324,0.013523,0.002678,0.000431,0.001880
34751000,0.0324,0.013523,0.002678,0.000431,0.001528
34752000,0.0324,0.013523,0.002678,0.000431,0.001528
34753000,0.0324,0.013523,0.002678,0.000431,0.001645
34754000,0.0324,0.013523,0.002678,0.000431,0.000823
34755000,0.0324,0.013523,0.002678,0.000431,0.000940
34756000,0.0324,0.013523,0.002678,0.000431,0.000823
34757000,0.0324,0.013523,0.002678,0.000431,0.000823
34758000,0.0324,0.013523,0.002678,0.000431,0.000940
34759000,0.0324,0.013523,0.002678,0.000431,0.000705
34760000,0.0324,0.013523,0.002678,0.000431,0.000940
34761000,0.0324,0.013523,0.002678,0.000431,0.000823
34762000,0.0324,0.013523,0.002678,0.000431,0.000823
34763000,0.0324,0.013523,0.002678,0.000431,0.000940
34764000,0.0324,0.013523,0.002678,0.000431,0.000823
34765000,0.0324,0.013523,0.002678,0.000431,0.000823
34766000,0.0324,0.013523,0.002678,0.000431,0.000940
34767000,0.0324,0.013523,0.002678,0.000431,0.000705
34768000,0.0324,0.013523,0.002678,0.000431,0.000940
34769000,0.0324,0.013523,0.002678,0.000431,0.000823
34770000,0.0324,0.013523,0.002678,0.000431,0.000823
34771000,0.0324,0.013523,0.002678,0.000431,0.000940
34772000,0.0324,0.013523,0.002678,0.000431,0.000823
34773000,0.0324,0.013523,0.002678,0.000431,0.000823
34774000,0.0324,0.013523,0.002678,0.000431,0.000823
34775000,0.0324,0.013523,0.002678,0.000431,0.000823
34776000,0.0324,0.013523,0.002678,0.000431,0.000940
34777000,0.0324,0.013523,0.002678,0.000431,0.000823
34778000,0.0324,0.013523,0.002678,0.000431,0.000823
34779000,0.0324,0.013523,0.002678,0.000431,0.000940
34780000,0.0324,0.013523,0.002678,0.000431,0.000823
34781000,0.0324,0.013523,0.002678,0.000431,0.234351
34782000,0.0324,0.013523,0.002678,0.000431,0.702583
34783000,0.0324,0.013523,0.002678,0.000431,0.414639
34784000,0.0324,0.013523,0.002678,0.000431,0.141386
34785000,0.0324,0.013523,0.002678,0.000431,0.152669
34786000,0.0324,0.013523,0.002678,0.000431,0.639706
34787000,0.0324,0.013523,0.002678,0.000431,0.249042
34788000,0.0324,0.013523,0.002678,0.000431,0.312037
34789000,0.0324,0.013523,0.002678,0.000431,0.207202
34790000,0.0324,0.013523,0.002678,0.000431,0.143502
34791000,0.0324,0.013523,0.002678,0.000431,0.137861
34792000,0.0324,0.013523,0.002678,0.000431,0.241638
34793000,0.0324,0.013523,0.002678,0.000431,0.424512
34794000,0.0324,0.013523,0.002678,0.000431,0.159721
34795000,0.0324,0.013523,0.002678,0.000431,0.135863
34796000,0.0324,0.013523,0.002678,0.000431,0.111887
34797000,0.0324,0.013523,0.002678,0.000431,0.107303
34798000,0.0324,0.013523,0.002678,0.000431,0.076863
34799000,0.0324,0.013523,0.002678,0.000431,0.062407
34800000,0.0324,0.013523,0.002678,0.000431,0.048657
34801000,0.0324,0.013523,0.002678,0.000431,0.051360
34802000,0.0324,0.013523,0.002678,0.000431,0.046894
34803000,0.0324,0.013523,0.002678,0.000431,0.030322
34804000,0.0324,0.013523,0.002678,0.000431,0.028912
34805000,0.0324,0.013523,0.002678,0.000431,0.024798
34806000,0.0324,0.013523,0.002678,0.000431,0.024681
34807000,0.0324,0.013523,0.002678,0.000431,0.023623
34808000,0.0324,0.013523,0.002678,0.000431,0.021273
34809000,0.0324,0.013523,0.002678,0.000431,0.020920
34810000,0.0324,0.013523,0.002678,0.000431,0.018687
34811000,0.0324,0.013523,0.002678,0.000431,0.010460
34812000,0.0324,0.013523,0.002678,0.000431,0.010460
34813000,0.0324,0.013523,0.002678,0.000431,0.017512
34814000,0.0324,0.013523,0.002678,0.000431,0.007874
34815000,0.0324,0.013523,0.002678,0.000431,0.012340
34816000,0.0324,0.013523,0.002678,0.000431,0.005524
34817000,0.0324,0.013523,0.002678,0.000431,0.005054
34818000,0.0324,0.013523,0.002678,0.000431,0.005054
34819000,0.0324,0.013523,0.002678,0.000431,0.007874
34820000,0.0324,0.013523,0.002678,0.000431,0.003996
34821000,0.0324,0.013523,0.002678,0.000431,0.004231
34822000,0.0324,0.013523,0.002678,0.000431,0.004349
34823000,0.0324,0.013523,0.002678,0.000431,0.006111
34824000,0.0324,0.013523,0.002678,0.000431,0.004231
34825000,0.0324,0.013523,0.002678,0.000431,0.003643
34826000,0.0324,0.013523,0.002678,0.000431,0.001880
34827000,0.0324,0.013523,0.002678,0.000431,0.001880
34828000,0.0324,0.013523,0.002678,0.000431,0.001410
34829000,0.0324,0.013523,0.002678,0.000431,0.001880
34830000,0.0324,0.013523,0.002678,0.000431,0.001410
34831000,0.0324,0.013523,0.002678,0.000431,0.001880
34832000,0.0324,0.013523,0.002678,0.000431,0.001763
34833000,0.0324,0.013523,0.002678,0.000431,0.001645
34834000,0.0324,0.013523,0.002678,0.000431,0.001645
34835000,0.0324,0.013523,0.002678,0.000431,0.001645
34836000,0.0324,0.013523,0.002678,0.000431,0.001763
34837000,0.0324,0.013523,0.002678,0.000431,0.001645
34838000,0.0324,0.013523,0.002678,0.000431,0.001645
34839000,0.0324,0.013523,0.002678,0.000431,0.001763
34840000,0.0324,0.013523,0.002678,0.000431,0.001528
34841000,0.0324,0.013523,0.002678,0.000431,0.001645
34842000,0.0324,0.013523,0.002678,0.000431,0.001763
34843000,0.0324,0.013523,0.002678,0.000431,0.001528
34844000,0.0324,0.013523,0.002678,0.000431,0.004113
34845000,0.0324,0.013523,0.002678,0.000431,0.000823
34846000,0.0324,0.013523,0.002678,0.000431,0.000940
34847000,0.0324,0.013523,0.002678,0.000431,0.000823
34848000,0.0324,0.013523,0.002678,0.000431,0.000823
34849000,0.0324,0.013523,0.002678,0.000431,0.000823
34850000,0.0324,0.013523,0.002678,0.000431,0.000823
34851000,0.0324,0.013523,0.002678,0.000431,0.003173
34852000,0.0324,0.013523,0.002678,0.000431,0.468232
34853000,0.0324,0.013523,0.002678,0.000431,0.763228
34854000,0.0324,0.013523,0.002678,0.000431,0.145852
34855000,0.0324,0.013523,0.002678,0.000431,0.133512
34856000,0.0324,0.013523,0.002678,0.000431,0.175235
34857000,0.0324,0.013523,0.002678,0.000431,0.554498
34858000,0.0324,0.013523,0.002678,0.000431,0.239640
34859000,0.0324,0.013523,0.002678,0.000431,0.290647
34860000,0.0324,0.013523,0.002678,0.000431,0.207790
34861000,0.0324,0.013523,0.002678,0.000431,0.148086
34862000,0.0324,0.013523,0.002678,0.000431,0.168183
34863000,0.0324,0.013523,0.002678,0.000431,0.134687
34864000,0.0324,0.013523,0.002678,0.000431,0.506194
34865000,0.0324,0.013523,0.002678,0.000431,0.177938
34866000,0.0324,0.013523,0.002678,0.000431,0.148321
34867000,0.0324,0.013523,0.002678,0.000431,0.123875
34868000,0.0324,0.013523,0.002678,0.000431,0.103190
34869000,0.0324,0.013523,0.002678,0.000431,0.085208
34870000,0.0324,0.013523,0.002678,0.000431,0.078861
34871000,0.0324,0.013523,0.002678,0.000431,0.066638
34872000,0.0324,0.013523,0.002678,0.000431,0.044073
34873000,0.0324,0.013523,0.002678,0.000431,0.043720
34874000,0.0324,0.013523,0.002678,0.000431,0.038784
34875000,0.0324,0.013523,0.002678,0.000431,0.036786
34876000,0.0324,0.013523,0.002678,0.000431,0.025034
34877000,0.0324,0.013523,0.002678,0.000431,0.023858
34878000,0.0324,0.013523,0.002678,0.000431,0.019157
34879000,0.0324,0.013523,0.002678,0.000431,0.013516
34880000,0.0324,0.013523,0.002678,0.000431,0.010813
34881000,0.0324,0.013523,0.002678,0.000431,0.012576
34882000,0.0324,0.013523,0.002678,0.000431,0.009520
34883000,0.0324,0.013523,0.002678,0.000431,0.009285
34884000,0.0324,0.013523,0.002678,0.000431,0.011165
34885000,0.0324,0.013523,0.002678,0.000431,0.013046
34886000,0.0324,0.013523,0.002678,0.000431,0.008227
34887000,0.0324,0.013523,0.002678,0.000431,0.004584
34888000,0.0324,0.013523,0.002678,0.000431,0.004701
34889000,0.0324,0.013523,0.002678,0.000431,0.007522
34890000,0.0324,0.013523,0.002678,0.000431,0.003408
34891000,0.0324,0.013523,0.002678,0.000431,0.003173
34892000,0.0324,0.013523,0.002678,0.000431,0.003291
34893000,0.0324,0.013523,0.002678,0.000431,0.003526
34894000,0.0324,0.013523,0.002678,0.000431,0.003291
34895000,0.0324,0.013523,0.002678,0.000431,0.003761
34896000,0.0324,0.013523,0.002678,0.000431,0.009402
34897000,0.0324,0.013523,0.002678,0.000431,0.000823
34898000,0.0324,0.013523,0.002678,0.000431,0.000940
34899000,0.0324,0.013523,0.002678,0.000431,0.000705
34900000,0.0324,0.013523,0.002678,0.000431,0.000940
34901000,0.0324,0.013523,0.002678,0.000431,0.000823
34902000,0.0324,0.013523,0.002678,0.000431,0.000823
34903000,0.0324,0.013523,0.002678,0.000431,0.000823
34904000,0.0324,0.013523,0.002678,0.000431,0.000823
34905000,0.0324,0.013523,0.002678,0.000431,0.000823
34906000,0.0324,0.013523,0.002678,0.000431,0.000823
34907000,0.0324,0.013523,0.002678,0.000431,0.000940
34908000,0.0324,0.013523,0.002678,0.000431,0.000705
34909000,0.0324,0.013523,0.002678,0.000431,0.000823
34910000,0.0324,0.013523,0.002678,0.000431,0.000940
34911000,0.0324,0.013523,0.002678,0.000431,0.000823
34912000,0.0324,0.013523,0.002678,0.000431,0.000823
34913000,0.0324,0.013523,0.002678,0.000431,0.000823
34914000,0.0324,0.013523,0.002678,0.000431,0.000823
34915000,0.0324,0.013523,0.002678,0.000431,0.000823
34916000,0.0324,0.013523,0.002678,0.000431,0.000940
34917000,0.0324,0.013523,0.002678,0.000431,0.000823
34918000,0.0324,0.013523,0.002678,0.000431,0.000823
34919000,0.0324,0.013523,0.002678,0.000431,0.000705
34920000,0.0324,0.013523,0.002678,0.000431,0.000940
34921000,0.0324,0.013523,0.002678,0.000431,0.000940
34922000,0.0324,0.013523,0.002678,0.000431,0.000705
34923000,0.0324,0.013523,0.002678,0.000431,0.000940
34924000,0.0324,0.013523,0.002678,0.000431,0.000705
34925000,0.0324,0.013523,0.002678,0.000431,0.000940
34926000,0.0324,0.013523,0.002678,0.000431,0.000823
34927000,0.0324,0.013523,0.002678,0.000431,0.000823
34928000,0.0324,0.013523,0.002678,0.000431,0.000823
34929000,0.0324,0.013523,0.002678,0.000431,0.000823
34930000,0.0324,0.013523,0.002678,0.000431,0.000940
34931000,0.0324,0.013523,0.002678,0.000431,0.000823
34932000,0.0324,0.013523,0.002678,0.000431,0.000823
34933000,0.0324,0.013523,0.002678,0.000431,0.000823
34934000,0.0324,0.013523,0.002678,0.000431,0.000823
34935000,0.0324,0.013523,0.002678,0.000431,0.000823
34936000,0.0324,0.013523,0.002678,0.000431,0.000823
34937000,0.0324,0.013523,0.002678,0.000431,0.000940
34938000,0.0324,0.013523,0.002678,0.000431,0.000705
34939000,0.0324,0.013523,0.002678,0.000431,0.000823
34940000,0.0324,0.013523,0.002678,0.000431,0.000940
34941000,0.0324,0.013523,0.002678,0.000431,0.000823
34942000,0.0324,0.013523,0.002678,0.000431,0.000823
34943000,0.0324,0.013523,0.002678,0.000431,0.000823
34944000,0.0324,0.013523,0.002678,0.000431,0.000705
34945000,0.0324,0.013523,0.002678,0.000431,0.000940
34946000,0.0324,0.013523,0.002678,0.000431,0.000940
34947000,0.0324,0.013523,0.002678,0.000431,0.000823
34948000,0.0324,0.013523,0.002678,0.000431,0.000823
34949000,0.0324,0.013523,0.002678,0.000431,0.000705
34950000,0.0324,0.013523,0.002678,0.000431,0.000940
34951000,0.0324,0.013523,0.002678,0.000431,0.000940
34952000,0.0324,0.013523,0.002678,0.000431,0.000705
34953000,0.0324,0.013523,0.002678,0.000431,0.000940
34954000,0.0324,0.013523,0.002678,0.000431,0.000705
34955000,0.0324,0.013523,0.002678,0.000431,0.000940
34956000,0.0324,0.013523,0.002678,0.000431,0.000823
34957000,0.0324,0.013523,0.002678,0.000431,0.000823
34958000,0.0324,0.013523,0.002678,0.000431,0.000823
34959000,0.0324,0.013523,0.002678,0.000431,0.000823
34960000,0.0324,0.013523,0.002678,0.000431,0.000940
34961000,0.0324,0.013523,0.002678,0.000431,0.000705
34962000,0.0324,0.013523,0.002678,0.000431,0.000940
34963000,0.0324,0.013523,0.002678,0.000431,0.000823
34964000,0.0324,0.013523,0.002678,0.000431,0.000823
34965000,0.0324,0.013523,0.002678,0.000431,0.000823
34966000,0.0324,0.013523,0.002678,0.000431,0.000823
34967000,0.0324,0.013523,0.002678,0.000431,0.000940
34968000,0.0324,0.013523,0.002678,0.000431,0.000705
34969000,0.0324,0.013523,0.002678,0.000431,0.000940
34970000,0.0324,0.013523,0.002678,0.000431,0.000705
34971000,0.0324,0.013523,0.002678,0.000431,0.000940
34972000,0.0324,0.013523,0.002678,0.000431,0.000705
34973000,0.0324,0.013523,0.002678,0.000431,0.000940
34974000,0.0324,0.013523,0.002678,0.000431,0.000940
34975000,0.0324,0.013523,0.002678,0.000431,0.000705
34976000,0.0324,0.013523,0.002678,0.000431,0.000940
34977000,0.0324,0.013523,0.002678,0.000431,0.000705
34978000,0.0324,0.013523,0.002678,0.000431,0.014573
34979000,0.0324,0.013523,0.002678,0.000431,0.621724
34980000,0.0324,0.013523,0.002678,0.000431,0.624192
34981000,0.0324,0.013523,0.002678,0.000431,0.143149
34982000,0.0324,0.013523,0.002678,0.000431,0.131632
34983000,0.0324,0.013523,0.002678,0.000431,0.416050
34984000,0.0324,0.013523,0.002678,0.000431,0.361752
34985000,0.0324,0.013523,0.002678,0.000431,0.268552
34986000,0.0324,0.013523,0.002678,0.000431,0.335425
34987000,0.0324,0.013523,0.002678,0.000431,0.140329
34988000,0.0324,0.013523,0.002678,0.000431,0.143972
34989000,0.0324,0.013523,0.002678,0.000431,0.111887
34990000,0.0324,0.013523,0.002678,0.000431,0.392309
34991000,0.0324,0.013523,0.002678,0.000431,0.279247
34992000,0.0324,0.013523,0.002678,0.000431,0.146440
34993000,0.0324,0.013523,0.002678,0.000431,0.123640
34994000,0.0324,0.013523,0.002678,0.000431,0.112357
34995000,0.0324,0.013523,0.002678,0.000431,0.102132
34996000,0.0324,0.013523,0.002678,0.000431,0.092260
34997000,0.0324,0.013523,0.002678,0.000431,0.074748
34998000,0.0324,0.013523,0.002678,0.000431,0.073338
34999000,0.0324,0.013523,0.002678,0.000431,0.070047
