Cycle,Area(mm^2),PeakDynamic(W),SubthresholdLeakage(W),GateLeakage(W),RunTimeDynamic(W)
24000000,0.0324,0.013523,0.002678,0.000431,0.000940
24001000,0.0324,0.013523,0.002678,0.000431,0.000705
24002000,0.0324,0.013523,0.002678,0.000431,0.013633
24003000,0.0324,0.013523,0.002678,0.000431,0.542158
24004000,0.0324,0.013523,0.002678,0.000431,0.601274
24005000,0.0324,0.013523,0.002678,0.000431,0.147145
24006000,0.0324,0.013523,0.002678,0.000431,0.130691
24007000,0.0324,0.013523,0.002678,0.000431,0.281598
24008000,0.0324,0.013523,0.002678,0.000431,0.470583
24009000,0.0324,0.013523,0.002678,0.000431,0.235997
24010000,0.0324,0.013523,0.002678,0.000431,0.278542
24011000,0.0324,0.013523,0.002678,0.000431,0.218132
24012000,0.0324,0.013523,0.002678,0.000431,0.144795
24013000,0.0324,0.013523,0.002678,0.000431,0.178408
24014000,0.0324,0.013523,0.002678,0.000431,0.104483
24015000,0.0324,0.013523,0.002678,0.000431,0.511130
24016000,0.0324,0.013523,0.002678,0.000431,0.192394
24017000,0.0324,0.013523,0.002678,0.000431,0.133394
24018000,0.0324,0.013523,0.002678,0.000431,0.109066
24019000,0.0324,0.013523,0.002678,0.000431,0.088616
24020000,0.0324,0.013523,0.002678,0.000431,0.073338
24021000,0.0324,0.013523,0.002678,0.000431,0.068519
24022000,0.0324,0.013523,0.002678,0.000431,0.055943
24023000,0.0324,0.013523,0.002678,0.000431,0.040782
24024000,0.0324,0.013523,0.002678,0.000431,0.039842
24025000,0.0324,0.013523,0.002678,0.000431,0.040312
24026000,0.0324,0.013523,0.002678,0.000431,0.038314
24027000,0.0324,0.013523,0.002678,0.000431,0.024681
24028000,0.0324,0.013523,0.002678,0.000431,0.030557
24029000,0.0324,0.013523,0.002678,0.000431,0.018334
24030000,0.0324,0.013523,0.002678,0.000431,0.016807
24031000,0.0324,0.013523,0.002678,0.000431,0.021273
24032000,0.0324,0.013523,0.002678,0.000431,0.013046
24033000,0.0324,0.013523,0.002678,0.000431,0.012458
24034000,0.0324,0.013523,0.002678,0.000431,0.011635
24035000,0.0324,0.013523,0.002678,0.000431,0.013046
24036000,0.0324,0.013523,0.002678,0.000431,0.014103
24037000,0.0324,0.013523,0.002678,0.000431,0.009990
24038000,0.0324,0.013523,0.002678,0.000431,0.006699
24039000,0.0324,0.013523,0.002678,0.000431,0.011753
24040000,0.0324,0.013523,0.002678,0.000431,0.005641
24041000,0.0324,0.013523,0.002678,0.000431,0.005406
24042000,0.0324,0.013523,0.002678,0.000431,0.003996
24043000,0.0324,0.013523,0.002678,0.000431,0.007052
24044000,0.0324,0.013523,0.002678,0.000431,0.003173
24045000,0.0324,0.013523,0.002678,0.000431,0.003291
24046000,0.0324,0.013523,0.002678,0.000431,0.003526
24047000,0.0324,0.013523,0.002678,0.000431,0.003291
24048000,0.0324,0.013523,0.002678,0.000431,0.003056
24049000,0.0324,0.013523,0.002678,0.000431,0.003761
24050000,0.0324,0.013523,0.002678,0.000431,0.003526
24051000,0.0324,0.013523,0.002678,0.000431,0.003408
24052000,0.0324,0.013523,0.002678,0.000431,0.006347
24053000,0.0324,0.013523,0.002678,0.000431,0.002821
24054000,0.0324,0.013523,0.002678,0.000431,0.002586
24055000,0.0324,0.013523,0.002678,0.000431,0.005641
24056000,0.0324,0.013523,0.002678,0.000431,0.001763
24057000,0.0324,0.013523,0.002678,0.000431,0.001645
24058000,0.0324,0.013523,0.002678,0.000431,0.001645
24059000,0.0324,0.013523,0.002678,0.000431,0.001528
24060000,0.0324,0.013523,0.002678,0.000431,0.001763
24061000,0.0324,0.013523,0.002678,0.000431,0.001645
24062000,0.0324,0.013523,0.002678,0.000431,0.001645
24063000,0.0324,0.013523,0.002678,0.000431,0.001645
24064000,0.0324,0.013523,0.002678,0.000431,0.001645
24065000,0.0324,0.013523,0.002678,0.000431,0.001645
24066000,0.0324,0.013523,0.002678,0.000431,0.001645
24067000,0.0324,0.013523,0.002678,0.000431,0.001645
24068000,0.0324,0.013523,0.002678,0.000431,0.001880
24069000,0.0324,0.013523,0.002678,0.000431,0.001410
24070000,0.0324,0.013523,0.002678,0.000431,0.001645
24071000,0.0324,0.013523,0.002678,0.000431,0.001763
24072000,0.0324,0.013523,0.002678,0.000431,0.001763
24073000,0.0324,0.013523,0.002678,0.000431,0.001410
24074000,0.0324,0.013523,0.002678,0.000431,0.001645
24075000,0.0324,0.013523,0.002678,0.000431,0.001880
24076000,0.0324,0.013523,0.002678,0.000431,0.001645
24077000,0.0324,0.013523,0.002678,0.000431,0.001410
24078000,0.0324,0.013523,0.002678,0.000431,0.001880
24079000,0.0324,0.013523,0.002678,0.000431,0.001645
24080000,0.0324,0.013523,0.002678,0.000431,0.001410
24081000,0.0324,0.013523,0.002678,0.000431,0.001645
24082000,0.0324,0.013523,0.002678,0.000431,0.001880
24083000,0.0324,0.013523,0.002678,0.000431,0.001645
24084000,0.0324,0.013523,0.002678,0.000431,0.001410
24085000,0.0324,0.013523,0.002678,0.000431,0.001880
24086000,0.0324,0.013523,0.002678,0.000431,0.001645
24087000,0.0324,0.013523,0.002678,0.000431,0.001645
24088000,0.0324,0.013523,0.002678,0.000431,0.001528
24089000,0.0324,0.013523,0.002678,0.000431,0.001763
24090000,0.0324,0.013523,0.002678,0.000431,0.001645
24091000,0.0324,0.013523,0.002678,0.000431,0.001645
24092000,0.0324,0.013523,0.002678,0.000431,0.239640
24093000,0.0324,0.013523,0.002678,0.000431,0.738077
24094000,0.0324,0.013523,0.002678,0.000431,0.384435
24095000,0.0324,0.013523,0.002678,0.000431,0.132102
24096000,0.0324,0.013523,0.002678,0.000431,0.133982
24097000,0.0324,0.013523,0.002678,0.000431,0.600451
24098000,0.0324,0.013523,0.002678,0.000431,0.259737
24099000,0.0324,0.013523,0.002678,0.000431,0.254801
24100000,0.0324,0.013523,0.002678,0.000431,0.243518
24101000,0.0324,0.013523,0.002678,0.000431,0.143502
24102000,0.0324,0.013523,0.002678,0.000431,0.170298
24103000,0.0324,0.013523,0.002678,0.000431,0.148203
24104000,0.0324,0.013523,0.002678,0.000431,0.480573
24105000,0.0324,0.013523,0.002678,0.000431,0.179113
24106000,0.0324,0.013523,0.002678,0.000431,0.131397
24107000,0.0324,0.013523,0.002678,0.000431,0.116705
24108000,0.0324,0.013523,0.002678,0.000431,0.097783
24109000,0.0324,0.013523,0.002678,0.000431,0.081094
24110000,0.0324,0.013523,0.002678,0.000431,0.071457
24111000,0.0324,0.013523,0.002678,0.000431,0.051125
24112000,0.0324,0.013523,0.002678,0.000431,0.047246
24113000,0.0324,0.013523,0.002678,0.000431,0.037609
24114000,0.0324,0.013523,0.002678,0.000431,0.032203
24115000,0.0324,0.013523,0.002678,0.000431,0.033731
24116000,0.0324,0.013523,0.002678,0.000431,0.026561
24117000,0.0324,0.013523,0.002678,0.000431,0.028442
24118000,0.0324,0.013523,0.002678,0.000431,0.021390
24119000,0.0324,0.013523,0.002678,0.000431,0.020215
24120000,0.0324,0.013523,0.002678,0.000431,0.022565
24121000,0.0324,0.013523,0.002678,0.000431,0.014338
24122000,0.0324,0.013523,0.002678,0.000431,0.009167
24123000,0.0324,0.013523,0.002678,0.000431,0.013281
24124000,0.0324,0.013523,0.002678,0.000431,0.007757
24125000,0.0324,0.013523,0.002678,0.000431,0.009050
24126000,0.0324,0.013523,0.002678,0.000431,0.008697
24127000,0.0324,0.013523,0.002678,0.000431,0.009637
24128000,0.0324,0.013523,0.002678,0.000431,0.006229
24129000,0.0324,0.013523,0.002678,0.000431,0.005054
24130000,0.0324,0.013523,0.002678,0.000431,0.004466
24131000,0.0324,0.013523,0.002678,0.000431,0.005171
24132000,0.0324,0.013523,0.002678,0.000431,0.006229
24133000,0.0324,0.013523,0.002678,0.000431,0.002703
24134000,0.0324,0.013523,0.002678,0.000431,0.002351
24135000,0.0324,0.013523,0.002678,0.000431,0.002821
24136000,0.0324,0.013523,0.002678,0.000431,0.002351
24137000,0.0324,0.013523,0.002678,0.000431,0.002703
24138000,0.0324,0.013523,0.002678,0.000431,0.002586
24139000,0.0324,0.013523,0.002678,0.000431,0.002351
24140000,0.0324,0.013523,0.002678,0.000431,0.002703
24141000,0.0324,0.013523,0.002678,0.000431,0.002586
24142000,0.0324,0.013523,0.002678,0.000431,0.003643
24143000,0.0324,0.013523,0.002678,0.000431,0.002938
24144000,0.0324,0.013523,0.002678,0.000431,0.001645
24145000,0.0324,0.013523,0.002678,0.000431,0.001880
24146000,0.0324,0.013523,0.002678,0.000431,0.001645
24147000,0.0324,0.013523,0.002678,0.000431,0.001645
24148000,0.0324,0.013523,0.002678,0.000431,0.001880
24149000,0.0324,0.013523,0.002678,0.000431,0.001880
24150000,0.0324,0.013523,0.002678,0.000431,0.003878
24151000,0.0324,0.013523,0.002678,0.000431,0.000823
24152000,0.0324,0.013523,0.002678,0.000431,0.000823
24153000,0.0324,0.013523,0.002678,0.000431,0.070869
24154000,0.0324,0.013523,0.002678,0.000431,0.649696
24155000,0.0324,0.013523,0.002678,0.000431,0.584703
24156000,0.0324,0.013523,0.002678,0.000431,0.135157
24157000,0.0324,0.013523,0.002678,0.000431,0.133512
24158000,0.0324,0.013523,0.002678,0.000431,0.586348
24159000,0.0324,0.013523,0.002678,0.000431,0.219778
24160000,0.0324,0.013523,0.002678,0.000431,0.300402
24161000,0.0324,0.013523,0.002678,0.000431,0.297229
24162000,0.0324,0.013523,0.002678,0.000431,0.139153
24163000,0.0324,0.013523,0.002678,0.000431,0.156900
24164000,0.0324,0.013523,0.002678,0.000431,0.098959
24165000,0.0324,0.013523,0.002678,0.000431,0.477635
24166000,0.0324,0.013523,0.002678,0.000431,0.219778
24167000,0.0324,0.013523,0.002678,0.000431,0.123052
24168000,0.0324,0.013523,0.002678,0.000431,0.102014
24169000,0.0324,0.013523,0.002678,0.000431,0.085208
24170000,0.0324,0.013523,0.002678,0.000431,0.072397
24171000,0.0324,0.013523,0.002678,0.000431,0.073103
24172000,0.0324,0.013523,0.002678,0.000431,0.069929
24173000,0.0324,0.013523,0.002678,0.000431,0.060762
24174000,0.0324,0.013523,0.002678,0.000431,0.058764
24175000,0.0324,0.013523,0.002678,0.000431,0.045013
24176000,0.0324,0.013523,0.002678,0.000431,0.045601
24177000,0.0324,0.013523,0.002678,0.000431,0.038549
24178000,0.0324,0.013523,0.002678,0.000431,0.039489
24179000,0.0324,0.013523,0.002678,0.000431,0.031968
24180000,0.0324,0.013523,0.002678,0.000431,0.024093
24181000,0.0324,0.013523,0.002678,0.000431,0.027031
24182000,0.0324,0.013523,0.002678,0.000431,0.019392
24183000,0.0324,0.013523,0.002678,0.000431,0.017042
24184000,0.0324,0.013523,0.002678,0.000431,0.017159
24185000,0.0324,0.013523,0.002678,0.000431,0.015514
24186000,0.0324,0.013523,0.002678,0.000431,0.013516
24187000,0.0324,0.013523,0.002678,0.000431,0.014809
24188000,0.0324,0.013523,0.002678,0.000431,0.011283
24189000,0.0324,0.013523,0.002678,0.000431,0.009402
24190000,0.0324,0.013523,0.002678,0.000431,0.011870
24191000,0.0324,0.013523,0.002678,0.000431,0.007522
24192000,0.0324,0.013523,0.002678,0.000431,0.009755
24193000,0.0324,0.013523,0.002678,0.000431,0.007169
24194000,0.0324,0.013523,0.002678,0.000431,0.006582
24195000,0.0324,0.013523,0.002678,0.000431,0.008580
24196000,0.0324,0.013523,0.002678,0.000431,0.009520
24197000,0.0324,0.013523,0.002678,0.000431,0.005406
24198000,0.0324,0.013523,0.002678,0.000431,0.007169
24199000,0.0324,0.013523,0.002678,0.000431,0.004349
24200000,0.0324,0.013523,0.002678,0.000431,0.004231
24201000,0.0324,0.013523,0.002678,0.000431,0.004349
24202000,0.0324,0.013523,0.002678,0.000431,0.006582
24203000,0.0324,0.013523,0.002678,0.000431,0.003408
24204000,0.0324,0.013523,0.002678,0.000431,0.003526
24205000,0.0324,0.013523,0.002678,0.000431,0.007404
24206000,0.0324,0.013523,0.002678,0.000431,0.005876
24207000,0.0324,0.013523,0.002678,0.000431,0.000823
24208000,0.0324,0.013523,0.002678,0.000431,0.000823
24209000,0.0324,0.013523,0.002678,0.000431,0.000705
24210000,0.0324,0.013523,0.002678,0.000431,0.000940
24211000,0.0324,0.013523,0.002678,0.000431,0.000823
24212000,0.0324,0.013523,0.002678,0.000431,0.000823
24213000,0.0324,0.013523,0.002678,0.000431,0.000940
24214000,0.0324,0.013523,0.002678,0.000431,0.000940
24215000,0.0324,0.013523,0.002678,0.000431,0.165127
24216000,0.0324,0.013523,0.002678,0.000431,0.609619
24217000,0.0324,0.013523,0.002678,0.000431,0.542040
24218000,0.0324,0.013523,0.002678,0.000431,0.134217
24219000,0.0324,0.013523,0.002678,0.000431,0.132102
24220000,0.0324,0.013523,0.002678,0.000431,0.547916
24221000,0.0324,0.013523,0.002678,0.000431,0.247749
24222000,0.0324,0.013523,0.002678,0.000431,0.220483
24223000,0.0324,0.013523,0.002678,0.000431,0.306866
24224000,0.0324,0.013523,0.002678,0.000431,0.139623
24225000,0.0324,0.013523,0.002678,0.000431,0.144677
24226000,0.0324,0.013523,0.002678,0.000431,0.139741
24227000,0.0324,0.013523,0.002678,0.000431,0.257504
24228000,0.0324,0.013523,0.002678,0.000431,0.434854
24229000,0.0324,0.013523,0.002678,0.000431,0.165010
24230000,0.0324,0.013523,0.002678,0.000431,0.135040
24231000,0.0324,0.013523,0.002678,0.000431,0.113297
24232000,0.0324,0.013523,0.002678,0.000431,0.103542
24233000,0.0324,0.013523,0.002678,0.000431,0.077921
24234000,0.0324,0.013523,0.002678,0.000431,0.066168
24235000,0.0324,0.013523,0.002678,0.000431,0.054533
24236000,0.0324,0.013523,0.002678,0.000431,0.053828
24237000,0.0324,0.013523,0.002678,0.000431,0.053945
24238000,0.0324,0.013523,0.002678,0.000431,0.039254
24239000,0.0324,0.013523,0.002678,0.000431,0.029500
24240000,0.0324,0.013523,0.002678,0.000431,0.033025
24241000,0.0324,0.013523,0.002678,0.000431,0.037374
24242000,0.0324,0.013523,0.002678,0.000431,0.019745
24243000,0.0324,0.013523,0.002678,0.000431,0.021038
24244000,0.0324,0.013523,0.002678,0.000431,0.019392
24245000,0.0324,0.013523,0.002678,0.000431,0.019040
24246000,0.0324,0.013523,0.002678,0.000431,0.009285
24247000,0.0324,0.013523,0.002678,0.000431,0.009872
24248000,0.0324,0.013523,0.002678,0.000431,0.008697
24249000,0.0324,0.013523,0.002678,0.000431,0.011518
24250000,0.0324,0.013523,0.002678,0.000431,0.010813
24251000,0.0324,0.013523,0.002678,0.000431,0.009167
24252000,0.0324,0.013523,0.002678,0.000431,0.007874
24253000,0.0324,0.013523,0.002678,0.000431,0.008227
24254000,0.0324,0.013523,0.002678,0.000431,0.006347
24255000,0.0324,0.013523,0.002678,0.000431,0.006347
24256000,0.0324,0.013523,0.002678,0.000431,0.006582
24257000,0.0324,0.013523,0.002678,0.000431,0.006111
24258000,0.0324,0.013523,0.002678,0.000431,0.002351
24259000,0.0324,0.013523,0.002678,0.000431,0.002703
24260000,0.0324,0.013523,0.002678,0.000431,0.006817
24261000,0.0324,0.013523,0.002678,0.000431,0.012223
24262000,0.0324,0.013523,0.002678,0.000431,0.607151
24263000,0.0324,0.013523,0.002678,0.000431,0.679665
24264000,0.0324,0.013523,0.002678,0.000431,0.136803
24265000,0.0324,0.013523,0.002678,0.000431,0.132807
24266000,0.0324,0.013523,0.002678,0.000431,0.282185
24267000,0.0324,0.013523,0.002678,0.000431,0.523353
24268000,0.0324,0.013523,0.002678,0.000431,0.249747
24269000,0.0324,0.013523,0.002678,0.000431,0.305103
24270000,0.0324,0.013523,0.002678,0.000431,0.169828
24271000,0.0324,0.013523,0.002678,0.000431,0.149261
24272000,0.0324,0.013523,0.002678,0.000431,0.130691
24273000,0.0324,0.013523,0.002678,0.000431,0.248572
24274000,0.0324,0.013523,0.002678,0.000431,0.438263
24275000,0.0324,0.013523,0.002678,0.000431,0.149966
24276000,0.0324,0.013523,0.002678,0.000431,0.109654
24277000,0.0324,0.013523,0.002678,0.000431,0.101897
24278000,0.0324,0.013523,0.002678,0.000431,0.078039
24279000,0.0324,0.013523,0.002678,0.000431,0.070517
24280000,0.0324,0.013523,0.002678,0.000431,0.057354
24281000,0.0324,0.013523,0.002678,0.000431,0.062525
24282000,0.0324,0.013523,0.002678,0.000431,0.058529
24283000,0.0324,0.013523,0.002678,0.000431,0.052418
24284000,0.0324,0.013523,0.002678,0.000431,0.040900
24285000,0.0324,0.013523,0.002678,0.000431,0.043015
24286000,0.0324,0.013523,0.002678,0.000431,0.031498
24287000,0.0324,0.013523,0.002678,0.000431,0.028559
24288000,0.0324,0.013523,0.002678,0.000431,0.029147
24289000,0.0324,0.013523,0.002678,0.000431,0.023623
24290000,0.0324,0.013523,0.002678,0.000431,0.018334
24291000,0.0324,0.013523,0.002678,0.000431,0.018569
24292000,0.0324,0.013523,0.002678,0.000431,0.017747
24293000,0.0324,0.013523,0.002678,0.000431,0.012105
24294000,0.0324,0.013523,0.002678,0.000431,0.012458
24295000,0.0324,0.013523,0.002678,0.000431,0.009167
24296000,0.0324,0.013523,0.002678,0.000431,0.009520
24297000,0.0324,0.013523,0.002678,0.000431,0.008345
24298000,0.0324,0.013523,0.002678,0.000431,0.008815
24299000,0.0324,0.013523,0.002678,0.000431,0.007287
24300000,0.0324,0.013523,0.002678,0.000431,0.007287
24301000,0.0324,0.013523,0.002678,0.000431,0.007052
24302000,0.0324,0.013523,0.002678,0.000431,0.006229
24303000,0.0324,0.013523,0.002678,0.000431,0.006582
24304000,0.0324,0.013523,0.002678,0.000431,0.011048
24305000,0.0324,0.013523,0.002678,0.000431,0.006934
24306000,0.0324,0.013523,0.002678,0.000431,0.005994
24307000,0.0324,0.013523,0.002678,0.000431,0.003408
24308000,0.0324,0.013523,0.002678,0.000431,0.006699
24309000,0.0324,0.013523,0.002678,0.000431,0.002233
24310000,0.0324,0.013523,0.002678,0.000431,0.002468
24311000,0.0324,0.013523,0.002678,0.000431,0.002351
24312000,0.0324,0.013523,0.002678,0.000431,0.002116
24313000,0.0324,0.013523,0.002678,0.000431,0.001880
24314000,0.0324,0.013523,0.002678,0.000431,0.003056
24315000,0.0324,0.013523,0.002678,0.000431,0.002821
24316000,0.0324,0.013523,0.002678,0.000431,0.450486
24317000,0.0324,0.013523,0.002678,0.000431,0.781210
24318000,0.0324,0.013523,0.002678,0.000431,0.146675
24319000,0.0324,0.013523,0.002678,0.000431,0.133512
24320000,0.0324,0.013523,0.002678,0.000431,0.167713
24321000,0.0324,0.013523,0.002678,0.000431,0.577769
24322000,0.0324,0.013523,0.002678,0.000431,0.248102
24323000,0.0324,0.013523,0.002678,0.000431,0.302047
24324000,0.0324,0.013523,0.002678,0.000431,0.235056
24325000,0.0324,0.013523,0.002678,0.000431,0.138683
24326000,0.0324,0.013523,0.002678,0.000431,0.154550
24327000,0.0324,0.013523,0.002678,0.000431,0.170298
24328000,0.0324,0.013523,0.002678,0.000431,0.445667
24329000,0.0324,0.013523,0.002678,0.000431,0.126695
24330000,0.0324,0.013523,0.002678,0.000431,0.110006
24331000,0.0324,0.013523,0.002678,0.000431,0.092730
24332000,0.0324,0.013523,0.002678,0.000431,0.082270
24333000,0.0324,0.013523,0.002678,0.000431,0.066168
24334000,0.0324,0.013523,0.002678,0.000431,0.063348
24335000,0.0324,0.013523,0.002678,0.000431,0.057471
24336000,0.0324,0.013523,0.002678,0.000431,0.050890
24337000,0.0324,0.013523,0.002678,0.000431,0.042310
24338000,0.0324,0.013523,0.002678,0.000431,0.044778
24339000,0.0324,0.013523,0.002678,0.000431,0.035729
24340000,0.0324,0.013523,0.002678,0.000431,0.031968
24341000,0.0324,0.013523,0.002678,0.000431,0.032203
24342000,0.0324,0.013523,0.002678,0.000431,0.024681
24343000,0.0324,0.013523,0.002678,0.000431,0.020097
24344000,0.0324,0.013523,0.002678,0.000431,0.021038
24345000,0.0324,0.013523,0.002678,0.000431,0.019745
24346000,0.0324,0.013523,0.002678,0.000431,0.016454
24347000,0.0324,0.013523,0.002678,0.000431,0.018217
24348000,0.0324,0.013523,0.002678,0.000431,0.017277
24349000,0.0324,0.013523,0.002678,0.000431,0.014338
24350000,0.0324,0.013523,0.002678,0.000431,0.012693
24351000,0.0324,0.013523,0.002678,0.000431,0.014221
24352000,0.0324,0.013523,0.002678,0.000431,0.010578
24353000,0.0324,0.013523,0.002678,0.000431,0.011635
24354000,0.0324,0.013523,0.002678,0.000431,0.007287
24355000,0.0324,0.013523,0.002678,0.000431,0.007522
24356000,0.0324,0.013523,0.002678,0.000431,0.007639
24357000,0.0324,0.013523,0.002678,0.000431,0.007169
24358000,0.0324,0.013523,0.002678,0.000431,0.006582
24359000,0.0324,0.013523,0.002678,0.000431,0.007757
24360000,0.0324,0.013523,0.002678,0.000431,0.007052
24361000,0.0324,0.013523,0.002678,0.000431,0.005994
24362000,0.0324,0.013523,0.002678,0.000431,0.005994
24363000,0.0324,0.013523,0.002678,0.000431,0.005524
24364000,0.0324,0.013523,0.002678,0.000431,0.005994
24365000,0.0324,0.013523,0.002678,0.000431,0.006111
24366000,0.0324,0.013523,0.002678,0.000431,0.005759
24367000,0.0324,0.013523,0.002678,0.000431,0.008227
24368000,0.0324,0.013523,0.002678,0.000431,0.005289
24369000,0.0324,0.013523,0.002678,0.000431,0.005524
24370000,0.0324,0.013523,0.002678,0.000431,0.004231
24371000,0.0324,0.013523,0.002678,0.000431,0.004349
24372000,0.0324,0.013523,0.002678,0.000431,0.003878
24373000,0.0324,0.013523,0.002678,0.000431,0.004349
24374000,0.0324,0.013523,0.002678,0.000431,0.003996
24375000,0.0324,0.013523,0.002678,0.000431,0.005171
24376000,0.0324,0.013523,0.002678,0.000431,0.004231
24377000,0.0324,0.013523,0.002678,0.000431,0.002703
24378000,0.0324,0.013523,0.002678,0.000431,0.003643
24379000,0.0324,0.013523,0.002678,0.000431,0.003291
24380000,0.0324,0.013523,0.002678,0.000431,0.005289
24381000,0.0324,0.013523,0.002678,0.000431,0.002703
24382000,0.0324,0.013523,0.002678,0.000431,0.002233
24383000,0.0324,0.013523,0.002678,0.000431,0.002586
24384000,0.0324,0.013523,0.002678,0.000431,0.002468
24385000,0.0324,0.013523,0.002678,0.000431,0.002703
24386000,0.0324,0.013523,0.002678,0.000431,0.002116
24387000,0.0324,0.013523,0.002678,0.000431,0.002586
24388000,0.0324,0.013523,0.002678,0.000431,0.002821
24389000,0.0324,0.013523,0.002678,0.000431,0.002468
24390000,0.0324,0.013523,0.002678,0.000431,0.002703
24391000,0.0324,0.013523,0.002678,0.000431,0.000940
24392000,0.0324,0.013523,0.002678,0.000431,0.004466
24393000,0.0324,0.013523,0.002678,0.000431,0.506194
24394000,0.0324,0.013523,0.002678,0.000431,0.685777
24395000,0.0324,0.013523,0.002678,0.000431,0.136333
24396000,0.0324,0.013523,0.002678,0.000431,0.133042
24397000,0.0324,0.013523,0.002678,0.000431,0.159721
24398000,0.0324,0.013523,0.002678,0.000431,0.582940
24399000,0.0324,0.013523,0.002678,0.000431,0.248337
24400000,0.0324,0.013523,0.002678,0.000431,0.296053
24401000,0.0324,0.013523,0.002678,0.000431,0.215782
24402000,0.0324,0.013523,0.002678,0.000431,0.139388
24403000,0.0324,0.013523,0.002678,0.000431,0.184637
24404000,0.0324,0.013523,0.002678,0.000431,0.082387
24405000,0.0324,0.013523,0.002678,0.000431,0.514068
24406000,0.0324,0.013523,0.002678,0.000431,0.243283
24407000,0.0324,0.013523,0.002678,0.000431,0.160426
24408000,0.0324,0.013523,0.002678,0.000431,0.133865
24409000,0.0324,0.013523,0.002678,0.000431,0.104953
24410000,0.0324,0.013523,0.002678,0.000431,0.088734
24411000,0.0324,0.013523,0.002678,0.000431,0.084268
24412000,0.0324,0.013523,0.002678,0.000431,0.073103
24413000,0.0324,0.013523,0.002678,0.000431,0.059469
24414000,0.0324,0.013523,0.002678,0.000431,0.052535
24415000,0.0324,0.013523,0.002678,0.000431,0.044896
24416000,0.0324,0.013523,0.002678,0.000431,0.038432
24417000,0.0324,0.013523,0.002678,0.000431,0.035258
24418000,0.0324,0.013523,0.002678,0.000431,0.033613
24419000,0.0324,0.013523,0.002678,0.000431,0.023976
24420000,0.0324,0.013523,0.002678,0.000431,0.023271
24421000,0.0324,0.013523,0.002678,0.000431,0.031850
24422000,0.0324,0.013523,0.002678,0.000431,0.016336
24423000,0.0324,0.013523,0.002678,0.000431,0.013281
24424000,0.0324,0.013523,0.002678,0.000431,0.015984
24425000,0.0324,0.013523,0.002678,0.000431,0.012693
24426000,0.0324,0.013523,0.002678,0.000431,0.009872
24427000,0.0324,0.013523,0.002678,0.000431,0.007757
24428000,0.0324,0.013523,0.002678,0.000431,0.007287
24429000,0.0324,0.013523,0.002678,0.000431,0.017982
24430000,0.0324,0.013523,0.002678,0.000431,0.006817
24431000,0.0324,0.013523,0.002678,0.000431,0.004466
24432000,0.0324,0.013523,0.002678,0.000431,0.006464
24433000,0.0324,0.013523,0.002678,0.000431,0.003643
24434000,0.0324,0.013523,0.002678,0.000431,0.005406
24435000,0.0324,0.013523,0.002678,0.000431,0.005054
24436000,0.0324,0.013523,0.002678,0.000431,0.002586
24437000,0.0324,0.013523,0.002678,0.000431,0.002468
24438000,0.0324,0.013523,0.002678,0.000431,0.002586
24439000,0.0324,0.013523,0.002678,0.000431,0.002468
24440000,0.0324,0.013523,0.002678,0.000431,0.002703
24441000,0.0324,0.013523,0.002678,0.000431,0.002351
24442000,0.0324,0.013523,0.002678,0.000431,0.002821
24443000,0.0324,0.013523,0.002678,0.000431,0.002586
24444000,0.0324,0.013523,0.002678,0.000431,0.002351
24445000,0.0324,0.013523,0.002678,0.000431,0.002586
24446000,0.0324,0.013523,0.002678,0.000431,0.002586
24447000,0.0324,0.013523,0.002678,0.000431,0.002468
24448000,0.0324,0.013523,0.002678,0.000431,0.002468
24449000,0.0324,0.013523,0.002678,0.000431,0.002821
24450000,0.0324,0.013523,0.002678,0.000431,0.002233
24451000,0.0324,0.013523,0.002678,0.000431,0.002821
24452000,0.0324,0.013523,0.002678,0.000431,0.002233
24453000,0.0324,0.013523,0.002678,0.000431,0.002821
24454000,0.0324,0.013523,0.002678,0.000431,0.002703
24455000,0.0324,0.013523,0.002678,0.000431,0.002233
24456000,0.0324,0.013523,0.002678,0.000431,0.002821
24457000,0.0324,0.013523,0.002678,0.000431,0.002351
24458000,0.0324,0.013523,0.002678,0.000431,0.004701
24459000,0.0324,0.013523,0.002678,0.000431,0.003526
24460000,0.0324,0.013523,0.002678,0.000431,0.072750
24461000,0.0324,0.013523,0.002678,0.000431,0.678490
24462000,0.0324,0.013523,0.002678,0.000431,0.613497
24463000,0.0324,0.013523,0.002678,0.000431,0.132102
24464000,0.0324,0.013523,0.002678,0.000431,0.134452
24465000,0.0324,0.013523,0.002678,0.000431,0.593165
24466000,0.0324,0.013523,0.002678,0.000431,0.239287
24467000,0.0324,0.013523,0.002678,0.000431,0.234116
24468000,0.0324,0.013523,0.002678,0.000431,0.277719
24469000,0.0324,0.013523,0.002678,0.000431,0.145617
24470000,0.0324,0.013523,0.002678,0.000431,0.145382
24471000,0.0324,0.013523,0.002678,0.000431,0.120936
24472000,0.0324,0.013523,0.002678,0.000431,0.331194
24473000,0.0324,0.013523,0.002678,0.000431,0.309687
24474000,0.0324,0.013523,0.002678,0.000431,0.129399
24475000,0.0324,0.013523,0.002678,0.000431,0.103542
24476000,0.0324,0.013523,0.002678,0.000431,0.082857
24477000,0.0324,0.013523,0.002678,0.000431,0.069929
24478000,0.0324,0.013523,0.002678,0.000431,0.069812
24479000,0.0324,0.013523,0.002678,0.000431,0.057471
24480000,0.0324,0.013523,0.002678,0.000431,0.053475
24481000,0.0324,0.013523,0.002678,0.000431,0.042898
24482000,0.0324,0.013523,0.002678,0.000431,0.032555
24483000,0.0324,0.013523,0.002678,0.000431,0.026796
24484000,0.0324,0.013523,0.002678,0.000431,0.027149
24485000,0.0324,0.013523,0.002678,0.000431,0.016807
24486000,0.0324,0.013523,0.002678,0.000431,0.017277
24487000,0.0324,0.013523,0.002678,0.000431,0.013868
24488000,0.0324,0.013523,0.002678,0.000431,0.012458
24489000,0.0324,0.013523,0.002678,0.000431,0.012340
24490000,0.0324,0.013523,0.002678,0.000431,0.009285
24491000,0.0324,0.013523,0.002678,0.000431,0.007757
24492000,0.0324,0.013523,0.002678,0.000431,0.008580
24493000,0.0324,0.013523,0.002678,0.000431,0.007992
24494000,0.0324,0.013523,0.002678,0.000431,0.007639
24495000,0.0324,0.013523,0.002678,0.000431,0.010342
24496000,0.0324,0.013523,0.002678,0.000431,0.008580
24497000,0.0324,0.013523,0.002678,0.000431,0.006699
24498000,0.0324,0.013523,0.002678,0.000431,0.003761
24499000,0.0324,0.013523,0.002678,0.000431,0.004113
24500000,0.0324,0.013523,0.002678,0.000431,0.005641
24501000,0.0324,0.013523,0.002678,0.000431,0.001763
24502000,0.0324,0.013523,0.002678,0.000431,0.001645
24503000,0.0324,0.013523,0.002678,0.000431,0.003173
24504000,0.0324,0.013523,0.002678,0.000431,0.002468
24505000,0.0324,0.013523,0.002678,0.000431,0.000823
24506000,0.0324,0.013523,0.002678,0.000431,0.215194
24507000,0.0324,0.013523,0.002678,0.000431,0.538514
24508000,0.0324,0.013523,0.002678,0.000431,0.497027
24509000,0.0324,0.013523,0.002678,0.000431,0.140329
24510000,0.0324,0.013523,0.002678,0.000431,0.145735
24511000,0.0324,0.013523,0.002678,0.000431,0.613027
24512000,0.0324,0.013523,0.002678,0.000431,0.232588
24513000,0.0324,0.013523,0.002678,0.000431,0.337071
24514000,0.0324,0.013523,0.002678,0.000431,0.237760
24515000,0.0324,0.013523,0.002678,0.000431,0.141034
24516000,0.0324,0.013523,0.002678,0.000431,0.131044
24517000,0.0324,0.013523,0.002678,0.000431,0.274663
24518000,0.0324,0.013523,0.002678,0.000431,0.339892
24519000,0.0324,0.013523,0.002678,0.000431,0.106716
24520000,0.0324,0.013523,0.002678,0.000431,0.086031
24521000,0.0324,0.013523,0.002678,0.000431,0.070987
24522000,0.0324,0.013523,0.002678,0.000431,0.058764
24523000,0.0324,0.013523,0.002678,0.000431,0.060174
24524000,0.0324,0.013523,0.002678,0.000431,0.039372
24525000,0.0324,0.013523,0.002678,0.000431,0.029852
24526000,0.0324,0.013523,0.002678,0.000431,0.023271
24527000,0.0324,0.013523,0.002678,0.000431,0.018922
24528000,0.0324,0.013523,0.002678,0.000431,0.016924
24529000,0.0324,0.013523,0.002678,0.000431,0.017629
24530000,0.0324,0.013523,0.002678,0.000431,0.010225
24531000,0.0324,0.013523,0.002678,0.000431,0.010578
24532000,0.0324,0.013523,0.002678,0.000431,0.008109
24533000,0.0324,0.013523,0.002678,0.000431,0.005994
24534000,0.0324,0.013523,0.002678,0.000431,0.006817
24535000,0.0324,0.013523,0.002678,0.000431,0.009402
24536000,0.0324,0.013523,0.002678,0.000431,0.002703
24537000,0.0324,0.013523,0.002678,0.000431,0.004349
24538000,0.0324,0.013523,0.002678,0.000431,0.001058
24539000,0.0324,0.013523,0.002678,0.000431,0.148908
24540000,0.0324,0.013523,0.002678,0.000431,0.555791
24541000,0.0324,0.013523,0.002678,0.000431,0.520650
24542000,0.0324,0.013523,0.002678,0.000431,0.134452
24543000,0.0324,0.013523,0.002678,0.000431,0.134100
24544000,0.0324,0.013523,0.002678,0.000431,0.555673
24545000,0.0324,0.013523,0.002678,0.000431,0.232471
24546000,0.0324,0.013523,0.002678,0.000431,0.247279
24547000,0.0324,0.013523,0.002678,0.000431,0.282538
24548000,0.0324,0.013523,0.002678,0.000431,0.149378
24549000,0.0324,0.013523,0.002678,0.000431,0.168065
24550000,0.0324,0.013523,0.002678,0.000431,0.109771
24551000,0.0324,0.013523,0.002678,0.000431,0.468702
24552000,0.0324,0.013523,0.002678,0.000431,0.162424
24553000,0.0324,0.013523,0.002678,0.000431,0.112239
24554000,0.0324,0.013523,0.002678,0.000431,0.095315
24555000,0.0324,0.013523,0.002678,0.000431,0.073690
24556000,0.0324,0.013523,0.002678,0.000431,0.061702
24557000,0.0324,0.013523,0.002678,0.000431,0.058882
24558000,0.0324,0.013523,0.002678,0.000431,0.040900
24559000,0.0324,0.013523,0.002678,0.000431,0.036434
24560000,0.0324,0.013523,0.002678,0.000431,0.034083
24561000,0.0324,0.013523,0.002678,0.000431,0.026679
24562000,0.0324,0.013523,0.002678,0.000431,0.020685
24563000,0.0324,0.013523,0.002678,0.000431,0.020685
24564000,0.0324,0.013523,0.002678,0.000431,0.017982
24565000,0.0324,0.013523,0.002678,0.000431,0.018452
24566000,0.0324,0.013523,0.002678,0.000431,0.009990
24567000,0.0324,0.013523,0.002678,0.000431,0.009755
24568000,0.0324,0.013523,0.002678,0.000431,0.007874
24569000,0.0324,0.013523,0.002678,0.000431,0.006934
24570000,0.0324,0.013523,0.002678,0.000431,0.005994
24571000,0.0324,0.013523,0.002678,0.000431,0.007874
24572000,0.0324,0.013523,0.002678,0.000431,0.006464
24573000,0.0324,0.013523,0.002678,0.000431,0.003761
24574000,0.0324,0.013523,0.002678,0.000431,0.005406
24575000,0.0324,0.013523,0.002678,0.000431,0.002586
24576000,0.0324,0.013523,0.002678,0.000431,0.003996
24577000,0.0324,0.013523,0.002678,0.000431,0.001175
24578000,0.0324,0.013523,0.002678,0.000431,0.000823
24579000,0.0324,0.013523,0.002678,0.000431,0.000940
24580000,0.0324,0.013523,0.002678,0.000431,0.002821
24581000,0.0324,0.013523,0.002678,0.000431,0.473874
24582000,0.0324,0.013523,0.002678,0.000431,0.700468
24583000,0.0324,0.013523,0.002678,0.000431,0.137861
24584000,0.0324,0.013523,0.002678,0.000431,0.133277
24585000,0.0324,0.013523,0.002678,0.000431,0.284536
24586000,0.0324,0.013523,0.002678,0.000431,0.519004
24587000,0.0324,0.013523,0.002678,0.000431,0.233176
24588000,0.0324,0.013523,0.002678,0.000431,0.301460
24589000,0.0324,0.013523,0.002678,0.000431,0.146558
24590000,0.0324,0.013523,0.002678,0.000431,0.145265
24591000,0.0324,0.013523,0.002678,0.000431,0.132924
24592000,0.0324,0.013523,0.002678,0.000431,0.263498
24593000,0.0324,0.013523,0.002678,0.000431,0.362809
24594000,0.0324,0.013523,0.002678,0.000431,0.127165
24595000,0.0324,0.013523,0.002678,0.000431,0.106245
24596000,0.0324,0.013523,0.002678,0.000431,0.082152
24597000,0.0324,0.013523,0.002678,0.000431,0.060292
24598000,0.0324,0.013523,0.002678,0.000431,0.053123
24599000,0.0324,0.013523,0.002678,0.000431,0.047129
24600000,0.0324,0.013523,0.002678,0.000431,0.037139
24601000,0.0324,0.013523,0.002678,0.000431,0.031027
24602000,0.0324,0.013523,0.002678,0.000431,0.027384
24603000,0.0324,0.013523,0.002678,0.000431,0.023976
24604000,0.0324,0.013523,0.002678,0.000431,0.018805
24605000,0.0324,0.013523,0.002678,0.000431,0.013868
24606000,0.0324,0.013523,0.002678,0.000431,0.010578
24607000,0.0324,0.013523,0.002678,0.000431,0.008580
24608000,0.0324,0.013523,0.002678,0.000431,0.007874
24609000,0.0324,0.013523,0.002678,0.000431,0.008580
24610000,0.0324,0.013523,0.002678,0.000431,0.006582
24611000,0.0324,0.013523,0.002678,0.000431,0.008580
24612000,0.0324,0.013523,0.002678,0.000431,0.002938
24613000,0.0324,0.013523,0.002678,0.000431,0.001880
24614000,0.0324,0.013523,0.002678,0.000431,0.163012
24615000,0.0324,0.013523,0.002678,0.000431,0.557436
24616000,0.0324,0.013523,0.002678,0.000431,0.531227
24617000,0.0324,0.013523,0.002678,0.000431,0.133512
24618000,0.0324,0.013523,0.002678,0.000431,0.133982
24619000,0.0324,0.013523,0.002678,0.000431,0.556849
24620000,0.0324,0.013523,0.002678,0.000431,0.238230
24621000,0.0324,0.013523,0.002678,0.000431,0.232588
24622000,0.0324,0.013523,0.002678,0.000431,0.284418
24623000,0.0324,0.013523,0.002678,0.000431,0.153257
24624000,0.0324,0.013523,0.002678,0.000431,0.163129
24625000,0.0324,0.013523,0.002678,0.000431,0.104835
24626000,0.0324,0.013523,0.002678,0.000431,0.468585
24627000,0.0324,0.013523,0.002678,0.000431,0.174529
24628000,0.0324,0.013523,0.002678,0.000431,0.103542
24629000,0.0324,0.013523,0.002678,0.000431,0.083445
24630000,0.0324,0.013523,0.002678,0.000431,0.073103
24631000,0.0324,0.013523,0.002678,0.000431,0.068049
24632000,0.0324,0.013523,0.002678,0.000431,0.051007
24633000,0.0324,0.013523,0.002678,0.000431,0.033143
24634000,0.0324,0.013523,0.002678,0.000431,0.027619
24635000,0.0324,0.013523,0.002678,0.000431,0.017159
24636000,0.0324,0.013523,0.002678,0.000431,0.013751
24637000,0.0324,0.013523,0.002678,0.000431,0.007757
24638000,0.0324,0.013523,0.002678,0.000431,0.006934
24639000,0.0324,0.013523,0.002678,0.000431,0.004349
24640000,0.0324,0.013523,0.002678,0.000431,0.006699
24641000,0.0324,0.013523,0.002678,0.000431,0.003761
24642000,0.0324,0.013523,0.002678,0.000431,0.002351
24643000,0.0324,0.013523,0.002678,0.000431,0.002821
24644000,0.0324,0.013523,0.002678,0.000431,0.003056
24645000,0.0324,0.013523,0.002678,0.000431,0.000823
24646000,0.0324,0.013523,0.002678,0.000431,0.000823
24647000,0.0324,0.013523,0.002678,0.000431,0.000705
24648000,0.0324,0.013523,0.002678,0.000431,0.000940
24649000,0.0324,0.013523,0.002678,0.000431,0.000940
24650000,0.0324,0.013523,0.002678,0.000431,0.071575
24651000,0.0324,0.013523,0.002678,0.000431,0.622312
24652000,0.0324,0.013523,0.002678,0.000431,0.546976
24653000,0.0324,0.013523,0.002678,0.000431,0.134922
24654000,0.0324,0.013523,0.002678,0.000431,0.137155
24655000,0.0324,0.013523,0.002678,0.000431,0.580237
24656000,0.0324,0.013523,0.002678,0.000431,0.264321
24657000,0.0324,0.013523,0.002678,0.000431,0.270902
24658000,0.0324,0.013523,0.002678,0.000431,0.217545
24659000,0.0324,0.013523,0.002678,0.000431,0.140799
24660000,0.0324,0.013523,0.002678,0.000431,0.174177
24661000,0.0324,0.013523,0.002678,0.000431,0.147733
24662000,0.0324,0.013523,0.002678,0.000431,0.464236
24663000,0.0324,0.013523,0.002678,0.000431,0.113767
24664000,0.0324,0.013523,0.002678,0.000431,0.093552
24665000,0.0324,0.013523,0.002678,0.000431,0.070869
24666000,0.0324,0.013523,0.002678,0.000431,0.058882
24667000,0.0324,0.013523,0.002678,0.000431,0.051830
24668000,0.0324,0.013523,0.002678,0.000431,0.045248
24669000,0.0324,0.013523,0.002678,0.000431,0.023153
24670000,0.0324,0.013523,0.002678,0.000431,0.027031
24671000,0.0324,0.013523,0.002678,0.000431,0.023506
24672000,0.0324,0.013523,0.002678,0.000431,0.021390
24673000,0.0324,0.013523,0.002678,0.000431,0.018099
24674000,0.0324,0.013523,0.002678,0.000431,0.012105
24675000,0.0324,0.013523,0.002678,0.000431,0.013633
24676000,0.0324,0.013523,0.002678,0.000431,0.011988
24677000,0.0324,0.013523,0.002678,0.000431,0.015161
24678000,0.0324,0.013523,0.002678,0.000431,0.007639
24679000,0.0324,0.013523,0.002678,0.000431,0.006582
24680000,0.0324,0.013523,0.002678,0.000431,0.002703
24681000,0.0324,0.013523,0.002678,0.000431,0.004584
24682000,0.0324,0.013523,0.002678,0.000431,0.005759
24683000,0.0324,0.013523,0.002678,0.000431,0.444021
24684000,0.0324,0.013523,0.002678,0.000431,0.718450
24685000,0.0324,0.013523,0.002678,0.000431,0.139271
24686000,0.0324,0.013523,0.002678,0.000431,0.134452
24687000,0.0324,0.013523,0.002678,0.000431,0.361634
24688000,0.0324,0.013523,0.002678,0.000431,0.397833
24689000,0.0324,0.013523,0.002678,0.000431,0.263968
24690000,0.0324,0.013523,0.002678,0.000431,0.317679
24691000,0.0324,0.013523,0.002678,0.000431,0.146088
24692000,0.0324,0.013523,0.002678,0.000431,0.158310
24693000,0.0324,0.013523,0.002678,0.000431,0.104130
24694000,0.0324,0.013523,0.002678,0.000431,0.399478
24695000,0.0324,0.013523,0.002678,0.000431,0.228592
24696000,0.0324,0.013523,0.002678,0.000431,0.091554
24697000,0.0324,0.013523,0.002678,0.000431,0.068284
24698000,0.0324,0.013523,0.002678,0.000431,0.050655
24699000,0.0324,0.013523,0.002678,0.000431,0.041017
24700000,0.0324,0.013523,0.002678,0.000431,0.031498
24701000,0.0324,0.013523,0.002678,0.000431,0.028089
24702000,0.0324,0.013523,0.002678,0.000431,0.019040
24703000,0.0324,0.013523,0.002678,0.000431,0.011870
24704000,0.0324,0.013523,0.002678,0.000431,0.015514
24705000,0.0324,0.013523,0.002678,0.000431,0.011635
24706000,0.0324,0.013523,0.002678,0.000431,0.011400
24707000,0.0324,0.013523,0.002678,0.000431,0.007522
24708000,0.0324,0.013523,0.002678,0.000431,0.005759
24709000,0.0324,0.013523,0.002678,0.000431,0.005641
24710000,0.0324,0.013523,0.002678,0.000431,0.004349
24711000,0.0324,0.013523,0.002678,0.000431,0.004701
24712000,0.0324,0.013523,0.002678,0.000431,0.003526
24713000,0.0324,0.013523,0.002678,0.000431,0.003056
24714000,0.0324,0.013523,0.002678,0.000431,0.002938
24715000,0.0324,0.013523,0.002678,0.000431,0.003408
24716000,0.0324,0.013523,0.002678,0.000431,0.003291
24717000,0.0324,0.013523,0.002678,0.000431,0.003996
24718000,0.0324,0.013523,0.002678,0.000431,0.003291
24719000,0.0324,0.013523,0.002678,0.000431,0.005054
24720000,0.0324,0.013523,0.002678,0.000431,0.001175
24721000,0.0324,0.013523,0.002678,0.000431,0.001880
24722000,0.0324,0.013523,0.002678,0.000431,0.001645
24723000,0.0324,0.013523,0.002678,0.000431,0.001175
24724000,0.0324,0.013523,0.002678,0.000431,0.001645
24725000,0.0324,0.013523,0.002678,0.000431,0.001645
24726000,0.0324,0.013523,0.002678,0.000431,0.001175
24727000,0.0324,0.013523,0.002678,0.000431,0.001293
24728000,0.0324,0.013523,0.002678,0.000431,0.000940
24729000,0.0324,0.013523,0.002678,0.000431,0.000940
24730000,0.0324,0.013523,0.002678,0.000431,0.230590
24731000,0.0324,0.013523,0.002678,0.000431,0.672144
24732000,0.0324,0.013523,0.002678,0.000431,0.331077
24733000,0.0324,0.013523,0.002678,0.000431,0.132572
24734000,0.0324,0.013523,0.002678,0.000431,0.133512
24735000,0.0324,0.013523,0.002678,0.000431,0.573538
24736000,0.0324,0.013523,0.002678,0.000431,0.232001
24737000,0.0324,0.013523,0.002678,0.000431,0.283948
24738000,0.0324,0.013523,0.002678,0.000431,0.255389
24739000,0.0324,0.013523,0.002678,0.000431,0.148086
24740000,0.0324,0.013523,0.002678,0.000431,0.170651
24741000,0.0324,0.013523,0.002678,0.000431,0.131514
24742000,0.0324,0.013523,0.002678,0.000431,0.464354
24743000,0.0324,0.013523,0.002678,0.000431,0.121054
24744000,0.0324,0.013523,0.002678,0.000431,0.089204
24745000,0.0324,0.013523,0.002678,0.000431,0.083092
24746000,0.0324,0.013523,0.002678,0.000431,0.078039
24747000,0.0324,0.013523,0.002678,0.000431,0.054416
24748000,0.0324,0.013523,0.002678,0.000431,0.048069
24749000,0.0324,0.013523,0.002678,0.000431,0.042075
24750000,0.0324,0.013523,0.002678,0.000431,0.033143
24751000,0.0324,0.013523,0.002678,0.000431,0.032438
24752000,0.0324,0.013523,0.002678,0.000431,0.023976
24753000,0.0324,0.013523,0.002678,0.000431,0.017864
24754000,0.0324,0.013523,0.002678,0.000431,0.023036
24755000,0.0324,0.013523,0.002678,0.000431,0.013986
24756000,0.0324,0.013523,0.002678,0.000431,0.014691
24757000,0.0324,0.013523,0.002678,0.000431,0.011400
24758000,0.0324,0.013523,0.002678,0.000431,0.009167
24759000,0.0324,0.013523,0.002678,0.000431,0.009990
24760000,0.0324,0.013523,0.002678,0.000431,0.008932
24761000,0.0324,0.013523,0.002678,0.000431,0.007522
24762000,0.0324,0.013523,0.002678,0.000431,0.007992
24763000,0.0324,0.013523,0.002678,0.000431,0.010342
24764000,0.0324,0.013523,0.002678,0.000431,0.007169
24765000,0.0324,0.013523,0.002678,0.000431,0.007639
24766000,0.0324,0.013523,0.002678,0.000431,0.006699
24767000,0.0324,0.013523,0.002678,0.000431,0.005876
24768000,0.0324,0.013523,0.002678,0.000431,0.003291
24769000,0.0324,0.013523,0.002678,0.000431,0.003408
24770000,0.0324,0.013523,0.002678,0.000431,0.003408
24771000,0.0324,0.013523,0.002678,0.000431,0.003408
24772000,0.0324,0.013523,0.002678,0.000431,0.005406
24773000,0.0324,0.013523,0.002678,0.000431,0.003056
24774000,0.0324,0.013523,0.002678,0.000431,0.004349
24775000,0.0324,0.013523,0.002678,0.000431,0.000823
24776000,0.0324,0.013523,0.002678,0.000431,0.000823
24777000,0.0324,0.013523,0.002678,0.000431,0.000823
24778000,0.0324,0.013523,0.002678,0.000431,0.000823
24779000,0.0324,0.013523,0.002678,0.000431,0.000823
24780000,0.0324,0.013523,0.002678,0.000431,0.000823
24781000,0.0324,0.013523,0.002678,0.000431,0.000823
24782000,0.0324,0.013523,0.002678,0.000431,0.000823
24783000,0.0324,0.013523,0.002678,0.000431,0.000823
24784000,0.0324,0.013523,0.002678,0.000431,0.000823
24785000,0.0324,0.013523,0.002678,0.000431,0.000940
24786000,0.0324,0.013523,0.002678,0.000431,0.198035
24787000,0.0324,0.013523,0.002678,0.000431,0.526291
24788000,0.0324,0.013523,0.002678,0.000431,0.513833
24789000,0.0324,0.013523,0.002678,0.000431,0.133159
24790000,0.0324,0.013523,0.002678,0.000431,0.133042
24791000,0.0324,0.013523,0.002678,0.000431,0.580002
24792000,0.0324,0.013523,0.002678,0.000431,0.228827
24793000,0.0324,0.013523,0.002678,0.000431,0.312978
24794000,0.0324,0.013523,0.002678,0.000431,0.235291
24795000,0.0324,0.013523,0.002678,0.000431,0.147850
24796000,0.0324,0.013523,0.002678,0.000431,0.178408
24797000,0.0324,0.013523,0.002678,0.000431,0.106481
24798000,0.0324,0.013523,0.002678,0.000431,0.460946
24799000,0.0324,0.013523,0.002678,0.000431,0.127165
24800000,0.0324,0.013523,0.002678,0.000431,0.095315
24801000,0.0324,0.013523,0.002678,0.000431,0.073925
24802000,0.0324,0.013523,0.002678,0.000431,0.058529
24803000,0.0324,0.013523,0.002678,0.000431,0.047834
24804000,0.0324,0.013523,0.002678,0.000431,0.051830
24805000,0.0324,0.013523,0.002678,0.000431,0.040900
24806000,0.0324,0.013523,0.002678,0.000431,0.036081
24807000,0.0324,0.013523,0.002678,0.000431,0.027149
24808000,0.0324,0.013523,0.002678,0.000431,0.022095
24809000,0.0324,0.013523,0.002678,0.000431,0.029500
24810000,0.0324,0.013523,0.002678,0.000431,0.019392
24811000,0.0324,0.013523,0.002678,0.000431,0.012576
24812000,0.0324,0.013523,0.002678,0.000431,0.013398
24813000,0.0324,0.013523,0.002678,0.000431,0.009167
24814000,0.0324,0.013523,0.002678,0.000431,0.008109
24815000,0.0324,0.013523,0.002678,0.000431,0.005289
24816000,0.0324,0.013523,0.002678,0.000431,0.006934
24817000,0.0324,0.013523,0.002678,0.000431,0.004701
24818000,0.0324,0.013523,0.002678,0.000431,0.003643
24819000,0.0324,0.013523,0.002678,0.000431,0.003408
24820000,0.0324,0.013523,0.002678,0.000431,0.003408
24821000,0.0324,0.013523,0.002678,0.000431,0.003526
24822000,0.0324,0.013523,0.002678,0.000431,0.003761
24823000,0.0324,0.013523,0.002678,0.000431,0.004819
24824000,0.0324,0.013523,0.002678,0.000431,0.004231
24825000,0.0324,0.013523,0.002678,0.000431,0.001763
24826000,0.0324,0.013523,0.002678,0.000431,0.001763
24827000,0.0324,0.013523,0.002678,0.000431,0.001763
24828000,0.0324,0.013523,0.002678,0.000431,0.001763
24829000,0.0324,0.013523,0.002678,0.000431,0.001763
24830000,0.0324,0.013523,0.002678,0.000431,0.003291
24831000,0.0324,0.013523,0.002678,0.000431,0.173354
24832000,0.0324,0.013523,0.002678,0.000431,0.524646
24833000,0.0324,0.013523,0.002678,0.000431,0.524176
24834000,0.0324,0.013523,0.002678,0.000431,0.132572
24835000,0.0324,0.013523,0.002678,0.000431,0.134452
24836000,0.0324,0.013523,0.002678,0.000431,0.570952
24837000,0.0324,0.013523,0.002678,0.000431,0.231531
24838000,0.0324,0.013523,0.002678,0.000431,0.283831
24839000,0.0324,0.013523,0.002678,0.000431,0.262205
24840000,0.0324,0.013523,0.002678,0.000431,0.151964
24841000,0.0324,0.013523,0.002678,0.000431,0.184167
24842000,0.0324,0.013523,0.002678,0.000431,0.086736
24843000,0.0324,0.013523,0.002678,0.000431,0.466822
24844000,0.0324,0.013523,0.002678,0.000431,0.141621
24845000,0.0324,0.013523,0.002678,0.000431,0.091084
24846000,0.0324,0.013523,0.002678,0.000431,0.072280
24847000,0.0324,0.013523,0.002678,0.000431,0.053710
24848000,0.0324,0.013523,0.002678,0.000431,0.045601
24849000,0.0324,0.013523,0.002678,0.000431,0.045601
24850000,0.0324,0.013523,0.002678,0.000431,0.034318
24851000,0.0324,0.013523,0.002678,0.000431,0.025856
24852000,0.0324,0.013523,0.002678,0.000431,0.024093
24853000,0.0324,0.013523,0.002678,0.000431,0.024563
24854000,0.0324,0.013523,0.002678,0.000431,0.016336
24855000,0.0324,0.013523,0.002678,0.000431,0.011283
24856000,0.0324,0.013523,0.002678,0.000431,0.007992
24857000,0.0324,0.013523,0.002678,0.000431,0.007992
24858000,0.0324,0.013523,0.002678,0.000431,0.006464
24859000,0.0324,0.013523,0.002678,0.000431,0.004349
24860000,0.0324,0.013523,0.002678,0.000431,0.006111
24861000,0.0324,0.013523,0.002678,0.000431,0.005641
24862000,0.0324,0.013523,0.002678,0.000431,0.004936
24863000,0.0324,0.013523,0.002678,0.000431,0.001763
24864000,0.0324,0.013523,0.002678,0.000431,0.002703
24865000,0.0324,0.013523,0.002678,0.000431,0.002116
24866000,0.0324,0.013523,0.002678,0.000431,0.000705
24867000,0.0324,0.013523,0.002678,0.000431,0.000940
24868000,0.0324,0.013523,0.002678,0.000431,0.000940
24869000,0.0324,0.013523,0.002678,0.000431,0.000705
24870000,0.0324,0.013523,0.002678,0.000431,0.000940
24871000,0.0324,0.013523,0.002678,0.000431,0.000705
24872000,0.0324,0.013523,0.002678,0.000431,0.000940
24873000,0.0324,0.013523,0.002678,0.000431,0.187222
24874000,0.0324,0.013523,0.002678,0.000431,0.504196
24875000,0.0324,0.013523,0.002678,0.000431,0.523353
24876000,0.0324,0.013523,0.002678,0.000431,0.134217
24877000,0.0324,0.013523,0.002678,0.000431,0.133277
24878000,0.0324,0.013523,0.002678,0.000431,0.649108
24879000,0.0324,0.013523,0.002678,0.000431,0.242813
24880000,0.0324,0.013523,0.002678,0.000431,0.275133
24881000,0.0324,0.013523,0.002678,0.000431,0.253508
24882000,0.0324,0.013523,0.002678,0.000431,0.140799
24883000,0.0324,0.013523,0.002678,0.000431,0.162071
24884000,0.0324,0.013523,0.002678,0.000431,0.146323
24885000,0.0324,0.013523,0.002678,0.000431,0.448017
24886000,0.0324,0.013523,0.002678,0.000431,0.131044
24887000,0.0324,0.013523,0.002678,0.000431,0.103190
24888000,0.0324,0.013523,0.002678,0.000431,0.090967
24889000,0.0324,0.013523,0.002678,0.000431,0.072397
24890000,0.0324,0.013523,0.002678,0.000431,0.064053
24891000,0.0324,0.013523,0.002678,0.000431,0.053945
24892000,0.0324,0.013523,0.002678,0.000431,0.047481
24893000,0.0324,0.013523,0.002678,0.000431,0.036551
24894000,0.0324,0.013523,0.002678,0.000431,0.027737
24895000,0.0324,0.013523,0.002678,0.000431,0.027267
24896000,0.0324,0.013523,0.002678,0.000431,0.027384
24897000,0.0324,0.013523,0.002678,0.000431,0.020920
24898000,0.0324,0.013523,0.002678,0.000431,0.019745
24899000,0.0324,0.013523,0.002678,0.000431,0.018334
24900000,0.0324,0.013523,0.002678,0.000431,0.016454
24901000,0.0324,0.013523,0.002678,0.000431,0.017394
24902000,0.0324,0.013523,0.002678,0.000431,0.019040
24903000,0.0324,0.013523,0.002678,0.000431,0.010342
24904000,0.0324,0.013523,0.002678,0.000431,0.011753
24905000,0.0324,0.013523,0.002678,0.000431,0.011165
24906000,0.0324,0.013523,0.002678,0.000431,0.007992
24907000,0.0324,0.013523,0.002678,0.000431,0.010107
24908000,0.0324,0.013523,0.002678,0.000431,0.009285
24909000,0.0324,0.013523,0.002678,0.000431,0.006699
24910000,0.0324,0.013523,0.002678,0.000431,0.006934
24911000,0.0324,0.013523,0.002678,0.000431,0.006229
24912000,0.0324,0.013523,0.002678,0.000431,0.008932
24913000,0.0324,0.013523,0.002678,0.000431,0.005054
24914000,0.0324,0.013523,0.002678,0.000431,0.006464
24915000,0.0324,0.013523,0.002678,0.000431,0.005759
24916000,0.0324,0.013523,0.002678,0.000431,0.003526
24917000,0.0324,0.013523,0.002678,0.000431,0.004466
24918000,0.0324,0.013523,0.002678,0.000431,0.002586
24919000,0.0324,0.013523,0.002678,0.000431,0.002586
24920000,0.0324,0.013523,0.002678,0.000431,0.002468
24921000,0.0324,0.013523,0.002678,0.000431,0.002586
24922000,0.0324,0.013523,0.002678,0.000431,0.002468
24923000,0.0324,0.013523,0.002678,0.000431,0.002586
24924000,0.0324,0.013523,0.002678,0.000431,0.002468
24925000,0.0324,0.013523,0.002678,0.000431,0.002586
24926000,0.0324,0.013523,0.002678,0.000431,0.002586
24927000,0.0324,0.013523,0.002678,0.000431,0.002351
24928000,0.0324,0.013523,0.002678,0.000431,0.002586
24929000,0.0324,0.013523,0.002678,0.000431,0.002468
24930000,0.0324,0.013523,0.002678,0.000431,0.002468
24931000,0.0324,0.013523,0.002678,0.000431,0.002586
24932000,0.0324,0.013523,0.002678,0.000431,0.002468
24933000,0.0324,0.013523,0.002678,0.000431,0.002468
24934000,0.0324,0.013523,0.002678,0.000431,0.002468
24935000,0.0324,0.013523,0.002678,0.000431,0.002703
24936000,0.0324,0.013523,0.002678,0.000431,0.002351
24937000,0.0324,0.013523,0.002678,0.000431,0.002586
24938000,0.0324,0.013523,0.002678,0.000431,0.002468
24939000,0.0324,0.013523,0.002678,0.000431,0.002351
24940000,0.0324,0.013523,0.002678,0.000431,0.002821
24941000,0.0324,0.013523,0.002678,0.000431,0.002233
24942000,0.0324,0.013523,0.002678,0.000431,0.002703
24943000,0.0324,0.013523,0.002678,0.000431,0.004701
24944000,0.0324,0.013523,0.002678,0.000431,0.003056
24945000,0.0324,0.013523,0.002678,0.000431,0.214254
24946000,0.0324,0.013523,0.002678,0.000431,0.535693
24947000,0.0324,0.013523,0.002678,0.000431,0.500435
24948000,0.0324,0.013523,0.002678,0.000431,0.133512
24949000,0.0324,0.013523,0.002678,0.000431,0.133982
24950000,0.0324,0.013523,0.002678,0.000431,0.585290
24951000,0.0324,0.013523,0.002678,0.000431,0.259385
24952000,0.0324,0.013523,0.002678,0.000431,0.254684
24953000,0.0324,0.013523,0.002678,0.000431,0.260207
24954000,0.0324,0.013523,0.002678,0.000431,0.144560
24955000,0.0324,0.013523,0.002678,0.000431,0.168653
24956000,0.0324,0.013523,0.002678,0.000431,0.137743
24957000,0.0324,0.013523,0.002678,0.000431,0.462003
24958000,0.0324,0.013523,0.002678,0.000431,0.095785
24959000,0.0324,0.013523,0.002678,0.000431,0.068754
24960000,0.0324,0.013523,0.002678,0.000431,0.068284
24961000,0.0324,0.013523,0.002678,0.000431,0.055708
24962000,0.0324,0.013523,0.002678,0.000431,0.046541
24963000,0.0324,0.013523,0.002678,0.000431,0.044308
24964000,0.0324,0.013523,0.002678,0.000431,0.033496
24965000,0.0324,0.013523,0.002678,0.000431,0.026561
24966000,0.0324,0.013523,0.002678,0.000431,0.032908
24967000,0.0324,0.013523,0.002678,0.000431,0.021155
24968000,0.0324,0.013523,0.002678,0.000431,0.020685
24969000,0.0324,0.013523,0.002678,0.000431,0.016336
24970000,0.0324,0.013523,0.002678,0.000431,0.010578
24971000,0.0324,0.013523,0.002678,0.000431,0.011283
24972000,0.0324,0.013523,0.002678,0.000431,0.009050
24973000,0.0324,0.013523,0.002678,0.000431,0.008815
24974000,0.0324,0.013523,0.002678,0.000431,0.010578
24975000,0.0324,0.013523,0.002678,0.000431,0.007404
24976000,0.0324,0.013523,0.002678,0.000431,0.007757
24977000,0.0324,0.013523,0.002678,0.000431,0.011048
24978000,0.0324,0.013523,0.002678,0.000431,0.010225
24979000,0.0324,0.013523,0.002678,0.000431,0.006582
24980000,0.0324,0.013523,0.002678,0.000431,0.001763
24981000,0.0324,0.013523,0.002678,0.000431,0.003878
24982000,0.0324,0.013523,0.002678,0.000431,0.000823
24983000,0.0324,0.013523,0.002678,0.000431,0.001645
24984000,0.0324,0.013523,0.002678,0.000431,0.389959
24985000,0.0324,0.013523,0.002678,0.000431,0.692946
24986000,0.0324,0.013523,0.002678,0.000431,0.151376
24987000,0.0324,0.013523,0.002678,0.000431,0.134452
24988000,0.0324,0.013523,0.002678,0.000431,0.150906
24989000,0.0324,0.013523,0.002678,0.000431,0.588699
24990000,0.0324,0.013523,0.002678,0.000431,0.275486
24991000,0.0324,0.013523,0.002678,0.000431,0.237877
24992000,0.0324,0.013523,0.002678,0.000431,0.204264
24993000,0.0324,0.013523,0.002678,0.000431,0.141857
24994000,0.0324,0.013523,0.002678,0.000431,0.184519
24995000,0.0324,0.013523,0.002678,0.000431,0.103307
24996000,0.0324,0.013523,0.002678,0.000431,0.504784
24997000,0.0324,0.013523,0.002678,0.000431,0.158310
24998000,0.0324,0.013523,0.002678,0.000431,0.125050
24999000,0.0324,0.013523,0.002678,0.000431,0.098254
