Cycle,Area(mm^2),PeakDynamic(W),SubthresholdLeakage(W),GateLeakage(W),RunTimeDynamic(W)
131000000,0.0324,0.013523,0.002678,0.000431,0.012105
131001000,0.0324,0.013523,0.002678,0.000431,0.012340
131002000,0.0324,0.013523,0.002678,0.000431,0.010460
131003000,0.0324,0.013523,0.002678,0.000431,0.013398
131004000,0.0324,0.013523,0.002678,0.000431,0.012811
131005000,0.0324,0.013523,0.002678,0.000431,0.008227
131006000,0.0324,0.013523,0.002678,0.000431,0.011870
131007000,0.0324,0.013523,0.002678,0.000431,0.009637
131008000,0.0324,0.013523,0.002678,0.000431,0.007522
131009000,0.0324,0.013523,0.002678,0.000431,0.012928
131010000,0.0324,0.013523,0.002678,0.000431,0.007522
131011000,0.0324,0.013523,0.002678,0.000431,0.005171
131012000,0.0324,0.013523,0.002678,0.000431,0.007287
131013000,0.0324,0.013523,0.002678,0.000431,0.004936
131014000,0.0324,0.013523,0.002678,0.000431,0.004349
131015000,0.0324,0.013523,0.002678,0.000431,0.002703
131016000,0.0324,0.013523,0.002678,0.000431,0.002703
131017000,0.0324,0.013523,0.002678,0.000431,0.005759
131018000,0.0324,0.013523,0.002678,0.000431,0.001880
131019000,0.0324,0.013523,0.002678,0.000431,0.001763
131020000,0.0324,0.013523,0.002678,0.000431,0.001763
131021000,0.0324,0.013523,0.002678,0.000431,0.106716
131022000,0.0324,0.013523,0.002678,0.000431,0.941048
131023000,0.0324,0.013523,0.002678,0.000431,0.546389
131024000,0.0324,0.013523,0.002678,0.000431,0.156548
131025000,0.0324,0.013523,0.002678,0.000431,0.334368
131026000,0.0324,0.013523,0.002678,0.000431,0.470583
131027000,0.0324,0.013523,0.002678,0.000431,0.277367
131028000,0.0324,0.013523,0.002678,0.000431,0.263616
131029000,0.0324,0.013523,0.002678,0.000431,0.174529
131030000,0.0324,0.013523,0.002678,0.000431,0.116823
131031000,0.0324,0.013523,0.002678,0.000431,0.499377
131032000,0.0324,0.013523,0.002678,0.000431,0.449075
131033000,0.0324,0.013523,0.002678,0.000431,0.293938
131034000,0.0324,0.013523,0.002678,0.000431,0.250923
131035000,0.0324,0.013523,0.002678,0.000431,0.222951
131036000,0.0324,0.013523,0.002678,0.000431,0.191688
131037000,0.0324,0.013523,0.002678,0.000431,0.174177
131038000,0.0324,0.013523,0.002678,0.000431,0.145030
131039000,0.0324,0.013523,0.002678,0.000431,0.134217
131040000,0.0324,0.013523,0.002678,0.000431,0.114708
131041000,0.0324,0.013523,0.002678,0.000431,0.094375
131042000,0.0324,0.013523,0.002678,0.000431,0.072280
131043000,0.0324,0.013523,0.002678,0.000431,0.063818
131044000,0.0324,0.013523,0.002678,0.000431,0.052535
131045000,0.0324,0.013523,0.002678,0.000431,0.046659
131046000,0.0324,0.013523,0.002678,0.000431,0.046541
131047000,0.0324,0.013523,0.002678,0.000431,0.030910
131048000,0.0324,0.013523,0.002678,0.000431,0.027502
131049000,0.0324,0.013523,0.002678,0.000431,0.027384
131050000,0.0324,0.013523,0.002678,0.000431,0.028677
131051000,0.0324,0.013523,0.002678,0.000431,0.027737
131052000,0.0324,0.013523,0.002678,0.000431,0.019275
131053000,0.0324,0.013523,0.002678,0.000431,0.019275
131054000,0.0324,0.013523,0.002678,0.000431,0.018334
131055000,0.0324,0.013523,0.002678,0.000431,0.017394
131056000,0.0324,0.013523,0.002678,0.000431,0.011988
131057000,0.0324,0.013523,0.002678,0.000431,0.013281
131058000,0.0324,0.013523,0.002678,0.000431,0.016571
131059000,0.0324,0.013523,0.002678,0.000431,0.012105
131060000,0.0324,0.013523,0.002678,0.000431,0.009167
131061000,0.0324,0.013523,0.002678,0.000431,0.008109
131062000,0.0324,0.013523,0.002678,0.000431,0.010930
131063000,0.0324,0.013523,0.002678,0.000431,0.010225
131064000,0.0324,0.013523,0.002678,0.000431,0.005759
131065000,0.0324,0.013523,0.002678,0.000431,0.009755
131066000,0.0324,0.013523,0.002678,0.000431,0.007992
131067000,0.0324,0.013523,0.002678,0.000431,0.004701
131068000,0.0324,0.013523,0.002678,0.000431,0.005524
131069000,0.0324,0.013523,0.002678,0.000431,0.007169
131070000,0.0324,0.013523,0.002678,0.000431,0.006934
131071000,0.0324,0.013523,0.002678,0.000431,0.003408
131072000,0.0324,0.013523,0.002678,0.000431,0.002938
131073000,0.0324,0.013523,0.002678,0.000431,0.003408
131074000,0.0324,0.013523,0.002678,0.000431,0.005759
131075000,0.0324,0.013523,0.002678,0.000431,0.003761
131076000,0.0324,0.013523,0.002678,0.000431,0.298757
131077000,0.0324,0.013523,0.002678,0.000431,0.872529
131078000,0.0324,0.013523,0.002678,0.000431,0.484804
131079000,0.0324,0.013523,0.002678,0.000431,0.160191
131080000,0.0324,0.013523,0.002678,0.000431,0.441906
131081000,0.0324,0.013523,0.002678,0.000431,0.366218
131082000,0.0324,0.013523,0.002678,0.000431,0.338364
131083000,0.0324,0.013523,0.002678,0.000431,0.225889
131084000,0.0324,0.013523,0.002678,0.000431,0.186165
131085000,0.0324,0.013523,0.002678,0.000431,0.088146
131086000,0.0324,0.013523,0.002678,0.000431,0.573773
131087000,0.0324,0.013523,0.002678,0.000431,0.411466
131088000,0.0324,0.013523,0.002678,0.000431,0.312037
131089000,0.0324,0.013523,0.002678,0.000431,0.265731
131090000,0.0324,0.013523,0.002678,0.000431,0.221541
131091000,0.0324,0.013523,0.002678,0.000431,0.203324
131092000,0.0324,0.013523,0.002678,0.000431,0.169593
131093000,0.0324,0.013523,0.002678,0.000431,0.143619
131094000,0.0324,0.013523,0.002678,0.000431,0.130926
131095000,0.0324,0.013523,0.002678,0.000431,0.119409
131096000,0.0324,0.013523,0.002678,0.000431,0.102955
131097000,0.0324,0.013523,0.002678,0.000431,0.086618
131098000,0.0324,0.013523,0.002678,0.000431,0.068284
131099000,0.0324,0.013523,0.002678,0.000431,0.055238
131100000,0.0324,0.013523,0.002678,0.000431,0.063935
131101000,0.0324,0.013523,0.002678,0.000431,0.054063
131102000,0.0324,0.013523,0.002678,0.000431,0.045836
131103000,0.0324,0.013523,0.002678,0.000431,0.034788
131104000,0.0324,0.013523,0.002678,0.000431,0.027854
131105000,0.0324,0.013523,0.002678,0.000431,0.032320
131106000,0.0324,0.013523,0.002678,0.000431,0.027267
131107000,0.0324,0.013523,0.002678,0.000431,0.021625
131108000,0.0324,0.013523,0.002678,0.000431,0.019745
131109000,0.0324,0.013523,0.002678,0.000431,0.009990
131110000,0.0324,0.013523,0.002678,0.000431,0.009637
131111000,0.0324,0.013523,0.002678,0.000431,0.010107
131112000,0.0324,0.013523,0.002678,0.000431,0.001880
131113000,0.0324,0.013523,0.002678,0.000431,0.001645
131114000,0.0324,0.013523,0.002678,0.000431,0.001763
131115000,0.0324,0.013523,0.002678,0.000431,0.001528
131116000,0.0324,0.013523,0.002678,0.000431,0.001763
131117000,0.0324,0.013523,0.002678,0.000431,0.001528
131118000,0.0324,0.013523,0.002678,0.000431,0.001645
131119000,0.0324,0.013523,0.002678,0.000431,0.001880
131120000,0.0324,0.013523,0.002678,0.000431,0.001528
131121000,0.0324,0.013523,0.002678,0.000431,0.001763
131122000,0.0324,0.013523,0.002678,0.000431,0.003996
131123000,0.0324,0.013523,0.002678,0.000431,0.000823
131124000,0.0324,0.013523,0.002678,0.000431,0.000823
131125000,0.0324,0.013523,0.002678,0.000431,0.000823
131126000,0.0324,0.013523,0.002678,0.000431,0.000940
131127000,0.0324,0.013523,0.002678,0.000431,0.000823
131128000,0.0324,0.013523,0.002678,0.000431,0.000823
131129000,0.0324,0.013523,0.002678,0.000431,0.000823
131130000,0.0324,0.013523,0.002678,0.000431,0.000705
131131000,0.0324,0.013523,0.002678,0.000431,0.000940
131132000,0.0324,0.013523,0.002678,0.000431,0.000940
131133000,0.0324,0.013523,0.002678,0.000431,0.000705
131134000,0.0324,0.013523,0.002678,0.000431,0.000940
131135000,0.0324,0.013523,0.002678,0.000431,0.000705
131136000,0.0324,0.013523,0.002678,0.000431,0.000940
131137000,0.0324,0.013523,0.002678,0.000431,0.000823
131138000,0.0324,0.013523,0.002678,0.000431,0.000823
131139000,0.0324,0.013523,0.002678,0.000431,0.000823
131140000,0.0324,0.013523,0.002678,0.000431,0.000823
131141000,0.0324,0.013523,0.002678,0.000431,0.000705
131142000,0.0324,0.013523,0.002678,0.000431,0.072985
131143000,0.0324,0.013523,0.002678,0.000431,0.932939
131144000,0.0324,0.013523,0.002678,0.000431,0.541335
131145000,0.0324,0.013523,0.002678,0.000431,0.217545
131146000,0.0324,0.013523,0.002678,0.000431,0.263381
131147000,0.0324,0.013523,0.002678,0.000431,0.522060
131148000,0.0324,0.013523,0.002678,0.000431,0.308511
131149000,0.0324,0.013523,0.002678,0.000431,0.339539
131150000,0.0324,0.013523,0.002678,0.000431,0.166655
131151000,0.0324,0.013523,0.002678,0.000431,0.115060
131152000,0.0324,0.013523,0.002678,0.000431,0.489975
131153000,0.0324,0.013523,0.002678,0.000431,0.431328
131154000,0.0324,0.013523,0.002678,0.000431,0.290412
131155000,0.0324,0.013523,0.002678,0.000431,0.244811
131156000,0.0324,0.013523,0.002678,0.000431,0.224244
131157000,0.0324,0.013523,0.002678,0.000431,0.188398
131158000,0.0324,0.013523,0.002678,0.000431,0.166420
131159000,0.0324,0.013523,0.002678,0.000431,0.143502
131160000,0.0324,0.013523,0.002678,0.000431,0.131279
131161000,0.0324,0.013523,0.002678,0.000431,0.095668
131162000,0.0324,0.013523,0.002678,0.000431,0.081565
131163000,0.0324,0.013523,0.002678,0.000431,0.084385
131164000,0.0324,0.013523,0.002678,0.000431,0.078274
131165000,0.0324,0.013523,0.002678,0.000431,0.065816
131166000,0.0324,0.013523,0.002678,0.000431,0.045483
131167000,0.0324,0.013523,0.002678,0.000431,0.032790
131168000,0.0324,0.013523,0.002678,0.000431,0.029147
131169000,0.0324,0.013523,0.002678,0.000431,0.026796
131170000,0.0324,0.013523,0.002678,0.000431,0.028442
131171000,0.0324,0.013523,0.002678,0.000431,0.021743
131172000,0.0324,0.013523,0.002678,0.000431,0.025386
131173000,0.0324,0.013523,0.002678,0.000431,0.013633
131174000,0.0324,0.013523,0.002678,0.000431,0.005406
131175000,0.0324,0.013523,0.002678,0.000431,0.010813
131176000,0.0324,0.013523,0.002678,0.000431,0.004819
131177000,0.0324,0.013523,0.002678,0.000431,0.003643
131178000,0.0324,0.013523,0.002678,0.000431,0.003761
131179000,0.0324,0.013523,0.002678,0.000431,0.003996
131180000,0.0324,0.013523,0.002678,0.000431,0.003878
131181000,0.0324,0.013523,0.002678,0.000431,0.008580
131182000,0.0324,0.013523,0.002678,0.000431,0.003761
131183000,0.0324,0.013523,0.002678,0.000431,0.001528
131184000,0.0324,0.013523,0.002678,0.000431,0.001763
131185000,0.0324,0.013523,0.002678,0.000431,0.001880
131186000,0.0324,0.013523,0.002678,0.000431,0.001528
131187000,0.0324,0.013523,0.002678,0.000431,0.001763
131188000,0.0324,0.013523,0.002678,0.000431,0.001763
131189000,0.0324,0.013523,0.002678,0.000431,0.004466
131190000,0.0324,0.013523,0.002678,0.000431,0.000823
131191000,0.0324,0.013523,0.002678,0.000431,0.000823
131192000,0.0324,0.013523,0.002678,0.000431,0.000823
131193000,0.0324,0.013523,0.002678,0.000431,0.000823
131194000,0.0324,0.013523,0.002678,0.000431,0.000940
131195000,0.0324,0.013523,0.002678,0.000431,0.000823
131196000,0.0324,0.013523,0.002678,0.000431,0.000823
131197000,0.0324,0.013523,0.002678,0.000431,0.000705
131198000,0.0324,0.013523,0.002678,0.000431,0.000940
131199000,0.0324,0.013523,0.002678,0.000431,0.000940
131200000,0.0324,0.013523,0.002678,0.000431,0.000705
131201000,0.0324,0.013523,0.002678,0.000431,0.000940
131202000,0.0324,0.013523,0.002678,0.000431,0.000705
131203000,0.0324,0.013523,0.002678,0.000431,0.072985
131204000,0.0324,0.013523,0.002678,0.000431,0.914252
131205000,0.0324,0.013523,0.002678,0.000431,0.539337
131206000,0.0324,0.013523,0.002678,0.000431,0.206615
131207000,0.0324,0.013523,0.002678,0.000431,0.215664
131208000,0.0324,0.013523,0.002678,0.000431,0.591167
131209000,0.0324,0.013523,0.002678,0.000431,0.286651
131210000,0.0324,0.013523,0.002678,0.000431,0.313095
131211000,0.0324,0.013523,0.002678,0.000431,0.168888
131212000,0.0324,0.013523,0.002678,0.000431,0.104718
131213000,0.0324,0.013523,0.002678,0.000431,0.520415
131214000,0.0324,0.013523,0.002678,0.000431,0.469643
131215000,0.0324,0.013523,0.002678,0.000431,0.332135
131216000,0.0324,0.013523,0.002678,0.000431,0.279835
131217000,0.0324,0.013523,0.002678,0.000431,0.255624
131218000,0.0324,0.013523,0.002678,0.000431,0.221306
131219000,0.0324,0.013523,0.002678,0.000431,0.170298
131220000,0.0324,0.013523,0.002678,0.000431,0.150554
131221000,0.0324,0.013523,0.002678,0.000431,0.131984
131222000,0.0324,0.013523,0.002678,0.000431,0.118586
131223000,0.0324,0.013523,0.002678,0.000431,0.090379
131224000,0.0324,0.013523,0.002678,0.000431,0.086266
131225000,0.0324,0.013523,0.002678,0.000431,0.070634
131226000,0.0324,0.013523,0.002678,0.000431,0.065346
131227000,0.0324,0.013523,0.002678,0.000431,0.046071
131228000,0.0324,0.013523,0.002678,0.000431,0.052653
131229000,0.0324,0.013523,0.002678,0.000431,0.036434
131230000,0.0324,0.013523,0.002678,0.000431,0.036316
131231000,0.0324,0.013523,0.002678,0.000431,0.032555
131232000,0.0324,0.013523,0.002678,0.000431,0.029382
131233000,0.0324,0.013523,0.002678,0.000431,0.018687
131234000,0.0324,0.013523,0.002678,0.000431,0.017629
131235000,0.0324,0.013523,0.002678,0.000431,0.019392
131236000,0.0324,0.013523,0.002678,0.000431,0.024328
131237000,0.0324,0.013523,0.002678,0.000431,0.011400
131238000,0.0324,0.013523,0.002678,0.000431,0.015396
131239000,0.0324,0.013523,0.002678,0.000431,0.007169
131240000,0.0324,0.013523,0.002678,0.000431,0.004701
131241000,0.0324,0.013523,0.002678,0.000431,0.007287
131242000,0.0324,0.013523,0.002678,0.000431,0.006111
131243000,0.0324,0.013523,0.002678,0.000431,0.004231
131244000,0.0324,0.013523,0.002678,0.000431,0.004231
131245000,0.0324,0.013523,0.002678,0.000431,0.004349
131246000,0.0324,0.013523,0.002678,0.000431,0.007757
131247000,0.0324,0.013523,0.002678,0.000431,0.005759
131248000,0.0324,0.013523,0.002678,0.000431,0.002821
131249000,0.0324,0.013523,0.002678,0.000431,0.003056
131250000,0.0324,0.013523,0.002678,0.000431,0.002938
131251000,0.0324,0.013523,0.002678,0.000431,0.002233
131252000,0.0324,0.013523,0.002678,0.000431,0.003173
131253000,0.0324,0.013523,0.002678,0.000431,0.002586
131254000,0.0324,0.013523,0.002678,0.000431,0.002586
131255000,0.0324,0.013523,0.002678,0.000431,0.002938
131256000,0.0324,0.013523,0.002678,0.000431,0.002586
131257000,0.0324,0.013523,0.002678,0.000431,0.002703
131258000,0.0324,0.013523,0.002678,0.000431,0.005759
131259000,0.0324,0.013523,0.002678,0.000431,0.001763
131260000,0.0324,0.013523,0.002678,0.000431,0.002116
131261000,0.0324,0.013523,0.002678,0.000431,0.001763
131262000,0.0324,0.013523,0.002678,0.000431,0.001998
131263000,0.0324,0.013523,0.002678,0.000431,0.001880
131264000,0.0324,0.013523,0.002678,0.000431,0.001763
131265000,0.0324,0.013523,0.002678,0.000431,0.002233
131266000,0.0324,0.013523,0.002678,0.000431,0.001528
131267000,0.0324,0.013523,0.002678,0.000431,0.002116
131268000,0.0324,0.013523,0.002678,0.000431,0.001880
131269000,0.0324,0.013523,0.002678,0.000431,0.001880
131270000,0.0324,0.013523,0.002678,0.000431,0.001880
131271000,0.0324,0.013523,0.002678,0.000431,0.001763
131272000,0.0324,0.013523,0.002678,0.000431,0.002233
131273000,0.0324,0.013523,0.002678,0.000431,0.001645
131274000,0.0324,0.013523,0.002678,0.000431,0.001880
131275000,0.0324,0.013523,0.002678,0.000431,0.002116
131276000,0.0324,0.013523,0.002678,0.000431,0.001645
131277000,0.0324,0.013523,0.002678,0.000431,0.001998
131278000,0.0324,0.013523,0.002678,0.000431,0.001880
131279000,0.0324,0.013523,0.002678,0.000431,0.001998
131280000,0.0324,0.013523,0.002678,0.000431,0.001880
131281000,0.0324,0.013523,0.002678,0.000431,0.001763
131282000,0.0324,0.013523,0.002678,0.000431,0.001880
131283000,0.0324,0.013523,0.002678,0.000431,0.002116
131284000,0.0324,0.013523,0.002678,0.000431,0.001645
131285000,0.0324,0.013523,0.002678,0.000431,0.002116
131286000,0.0324,0.013523,0.002678,0.000431,0.001880
131287000,0.0324,0.013523,0.002678,0.000431,0.001880
131288000,0.0324,0.013523,0.002678,0.000431,0.001998
131289000,0.0324,0.013523,0.002678,0.000431,0.001645
131290000,0.0324,0.013523,0.002678,0.000431,0.002233
131291000,0.0324,0.013523,0.002678,0.000431,0.001763
131292000,0.0324,0.013523,0.002678,0.000431,0.001880
131293000,0.0324,0.013523,0.002678,0.000431,0.001880
131294000,0.0324,0.013523,0.002678,0.000431,0.001763
131295000,0.0324,0.013523,0.002678,0.000431,0.002351
131296000,0.0324,0.013523,0.002678,0.000431,0.004936
131297000,0.0324,0.013523,0.002678,0.000431,0.001175
131298000,0.0324,0.013523,0.002678,0.000431,0.001175
131299000,0.0324,0.013523,0.002678,0.000431,0.000823
131300000,0.0324,0.013523,0.002678,0.000431,0.001293
131301000,0.0324,0.013523,0.002678,0.000431,0.000823
131302000,0.0324,0.013523,0.002678,0.000431,0.000940
131303000,0.0324,0.013523,0.002678,0.000431,0.001175
131304000,0.0324,0.013523,0.002678,0.000431,0.000940
131305000,0.0324,0.013523,0.002678,0.000431,0.001058
131306000,0.0324,0.013523,0.002678,0.000431,0.001058
131307000,0.0324,0.013523,0.002678,0.000431,0.000940
131308000,0.0324,0.013523,0.002678,0.000431,0.001175
131309000,0.0324,0.013523,0.002678,0.000431,0.000940
131310000,0.0324,0.013523,0.002678,0.000431,0.001058
131311000,0.0324,0.013523,0.002678,0.000431,0.001058
131312000,0.0324,0.013523,0.002678,0.000431,0.000940
131313000,0.0324,0.013523,0.002678,0.000431,0.001175
131314000,0.0324,0.013523,0.002678,0.000431,0.000823
131315000,0.0324,0.013523,0.002678,0.000431,0.001175
131316000,0.0324,0.013523,0.002678,0.000431,0.000940
131317000,0.0324,0.013523,0.002678,0.000431,0.000940
131318000,0.0324,0.013523,0.002678,0.000431,0.001293
131319000,0.0324,0.013523,0.002678,0.000431,0.000705
131320000,0.0324,0.013523,0.002678,0.000431,0.001293
131321000,0.0324,0.013523,0.002678,0.000431,0.000940
131322000,0.0324,0.013523,0.002678,0.000431,0.000940
131323000,0.0324,0.013523,0.002678,0.000431,0.001175
131324000,0.0324,0.013523,0.002678,0.000431,0.000823
131325000,0.0324,0.013523,0.002678,0.000431,0.001058
131326000,0.0324,0.013523,0.002678,0.000431,0.001058
131327000,0.0324,0.013523,0.002678,0.000431,0.001058
131328000,0.0324,0.013523,0.002678,0.000431,0.001058
131329000,0.0324,0.013523,0.002678,0.000431,0.001175
131330000,0.0324,0.013523,0.002678,0.000431,0.001528
131331000,0.0324,0.013523,0.002678,0.000431,0.001175
131332000,0.0324,0.013523,0.002678,0.000431,0.001058
131333000,0.0324,0.013523,0.002678,0.000431,0.001175
131334000,0.0324,0.013523,0.002678,0.000431,0.000823
131335000,0.0324,0.013523,0.002678,0.000431,0.001293
131336000,0.0324,0.013523,0.002678,0.000431,0.000940
131337000,0.0324,0.013523,0.002678,0.000431,0.001293
131338000,0.0324,0.013523,0.002678,0.000431,0.001058
131339000,0.0324,0.013523,0.002678,0.000431,0.001175
131340000,0.0324,0.013523,0.002678,0.000431,0.001410
131341000,0.0324,0.013523,0.002678,0.000431,0.001175
131342000,0.0324,0.013523,0.002678,0.000431,0.000940
131343000,0.0324,0.013523,0.002678,0.000431,0.072280
131344000,0.0324,0.013523,0.002678,0.000431,0.964084
131345000,0.0324,0.013523,0.002678,0.000431,0.584703
131346000,0.0324,0.013523,0.002678,0.000431,0.156900
131347000,0.0324,0.013523,0.002678,0.000431,0.249395
131348000,0.0324,0.013523,0.002678,0.000431,0.593282
131349000,0.0324,0.013523,0.002678,0.000431,0.295936
131350000,0.0324,0.013523,0.002678,0.000431,0.274663
131351000,0.0324,0.013523,0.002678,0.000431,0.161836
131352000,0.0324,0.013523,0.002678,0.000431,0.101192
131353000,0.0324,0.013523,0.002678,0.000431,0.551442
131354000,0.0324,0.013523,0.002678,0.000431,0.401006
131355000,0.0324,0.013523,0.002678,0.000431,0.279247
131356000,0.0324,0.013523,0.002678,0.000431,0.247984
131357000,0.0324,0.013523,0.002678,0.000431,0.211903
131358000,0.0324,0.013523,0.002678,0.000431,0.178408
131359000,0.0324,0.013523,0.002678,0.000431,0.150436
131360000,0.0324,0.013523,0.002678,0.000431,0.147850
131361000,0.0324,0.013523,0.002678,0.000431,0.113062
131362000,0.0324,0.013523,0.002678,0.000431,0.089086
131363000,0.0324,0.013523,0.002678,0.000431,0.084150
131364000,0.0324,0.013523,0.002678,0.000431,0.059117
131365000,0.0324,0.013523,0.002678,0.000431,0.051830
131366000,0.0324,0.013523,0.002678,0.000431,0.044661
131367000,0.0324,0.013523,0.002678,0.000431,0.038197
131368000,0.0324,0.013523,0.002678,0.000431,0.035729
131369000,0.0324,0.013523,0.002678,0.000431,0.027619
131370000,0.0324,0.013523,0.002678,0.000431,0.020450
131371000,0.0324,0.013523,0.002678,0.000431,0.029735
131372000,0.0324,0.013523,0.002678,0.000431,0.013281
131373000,0.0324,0.013523,0.002678,0.000431,0.013281
131374000,0.0324,0.013523,0.002678,0.000431,0.012811
131375000,0.0324,0.013523,0.002678,0.000431,0.011283
131376000,0.0324,0.013523,0.002678,0.000431,0.010578
131377000,0.0324,0.013523,0.002678,0.000431,0.006934
131378000,0.0324,0.013523,0.002678,0.000431,0.010578
131379000,0.0324,0.013523,0.002678,0.000431,0.013633
131380000,0.0324,0.013523,0.002678,0.000431,0.010107
131381000,0.0324,0.013523,0.002678,0.000431,0.003173
131382000,0.0324,0.013523,0.002678,0.000431,0.003056
131383000,0.0324,0.013523,0.002678,0.000431,0.005641
131384000,0.0324,0.013523,0.002678,0.000431,0.002351
131385000,0.0324,0.013523,0.002678,0.000431,0.002351
131386000,0.0324,0.013523,0.002678,0.000431,0.002351
131387000,0.0324,0.013523,0.002678,0.000431,0.002586
131388000,0.0324,0.013523,0.002678,0.000431,0.002233
131389000,0.0324,0.013523,0.002678,0.000431,0.002468
131390000,0.0324,0.013523,0.002678,0.000431,0.002233
131391000,0.0324,0.013523,0.002678,0.000431,0.002468
131392000,0.0324,0.013523,0.002678,0.000431,0.002468
131393000,0.0324,0.013523,0.002678,0.000431,0.002468
131394000,0.0324,0.013523,0.002678,0.000431,0.002351
131395000,0.0324,0.013523,0.002678,0.000431,0.002351
131396000,0.0324,0.013523,0.002678,0.000431,0.002586
131397000,0.0324,0.013523,0.002678,0.000431,0.003878
131398000,0.0324,0.013523,0.002678,0.000431,0.003291
131399000,0.0324,0.013523,0.002678,0.000431,0.001175
131400000,0.0324,0.013523,0.002678,0.000431,0.001410
131401000,0.0324,0.013523,0.002678,0.000431,0.001645
131402000,0.0324,0.013523,0.002678,0.000431,0.000940
131403000,0.0324,0.013523,0.002678,0.000431,0.000823
131404000,0.0324,0.013523,0.002678,0.000431,0.000940
131405000,0.0324,0.013523,0.002678,0.000431,0.000705
131406000,0.0324,0.013523,0.002678,0.000431,0.000940
131407000,0.0324,0.013523,0.002678,0.000431,0.000823
131408000,0.0324,0.013523,0.002678,0.000431,0.000823
131409000,0.0324,0.013523,0.002678,0.000431,0.072515
131410000,0.0324,0.013523,0.002678,0.000431,0.907788
131411000,0.0324,0.013523,0.002678,0.000431,0.581882
131412000,0.0324,0.013523,0.002678,0.000431,0.172414
131413000,0.0324,0.013523,0.002678,0.000431,0.270902
131414000,0.0324,0.013523,0.002678,0.000431,0.563313
131415000,0.0324,0.013523,0.002678,0.000431,0.272665
131416000,0.0324,0.013523,0.002678,0.000431,0.292645
131417000,0.0324,0.013523,0.002678,0.000431,0.157605
131418000,0.0324,0.013523,0.002678,0.000431,0.102250
131419000,0.0324,0.013523,0.002678,0.000431,0.463884
131420000,0.0324,0.013523,0.002678,0.000431,0.491385
131421000,0.0324,0.013523,0.002678,0.000431,0.324495
131422000,0.0324,0.013523,0.002678,0.000431,0.271725
131423000,0.0324,0.013523,0.002678,0.000431,0.240463
131424000,0.0324,0.013523,0.002678,0.000431,0.193569
131425000,0.0324,0.013523,0.002678,0.000431,0.165010
131426000,0.0324,0.013523,0.002678,0.000431,0.143972
131427000,0.0324,0.013523,0.002678,0.000431,0.113297
131428000,0.0324,0.013523,0.002678,0.000431,0.123287
131429000,0.0324,0.013523,0.002678,0.000431,0.081330
131430000,0.0324,0.013523,0.002678,0.000431,0.070164
131431000,0.0324,0.013523,0.002678,0.000431,0.057119
131432000,0.0324,0.013523,0.002678,0.000431,0.047246
131433000,0.0324,0.013523,0.002678,0.000431,0.039372
131434000,0.0324,0.013523,0.002678,0.000431,0.036669
131435000,0.0324,0.013523,0.002678,0.000431,0.030557
131436000,0.0324,0.013523,0.002678,0.000431,0.032438
131437000,0.0324,0.013523,0.002678,0.000431,0.030675
131438000,0.0324,0.013523,0.002678,0.000431,0.023976
131439000,0.0324,0.013523,0.002678,0.000431,0.018687
131440000,0.0324,0.013523,0.002678,0.000431,0.017629
131441000,0.0324,0.013523,0.002678,0.000431,0.009285
131442000,0.0324,0.013523,0.002678,0.000431,0.014809
131443000,0.0324,0.013523,0.002678,0.000431,0.009167
131444000,0.0324,0.013523,0.002678,0.000431,0.010225
131445000,0.0324,0.013523,0.002678,0.000431,0.003643
131446000,0.0324,0.013523,0.002678,0.000431,0.005289
131447000,0.0324,0.013523,0.002678,0.000431,0.002586
131448000,0.0324,0.013523,0.002678,0.000431,0.002351
131449000,0.0324,0.013523,0.002678,0.000431,0.002233
131450000,0.0324,0.013523,0.002678,0.000431,0.005876
131451000,0.0324,0.013523,0.002678,0.000431,0.001410
131452000,0.0324,0.013523,0.002678,0.000431,0.001645
131453000,0.0324,0.013523,0.002678,0.000431,0.001645
131454000,0.0324,0.013523,0.002678,0.000431,0.001410
131455000,0.0324,0.013523,0.002678,0.000431,0.001645
131456000,0.0324,0.013523,0.002678,0.000431,0.001528
131457000,0.0324,0.013523,0.002678,0.000431,0.001763
131458000,0.0324,0.013523,0.002678,0.000431,0.001410
131459000,0.0324,0.013523,0.002678,0.000431,0.001645
131460000,0.0324,0.013523,0.002678,0.000431,0.001645
131461000,0.0324,0.013523,0.002678,0.000431,0.001410
131462000,0.0324,0.013523,0.002678,0.000431,0.003408
131463000,0.0324,0.013523,0.002678,0.000431,0.555791
131464000,0.0324,0.013523,0.002678,0.000431,0.787086
131465000,0.0324,0.013523,0.002678,0.000431,0.352467
131466000,0.0324,0.013523,0.002678,0.000431,0.160661
131467000,0.0324,0.013523,0.002678,0.000431,0.612674
131468000,0.0324,0.013523,0.002678,0.000431,0.290765
131469000,0.0324,0.013523,0.002678,0.000431,0.334485
131470000,0.0324,0.013523,0.002678,0.000431,0.183344
131471000,0.0324,0.013523,0.002678,0.000431,0.146205
131472000,0.0324,0.013523,0.002678,0.000431,0.196272
131473000,0.0324,0.013523,0.002678,0.000431,0.590462
131474000,0.0324,0.013523,0.002678,0.000431,0.376913
131475000,0.0324,0.013523,0.002678,0.000431,0.291470
131476000,0.0324,0.013523,0.002678,0.000431,0.258209
131477000,0.0324,0.013523,0.002678,0.000431,0.208260
131478000,0.0324,0.013523,0.002678,0.000431,0.167713
131479000,0.0324,0.013523,0.002678,0.000431,0.156312
131480000,0.0324,0.013523,0.002678,0.000431,0.122699
131481000,0.0324,0.013523,0.002678,0.000431,0.108949
131482000,0.0324,0.013523,0.002678,0.000431,0.102837
131483000,0.0324,0.013523,0.002678,0.000431,0.084738
131484000,0.0324,0.013523,0.002678,0.000431,0.076628
131485000,0.0324,0.013523,0.002678,0.000431,0.061467
131486000,0.0324,0.013523,0.002678,0.000431,0.056061
131487000,0.0324,0.013523,0.002678,0.000431,0.055473
131488000,0.0324,0.013523,0.002678,0.000431,0.046776
131489000,0.0324,0.013523,0.002678,0.000431,0.040312
131490000,0.0324,0.013523,0.002678,0.000431,0.032555
131491000,0.0324,0.013523,0.002678,0.000431,0.032790
131492000,0.0324,0.013523,0.002678,0.000431,0.032555
131493000,0.0324,0.013523,0.002678,0.000431,0.029617
131494000,0.0324,0.013523,0.002678,0.000431,0.022565
131495000,0.0324,0.013523,0.002678,0.000431,0.023858
131496000,0.0324,0.013523,0.002678,0.000431,0.018687
131497000,0.0324,0.013523,0.002678,0.000431,0.018805
131498000,0.0324,0.013523,0.002678,0.000431,0.012928
131499000,0.0324,0.013523,0.002678,0.000431,0.017747
131500000,0.0324,0.013523,0.002678,0.000431,0.013751
131501000,0.0324,0.013523,0.002678,0.000431,0.013398
131502000,0.0324,0.013523,0.002678,0.000431,0.008932
131503000,0.0324,0.013523,0.002678,0.000431,0.007404
131504000,0.0324,0.013523,0.002678,0.000431,0.007169
131505000,0.0324,0.013523,0.002678,0.000431,0.007052
131506000,0.0324,0.013523,0.002678,0.000431,0.006464
131507000,0.0324,0.013523,0.002678,0.000431,0.006347
131508000,0.0324,0.013523,0.002678,0.000431,0.009520
131509000,0.0324,0.013523,0.002678,0.000431,0.005759
131510000,0.0324,0.013523,0.002678,0.000431,0.013633
131511000,0.0324,0.013523,0.002678,0.000431,0.003878
131512000,0.0324,0.013523,0.002678,0.000431,0.004113
131513000,0.0324,0.013523,0.002678,0.000431,0.004231
131514000,0.0324,0.013523,0.002678,0.000431,0.008345
131515000,0.0324,0.013523,0.002678,0.000431,0.002938
131516000,0.0324,0.013523,0.002678,0.000431,0.006582
131517000,0.0324,0.013523,0.002678,0.000431,0.002468
131518000,0.0324,0.013523,0.002678,0.000431,0.002233
131519000,0.0324,0.013523,0.002678,0.000431,0.002821
131520000,0.0324,0.013523,0.002678,0.000431,0.002351
131521000,0.0324,0.013523,0.002678,0.000431,0.002233
131522000,0.0324,0.013523,0.002678,0.000431,0.002468
131523000,0.0324,0.013523,0.002678,0.000431,0.001763
131524000,0.0324,0.013523,0.002678,0.000431,0.001645
131525000,0.0324,0.013523,0.002678,0.000431,0.001645
131526000,0.0324,0.013523,0.002678,0.000431,0.005171
131527000,0.0324,0.013523,0.002678,0.000431,0.000823
131528000,0.0324,0.013523,0.002678,0.000431,0.000940
131529000,0.0324,0.013523,0.002678,0.000431,0.000823
131530000,0.0324,0.013523,0.002678,0.000431,0.000823
131531000,0.0324,0.013523,0.002678,0.000431,0.000705
131532000,0.0324,0.013523,0.002678,0.000431,0.000940
131533000,0.0324,0.013523,0.002678,0.000431,0.000940
131534000,0.0324,0.013523,0.002678,0.000431,0.000705
131535000,0.0324,0.013523,0.002678,0.000431,0.000940
131536000,0.0324,0.013523,0.002678,0.000431,0.000705
131537000,0.0324,0.013523,0.002678,0.000431,0.000940
131538000,0.0324,0.013523,0.002678,0.000431,0.000940
131539000,0.0324,0.013523,0.002678,0.000431,0.331312
131540000,0.0324,0.013523,0.002678,0.000431,0.854900
131541000,0.0324,0.013523,0.002678,0.000431,0.458360
131542000,0.0324,0.013523,0.002678,0.000431,0.174882
131543000,0.0324,0.013523,0.002678,0.000431,0.517594
131544000,0.0324,0.013523,0.002678,0.000431,0.318854
131545000,0.0324,0.013523,0.002678,0.000431,0.337894
131546000,0.0324,0.013523,0.002678,0.000431,0.201208
131547000,0.0324,0.013523,0.002678,0.000431,0.180641
131548000,0.0324,0.013523,0.002678,0.000431,0.120584
131549000,0.0324,0.013523,0.002678,0.000431,0.585878
131550000,0.0324,0.013523,0.002678,0.000431,0.420868
131551000,0.0324,0.013523,0.002678,0.000431,0.300167
131552000,0.0324,0.013523,0.002678,0.000431,0.271138
131553000,0.0324,0.013523,0.002678,0.000431,0.237760
131554000,0.0324,0.013523,0.002678,0.000431,0.190866
131555000,0.0324,0.013523,0.002678,0.000431,0.166185
131556000,0.0324,0.013523,0.002678,0.000431,0.143149
131557000,0.0324,0.013523,0.002678,0.000431,0.120584
131558000,0.0324,0.013523,0.002678,0.000431,0.115060
131559000,0.0324,0.013523,0.002678,0.000431,0.108831
131560000,0.0324,0.013523,0.002678,0.000431,0.088851
131561000,0.0324,0.013523,0.002678,0.000431,0.066403
131562000,0.0324,0.013523,0.002678,0.000431,0.051242
131563000,0.0324,0.013523,0.002678,0.000431,0.064876
131564000,0.0324,0.013523,0.002678,0.000431,0.033025
131565000,0.0324,0.013523,0.002678,0.000431,0.032203
131566000,0.0324,0.013523,0.002678,0.000431,0.025034
131567000,0.0324,0.013523,0.002678,0.000431,0.035141
131568000,0.0324,0.013523,0.002678,0.000431,0.017747
131569000,0.0324,0.013523,0.002678,0.000431,0.016219
131570000,0.0324,0.013523,0.002678,0.000431,0.014221
131571000,0.0324,0.013523,0.002678,0.000431,0.007169
131572000,0.0324,0.013523,0.002678,0.000431,0.009520
131573000,0.0324,0.013523,0.002678,0.000431,0.005641
131574000,0.0324,0.013523,0.002678,0.000431,0.007639
131575000,0.0324,0.013523,0.002678,0.000431,0.007052
131576000,0.0324,0.013523,0.002678,0.000431,0.005171
131577000,0.0324,0.013523,0.002678,0.000431,0.004936
131578000,0.0324,0.013523,0.002678,0.000431,0.005406
131579000,0.0324,0.013523,0.002678,0.000431,0.004936
131580000,0.0324,0.013523,0.002678,0.000431,0.006817
131581000,0.0324,0.013523,0.002678,0.000431,0.008227
131582000,0.0324,0.013523,0.002678,0.000431,0.010460
131583000,0.0324,0.013523,0.002678,0.000431,0.001528
131584000,0.0324,0.013523,0.002678,0.000431,0.001763
131585000,0.0324,0.013523,0.002678,0.000431,0.001763
131586000,0.0324,0.013523,0.002678,0.000431,0.001528
131587000,0.0324,0.013523,0.002678,0.000431,0.001880
131588000,0.0324,0.013523,0.002678,0.000431,0.001410
131589000,0.0324,0.013523,0.002678,0.000431,0.001880
131590000,0.0324,0.013523,0.002678,0.000431,0.003408
131591000,0.0324,0.013523,0.002678,0.000431,0.003056
131592000,0.0324,0.013523,0.002678,0.000431,0.000705
131593000,0.0324,0.013523,0.002678,0.000431,0.000940
131594000,0.0324,0.013523,0.002678,0.000431,0.000705
131595000,0.0324,0.013523,0.002678,0.000431,0.000940
131596000,0.0324,0.013523,0.002678,0.000431,0.000940
131597000,0.0324,0.013523,0.002678,0.000431,0.000705
131598000,0.0324,0.013523,0.002678,0.000431,0.000940
131599000,0.0324,0.013523,0.002678,0.000431,0.000705
131600000,0.0324,0.013523,0.002678,0.000431,0.000940
131601000,0.0324,0.013523,0.002678,0.000431,0.000705
131602000,0.0324,0.013523,0.002678,0.000431,0.000823
131603000,0.0324,0.013523,0.002678,0.000431,0.000940
131604000,0.0324,0.013523,0.002678,0.000431,0.000823
131605000,0.0324,0.013523,0.002678,0.000431,0.000823
131606000,0.0324,0.013523,0.002678,0.000431,0.000823
131607000,0.0324,0.013523,0.002678,0.000431,0.000705
131608000,0.0324,0.013523,0.002678,0.000431,0.000940
131609000,0.0324,0.013523,0.002678,0.000431,0.000940
131610000,0.0324,0.013523,0.002678,0.000431,0.000705
131611000,0.0324,0.013523,0.002678,0.000431,0.000940
131612000,0.0324,0.013523,0.002678,0.000431,0.000705
131613000,0.0324,0.013523,0.002678,0.000431,0.000940
131614000,0.0324,0.013523,0.002678,0.000431,0.000940
131615000,0.0324,0.013523,0.002678,0.000431,0.000705
131616000,0.0324,0.013523,0.002678,0.000431,0.000940
131617000,0.0324,0.013523,0.002678,0.000431,0.000705
131618000,0.0324,0.013523,0.002678,0.000431,0.000940
131619000,0.0324,0.013523,0.002678,0.000431,0.000823
131620000,0.0324,0.013523,0.002678,0.000431,0.000823
131621000,0.0324,0.013523,0.002678,0.000431,0.000823
131622000,0.0324,0.013523,0.002678,0.000431,0.000823
131623000,0.0324,0.013523,0.002678,0.000431,0.000940
131624000,0.0324,0.013523,0.002678,0.000431,0.000705
131625000,0.0324,0.013523,0.002678,0.000431,0.004231
131626000,0.0324,0.013523,0.002678,0.000431,0.734786
131627000,0.0324,0.013523,0.002678,0.000431,0.713514
131628000,0.0324,0.013523,0.002678,0.000431,0.290177
131629000,0.0324,0.013523,0.002678,0.000431,0.163834
131630000,0.0324,0.013523,0.002678,0.000431,0.571422
131631000,0.0324,0.013523,0.002678,0.000431,0.280070
131632000,0.0324,0.013523,0.002678,0.000431,0.363867
131633000,0.0324,0.013523,0.002678,0.000431,0.170886
131634000,0.0324,0.013523,0.002678,0.000431,0.151259
131635000,0.0324,0.013523,0.002678,0.000431,0.212256
131636000,0.0324,0.013523,0.002678,0.000431,0.574478
131637000,0.0324,0.013523,0.002678,0.000431,0.327786
131638000,0.0324,0.013523,0.002678,0.000431,0.275133
131639000,0.0324,0.013523,0.002678,0.000431,0.224831
131640000,0.0324,0.013523,0.002678,0.000431,0.202971
131641000,0.0324,0.013523,0.002678,0.000431,0.171474
131642000,0.0324,0.013523,0.002678,0.000431,0.145617
131643000,0.0324,0.013523,0.002678,0.000431,0.126108
131644000,0.0324,0.013523,0.002678,0.000431,0.096726
131645000,0.0324,0.013523,0.002678,0.000431,0.084033
131646000,0.0324,0.013523,0.002678,0.000431,0.071340
131647000,0.0324,0.013523,0.002678,0.000431,0.053593
131648000,0.0324,0.013523,0.002678,0.000431,0.042898
131649000,0.0324,0.013523,0.002678,0.000431,0.039842
131650000,0.0324,0.013523,0.002678,0.000431,0.037727
131651000,0.0324,0.013523,0.002678,0.000431,0.034436
131652000,0.0324,0.013523,0.002678,0.000431,0.024563
131653000,0.0324,0.013523,0.002678,0.000431,0.017394
131654000,0.0324,0.013523,0.002678,0.000431,0.008697
131655000,0.0324,0.013523,0.002678,0.000431,0.008462
131656000,0.0324,0.013523,0.002678,0.000431,0.013633
131657000,0.0324,0.013523,0.002678,0.000431,0.013986
131658000,0.0324,0.013523,0.002678,0.000431,0.007404
131659000,0.0324,0.013523,0.002678,0.000431,0.003878
131660000,0.0324,0.013523,0.002678,0.000431,0.003408
131661000,0.0324,0.013523,0.002678,0.000431,0.003408
131662000,0.0324,0.013523,0.002678,0.000431,0.008345
131663000,0.0324,0.013523,0.002678,0.000431,0.005406
131664000,0.0324,0.013523,0.002678,0.000431,0.006111
131665000,0.0324,0.013523,0.002678,0.000431,0.000823
131666000,0.0324,0.013523,0.002678,0.000431,0.001410
131667000,0.0324,0.013523,0.002678,0.000431,0.178643
131668000,0.0324,0.013523,0.002678,0.000431,0.863597
131669000,0.0324,0.013523,0.002678,0.000431,0.514891
131670000,0.0324,0.013523,0.002678,0.000431,0.186987
131671000,0.0324,0.013523,0.002678,0.000431,0.399596
131672000,0.0324,0.013523,0.002678,0.000431,0.511600
131673000,0.0324,0.013523,0.002678,0.000431,0.275133
131674000,0.0324,0.013523,0.002678,0.000431,0.211198
131675000,0.0324,0.013523,0.002678,0.000431,0.180523
131676000,0.0324,0.013523,0.002678,0.000431,0.106951
131677000,0.0324,0.013523,0.002678,0.000431,0.573655
131678000,0.0324,0.013523,0.002678,0.000431,0.374915
131679000,0.0324,0.013523,0.002678,0.000431,0.272665
131680000,0.0324,0.013523,0.002678,0.000431,0.232236
131681000,0.0324,0.013523,0.002678,0.000431,0.206615
131682000,0.0324,0.013523,0.002678,0.000431,0.187810
131683000,0.0324,0.013523,0.002678,0.000431,0.141386
131684000,0.0324,0.013523,0.002678,0.000431,0.119056
131685000,0.0324,0.013523,0.002678,0.000431,0.118351
131686000,0.0324,0.013523,0.002678,0.000431,0.089792
131687000,0.0324,0.013523,0.002678,0.000431,0.077921
131688000,0.0324,0.013523,0.002678,0.000431,0.086736
131689000,0.0324,0.013523,0.002678,0.000431,0.048187
131690000,0.0324,0.013523,0.002678,0.000431,0.050067
131691000,0.0324,0.013523,0.002678,0.000431,0.034083
131692000,0.0324,0.013523,0.002678,0.000431,0.035729
131693000,0.0324,0.013523,0.002678,0.000431,0.030675
131694000,0.0324,0.013523,0.002678,0.000431,0.024211
131695000,0.0324,0.013523,0.002678,0.000431,0.035258
131696000,0.0324,0.013523,0.002678,0.000431,0.018099
131697000,0.0324,0.013523,0.002678,0.000431,0.018922
131698000,0.0324,0.013523,0.002678,0.000431,0.011635
131699000,0.0324,0.013523,0.002678,0.000431,0.015631
131700000,0.0324,0.013523,0.002678,0.000431,0.006347
131701000,0.0324,0.013523,0.002678,0.000431,0.006699
131702000,0.0324,0.013523,0.002678,0.000431,0.008932
131703000,0.0324,0.013523,0.002678,0.000431,0.008462
131704000,0.0324,0.013523,0.002678,0.000431,0.005406
131705000,0.0324,0.013523,0.002678,0.000431,0.004819
131706000,0.0324,0.013523,0.002678,0.000431,0.003056
131707000,0.0324,0.013523,0.002678,0.000431,0.004113
131708000,0.0324,0.013523,0.002678,0.000431,0.003761
131709000,0.0324,0.013523,0.002678,0.000431,0.001645
131710000,0.0324,0.013523,0.002678,0.000431,0.001763
131711000,0.0324,0.013523,0.002678,0.000431,0.001763
131712000,0.0324,0.013523,0.002678,0.000431,0.004349
131713000,0.0324,0.013523,0.002678,0.000431,0.000823
131714000,0.0324,0.013523,0.002678,0.000431,0.291235
131715000,0.0324,0.013523,0.002678,0.000431,0.879581
131716000,0.0324,0.013523,0.002678,0.000431,0.425922
131717000,0.0324,0.013523,0.002678,0.000431,0.170181
131718000,0.0324,0.013523,0.002678,0.000431,0.449663
131719000,0.0324,0.013523,0.002678,0.000431,0.347178
131720000,0.0324,0.013523,0.002678,0.000431,0.286416
131721000,0.0324,0.013523,0.002678,0.000431,0.240345
131722000,0.0324,0.013523,0.002678,0.000431,0.173707
131723000,0.0324,0.013523,0.002678,0.000431,0.105775
131724000,0.0324,0.013523,0.002678,0.000431,0.436030
131725000,0.0324,0.013523,0.002678,0.000431,0.488565
131726000,0.0324,0.013523,0.002678,0.000431,0.301577
131727000,0.0324,0.013523,0.002678,0.000431,0.269845
131728000,0.0324,0.013523,0.002678,0.000431,0.242931
131729000,0.0324,0.013523,0.002678,0.000431,0.206144
131730000,0.0324,0.013523,0.002678,0.000431,0.182051
131731000,0.0324,0.013523,0.002678,0.000431,0.130339
131732000,0.0324,0.013523,0.002678,0.000431,0.129046
131733000,0.0324,0.013523,0.002678,0.000431,0.105070
131734000,0.0324,0.013523,0.002678,0.000431,0.087206
131735000,0.0324,0.013523,0.002678,0.000431,0.071927
131736000,0.0324,0.013523,0.002678,0.000431,0.075218
131737000,0.0324,0.013523,0.002678,0.000431,0.058647
131738000,0.0324,0.013523,0.002678,0.000431,0.044073
131739000,0.0324,0.013523,0.002678,0.000431,0.046541
131740000,0.0324,0.013523,0.002678,0.000431,0.049244
131741000,0.0324,0.013523,0.002678,0.000431,0.035258
131742000,0.0324,0.013523,0.002678,0.000431,0.025269
131743000,0.0324,0.013523,0.002678,0.000431,0.023506
131744000,0.0324,0.013523,0.002678,0.000431,0.023153
131745000,0.0324,0.013523,0.002678,0.000431,0.020097
131746000,0.0324,0.013523,0.002678,0.000431,0.018099
131747000,0.0324,0.013523,0.002678,0.000431,0.013751
131748000,0.0324,0.013523,0.002678,0.000431,0.009520
131749000,0.0324,0.013523,0.002678,0.000431,0.021038
131750000,0.0324,0.013523,0.002678,0.000431,0.007874
131751000,0.0324,0.013523,0.002678,0.000431,0.008462
131752000,0.0324,0.013523,0.002678,0.000431,0.004936
131753000,0.0324,0.013523,0.002678,0.000431,0.004819
131754000,0.0324,0.013523,0.002678,0.000431,0.010695
131755000,0.0324,0.013523,0.002678,0.000431,0.007522
131756000,0.0324,0.013523,0.002678,0.000431,0.001645
131757000,0.0324,0.013523,0.002678,0.000431,0.001763
131758000,0.0324,0.013523,0.002678,0.000431,0.001528
131759000,0.0324,0.013523,0.002678,0.000431,0.001880
131760000,0.0324,0.013523,0.002678,0.000431,0.001763
131761000,0.0324,0.013523,0.002678,0.000431,0.001645
131762000,0.0324,0.013523,0.002678,0.000431,0.002938
131763000,0.0324,0.013523,0.002678,0.000431,0.003408
131764000,0.0324,0.013523,0.002678,0.000431,0.000940
131765000,0.0324,0.013523,0.002678,0.000431,0.000705
131766000,0.0324,0.013523,0.002678,0.000431,0.000940
131767000,0.0324,0.013523,0.002678,0.000431,0.000940
131768000,0.0324,0.013523,0.002678,0.000431,0.000940
131769000,0.0324,0.013523,0.002678,0.000431,0.000705
131770000,0.0324,0.013523,0.002678,0.000431,0.000940
131771000,0.0324,0.013523,0.002678,0.000431,0.000940
131772000,0.0324,0.013523,0.002678,0.000431,0.000823
131773000,0.0324,0.013523,0.002678,0.000431,0.000823
131774000,0.0324,0.013523,0.002678,0.000431,0.000940
131775000,0.0324,0.013523,0.002678,0.000431,0.000823
131776000,0.0324,0.013523,0.002678,0.000431,0.000940
131777000,0.0324,0.013523,0.002678,0.000431,0.000823
131778000,0.0324,0.013523,0.002678,0.000431,0.000940
131779000,0.0324,0.013523,0.002678,0.000431,0.000823
131780000,0.0324,0.013523,0.002678,0.000431,0.000823
131781000,0.0324,0.013523,0.002678,0.000431,0.000940
131782000,0.0324,0.013523,0.002678,0.000431,0.000940
131783000,0.0324,0.013523,0.002678,0.000431,0.000823
131784000,0.0324,0.013523,0.002678,0.000431,0.000823
131785000,0.0324,0.013523,0.002678,0.000431,0.000940
131786000,0.0324,0.013523,0.002678,0.000431,0.000940
131787000,0.0324,0.013523,0.002678,0.000431,0.000823
131788000,0.0324,0.013523,0.002678,0.000431,0.000823
131789000,0.0324,0.013523,0.002678,0.000431,0.000940
131790000,0.0324,0.013523,0.002678,0.000431,0.000940
131791000,0.0324,0.013523,0.002678,0.000431,0.000940
131792000,0.0324,0.013523,0.002678,0.000431,0.000940
131793000,0.0324,0.013523,0.002678,0.000431,0.023388
131794000,0.0324,0.013523,0.002678,0.000431,0.944221
131795000,0.0324,0.013523,0.002678,0.000431,0.565663
131796000,0.0324,0.013523,0.002678,0.000431,0.185107
131797000,0.0324,0.013523,0.002678,0.000431,0.201208
131798000,0.0324,0.013523,0.002678,0.000431,0.556966
131799000,0.0324,0.013523,0.002678,0.000431,0.299109
131800000,0.0324,0.013523,0.002678,0.000431,0.301342
131801000,0.0324,0.013523,0.002678,0.000431,0.154902
131802000,0.0324,0.013523,0.002678,0.000431,0.120701
131803000,0.0324,0.013523,0.002678,0.000431,0.376443
131804000,0.0324,0.013523,0.002678,0.000431,0.522765
131805000,0.0324,0.013523,0.002678,0.000431,0.289824
131806000,0.0324,0.013523,0.002678,0.000431,0.267964
131807000,0.0324,0.013523,0.002678,0.000431,0.214842
131808000,0.0324,0.013523,0.002678,0.000431,0.196860
131809000,0.0324,0.013523,0.002678,0.000431,0.187340
131810000,0.0324,0.013523,0.002678,0.000431,0.140211
131811000,0.0324,0.013523,0.002678,0.000431,0.143619
131812000,0.0324,0.013523,0.002678,0.000431,0.113062
131813000,0.0324,0.013523,0.002678,0.000431,0.088264
131814000,0.0324,0.013523,0.002678,0.000431,0.093435
131815000,0.0324,0.013523,0.002678,0.000431,0.081212
131816000,0.0324,0.013523,0.002678,0.000431,0.060997
131817000,0.0324,0.013523,0.002678,0.000431,0.046306
131818000,0.0324,0.013523,0.002678,0.000431,0.053005
131819000,0.0324,0.013523,0.002678,0.000431,0.043956
131820000,0.0324,0.013523,0.002678,0.000431,0.035964
131821000,0.0324,0.013523,0.002678,0.000431,0.028794
131822000,0.0324,0.013523,0.002678,0.000431,0.029147
131823000,0.0324,0.013523,0.002678,0.000431,0.030440
131824000,0.0324,0.013523,0.002678,0.000431,0.030205
131825000,0.0324,0.013523,0.002678,0.000431,0.014338
131826000,0.0324,0.013523,0.002678,0.000431,0.021038
131827000,0.0324,0.013523,0.002678,0.000431,0.016571
131828000,0.0324,0.013523,0.002678,0.000431,0.011518
131829000,0.0324,0.013523,0.002678,0.000431,0.010578
131830000,0.0324,0.013523,0.002678,0.000431,0.009637
131831000,0.0324,0.013523,0.002678,0.000431,0.007404
131832000,0.0324,0.013523,0.002678,0.000431,0.011400
131833000,0.0324,0.013523,0.002678,0.000431,0.008580
131834000,0.0324,0.013523,0.002678,0.000431,0.003526
131835000,0.0324,0.013523,0.002678,0.000431,0.003408
131836000,0.0324,0.013523,0.002678,0.000431,0.003291
131837000,0.0324,0.013523,0.002678,0.000431,0.005759
131838000,0.0324,0.013523,0.002678,0.000431,0.002351
131839000,0.0324,0.013523,0.002678,0.000431,0.002468
131840000,0.0324,0.013523,0.002678,0.000431,0.002703
131841000,0.0324,0.013523,0.002678,0.000431,0.002351
131842000,0.0324,0.013523,0.002678,0.000431,0.002703
131843000,0.0324,0.013523,0.002678,0.000431,0.003408
131844000,0.0324,0.013523,0.002678,0.000431,0.003056
131845000,0.0324,0.013523,0.002678,0.000431,0.004701
131846000,0.0324,0.013523,0.002678,0.000431,0.000940
131847000,0.0324,0.013523,0.002678,0.000431,0.000823
131848000,0.0324,0.013523,0.002678,0.000431,0.000823
131849000,0.0324,0.013523,0.002678,0.000431,0.000705
131850000,0.0324,0.013523,0.002678,0.000431,0.000940
131851000,0.0324,0.013523,0.002678,0.000431,0.000940
131852000,0.0324,0.013523,0.002678,0.000431,0.000705
131853000,0.0324,0.013523,0.002678,0.000431,0.000940
131854000,0.0324,0.013523,0.002678,0.000431,0.000705
131855000,0.0324,0.013523,0.002678,0.000431,0.000940
131856000,0.0324,0.013523,0.002678,0.000431,0.000823
131857000,0.0324,0.013523,0.002678,0.000431,0.000823
131858000,0.0324,0.013523,0.002678,0.000431,0.000705
131859000,0.0324,0.013523,0.002678,0.000431,0.000705
131860000,0.0324,0.013523,0.002678,0.000431,0.000940
131861000,0.0324,0.013523,0.002678,0.000431,0.000823
131862000,0.0324,0.013523,0.002678,0.000431,0.000823
131863000,0.0324,0.013523,0.002678,0.000431,0.000940
131864000,0.0324,0.013523,0.002678,0.000431,0.002821
131865000,0.0324,0.013523,0.002678,0.000431,0.370684
131866000,0.0324,0.013523,0.002678,0.000431,0.840444
131867000,0.0324,0.013523,0.002678,0.000431,0.404767
131868000,0.0324,0.013523,0.002678,0.000431,0.180993
131869000,0.0324,0.013523,0.002678,0.000431,0.451543
131870000,0.0324,0.013523,0.002678,0.000431,0.347061
131871000,0.0324,0.013523,0.002678,0.000431,0.281950
131872000,0.0324,0.013523,0.002678,0.000431,0.241168
131873000,0.0324,0.013523,0.002678,0.000431,0.167948
131874000,0.0324,0.013523,0.002678,0.000431,0.116705
131875000,0.0324,0.013523,0.002678,0.000431,0.420163
131876000,0.0324,0.013523,0.002678,0.000431,0.517242
131877000,0.0324,0.013523,0.002678,0.000431,0.327316
131878000,0.0324,0.013523,0.002678,0.000431,0.285241
131879000,0.0324,0.013523,0.002678,0.000431,0.239993
131880000,0.0324,0.013523,0.002678,0.000431,0.203794
131881000,0.0324,0.013523,0.002678,0.000431,0.174647
131882000,0.0324,0.013523,0.002678,0.000431,0.169711
131883000,0.0324,0.013523,0.002678,0.000431,0.125755
131884000,0.0324,0.013523,0.002678,0.000431,0.111769
131885000,0.0324,0.013523,0.002678,0.000431,0.095550
131886000,0.0324,0.013523,0.002678,0.000431,0.081447
131887000,0.0324,0.013523,0.002678,0.000431,0.087676
131888000,0.0324,0.013523,0.002678,0.000431,0.073925
131889000,0.0324,0.013523,0.002678,0.000431,0.052770
131890000,0.0324,0.013523,0.002678,0.000431,0.045718
131891000,0.0324,0.013523,0.002678,0.000431,0.047011
131892000,0.0324,0.013523,0.002678,0.000431,0.039725
131893000,0.0324,0.013523,0.002678,0.000431,0.034553
131894000,0.0324,0.013523,0.002678,0.000431,0.031380
131895000,0.0324,0.013523,0.002678,0.000431,0.023623
131896000,0.0324,0.013523,0.002678,0.000431,0.019745
131897000,0.0324,0.013523,0.002678,0.000431,0.016689
131898000,0.0324,0.013523,0.002678,0.000431,0.011870
131899000,0.0324,0.013523,0.002678,0.000431,0.015161
131900000,0.0324,0.013523,0.002678,0.000431,0.007169
131901000,0.0324,0.013523,0.002678,0.000431,0.007052
131902000,0.0324,0.013523,0.002678,0.000431,0.007757
131903000,0.0324,0.013523,0.002678,0.000431,0.007757
131904000,0.0324,0.013523,0.002678,0.000431,0.009167
131905000,0.0324,0.013523,0.002678,0.000431,0.008580
131906000,0.0324,0.013523,0.002678,0.000431,0.004936
131907000,0.0324,0.013523,0.002678,0.000431,0.004936
131908000,0.0324,0.013523,0.002678,0.000431,0.004349
131909000,0.0324,0.013523,0.002678,0.000431,0.005054
131910000,0.0324,0.013523,0.002678,0.000431,0.004231
131911000,0.0324,0.013523,0.002678,0.000431,0.004701
131912000,0.0324,0.013523,0.002678,0.000431,0.011165
131913000,0.0324,0.013523,0.002678,0.000431,0.003291
131914000,0.0324,0.013523,0.002678,0.000431,0.002233
131915000,0.0324,0.013523,0.002678,0.000431,0.003056
131916000,0.0324,0.013523,0.002678,0.000431,0.002116
131917000,0.0324,0.013523,0.002678,0.000431,0.005406
131918000,0.0324,0.013523,0.002678,0.000431,0.000940
131919000,0.0324,0.013523,0.002678,0.000431,0.000823
131920000,0.0324,0.013523,0.002678,0.000431,0.067109
131921000,0.0324,0.013523,0.002678,0.000431,0.943634
131922000,0.0324,0.013523,0.002678,0.000431,0.519827
131923000,0.0324,0.013523,0.002678,0.000431,0.224126
131924000,0.0324,0.013523,0.002678,0.000431,0.263968
131925000,0.0324,0.013523,0.002678,0.000431,0.509015
131926000,0.0324,0.013523,0.002678,0.000431,0.308629
131927000,0.0324,0.013523,0.002678,0.000431,0.286181
131928000,0.0324,0.013523,0.002678,0.000431,0.178173
131929000,0.0324,0.013523,0.002678,0.000431,0.102837
131930000,0.0324,0.013523,0.002678,0.000431,0.542040
131931000,0.0324,0.013523,0.002678,0.000431,0.466352
131932000,0.0324,0.013523,0.002678,0.000431,0.334485
131933000,0.0324,0.013523,0.002678,0.000431,0.292998
131934000,0.0324,0.013523,0.002678,0.000431,0.243636
131935000,0.0324,0.013523,0.002678,0.000431,0.217545
131936000,0.0324,0.013523,0.002678,0.000431,0.173001
131937000,0.0324,0.013523,0.002678,0.000431,0.151964
131938000,0.0324,0.013523,0.002678,0.000431,0.122347
131939000,0.0324,0.013523,0.002678,0.000431,0.113180
131940000,0.0324,0.013523,0.002678,0.000431,0.109889
131941000,0.0324,0.013523,0.002678,0.000431,0.091672
131942000,0.0324,0.013523,0.002678,0.000431,0.070047
131943000,0.0324,0.013523,0.002678,0.000431,0.058412
131944000,0.0324,0.013523,0.002678,0.000431,0.053005
131945000,0.0324,0.013523,0.002678,0.000431,0.038667
131946000,0.0324,0.013523,0.002678,0.000431,0.041487
131947000,0.0324,0.013523,0.002678,0.000431,0.029265
131948000,0.0324,0.013523,0.002678,0.000431,0.029852
131949000,0.0324,0.013523,0.002678,0.000431,0.023036
131950000,0.0324,0.013523,0.002678,0.000431,0.020450
131951000,0.0324,0.013523,0.002678,0.000431,0.016807
131952000,0.0324,0.013523,0.002678,0.000431,0.017277
131953000,0.0324,0.013523,0.002678,0.000431,0.016924
131954000,0.0324,0.013523,0.002678,0.000431,0.014926
131955000,0.0324,0.013523,0.002678,0.000431,0.015044
131956000,0.0324,0.013523,0.002678,0.000431,0.014926
131957000,0.0324,0.013523,0.002678,0.000431,0.020332
131958000,0.0324,0.013523,0.002678,0.000431,0.013516
131959000,0.0324,0.013523,0.002678,0.000431,0.013398
131960000,0.0324,0.013523,0.002678,0.000431,0.012223
131961000,0.0324,0.013523,0.002678,0.000431,0.007052
131962000,0.0324,0.013523,0.002678,0.000431,0.006817
131963000,0.0324,0.013523,0.002678,0.000431,0.009402
131964000,0.0324,0.013523,0.002678,0.000431,0.006464
131965000,0.0324,0.013523,0.002678,0.000431,0.005641
131966000,0.0324,0.013523,0.002678,0.000431,0.007404
131967000,0.0324,0.013523,0.002678,0.000431,0.006817
131968000,0.0324,0.013523,0.002678,0.000431,0.005171
131969000,0.0324,0.013523,0.002678,0.000431,0.005054
131970000,0.0324,0.013523,0.002678,0.000431,0.006582
131971000,0.0324,0.013523,0.002678,0.000431,0.004349
131972000,0.0324,0.013523,0.002678,0.000431,0.003996
131973000,0.0324,0.013523,0.002678,0.000431,0.008697
131974000,0.0324,0.013523,0.002678,0.000431,0.003173
131975000,0.0324,0.013523,0.002678,0.000431,0.007404
131976000,0.0324,0.013523,0.002678,0.000431,0.002703
131977000,0.0324,0.013523,0.002678,0.000431,0.002351
131978000,0.0324,0.013523,0.002678,0.000431,0.002586
131979000,0.0324,0.013523,0.002678,0.000431,0.002586
131980000,0.0324,0.013523,0.002678,0.000431,0.002351
131981000,0.0324,0.013523,0.002678,0.000431,0.002586
131982000,0.0324,0.013523,0.002678,0.000431,0.002703
131983000,0.0324,0.013523,0.002678,0.000431,0.002703
131984000,0.0324,0.013523,0.002678,0.000431,0.006229
131985000,0.0324,0.013523,0.002678,0.000431,0.001645
131986000,0.0324,0.013523,0.002678,0.000431,0.001645
131987000,0.0324,0.013523,0.002678,0.000431,0.001763
131988000,0.0324,0.013523,0.002678,0.000431,0.001528
131989000,0.0324,0.013523,0.002678,0.000431,0.001645
131990000,0.0324,0.013523,0.002678,0.000431,0.001645
131991000,0.0324,0.013523,0.002678,0.000431,0.001880
131992000,0.0324,0.013523,0.002678,0.000431,0.001410
131993000,0.0324,0.013523,0.002678,0.000431,0.001645
131994000,0.0324,0.013523,0.002678,0.000431,0.001880
131995000,0.0324,0.013523,0.002678,0.000431,0.001645
131996000,0.0324,0.013523,0.002678,0.000431,0.001410
131997000,0.0324,0.013523,0.002678,0.000431,0.001645
131998000,0.0324,0.013523,0.002678,0.000431,0.012693
131999000,0.0324,0.013523,0.002678,0.000431,0.802247
