Cycle,Area(mm^2),PeakDynamic(W),SubthresholdLeakage(W),GateLeakage(W),RunTimeDynamic(W)
126000000,0.0324,0.013523,0.002678,0.000431,0.445432
126001000,0.0324,0.013523,0.002678,0.000431,0.190396
126002000,0.0324,0.013523,0.002678,0.000431,0.309569
126003000,0.0324,0.013523,0.002678,0.000431,0.482453
126004000,0.0324,0.013523,0.002678,0.000431,0.293233
126005000,0.0324,0.013523,0.002678,0.000431,0.286416
126006000,0.0324,0.013523,0.002678,0.000431,0.164422
126007000,0.0324,0.013523,0.002678,0.000431,0.106363
126008000,0.0324,0.013523,0.002678,0.000431,0.479868
126009000,0.0324,0.013523,0.002678,0.000431,0.470113
126010000,0.0324,0.013523,0.002678,0.000431,0.295466
126011000,0.0324,0.013523,0.002678,0.000431,0.260207
126012000,0.0324,0.013523,0.002678,0.000431,0.221776
126013000,0.0324,0.013523,0.002678,0.000431,0.192041
126014000,0.0324,0.013523,0.002678,0.000431,0.169358
126015000,0.0324,0.013523,0.002678,0.000431,0.156195
126016000,0.0324,0.013523,0.002678,0.000431,0.127988
126017000,0.0324,0.013523,0.002678,0.000431,0.100604
126018000,0.0324,0.013523,0.002678,0.000431,0.086853
126019000,0.0324,0.013523,0.002678,0.000431,0.078979
126020000,0.0324,0.013523,0.002678,0.000431,0.054651
126021000,0.0324,0.013523,0.002678,0.000431,0.050185
126022000,0.0324,0.013523,0.002678,0.000431,0.051360
126023000,0.0324,0.013523,0.002678,0.000431,0.041135
126024000,0.0324,0.013523,0.002678,0.000431,0.031850
126025000,0.0324,0.013523,0.002678,0.000431,0.025269
126026000,0.0324,0.013523,0.002678,0.000431,0.025856
126027000,0.0324,0.013523,0.002678,0.000431,0.027854
126028000,0.0324,0.013523,0.002678,0.000431,0.018334
126029000,0.0324,0.013523,0.002678,0.000431,0.012340
126030000,0.0324,0.013523,0.002678,0.000431,0.014338
126031000,0.0324,0.013523,0.002678,0.000431,0.022800
126032000,0.0324,0.013523,0.002678,0.000431,0.010107
126033000,0.0324,0.013523,0.002678,0.000431,0.009167
126034000,0.0324,0.013523,0.002678,0.000431,0.007757
126035000,0.0324,0.013523,0.002678,0.000431,0.008697
126036000,0.0324,0.013523,0.002678,0.000431,0.004113
126037000,0.0324,0.013523,0.002678,0.000431,0.004113
126038000,0.0324,0.013523,0.002678,0.000431,0.007522
126039000,0.0324,0.013523,0.002678,0.000431,0.003056
126040000,0.0324,0.013523,0.002678,0.000431,0.003173
126041000,0.0324,0.013523,0.002678,0.000431,0.002821
126042000,0.0324,0.013523,0.002678,0.000431,0.003761
126043000,0.0324,0.013523,0.002678,0.000431,0.002938
126044000,0.0324,0.013523,0.002678,0.000431,0.003173
126045000,0.0324,0.013523,0.002678,0.000431,0.003526
126046000,0.0324,0.013523,0.002678,0.000431,0.003291
126047000,0.0324,0.013523,0.002678,0.000431,0.003291
126048000,0.0324,0.013523,0.002678,0.000431,0.002938
126049000,0.0324,0.013523,0.002678,0.000431,0.003056
126050000,0.0324,0.013523,0.002678,0.000431,0.003408
126051000,0.0324,0.013523,0.002678,0.000431,0.003526
126052000,0.0324,0.013523,0.002678,0.000431,0.002821
126053000,0.0324,0.013523,0.002678,0.000431,0.003173
126054000,0.0324,0.013523,0.002678,0.000431,0.003526
126055000,0.0324,0.013523,0.002678,0.000431,0.003173
126056000,0.0324,0.013523,0.002678,0.000431,0.003291
126057000,0.0324,0.013523,0.002678,0.000431,0.003408
126058000,0.0324,0.013523,0.002678,0.000431,0.003173
126059000,0.0324,0.013523,0.002678,0.000431,0.003526
126060000,0.0324,0.013523,0.002678,0.000431,0.006229
126061000,0.0324,0.013523,0.002678,0.000431,0.001528
126062000,0.0324,0.013523,0.002678,0.000431,0.001880
126063000,0.0324,0.013523,0.002678,0.000431,0.004113
126064000,0.0324,0.013523,0.002678,0.000431,0.000940
126065000,0.0324,0.013523,0.002678,0.000431,0.000823
126066000,0.0324,0.013523,0.002678,0.000431,0.000823
126067000,0.0324,0.013523,0.002678,0.000431,0.000940
126068000,0.0324,0.013523,0.002678,0.000431,0.000705
126069000,0.0324,0.013523,0.002678,0.000431,0.001880
126070000,0.0324,0.013523,0.002678,0.000431,0.486449
126071000,0.0324,0.013523,0.002678,0.000431,0.772160
126072000,0.0324,0.013523,0.002678,0.000431,0.374915
126073000,0.0324,0.013523,0.002678,0.000431,0.174059
126074000,0.0324,0.013523,0.002678,0.000431,0.579179
126075000,0.0324,0.013523,0.002678,0.000431,0.271255
126076000,0.0324,0.013523,0.002678,0.000431,0.315211
126077000,0.0324,0.013523,0.002678,0.000431,0.194744
126078000,0.0324,0.013523,0.002678,0.000431,0.193686
126079000,0.0324,0.013523,0.002678,0.000431,0.093552
126080000,0.0324,0.013523,0.002678,0.000431,0.578004
126081000,0.0324,0.013523,0.002678,0.000431,0.363397
126082000,0.0324,0.013523,0.002678,0.000431,0.257974
126083000,0.0324,0.013523,0.002678,0.000431,0.235997
126084000,0.0324,0.013523,0.002678,0.000431,0.185577
126085000,0.0324,0.013523,0.002678,0.000431,0.167713
126086000,0.0324,0.013523,0.002678,0.000431,0.131749
126087000,0.0324,0.013523,0.002678,0.000431,0.131749
126088000,0.0324,0.013523,0.002678,0.000431,0.102720
126089000,0.0324,0.013523,0.002678,0.000431,0.090144
126090000,0.0324,0.013523,0.002678,0.000431,0.080154
126091000,0.0324,0.013523,0.002678,0.000431,0.057236
126092000,0.0324,0.013523,0.002678,0.000431,0.040430
126093000,0.0324,0.013523,0.002678,0.000431,0.039254
126094000,0.0324,0.013523,0.002678,0.000431,0.044661
126095000,0.0324,0.013523,0.002678,0.000431,0.035611
126096000,0.0324,0.013523,0.002678,0.000431,0.035846
126097000,0.0324,0.013523,0.002678,0.000431,0.013398
126098000,0.0324,0.013523,0.002678,0.000431,0.012693
126099000,0.0324,0.013523,0.002678,0.000431,0.012340
126100000,0.0324,0.013523,0.002678,0.000431,0.016219
126101000,0.0324,0.013523,0.002678,0.000431,0.018334
126102000,0.0324,0.013523,0.002678,0.000431,0.019745
126103000,0.0324,0.013523,0.002678,0.000431,0.007287
126104000,0.0324,0.013523,0.002678,0.000431,0.004113
126105000,0.0324,0.013523,0.002678,0.000431,0.007757
126106000,0.0324,0.013523,0.002678,0.000431,0.003408
126107000,0.0324,0.013523,0.002678,0.000431,0.006229
126108000,0.0324,0.013523,0.002678,0.000431,0.002821
126109000,0.0324,0.013523,0.002678,0.000431,0.002116
126110000,0.0324,0.013523,0.002678,0.000431,0.002821
126111000,0.0324,0.013523,0.002678,0.000431,0.002468
126112000,0.0324,0.013523,0.002678,0.000431,0.002703
126113000,0.0324,0.013523,0.002678,0.000431,0.002116
126114000,0.0324,0.013523,0.002678,0.000431,0.002821
126115000,0.0324,0.013523,0.002678,0.000431,0.002586
126116000,0.0324,0.013523,0.002678,0.000431,0.005524
126117000,0.0324,0.013523,0.002678,0.000431,0.004584
126118000,0.0324,0.013523,0.002678,0.000431,0.000940
126119000,0.0324,0.013523,0.002678,0.000431,0.000823
126120000,0.0324,0.013523,0.002678,0.000431,0.072162
126121000,0.0324,0.013523,0.002678,0.000431,0.877818
126122000,0.0324,0.013523,0.002678,0.000431,0.543568
126123000,0.0324,0.013523,0.002678,0.000431,0.190748
126124000,0.0324,0.013523,0.002678,0.000431,0.242461
126125000,0.0324,0.013523,0.002678,0.000431,0.537809
126126000,0.0324,0.013523,0.002678,0.000431,0.257739
126127000,0.0324,0.013523,0.002678,0.000431,0.330724
126128000,0.0324,0.013523,0.002678,0.000431,0.169476
126129000,0.0324,0.013523,0.002678,0.000431,0.141504
126130000,0.0324,0.013523,0.002678,0.000431,0.243871
126131000,0.0324,0.013523,0.002678,0.000431,0.562137
126132000,0.0324,0.013523,0.002678,0.000431,0.287239
126133000,0.0324,0.013523,0.002678,0.000431,0.253156
126134000,0.0324,0.013523,0.002678,0.000431,0.208965
126135000,0.0324,0.013523,0.002678,0.000431,0.196625
126136000,0.0324,0.013523,0.002678,0.000431,0.169006
126137000,0.0324,0.013523,0.002678,0.000431,0.122229
126138000,0.0324,0.013523,0.002678,0.000431,0.099311
126139000,0.0324,0.013523,0.002678,0.000431,0.084503
126140000,0.0324,0.013523,0.002678,0.000431,0.069224
126141000,0.0324,0.013523,0.002678,0.000431,0.049127
126142000,0.0324,0.013523,0.002678,0.000431,0.038314
126143000,0.0324,0.013523,0.002678,0.000431,0.035964
126144000,0.0324,0.013523,0.002678,0.000431,0.034083
126145000,0.0324,0.013523,0.002678,0.000431,0.029265
126146000,0.0324,0.013523,0.002678,0.000431,0.022213
126147000,0.0324,0.013523,0.002678,0.000431,0.020097
126148000,0.0324,0.013523,0.002678,0.000431,0.026914
126149000,0.0324,0.013523,0.002678,0.000431,0.023976
126150000,0.0324,0.013523,0.002678,0.000431,0.015279
126151000,0.0324,0.013523,0.002678,0.000431,0.017747
126152000,0.0324,0.013523,0.002678,0.000431,0.009050
126153000,0.0324,0.013523,0.002678,0.000431,0.012223
126154000,0.0324,0.013523,0.002678,0.000431,0.008580
126155000,0.0324,0.013523,0.002678,0.000431,0.007874
126156000,0.0324,0.013523,0.002678,0.000431,0.011518
126157000,0.0324,0.013523,0.002678,0.000431,0.011400
126158000,0.0324,0.013523,0.002678,0.000431,0.016336
126159000,0.0324,0.013523,0.002678,0.000431,0.003291
126160000,0.0324,0.013523,0.002678,0.000431,0.003408
126161000,0.0324,0.013523,0.002678,0.000431,0.003526
126162000,0.0324,0.013523,0.002678,0.000431,0.003173
126163000,0.0324,0.013523,0.002678,0.000431,0.003408
126164000,0.0324,0.013523,0.002678,0.000431,0.003173
126165000,0.0324,0.013523,0.002678,0.000431,0.003173
126166000,0.0324,0.013523,0.002678,0.000431,0.003408
126167000,0.0324,0.013523,0.002678,0.000431,0.003643
126168000,0.0324,0.013523,0.002678,0.000431,0.002938
126169000,0.0324,0.013523,0.002678,0.000431,0.003643
126170000,0.0324,0.013523,0.002678,0.000431,0.003173
126171000,0.0324,0.013523,0.002678,0.000431,0.003408
126172000,0.0324,0.013523,0.002678,0.000431,0.006347
126173000,0.0324,0.013523,0.002678,0.000431,0.002233
126174000,0.0324,0.013523,0.002678,0.000431,0.002468
126175000,0.0324,0.013523,0.002678,0.000431,0.002116
126176000,0.0324,0.013523,0.002678,0.000431,0.002586
126177000,0.0324,0.013523,0.002678,0.000431,0.002233
126178000,0.0324,0.013523,0.002678,0.000431,0.002351
126179000,0.0324,0.013523,0.002678,0.000431,0.002468
126180000,0.0324,0.013523,0.002678,0.000431,0.002116
126181000,0.0324,0.013523,0.002678,0.000431,0.002468
126182000,0.0324,0.013523,0.002678,0.000431,0.002233
126183000,0.0324,0.013523,0.002678,0.000431,0.002233
126184000,0.0324,0.013523,0.002678,0.000431,0.002351
126185000,0.0324,0.013523,0.002678,0.000431,0.002233
126186000,0.0324,0.013523,0.002678,0.000431,0.002116
126187000,0.0324,0.013523,0.002678,0.000431,0.001880
126188000,0.0324,0.013523,0.002678,0.000431,0.005171
126189000,0.0324,0.013523,0.002678,0.000431,0.000823
126190000,0.0324,0.013523,0.002678,0.000431,0.000940
126191000,0.0324,0.013523,0.002678,0.000431,0.000705
126192000,0.0324,0.013523,0.002678,0.000431,0.000940
126193000,0.0324,0.013523,0.002678,0.000431,0.000823
126194000,0.0324,0.013523,0.002678,0.000431,0.000823
126195000,0.0324,0.013523,0.002678,0.000431,0.000823
126196000,0.0324,0.013523,0.002678,0.000431,0.000823
126197000,0.0324,0.013523,0.002678,0.000431,0.000940
126198000,0.0324,0.013523,0.002678,0.000431,0.000705
126199000,0.0324,0.013523,0.002678,0.000431,0.000940
126200000,0.0324,0.013523,0.002678,0.000431,0.000823
126201000,0.0324,0.013523,0.002678,0.000431,0.000823
126202000,0.0324,0.013523,0.002678,0.000431,0.000823
126203000,0.0324,0.013523,0.002678,0.000431,0.000823
126204000,0.0324,0.013523,0.002678,0.000431,0.000823
126205000,0.0324,0.013523,0.002678,0.000431,0.000823
126206000,0.0324,0.013523,0.002678,0.000431,0.000823
126207000,0.0324,0.013523,0.002678,0.000431,0.000940
126208000,0.0324,0.013523,0.002678,0.000431,0.000823
126209000,0.0324,0.013523,0.002678,0.000431,0.000823
126210000,0.0324,0.013523,0.002678,0.000431,0.000823
126211000,0.0324,0.013523,0.002678,0.000431,0.000705
126212000,0.0324,0.013523,0.002678,0.000431,0.000940
126213000,0.0324,0.013523,0.002678,0.000431,0.000940
126214000,0.0324,0.013523,0.002678,0.000431,0.000705
126215000,0.0324,0.013523,0.002678,0.000431,0.000940
126216000,0.0324,0.013523,0.002678,0.000431,0.000705
126217000,0.0324,0.013523,0.002678,0.000431,0.000940
126218000,0.0324,0.013523,0.002678,0.000431,0.000823
126219000,0.0324,0.013523,0.002678,0.000431,0.000823
126220000,0.0324,0.013523,0.002678,0.000431,0.000940
126221000,0.0324,0.013523,0.002678,0.000431,0.000705
126222000,0.0324,0.013523,0.002678,0.000431,0.000940
126223000,0.0324,0.013523,0.002678,0.000431,0.000823
126224000,0.0324,0.013523,0.002678,0.000431,0.000823
126225000,0.0324,0.013523,0.002678,0.000431,0.000823
126226000,0.0324,0.013523,0.002678,0.000431,0.000823
126227000,0.0324,0.013523,0.002678,0.000431,0.000940
126228000,0.0324,0.013523,0.002678,0.000431,0.000705
126229000,0.0324,0.013523,0.002678,0.000431,0.000940
126230000,0.0324,0.013523,0.002678,0.000431,0.000705
126231000,0.0324,0.013523,0.002678,0.000431,0.000823
126232000,0.0324,0.013523,0.002678,0.000431,0.000823
126233000,0.0324,0.013523,0.002678,0.000431,0.000823
126234000,0.0324,0.013523,0.002678,0.000431,0.000823
126235000,0.0324,0.013523,0.002678,0.000431,0.000823
126236000,0.0324,0.013523,0.002678,0.000431,0.000823
126237000,0.0324,0.013523,0.002678,0.000431,0.000823
126238000,0.0324,0.013523,0.002678,0.000431,0.000823
126239000,0.0324,0.013523,0.002678,0.000431,0.000940
126240000,0.0324,0.013523,0.002678,0.000431,0.000823
126241000,0.0324,0.013523,0.002678,0.000431,0.000823
126242000,0.0324,0.013523,0.002678,0.000431,0.000705
126243000,0.0324,0.013523,0.002678,0.000431,0.000940
126244000,0.0324,0.013523,0.002678,0.000431,0.000823
126245000,0.0324,0.013523,0.002678,0.000431,0.089909
126246000,0.0324,0.013523,0.002678,0.000431,0.890394
126247000,0.0324,0.013523,0.002678,0.000431,0.546389
126248000,0.0324,0.013523,0.002678,0.000431,0.164187
126249000,0.0324,0.013523,0.002678,0.000431,0.196977
126250000,0.0324,0.013523,0.002678,0.000431,0.593400
126251000,0.0324,0.013523,0.002678,0.000431,0.276074
126252000,0.0324,0.013523,0.002678,0.000431,0.336248
126253000,0.0324,0.013523,0.002678,0.000431,0.153962
126254000,0.0324,0.013523,0.002678,0.000431,0.129986
126255000,0.0324,0.013523,0.002678,0.000431,0.274781
126256000,0.0324,0.013523,0.002678,0.000431,0.574360
126257000,0.0324,0.013523,0.002678,0.000431,0.272195
126258000,0.0324,0.013523,0.002678,0.000431,0.266907
126259000,0.0324,0.013523,0.002678,0.000431,0.225654
126260000,0.0324,0.013523,0.002678,0.000431,0.182639
126261000,0.0324,0.013523,0.002678,0.000431,0.180523
126262000,0.0324,0.013523,0.002678,0.000431,0.139153
126263000,0.0324,0.013523,0.002678,0.000431,0.114590
126264000,0.0324,0.013523,0.002678,0.000431,0.099194
126265000,0.0324,0.013523,0.002678,0.000431,0.079096
126266000,0.0324,0.013523,0.002678,0.000431,0.059939
126267000,0.0324,0.013523,0.002678,0.000431,0.057941
126268000,0.0324,0.013523,0.002678,0.000431,0.056884
126269000,0.0324,0.013523,0.002678,0.000431,0.043250
126270000,0.0324,0.013523,0.002678,0.000431,0.038314
126271000,0.0324,0.013523,0.002678,0.000431,0.036669
126272000,0.0324,0.013523,0.002678,0.000431,0.025856
126273000,0.0324,0.013523,0.002678,0.000431,0.025621
126274000,0.0324,0.013523,0.002678,0.000431,0.018687
126275000,0.0324,0.013523,0.002678,0.000431,0.020332
126276000,0.0324,0.013523,0.002678,0.000431,0.018334
126277000,0.0324,0.013523,0.002678,0.000431,0.011988
126278000,0.0324,0.013523,0.002678,0.000431,0.013398
126279000,0.0324,0.013523,0.002678,0.000431,0.009990
126280000,0.0324,0.013523,0.002678,0.000431,0.008345
126281000,0.0324,0.013523,0.002678,0.000431,0.009520
126282000,0.0324,0.013523,0.002678,0.000431,0.004466
126283000,0.0324,0.013523,0.002678,0.000431,0.005406
126284000,0.0324,0.013523,0.002678,0.000431,0.004819
126285000,0.0324,0.013523,0.002678,0.000431,0.005054
126286000,0.0324,0.013523,0.002678,0.000431,0.007874
126287000,0.0324,0.013523,0.002678,0.000431,0.005524
126288000,0.0324,0.013523,0.002678,0.000431,0.003761
126289000,0.0324,0.013523,0.002678,0.000431,0.002821
126290000,0.0324,0.013523,0.002678,0.000431,0.003643
126291000,0.0324,0.013523,0.002678,0.000431,0.004819
126292000,0.0324,0.013523,0.002678,0.000431,0.004113
126293000,0.0324,0.013523,0.002678,0.000431,0.002468
126294000,0.0324,0.013523,0.002678,0.000431,0.002351
126295000,0.0324,0.013523,0.002678,0.000431,0.002703
126296000,0.0324,0.013523,0.002678,0.000431,0.002351
126297000,0.0324,0.013523,0.002678,0.000431,0.002468
126298000,0.0324,0.013523,0.002678,0.000431,0.002468
126299000,0.0324,0.013523,0.002678,0.000431,0.002233
126300000,0.0324,0.013523,0.002678,0.000431,0.002586
126301000,0.0324,0.013523,0.002678,0.000431,0.002468
126302000,0.0324,0.013523,0.002678,0.000431,0.002233
126303000,0.0324,0.013523,0.002678,0.000431,0.002468
126304000,0.0324,0.013523,0.002678,0.000431,0.002468
126305000,0.0324,0.013523,0.002678,0.000431,0.002233
126306000,0.0324,0.013523,0.002678,0.000431,0.002821
126307000,0.0324,0.013523,0.002678,0.000431,0.002233
126308000,0.0324,0.013523,0.002678,0.000431,0.002468
126309000,0.0324,0.013523,0.002678,0.000431,0.002116
126310000,0.0324,0.013523,0.002678,0.000431,0.002586
126311000,0.0324,0.013523,0.002678,0.000431,0.002821
126312000,0.0324,0.013523,0.002678,0.000431,0.001880
126313000,0.0324,0.013523,0.002678,0.000431,0.002821
126314000,0.0324,0.013523,0.002678,0.000431,0.002116
126315000,0.0324,0.013523,0.002678,0.000431,0.002586
126316000,0.0324,0.013523,0.002678,0.000431,0.002468
126317000,0.0324,0.013523,0.002678,0.000431,0.002233
126318000,0.0324,0.013523,0.002678,0.000431,0.002821
126319000,0.0324,0.013523,0.002678,0.000431,0.002116
126320000,0.0324,0.013523,0.002678,0.000431,0.002586
126321000,0.0324,0.013523,0.002678,0.000431,0.002351
126322000,0.0324,0.013523,0.002678,0.000431,0.002351
126323000,0.0324,0.013523,0.002678,0.000431,0.002468
126324000,0.0324,0.013523,0.002678,0.000431,0.002468
126325000,0.0324,0.013523,0.002678,0.000431,0.002233
126326000,0.0324,0.013523,0.002678,0.000431,0.002468
126327000,0.0324,0.013523,0.002678,0.000431,0.002586
126328000,0.0324,0.013523,0.002678,0.000431,0.002116
126329000,0.0324,0.013523,0.002678,0.000431,0.002821
126330000,0.0324,0.013523,0.002678,0.000431,0.002233
126331000,0.0324,0.013523,0.002678,0.000431,0.002468
126332000,0.0324,0.013523,0.002678,0.000431,0.001998
126333000,0.0324,0.013523,0.002678,0.000431,0.002703
126334000,0.0324,0.013523,0.002678,0.000431,0.002821
126335000,0.0324,0.013523,0.002678,0.000431,0.001880
126336000,0.0324,0.013523,0.002678,0.000431,0.024093
126337000,0.0324,0.013523,0.002678,0.000431,0.876173
126338000,0.0324,0.013523,0.002678,0.000431,0.588111
126339000,0.0324,0.013523,0.002678,0.000431,0.176527
126340000,0.0324,0.013523,0.002678,0.000431,0.177703
126341000,0.0324,0.013523,0.002678,0.000431,0.623134
126342000,0.0324,0.013523,0.002678,0.000431,0.238347
126343000,0.0324,0.013523,0.002678,0.000431,0.346120
126344000,0.0324,0.013523,0.002678,0.000431,0.163012
126345000,0.0324,0.013523,0.002678,0.000431,0.165597
126346000,0.0324,0.013523,0.002678,0.000431,0.156900
126347000,0.0324,0.013523,0.002678,0.000431,0.558729
126348000,0.0324,0.013523,0.002678,0.000431,0.304516
126349000,0.0324,0.013523,0.002678,0.000431,0.235409
126350000,0.0324,0.013523,0.002678,0.000431,0.228122
126351000,0.0324,0.013523,0.002678,0.000431,0.186165
126352000,0.0324,0.013523,0.002678,0.000431,0.152552
126353000,0.0324,0.013523,0.002678,0.000431,0.122934
126354000,0.0324,0.013523,0.002678,0.000431,0.111652
126355000,0.0324,0.013523,0.002678,0.000431,0.087088
126356000,0.0324,0.013523,0.002678,0.000431,0.092377
126357000,0.0324,0.013523,0.002678,0.000431,0.067109
126358000,0.0324,0.013523,0.002678,0.000431,0.063700
126359000,0.0324,0.013523,0.002678,0.000431,0.065111
126360000,0.0324,0.013523,0.002678,0.000431,0.038432
126361000,0.0324,0.013523,0.002678,0.000431,0.040195
126362000,0.0324,0.013523,0.002678,0.000431,0.035258
126363000,0.0324,0.013523,0.002678,0.000431,0.028794
126364000,0.0324,0.013523,0.002678,0.000431,0.024563
126365000,0.0324,0.013523,0.002678,0.000431,0.015161
126366000,0.0324,0.013523,0.002678,0.000431,0.017747
126367000,0.0324,0.013523,0.002678,0.000431,0.010813
126368000,0.0324,0.013523,0.002678,0.000431,0.017629
126369000,0.0324,0.013523,0.002678,0.000431,0.003761
126370000,0.0324,0.013523,0.002678,0.000431,0.003526
126371000,0.0324,0.013523,0.002678,0.000431,0.003291
126372000,0.0324,0.013523,0.002678,0.000431,0.003408
126373000,0.0324,0.013523,0.002678,0.000431,0.003291
126374000,0.0324,0.013523,0.002678,0.000431,0.003761
126375000,0.0324,0.013523,0.002678,0.000431,0.006817
126376000,0.0324,0.013523,0.002678,0.000431,0.003878
126377000,0.0324,0.013523,0.002678,0.000431,0.001763
126378000,0.0324,0.013523,0.002678,0.000431,0.003056
126379000,0.0324,0.013523,0.002678,0.000431,0.002351
126380000,0.0324,0.013523,0.002678,0.000431,0.000823
126381000,0.0324,0.013523,0.002678,0.000431,0.000705
126382000,0.0324,0.013523,0.002678,0.000431,0.000940
126383000,0.0324,0.013523,0.002678,0.000431,0.000940
126384000,0.0324,0.013523,0.002678,0.000431,0.000705
126385000,0.0324,0.013523,0.002678,0.000431,0.000940
126386000,0.0324,0.013523,0.002678,0.000431,0.000705
126387000,0.0324,0.013523,0.002678,0.000431,0.000940
126388000,0.0324,0.013523,0.002678,0.000431,0.002703
126389000,0.0324,0.013523,0.002678,0.000431,0.326493
126390000,0.0324,0.013523,0.002678,0.000431,0.794255
126391000,0.0324,0.013523,0.002678,0.000431,0.414757
126392000,0.0324,0.013523,0.002678,0.000431,0.146323
126393000,0.0324,0.013523,0.002678,0.000431,0.284653
126394000,0.0324,0.013523,0.002678,0.000431,0.513833
126395000,0.0324,0.013523,0.002678,0.000431,0.280657
126396000,0.0324,0.013523,0.002678,0.000431,0.294056
126397000,0.0324,0.013523,0.002678,0.000431,0.156783
126398000,0.0324,0.013523,0.002678,0.000431,0.147850
126399000,0.0324,0.013523,0.002678,0.000431,0.227770
126400000,0.0324,0.013523,0.002678,0.000431,0.555086
126401000,0.0324,0.013523,0.002678,0.000431,0.322967
126402000,0.0324,0.013523,0.002678,0.000431,0.265144
126403000,0.0324,0.013523,0.002678,0.000431,0.256446
126404000,0.0324,0.013523,0.002678,0.000431,0.226007
126405000,0.0324,0.013523,0.002678,0.000431,0.182639
126406000,0.0324,0.013523,0.002678,0.000431,0.157958
126407000,0.0324,0.013523,0.002678,0.000431,0.134217
126408000,0.0324,0.013523,0.002678,0.000431,0.098254
126409000,0.0324,0.013523,0.002678,0.000431,0.095668
126410000,0.0324,0.013523,0.002678,0.000431,0.087206
126411000,0.0324,0.013523,0.002678,0.000431,0.082622
126412000,0.0324,0.013523,0.002678,0.000431,0.079096
126413000,0.0324,0.013523,0.002678,0.000431,0.056884
126414000,0.0324,0.013523,0.002678,0.000431,0.044661
126415000,0.0324,0.013523,0.002678,0.000431,0.037727
126416000,0.0324,0.013523,0.002678,0.000431,0.029265
126417000,0.0324,0.013523,0.002678,0.000431,0.030792
126418000,0.0324,0.013523,0.002678,0.000431,0.026444
126419000,0.0324,0.013523,0.002678,0.000431,0.017159
126420000,0.0324,0.013523,0.002678,0.000431,0.021978
126421000,0.0324,0.013523,0.002678,0.000431,0.023623
126422000,0.0324,0.013523,0.002678,0.000431,0.014103
126423000,0.0324,0.013523,0.002678,0.000431,0.018099
126424000,0.0324,0.013523,0.002678,0.000431,0.007169
126425000,0.0324,0.013523,0.002678,0.000431,0.003996
126426000,0.0324,0.013523,0.002678,0.000431,0.007052
126427000,0.0324,0.013523,0.002678,0.000431,0.004231
126428000,0.0324,0.013523,0.002678,0.000431,0.002586
126429000,0.0324,0.013523,0.002678,0.000431,0.002468
126430000,0.0324,0.013523,0.002678,0.000431,0.002468
126431000,0.0324,0.013523,0.002678,0.000431,0.003643
126432000,0.0324,0.013523,0.002678,0.000431,0.003291
126433000,0.0324,0.013523,0.002678,0.000431,0.005171
126434000,0.0324,0.013523,0.002678,0.000431,0.000823
126435000,0.0324,0.013523,0.002678,0.000431,0.000823
126436000,0.0324,0.013523,0.002678,0.000431,0.000940
126437000,0.0324,0.013523,0.002678,0.000431,0.000705
126438000,0.0324,0.013523,0.002678,0.000431,0.071810
126439000,0.0324,0.013523,0.002678,0.000431,0.885340
126440000,0.0324,0.013523,0.002678,0.000431,0.545683
126441000,0.0324,0.013523,0.002678,0.000431,0.193451
126442000,0.0324,0.013523,0.002678,0.000431,0.186752
126443000,0.0324,0.013523,0.002678,0.000431,0.616083
126444000,0.0324,0.013523,0.002678,0.000431,0.290647
126445000,0.0324,0.013523,0.002678,0.000431,0.318619
126446000,0.0324,0.013523,0.002678,0.000431,0.155137
126447000,0.0324,0.013523,0.002678,0.000431,0.098371
126448000,0.0324,0.013523,0.002678,0.000431,0.443434
126449000,0.0324,0.013523,0.002678,0.000431,0.391134
126450000,0.0324,0.013523,0.002678,0.000431,0.246809
126451000,0.0324,0.013523,0.002678,0.000431,0.213196
126452000,0.0324,0.013523,0.002678,0.000431,0.188750
126453000,0.0324,0.013523,0.002678,0.000431,0.166067
126454000,0.0324,0.013523,0.002678,0.000431,0.138331
126455000,0.0324,0.013523,0.002678,0.000431,0.113767
126456000,0.0324,0.013523,0.002678,0.000431,0.110947
126457000,0.0324,0.013523,0.002678,0.000431,0.093905
126458000,0.0324,0.013523,0.002678,0.000431,0.078039
126459000,0.0324,0.013523,0.002678,0.000431,0.070987
126460000,0.0324,0.013523,0.002678,0.000431,0.068401
126461000,0.0324,0.013523,0.002678,0.000431,0.058412
126462000,0.0324,0.013523,0.002678,0.000431,0.037962
126463000,0.0324,0.013523,0.002678,0.000431,0.030792
126464000,0.0324,0.013523,0.002678,0.000431,0.031498
126465000,0.0324,0.013523,0.002678,0.000431,0.023741
126466000,0.0324,0.013523,0.002678,0.000431,0.026796
126467000,0.0324,0.013523,0.002678,0.000431,0.017982
126468000,0.0324,0.013523,0.002678,0.000431,0.015044
126469000,0.0324,0.013523,0.002678,0.000431,0.010460
126470000,0.0324,0.013523,0.002678,0.000431,0.008462
126471000,0.0324,0.013523,0.002678,0.000431,0.008109
126472000,0.0324,0.013523,0.002678,0.000431,0.008932
126473000,0.0324,0.013523,0.002678,0.000431,0.016336
126474000,0.0324,0.013523,0.002678,0.000431,0.005289
126475000,0.0324,0.013523,0.002678,0.000431,0.006229
126476000,0.0324,0.013523,0.002678,0.000431,0.005876
126477000,0.0324,0.013523,0.002678,0.000431,0.003643
126478000,0.0324,0.013523,0.002678,0.000431,0.003643
126479000,0.0324,0.013523,0.002678,0.000431,0.005289
126480000,0.0324,0.013523,0.002678,0.000431,0.001998
126481000,0.0324,0.013523,0.002678,0.000431,0.000823
126482000,0.0324,0.013523,0.002678,0.000431,0.000823
126483000,0.0324,0.013523,0.002678,0.000431,0.075336
126484000,0.0324,0.013523,0.002678,0.000431,0.797664
126485000,0.0324,0.013523,0.002678,0.000431,0.556496
126486000,0.0324,0.013523,0.002678,0.000431,0.143972
126487000,0.0324,0.013523,0.002678,0.000431,0.152199
126488000,0.0324,0.013523,0.002678,0.000431,0.584820
126489000,0.0324,0.013523,0.002678,0.000431,0.237760
126490000,0.0324,0.013523,0.002678,0.000431,0.378088
126491000,0.0324,0.013523,0.002678,0.000431,0.163599
126492000,0.0324,0.013523,0.002678,0.000431,0.173824
126493000,0.0324,0.013523,0.002678,0.000431,0.099899
126494000,0.0324,0.013523,0.002678,0.000431,0.566603
126495000,0.0324,0.013523,0.002678,0.000431,0.370801
126496000,0.0324,0.013523,0.002678,0.000431,0.269022
126497000,0.0324,0.013523,0.002678,0.000431,0.242813
126498000,0.0324,0.013523,0.002678,0.000431,0.224479
126499000,0.0324,0.013523,0.002678,0.000431,0.197212
126500000,0.0324,0.013523,0.002678,0.000431,0.166420
126501000,0.0324,0.013523,0.002678,0.000431,0.138331
126502000,0.0324,0.013523,0.002678,0.000431,0.131749
126503000,0.0324,0.013523,0.002678,0.000431,0.102955
126504000,0.0324,0.013523,0.002678,0.000431,0.071927
126505000,0.0324,0.013523,0.002678,0.000431,0.076276
126506000,0.0324,0.013523,0.002678,0.000431,0.067931
126507000,0.0324,0.013523,0.002678,0.000431,0.048069
126508000,0.0324,0.013523,0.002678,0.000431,0.044073
126509000,0.0324,0.013523,0.002678,0.000431,0.036786
126510000,0.0324,0.013523,0.002678,0.000431,0.032555
126511000,0.0324,0.013523,0.002678,0.000431,0.043838
126512000,0.0324,0.013523,0.002678,0.000431,0.022918
126513000,0.0324,0.013523,0.002678,0.000431,0.019275
126514000,0.0324,0.013523,0.002678,0.000431,0.019862
126515000,0.0324,0.013523,0.002678,0.000431,0.022800
126516000,0.0324,0.013523,0.002678,0.000431,0.008345
126517000,0.0324,0.013523,0.002678,0.000431,0.008815
126518000,0.0324,0.013523,0.002678,0.000431,0.006817
126519000,0.0324,0.013523,0.002678,0.000431,0.001528
126520000,0.0324,0.013523,0.002678,0.000431,0.001410
126521000,0.0324,0.013523,0.002678,0.000431,0.001410
126522000,0.0324,0.013523,0.002678,0.000431,0.001645
126523000,0.0324,0.013523,0.002678,0.000431,0.001645
126524000,0.0324,0.013523,0.002678,0.000431,0.000940
126525000,0.0324,0.013523,0.002678,0.000431,0.000823
126526000,0.0324,0.013523,0.002678,0.000431,0.000940
126527000,0.0324,0.013523,0.002678,0.000431,0.000705
126528000,0.0324,0.013523,0.002678,0.000431,0.000940
126529000,0.0324,0.013523,0.002678,0.000431,0.000823
126530000,0.0324,0.013523,0.002678,0.000431,0.000705
126531000,0.0324,0.013523,0.002678,0.000431,0.015866
126532000,0.0324,0.013523,0.002678,0.000431,0.755941
126533000,0.0324,0.013523,0.002678,0.000431,0.620549
126534000,0.0324,0.013523,0.002678,0.000431,0.231060
126535000,0.0324,0.013523,0.002678,0.000431,0.157723
126536000,0.0324,0.013523,0.002678,0.000431,0.558376
126537000,0.0324,0.013523,0.002678,0.000431,0.298522
126538000,0.0324,0.013523,0.002678,0.000431,0.337306
126539000,0.0324,0.013523,0.002678,0.000431,0.201561
126540000,0.0324,0.013523,0.002678,0.000431,0.182521
126541000,0.0324,0.013523,0.002678,0.000431,0.096843
126542000,0.0324,0.013523,0.002678,0.000431,0.575888
126543000,0.0324,0.013523,0.002678,0.000431,0.374210
126544000,0.0324,0.013523,0.002678,0.000431,0.261383
126545000,0.0324,0.013523,0.002678,0.000431,0.248807
126546000,0.0324,0.013523,0.002678,0.000431,0.204852
126547000,0.0324,0.013523,0.002678,0.000431,0.181581
126548000,0.0324,0.013523,0.002678,0.000431,0.161366
126549000,0.0324,0.013523,0.002678,0.000431,0.123287
126550000,0.0324,0.013523,0.002678,0.000431,0.106833
126551000,0.0324,0.013523,0.002678,0.000431,0.089439
126552000,0.0324,0.013523,0.002678,0.000431,0.080389
126553000,0.0324,0.013523,0.002678,0.000431,0.065463
126554000,0.0324,0.013523,0.002678,0.000431,0.074630
126555000,0.0324,0.013523,0.002678,0.000431,0.064523
126556000,0.0324,0.013523,0.002678,0.000431,0.052535
126557000,0.0324,0.013523,0.002678,0.000431,0.046659
126558000,0.0324,0.013523,0.002678,0.000431,0.031498
126559000,0.0324,0.013523,0.002678,0.000431,0.029617
126560000,0.0324,0.013523,0.002678,0.000431,0.014103
126561000,0.0324,0.013523,0.002678,0.000431,0.014338
126562000,0.0324,0.013523,0.002678,0.000431,0.009050
126563000,0.0324,0.013523,0.002678,0.000431,0.005406
126564000,0.0324,0.013523,0.002678,0.000431,0.007404
126565000,0.0324,0.013523,0.002678,0.000431,0.007404
126566000,0.0324,0.013523,0.002678,0.000431,0.002703
126567000,0.0324,0.013523,0.002678,0.000431,0.002938
126568000,0.0324,0.013523,0.002678,0.000431,0.002351
126569000,0.0324,0.013523,0.002678,0.000431,0.002821
126570000,0.0324,0.013523,0.002678,0.000431,0.002821
126571000,0.0324,0.013523,0.002678,0.000431,0.002351
126572000,0.0324,0.013523,0.002678,0.000431,0.003056
126573000,0.0324,0.013523,0.002678,0.000431,0.002586
126574000,0.0324,0.013523,0.002678,0.000431,0.002586
126575000,0.0324,0.013523,0.002678,0.000431,0.002821
126576000,0.0324,0.013523,0.002678,0.000431,0.006347
126577000,0.0324,0.013523,0.002678,0.000431,0.002233
126578000,0.0324,0.013523,0.002678,0.000431,0.001763
126579000,0.0324,0.013523,0.002678,0.000431,0.001880
126580000,0.0324,0.013523,0.002678,0.000431,0.001880
126581000,0.0324,0.013523,0.002678,0.000431,0.001645
126582000,0.0324,0.013523,0.002678,0.000431,0.002233
126583000,0.0324,0.013523,0.002678,0.000431,0.001528
126584000,0.0324,0.013523,0.002678,0.000431,0.001880
126585000,0.0324,0.013523,0.002678,0.000431,0.001998
126586000,0.0324,0.013523,0.002678,0.000431,0.001645
126587000,0.0324,0.013523,0.002678,0.000431,0.002233
126588000,0.0324,0.013523,0.002678,0.000431,0.001763
126589000,0.0324,0.013523,0.002678,0.000431,0.001880
126590000,0.0324,0.013523,0.002678,0.000431,0.006347
126591000,0.0324,0.013523,0.002678,0.000431,0.380791
126592000,0.0324,0.013523,0.002678,0.000431,0.806949
126593000,0.0324,0.013523,0.002678,0.000431,0.405120
126594000,0.0324,0.013523,0.002678,0.000431,0.147850
126595000,0.0324,0.013523,0.002678,0.000431,0.493148
126596000,0.0324,0.013523,0.002678,0.000431,0.356816
126597000,0.0324,0.013523,0.002678,0.000431,0.286769
126598000,0.0324,0.013523,0.002678,0.000431,0.248572
126599000,0.0324,0.013523,0.002678,0.000431,0.174529
126600000,0.0324,0.013523,0.002678,0.000431,0.104953
126601000,0.0324,0.013523,0.002678,0.000431,0.502433
126602000,0.0324,0.013523,0.002678,0.000431,0.399126
126603000,0.0324,0.013523,0.002678,0.000431,0.283596
126604000,0.0324,0.013523,0.002678,0.000431,0.235644
126605000,0.0324,0.013523,0.002678,0.000431,0.205557
126606000,0.0324,0.013523,0.002678,0.000431,0.164187
126607000,0.0324,0.013523,0.002678,0.000431,0.163717
126608000,0.0324,0.013523,0.002678,0.000431,0.125755
126609000,0.0324,0.013523,0.002678,0.000431,0.097901
126610000,0.0324,0.013523,0.002678,0.000431,0.088499
126611000,0.0324,0.013523,0.002678,0.000431,0.072867
126612000,0.0324,0.013523,0.002678,0.000431,0.051830
126613000,0.0324,0.013523,0.002678,0.000431,0.058647
126614000,0.0324,0.013523,0.002678,0.000431,0.046306
126615000,0.0324,0.013523,0.002678,0.000431,0.040900
126616000,0.0324,0.013523,0.002678,0.000431,0.034553
126617000,0.0324,0.013523,0.002678,0.000431,0.028559
126618000,0.0324,0.013523,0.002678,0.000431,0.031027
126619000,0.0324,0.013523,0.002678,0.000431,0.016689
126620000,0.0324,0.013523,0.002678,0.000431,0.015631
126621000,0.0324,0.013523,0.002678,0.000431,0.018569
126622000,0.0324,0.013523,0.002678,0.000431,0.012928
126623000,0.0324,0.013523,0.002678,0.000431,0.009402
126624000,0.0324,0.013523,0.002678,0.000431,0.007052
126625000,0.0324,0.013523,0.002678,0.000431,0.011518
126626000,0.0324,0.013523,0.002678,0.000431,0.006817
126627000,0.0324,0.013523,0.002678,0.000431,0.005054
126628000,0.0324,0.013523,0.002678,0.000431,0.005289
126629000,0.0324,0.013523,0.002678,0.000431,0.008345
126630000,0.0324,0.013523,0.002678,0.000431,0.006347
126631000,0.0324,0.013523,0.002678,0.000431,0.005406
126632000,0.0324,0.013523,0.002678,0.000431,0.002703
126633000,0.0324,0.013523,0.002678,0.000431,0.007287
126634000,0.0324,0.013523,0.002678,0.000431,0.003056
126635000,0.0324,0.013523,0.002678,0.000431,0.000823
126636000,0.0324,0.013523,0.002678,0.000431,0.000940
126637000,0.0324,0.013523,0.002678,0.000431,0.000705
126638000,0.0324,0.013523,0.002678,0.000431,0.000940
126639000,0.0324,0.013523,0.002678,0.000431,0.000823
126640000,0.0324,0.013523,0.002678,0.000431,0.000705
126641000,0.0324,0.013523,0.002678,0.000431,0.000823
126642000,0.0324,0.013523,0.002678,0.000431,0.000940
126643000,0.0324,0.013523,0.002678,0.000431,0.000705
126644000,0.0324,0.013523,0.002678,0.000431,0.000823
126645000,0.0324,0.013523,0.002678,0.000431,0.000823
126646000,0.0324,0.013523,0.002678,0.000431,0.000940
126647000,0.0324,0.013523,0.002678,0.000431,0.000705
126648000,0.0324,0.013523,0.002678,0.000431,0.000940
126649000,0.0324,0.013523,0.002678,0.000431,0.041135
126650000,0.0324,0.013523,0.002678,0.000431,0.863244
126651000,0.0324,0.013523,0.002678,0.000431,0.568014
126652000,0.0324,0.013523,0.002678,0.000431,0.176410
126653000,0.0324,0.013523,0.002678,0.000431,0.163364
126654000,0.0324,0.013523,0.002678,0.000431,0.604918
126655000,0.0324,0.013523,0.002678,0.000431,0.239640
126656000,0.0324,0.013523,0.002678,0.000431,0.378793
126657000,0.0324,0.013523,0.002678,0.000431,0.163952
126658000,0.0324,0.013523,0.002678,0.000431,0.165245
126659000,0.0324,0.013523,0.002678,0.000431,0.161836
126660000,0.0324,0.013523,0.002678,0.000431,0.555321
126661000,0.0324,0.013523,0.002678,0.000431,0.363750
126662000,0.0324,0.013523,0.002678,0.000431,0.266319
126663000,0.0324,0.013523,0.002678,0.000431,0.242931
126664000,0.0324,0.013523,0.002678,0.000431,0.215899
126665000,0.0324,0.013523,0.002678,0.000431,0.174177
126666000,0.0324,0.013523,0.002678,0.000431,0.147615
126667000,0.0324,0.013523,0.002678,0.000431,0.121054
126668000,0.0324,0.013523,0.002678,0.000431,0.122817
126669000,0.0324,0.013523,0.002678,0.000431,0.096961
126670000,0.0324,0.013523,0.002678,0.000431,0.079802
126671000,0.0324,0.013523,0.002678,0.000431,0.068989
126672000,0.0324,0.013523,0.002678,0.000431,0.061937
126673000,0.0324,0.013523,0.002678,0.000431,0.071340
126674000,0.0324,0.013523,0.002678,0.000431,0.044543
126675000,0.0324,0.013523,0.002678,0.000431,0.041017
126676000,0.0324,0.013523,0.002678,0.000431,0.021155
126677000,0.0324,0.013523,0.002678,0.000431,0.022565
126678000,0.0324,0.013523,0.002678,0.000431,0.017394
126679000,0.0324,0.013523,0.002678,0.000431,0.012576
126680000,0.0324,0.013523,0.002678,0.000431,0.022800
126681000,0.0324,0.013523,0.002678,0.000431,0.022918
126682000,0.0324,0.013523,0.002678,0.000431,0.009285
126683000,0.0324,0.013523,0.002678,0.000431,0.004349
126684000,0.0324,0.013523,0.002678,0.000431,0.009637
126685000,0.0324,0.013523,0.002678,0.000431,0.002703
126686000,0.0324,0.013523,0.002678,0.000431,0.002233
126687000,0.0324,0.013523,0.002678,0.000431,0.002821
126688000,0.0324,0.013523,0.002678,0.000431,0.002586
126689000,0.0324,0.013523,0.002678,0.000431,0.002351
126690000,0.0324,0.013523,0.002678,0.000431,0.004113
126691000,0.0324,0.013523,0.002678,0.000431,0.003526
126692000,0.0324,0.013523,0.002678,0.000431,0.001763
126693000,0.0324,0.013523,0.002678,0.000431,0.001645
126694000,0.0324,0.013523,0.002678,0.000431,0.001645
126695000,0.0324,0.013523,0.002678,0.000431,0.001763
126696000,0.0324,0.013523,0.002678,0.000431,0.001880
126697000,0.0324,0.013523,0.002678,0.000431,0.004584
126698000,0.0324,0.013523,0.002678,0.000431,0.000823
126699000,0.0324,0.013523,0.002678,0.000431,0.000940
126700000,0.0324,0.013523,0.002678,0.000431,0.000823
126701000,0.0324,0.013523,0.002678,0.000431,0.000823
126702000,0.0324,0.013523,0.002678,0.000431,0.000823
126703000,0.0324,0.013523,0.002678,0.000431,0.000705
126704000,0.0324,0.013523,0.002678,0.000431,0.265379
126705000,0.0324,0.013523,0.002678,0.000431,0.799897
126706000,0.0324,0.013523,0.002678,0.000431,0.514303
126707000,0.0324,0.013523,0.002678,0.000431,0.152081
126708000,0.0324,0.013523,0.002678,0.000431,0.272078
126709000,0.0324,0.013523,0.002678,0.000431,0.546506
126710000,0.0324,0.013523,0.002678,0.000431,0.238112
126711000,0.0324,0.013523,0.002678,0.000431,0.308511
126712000,0.0324,0.013523,0.002678,0.000431,0.145147
126713000,0.0324,0.013523,0.002678,0.000431,0.140564
126714000,0.0324,0.013523,0.002678,0.000431,0.271843
126715000,0.0324,0.013523,0.002678,0.000431,0.590344
126716000,0.0324,0.013523,0.002678,0.000431,0.316856
126717000,0.0324,0.013523,0.002678,0.000431,0.283831
126718000,0.0324,0.013523,0.002678,0.000431,0.251393
126719000,0.0324,0.013523,0.002678,0.000431,0.220130
126720000,0.0324,0.013523,0.002678,0.000431,0.184402
126721000,0.0324,0.013523,0.002678,0.000431,0.178643
126722000,0.0324,0.013523,0.002678,0.000431,0.145852
126723000,0.0324,0.013523,0.002678,0.000431,0.122229
126724000,0.0324,0.013523,0.002678,0.000431,0.126108
126725000,0.0324,0.013523,0.002678,0.000431,0.090732
126726000,0.0324,0.013523,0.002678,0.000431,0.078744
126727000,0.0324,0.013523,0.002678,0.000431,0.063230
126728000,0.0324,0.013523,0.002678,0.000431,0.054651
126729000,0.0324,0.013523,0.002678,0.000431,0.039254
126730000,0.0324,0.013523,0.002678,0.000431,0.035023
126731000,0.0324,0.013523,0.002678,0.000431,0.033143
126732000,0.0324,0.013523,0.002678,0.000431,0.021038
126733000,0.0324,0.013523,0.002678,0.000431,0.025269
126734000,0.0324,0.013523,0.002678,0.000431,0.018099
126735000,0.0324,0.013523,0.002678,0.000431,0.023741
126736000,0.0324,0.013523,0.002678,0.000431,0.011165
126737000,0.0324,0.013523,0.002678,0.000431,0.011048
126738000,0.0324,0.013523,0.002678,0.000431,0.013751
126739000,0.0324,0.013523,0.002678,0.000431,0.011988
126740000,0.0324,0.013523,0.002678,0.000431,0.011518
126741000,0.0324,0.013523,0.002678,0.000431,0.007874
126742000,0.0324,0.013523,0.002678,0.000431,0.007404
126743000,0.0324,0.013523,0.002678,0.000431,0.010107
126744000,0.0324,0.013523,0.002678,0.000431,0.011635
126745000,0.0324,0.013523,0.002678,0.000431,0.007757
126746000,0.0324,0.013523,0.002678,0.000431,0.005876
126747000,0.0324,0.013523,0.002678,0.000431,0.003408
126748000,0.0324,0.013523,0.002678,0.000431,0.003173
126749000,0.0324,0.013523,0.002678,0.000431,0.009167
126750000,0.0324,0.013523,0.002678,0.000431,0.004466
126751000,0.0324,0.013523,0.002678,0.000431,0.001763
126752000,0.0324,0.013523,0.002678,0.000431,0.001528
126753000,0.0324,0.013523,0.002678,0.000431,0.001763
126754000,0.0324,0.013523,0.002678,0.000431,0.001645
126755000,0.0324,0.013523,0.002678,0.000431,0.001763
126756000,0.0324,0.013523,0.002678,0.000431,0.001645
126757000,0.0324,0.013523,0.002678,0.000431,0.001645
126758000,0.0324,0.013523,0.002678,0.000431,0.001528
126759000,0.0324,0.013523,0.002678,0.000431,0.001763
126760000,0.0324,0.013523,0.002678,0.000431,0.001645
126761000,0.0324,0.013523,0.002678,0.000431,0.001528
126762000,0.0324,0.013523,0.002678,0.000431,0.001880
126763000,0.0324,0.013523,0.002678,0.000431,0.001528
126764000,0.0324,0.013523,0.002678,0.000431,0.001763
126765000,0.0324,0.013523,0.002678,0.000431,0.001763
126766000,0.0324,0.013523,0.002678,0.000431,0.001410
126767000,0.0324,0.013523,0.002678,0.000431,0.001880
126768000,0.0324,0.013523,0.002678,0.000431,0.001645
126769000,0.0324,0.013523,0.002678,0.000431,0.001645
126770000,0.0324,0.013523,0.002678,0.000431,0.001880
126771000,0.0324,0.013523,0.002678,0.000431,0.002938
126772000,0.0324,0.013523,0.002678,0.000431,0.000940
126773000,0.0324,0.013523,0.002678,0.000431,0.000940
126774000,0.0324,0.013523,0.002678,0.000431,0.000705
126775000,0.0324,0.013523,0.002678,0.000431,0.000940
126776000,0.0324,0.013523,0.002678,0.000431,0.000705
126777000,0.0324,0.013523,0.002678,0.000431,0.000940
126778000,0.0324,0.013523,0.002678,0.000431,0.000823
126779000,0.0324,0.013523,0.002678,0.000431,0.000823
126780000,0.0324,0.013523,0.002678,0.000431,0.000823
126781000,0.0324,0.013523,0.002678,0.000431,0.000823
126782000,0.0324,0.013523,0.002678,0.000431,0.000940
126783000,0.0324,0.013523,0.002678,0.000431,0.000705
126784000,0.0324,0.013523,0.002678,0.000431,0.000940
126785000,0.0324,0.013523,0.002678,0.000431,0.000823
126786000,0.0324,0.013523,0.002678,0.000431,0.000823
126787000,0.0324,0.013523,0.002678,0.000431,0.000823
126788000,0.0324,0.013523,0.002678,0.000431,0.000823
126789000,0.0324,0.013523,0.002678,0.000431,0.000705
126790000,0.0324,0.013523,0.002678,0.000431,0.000940
126791000,0.0324,0.013523,0.002678,0.000431,0.000940
126792000,0.0324,0.013523,0.002678,0.000431,0.000705
126793000,0.0324,0.013523,0.002678,0.000431,0.000940
126794000,0.0324,0.013523,0.002678,0.000431,0.000705
126795000,0.0324,0.013523,0.002678,0.000431,0.000940
126796000,0.0324,0.013523,0.002678,0.000431,0.000940
126797000,0.0324,0.013523,0.002678,0.000431,0.000705
126798000,0.0324,0.013523,0.002678,0.000431,0.000940
126799000,0.0324,0.013523,0.002678,0.000431,0.000705
126800000,0.0324,0.013523,0.002678,0.000431,0.000940
126801000,0.0324,0.013523,0.002678,0.000431,0.000823
126802000,0.0324,0.013523,0.002678,0.000431,0.000823
126803000,0.0324,0.013523,0.002678,0.000431,0.000823
126804000,0.0324,0.013523,0.002678,0.000431,0.000823
126805000,0.0324,0.013523,0.002678,0.000431,0.000940
126806000,0.0324,0.013523,0.002678,0.000431,0.000705
126807000,0.0324,0.013523,0.002678,0.000431,0.000940
126808000,0.0324,0.013523,0.002678,0.000431,0.000823
126809000,0.0324,0.013523,0.002678,0.000431,0.000823
126810000,0.0324,0.013523,0.002678,0.000431,0.000823
126811000,0.0324,0.013523,0.002678,0.000431,0.000823
126812000,0.0324,0.013523,0.002678,0.000431,0.000823
126813000,0.0324,0.013523,0.002678,0.000431,0.000823
126814000,0.0324,0.013523,0.002678,0.000431,0.000823
126815000,0.0324,0.013523,0.002678,0.000431,0.000823
126816000,0.0324,0.013523,0.002678,0.000431,0.000940
126817000,0.0324,0.013523,0.002678,0.000431,0.000823
126818000,0.0324,0.013523,0.002678,0.000431,0.000823
126819000,0.0324,0.013523,0.002678,0.000431,0.000705
126820000,0.0324,0.013523,0.002678,0.000431,0.000940
126821000,0.0324,0.013523,0.002678,0.000431,0.073220
126822000,0.0324,0.013523,0.002678,0.000431,0.894860
126823000,0.0324,0.013523,0.002678,0.000431,0.547446
126824000,0.0324,0.013523,0.002678,0.000431,0.205557
126825000,0.0324,0.013523,0.002678,0.000431,0.248220
126826000,0.0324,0.013523,0.002678,0.000431,0.562255
126827000,0.0324,0.013523,0.002678,0.000431,0.292880
126828000,0.0324,0.013523,0.002678,0.000431,0.290882
126829000,0.0324,0.013523,0.002678,0.000431,0.182051
126830000,0.0324,0.013523,0.002678,0.000431,0.115060
126831000,0.0324,0.013523,0.002678,0.000431,0.388078
126832000,0.0324,0.013523,0.002678,0.000431,0.544743
126833000,0.0324,0.013523,0.002678,0.000431,0.290882
126834000,0.0324,0.013523,0.002678,0.000431,0.282890
126835000,0.0324,0.013523,0.002678,0.000431,0.249042
126836000,0.0324,0.013523,0.002678,0.000431,0.194979
126837000,0.0324,0.013523,0.002678,0.000431,0.176645
126838000,0.0324,0.013523,0.002678,0.000431,0.154315
126839000,0.0324,0.013523,0.002678,0.000431,0.133394
126840000,0.0324,0.013523,0.002678,0.000431,0.099311
126841000,0.0324,0.013523,0.002678,0.000431,0.094140
126842000,0.0324,0.013523,0.002678,0.000431,0.069812
126843000,0.0324,0.013523,0.002678,0.000431,0.053710
126844000,0.0324,0.013523,0.002678,0.000431,0.039019
126845000,0.0324,0.013523,0.002678,0.000431,0.045131
126846000,0.0324,0.013523,0.002678,0.000431,0.033966
126847000,0.0324,0.013523,0.002678,0.000431,0.030322
126848000,0.0324,0.013523,0.002678,0.000431,0.031850
126849000,0.0324,0.013523,0.002678,0.000431,0.021038
126850000,0.0324,0.013523,0.002678,0.000431,0.021038
126851000,0.0324,0.013523,0.002678,0.000431,0.020685
126852000,0.0324,0.013523,0.002678,0.000431,0.017629
126853000,0.0324,0.013523,0.002678,0.000431,0.014103
126854000,0.0324,0.013523,0.002678,0.000431,0.015279
126855000,0.0324,0.013523,0.002678,0.000431,0.013633
126856000,0.0324,0.013523,0.002678,0.000431,0.012811
126857000,0.0324,0.013523,0.002678,0.000431,0.008462
126858000,0.0324,0.013523,0.002678,0.000431,0.012223
126859000,0.0324,0.013523,0.002678,0.000431,0.004819
126860000,0.0324,0.013523,0.002678,0.000431,0.004936
126861000,0.0324,0.013523,0.002678,0.000431,0.005054
126862000,0.0324,0.013523,0.002678,0.000431,0.008462
126863000,0.0324,0.013523,0.002678,0.000431,0.003761
126864000,0.0324,0.013523,0.002678,0.000431,0.004231
126865000,0.0324,0.013523,0.002678,0.000431,0.004231
126866000,0.0324,0.013523,0.002678,0.000431,0.003761
126867000,0.0324,0.013523,0.002678,0.000431,0.003996
126868000,0.0324,0.013523,0.002678,0.000431,0.003996
126869000,0.0324,0.013523,0.002678,0.000431,0.003996
126870000,0.0324,0.013523,0.002678,0.000431,0.004231
126871000,0.0324,0.013523,0.002678,0.000431,0.003643
126872000,0.0324,0.013523,0.002678,0.000431,0.003761
126873000,0.0324,0.013523,0.002678,0.000431,0.004231
126874000,0.0324,0.013523,0.002678,0.000431,0.003643
126875000,0.0324,0.013523,0.002678,0.000431,0.004113
126876000,0.0324,0.013523,0.002678,0.000431,0.004231
126877000,0.0324,0.013523,0.002678,0.000431,0.005171
126878000,0.0324,0.013523,0.002678,0.000431,0.003408
126879000,0.0324,0.013523,0.002678,0.000431,0.003291
126880000,0.0324,0.013523,0.002678,0.000431,0.002821
126881000,0.0324,0.013523,0.002678,0.000431,0.003761
126882000,0.0324,0.013523,0.002678,0.000431,0.002468
126883000,0.0324,0.013523,0.002678,0.000431,0.003643
126884000,0.0324,0.013523,0.002678,0.000431,0.002586
126885000,0.0324,0.013523,0.002678,0.000431,0.003526
126886000,0.0324,0.013523,0.002678,0.000431,0.003173
126887000,0.0324,0.013523,0.002678,0.000431,0.002938
126888000,0.0324,0.013523,0.002678,0.000431,0.003408
126889000,0.0324,0.013523,0.002678,0.000431,0.002938
126890000,0.0324,0.013523,0.002678,0.000431,0.005289
126891000,0.0324,0.013523,0.002678,0.000431,0.098254
126892000,0.0324,0.013523,0.002678,0.000431,0.939168
126893000,0.0324,0.013523,0.002678,0.000431,0.528759
126894000,0.0324,0.013523,0.002678,0.000431,0.175117
126895000,0.0324,0.013523,0.002678,0.000431,0.281245
126896000,0.0324,0.013523,0.002678,0.000431,0.546506
126897000,0.0324,0.013523,0.002678,0.000431,0.282655
126898000,0.0324,0.013523,0.002678,0.000431,0.295466
126899000,0.0324,0.013523,0.002678,0.000431,0.170063
126900000,0.0324,0.013523,0.002678,0.000431,0.110947
126901000,0.0324,0.013523,0.002678,0.000431,0.493148
126902000,0.0324,0.013523,0.002678,0.000431,0.464941
126903000,0.0324,0.013523,0.002678,0.000431,0.318619
126904000,0.0324,0.013523,0.002678,0.000431,0.272195
126905000,0.0324,0.013523,0.002678,0.000431,0.229180
126906000,0.0324,0.013523,0.002678,0.000431,0.207555
126907000,0.0324,0.013523,0.002678,0.000431,0.193686
126908000,0.0324,0.013523,0.002678,0.000431,0.155725
126909000,0.0324,0.013523,0.002678,0.000431,0.125990
126910000,0.0324,0.013523,0.002678,0.000431,0.104247
126911000,0.0324,0.013523,0.002678,0.000431,0.100604
126912000,0.0324,0.013523,0.002678,0.000431,0.083798
126913000,0.0324,0.013523,0.002678,0.000431,0.071222
126914000,0.0324,0.013523,0.002678,0.000431,0.067931
126915000,0.0324,0.013523,0.002678,0.000431,0.047364
126916000,0.0324,0.013523,0.002678,0.000431,0.041840
126917000,0.0324,0.013523,0.002678,0.000431,0.034788
126918000,0.0324,0.013523,0.002678,0.000431,0.029382
126919000,0.0324,0.013523,0.002678,0.000431,0.029852
126920000,0.0324,0.013523,0.002678,0.000431,0.020802
126921000,0.0324,0.013523,0.002678,0.000431,0.015396
126922000,0.0324,0.013523,0.002678,0.000431,0.019862
126923000,0.0324,0.013523,0.002678,0.000431,0.015749
126924000,0.0324,0.013523,0.002678,0.000431,0.009520
126925000,0.0324,0.013523,0.002678,0.000431,0.013163
126926000,0.0324,0.013523,0.002678,0.000431,0.005994
126927000,0.0324,0.013523,0.002678,0.000431,0.001645
126928000,0.0324,0.013523,0.002678,0.000431,0.001410
126929000,0.0324,0.013523,0.002678,0.000431,0.001645
126930000,0.0324,0.013523,0.002678,0.000431,0.001880
126931000,0.0324,0.013523,0.002678,0.000431,0.001175
126932000,0.0324,0.013523,0.002678,0.000431,0.001880
126933000,0.0324,0.013523,0.002678,0.000431,0.001293
126934000,0.0324,0.013523,0.002678,0.000431,0.001763
126935000,0.0324,0.013523,0.002678,0.000431,0.001645
126936000,0.0324,0.013523,0.002678,0.000431,0.001410
126937000,0.0324,0.013523,0.002678,0.000431,0.001880
126938000,0.0324,0.013523,0.002678,0.000431,0.001293
126939000,0.0324,0.013523,0.002678,0.000431,0.001528
126940000,0.0324,0.013523,0.002678,0.000431,0.001175
126941000,0.0324,0.013523,0.002678,0.000431,0.001880
126942000,0.0324,0.013523,0.002678,0.000431,0.001410
126943000,0.0324,0.013523,0.002678,0.000431,0.001645
126944000,0.0324,0.013523,0.002678,0.000431,0.001410
126945000,0.0324,0.013523,0.002678,0.000431,0.001645
126946000,0.0324,0.013523,0.002678,0.000431,0.001645
126947000,0.0324,0.013523,0.002678,0.000431,0.001645
126948000,0.0324,0.013523,0.002678,0.000431,0.001410
126949000,0.0324,0.013523,0.002678,0.000431,0.001528
126950000,0.0324,0.013523,0.002678,0.000431,0.001293
126951000,0.0324,0.013523,0.002678,0.000431,0.276661
126952000,0.0324,0.013523,0.002678,0.000431,0.837976
126953000,0.0324,0.013523,0.002678,0.000431,0.508780
126954000,0.0324,0.013523,0.002678,0.000431,0.185695
126955000,0.0324,0.013523,0.002678,0.000431,0.353290
126956000,0.0324,0.013523,0.002678,0.000431,0.487977
126957000,0.0324,0.013523,0.002678,0.000431,0.270315
126958000,0.0324,0.013523,0.002678,0.000431,0.264203
126959000,0.0324,0.013523,0.002678,0.000431,0.159251
126960000,0.0324,0.013523,0.002678,0.000431,0.110947
126961000,0.0324,0.013523,0.002678,0.000431,0.414404
126962000,0.0324,0.013523,0.002678,0.000431,0.468820
126963000,0.0324,0.013523,0.002678,0.000431,0.256799
126964000,0.0324,0.013523,0.002678,0.000431,0.245869
126965000,0.0324,0.013523,0.002678,0.000431,0.216957
126966000,0.0324,0.013523,0.002678,0.000431,0.195684
126967000,0.0324,0.013523,0.002678,0.000431,0.155255
126968000,0.0324,0.013523,0.002678,0.000431,0.158546
126969000,0.0324,0.013523,0.002678,0.000431,0.109301
126970000,0.0324,0.013523,0.002678,0.000431,0.105070
126971000,0.0324,0.013523,0.002678,0.000431,0.082505
126972000,0.0324,0.013523,0.002678,0.000431,0.073690
126973000,0.0324,0.013523,0.002678,0.000431,0.057236
126974000,0.0324,0.013523,0.002678,0.000431,0.046189
126975000,0.0324,0.013523,0.002678,0.000431,0.042193
126976000,0.0324,0.013523,0.002678,0.000431,0.044778
126977000,0.0324,0.013523,0.002678,0.000431,0.032908
126978000,0.0324,0.013523,0.002678,0.000431,0.033613
126979000,0.0324,0.013523,0.002678,0.000431,0.026091
126980000,0.0324,0.013523,0.002678,0.000431,0.021273
126981000,0.0324,0.013523,0.002678,0.000431,0.012693
126982000,0.0324,0.013523,0.002678,0.000431,0.019980
126983000,0.0324,0.013523,0.002678,0.000431,0.015631
126984000,0.0324,0.013523,0.002678,0.000431,0.010107
126985000,0.0324,0.013523,0.002678,0.000431,0.017277
126986000,0.0324,0.013523,0.002678,0.000431,0.006464
126987000,0.0324,0.013523,0.002678,0.000431,0.007992
126988000,0.0324,0.013523,0.002678,0.000431,0.005641
126989000,0.0324,0.013523,0.002678,0.000431,0.007404
126990000,0.0324,0.013523,0.002678,0.000431,0.007052
126991000,0.0324,0.013523,0.002678,0.000431,0.003526
126992000,0.0324,0.013523,0.002678,0.000431,0.003056
126993000,0.0324,0.013523,0.002678,0.000431,0.003408
126994000,0.0324,0.013523,0.002678,0.000431,0.003056
126995000,0.0324,0.013523,0.002678,0.000431,0.003526
126996000,0.0324,0.013523,0.002678,0.000431,0.003526
126997000,0.0324,0.013523,0.002678,0.000431,0.003056
126998000,0.0324,0.013523,0.002678,0.000431,0.003408
126999000,0.0324,0.013523,0.002678,0.000431,0.003056
