Cycle,Area(mm^2),PeakDynamic(W),SubthresholdLeakage(W),GateLeakage(W),RunTimeDynamic(W)
134000000,0.0324,0.013523,0.002678,0.000431,0.007639
134001000,0.0324,0.013523,0.002678,0.000431,0.010107
134002000,0.0324,0.013523,0.002678,0.000431,0.005994
134003000,0.0324,0.013523,0.002678,0.000431,0.005759
134004000,0.0324,0.013523,0.002678,0.000431,0.014456
134005000,0.0324,0.013523,0.002678,0.000431,0.004936
134006000,0.0324,0.013523,0.002678,0.000431,0.004113
134007000,0.0324,0.013523,0.002678,0.000431,0.002468
134008000,0.0324,0.013523,0.002678,0.000431,0.002586
134009000,0.0324,0.013523,0.002678,0.000431,0.002351
134010000,0.0324,0.013523,0.002678,0.000431,0.002586
134011000,0.0324,0.013523,0.002678,0.000431,0.002703
134012000,0.0324,0.013523,0.002678,0.000431,0.005054
134013000,0.0324,0.013523,0.002678,0.000431,0.001880
134014000,0.0324,0.013523,0.002678,0.000431,0.001763
134015000,0.0324,0.013523,0.002678,0.000431,0.001528
134016000,0.0324,0.013523,0.002678,0.000431,0.001645
134017000,0.0324,0.013523,0.002678,0.000431,0.001763
134018000,0.0324,0.013523,0.002678,0.000431,0.002703
134019000,0.0324,0.013523,0.002678,0.000431,0.002233
134020000,0.0324,0.013523,0.002678,0.000431,0.000823
134021000,0.0324,0.013523,0.002678,0.000431,0.000823
134022000,0.0324,0.013523,0.002678,0.000431,0.000940
134023000,0.0324,0.013523,0.002678,0.000431,0.000823
134024000,0.0324,0.013523,0.002678,0.000431,0.000823
134025000,0.0324,0.013523,0.002678,0.000431,0.000705
134026000,0.0324,0.013523,0.002678,0.000431,0.000940
134027000,0.0324,0.013523,0.002678,0.000431,0.000705
134028000,0.0324,0.013523,0.002678,0.000431,0.000940
134029000,0.0324,0.013523,0.002678,0.000431,0.000823
134030000,0.0324,0.013523,0.002678,0.000431,0.000823
134031000,0.0324,0.013523,0.002678,0.000431,0.000823
134032000,0.0324,0.013523,0.002678,0.000431,0.000823
134033000,0.0324,0.013523,0.002678,0.000431,0.000940
134034000,0.0324,0.013523,0.002678,0.000431,0.000705
134035000,0.0324,0.013523,0.002678,0.000431,0.000940
134036000,0.0324,0.013523,0.002678,0.000431,0.000705
134037000,0.0324,0.013523,0.002678,0.000431,0.000940
134038000,0.0324,0.013523,0.002678,0.000431,0.000823
134039000,0.0324,0.013523,0.002678,0.000431,0.000823
134040000,0.0324,0.013523,0.002678,0.000431,0.000940
134041000,0.0324,0.013523,0.002678,0.000431,0.000705
134042000,0.0324,0.013523,0.002678,0.000431,0.000940
134043000,0.0324,0.013523,0.002678,0.000431,0.000823
134044000,0.0324,0.013523,0.002678,0.000431,0.000823
134045000,0.0324,0.013523,0.002678,0.000431,0.000823
134046000,0.0324,0.013523,0.002678,0.000431,0.000823
134047000,0.0324,0.013523,0.002678,0.000431,0.000823
134048000,0.0324,0.013523,0.002678,0.000431,0.000823
134049000,0.0324,0.013523,0.002678,0.000431,0.000940
134050000,0.0324,0.013523,0.002678,0.000431,0.000823
134051000,0.0324,0.013523,0.002678,0.000431,0.000823
134052000,0.0324,0.013523,0.002678,0.000431,0.000823
134053000,0.0324,0.013523,0.002678,0.000431,0.000823
134054000,0.0324,0.013523,0.002678,0.000431,0.000823
134055000,0.0324,0.013523,0.002678,0.000431,0.002468
134056000,0.0324,0.013523,0.002678,0.000431,0.612439
134057000,0.0324,0.013523,0.002678,0.000431,0.730085
134058000,0.0324,0.013523,0.002678,0.000431,0.252921
134059000,0.0324,0.013523,0.002678,0.000431,0.153374
134060000,0.0324,0.013523,0.002678,0.000431,0.555556
134061000,0.0324,0.013523,0.002678,0.000431,0.263733
134062000,0.0324,0.013523,0.002678,0.000431,0.332017
134063000,0.0324,0.013523,0.002678,0.000431,0.211081
134064000,0.0324,0.013523,0.002678,0.000431,0.190748
134065000,0.0324,0.013523,0.002678,0.000431,0.089321
134066000,0.0324,0.013523,0.002678,0.000431,0.564370
134067000,0.0324,0.013523,0.002678,0.000431,0.374915
134068000,0.0324,0.013523,0.002678,0.000431,0.263968
134069000,0.0324,0.013523,0.002678,0.000431,0.228005
134070000,0.0324,0.013523,0.002678,0.000431,0.200621
134071000,0.0324,0.013523,0.002678,0.000431,0.169828
134072000,0.0324,0.013523,0.002678,0.000431,0.137626
134073000,0.0324,0.013523,0.002678,0.000431,0.119644
134074000,0.0324,0.013523,0.002678,0.000431,0.098724
134075000,0.0324,0.013523,0.002678,0.000431,0.091084
134076000,0.0324,0.013523,0.002678,0.000431,0.065228
134077000,0.0324,0.013523,0.002678,0.000431,0.069459
134078000,0.0324,0.013523,0.002678,0.000431,0.066874
134079000,0.0324,0.013523,0.002678,0.000431,0.049127
134080000,0.0324,0.013523,0.002678,0.000431,0.050655
134081000,0.0324,0.013523,0.002678,0.000431,0.036316
134082000,0.0324,0.013523,0.002678,0.000431,0.050067
134083000,0.0324,0.013523,0.002678,0.000431,0.036904
134084000,0.0324,0.013523,0.002678,0.000431,0.030205
134085000,0.0324,0.013523,0.002678,0.000431,0.020567
134086000,0.0324,0.013523,0.002678,0.000431,0.016689
134087000,0.0324,0.013523,0.002678,0.000431,0.010930
134088000,0.0324,0.013523,0.002678,0.000431,0.009285
134089000,0.0324,0.013523,0.002678,0.000431,0.015279
134090000,0.0324,0.013523,0.002678,0.000431,0.011635
134091000,0.0324,0.013523,0.002678,0.000431,0.004936
134092000,0.0324,0.013523,0.002678,0.000431,0.001645
134093000,0.0324,0.013523,0.002678,0.000431,0.001763
134094000,0.0324,0.013523,0.002678,0.000431,0.001763
134095000,0.0324,0.013523,0.002678,0.000431,0.002938
134096000,0.0324,0.013523,0.002678,0.000431,0.002351
134097000,0.0324,0.013523,0.002678,0.000431,0.000705
134098000,0.0324,0.013523,0.002678,0.000431,0.000823
134099000,0.0324,0.013523,0.002678,0.000431,0.000823
134100000,0.0324,0.013523,0.002678,0.000431,0.000940
134101000,0.0324,0.013523,0.002678,0.000431,0.000940
134102000,0.0324,0.013523,0.002678,0.000431,0.000940
134103000,0.0324,0.013523,0.002678,0.000431,0.038549
134104000,0.0324,0.013523,0.002678,0.000431,0.907670
134105000,0.0324,0.013523,0.002678,0.000431,0.542980
134106000,0.0324,0.013523,0.002678,0.000431,0.196625
134107000,0.0324,0.013523,0.002678,0.000431,0.283478
134108000,0.0324,0.013523,0.002678,0.000431,0.619491
134109000,0.0324,0.013523,0.002678,0.000431,0.257974
134110000,0.0324,0.013523,0.002678,0.000431,0.283243
134111000,0.0324,0.013523,0.002678,0.000431,0.172179
134112000,0.0324,0.013523,0.002678,0.000431,0.099664
134113000,0.0324,0.013523,0.002678,0.000431,0.523588
134114000,0.0324,0.013523,0.002678,0.000431,0.321910
134115000,0.0324,0.013523,0.002678,0.000431,0.215547
134116000,0.0324,0.013523,0.002678,0.000431,0.210140
134117000,0.0324,0.013523,0.002678,0.000431,0.173824
134118000,0.0324,0.013523,0.002678,0.000431,0.151141
134119000,0.0324,0.013523,0.002678,0.000431,0.130926
134120000,0.0324,0.013523,0.002678,0.000431,0.104835
134121000,0.0324,0.013523,0.002678,0.000431,0.094493
134122000,0.0324,0.013523,0.002678,0.000431,0.083210
134123000,0.0324,0.013523,0.002678,0.000431,0.073690
134124000,0.0324,0.013523,0.002678,0.000431,0.081094
134125000,0.0324,0.013523,0.002678,0.000431,0.066521
134126000,0.0324,0.013523,0.002678,0.000431,0.048422
134127000,0.0324,0.013523,0.002678,0.000431,0.038549
134128000,0.0324,0.013523,0.002678,0.000431,0.040077
134129000,0.0324,0.013523,0.002678,0.000431,0.036551
134130000,0.0324,0.013523,0.002678,0.000431,0.022330
134131000,0.0324,0.013523,0.002678,0.000431,0.025739
134132000,0.0324,0.013523,0.002678,0.000431,0.029265
134133000,0.0324,0.013523,0.002678,0.000431,0.023623
134134000,0.0324,0.013523,0.002678,0.000431,0.017982
134135000,0.0324,0.013523,0.002678,0.000431,0.019862
134136000,0.0324,0.013523,0.002678,0.000431,0.007052
134137000,0.0324,0.013523,0.002678,0.000431,0.005994
134138000,0.0324,0.013523,0.002678,0.000431,0.008345
134139000,0.0324,0.013523,0.002678,0.000431,0.005524
134140000,0.0324,0.013523,0.002678,0.000431,0.007169
134141000,0.0324,0.013523,0.002678,0.000431,0.010578
134142000,0.0324,0.013523,0.002678,0.000431,0.003878
134143000,0.0324,0.013523,0.002678,0.000431,0.006347
134144000,0.0324,0.013523,0.002678,0.000431,0.002586
134145000,0.0324,0.013523,0.002678,0.000431,0.002586
134146000,0.0324,0.013523,0.002678,0.000431,0.002938
134147000,0.0324,0.013523,0.002678,0.000431,0.006817
134148000,0.0324,0.013523,0.002678,0.000431,0.003408
134149000,0.0324,0.013523,0.002678,0.000431,0.002938
134150000,0.0324,0.013523,0.002678,0.000431,0.000823
134151000,0.0324,0.013523,0.002678,0.000431,0.003173
134152000,0.0324,0.013523,0.002678,0.000431,0.641586
134153000,0.0324,0.013523,0.002678,0.000431,0.660156
134154000,0.0324,0.013523,0.002678,0.000431,0.243518
134155000,0.0324,0.013523,0.002678,0.000431,0.149261
134156000,0.0324,0.013523,0.002678,0.000431,0.596926
134157000,0.0324,0.013523,0.002678,0.000431,0.258092
134158000,0.0324,0.013523,0.002678,0.000431,0.341184
134159000,0.0324,0.013523,0.002678,0.000431,0.198153
134160000,0.0324,0.013523,0.002678,0.000431,0.186282
134161000,0.0324,0.013523,0.002678,0.000431,0.090027
134162000,0.0324,0.013523,0.002678,0.000431,0.582235
134163000,0.0324,0.013523,0.002678,0.000431,0.346708
134164000,0.0324,0.013523,0.002678,0.000431,0.252451
134165000,0.0324,0.013523,0.002678,0.000431,0.225302
134166000,0.0324,0.013523,0.002678,0.000431,0.185224
134167000,0.0324,0.013523,0.002678,0.000431,0.159133
134168000,0.0324,0.013523,0.002678,0.000431,0.131749
134169000,0.0324,0.013523,0.002678,0.000431,0.111299
134170000,0.0324,0.013523,0.002678,0.000431,0.100134
134171000,0.0324,0.013523,0.002678,0.000431,0.086266
134172000,0.0324,0.013523,0.002678,0.000431,0.085561
134173000,0.0324,0.013523,0.002678,0.000431,0.082857
134174000,0.0324,0.013523,0.002678,0.000431,0.055356
134175000,0.0324,0.013523,0.002678,0.000431,0.060174
134176000,0.0324,0.013523,0.002678,0.000431,0.049949
134177000,0.0324,0.013523,0.002678,0.000431,0.047951
134178000,0.0324,0.013523,0.002678,0.000431,0.032085
134179000,0.0324,0.013523,0.002678,0.000431,0.033731
134180000,0.0324,0.013523,0.002678,0.000431,0.029735
134181000,0.0324,0.013523,0.002678,0.000431,0.028442
134182000,0.0324,0.013523,0.002678,0.000431,0.022213
134183000,0.0324,0.013523,0.002678,0.000431,0.021625
134184000,0.0324,0.013523,0.002678,0.000431,0.024328
134185000,0.0324,0.013523,0.002678,0.000431,0.014338
134186000,0.0324,0.013523,0.002678,0.000431,0.016101
134187000,0.0324,0.013523,0.002678,0.000431,0.015866
134188000,0.0324,0.013523,0.002678,0.000431,0.012693
134189000,0.0324,0.013523,0.002678,0.000431,0.010930
134190000,0.0324,0.013523,0.002678,0.000431,0.008932
134191000,0.0324,0.013523,0.002678,0.000431,0.015866
134192000,0.0324,0.013523,0.002678,0.000431,0.007992
134193000,0.0324,0.013523,0.002678,0.000431,0.005289
134194000,0.0324,0.013523,0.002678,0.000431,0.005641
134195000,0.0324,0.013523,0.002678,0.000431,0.005171
134196000,0.0324,0.013523,0.002678,0.000431,0.004936
134197000,0.0324,0.013523,0.002678,0.000431,0.005524
134198000,0.0324,0.013523,0.002678,0.000431,0.004231
134199000,0.0324,0.013523,0.002678,0.000431,0.005994
134200000,0.0324,0.013523,0.002678,0.000431,0.008227
134201000,0.0324,0.013523,0.002678,0.000431,0.006817
134202000,0.0324,0.013523,0.002678,0.000431,0.002703
134203000,0.0324,0.013523,0.002678,0.000431,0.002821
134204000,0.0324,0.013523,0.002678,0.000431,0.003173
134205000,0.0324,0.013523,0.002678,0.000431,0.005171
134206000,0.0324,0.013523,0.002678,0.000431,0.072632
134207000,0.0324,0.013523,0.002678,0.000431,0.863832
134208000,0.0324,0.013523,0.002678,0.000431,0.572127
134209000,0.0324,0.013523,0.002678,0.000431,0.165715
134210000,0.0324,0.013523,0.002678,0.000431,0.181934
134211000,0.0324,0.013523,0.002678,0.000431,0.565311
134212000,0.0324,0.013523,0.002678,0.000431,0.260207
134213000,0.0324,0.013523,0.002678,0.000431,0.317796
134214000,0.0324,0.013523,0.002678,0.000431,0.148556
134215000,0.0324,0.013523,0.002678,0.000431,0.163834
134216000,0.0324,0.013523,0.002678,0.000431,0.201208
134217000,0.0324,0.013523,0.002678,0.000431,0.576006
134218000,0.0324,0.013523,0.002678,0.000431,0.331547
134219000,0.0324,0.013523,0.002678,0.000431,0.285476
134220000,0.0324,0.013523,0.002678,0.000431,0.251393
134221000,0.0324,0.013523,0.002678,0.000431,0.229885
134222000,0.0324,0.013523,0.002678,0.000431,0.196507
134223000,0.0324,0.013523,0.002678,0.000431,0.159956
134224000,0.0324,0.013523,0.002678,0.000431,0.155725
134225000,0.0324,0.013523,0.002678,0.000431,0.144795
134226000,0.0324,0.013523,0.002678,0.000431,0.102132
134227000,0.0324,0.013523,0.002678,0.000431,0.095550
134228000,0.0324,0.013523,0.002678,0.000431,0.086501
134229000,0.0324,0.013523,0.002678,0.000431,0.080859
134230000,0.0324,0.013523,0.002678,0.000431,0.072515
134231000,0.0324,0.013523,0.002678,0.000431,0.069694
134232000,0.0324,0.013523,0.002678,0.000431,0.056178
134233000,0.0324,0.013523,0.002678,0.000431,0.040547
134234000,0.0324,0.013523,0.002678,0.000431,0.039842
134235000,0.0324,0.013523,0.002678,0.000431,0.035964
134236000,0.0324,0.013523,0.002678,0.000431,0.029617
134237000,0.0324,0.013523,0.002678,0.000431,0.024563
134238000,0.0324,0.013523,0.002678,0.000431,0.017629
134239000,0.0324,0.013523,0.002678,0.000431,0.013751
134240000,0.0324,0.013523,0.002678,0.000431,0.016454
134241000,0.0324,0.013523,0.002678,0.000431,0.014221
134242000,0.0324,0.013523,0.002678,0.000431,0.015279
134243000,0.0324,0.013523,0.002678,0.000431,0.011048
134244000,0.0324,0.013523,0.002678,0.000431,0.010578
134245000,0.0324,0.013523,0.002678,0.000431,0.017747
134246000,0.0324,0.013523,0.002678,0.000431,0.013516
134247000,0.0324,0.013523,0.002678,0.000431,0.010225
134248000,0.0324,0.013523,0.002678,0.000431,0.007992
134249000,0.0324,0.013523,0.002678,0.000431,0.010813
134250000,0.0324,0.013523,0.002678,0.000431,0.006934
134251000,0.0324,0.013523,0.002678,0.000431,0.006229
134252000,0.0324,0.013523,0.002678,0.000431,0.007522
134253000,0.0324,0.013523,0.002678,0.000431,0.005994
134254000,0.0324,0.013523,0.002678,0.000431,0.007992
134255000,0.0324,0.013523,0.002678,0.000431,0.006229
134256000,0.0324,0.013523,0.002678,0.000431,0.007287
134257000,0.0324,0.013523,0.002678,0.000431,0.005171
134258000,0.0324,0.013523,0.002678,0.000431,0.006229
134259000,0.0324,0.013523,0.002678,0.000431,0.005759
134260000,0.0324,0.013523,0.002678,0.000431,0.006111
134261000,0.0324,0.013523,0.002678,0.000431,0.006817
134262000,0.0324,0.013523,0.002678,0.000431,0.005524
134263000,0.0324,0.013523,0.002678,0.000431,0.008227
134264000,0.0324,0.013523,0.002678,0.000431,0.005289
134265000,0.0324,0.013523,0.002678,0.000431,0.005759
134266000,0.0324,0.013523,0.002678,0.000431,0.005171
134267000,0.0324,0.013523,0.002678,0.000431,0.004466
134268000,0.0324,0.013523,0.002678,0.000431,0.003643
134269000,0.0324,0.013523,0.002678,0.000431,0.004466
134270000,0.0324,0.013523,0.002678,0.000431,0.003878
134271000,0.0324,0.013523,0.002678,0.000431,0.004349
134272000,0.0324,0.013523,0.002678,0.000431,0.003878
134273000,0.0324,0.013523,0.002678,0.000431,0.004113
134274000,0.0324,0.013523,0.002678,0.000431,0.004113
134275000,0.0324,0.013523,0.002678,0.000431,0.003996
134276000,0.0324,0.013523,0.002678,0.000431,0.004584
134277000,0.0324,0.013523,0.002678,0.000431,0.003761
134278000,0.0324,0.013523,0.002678,0.000431,0.004231
134279000,0.0324,0.013523,0.002678,0.000431,0.003996
134280000,0.0324,0.013523,0.002678,0.000431,0.006817
134281000,0.0324,0.013523,0.002678,0.000431,0.003291
134282000,0.0324,0.013523,0.002678,0.000431,0.002938
134283000,0.0324,0.013523,0.002678,0.000431,0.003408
134284000,0.0324,0.013523,0.002678,0.000431,0.003056
134285000,0.0324,0.013523,0.002678,0.000431,0.003761
134286000,0.0324,0.013523,0.002678,0.000431,0.002586
134287000,0.0324,0.013523,0.002678,0.000431,0.003526
134288000,0.0324,0.013523,0.002678,0.000431,0.002468
134289000,0.0324,0.013523,0.002678,0.000431,0.002586
134290000,0.0324,0.013523,0.002678,0.000431,0.002468
134291000,0.0324,0.013523,0.002678,0.000431,0.002468
134292000,0.0324,0.013523,0.002678,0.000431,0.002703
134293000,0.0324,0.013523,0.002678,0.000431,0.002468
134294000,0.0324,0.013523,0.002678,0.000431,0.002468
134295000,0.0324,0.013523,0.002678,0.000431,0.002468
134296000,0.0324,0.013523,0.002678,0.000431,0.002586
134297000,0.0324,0.013523,0.002678,0.000431,0.002351
134298000,0.0324,0.013523,0.002678,0.000431,0.002586
134299000,0.0324,0.013523,0.002678,0.000431,0.002233
134300000,0.0324,0.013523,0.002678,0.000431,0.003056
134301000,0.0324,0.013523,0.002678,0.000431,0.002586
134302000,0.0324,0.013523,0.002678,0.000431,0.002233
134303000,0.0324,0.013523,0.002678,0.000431,0.002821
134304000,0.0324,0.013523,0.002678,0.000431,0.002468
134305000,0.0324,0.013523,0.002678,0.000431,0.002586
134306000,0.0324,0.013523,0.002678,0.000431,0.002468
134307000,0.0324,0.013523,0.002678,0.000431,0.002586
134308000,0.0324,0.013523,0.002678,0.000431,0.002821
134309000,0.0324,0.013523,0.002678,0.000431,0.002233
134310000,0.0324,0.013523,0.002678,0.000431,0.002703
134311000,0.0324,0.013523,0.002678,0.000431,0.002586
134312000,0.0324,0.013523,0.002678,0.000431,0.002233
134313000,0.0324,0.013523,0.002678,0.000431,0.002821
134314000,0.0324,0.013523,0.002678,0.000431,0.002233
134315000,0.0324,0.013523,0.002678,0.000431,0.002821
134316000,0.0324,0.013523,0.002678,0.000431,0.002703
134317000,0.0324,0.013523,0.002678,0.000431,0.002116
134318000,0.0324,0.013523,0.002678,0.000431,0.002703
134319000,0.0324,0.013523,0.002678,0.000431,0.002233
134320000,0.0324,0.013523,0.002678,0.000431,0.002821
134321000,0.0324,0.013523,0.002678,0.000431,0.002468
134322000,0.0324,0.013523,0.002678,0.000431,0.002821
134323000,0.0324,0.013523,0.002678,0.000431,0.002351
134324000,0.0324,0.013523,0.002678,0.000431,0.004936
134325000,0.0324,0.013523,0.002678,0.000431,0.003173
134326000,0.0324,0.013523,0.002678,0.000431,0.001645
134327000,0.0324,0.013523,0.002678,0.000431,0.001880
134328000,0.0324,0.013523,0.002678,0.000431,0.001175
134329000,0.0324,0.013523,0.002678,0.000431,0.001880
134330000,0.0324,0.013523,0.002678,0.000431,0.001410
134331000,0.0324,0.013523,0.002678,0.000431,0.001645
134332000,0.0324,0.013523,0.002678,0.000431,0.001645
134333000,0.0324,0.013523,0.002678,0.000431,0.001410
134334000,0.0324,0.013523,0.002678,0.000431,0.001645
134335000,0.0324,0.013523,0.002678,0.000431,0.001645
134336000,0.0324,0.013523,0.002678,0.000431,0.001410
134337000,0.0324,0.013523,0.002678,0.000431,0.001645
134338000,0.0324,0.013523,0.002678,0.000431,0.001645
134339000,0.0324,0.013523,0.002678,0.000431,0.001410
134340000,0.0324,0.013523,0.002678,0.000431,0.001880
134341000,0.0324,0.013523,0.002678,0.000431,0.001175
134342000,0.0324,0.013523,0.002678,0.000431,0.001880
134343000,0.0324,0.013523,0.002678,0.000431,0.001410
134344000,0.0324,0.013523,0.002678,0.000431,0.001645
134345000,0.0324,0.013523,0.002678,0.000431,0.001410
134346000,0.0324,0.013523,0.002678,0.000431,0.001645
134347000,0.0324,0.013523,0.002678,0.000431,0.001880
134348000,0.0324,0.013523,0.002678,0.000431,0.001175
134349000,0.0324,0.013523,0.002678,0.000431,0.001880
134350000,0.0324,0.013523,0.002678,0.000431,0.001410
134351000,0.0324,0.013523,0.002678,0.000431,0.001645
134352000,0.0324,0.013523,0.002678,0.000431,0.001645
134353000,0.0324,0.013523,0.002678,0.000431,0.001410
134354000,0.0324,0.013523,0.002678,0.000431,0.001645
134355000,0.0324,0.013523,0.002678,0.000431,0.001645
134356000,0.0324,0.013523,0.002678,0.000431,0.001645
134357000,0.0324,0.013523,0.002678,0.000431,0.001410
134358000,0.0324,0.013523,0.002678,0.000431,0.001645
134359000,0.0324,0.013523,0.002678,0.000431,0.001645
134360000,0.0324,0.013523,0.002678,0.000431,0.001645
134361000,0.0324,0.013523,0.002678,0.000431,0.001410
134362000,0.0324,0.013523,0.002678,0.000431,0.001645
134363000,0.0324,0.013523,0.002678,0.000431,0.001293
134364000,0.0324,0.013523,0.002678,0.000431,0.001763
134365000,0.0324,0.013523,0.002678,0.000431,0.001880
134366000,0.0324,0.013523,0.002678,0.000431,0.001175
134367000,0.0324,0.013523,0.002678,0.000431,0.001880
134368000,0.0324,0.013523,0.002678,0.000431,0.001293
134369000,0.0324,0.013523,0.002678,0.000431,0.001763
134370000,0.0324,0.013523,0.002678,0.000431,0.001645
134371000,0.0324,0.013523,0.002678,0.000431,0.001410
134372000,0.0324,0.013523,0.002678,0.000431,0.001645
134373000,0.0324,0.013523,0.002678,0.000431,0.001528
134374000,0.0324,0.013523,0.002678,0.000431,0.001528
134375000,0.0324,0.013523,0.002678,0.000431,0.001645
134376000,0.0324,0.013523,0.002678,0.000431,0.001645
134377000,0.0324,0.013523,0.002678,0.000431,0.001410
134378000,0.0324,0.013523,0.002678,0.000431,0.001645
134379000,0.0324,0.013523,0.002678,0.000431,0.001645
134380000,0.0324,0.013523,0.002678,0.000431,0.001645
134381000,0.0324,0.013523,0.002678,0.000431,0.001410
134382000,0.0324,0.013523,0.002678,0.000431,0.001645
134383000,0.0324,0.013523,0.002678,0.000431,0.001410
134384000,0.0324,0.013523,0.002678,0.000431,0.001645
134385000,0.0324,0.013523,0.002678,0.000431,0.001880
134386000,0.0324,0.013523,0.002678,0.000431,0.001175
134387000,0.0324,0.013523,0.002678,0.000431,0.001880
134388000,0.0324,0.013523,0.002678,0.000431,0.001410
134389000,0.0324,0.013523,0.002678,0.000431,0.001645
134390000,0.0324,0.013523,0.002678,0.000431,0.001645
134391000,0.0324,0.013523,0.002678,0.000431,0.001410
134392000,0.0324,0.013523,0.002678,0.000431,0.001293
134393000,0.0324,0.013523,0.002678,0.000431,0.001528
134394000,0.0324,0.013523,0.002678,0.000431,0.001175
134395000,0.0324,0.013523,0.002678,0.000431,0.002468
134396000,0.0324,0.013523,0.002678,0.000431,0.627600
134397000,0.0324,0.013523,0.002678,0.000431,0.720448
134398000,0.0324,0.013523,0.002678,0.000431,0.260560
134399000,0.0324,0.013523,0.002678,0.000431,0.158075
134400000,0.0324,0.013523,0.002678,0.000431,0.531110
134401000,0.0324,0.013523,0.002678,0.000431,0.264438
134402000,0.0324,0.013523,0.002678,0.000431,0.353055
134403000,0.0324,0.013523,0.002678,0.000431,0.200503
134404000,0.0324,0.013523,0.002678,0.000431,0.188045
134405000,0.0324,0.013523,0.002678,0.000431,0.092142
134406000,0.0324,0.013523,0.002678,0.000431,0.574478
134407000,0.0324,0.013523,0.002678,0.000431,0.383730
134408000,0.0324,0.013523,0.002678,0.000431,0.283713
134409000,0.0324,0.013523,0.002678,0.000431,0.260090
134410000,0.0324,0.013523,0.002678,0.000431,0.216134
134411000,0.0324,0.013523,0.002678,0.000431,0.187693
134412000,0.0324,0.013523,0.002678,0.000431,0.171591
134413000,0.0324,0.013523,0.002678,0.000431,0.119174
134414000,0.0324,0.013523,0.002678,0.000431,0.112827
134415000,0.0324,0.013523,0.002678,0.000431,0.090379
134416000,0.0324,0.013523,0.002678,0.000431,0.088616
134417000,0.0324,0.013523,0.002678,0.000431,0.078509
134418000,0.0324,0.013523,0.002678,0.000431,0.076981
134419000,0.0324,0.013523,0.002678,0.000431,0.059469
134420000,0.0324,0.013523,0.002678,0.000431,0.045836
134421000,0.0324,0.013523,0.002678,0.000431,0.035729
134422000,0.0324,0.013523,0.002678,0.000431,0.034201
134423000,0.0324,0.013523,0.002678,0.000431,0.036081
134424000,0.0324,0.013523,0.002678,0.000431,0.029735
134425000,0.0324,0.013523,0.002678,0.000431,0.021038
134426000,0.0324,0.013523,0.002678,0.000431,0.015866
134427000,0.0324,0.013523,0.002678,0.000431,0.015279
134428000,0.0324,0.013523,0.002678,0.000431,0.018334
134429000,0.0324,0.013523,0.002678,0.000431,0.017394
134430000,0.0324,0.013523,0.002678,0.000431,0.015631
134431000,0.0324,0.013523,0.002678,0.000431,0.012928
134432000,0.0324,0.013523,0.002678,0.000431,0.012340
134433000,0.0324,0.013523,0.002678,0.000431,0.008227
134434000,0.0324,0.013523,0.002678,0.000431,0.008815
134435000,0.0324,0.013523,0.002678,0.000431,0.008345
134436000,0.0324,0.013523,0.002678,0.000431,0.005876
134437000,0.0324,0.013523,0.002678,0.000431,0.010342
134438000,0.0324,0.013523,0.002678,0.000431,0.004231
134439000,0.0324,0.013523,0.002678,0.000431,0.003173
134440000,0.0324,0.013523,0.002678,0.000431,0.006111
134441000,0.0324,0.013523,0.002678,0.000431,0.003173
134442000,0.0324,0.013523,0.002678,0.000431,0.001763
134443000,0.0324,0.013523,0.002678,0.000431,0.002938
134444000,0.0324,0.013523,0.002678,0.000431,0.001998
134445000,0.0324,0.013523,0.002678,0.000431,0.002116
134446000,0.0324,0.013523,0.002678,0.000431,0.002703
134447000,0.0324,0.013523,0.002678,0.000431,0.001998
134448000,0.0324,0.013523,0.002678,0.000431,0.002703
134449000,0.0324,0.013523,0.002678,0.000431,0.002116
134450000,0.0324,0.013523,0.002678,0.000431,0.002351
134451000,0.0324,0.013523,0.002678,0.000431,0.003526
134452000,0.0324,0.013523,0.002678,0.000431,0.002351
134453000,0.0324,0.013523,0.002678,0.000431,0.002116
134454000,0.0324,0.013523,0.002678,0.000431,0.002821
134455000,0.0324,0.013523,0.002678,0.000431,0.001880
134456000,0.0324,0.013523,0.002678,0.000431,0.002821
134457000,0.0324,0.013523,0.002678,0.000431,0.002586
134458000,0.0324,0.013523,0.002678,0.000431,0.002468
134459000,0.0324,0.013523,0.002678,0.000431,0.003056
134460000,0.0324,0.013523,0.002678,0.000431,0.002233
134461000,0.0324,0.013523,0.002678,0.000431,0.002821
134462000,0.0324,0.013523,0.002678,0.000431,0.001998
134463000,0.0324,0.013523,0.002678,0.000431,0.002468
134464000,0.0324,0.013523,0.002678,0.000431,0.002586
134465000,0.0324,0.013523,0.002678,0.000431,0.004701
134466000,0.0324,0.013523,0.002678,0.000431,0.001763
134467000,0.0324,0.013523,0.002678,0.000431,0.015396
134468000,0.0324,0.013523,0.002678,0.000431,0.840914
134469000,0.0324,0.013523,0.002678,0.000431,0.588581
134470000,0.0324,0.013523,0.002678,0.000431,0.250453
134471000,0.0324,0.013523,0.002678,0.000431,0.161601
134472000,0.0324,0.013523,0.002678,0.000431,0.605035
134473000,0.0324,0.013523,0.002678,0.000431,0.247279
134474000,0.0324,0.013523,0.002678,0.000431,0.365278
134475000,0.0324,0.013523,0.002678,0.000431,0.155607
134476000,0.0324,0.013523,0.002678,0.000431,0.143502
134477000,0.0324,0.013523,0.002678,0.000431,0.239170
134478000,0.0324,0.013523,0.002678,0.000431,0.564958
134479000,0.0324,0.013523,0.002678,0.000431,0.282303
134480000,0.0324,0.013523,0.002678,0.000431,0.233528
134481000,0.0324,0.013523,0.002678,0.000431,0.215312
134482000,0.0324,0.013523,0.002678,0.000431,0.179936
134483000,0.0324,0.013523,0.002678,0.000431,0.157370
134484000,0.0324,0.013523,0.002678,0.000431,0.128576
134485000,0.0324,0.013523,0.002678,0.000431,0.124462
134486000,0.0324,0.013523,0.002678,0.000431,0.097901
134487000,0.0324,0.013523,0.002678,0.000431,0.096138
134488000,0.0324,0.013523,0.002678,0.000431,0.083327
134489000,0.0324,0.013523,0.002678,0.000431,0.070399
134490000,0.0324,0.013523,0.002678,0.000431,0.054533
134491000,0.0324,0.013523,0.002678,0.000431,0.046659
134492000,0.0324,0.013523,0.002678,0.000431,0.045836
134493000,0.0324,0.013523,0.002678,0.000431,0.034671
134494000,0.0324,0.013523,0.002678,0.000431,0.037021
134495000,0.0324,0.013523,0.002678,0.000431,0.038784
134496000,0.0324,0.013523,0.002678,0.000431,0.021978
134497000,0.0324,0.013523,0.002678,0.000431,0.025504
134498000,0.0324,0.013523,0.002678,0.000431,0.023271
134499000,0.0324,0.013523,0.002678,0.000431,0.016454
134500000,0.0324,0.013523,0.002678,0.000431,0.021390
134501000,0.0324,0.013523,0.002678,0.000431,0.016924
134502000,0.0324,0.013523,0.002678,0.000431,0.014691
134503000,0.0324,0.013523,0.002678,0.000431,0.016807
134504000,0.0324,0.013523,0.002678,0.000431,0.015396
134505000,0.0324,0.013523,0.002678,0.000431,0.012811
134506000,0.0324,0.013523,0.002678,0.000431,0.006464
134507000,0.0324,0.013523,0.002678,0.000431,0.008580
134508000,0.0324,0.013523,0.002678,0.000431,0.011165
134509000,0.0324,0.013523,0.002678,0.000431,0.003291
134510000,0.0324,0.013523,0.002678,0.000431,0.003526
134511000,0.0324,0.013523,0.002678,0.000431,0.003291
134512000,0.0324,0.013523,0.002678,0.000431,0.004936
134513000,0.0324,0.013523,0.002678,0.000431,0.001645
134514000,0.0324,0.013523,0.002678,0.000431,0.001645
134515000,0.0324,0.013523,0.002678,0.000431,0.001645
134516000,0.0324,0.013523,0.002678,0.000431,0.001645
134517000,0.0324,0.013523,0.002678,0.000431,0.001763
134518000,0.0324,0.013523,0.002678,0.000431,0.003173
134519000,0.0324,0.013523,0.002678,0.000431,0.000940
134520000,0.0324,0.013523,0.002678,0.000431,0.000823
134521000,0.0324,0.013523,0.002678,0.000431,0.000823
134522000,0.0324,0.013523,0.002678,0.000431,0.000823
134523000,0.0324,0.013523,0.002678,0.000431,0.000940
134524000,0.0324,0.013523,0.002678,0.000431,0.073925
134525000,0.0324,0.013523,0.002678,0.000431,0.854900
134526000,0.0324,0.013523,0.002678,0.000431,0.586231
134527000,0.0324,0.013523,0.002678,0.000431,0.159838
134528000,0.0324,0.013523,0.002678,0.000431,0.223891
134529000,0.0324,0.013523,0.002678,0.000431,0.600451
134530000,0.0324,0.013523,0.002678,0.000431,0.272078
134531000,0.0324,0.013523,0.002678,0.000431,0.321205
134532000,0.0324,0.013523,0.002678,0.000431,0.158546
134533000,0.0324,0.013523,0.002678,0.000431,0.099076
134534000,0.0324,0.013523,0.002678,0.000431,0.425805
134535000,0.0324,0.013523,0.002678,0.000431,0.475519
134536000,0.0324,0.013523,0.002678,0.000431,0.284536
134537000,0.0324,0.013523,0.002678,0.000431,0.264321
134538000,0.0324,0.013523,0.002678,0.000431,0.222011
134539000,0.0324,0.013523,0.002678,0.000431,0.203911
134540000,0.0324,0.013523,0.002678,0.000431,0.172884
134541000,0.0324,0.013523,0.002678,0.000431,0.146440
134542000,0.0324,0.013523,0.002678,0.000431,0.118586
134543000,0.0324,0.013523,0.002678,0.000431,0.112122
134544000,0.0324,0.013523,0.002678,0.000431,0.097548
134545000,0.0324,0.013523,0.002678,0.000431,0.085913
134546000,0.0324,0.013523,0.002678,0.000431,0.078509
134547000,0.0324,0.013523,0.002678,0.000431,0.047951
134548000,0.0324,0.013523,0.002678,0.000431,0.045013
134549000,0.0324,0.013523,0.002678,0.000431,0.035729
134550000,0.0324,0.013523,0.002678,0.000431,0.027737
134551000,0.0324,0.013523,0.002678,0.000431,0.021390
134552000,0.0324,0.013523,0.002678,0.000431,0.027149
134553000,0.0324,0.013523,0.002678,0.000431,0.026444
134554000,0.0324,0.013523,0.002678,0.000431,0.022448
134555000,0.0324,0.013523,0.002678,0.000431,0.019627
134556000,0.0324,0.013523,0.002678,0.000431,0.012458
134557000,0.0324,0.013523,0.002678,0.000431,0.010342
134558000,0.0324,0.013523,0.002678,0.000431,0.011753
134559000,0.0324,0.013523,0.002678,0.000431,0.006699
134560000,0.0324,0.013523,0.002678,0.000431,0.006934
134561000,0.0324,0.013523,0.002678,0.000431,0.006111
134562000,0.0324,0.013523,0.002678,0.000431,0.001763
134563000,0.0324,0.013523,0.002678,0.000431,0.005289
134564000,0.0324,0.013523,0.002678,0.000431,0.000940
134565000,0.0324,0.013523,0.002678,0.000431,0.002351
134566000,0.0324,0.013523,0.002678,0.000431,0.550502
134567000,0.0324,0.013523,0.002678,0.000431,0.707755
134568000,0.0324,0.013523,0.002678,0.000431,0.389136
134569000,0.0324,0.013523,0.002678,0.000431,0.167008
134570000,0.0324,0.013523,0.002678,0.000431,0.586348
134571000,0.0324,0.013523,0.002678,0.000431,0.274663
134572000,0.0324,0.013523,0.002678,0.000431,0.305456
134573000,0.0324,0.013523,0.002678,0.000431,0.203559
134574000,0.0324,0.013523,0.002678,0.000431,0.181111
134575000,0.0324,0.013523,0.002678,0.000431,0.093787
134576000,0.0324,0.013523,0.002678,0.000431,0.560492
134577000,0.0324,0.013523,0.002678,0.000431,0.349999
134578000,0.0324,0.013523,0.002678,0.000431,0.253978
134579000,0.0324,0.013523,0.002678,0.000431,0.235879
134580000,0.0324,0.013523,0.002678,0.000431,0.201796
134581000,0.0324,0.013523,0.002678,0.000431,0.179583
134582000,0.0324,0.013523,0.002678,0.000431,0.148556
134583000,0.0324,0.013523,0.002678,0.000431,0.135980
134584000,0.0324,0.013523,0.002678,0.000431,0.113415
134585000,0.0324,0.013523,0.002678,0.000431,0.095550
134586000,0.0324,0.013523,0.002678,0.000431,0.089556
134587000,0.0324,0.013523,0.002678,0.000431,0.074160
134588000,0.0324,0.013523,0.002678,0.000431,0.061585
134589000,0.0324,0.013523,0.002678,0.000431,0.056414
134590000,0.0324,0.013523,0.002678,0.000431,0.051242
134591000,0.0324,0.013523,0.002678,0.000431,0.046541
134592000,0.0324,0.013523,0.002678,0.000431,0.042428
134593000,0.0324,0.013523,0.002678,0.000431,0.039019
134594000,0.0324,0.013523,0.002678,0.000431,0.026679
134595000,0.0324,0.013523,0.002678,0.000431,0.022918
134596000,0.0324,0.013523,0.002678,0.000431,0.025974
134597000,0.0324,0.013523,0.002678,0.000431,0.025269
134598000,0.0324,0.013523,0.002678,0.000431,0.028677
134599000,0.0324,0.013523,0.002678,0.000431,0.013046
134600000,0.0324,0.013523,0.002678,0.000431,0.015161
134601000,0.0324,0.013523,0.002678,0.000431,0.016454
134602000,0.0324,0.013523,0.002678,0.000431,0.018569
134603000,0.0324,0.013523,0.002678,0.000431,0.010813
134604000,0.0324,0.013523,0.002678,0.000431,0.007404
134605000,0.0324,0.013523,0.002678,0.000431,0.007404
134606000,0.0324,0.013523,0.002678,0.000431,0.009285
134607000,0.0324,0.013523,0.002678,0.000431,0.012458
134608000,0.0324,0.013523,0.002678,0.000431,0.010695
134609000,0.0324,0.013523,0.002678,0.000431,0.003291
134610000,0.0324,0.013523,0.002678,0.000431,0.003056
134611000,0.0324,0.013523,0.002678,0.000431,0.003408
134612000,0.0324,0.013523,0.002678,0.000431,0.002586
134613000,0.0324,0.013523,0.002678,0.000431,0.005876
134614000,0.0324,0.013523,0.002678,0.000431,0.002116
134615000,0.0324,0.013523,0.002678,0.000431,0.003526
134616000,0.0324,0.013523,0.002678,0.000431,0.003056
134617000,0.0324,0.013523,0.002678,0.000431,0.000705
134618000,0.0324,0.013523,0.002678,0.000431,0.000940
134619000,0.0324,0.013523,0.002678,0.000431,0.000940
134620000,0.0324,0.013523,0.002678,0.000431,0.000705
134621000,0.0324,0.013523,0.002678,0.000431,0.000823
134622000,0.0324,0.013523,0.002678,0.000431,0.000940
134623000,0.0324,0.013523,0.002678,0.000431,0.000823
134624000,0.0324,0.013523,0.002678,0.000431,0.000705
134625000,0.0324,0.013523,0.002678,0.000431,0.000940
134626000,0.0324,0.013523,0.002678,0.000431,0.000823
134627000,0.0324,0.013523,0.002678,0.000431,0.000823
134628000,0.0324,0.013523,0.002678,0.000431,0.000705
134629000,0.0324,0.013523,0.002678,0.000431,0.000940
134630000,0.0324,0.013523,0.002678,0.000431,0.000940
134631000,0.0324,0.013523,0.002678,0.000431,0.013868
134632000,0.0324,0.013523,0.002678,0.000431,0.845263
134633000,0.0324,0.013523,0.002678,0.000431,0.579767
134634000,0.0324,0.013523,0.002678,0.000431,0.185577
134635000,0.0324,0.013523,0.002678,0.000431,0.159251
134636000,0.0324,0.013523,0.002678,0.000431,0.569307
134637000,0.0324,0.013523,0.002678,0.000431,0.261735
134638000,0.0324,0.013523,0.002678,0.000431,0.368686
134639000,0.0324,0.013523,0.002678,0.000431,0.174999
134640000,0.0324,0.013523,0.002678,0.000431,0.146440
134641000,0.0324,0.013523,0.002678,0.000431,0.172061
134642000,0.0324,0.013523,0.002678,0.000431,0.558259
134643000,0.0324,0.013523,0.002678,0.000431,0.334250
134644000,0.0324,0.013523,0.002678,0.000431,0.248690
134645000,0.0324,0.013523,0.002678,0.000431,0.219778
134646000,0.0324,0.013523,0.002678,0.000431,0.195214
134647000,0.0324,0.013523,0.002678,0.000431,0.149848
134648000,0.0324,0.013523,0.002678,0.000431,0.141151
134649000,0.0324,0.013523,0.002678,0.000431,0.120349
134650000,0.0324,0.013523,0.002678,0.000431,0.111299
134651000,0.0324,0.013523,0.002678,0.000431,0.105305
134652000,0.0324,0.013523,0.002678,0.000431,0.091319
134653000,0.0324,0.013523,0.002678,0.000431,0.073690
134654000,0.0324,0.013523,0.002678,0.000431,0.059352
134655000,0.0324,0.013523,0.002678,0.000431,0.059469
134656000,0.0324,0.013523,0.002678,0.000431,0.056531
134657000,0.0324,0.013523,0.002678,0.000431,0.054298
134658000,0.0324,0.013523,0.002678,0.000431,0.045836
134659000,0.0324,0.013523,0.002678,0.000431,0.038667
134660000,0.0324,0.013523,0.002678,0.000431,0.030087
134661000,0.0324,0.013523,0.002678,0.000431,0.031380
134662000,0.0324,0.013523,0.002678,0.000431,0.028442
134663000,0.0324,0.013523,0.002678,0.000431,0.023623
134664000,0.0324,0.013523,0.002678,0.000431,0.020685
134665000,0.0324,0.013523,0.002678,0.000431,0.026091
134666000,0.0324,0.013523,0.002678,0.000431,0.016924
134667000,0.0324,0.013523,0.002678,0.000431,0.016807
134668000,0.0324,0.013523,0.002678,0.000431,0.019157
134669000,0.0324,0.013523,0.002678,0.000431,0.018687
134670000,0.0324,0.013523,0.002678,0.000431,0.016571
134671000,0.0324,0.013523,0.002678,0.000431,0.014103
134672000,0.0324,0.013523,0.002678,0.000431,0.016689
134673000,0.0324,0.013523,0.002678,0.000431,0.012811
134674000,0.0324,0.013523,0.002678,0.000431,0.011048
134675000,0.0324,0.013523,0.002678,0.000431,0.012576
134676000,0.0324,0.013523,0.002678,0.000431,0.011753
134677000,0.0324,0.013523,0.002678,0.000431,0.007287
134678000,0.0324,0.013523,0.002678,0.000431,0.016689
134679000,0.0324,0.013523,0.002678,0.000431,0.005289
134680000,0.0324,0.013523,0.002678,0.000431,0.005876
134681000,0.0324,0.013523,0.002678,0.000431,0.005994
134682000,0.0324,0.013523,0.002678,0.000431,0.005289
134683000,0.0324,0.013523,0.002678,0.000431,0.005289
134684000,0.0324,0.013523,0.002678,0.000431,0.005876
134685000,0.0324,0.013523,0.002678,0.000431,0.005759
134686000,0.0324,0.013523,0.002678,0.000431,0.004819
134687000,0.0324,0.013523,0.002678,0.000431,0.004701
134688000,0.0324,0.013523,0.002678,0.000431,0.004349
134689000,0.0324,0.013523,0.002678,0.000431,0.007992
134690000,0.0324,0.013523,0.002678,0.000431,0.003878
134691000,0.0324,0.013523,0.002678,0.000431,0.002938
134692000,0.0324,0.013523,0.002678,0.000431,0.004466
134693000,0.0324,0.013523,0.002678,0.000431,0.003408
134694000,0.0324,0.013523,0.002678,0.000431,0.003291
134695000,0.0324,0.013523,0.002678,0.000431,0.003173
134696000,0.0324,0.013523,0.002678,0.000431,0.002233
134697000,0.0324,0.013523,0.002678,0.000431,0.006229
134698000,0.0324,0.013523,0.002678,0.000431,0.002468
134699000,0.0324,0.013523,0.002678,0.000431,0.001645
134700000,0.0324,0.013523,0.002678,0.000431,0.079214
134701000,0.0324,0.013523,0.002678,0.000431,0.880991
134702000,0.0324,0.013523,0.002678,0.000431,0.538984
134703000,0.0324,0.013523,0.002678,0.000431,0.208495
134704000,0.0324,0.013523,0.002678,0.000431,0.231060
134705000,0.0324,0.013523,0.002678,0.000431,0.598454
134706000,0.0324,0.013523,0.002678,0.000431,0.259855
134707000,0.0324,0.013523,0.002678,0.000431,0.297816
134708000,0.0324,0.013523,0.002678,0.000431,0.160073
134709000,0.0324,0.013523,0.002678,0.000431,0.115295
134710000,0.0324,0.013523,0.002678,0.000431,0.343182
134711000,0.0324,0.013523,0.002678,0.000431,0.547916
134712000,0.0324,0.013523,0.002678,0.000431,0.266789
134713000,0.0324,0.013523,0.002678,0.000431,0.228475
134714000,0.0324,0.013523,0.002678,0.000431,0.195449
134715000,0.0324,0.013523,0.002678,0.000431,0.166420
134716000,0.0324,0.013523,0.002678,0.000431,0.147733
134717000,0.0324,0.013523,0.002678,0.000431,0.117998
134718000,0.0324,0.013523,0.002678,0.000431,0.114708
134719000,0.0324,0.013523,0.002678,0.000431,0.108596
134720000,0.0324,0.013523,0.002678,0.000431,0.089204
134721000,0.0324,0.013523,0.002678,0.000431,0.067931
134722000,0.0324,0.013523,0.002678,0.000431,0.063818
134723000,0.0324,0.013523,0.002678,0.000431,0.045131
134724000,0.0324,0.013523,0.002678,0.000431,0.046894
134725000,0.0324,0.013523,0.002678,0.000431,0.043485
134726000,0.0324,0.013523,0.002678,0.000431,0.025856
134727000,0.0324,0.013523,0.002678,0.000431,0.021508
134728000,0.0324,0.013523,0.002678,0.000431,0.021625
134729000,0.0324,0.013523,0.002678,0.000431,0.016689
134730000,0.0324,0.013523,0.002678,0.000431,0.021860
134731000,0.0324,0.013523,0.002678,0.000431,0.015396
134732000,0.0324,0.013523,0.002678,0.000431,0.018452
134733000,0.0324,0.013523,0.002678,0.000431,0.009050
134734000,0.0324,0.013523,0.002678,0.000431,0.007522
134735000,0.0324,0.013523,0.002678,0.000431,0.009990
134736000,0.0324,0.013523,0.002678,0.000431,0.006347
134737000,0.0324,0.013523,0.002678,0.000431,0.010930
134738000,0.0324,0.013523,0.002678,0.000431,0.008697
134739000,0.0324,0.013523,0.002678,0.000431,0.004819
134740000,0.0324,0.013523,0.002678,0.000431,0.005289
134741000,0.0324,0.013523,0.002678,0.000431,0.008932
134742000,0.0324,0.013523,0.002678,0.000431,0.004231
134743000,0.0324,0.013523,0.002678,0.000431,0.005054
134744000,0.0324,0.013523,0.002678,0.000431,0.005054
134745000,0.0324,0.013523,0.002678,0.000431,0.003408
134746000,0.0324,0.013523,0.002678,0.000431,0.005054
134747000,0.0324,0.013523,0.002678,0.000431,0.002703
134748000,0.0324,0.013523,0.002678,0.000431,0.002116
134749000,0.0324,0.013523,0.002678,0.000431,0.002703
134750000,0.0324,0.013523,0.002678,0.000431,0.001880
134751000,0.0324,0.013523,0.002678,0.000431,0.002586
134752000,0.0324,0.013523,0.002678,0.000431,0.002468
134753000,0.0324,0.013523,0.002678,0.000431,0.002233
134754000,0.0324,0.013523,0.002678,0.000431,0.002468
134755000,0.0324,0.013523,0.002678,0.000431,0.002468
134756000,0.0324,0.013523,0.002678,0.000431,0.002468
134757000,0.0324,0.013523,0.002678,0.000431,0.002233
134758000,0.0324,0.013523,0.002678,0.000431,0.002586
134759000,0.0324,0.013523,0.002678,0.000431,0.002351
134760000,0.0324,0.013523,0.002678,0.000431,0.002586
134761000,0.0324,0.013523,0.002678,0.000431,0.002116
134762000,0.0324,0.013523,0.002678,0.000431,0.002351
134763000,0.0324,0.013523,0.002678,0.000431,0.002351
134764000,0.0324,0.013523,0.002678,0.000431,0.002586
134765000,0.0324,0.013523,0.002678,0.000431,0.002351
134766000,0.0324,0.013523,0.002678,0.000431,0.002351
134767000,0.0324,0.013523,0.002678,0.000431,0.002351
134768000,0.0324,0.013523,0.002678,0.000431,0.002586
134769000,0.0324,0.013523,0.002678,0.000431,0.002351
134770000,0.0324,0.013523,0.002678,0.000431,0.002351
134771000,0.0324,0.013523,0.002678,0.000431,0.002468
134772000,0.0324,0.013523,0.002678,0.000431,0.002233
134773000,0.0324,0.013523,0.002678,0.000431,0.002586
134774000,0.0324,0.013523,0.002678,0.000431,0.002351
134775000,0.0324,0.013523,0.002678,0.000431,0.002351
134776000,0.0324,0.013523,0.002678,0.000431,0.002703
134777000,0.0324,0.013523,0.002678,0.000431,0.002233
134778000,0.0324,0.013523,0.002678,0.000431,0.002468
134779000,0.0324,0.013523,0.002678,0.000431,0.002233
134780000,0.0324,0.013523,0.002678,0.000431,0.002351
134781000,0.0324,0.013523,0.002678,0.000431,0.002821
134782000,0.0324,0.013523,0.002678,0.000431,0.002116
134783000,0.0324,0.013523,0.002678,0.000431,0.002586
134784000,0.0324,0.013523,0.002678,0.000431,0.002351
134785000,0.0324,0.013523,0.002678,0.000431,0.002351
134786000,0.0324,0.013523,0.002678,0.000431,0.002586
134787000,0.0324,0.013523,0.002678,0.000431,0.002351
134788000,0.0324,0.013523,0.002678,0.000431,0.002586
134789000,0.0324,0.013523,0.002678,0.000431,0.006111
134790000,0.0324,0.013523,0.002678,0.000431,0.004936
134791000,0.0324,0.013523,0.002678,0.000431,0.000940
134792000,0.0324,0.013523,0.002678,0.000431,0.000823
134793000,0.0324,0.013523,0.002678,0.000431,0.000823
134794000,0.0324,0.013523,0.002678,0.000431,0.000823
134795000,0.0324,0.013523,0.002678,0.000431,0.000823
134796000,0.0324,0.013523,0.002678,0.000431,0.000940
134797000,0.0324,0.013523,0.002678,0.000431,0.000705
134798000,0.0324,0.013523,0.002678,0.000431,0.000940
134799000,0.0324,0.013523,0.002678,0.000431,0.000705
134800000,0.0324,0.013523,0.002678,0.000431,0.000823
134801000,0.0324,0.013523,0.002678,0.000431,0.000940
134802000,0.0324,0.013523,0.002678,0.000431,0.000823
134803000,0.0324,0.013523,0.002678,0.000431,0.000823
134804000,0.0324,0.013523,0.002678,0.000431,0.000823
134805000,0.0324,0.013523,0.002678,0.000431,0.000823
134806000,0.0324,0.013523,0.002678,0.000431,0.000823
134807000,0.0324,0.013523,0.002678,0.000431,0.000940
134808000,0.0324,0.013523,0.002678,0.000431,0.000705
134809000,0.0324,0.013523,0.002678,0.000431,0.000940
134810000,0.0324,0.013523,0.002678,0.000431,0.000823
134811000,0.0324,0.013523,0.002678,0.000431,0.000823
134812000,0.0324,0.013523,0.002678,0.000431,0.000823
134813000,0.0324,0.013523,0.002678,0.000431,0.000823
134814000,0.0324,0.013523,0.002678,0.000431,0.000940
134815000,0.0324,0.013523,0.002678,0.000431,0.000705
134816000,0.0324,0.013523,0.002678,0.000431,0.000940
134817000,0.0324,0.013523,0.002678,0.000431,0.000823
134818000,0.0324,0.013523,0.002678,0.000431,0.000823
134819000,0.0324,0.013523,0.002678,0.000431,0.000823
134820000,0.0324,0.013523,0.002678,0.000431,0.000823
134821000,0.0324,0.013523,0.002678,0.000431,0.000705
134822000,0.0324,0.013523,0.002678,0.000431,0.000940
134823000,0.0324,0.013523,0.002678,0.000431,0.000940
134824000,0.0324,0.013523,0.002678,0.000431,0.000705
134825000,0.0324,0.013523,0.002678,0.000431,0.000940
134826000,0.0324,0.013523,0.002678,0.000431,0.000705
134827000,0.0324,0.013523,0.002678,0.000431,0.277249
134828000,0.0324,0.013523,0.002678,0.000431,0.782855
134829000,0.0324,0.013523,0.002678,0.000431,0.521120
134830000,0.0324,0.013523,0.002678,0.000431,0.155490
134831000,0.0324,0.013523,0.002678,0.000431,0.309452
134832000,0.0324,0.013523,0.002678,0.000431,0.512658
134833000,0.0324,0.013523,0.002678,0.000431,0.294408
134834000,0.0324,0.013523,0.002678,0.000431,0.268199
134835000,0.0324,0.013523,0.002678,0.000431,0.161249
134836000,0.0324,0.013523,0.002678,0.000431,0.100722
134837000,0.0324,0.013523,0.002678,0.000431,0.445902
134838000,0.0324,0.013523,0.002678,0.000431,0.478692
134839000,0.0324,0.013523,0.002678,0.000431,0.299579
134840000,0.0324,0.013523,0.002678,0.000431,0.270785
134841000,0.0324,0.013523,0.002678,0.000431,0.260795
134842000,0.0324,0.013523,0.002678,0.000431,0.211316
134843000,0.0324,0.013523,0.002678,0.000431,0.188163
134844000,0.0324,0.013523,0.002678,0.000431,0.171591
134845000,0.0324,0.013523,0.002678,0.000431,0.129163
134846000,0.0324,0.013523,0.002678,0.000431,0.121524
134847000,0.0324,0.013523,0.002678,0.000431,0.107891
134848000,0.0324,0.013523,0.002678,0.000431,0.088851
134849000,0.0324,0.013523,0.002678,0.000431,0.066051
134850000,0.0324,0.013523,0.002678,0.000431,0.065698
134851000,0.0324,0.013523,0.002678,0.000431,0.073103
134852000,0.0324,0.013523,0.002678,0.000431,0.060057
134853000,0.0324,0.013523,0.002678,0.000431,0.040195
134854000,0.0324,0.013523,0.002678,0.000431,0.028794
134855000,0.0324,0.013523,0.002678,0.000431,0.035964
134856000,0.0324,0.013523,0.002678,0.000431,0.028207
134857000,0.0324,0.013523,0.002678,0.000431,0.029265
134858000,0.0324,0.013523,0.002678,0.000431,0.028559
134859000,0.0324,0.013523,0.002678,0.000431,0.015044
134860000,0.0324,0.013523,0.002678,0.000431,0.010813
134861000,0.0324,0.013523,0.002678,0.000431,0.011400
134862000,0.0324,0.013523,0.002678,0.000431,0.007874
134863000,0.0324,0.013523,0.002678,0.000431,0.004701
134864000,0.0324,0.013523,0.002678,0.000431,0.005171
134865000,0.0324,0.013523,0.002678,0.000431,0.003408
134866000,0.0324,0.013523,0.002678,0.000431,0.003056
134867000,0.0324,0.013523,0.002678,0.000431,0.005759
134868000,0.0324,0.013523,0.002678,0.000431,0.001645
134869000,0.0324,0.013523,0.002678,0.000431,0.002233
134870000,0.0324,0.013523,0.002678,0.000431,0.004584
134871000,0.0324,0.013523,0.002678,0.000431,0.001058
134872000,0.0324,0.013523,0.002678,0.000431,0.001293
134873000,0.0324,0.013523,0.002678,0.000431,0.000940
134874000,0.0324,0.013523,0.002678,0.000431,0.001528
134875000,0.0324,0.013523,0.002678,0.000431,0.000940
134876000,0.0324,0.013523,0.002678,0.000431,0.074043
134877000,0.0324,0.013523,0.002678,0.000431,0.937170
134878000,0.0324,0.013523,0.002678,0.000431,0.533813
134879000,0.0324,0.013523,0.002678,0.000431,0.217545
134880000,0.0324,0.013523,0.002678,0.000431,0.261500
134881000,0.0324,0.013523,0.002678,0.000431,0.519475
134882000,0.0324,0.013523,0.002678,0.000431,0.302753
134883000,0.0324,0.013523,0.002678,0.000431,0.285123
134884000,0.0324,0.013523,0.002678,0.000431,0.177820
134885000,0.0324,0.013523,0.002678,0.000431,0.104718
134886000,0.0324,0.013523,0.002678,0.000431,0.484921
134887000,0.0324,0.013523,0.002678,0.000431,0.423924
134888000,0.0324,0.013523,0.002678,0.000431,0.264203
134889000,0.0324,0.013523,0.002678,0.000431,0.235644
134890000,0.0324,0.013523,0.002678,0.000431,0.209435
134891000,0.0324,0.013523,0.002678,0.000431,0.176175
134892000,0.0324,0.013523,0.002678,0.000431,0.133982
134893000,0.0324,0.013523,0.002678,0.000431,0.121172
134894000,0.0324,0.013523,0.002678,0.000431,0.121289
134895000,0.0324,0.013523,0.002678,0.000431,0.079567
134896000,0.0324,0.013523,0.002678,0.000431,0.081917
134897000,0.0324,0.013523,0.002678,0.000431,0.069224
134898000,0.0324,0.013523,0.002678,0.000431,0.079332
134899000,0.0324,0.013523,0.002678,0.000431,0.060409
134900000,0.0324,0.013523,0.002678,0.000431,0.038432
134901000,0.0324,0.013523,0.002678,0.000431,0.046541
134902000,0.0324,0.013523,0.002678,0.000431,0.026209
134903000,0.0324,0.013523,0.002678,0.000431,0.019157
134904000,0.0324,0.013523,0.002678,0.000431,0.026914
134905000,0.0324,0.013523,0.002678,0.000431,0.020097
134906000,0.0324,0.013523,0.002678,0.000431,0.014221
134907000,0.0324,0.013523,0.002678,0.000431,0.013986
134908000,0.0324,0.013523,0.002678,0.000431,0.014691
134909000,0.0324,0.013523,0.002678,0.000431,0.009872
134910000,0.0324,0.013523,0.002678,0.000431,0.008345
134911000,0.0324,0.013523,0.002678,0.000431,0.009520
134912000,0.0324,0.013523,0.002678,0.000431,0.013516
134913000,0.0324,0.013523,0.002678,0.000431,0.005406
134914000,0.0324,0.013523,0.002678,0.000431,0.005289
134915000,0.0324,0.013523,0.002678,0.000431,0.004584
134916000,0.0324,0.013523,0.002678,0.000431,0.004466
134917000,0.0324,0.013523,0.002678,0.000431,0.003878
134918000,0.0324,0.013523,0.002678,0.000431,0.003408
134919000,0.0324,0.013523,0.002678,0.000431,0.003408
134920000,0.0324,0.013523,0.002678,0.000431,0.007992
134921000,0.0324,0.013523,0.002678,0.000431,0.003878
134922000,0.0324,0.013523,0.002678,0.000431,0.000940
134923000,0.0324,0.013523,0.002678,0.000431,0.000705
134924000,0.0324,0.013523,0.002678,0.000431,0.000940
134925000,0.0324,0.013523,0.002678,0.000431,0.000705
134926000,0.0324,0.013523,0.002678,0.000431,0.000940
134927000,0.0324,0.013523,0.002678,0.000431,0.049479
134928000,0.0324,0.013523,0.002678,0.000431,0.902264
134929000,0.0324,0.013523,0.002678,0.000431,0.567191
134930000,0.0324,0.013523,0.002678,0.000431,0.173589
134931000,0.0324,0.013523,0.002678,0.000431,0.175705
134932000,0.0324,0.013523,0.002678,0.000431,0.567426
134933000,0.0324,0.013523,0.002678,0.000431,0.267142
134934000,0.0324,0.013523,0.002678,0.000431,0.365043
134935000,0.0324,0.013523,0.002678,0.000431,0.160543
134936000,0.0324,0.013523,0.002678,0.000431,0.128341
134937000,0.0324,0.013523,0.002678,0.000431,0.252686
134938000,0.0324,0.013523,0.002678,0.000431,0.589169
134939000,0.0324,0.013523,0.002678,0.000431,0.318501
134940000,0.0324,0.013523,0.002678,0.000431,0.282420
134941000,0.0324,0.013523,0.002678,0.000431,0.249982
134942000,0.0324,0.013523,0.002678,0.000431,0.190748
134943000,0.0324,0.013523,0.002678,0.000431,0.163952
134944000,0.0324,0.013523,0.002678,0.000431,0.165597
134945000,0.0324,0.013523,0.002678,0.000431,0.133512
134946000,0.0324,0.013523,0.002678,0.000431,0.114472
134947000,0.0324,0.013523,0.002678,0.000431,0.095903
134948000,0.0324,0.013523,0.002678,0.000431,0.079567
134949000,0.0324,0.013523,0.002678,0.000431,0.069929
134950000,0.0324,0.013523,0.002678,0.000431,0.051360
134951000,0.0324,0.013523,0.002678,0.000431,0.055003
134952000,0.0324,0.013523,0.002678,0.000431,0.045013
134953000,0.0324,0.013523,0.002678,0.000431,0.041723
134954000,0.0324,0.013523,0.002678,0.000431,0.040782
134955000,0.0324,0.013523,0.002678,0.000431,0.031968
134956000,0.0324,0.013523,0.002678,0.000431,0.038197
134957000,0.0324,0.013523,0.002678,0.000431,0.029735
134958000,0.0324,0.013523,0.002678,0.000431,0.028794
134959000,0.0324,0.013523,0.002678,0.000431,0.020685
134960000,0.0324,0.013523,0.002678,0.000431,0.021860
134961000,0.0324,0.013523,0.002678,0.000431,0.021273
134962000,0.0324,0.013523,0.002678,0.000431,0.009755
134963000,0.0324,0.013523,0.002678,0.000431,0.009872
134964000,0.0324,0.013523,0.002678,0.000431,0.014573
134965000,0.0324,0.013523,0.002678,0.000431,0.005054
134966000,0.0324,0.013523,0.002678,0.000431,0.006817
134967000,0.0324,0.013523,0.002678,0.000431,0.006464
134968000,0.0324,0.013523,0.002678,0.000431,0.004819
134969000,0.0324,0.013523,0.002678,0.000431,0.005406
134970000,0.0324,0.013523,0.002678,0.000431,0.005641
134971000,0.0324,0.013523,0.002678,0.000431,0.002116
134972000,0.0324,0.013523,0.002678,0.000431,0.003878
134973000,0.0324,0.013523,0.002678,0.000431,0.003173
134974000,0.0324,0.013523,0.002678,0.000431,0.646875
134975000,0.0324,0.013523,0.002678,0.000431,0.686717
134976000,0.0324,0.013523,0.002678,0.000431,0.324260
134977000,0.0324,0.013523,0.002678,0.000431,0.186870
134978000,0.0324,0.013523,0.002678,0.000431,0.519004
134979000,0.0324,0.013523,0.002678,0.000431,0.318736
134980000,0.0324,0.013523,0.002678,0.000431,0.293585
134981000,0.0324,0.013523,0.002678,0.000431,0.219543
134982000,0.0324,0.013523,0.002678,0.000431,0.178408
134983000,0.0324,0.013523,0.002678,0.000431,0.090497
134984000,0.0324,0.013523,0.002678,0.000431,0.564488
134985000,0.0324,0.013523,0.002678,0.000431,0.442023
134986000,0.0324,0.013523,0.002678,0.000431,0.332722
134987000,0.0324,0.013523,0.002678,0.000431,0.270315
134988000,0.0324,0.013523,0.002678,0.000431,0.214842
134989000,0.0324,0.013523,0.002678,0.000431,0.190043
134990000,0.0324,0.013523,0.002678,0.000431,0.190748
134991000,0.0324,0.013523,0.002678,0.000431,0.126108
134992000,0.0324,0.013523,0.002678,0.000431,0.117176
134993000,0.0324,0.013523,0.002678,0.000431,0.112004
134994000,0.0324,0.013523,0.002678,0.000431,0.079802
134995000,0.0324,0.013523,0.002678,0.000431,0.075923
134996000,0.0324,0.013523,0.002678,0.000431,0.064758
134997000,0.0324,0.013523,0.002678,0.000431,0.055356
134998000,0.0324,0.013523,0.002678,0.000431,0.066051
134999000,0.0324,0.013523,0.002678,0.000431,0.045954
