Cycle,Area(mm^2),PeakDynamic(W),SubthresholdLeakage(W),GateLeakage(W),RunTimeDynamic(W)
118000000,0.0324,0.013523,0.002678,0.000431,0.235526
118001000,0.0324,0.013523,0.002678,0.000431,0.197447
118002000,0.0324,0.013523,0.002678,0.000431,0.188515
118003000,0.0324,0.013523,0.002678,0.000431,0.156900
118004000,0.0324,0.013523,0.002678,0.000431,0.146205
118005000,0.0324,0.013523,0.002678,0.000431,0.140681
118006000,0.0324,0.013523,0.002678,0.000431,0.115883
118007000,0.0324,0.013523,0.002678,0.000431,0.102132
118008000,0.0324,0.013523,0.002678,0.000431,0.097666
118009000,0.0324,0.013523,0.002678,0.000431,0.075218
118010000,0.0324,0.013523,0.002678,0.000431,0.075923
118011000,0.0324,0.013523,0.002678,0.000431,0.064993
118012000,0.0324,0.013523,0.002678,0.000431,0.053005
118013000,0.0324,0.013523,0.002678,0.000431,0.052535
118014000,0.0324,0.013523,0.002678,0.000431,0.042075
118015000,0.0324,0.013523,0.002678,0.000431,0.039019
118016000,0.0324,0.013523,0.002678,0.000431,0.040547
118017000,0.0324,0.013523,0.002678,0.000431,0.027737
118018000,0.0324,0.013523,0.002678,0.000431,0.029382
118019000,0.0324,0.013523,0.002678,0.000431,0.032085
118020000,0.0324,0.013523,0.002678,0.000431,0.016689
118021000,0.0324,0.013523,0.002678,0.000431,0.016454
118022000,0.0324,0.013523,0.002678,0.000431,0.019157
118023000,0.0324,0.013523,0.002678,0.000431,0.010930
118024000,0.0324,0.013523,0.002678,0.000431,0.011635
118025000,0.0324,0.013523,0.002678,0.000431,0.006229
118026000,0.0324,0.013523,0.002678,0.000431,0.007874
118027000,0.0324,0.013523,0.002678,0.000431,0.009050
118028000,0.0324,0.013523,0.002678,0.000431,0.004113
118029000,0.0324,0.013523,0.002678,0.000431,0.005876
118030000,0.0324,0.013523,0.002678,0.000431,0.005289
118031000,0.0324,0.013523,0.002678,0.000431,0.003408
118032000,0.0324,0.013523,0.002678,0.000431,0.003526
118033000,0.0324,0.013523,0.002678,0.000431,0.003056
118034000,0.0324,0.013523,0.002678,0.000431,0.003643
118035000,0.0324,0.013523,0.002678,0.000431,0.003408
118036000,0.0324,0.013523,0.002678,0.000431,0.007169
118037000,0.0324,0.013523,0.002678,0.000431,0.004231
118038000,0.0324,0.013523,0.002678,0.000431,0.001528
118039000,0.0324,0.013523,0.002678,0.000431,0.001763
118040000,0.0324,0.013523,0.002678,0.000431,0.001645
118041000,0.0324,0.013523,0.002678,0.000431,0.001645
118042000,0.0324,0.013523,0.002678,0.000431,0.001763
118043000,0.0324,0.013523,0.002678,0.000431,0.001645
118044000,0.0324,0.013523,0.002678,0.000431,0.001645
118045000,0.0324,0.013523,0.002678,0.000431,0.001645
118046000,0.0324,0.013523,0.002678,0.000431,0.001763
118047000,0.0324,0.013523,0.002678,0.000431,0.001528
118048000,0.0324,0.013523,0.002678,0.000431,0.001763
118049000,0.0324,0.013523,0.002678,0.000431,0.001763
118050000,0.0324,0.013523,0.002678,0.000431,0.001645
118051000,0.0324,0.013523,0.002678,0.000431,0.001645
118052000,0.0324,0.013523,0.002678,0.000431,0.001528
118053000,0.0324,0.013523,0.002678,0.000431,0.001763
118054000,0.0324,0.013523,0.002678,0.000431,0.001763
118055000,0.0324,0.013523,0.002678,0.000431,0.001528
118056000,0.0324,0.013523,0.002678,0.000431,0.001880
118057000,0.0324,0.013523,0.002678,0.000431,0.001528
118058000,0.0324,0.013523,0.002678,0.000431,0.001763
118059000,0.0324,0.013523,0.002678,0.000431,0.001645
118060000,0.0324,0.013523,0.002678,0.000431,0.001528
118061000,0.0324,0.013523,0.002678,0.000431,0.001645
118062000,0.0324,0.013523,0.002678,0.000431,0.001880
118063000,0.0324,0.013523,0.002678,0.000431,0.001410
118064000,0.0324,0.013523,0.002678,0.000431,0.001880
118065000,0.0324,0.013523,0.002678,0.000431,0.001410
118066000,0.0324,0.013523,0.002678,0.000431,0.001880
118067000,0.0324,0.013523,0.002678,0.000431,0.004466
118068000,0.0324,0.013523,0.002678,0.000431,0.000823
118069000,0.0324,0.013523,0.002678,0.000431,0.097666
118070000,0.0324,0.013523,0.002678,0.000431,0.773923
118071000,0.0324,0.013523,0.002678,0.000431,0.530287
118072000,0.0324,0.013523,0.002678,0.000431,0.195567
118073000,0.0324,0.013523,0.002678,0.000431,0.204852
118074000,0.0324,0.013523,0.002678,0.000431,0.558141
118075000,0.0324,0.013523,0.002678,0.000431,0.289942
118076000,0.0324,0.013523,0.002678,0.000431,0.367511
118077000,0.0324,0.013523,0.002678,0.000431,0.183344
118078000,0.0324,0.013523,0.002678,0.000431,0.160661
118079000,0.0324,0.013523,0.002678,0.000431,0.151611
118080000,0.0324,0.013523,0.002678,0.000431,0.522295
118081000,0.0324,0.013523,0.002678,0.000431,0.310392
118082000,0.0324,0.013523,0.002678,0.000431,0.221188
118083000,0.0324,0.013523,0.002678,0.000431,0.218485
118084000,0.0324,0.013523,0.002678,0.000431,0.170533
118085000,0.0324,0.013523,0.002678,0.000431,0.148438
118086000,0.0324,0.013523,0.002678,0.000431,0.136215
118087000,0.0324,0.013523,0.002678,0.000431,0.107186
118088000,0.0324,0.013523,0.002678,0.000431,0.092025
118089000,0.0324,0.013523,0.002678,0.000431,0.086618
118090000,0.0324,0.013523,0.002678,0.000431,0.073573
118091000,0.0324,0.013523,0.002678,0.000431,0.070752
118092000,0.0324,0.013523,0.002678,0.000431,0.069577
118093000,0.0324,0.013523,0.002678,0.000431,0.053005
118094000,0.0324,0.013523,0.002678,0.000431,0.059469
118095000,0.0324,0.013523,0.002678,0.000431,0.037609
118096000,0.0324,0.013523,0.002678,0.000431,0.032908
118097000,0.0324,0.013523,0.002678,0.000431,0.030910
118098000,0.0324,0.013523,0.002678,0.000431,0.026561
118099000,0.0324,0.013523,0.002678,0.000431,0.029735
118100000,0.0324,0.013523,0.002678,0.000431,0.017982
118101000,0.0324,0.013523,0.002678,0.000431,0.017982
118102000,0.0324,0.013523,0.002678,0.000431,0.010460
118103000,0.0324,0.013523,0.002678,0.000431,0.013163
118104000,0.0324,0.013523,0.002678,0.000431,0.009167
118105000,0.0324,0.013523,0.002678,0.000431,0.008109
118106000,0.0324,0.013523,0.002678,0.000431,0.008109
118107000,0.0324,0.013523,0.002678,0.000431,0.005406
118108000,0.0324,0.013523,0.002678,0.000431,0.005759
118109000,0.0324,0.013523,0.002678,0.000431,0.005524
118110000,0.0324,0.013523,0.002678,0.000431,0.006934
118111000,0.0324,0.013523,0.002678,0.000431,0.006111
118112000,0.0324,0.013523,0.002678,0.000431,0.003526
118113000,0.0324,0.013523,0.002678,0.000431,0.003408
118114000,0.0324,0.013523,0.002678,0.000431,0.003643
118115000,0.0324,0.013523,0.002678,0.000431,0.003173
118116000,0.0324,0.013523,0.002678,0.000431,0.003761
118117000,0.0324,0.013523,0.002678,0.000431,0.002821
118118000,0.0324,0.013523,0.002678,0.000431,0.003056
118119000,0.0324,0.013523,0.002678,0.000431,0.003761
118120000,0.0324,0.013523,0.002678,0.000431,0.003643
118121000,0.0324,0.013523,0.002678,0.000431,0.002821
118122000,0.0324,0.013523,0.002678,0.000431,0.003173
118123000,0.0324,0.013523,0.002678,0.000431,0.003173
118124000,0.0324,0.013523,0.002678,0.000431,0.002821
118125000,0.0324,0.013523,0.002678,0.000431,0.002938
118126000,0.0324,0.013523,0.002678,0.000431,0.004231
118127000,0.0324,0.013523,0.002678,0.000431,0.001528
118128000,0.0324,0.013523,0.002678,0.000431,0.001410
118129000,0.0324,0.013523,0.002678,0.000431,0.001058
118130000,0.0324,0.013523,0.002678,0.000431,0.001763
118131000,0.0324,0.013523,0.002678,0.000431,0.000940
118132000,0.0324,0.013523,0.002678,0.000431,0.001645
118133000,0.0324,0.013523,0.002678,0.000431,0.001293
118134000,0.0324,0.013523,0.002678,0.000431,0.001293
118135000,0.0324,0.013523,0.002678,0.000431,0.001645
118136000,0.0324,0.013523,0.002678,0.000431,0.000940
118137000,0.0324,0.013523,0.002678,0.000431,0.001645
118138000,0.0324,0.013523,0.002678,0.000431,0.001293
118139000,0.0324,0.013523,0.002678,0.000431,0.001293
118140000,0.0324,0.013523,0.002678,0.000431,0.001528
118141000,0.0324,0.013523,0.002678,0.000431,0.001175
118142000,0.0324,0.013523,0.002678,0.000431,0.001763
118143000,0.0324,0.013523,0.002678,0.000431,0.000823
118144000,0.0324,0.013523,0.002678,0.000431,0.001528
118145000,0.0324,0.013523,0.002678,0.000431,0.001528
118146000,0.0324,0.013523,0.002678,0.000431,0.001293
118147000,0.0324,0.013523,0.002678,0.000431,0.001410
118148000,0.0324,0.013523,0.002678,0.000431,0.001175
118149000,0.0324,0.013523,0.002678,0.000431,0.001410
118150000,0.0324,0.013523,0.002678,0.000431,0.001058
118151000,0.0324,0.013523,0.002678,0.000431,0.015749
118152000,0.0324,0.013523,0.002678,0.000431,0.819877
118153000,0.0324,0.013523,0.002678,0.000431,0.519475
118154000,0.0324,0.013523,0.002678,0.000431,0.239405
118155000,0.0324,0.013523,0.002678,0.000431,0.206144
118156000,0.0324,0.013523,0.002678,0.000431,0.623840
118157000,0.0324,0.013523,0.002678,0.000431,0.245399
118158000,0.0324,0.013523,0.002678,0.000431,0.313330
118159000,0.0324,0.013523,0.002678,0.000431,0.180641
118160000,0.0324,0.013523,0.002678,0.000431,0.178290
118161000,0.0324,0.013523,0.002678,0.000431,0.104130
118162000,0.0324,0.013523,0.002678,0.000431,0.515008
118163000,0.0324,0.013523,0.002678,0.000431,0.305573
118164000,0.0324,0.013523,0.002678,0.000431,0.219073
118165000,0.0324,0.013523,0.002678,0.000431,0.183109
118166000,0.0324,0.013523,0.002678,0.000431,0.162777
118167000,0.0324,0.013523,0.002678,0.000431,0.145500
118168000,0.0324,0.013523,0.002678,0.000431,0.131397
118169000,0.0324,0.013523,0.002678,0.000431,0.112827
118170000,0.0324,0.013523,0.002678,0.000431,0.096491
118171000,0.0324,0.013523,0.002678,0.000431,0.085561
118172000,0.0324,0.013523,0.002678,0.000431,0.082035
118173000,0.0324,0.013523,0.002678,0.000431,0.072045
118174000,0.0324,0.013523,0.002678,0.000431,0.077569
118175000,0.0324,0.013523,0.002678,0.000431,0.049479
118176000,0.0324,0.013523,0.002678,0.000431,0.046659
118177000,0.0324,0.013523,0.002678,0.000431,0.051712
118178000,0.0324,0.013523,0.002678,0.000431,0.039607
118179000,0.0324,0.013523,0.002678,0.000431,0.029852
118180000,0.0324,0.013523,0.002678,0.000431,0.033731
118181000,0.0324,0.013523,0.002678,0.000431,0.028912
118182000,0.0324,0.013523,0.002678,0.000431,0.027737
118183000,0.0324,0.013523,0.002678,0.000431,0.024798
118184000,0.0324,0.013523,0.002678,0.000431,0.030322
118185000,0.0324,0.013523,0.002678,0.000431,0.015631
118186000,0.0324,0.013523,0.002678,0.000431,0.013281
118187000,0.0324,0.013523,0.002678,0.000431,0.012693
118188000,0.0324,0.013523,0.002678,0.000431,0.012811
118189000,0.0324,0.013523,0.002678,0.000431,0.007757
118190000,0.0324,0.013523,0.002678,0.000431,0.011870
118191000,0.0324,0.013523,0.002678,0.000431,0.011870
118192000,0.0324,0.013523,0.002678,0.000431,0.005171
118193000,0.0324,0.013523,0.002678,0.000431,0.005054
118194000,0.0324,0.013523,0.002678,0.000431,0.005289
118195000,0.0324,0.013523,0.002678,0.000431,0.004936
118196000,0.0324,0.013523,0.002678,0.000431,0.005289
118197000,0.0324,0.013523,0.002678,0.000431,0.004936
118198000,0.0324,0.013523,0.002678,0.000431,0.007052
118199000,0.0324,0.013523,0.002678,0.000431,0.005406
118200000,0.0324,0.013523,0.002678,0.000431,0.003291
118201000,0.0324,0.013523,0.002678,0.000431,0.005759
118202000,0.0324,0.013523,0.002678,0.000431,0.002586
118203000,0.0324,0.013523,0.002678,0.000431,0.001528
118204000,0.0324,0.013523,0.002678,0.000431,0.001645
118205000,0.0324,0.013523,0.002678,0.000431,0.001410
118206000,0.0324,0.013523,0.002678,0.000431,0.001880
118207000,0.0324,0.013523,0.002678,0.000431,0.001645
118208000,0.0324,0.013523,0.002678,0.000431,0.001410
118209000,0.0324,0.013523,0.002678,0.000431,0.000823
118210000,0.0324,0.013523,0.002678,0.000431,0.000823
118211000,0.0324,0.013523,0.002678,0.000431,0.000823
118212000,0.0324,0.013523,0.002678,0.000431,0.000940
118213000,0.0324,0.013523,0.002678,0.000431,0.000823
118214000,0.0324,0.013523,0.002678,0.000431,0.016454
118215000,0.0324,0.013523,0.002678,0.000431,0.752298
118216000,0.0324,0.013523,0.002678,0.000431,0.614672
118217000,0.0324,0.013523,0.002678,0.000431,0.146440
118218000,0.0324,0.013523,0.002678,0.000431,0.137743
118219000,0.0324,0.013523,0.002678,0.000431,0.577769
118220000,0.0324,0.013523,0.002678,0.000431,0.235174
118221000,0.0324,0.013523,0.002678,0.000431,0.296289
118222000,0.0324,0.013523,0.002678,0.000431,0.278542
118223000,0.0324,0.013523,0.002678,0.000431,0.149026
118224000,0.0324,0.013523,0.002678,0.000431,0.143737
118225000,0.0324,0.013523,0.002678,0.000431,0.238347
118226000,0.0324,0.013523,0.002678,0.000431,0.527466
118227000,0.0324,0.013523,0.002678,0.000431,0.250218
118228000,0.0324,0.013523,0.002678,0.000431,0.226124
118229000,0.0324,0.013523,0.002678,0.000431,0.189455
118230000,0.0324,0.013523,0.002678,0.000431,0.174882
118231000,0.0324,0.013523,0.002678,0.000431,0.155607
118232000,0.0324,0.013523,0.002678,0.000431,0.129399
118233000,0.0324,0.013523,0.002678,0.000431,0.116000
118234000,0.0324,0.013523,0.002678,0.000431,0.079684
118235000,0.0324,0.013523,0.002678,0.000431,0.072515
118236000,0.0324,0.013523,0.002678,0.000431,0.059587
118237000,0.0324,0.013523,0.002678,0.000431,0.048774
118238000,0.0324,0.013523,0.002678,0.000431,0.033613
118239000,0.0324,0.013523,0.002678,0.000431,0.030792
118240000,0.0324,0.013523,0.002678,0.000431,0.042428
118241000,0.0324,0.013523,0.002678,0.000431,0.022800
118242000,0.0324,0.013523,0.002678,0.000431,0.028324
118243000,0.0324,0.013523,0.002678,0.000431,0.019980
118244000,0.0324,0.013523,0.002678,0.000431,0.013398
118245000,0.0324,0.013523,0.002678,0.000431,0.018217
118246000,0.0324,0.013523,0.002678,0.000431,0.012811
118247000,0.0324,0.013523,0.002678,0.000431,0.009990
118248000,0.0324,0.013523,0.002678,0.000431,0.015279
118249000,0.0324,0.013523,0.002678,0.000431,0.011988
118250000,0.0324,0.013523,0.002678,0.000431,0.009285
118251000,0.0324,0.013523,0.002678,0.000431,0.006111
118252000,0.0324,0.013523,0.002678,0.000431,0.010695
118253000,0.0324,0.013523,0.002678,0.000431,0.003878
118254000,0.0324,0.013523,0.002678,0.000431,0.004466
118255000,0.0324,0.013523,0.002678,0.000431,0.003996
118256000,0.0324,0.013523,0.002678,0.000431,0.005759
118257000,0.0324,0.013523,0.002678,0.000431,0.009637
118258000,0.0324,0.013523,0.002678,0.000431,0.000705
118259000,0.0324,0.013523,0.002678,0.000431,0.000940
118260000,0.0324,0.013523,0.002678,0.000431,0.000940
118261000,0.0324,0.013523,0.002678,0.000431,0.000705
118262000,0.0324,0.013523,0.002678,0.000431,0.000940
118263000,0.0324,0.013523,0.002678,0.000431,0.000705
118264000,0.0324,0.013523,0.002678,0.000431,0.000940
118265000,0.0324,0.013523,0.002678,0.000431,0.000823
118266000,0.0324,0.013523,0.002678,0.000431,0.000823
118267000,0.0324,0.013523,0.002678,0.000431,0.000940
118268000,0.0324,0.013523,0.002678,0.000431,0.000705
118269000,0.0324,0.013523,0.002678,0.000431,0.000940
118270000,0.0324,0.013523,0.002678,0.000431,0.000823
118271000,0.0324,0.013523,0.002678,0.000431,0.000823
118272000,0.0324,0.013523,0.002678,0.000431,0.000823
118273000,0.0324,0.013523,0.002678,0.000431,0.000823
118274000,0.0324,0.013523,0.002678,0.000431,0.000823
118275000,0.0324,0.013523,0.002678,0.000431,0.000823
118276000,0.0324,0.013523,0.002678,0.000431,0.000940
118277000,0.0324,0.013523,0.002678,0.000431,0.000705
118278000,0.0324,0.013523,0.002678,0.000431,0.000940
118279000,0.0324,0.013523,0.002678,0.000431,0.000823
118280000,0.0324,0.013523,0.002678,0.000431,0.000823
118281000,0.0324,0.013523,0.002678,0.000431,0.000705
118282000,0.0324,0.013523,0.002678,0.000431,0.000940
118283000,0.0324,0.013523,0.002678,0.000431,0.000940
118284000,0.0324,0.013523,0.002678,0.000431,0.000705
118285000,0.0324,0.013523,0.002678,0.000431,0.000940
118286000,0.0324,0.013523,0.002678,0.000431,0.000705
118287000,0.0324,0.013523,0.002678,0.000431,0.000940
118288000,0.0324,0.013523,0.002678,0.000431,0.000940
118289000,0.0324,0.013523,0.002678,0.000431,0.000705
118290000,0.0324,0.013523,0.002678,0.000431,0.000940
118291000,0.0324,0.013523,0.002678,0.000431,0.000705
118292000,0.0324,0.013523,0.002678,0.000431,0.000940
118293000,0.0324,0.013523,0.002678,0.000431,0.000823
118294000,0.0324,0.013523,0.002678,0.000431,0.000823
118295000,0.0324,0.013523,0.002678,0.000431,0.000823
118296000,0.0324,0.013523,0.002678,0.000431,0.000823
118297000,0.0324,0.013523,0.002678,0.000431,0.000940
118298000,0.0324,0.013523,0.002678,0.000431,0.000705
118299000,0.0324,0.013523,0.002678,0.000431,0.000940
118300000,0.0324,0.013523,0.002678,0.000431,0.000823
118301000,0.0324,0.013523,0.002678,0.000431,0.000705
118302000,0.0324,0.013523,0.002678,0.000431,0.000940
118303000,0.0324,0.013523,0.002678,0.000431,0.000823
118304000,0.0324,0.013523,0.002678,0.000431,0.000823
118305000,0.0324,0.013523,0.002678,0.000431,0.000823
118306000,0.0324,0.013523,0.002678,0.000431,0.000823
118307000,0.0324,0.013523,0.002678,0.000431,0.000823
118308000,0.0324,0.013523,0.002678,0.000431,0.000940
118309000,0.0324,0.013523,0.002678,0.000431,0.000823
118310000,0.0324,0.013523,0.002678,0.000431,0.000823
118311000,0.0324,0.013523,0.002678,0.000431,0.000705
118312000,0.0324,0.013523,0.002678,0.000431,0.000940
118313000,0.0324,0.013523,0.002678,0.000431,0.000940
118314000,0.0324,0.013523,0.002678,0.000431,0.000705
118315000,0.0324,0.013523,0.002678,0.000431,0.000940
118316000,0.0324,0.013523,0.002678,0.000431,0.000705
118317000,0.0324,0.013523,0.002678,0.000431,0.000940
118318000,0.0324,0.013523,0.002678,0.000431,0.000823
118319000,0.0324,0.013523,0.002678,0.000431,0.000823
118320000,0.0324,0.013523,0.002678,0.000431,0.000940
118321000,0.0324,0.013523,0.002678,0.000431,0.000705
118322000,0.0324,0.013523,0.002678,0.000431,0.000940
118323000,0.0324,0.013523,0.002678,0.000431,0.000823
118324000,0.0324,0.013523,0.002678,0.000431,0.000823
118325000,0.0324,0.013523,0.002678,0.000431,0.071810
118326000,0.0324,0.013523,0.002678,0.000431,0.810592
118327000,0.0324,0.013523,0.002678,0.000431,0.566486
118328000,0.0324,0.013523,0.002678,0.000431,0.152081
118329000,0.0324,0.013523,0.002678,0.000431,0.170886
118330000,0.0324,0.013523,0.002678,0.000431,0.594693
118331000,0.0324,0.013523,0.002678,0.000431,0.297346
118332000,0.0324,0.013523,0.002678,0.000431,0.340127
118333000,0.0324,0.013523,0.002678,0.000431,0.149848
118334000,0.0324,0.013523,0.002678,0.000431,0.141151
118335000,0.0324,0.013523,0.002678,0.000431,0.226007
118336000,0.0324,0.013523,0.002678,0.000431,0.483276
118337000,0.0324,0.013523,0.002678,0.000431,0.199210
118338000,0.0324,0.013523,0.002678,0.000431,0.173119
118339000,0.0324,0.013523,0.002678,0.000431,0.146793
118340000,0.0324,0.013523,0.002678,0.000431,0.138566
118341000,0.0324,0.013523,0.002678,0.000431,0.110241
118342000,0.0324,0.013523,0.002678,0.000431,0.113062
118343000,0.0324,0.013523,0.002678,0.000431,0.086618
118344000,0.0324,0.013523,0.002678,0.000431,0.068636
118345000,0.0324,0.013523,0.002678,0.000431,0.061585
118346000,0.0324,0.013523,0.002678,0.000431,0.060057
118347000,0.0324,0.013523,0.002678,0.000431,0.056178
118348000,0.0324,0.013523,0.002678,0.000431,0.043603
118349000,0.0324,0.013523,0.002678,0.000431,0.043956
118350000,0.0324,0.013523,0.002678,0.000431,0.027737
118351000,0.0324,0.013523,0.002678,0.000431,0.027854
118352000,0.0324,0.013523,0.002678,0.000431,0.021038
118353000,0.0324,0.013523,0.002678,0.000431,0.023153
118354000,0.0324,0.013523,0.002678,0.000431,0.018452
118355000,0.0324,0.013523,0.002678,0.000431,0.011753
118356000,0.0324,0.013523,0.002678,0.000431,0.015866
118357000,0.0324,0.013523,0.002678,0.000431,0.015984
118358000,0.0324,0.013523,0.002678,0.000431,0.009167
118359000,0.0324,0.013523,0.002678,0.000431,0.005994
118360000,0.0324,0.013523,0.002678,0.000431,0.003526
118361000,0.0324,0.013523,0.002678,0.000431,0.006111
118362000,0.0324,0.013523,0.002678,0.000431,0.003526
118363000,0.0324,0.013523,0.002678,0.000431,0.001763
118364000,0.0324,0.013523,0.002678,0.000431,0.002938
118365000,0.0324,0.013523,0.002678,0.000431,0.002116
118366000,0.0324,0.013523,0.002678,0.000431,0.000940
118367000,0.0324,0.013523,0.002678,0.000431,0.000705
118368000,0.0324,0.013523,0.002678,0.000431,0.000940
118369000,0.0324,0.013523,0.002678,0.000431,0.000823
118370000,0.0324,0.013523,0.002678,0.000431,0.000823
118371000,0.0324,0.013523,0.002678,0.000431,0.000823
118372000,0.0324,0.013523,0.002678,0.000431,0.000823
118373000,0.0324,0.013523,0.002678,0.000431,0.000705
118374000,0.0324,0.013523,0.002678,0.000431,0.000940
118375000,0.0324,0.013523,0.002678,0.000431,0.000705
118376000,0.0324,0.013523,0.002678,0.000431,0.000940
118377000,0.0324,0.013523,0.002678,0.000431,0.000940
118378000,0.0324,0.013523,0.002678,0.000431,0.000705
118379000,0.0324,0.013523,0.002678,0.000431,0.000940
118380000,0.0324,0.013523,0.002678,0.000431,0.000705
118381000,0.0324,0.013523,0.002678,0.000431,0.000940
118382000,0.0324,0.013523,0.002678,0.000431,0.000823
118383000,0.0324,0.013523,0.002678,0.000431,0.000823
118384000,0.0324,0.013523,0.002678,0.000431,0.000940
118385000,0.0324,0.013523,0.002678,0.000431,0.000705
118386000,0.0324,0.013523,0.002678,0.000431,0.000940
118387000,0.0324,0.013523,0.002678,0.000431,0.000823
118388000,0.0324,0.013523,0.002678,0.000431,0.000823
118389000,0.0324,0.013523,0.002678,0.000431,0.000823
118390000,0.0324,0.013523,0.002678,0.000431,0.000823
118391000,0.0324,0.013523,0.002678,0.000431,0.000940
118392000,0.0324,0.013523,0.002678,0.000431,0.003761
118393000,0.0324,0.013523,0.002678,0.000431,0.596220
118394000,0.0324,0.013523,0.002678,0.000431,0.665915
118395000,0.0324,0.013523,0.002678,0.000431,0.196625
118396000,0.0324,0.013523,0.002678,0.000431,0.140916
118397000,0.0324,0.013523,0.002678,0.000431,0.507722
118398000,0.0324,0.013523,0.002678,0.000431,0.332487
118399000,0.0324,0.013523,0.002678,0.000431,0.278072
118400000,0.0324,0.013523,0.002678,0.000431,0.285241
118401000,0.0324,0.013523,0.002678,0.000431,0.141151
118402000,0.0324,0.013523,0.002678,0.000431,0.157605
118403000,0.0324,0.013523,0.002678,0.000431,0.188045
118404000,0.0324,0.013523,0.002678,0.000431,0.522765
118405000,0.0324,0.013523,0.002678,0.000431,0.240698
118406000,0.0324,0.013523,0.002678,0.000431,0.203559
118407000,0.0324,0.013523,0.002678,0.000431,0.178995
118408000,0.0324,0.013523,0.002678,0.000431,0.159251
118409000,0.0324,0.013523,0.002678,0.000431,0.147733
118410000,0.0324,0.013523,0.002678,0.000431,0.129869
118411000,0.0324,0.013523,0.002678,0.000431,0.104600
118412000,0.0324,0.013523,0.002678,0.000431,0.093200
118413000,0.0324,0.013523,0.002678,0.000431,0.079567
118414000,0.0324,0.013523,0.002678,0.000431,0.073338
118415000,0.0324,0.013523,0.002678,0.000431,0.063818
118416000,0.0324,0.013523,0.002678,0.000431,0.056766
118417000,0.0324,0.013523,0.002678,0.000431,0.053123
118418000,0.0324,0.013523,0.002678,0.000431,0.038667
118419000,0.0324,0.013523,0.002678,0.000431,0.036904
118420000,0.0324,0.013523,0.002678,0.000431,0.031498
118421000,0.0324,0.013523,0.002678,0.000431,0.024563
118422000,0.0324,0.013523,0.002678,0.000431,0.026679
118423000,0.0324,0.013523,0.002678,0.000431,0.021860
118424000,0.0324,0.013523,0.002678,0.000431,0.019745
118425000,0.0324,0.013523,0.002678,0.000431,0.016454
118426000,0.0324,0.013523,0.002678,0.000431,0.014338
118427000,0.0324,0.013523,0.002678,0.000431,0.009285
118428000,0.0324,0.013523,0.002678,0.000431,0.010107
118429000,0.0324,0.013523,0.002678,0.000431,0.008815
118430000,0.0324,0.013523,0.002678,0.000431,0.005289
118431000,0.0324,0.013523,0.002678,0.000431,0.006111
118432000,0.0324,0.013523,0.002678,0.000431,0.005524
118433000,0.0324,0.013523,0.002678,0.000431,0.004584
118434000,0.0324,0.013523,0.002678,0.000431,0.004113
118435000,0.0324,0.013523,0.002678,0.000431,0.004231
118436000,0.0324,0.013523,0.002678,0.000431,0.006464
118437000,0.0324,0.013523,0.002678,0.000431,0.003761
118438000,0.0324,0.013523,0.002678,0.000431,0.003173
118439000,0.0324,0.013523,0.002678,0.000431,0.003291
118440000,0.0324,0.013523,0.002678,0.000431,0.009637
118441000,0.0324,0.013523,0.002678,0.000431,0.002938
118442000,0.0324,0.013523,0.002678,0.000431,0.002233
118443000,0.0324,0.013523,0.002678,0.000431,0.067344
118444000,0.0324,0.013523,0.002678,0.000431,0.715394
118445000,0.0324,0.013523,0.002678,0.000431,0.595163
118446000,0.0324,0.013523,0.002678,0.000431,0.145500
118447000,0.0324,0.013523,0.002678,0.000431,0.157840
118448000,0.0324,0.013523,0.002678,0.000431,0.639236
118449000,0.0324,0.013523,0.002678,0.000431,0.245399
118450000,0.0324,0.013523,0.002678,0.000431,0.318384
118451000,0.0324,0.013523,0.002678,0.000431,0.203089
118452000,0.0324,0.013523,0.002678,0.000431,0.167125
118453000,0.0324,0.013523,0.002678,0.000431,0.111064
118454000,0.0324,0.013523,0.002678,0.000431,0.457302
118455000,0.0324,0.013523,0.002678,0.000431,0.299227
118456000,0.0324,0.013523,0.002678,0.000431,0.199563
118457000,0.0324,0.013523,0.002678,0.000431,0.198270
118458000,0.0324,0.013523,0.002678,0.000431,0.150201
118459000,0.0324,0.013523,0.002678,0.000431,0.146323
118460000,0.0324,0.013523,0.002678,0.000431,0.140564
118461000,0.0324,0.013523,0.002678,0.000431,0.099076
118462000,0.0324,0.013523,0.002678,0.000431,0.104012
118463000,0.0324,0.013523,0.002678,0.000431,0.087558
118464000,0.0324,0.013523,0.002678,0.000431,0.069342
118465000,0.0324,0.013523,0.002678,0.000431,0.066168
118466000,0.0324,0.013523,0.002678,0.000431,0.066756
118467000,0.0324,0.013523,0.002678,0.000431,0.046071
118468000,0.0324,0.013523,0.002678,0.000431,0.044896
118469000,0.0324,0.013523,0.002678,0.000431,0.038784
118470000,0.0324,0.013523,0.002678,0.000431,0.034201
118471000,0.0324,0.013523,0.002678,0.000431,0.036199
118472000,0.0324,0.013523,0.002678,0.000431,0.024681
118473000,0.0324,0.013523,0.002678,0.000431,0.017982
118474000,0.0324,0.013523,0.002678,0.000431,0.018687
118475000,0.0324,0.013523,0.002678,0.000431,0.018334
118476000,0.0324,0.013523,0.002678,0.000431,0.010578
118477000,0.0324,0.013523,0.002678,0.000431,0.007404
118478000,0.0324,0.013523,0.002678,0.000431,0.006229
118479000,0.0324,0.013523,0.002678,0.000431,0.007992
118480000,0.0324,0.013523,0.002678,0.000431,0.004584
118481000,0.0324,0.013523,0.002678,0.000431,0.005171
118482000,0.0324,0.013523,0.002678,0.000431,0.004584
118483000,0.0324,0.013523,0.002678,0.000431,0.004466
118484000,0.0324,0.013523,0.002678,0.000431,0.008462
118485000,0.0324,0.013523,0.002678,0.000431,0.004113
118486000,0.0324,0.013523,0.002678,0.000431,0.001763
118487000,0.0324,0.013523,0.002678,0.000431,0.001880
118488000,0.0324,0.013523,0.002678,0.000431,0.001645
118489000,0.0324,0.013523,0.002678,0.000431,0.001763
118490000,0.0324,0.013523,0.002678,0.000431,0.001880
118491000,0.0324,0.013523,0.002678,0.000431,0.001763
118492000,0.0324,0.013523,0.002678,0.000431,0.002233
118493000,0.0324,0.013523,0.002678,0.000431,0.000823
118494000,0.0324,0.013523,0.002678,0.000431,0.000940
118495000,0.0324,0.013523,0.002678,0.000431,0.000823
118496000,0.0324,0.013523,0.002678,0.000431,0.000823
118497000,0.0324,0.013523,0.002678,0.000431,0.001058
118498000,0.0324,0.013523,0.002678,0.000431,0.000823
118499000,0.0324,0.013523,0.002678,0.000431,0.227182
118500000,0.0324,0.013523,0.002678,0.000431,0.641234
118501000,0.0324,0.013523,0.002678,0.000431,0.506076
118502000,0.0324,0.013523,0.002678,0.000431,0.151729
118503000,0.0324,0.013523,0.002678,0.000431,0.278189
118504000,0.0324,0.013523,0.002678,0.000431,0.573538
118505000,0.0324,0.013523,0.002678,0.000431,0.301812
118506000,0.0324,0.013523,0.002678,0.000431,0.291000
118507000,0.0324,0.013523,0.002678,0.000431,0.153492
118508000,0.0324,0.013523,0.002678,0.000431,0.141974
118509000,0.0324,0.013523,0.002678,0.000431,0.222716
118510000,0.0324,0.013523,0.002678,0.000431,0.487272
118511000,0.0324,0.013523,0.002678,0.000431,0.198035
118512000,0.0324,0.013523,0.002678,0.000431,0.157605
118513000,0.0324,0.013523,0.002678,0.000431,0.143619
118514000,0.0324,0.013523,0.002678,0.000431,0.129399
118515000,0.0324,0.013523,0.002678,0.000431,0.107068
118516000,0.0324,0.013523,0.002678,0.000431,0.101779
118517000,0.0324,0.013523,0.002678,0.000431,0.077098
118518000,0.0324,0.013523,0.002678,0.000431,0.078391
118519000,0.0324,0.013523,0.002678,0.000431,0.068284
118520000,0.0324,0.013523,0.002678,0.000431,0.058059
118521000,0.0324,0.013523,0.002678,0.000431,0.049714
118522000,0.0324,0.013523,0.002678,0.000431,0.059352
118523000,0.0324,0.013523,0.002678,0.000431,0.038079
118524000,0.0324,0.013523,0.002678,0.000431,0.030440
118525000,0.0324,0.013523,0.002678,0.000431,0.028089
118526000,0.0324,0.013523,0.002678,0.000431,0.023388
118527000,0.0324,0.013523,0.002678,0.000431,0.022095
118528000,0.0324,0.013523,0.002678,0.000431,0.018569
118529000,0.0324,0.013523,0.002678,0.000431,0.015279
118530000,0.0324,0.013523,0.002678,0.000431,0.013633
118531000,0.0324,0.013523,0.002678,0.000431,0.012223
118532000,0.0324,0.013523,0.002678,0.000431,0.015514
118533000,0.0324,0.013523,0.002678,0.000431,0.011400
118534000,0.0324,0.013523,0.002678,0.000431,0.013163
118535000,0.0324,0.013523,0.002678,0.000431,0.011870
118536000,0.0324,0.013523,0.002678,0.000431,0.010107
118537000,0.0324,0.013523,0.002678,0.000431,0.016336
118538000,0.0324,0.013523,0.002678,0.000431,0.008815
118539000,0.0324,0.013523,0.002678,0.000431,0.005876
118540000,0.0324,0.013523,0.002678,0.000431,0.011048
118541000,0.0324,0.013523,0.002678,0.000431,0.007052
118542000,0.0324,0.013523,0.002678,0.000431,0.004936
118543000,0.0324,0.013523,0.002678,0.000431,0.004113
118544000,0.0324,0.013523,0.002678,0.000431,0.002821
118545000,0.0324,0.013523,0.002678,0.000431,0.002351
118546000,0.0324,0.013523,0.002678,0.000431,0.002586
118547000,0.0324,0.013523,0.002678,0.000431,0.002351
118548000,0.0324,0.013523,0.002678,0.000431,0.002586
118549000,0.0324,0.013523,0.002678,0.000431,0.002703
118550000,0.0324,0.013523,0.002678,0.000431,0.002233
118551000,0.0324,0.013523,0.002678,0.000431,0.002821
118552000,0.0324,0.013523,0.002678,0.000431,0.002116
118553000,0.0324,0.013523,0.002678,0.000431,0.002821
118554000,0.0324,0.013523,0.002678,0.000431,0.002351
118555000,0.0324,0.013523,0.002678,0.000431,0.002586
118556000,0.0324,0.013523,0.002678,0.000431,0.004701
118557000,0.0324,0.013523,0.002678,0.000431,0.001528
118558000,0.0324,0.013523,0.002678,0.000431,0.001645
118559000,0.0324,0.013523,0.002678,0.000431,0.001645
118560000,0.0324,0.013523,0.002678,0.000431,0.001880
118561000,0.0324,0.013523,0.002678,0.000431,0.001410
118562000,0.0324,0.013523,0.002678,0.000431,0.005054
118563000,0.0324,0.013523,0.002678,0.000431,0.000823
118564000,0.0324,0.013523,0.002678,0.000431,0.000823
118565000,0.0324,0.013523,0.002678,0.000431,0.000940
118566000,0.0324,0.013523,0.002678,0.000431,0.000705
118567000,0.0324,0.013523,0.002678,0.000431,0.000940
118568000,0.0324,0.013523,0.002678,0.000431,0.000705
118569000,0.0324,0.013523,0.002678,0.000431,0.000940
118570000,0.0324,0.013523,0.002678,0.000431,0.000823
118571000,0.0324,0.013523,0.002678,0.000431,0.000823
118572000,0.0324,0.013523,0.002678,0.000431,0.000705
118573000,0.0324,0.013523,0.002678,0.000431,0.000940
118574000,0.0324,0.013523,0.002678,0.000431,0.000940
118575000,0.0324,0.013523,0.002678,0.000431,0.000705
118576000,0.0324,0.013523,0.002678,0.000431,0.000940
118577000,0.0324,0.013523,0.002678,0.000431,0.000705
118578000,0.0324,0.013523,0.002678,0.000431,0.000940
118579000,0.0324,0.013523,0.002678,0.000431,0.000823
118580000,0.0324,0.013523,0.002678,0.000431,0.000823
118581000,0.0324,0.013523,0.002678,0.000431,0.000940
118582000,0.0324,0.013523,0.002678,0.000431,0.000705
118583000,0.0324,0.013523,0.002678,0.000431,0.001880
118584000,0.0324,0.013523,0.002678,0.000431,0.286064
118585000,0.0324,0.013523,0.002678,0.000431,0.766401
118586000,0.0324,0.013523,0.002678,0.000431,0.349529
118587000,0.0324,0.013523,0.002678,0.000431,0.145617
118588000,0.0324,0.013523,0.002678,0.000431,0.290530
118589000,0.0324,0.013523,0.002678,0.000431,0.501375
118590000,0.0324,0.013523,0.002678,0.000431,0.279129
118591000,0.0324,0.013523,0.002678,0.000431,0.330137
118592000,0.0324,0.013523,0.002678,0.000431,0.146440
118593000,0.0324,0.013523,0.002678,0.000431,0.165950
118594000,0.0324,0.013523,0.002678,0.000431,0.156900
118595000,0.0324,0.013523,0.002678,0.000431,0.483511
118596000,0.0324,0.013523,0.002678,0.000431,0.228122
118597000,0.0324,0.013523,0.002678,0.000431,0.192159
118598000,0.0324,0.013523,0.002678,0.000431,0.165950
118599000,0.0324,0.013523,0.002678,0.000431,0.162306
118600000,0.0324,0.013523,0.002678,0.000431,0.135745
118601000,0.0324,0.013523,0.002678,0.000431,0.123052
118602000,0.0324,0.013523,0.002678,0.000431,0.107186
118603000,0.0324,0.013523,0.002678,0.000431,0.086383
118604000,0.0324,0.013523,0.002678,0.000431,0.076276
118605000,0.0324,0.013523,0.002678,0.000431,0.077569
118606000,0.0324,0.013523,0.002678,0.000431,0.067461
118607000,0.0324,0.013523,0.002678,0.000431,0.058999
118608000,0.0324,0.013523,0.002678,0.000431,0.055003
118609000,0.0324,0.013523,0.002678,0.000431,0.039489
118610000,0.0324,0.013523,0.002678,0.000431,0.041840
118611000,0.0324,0.013523,0.002678,0.000431,0.028912
118612000,0.0324,0.013523,0.002678,0.000431,0.037491
118613000,0.0324,0.013523,0.002678,0.000431,0.026914
118614000,0.0324,0.013523,0.002678,0.000431,0.024916
118615000,0.0324,0.013523,0.002678,0.000431,0.023036
118616000,0.0324,0.013523,0.002678,0.000431,0.017042
118617000,0.0324,0.013523,0.002678,0.000431,0.020097
118618000,0.0324,0.013523,0.002678,0.000431,0.014103
118619000,0.0324,0.013523,0.002678,0.000431,0.013751
118620000,0.0324,0.013523,0.002678,0.000431,0.010460
118621000,0.0324,0.013523,0.002678,0.000431,0.009285
118622000,0.0324,0.013523,0.002678,0.000431,0.009637
118623000,0.0324,0.013523,0.002678,0.000431,0.005641
118624000,0.0324,0.013523,0.002678,0.000431,0.009637
118625000,0.0324,0.013523,0.002678,0.000431,0.004113
118626000,0.0324,0.013523,0.002678,0.000431,0.004584
118627000,0.0324,0.013523,0.002678,0.000431,0.007639
118628000,0.0324,0.013523,0.002678,0.000431,0.002586
118629000,0.0324,0.013523,0.002678,0.000431,0.002586
118630000,0.0324,0.013523,0.002678,0.000431,0.075101
118631000,0.0324,0.013523,0.002678,0.000431,0.659216
118632000,0.0324,0.013523,0.002678,0.000431,0.596926
118633000,0.0324,0.013523,0.002678,0.000431,0.142444
118634000,0.0324,0.013523,0.002678,0.000431,0.143619
118635000,0.0324,0.013523,0.002678,0.000431,0.659686
118636000,0.0324,0.013523,0.002678,0.000431,0.263616
118637000,0.0324,0.013523,0.002678,0.000431,0.262088
118638000,0.0324,0.013523,0.002678,0.000431,0.224126
118639000,0.0324,0.013523,0.002678,0.000431,0.157723
118640000,0.0324,0.013523,0.002678,0.000431,0.107303
118641000,0.0324,0.013523,0.002678,0.000431,0.341772
118642000,0.0324,0.013523,0.002678,0.000431,0.312978
118643000,0.0324,0.013523,0.002678,0.000431,0.109301
118644000,0.0324,0.013523,0.002678,0.000431,0.094963
118645000,0.0324,0.013523,0.002678,0.000431,0.096608
118646000,0.0324,0.013523,0.002678,0.000431,0.087088
118647000,0.0324,0.013523,0.002678,0.000431,0.070399
118648000,0.0324,0.013523,0.002678,0.000431,0.069224
118649000,0.0324,0.013523,0.002678,0.000431,0.058059
118650000,0.0324,0.013523,0.002678,0.000431,0.046894
118651000,0.0324,0.013523,0.002678,0.000431,0.042310
118652000,0.0324,0.013523,0.002678,0.000431,0.044661
118653000,0.0324,0.013523,0.002678,0.000431,0.048892
118654000,0.0324,0.013523,0.002678,0.000431,0.041252
118655000,0.0324,0.013523,0.002678,0.000431,0.032908
118656000,0.0324,0.013523,0.002678,0.000431,0.034436
118657000,0.0324,0.013523,0.002678,0.000431,0.022683
118658000,0.0324,0.013523,0.002678,0.000431,0.024681
118659000,0.0324,0.013523,0.002678,0.000431,0.020332
118660000,0.0324,0.013523,0.002678,0.000431,0.018687
118661000,0.0324,0.013523,0.002678,0.000431,0.014103
118662000,0.0324,0.013523,0.002678,0.000431,0.012223
118663000,0.0324,0.013523,0.002678,0.000431,0.010342
118664000,0.0324,0.013523,0.002678,0.000431,0.007874
118665000,0.0324,0.013523,0.002678,0.000431,0.006934
118666000,0.0324,0.013523,0.002678,0.000431,0.006817
118667000,0.0324,0.013523,0.002678,0.000431,0.008580
118668000,0.0324,0.013523,0.002678,0.000431,0.008345
118669000,0.0324,0.013523,0.002678,0.000431,0.006229
118670000,0.0324,0.013523,0.002678,0.000431,0.004113
118671000,0.0324,0.013523,0.002678,0.000431,0.003526
118672000,0.0324,0.013523,0.002678,0.000431,0.003408
118673000,0.0324,0.013523,0.002678,0.000431,0.003643
118674000,0.0324,0.013523,0.002678,0.000431,0.003526
118675000,0.0324,0.013523,0.002678,0.000431,0.004936
118676000,0.0324,0.013523,0.002678,0.000431,0.002703
118677000,0.0324,0.013523,0.002678,0.000431,0.002116
118678000,0.0324,0.013523,0.002678,0.000431,0.001645
118679000,0.0324,0.013523,0.002678,0.000431,0.001763
118680000,0.0324,0.013523,0.002678,0.000431,0.001763
118681000,0.0324,0.013523,0.002678,0.000431,0.001528
118682000,0.0324,0.013523,0.002678,0.000431,0.004113
118683000,0.0324,0.013523,0.002678,0.000431,0.000940
118684000,0.0324,0.013523,0.002678,0.000431,0.000940
118685000,0.0324,0.013523,0.002678,0.000431,0.000705
118686000,0.0324,0.013523,0.002678,0.000431,0.000940
118687000,0.0324,0.013523,0.002678,0.000431,0.000940
118688000,0.0324,0.013523,0.002678,0.000431,0.000823
118689000,0.0324,0.013523,0.002678,0.000431,0.000940
118690000,0.0324,0.013523,0.002678,0.000431,0.225419
118691000,0.0324,0.013523,0.002678,0.000431,0.646170
118692000,0.0324,0.013523,0.002678,0.000431,0.378088
118693000,0.0324,0.013523,0.002678,0.000431,0.132572
118694000,0.0324,0.013523,0.002678,0.000431,0.148673
118695000,0.0324,0.013523,0.002678,0.000431,0.608914
118696000,0.0324,0.013523,0.002678,0.000431,0.256799
118697000,0.0324,0.013523,0.002678,0.000431,0.318149
118698000,0.0324,0.013523,0.002678,0.000431,0.217427
118699000,0.0324,0.013523,0.002678,0.000431,0.145500
118700000,0.0324,0.013523,0.002678,0.000431,0.114120
118701000,0.0324,0.013523,0.002678,0.000431,0.339539
118702000,0.0324,0.013523,0.002678,0.000431,0.393719
118703000,0.0324,0.013523,0.002678,0.000431,0.182169
118704000,0.0324,0.013523,0.002678,0.000431,0.154550
118705000,0.0324,0.013523,0.002678,0.000431,0.134217
118706000,0.0324,0.013523,0.002678,0.000431,0.117881
118707000,0.0324,0.013523,0.002678,0.000431,0.088616
118708000,0.0324,0.013523,0.002678,0.000431,0.093317
118709000,0.0324,0.013523,0.002678,0.000431,0.081800
118710000,0.0324,0.013523,0.002678,0.000431,0.059587
118711000,0.0324,0.013523,0.002678,0.000431,0.050185
118712000,0.0324,0.013523,0.002678,0.000431,0.046189
118713000,0.0324,0.013523,0.002678,0.000431,0.039607
118714000,0.0324,0.013523,0.002678,0.000431,0.036551
118715000,0.0324,0.013523,0.002678,0.000431,0.037021
118716000,0.0324,0.013523,0.002678,0.000431,0.030910
118717000,0.0324,0.013523,0.002678,0.000431,0.027384
118718000,0.0324,0.013523,0.002678,0.000431,0.018217
118719000,0.0324,0.013523,0.002678,0.000431,0.020215
118720000,0.0324,0.013523,0.002678,0.000431,0.019980
118721000,0.0324,0.013523,0.002678,0.000431,0.017982
118722000,0.0324,0.013523,0.002678,0.000431,0.016807
118723000,0.0324,0.013523,0.002678,0.000431,0.014338
118724000,0.0324,0.013523,0.002678,0.000431,0.013163
118725000,0.0324,0.013523,0.002678,0.000431,0.015161
118726000,0.0324,0.013523,0.002678,0.000431,0.013281
118727000,0.0324,0.013523,0.002678,0.000431,0.011635
118728000,0.0324,0.013523,0.002678,0.000431,0.012693
118729000,0.0324,0.013523,0.002678,0.000431,0.012340
118730000,0.0324,0.013523,0.002678,0.000431,0.011518
118731000,0.0324,0.013523,0.002678,0.000431,0.012693
118732000,0.0324,0.013523,0.002678,0.000431,0.013281
118733000,0.0324,0.013523,0.002678,0.000431,0.013398
118734000,0.0324,0.013523,0.002678,0.000431,0.013398
118735000,0.0324,0.013523,0.002678,0.000431,0.009285
118736000,0.0324,0.013523,0.002678,0.000431,0.010578
118737000,0.0324,0.013523,0.002678,0.000431,0.007757
118738000,0.0324,0.013523,0.002678,0.000431,0.008227
118739000,0.0324,0.013523,0.002678,0.000431,0.006817
118740000,0.0324,0.013523,0.002678,0.000431,0.009755
118741000,0.0324,0.013523,0.002678,0.000431,0.006464
118742000,0.0324,0.013523,0.002678,0.000431,0.007052
118743000,0.0324,0.013523,0.002678,0.000431,0.006347
118744000,0.0324,0.013523,0.002678,0.000431,0.006699
118745000,0.0324,0.013523,0.002678,0.000431,0.004113
118746000,0.0324,0.013523,0.002678,0.000431,0.004113
118747000,0.0324,0.013523,0.002678,0.000431,0.004231
118748000,0.0324,0.013523,0.002678,0.000431,0.003643
118749000,0.0324,0.013523,0.002678,0.000431,0.004349
118750000,0.0324,0.013523,0.002678,0.000431,0.004113
118751000,0.0324,0.013523,0.002678,0.000431,0.003408
118752000,0.0324,0.013523,0.002678,0.000431,0.004466
118753000,0.0324,0.013523,0.002678,0.000431,0.003996
118754000,0.0324,0.013523,0.002678,0.000431,0.001645
118755000,0.0324,0.013523,0.002678,0.000431,0.001763
118756000,0.0324,0.013523,0.002678,0.000431,0.001763
118757000,0.0324,0.013523,0.002678,0.000431,0.002821
118758000,0.0324,0.013523,0.002678,0.000431,0.242343
118759000,0.0324,0.013523,0.002678,0.000431,0.697765
118760000,0.0324,0.013523,0.002678,0.000431,0.424982
118761000,0.0324,0.013523,0.002678,0.000431,0.132924
118762000,0.0324,0.013523,0.002678,0.000431,0.158428
118763000,0.0324,0.013523,0.002678,0.000431,0.647580
118764000,0.0324,0.013523,0.002678,0.000431,0.236937
118765000,0.0324,0.013523,0.002678,0.000431,0.312742
118766000,0.0324,0.013523,0.002678,0.000431,0.190278
118767000,0.0324,0.013523,0.002678,0.000431,0.151729
118768000,0.0324,0.013523,0.002678,0.000431,0.104483
118769000,0.0324,0.013523,0.002678,0.000431,0.399713
118770000,0.0324,0.013523,0.002678,0.000431,0.333898
118771000,0.0324,0.013523,0.002678,0.000431,0.181699
118772000,0.0324,0.013523,0.002678,0.000431,0.145030
118773000,0.0324,0.013523,0.002678,0.000431,0.126578
118774000,0.0324,0.013523,0.002678,0.000431,0.112945
118775000,0.0324,0.013523,0.002678,0.000431,0.088851
118776000,0.0324,0.013523,0.002678,0.000431,0.072162
118777000,0.0324,0.013523,0.002678,0.000431,0.058999
118778000,0.0324,0.013523,0.002678,0.000431,0.064993
118779000,0.0324,0.013523,0.002678,0.000431,0.056061
118780000,0.0324,0.013523,0.002678,0.000431,0.049127
118781000,0.0324,0.013523,0.002678,0.000431,0.047129
118782000,0.0324,0.013523,0.002678,0.000431,0.039607
118783000,0.0324,0.013523,0.002678,0.000431,0.035846
118784000,0.0324,0.013523,0.002678,0.000431,0.031145
118785000,0.0324,0.013523,0.002678,0.000431,0.030440
118786000,0.0324,0.013523,0.002678,0.000431,0.027267
118787000,0.0324,0.013523,0.002678,0.000431,0.024798
118788000,0.0324,0.013523,0.002678,0.000431,0.026209
118789000,0.0324,0.013523,0.002678,0.000431,0.020802
118790000,0.0324,0.013523,0.002678,0.000431,0.023506
118791000,0.0324,0.013523,0.002678,0.000431,0.021390
118792000,0.0324,0.013523,0.002678,0.000431,0.019862
118793000,0.0324,0.013523,0.002678,0.000431,0.021508
118794000,0.0324,0.013523,0.002678,0.000431,0.016101
118795000,0.0324,0.013523,0.002678,0.000431,0.017394
118796000,0.0324,0.013523,0.002678,0.000431,0.011988
118797000,0.0324,0.013523,0.002678,0.000431,0.011870
118798000,0.0324,0.013523,0.002678,0.000431,0.014221
118799000,0.0324,0.013523,0.002678,0.000431,0.010930
118800000,0.0324,0.013523,0.002678,0.000431,0.010460
118801000,0.0324,0.013523,0.002678,0.000431,0.012576
118802000,0.0324,0.013523,0.002678,0.000431,0.008462
118803000,0.0324,0.013523,0.002678,0.000431,0.008815
118804000,0.0324,0.013523,0.002678,0.000431,0.009285
118805000,0.0324,0.013523,0.002678,0.000431,0.005054
118806000,0.0324,0.013523,0.002678,0.000431,0.005289
118807000,0.0324,0.013523,0.002678,0.000431,0.009285
118808000,0.0324,0.013523,0.002678,0.000431,0.003291
118809000,0.0324,0.013523,0.002678,0.000431,0.005641
118810000,0.0324,0.013523,0.002678,0.000431,0.002468
118811000,0.0324,0.013523,0.002678,0.000431,0.002468
118812000,0.0324,0.013523,0.002678,0.000431,0.002703
118813000,0.0324,0.013523,0.002678,0.000431,0.002468
118814000,0.0324,0.013523,0.002678,0.000431,0.002703
118815000,0.0324,0.013523,0.002678,0.000431,0.002703
118816000,0.0324,0.013523,0.002678,0.000431,0.002351
118817000,0.0324,0.013523,0.002678,0.000431,0.002703
118818000,0.0324,0.013523,0.002678,0.000431,0.002703
118819000,0.0324,0.013523,0.002678,0.000431,0.003996
118820000,0.0324,0.013523,0.002678,0.000431,0.001645
118821000,0.0324,0.013523,0.002678,0.000431,0.001645
118822000,0.0324,0.013523,0.002678,0.000431,0.001763
118823000,0.0324,0.013523,0.002678,0.000431,0.001645
118824000,0.0324,0.013523,0.002678,0.000431,0.001880
118825000,0.0324,0.013523,0.002678,0.000431,0.003056
118826000,0.0324,0.013523,0.002678,0.000431,0.000705
118827000,0.0324,0.013523,0.002678,0.000431,0.000940
118828000,0.0324,0.013523,0.002678,0.000431,0.000705
118829000,0.0324,0.013523,0.002678,0.000431,0.000940
118830000,0.0324,0.013523,0.002678,0.000431,0.000705
118831000,0.0324,0.013523,0.002678,0.000431,0.000940
118832000,0.0324,0.013523,0.002678,0.000431,0.000705
118833000,0.0324,0.013523,0.002678,0.000431,0.000940
118834000,0.0324,0.013523,0.002678,0.000431,0.000823
118835000,0.0324,0.013523,0.002678,0.000431,0.000823
118836000,0.0324,0.013523,0.002678,0.000431,0.210611
118837000,0.0324,0.013523,0.002678,0.000431,0.622782
118838000,0.0324,0.013523,0.002678,0.000431,0.509367
118839000,0.0324,0.013523,0.002678,0.000431,0.135392
118840000,0.0324,0.013523,0.002678,0.000431,0.155372
118841000,0.0324,0.013523,0.002678,0.000431,0.618551
118842000,0.0324,0.013523,0.002678,0.000431,0.233411
118843000,0.0324,0.013523,0.002678,0.000431,0.316151
118844000,0.0324,0.013523,0.002678,0.000431,0.191924
118845000,0.0324,0.013523,0.002678,0.000431,0.145147
118846000,0.0324,0.013523,0.002678,0.000431,0.110124
118847000,0.0324,0.013523,0.002678,0.000431,0.372329
118848000,0.0324,0.013523,0.002678,0.000431,0.274076
118849000,0.0324,0.013523,0.002678,0.000431,0.109771
118850000,0.0324,0.013523,0.002678,0.000431,0.108008
118851000,0.0324,0.013523,0.002678,0.000431,0.100369
118852000,0.0324,0.013523,0.002678,0.000431,0.084385
118853000,0.0324,0.013523,0.002678,0.000431,0.083445
118854000,0.0324,0.013523,0.002678,0.000431,0.075923
118855000,0.0324,0.013523,0.002678,0.000431,0.073103
118856000,0.0324,0.013523,0.002678,0.000431,0.061350
118857000,0.0324,0.013523,0.002678,0.000431,0.064288
118858000,0.0324,0.013523,0.002678,0.000431,0.057119
118859000,0.0324,0.013523,0.002678,0.000431,0.039607
118860000,0.0324,0.013523,0.002678,0.000431,0.033613
118861000,0.0324,0.013523,0.002678,0.000431,0.035023
118862000,0.0324,0.013523,0.002678,0.000431,0.038784
118863000,0.0324,0.013523,0.002678,0.000431,0.024798
118864000,0.0324,0.013523,0.002678,0.000431,0.024916
118865000,0.0324,0.013523,0.002678,0.000431,0.022330
118866000,0.0324,0.013523,0.002678,0.000431,0.024798
118867000,0.0324,0.013523,0.002678,0.000431,0.025974
118868000,0.0324,0.013523,0.002678,0.000431,0.019040
118869000,0.0324,0.013523,0.002678,0.000431,0.020920
118870000,0.0324,0.013523,0.002678,0.000431,0.020567
118871000,0.0324,0.013523,0.002678,0.000431,0.021743
118872000,0.0324,0.013523,0.002678,0.000431,0.014809
118873000,0.0324,0.013523,0.002678,0.000431,0.017747
118874000,0.0324,0.013523,0.002678,0.000431,0.015749
118875000,0.0324,0.013523,0.002678,0.000431,0.015161
118876000,0.0324,0.013523,0.002678,0.000431,0.011400
118877000,0.0324,0.013523,0.002678,0.000431,0.010342
118878000,0.0324,0.013523,0.002678,0.000431,0.010107
118879000,0.0324,0.013523,0.002678,0.000431,0.010930
118880000,0.0324,0.013523,0.002678,0.000431,0.010225
118881000,0.0324,0.013523,0.002678,0.000431,0.011165
118882000,0.0324,0.013523,0.002678,0.000431,0.015866
118883000,0.0324,0.013523,0.002678,0.000431,0.007522
118884000,0.0324,0.013523,0.002678,0.000431,0.008227
118885000,0.0324,0.013523,0.002678,0.000431,0.005641
118886000,0.0324,0.013523,0.002678,0.000431,0.003056
118887000,0.0324,0.013523,0.002678,0.000431,0.003173
118888000,0.0324,0.013523,0.002678,0.000431,0.003056
118889000,0.0324,0.013523,0.002678,0.000431,0.002938
118890000,0.0324,0.013523,0.002678,0.000431,0.003408
118891000,0.0324,0.013523,0.002678,0.000431,0.002351
118892000,0.0324,0.013523,0.002678,0.000431,0.002233
118893000,0.0324,0.013523,0.002678,0.000431,0.002586
118894000,0.0324,0.013523,0.002678,0.000431,0.002468
118895000,0.0324,0.013523,0.002678,0.000431,0.001998
118896000,0.0324,0.013523,0.002678,0.000431,0.002351
118897000,0.0324,0.013523,0.002678,0.000431,0.002351
118898000,0.0324,0.013523,0.002678,0.000431,0.002468
118899000,0.0324,0.013523,0.002678,0.000431,0.002116
118900000,0.0324,0.013523,0.002678,0.000431,0.002586
118901000,0.0324,0.013523,0.002678,0.000431,0.001998
118902000,0.0324,0.013523,0.002678,0.000431,0.002468
118903000,0.0324,0.013523,0.002678,0.000431,0.002351
118904000,0.0324,0.013523,0.002678,0.000431,0.002351
118905000,0.0324,0.013523,0.002678,0.000431,0.001998
118906000,0.0324,0.013523,0.002678,0.000431,0.002586
118907000,0.0324,0.013523,0.002678,0.000431,0.002116
118908000,0.0324,0.013523,0.002678,0.000431,0.004349
118909000,0.0324,0.013523,0.002678,0.000431,0.001175
118910000,0.0324,0.013523,0.002678,0.000431,0.001410
118911000,0.0324,0.013523,0.002678,0.000431,0.001058
118912000,0.0324,0.013523,0.002678,0.000431,0.000823
118913000,0.0324,0.013523,0.002678,0.000431,0.000940
118914000,0.0324,0.013523,0.002678,0.000431,0.000823
118915000,0.0324,0.013523,0.002678,0.000431,0.000823
118916000,0.0324,0.013523,0.002678,0.000431,0.000823
118917000,0.0324,0.013523,0.002678,0.000431,0.000705
118918000,0.0324,0.013523,0.002678,0.000431,0.000940
118919000,0.0324,0.013523,0.002678,0.000431,0.000940
118920000,0.0324,0.013523,0.002678,0.000431,0.000705
118921000,0.0324,0.013523,0.002678,0.000431,0.000940
118922000,0.0324,0.013523,0.002678,0.000431,0.000705
118923000,0.0324,0.013523,0.002678,0.000431,0.000940
118924000,0.0324,0.013523,0.002678,0.000431,0.000940
118925000,0.0324,0.013523,0.002678,0.000431,0.000705
118926000,0.0324,0.013523,0.002678,0.000431,0.000940
118927000,0.0324,0.013523,0.002678,0.000431,0.000705
118928000,0.0324,0.013523,0.002678,0.000431,0.000940
118929000,0.0324,0.013523,0.002678,0.000431,0.000823
118930000,0.0324,0.013523,0.002678,0.000431,0.000823
118931000,0.0324,0.013523,0.002678,0.000431,0.000823
118932000,0.0324,0.013523,0.002678,0.000431,0.000823
118933000,0.0324,0.013523,0.002678,0.000431,0.000940
118934000,0.0324,0.013523,0.002678,0.000431,0.000705
118935000,0.0324,0.013523,0.002678,0.000431,0.000940
118936000,0.0324,0.013523,0.002678,0.000431,0.000823
118937000,0.0324,0.013523,0.002678,0.000431,0.000823
118938000,0.0324,0.013523,0.002678,0.000431,0.000823
118939000,0.0324,0.013523,0.002678,0.000431,0.000823
118940000,0.0324,0.013523,0.002678,0.000431,0.000823
118941000,0.0324,0.013523,0.002678,0.000431,0.014103
118942000,0.0324,0.013523,0.002678,0.000431,0.563430
118943000,0.0324,0.013523,0.002678,0.000431,0.578944
118944000,0.0324,0.013523,0.002678,0.000431,0.140211
118945000,0.0324,0.013523,0.002678,0.000431,0.134452
118946000,0.0324,0.013523,0.002678,0.000431,0.538984
118947000,0.0324,0.013523,0.002678,0.000431,0.238582
118948000,0.0324,0.013523,0.002678,0.000431,0.276661
118949000,0.0324,0.013523,0.002678,0.000431,0.317326
118950000,0.0324,0.013523,0.002678,0.000431,0.144795
118951000,0.0324,0.013523,0.002678,0.000431,0.153022
118952000,0.0324,0.013523,0.002678,0.000431,0.103660
118953000,0.0324,0.013523,0.002678,0.000431,0.469408
118954000,0.0324,0.013523,0.002678,0.000431,0.308747
118955000,0.0324,0.013523,0.002678,0.000431,0.200268
118956000,0.0324,0.013523,0.002678,0.000431,0.178290
118957000,0.0324,0.013523,0.002678,0.000431,0.167595
118958000,0.0324,0.013523,0.002678,0.000431,0.160661
118959000,0.0324,0.013523,0.002678,0.000431,0.123757
118960000,0.0324,0.013523,0.002678,0.000431,0.114943
118961000,0.0324,0.013523,0.002678,0.000431,0.108008
118962000,0.0324,0.013523,0.002678,0.000431,0.096961
118963000,0.0324,0.013523,0.002678,0.000431,0.100134
118964000,0.0324,0.013523,0.002678,0.000431,0.067696
118965000,0.0324,0.013523,0.002678,0.000431,0.062760
118966000,0.0324,0.013523,0.002678,0.000431,0.066168
118967000,0.0324,0.013523,0.002678,0.000431,0.041605
118968000,0.0324,0.013523,0.002678,0.000431,0.042428
118969000,0.0324,0.013523,0.002678,0.000431,0.045601
118970000,0.0324,0.013523,0.002678,0.000431,0.036434
118971000,0.0324,0.013523,0.002678,0.000431,0.029382
118972000,0.0324,0.013523,0.002678,0.000431,0.026444
118973000,0.0324,0.013523,0.002678,0.000431,0.027149
118974000,0.0324,0.013523,0.002678,0.000431,0.025034
118975000,0.0324,0.013523,0.002678,0.000431,0.023858
118976000,0.0324,0.013523,0.002678,0.000431,0.020215
118977000,0.0324,0.013523,0.002678,0.000431,0.020920
118978000,0.0324,0.013523,0.002678,0.000431,0.015514
118979000,0.0324,0.013523,0.002678,0.000431,0.014103
118980000,0.0324,0.013523,0.002678,0.000431,0.017159
118981000,0.0324,0.013523,0.002678,0.000431,0.010578
118982000,0.0324,0.013523,0.002678,0.000431,0.010930
118983000,0.0324,0.013523,0.002678,0.000431,0.009285
118984000,0.0324,0.013523,0.002678,0.000431,0.006464
118985000,0.0324,0.013523,0.002678,0.000431,0.006934
118986000,0.0324,0.013523,0.002678,0.000431,0.003291
118987000,0.0324,0.013523,0.002678,0.000431,0.005641
118988000,0.0324,0.013523,0.002678,0.000431,0.002586
118989000,0.0324,0.013523,0.002678,0.000431,0.004349
118990000,0.0324,0.013523,0.002678,0.000431,0.003878
118991000,0.0324,0.013523,0.002678,0.000431,0.001763
118992000,0.0324,0.013523,0.002678,0.000431,0.001645
118993000,0.0324,0.013523,0.002678,0.000431,0.002938
118994000,0.0324,0.013523,0.002678,0.000431,0.000940
118995000,0.0324,0.013523,0.002678,0.000431,0.000940
118996000,0.0324,0.013523,0.002678,0.000431,0.000705
118997000,0.0324,0.013523,0.002678,0.000431,0.000940
118998000,0.0324,0.013523,0.002678,0.000431,0.000940
118999000,0.0324,0.013523,0.002678,0.000431,0.155020
