Cycle,Area(mm^2),PeakDynamic(W),SubthresholdLeakage(W),GateLeakage(W),RunTimeDynamic(W)
46000000,0.0324,0.013523,0.002678,0.000431,0.004701
46001000,0.0324,0.013523,0.002678,0.000431,0.004584
46002000,0.0324,0.013523,0.002678,0.000431,0.005994
46003000,0.0324,0.013523,0.002678,0.000431,0.009285
46004000,0.0324,0.013523,0.002678,0.000431,0.003761
46005000,0.0324,0.013523,0.002678,0.000431,0.001058
46006000,0.0324,0.013523,0.002678,0.000431,0.030557
46007000,0.0324,0.013523,0.002678,0.000431,0.772043
46008000,0.0324,0.013523,0.002678,0.000431,0.546153
46009000,0.0324,0.013523,0.002678,0.000431,0.136215
46010000,0.0324,0.013523,0.002678,0.000431,0.176645
46011000,0.0324,0.013523,0.002678,0.000431,0.516066
46012000,0.0324,0.013523,0.002678,0.000431,0.280305
46013000,0.0324,0.013523,0.002678,0.000431,0.329196
46014000,0.0324,0.013523,0.002678,0.000431,0.161719
46015000,0.0324,0.013523,0.002678,0.000431,0.114943
46016000,0.0324,0.013523,0.002678,0.000431,0.370919
46017000,0.0324,0.013523,0.002678,0.000431,0.422044
46018000,0.0324,0.013523,0.002678,0.000431,0.220600
46019000,0.0324,0.013523,0.002678,0.000431,0.184402
46020000,0.0324,0.013523,0.002678,0.000431,0.157370
46021000,0.0324,0.013523,0.002678,0.000431,0.141386
46022000,0.0324,0.013523,0.002678,0.000431,0.112122
46023000,0.0324,0.013523,0.002678,0.000431,0.075806
46024000,0.0324,0.013523,0.002678,0.000431,0.059939
46025000,0.0324,0.013523,0.002678,0.000431,0.039489
46026000,0.0324,0.013523,0.002678,0.000431,0.033613
46027000,0.0324,0.013523,0.002678,0.000431,0.026679
46028000,0.0324,0.013523,0.002678,0.000431,0.018805
46029000,0.0324,0.013523,0.002678,0.000431,0.011048
46030000,0.0324,0.013523,0.002678,0.000431,0.009755
46031000,0.0324,0.013523,0.002678,0.000431,0.004113
46032000,0.0324,0.013523,0.002678,0.000431,0.005524
46033000,0.0324,0.013523,0.002678,0.000431,0.003526
46034000,0.0324,0.013523,0.002678,0.000431,0.006229
46035000,0.0324,0.013523,0.002678,0.000431,0.002233
46036000,0.0324,0.013523,0.002678,0.000431,0.002586
46037000,0.0324,0.013523,0.002678,0.000431,0.002233
46038000,0.0324,0.013523,0.002678,0.000431,0.001880
46039000,0.0324,0.013523,0.002678,0.000431,0.001763
46040000,0.0324,0.013523,0.002678,0.000431,0.001410
46041000,0.0324,0.013523,0.002678,0.000431,0.001880
46042000,0.0324,0.013523,0.002678,0.000431,0.001528
46043000,0.0324,0.013523,0.002678,0.000431,0.004466
46044000,0.0324,0.013523,0.002678,0.000431,0.000823
46045000,0.0324,0.013523,0.002678,0.000431,0.000823
46046000,0.0324,0.013523,0.002678,0.000431,0.000823
46047000,0.0324,0.013523,0.002678,0.000431,0.000823
46048000,0.0324,0.013523,0.002678,0.000431,0.000940
46049000,0.0324,0.013523,0.002678,0.000431,0.131161
46050000,0.0324,0.013523,0.002678,0.000431,0.808241
46051000,0.0324,0.013523,0.002678,0.000431,0.485391
46052000,0.0324,0.013523,0.002678,0.000431,0.141269
46053000,0.0324,0.013523,0.002678,0.000431,0.369861
46054000,0.0324,0.013523,0.002678,0.000431,0.383730
46055000,0.0324,0.013523,0.002678,0.000431,0.310745
46056000,0.0324,0.013523,0.002678,0.000431,0.251393
46057000,0.0324,0.013523,0.002678,0.000431,0.161719
46058000,0.0324,0.013523,0.002678,0.000431,0.112004
46059000,0.0324,0.013523,0.002678,0.000431,0.492326
46060000,0.0324,0.013523,0.002678,0.000431,0.345415
46061000,0.0324,0.013523,0.002678,0.000431,0.263498
46062000,0.0324,0.013523,0.002678,0.000431,0.222246
46063000,0.0324,0.013523,0.002678,0.000431,0.173707
46064000,0.0324,0.013523,0.002678,0.000431,0.156312
46065000,0.0324,0.013523,0.002678,0.000431,0.129046
46066000,0.0324,0.013523,0.002678,0.000431,0.083563
46067000,0.0324,0.013523,0.002678,0.000431,0.078039
46068000,0.0324,0.013523,0.002678,0.000431,0.052065
46069000,0.0324,0.013523,0.002678,0.000431,0.057706
46070000,0.0324,0.013523,0.002678,0.000431,0.024446
46071000,0.0324,0.013523,0.002678,0.000431,0.030440
46072000,0.0324,0.013523,0.002678,0.000431,0.022683
46073000,0.0324,0.013523,0.002678,0.000431,0.016219
46074000,0.0324,0.013523,0.002678,0.000431,0.010107
46075000,0.0324,0.013523,0.002678,0.000431,0.010225
46076000,0.0324,0.013523,0.002678,0.000431,0.007757
46077000,0.0324,0.013523,0.002678,0.000431,0.005171
46078000,0.0324,0.013523,0.002678,0.000431,0.004936
46079000,0.0324,0.013523,0.002678,0.000431,0.004466
46080000,0.0324,0.013523,0.002678,0.000431,0.003996
46081000,0.0324,0.013523,0.002678,0.000431,0.009050
46082000,0.0324,0.013523,0.002678,0.000431,0.002703
46083000,0.0324,0.013523,0.002678,0.000431,0.002586
46084000,0.0324,0.013523,0.002678,0.000431,0.004819
46085000,0.0324,0.013523,0.002678,0.000431,0.001645
46086000,0.0324,0.013523,0.002678,0.000431,0.001645
46087000,0.0324,0.013523,0.002678,0.000431,0.001880
46088000,0.0324,0.013523,0.002678,0.000431,0.001645
46089000,0.0324,0.013523,0.002678,0.000431,0.001528
46090000,0.0324,0.013523,0.002678,0.000431,0.001880
46091000,0.0324,0.013523,0.002678,0.000431,0.001528
46092000,0.0324,0.013523,0.002678,0.000431,0.001763
46093000,0.0324,0.013523,0.002678,0.000431,0.001645
46094000,0.0324,0.013523,0.002678,0.000431,0.001645
46095000,0.0324,0.013523,0.002678,0.000431,0.001763
46096000,0.0324,0.013523,0.002678,0.000431,0.001763
46097000,0.0324,0.013523,0.002678,0.000431,0.001645
46098000,0.0324,0.013523,0.002678,0.000431,0.001763
46099000,0.0324,0.013523,0.002678,0.000431,0.001410
46100000,0.0324,0.013523,0.002678,0.000431,0.001880
46101000,0.0324,0.013523,0.002678,0.000431,0.001763
46102000,0.0324,0.013523,0.002678,0.000431,0.001528
46103000,0.0324,0.013523,0.002678,0.000431,0.001880
46104000,0.0324,0.013523,0.002678,0.000431,0.001410
46105000,0.0324,0.013523,0.002678,0.000431,0.001645
46106000,0.0324,0.013523,0.002678,0.000431,0.001645
46107000,0.0324,0.013523,0.002678,0.000431,0.001410
46108000,0.0324,0.013523,0.002678,0.000431,0.001293
46109000,0.0324,0.013523,0.002678,0.000431,0.001528
46110000,0.0324,0.013523,0.002678,0.000431,0.001645
46111000,0.0324,0.013523,0.002678,0.000431,0.001645
46112000,0.0324,0.013523,0.002678,0.000431,0.009167
46113000,0.0324,0.013523,0.002678,0.000431,0.696119
46114000,0.0324,0.013523,0.002678,0.000431,0.662036
46115000,0.0324,0.013523,0.002678,0.000431,0.136920
46116000,0.0324,0.013523,0.002678,0.000431,0.188398
46117000,0.0324,0.013523,0.002678,0.000431,0.599864
46118000,0.0324,0.013523,0.002678,0.000431,0.284536
46119000,0.0324,0.013523,0.002678,0.000431,0.275251
46120000,0.0324,0.013523,0.002678,0.000431,0.178290
46121000,0.0324,0.013523,0.002678,0.000431,0.082505
46122000,0.0324,0.013523,0.002678,0.000431,0.562137
46123000,0.0324,0.013523,0.002678,0.000431,0.258092
46124000,0.0324,0.013523,0.002678,0.000431,0.187810
46125000,0.0324,0.013523,0.002678,0.000431,0.171474
46126000,0.0324,0.013523,0.002678,0.000431,0.139271
46127000,0.0324,0.013523,0.002678,0.000431,0.115413
46128000,0.0324,0.013523,0.002678,0.000431,0.075571
46129000,0.0324,0.013523,0.002678,0.000431,0.076863
46130000,0.0324,0.013523,0.002678,0.000431,0.054180
46131000,0.0324,0.013523,0.002678,0.000431,0.046776
46132000,0.0324,0.013523,0.002678,0.000431,0.035729
46133000,0.0324,0.013523,0.002678,0.000431,0.039607
46134000,0.0324,0.013523,0.002678,0.000431,0.023036
46135000,0.0324,0.013523,0.002678,0.000431,0.021155
46136000,0.0324,0.013523,0.002678,0.000431,0.012576
46137000,0.0324,0.013523,0.002678,0.000431,0.011283
46138000,0.0324,0.013523,0.002678,0.000431,0.007992
46139000,0.0324,0.013523,0.002678,0.000431,0.010578
46140000,0.0324,0.013523,0.002678,0.000431,0.010107
46141000,0.0324,0.013523,0.002678,0.000431,0.007169
46142000,0.0324,0.013523,0.002678,0.000431,0.003761
46143000,0.0324,0.013523,0.002678,0.000431,0.005406
46144000,0.0324,0.013523,0.002678,0.000431,0.001880
46145000,0.0324,0.013523,0.002678,0.000431,0.003643
46146000,0.0324,0.013523,0.002678,0.000431,0.000940
46147000,0.0324,0.013523,0.002678,0.000431,0.000823
46148000,0.0324,0.013523,0.002678,0.000431,0.000705
46149000,0.0324,0.013523,0.002678,0.000431,0.000940
46150000,0.0324,0.013523,0.002678,0.000431,0.000823
46151000,0.0324,0.013523,0.002678,0.000431,0.000823
46152000,0.0324,0.013523,0.002678,0.000431,0.000823
46153000,0.0324,0.013523,0.002678,0.000431,0.000823
46154000,0.0324,0.013523,0.002678,0.000431,0.000823
46155000,0.0324,0.013523,0.002678,0.000431,0.000940
46156000,0.0324,0.013523,0.002678,0.000431,0.000940
46157000,0.0324,0.013523,0.002678,0.000431,0.000940
46158000,0.0324,0.013523,0.002678,0.000431,0.000823
46159000,0.0324,0.013523,0.002678,0.000431,0.000823
46160000,0.0324,0.013523,0.002678,0.000431,0.000940
46161000,0.0324,0.013523,0.002678,0.000431,0.000940
46162000,0.0324,0.013523,0.002678,0.000431,0.000940
46163000,0.0324,0.013523,0.002678,0.000431,0.002116
46164000,0.0324,0.013523,0.002678,0.000431,0.320264
46165000,0.0324,0.013523,0.002678,0.000431,0.829514
46166000,0.0324,0.013523,0.002678,0.000431,0.278424
46167000,0.0324,0.013523,0.002678,0.000431,0.135863
46168000,0.0324,0.013523,0.002678,0.000431,0.454834
46169000,0.0324,0.013523,0.002678,0.000431,0.282655
46170000,0.0324,0.013523,0.002678,0.000431,0.284066
46171000,0.0324,0.013523,0.002678,0.000431,0.289119
46172000,0.0324,0.013523,0.002678,0.000431,0.153962
46173000,0.0324,0.013523,0.002678,0.000431,0.129046
46174000,0.0324,0.013523,0.002678,0.000431,0.319912
46175000,0.0324,0.013523,0.002678,0.000431,0.434032
46176000,0.0324,0.013523,0.002678,0.000431,0.220835
46177000,0.0324,0.013523,0.002678,0.000431,0.193216
46178000,0.0324,0.013523,0.002678,0.000431,0.150083
46179000,0.0324,0.013523,0.002678,0.000431,0.130221
46180000,0.0324,0.013523,0.002678,0.000431,0.106716
46181000,0.0324,0.013523,0.002678,0.000431,0.077804
46182000,0.0324,0.013523,0.002678,0.000431,0.055003
46183000,0.0324,0.013523,0.002678,0.000431,0.051830
46184000,0.0324,0.013523,0.002678,0.000431,0.027972
46185000,0.0324,0.013523,0.002678,0.000431,0.020450
46186000,0.0324,0.013523,0.002678,0.000431,0.014573
46187000,0.0324,0.013523,0.002678,0.000431,0.011400
46188000,0.0324,0.013523,0.002678,0.000431,0.006934
46189000,0.0324,0.013523,0.002678,0.000431,0.008580
46190000,0.0324,0.013523,0.002678,0.000431,0.003291
46191000,0.0324,0.013523,0.002678,0.000431,0.004584
46192000,0.0324,0.013523,0.002678,0.000431,0.000823
46193000,0.0324,0.013523,0.002678,0.000431,0.000940
46194000,0.0324,0.013523,0.002678,0.000431,0.000823
46195000,0.0324,0.013523,0.002678,0.000431,0.000940
46196000,0.0324,0.013523,0.002678,0.000431,0.000823
46197000,0.0324,0.013523,0.002678,0.000431,0.000823
46198000,0.0324,0.013523,0.002678,0.000431,0.000940
46199000,0.0324,0.013523,0.002678,0.000431,0.000940
46200000,0.0324,0.013523,0.002678,0.000431,0.000823
46201000,0.0324,0.013523,0.002678,0.000431,0.000823
46202000,0.0324,0.013523,0.002678,0.000431,0.000940
46203000,0.0324,0.013523,0.002678,0.000431,0.000940
46204000,0.0324,0.013523,0.002678,0.000431,0.000823
46205000,0.0324,0.013523,0.002678,0.000431,0.000823
46206000,0.0324,0.013523,0.002678,0.000431,0.001175
46207000,0.0324,0.013523,0.002678,0.000431,0.000705
46208000,0.0324,0.013523,0.002678,0.000431,0.000940
46209000,0.0324,0.013523,0.002678,0.000431,0.000940
46210000,0.0324,0.013523,0.002678,0.000431,0.000940
46211000,0.0324,0.013523,0.002678,0.000431,0.000823
46212000,0.0324,0.013523,0.002678,0.000431,0.000940
46213000,0.0324,0.013523,0.002678,0.000431,0.000823
46214000,0.0324,0.013523,0.002678,0.000431,0.000940
46215000,0.0324,0.013523,0.002678,0.000431,0.047246
46216000,0.0324,0.013523,0.002678,0.000431,0.779917
46217000,0.0324,0.013523,0.002678,0.000431,0.536869
46218000,0.0324,0.013523,0.002678,0.000431,0.135863
46219000,0.0324,0.013523,0.002678,0.000431,0.236232
46220000,0.0324,0.013523,0.002678,0.000431,0.502551
46221000,0.0324,0.013523,0.002678,0.000431,0.265731
46222000,0.0324,0.013523,0.002678,0.000431,0.279364
46223000,0.0324,0.013523,0.002678,0.000431,0.165715
46224000,0.0324,0.013523,0.002678,0.000431,0.114472
46225000,0.0324,0.013523,0.002678,0.000431,0.476224
46226000,0.0324,0.013523,0.002678,0.000431,0.322027
46227000,0.0324,0.013523,0.002678,0.000431,0.239287
46228000,0.0324,0.013523,0.002678,0.000431,0.199798
46229000,0.0324,0.013523,0.002678,0.000431,0.161601
46230000,0.0324,0.013523,0.002678,0.000431,0.137390
46231000,0.0324,0.013523,0.002678,0.000431,0.123875
46232000,0.0324,0.013523,0.002678,0.000431,0.084855
46233000,0.0324,0.013523,0.002678,0.000431,0.065581
46234000,0.0324,0.013523,0.002678,0.000431,0.047834
46235000,0.0324,0.013523,0.002678,0.000431,0.039842
46236000,0.0324,0.013523,0.002678,0.000431,0.025974
46237000,0.0324,0.013523,0.002678,0.000431,0.019392
46238000,0.0324,0.013523,0.002678,0.000431,0.011988
46239000,0.0324,0.013523,0.002678,0.000431,0.010578
46240000,0.0324,0.013523,0.002678,0.000431,0.005994
46241000,0.0324,0.013523,0.002678,0.000431,0.007992
46242000,0.0324,0.013523,0.002678,0.000431,0.010342
46243000,0.0324,0.013523,0.002678,0.000431,0.007287
46244000,0.0324,0.013523,0.002678,0.000431,0.001763
46245000,0.0324,0.013523,0.002678,0.000431,0.001763
46246000,0.0324,0.013523,0.002678,0.000431,0.001645
46247000,0.0324,0.013523,0.002678,0.000431,0.003526
46248000,0.0324,0.013523,0.002678,0.000431,0.000823
46249000,0.0324,0.013523,0.002678,0.000431,0.000940
46250000,0.0324,0.013523,0.002678,0.000431,0.000705
46251000,0.0324,0.013523,0.002678,0.000431,0.000940
46252000,0.0324,0.013523,0.002678,0.000431,0.000940
46253000,0.0324,0.013523,0.002678,0.000431,0.000940
46254000,0.0324,0.013523,0.002678,0.000431,0.000823
46255000,0.0324,0.013523,0.002678,0.000431,0.000823
46256000,0.0324,0.013523,0.002678,0.000431,0.000940
46257000,0.0324,0.013523,0.002678,0.000431,0.009990
46258000,0.0324,0.013523,0.002678,0.000431,0.696354
46259000,0.0324,0.013523,0.002678,0.000431,0.633124
46260000,0.0324,0.013523,0.002678,0.000431,0.136803
46261000,0.0324,0.013523,0.002678,0.000431,0.136333
46262000,0.0324,0.013523,0.002678,0.000431,0.512188
46263000,0.0324,0.013523,0.002678,0.000431,0.232588
46264000,0.0324,0.013523,0.002678,0.000431,0.326141
46265000,0.0324,0.013523,0.002678,0.000431,0.165480
46266000,0.0324,0.013523,0.002678,0.000431,0.169241
46267000,0.0324,0.013523,0.002678,0.000431,0.110124
46268000,0.0324,0.013523,0.002678,0.000431,0.544038
46269000,0.0324,0.013523,0.002678,0.000431,0.236702
46270000,0.0324,0.013523,0.002678,0.000431,0.192746
46271000,0.0324,0.013523,0.002678,0.000431,0.158781
46272000,0.0324,0.013523,0.002678,0.000431,0.139859
46273000,0.0324,0.013523,0.002678,0.000431,0.111652
46274000,0.0324,0.013523,0.002678,0.000431,0.092730
46275000,0.0324,0.013523,0.002678,0.000431,0.081330
46276000,0.0324,0.013523,0.002678,0.000431,0.069812
46277000,0.0324,0.013523,0.002678,0.000431,0.046071
46278000,0.0324,0.013523,0.002678,0.000431,0.029970
46279000,0.0324,0.013523,0.002678,0.000431,0.014926
46280000,0.0324,0.013523,0.002678,0.000431,0.018217
46281000,0.0324,0.013523,0.002678,0.000431,0.015396
46282000,0.0324,0.013523,0.002678,0.000431,0.016924
46283000,0.0324,0.013523,0.002678,0.000431,0.012105
46284000,0.0324,0.013523,0.002678,0.000431,0.012576
46285000,0.0324,0.013523,0.002678,0.000431,0.011165
46286000,0.0324,0.013523,0.002678,0.000431,0.015044
46287000,0.0324,0.013523,0.002678,0.000431,0.006111
46288000,0.0324,0.013523,0.002678,0.000431,0.005406
46289000,0.0324,0.013523,0.002678,0.000431,0.007287
46290000,0.0324,0.013523,0.002678,0.000431,0.007639
46291000,0.0324,0.013523,0.002678,0.000431,0.005641
46292000,0.0324,0.013523,0.002678,0.000431,0.002116
46293000,0.0324,0.013523,0.002678,0.000431,0.001763
46294000,0.0324,0.013523,0.002678,0.000431,0.001763
46295000,0.0324,0.013523,0.002678,0.000431,0.004113
46296000,0.0324,0.013523,0.002678,0.000431,0.000940
46297000,0.0324,0.013523,0.002678,0.000431,0.001645
46298000,0.0324,0.013523,0.002678,0.000431,0.362809
46299000,0.0324,0.013523,0.002678,0.000431,0.811532
46300000,0.0324,0.013523,0.002678,0.000431,0.236232
46301000,0.0324,0.013523,0.002678,0.000431,0.138213
46302000,0.0324,0.013523,0.002678,0.000431,0.552970
46303000,0.0324,0.013523,0.002678,0.000431,0.277484
46304000,0.0324,0.013523,0.002678,0.000431,0.338834
46305000,0.0324,0.013523,0.002678,0.000431,0.158310
46306000,0.0324,0.013523,0.002678,0.000431,0.105423
46307000,0.0324,0.013523,0.002678,0.000431,0.407823
46308000,0.0324,0.013523,0.002678,0.000431,0.396188
46309000,0.0324,0.013523,0.002678,0.000431,0.199210
46310000,0.0324,0.013523,0.002678,0.000431,0.176292
46311000,0.0324,0.013523,0.002678,0.000431,0.155607
46312000,0.0324,0.013523,0.002678,0.000431,0.132454
46313000,0.0324,0.013523,0.002678,0.000431,0.106010
46314000,0.0324,0.013523,0.002678,0.000431,0.094610
46315000,0.0324,0.013523,0.002678,0.000431,0.095315
46316000,0.0324,0.013523,0.002678,0.000431,0.064758
46317000,0.0324,0.013523,0.002678,0.000431,0.059939
46318000,0.0324,0.013523,0.002678,0.000431,0.057706
46319000,0.0324,0.013523,0.002678,0.000431,0.032320
46320000,0.0324,0.013523,0.002678,0.000431,0.025151
46321000,0.0324,0.013523,0.002678,0.000431,0.030792
46322000,0.0324,0.013523,0.002678,0.000431,0.029382
46323000,0.0324,0.013523,0.002678,0.000431,0.024211
46324000,0.0324,0.013523,0.002678,0.000431,0.017629
46325000,0.0324,0.013523,0.002678,0.000431,0.017747
46326000,0.0324,0.013523,0.002678,0.000431,0.014338
46327000,0.0324,0.013523,0.002678,0.000431,0.015279
46328000,0.0324,0.013523,0.002678,0.000431,0.014456
46329000,0.0324,0.013523,0.002678,0.000431,0.016807
46330000,0.0324,0.013523,0.002678,0.000431,0.020802
46331000,0.0324,0.013523,0.002678,0.000431,0.014573
46332000,0.0324,0.013523,0.002678,0.000431,0.017629
46333000,0.0324,0.013523,0.002678,0.000431,0.010342
46334000,0.0324,0.013523,0.002678,0.000431,0.007169
46335000,0.0324,0.013523,0.002678,0.000431,0.004819
46336000,0.0324,0.013523,0.002678,0.000431,0.005054
46337000,0.0324,0.013523,0.002678,0.000431,0.007169
46338000,0.0324,0.013523,0.002678,0.000431,0.004113
46339000,0.0324,0.013523,0.002678,0.000431,0.000940
46340000,0.0324,0.013523,0.002678,0.000431,0.000940
46341000,0.0324,0.013523,0.002678,0.000431,0.000940
46342000,0.0324,0.013523,0.002678,0.000431,0.000823
46343000,0.0324,0.013523,0.002678,0.000431,0.000823
46344000,0.0324,0.013523,0.002678,0.000431,0.000940
46345000,0.0324,0.013523,0.002678,0.000431,0.000823
46346000,0.0324,0.013523,0.002678,0.000431,0.000940
46347000,0.0324,0.013523,0.002678,0.000431,0.000823
46348000,0.0324,0.013523,0.002678,0.000431,0.000940
46349000,0.0324,0.013523,0.002678,0.000431,0.000823
46350000,0.0324,0.013523,0.002678,0.000431,0.002586
46351000,0.0324,0.013523,0.002678,0.000431,0.552147
46352000,0.0324,0.013523,0.002678,0.000431,0.746774
46353000,0.0324,0.013523,0.002678,0.000431,0.150671
46354000,0.0324,0.013523,0.002678,0.000431,0.135863
46355000,0.0324,0.013523,0.002678,0.000431,0.526291
46356000,0.0324,0.013523,0.002678,0.000431,0.263968
46357000,0.0324,0.013523,0.002678,0.000431,0.261265
46358000,0.0324,0.013523,0.002678,0.000431,0.202031
46359000,0.0324,0.013523,0.002678,0.000431,0.162189
46360000,0.0324,0.013523,0.002678,0.000431,0.114237
46361000,0.0324,0.013523,0.002678,0.000431,0.437205
46362000,0.0324,0.013523,0.002678,0.000431,0.364337
46363000,0.0324,0.013523,0.002678,0.000431,0.196977
46364000,0.0324,0.013523,0.002678,0.000431,0.167830
46365000,0.0324,0.013523,0.002678,0.000431,0.133277
46366000,0.0324,0.013523,0.002678,0.000431,0.112827
46367000,0.0324,0.013523,0.002678,0.000431,0.108831
46368000,0.0324,0.013523,0.002678,0.000431,0.080037
46369000,0.0324,0.013523,0.002678,0.000431,0.069694
46370000,0.0324,0.013523,0.002678,0.000431,0.050655
46371000,0.0324,0.013523,0.002678,0.000431,0.046659
46372000,0.0324,0.013523,0.002678,0.000431,0.024446
46373000,0.0324,0.013523,0.002678,0.000431,0.022330
46374000,0.0324,0.013523,0.002678,0.000431,0.016101
46375000,0.0324,0.013523,0.002678,0.000431,0.017394
46376000,0.0324,0.013523,0.002678,0.000431,0.014456
46377000,0.0324,0.013523,0.002678,0.000431,0.004349
46378000,0.0324,0.013523,0.002678,0.000431,0.003291
46379000,0.0324,0.013523,0.002678,0.000431,0.003056
46380000,0.0324,0.013523,0.002678,0.000431,0.003291
46381000,0.0324,0.013523,0.002678,0.000431,0.003173
46382000,0.0324,0.013523,0.002678,0.000431,0.005759
46383000,0.0324,0.013523,0.002678,0.000431,0.001998
46384000,0.0324,0.013523,0.002678,0.000431,0.235291
46385000,0.0324,0.013523,0.002678,0.000431,0.711633
46386000,0.0324,0.013523,0.002678,0.000431,0.456009
46387000,0.0324,0.013523,0.002678,0.000431,0.137626
46388000,0.0324,0.013523,0.002678,0.000431,0.519710
46389000,0.0324,0.013523,0.002678,0.000431,0.298639
46390000,0.0324,0.013523,0.002678,0.000431,0.325788
46391000,0.0324,0.013523,0.002678,0.000431,0.197682
46392000,0.0324,0.013523,0.002678,0.000431,0.146910
46393000,0.0324,0.013523,0.002678,0.000431,0.188045
46394000,0.0324,0.013523,0.002678,0.000431,0.539689
46395000,0.0324,0.013523,0.002678,0.000431,0.226007
46396000,0.0324,0.013523,0.002678,0.000431,0.181228
46397000,0.0324,0.013523,0.002678,0.000431,0.153139
46398000,0.0324,0.013523,0.002678,0.000431,0.125403
46399000,0.0324,0.013523,0.002678,0.000431,0.104247
46400000,0.0324,0.013523,0.002678,0.000431,0.091554
46401000,0.0324,0.013523,0.002678,0.000431,0.071222
46402000,0.0324,0.013523,0.002678,0.000431,0.039372
46403000,0.0324,0.013523,0.002678,0.000431,0.040547
46404000,0.0324,0.013523,0.002678,0.000431,0.035846
46405000,0.0324,0.013523,0.002678,0.000431,0.031498
46406000,0.0324,0.013523,0.002678,0.000431,0.010342
46407000,0.0324,0.013523,0.002678,0.000431,0.014221
46408000,0.0324,0.013523,0.002678,0.000431,0.011753
46409000,0.0324,0.013523,0.002678,0.000431,0.005876
46410000,0.0324,0.013523,0.002678,0.000431,0.008932
46411000,0.0324,0.013523,0.002678,0.000431,0.009285
46412000,0.0324,0.013523,0.002678,0.000431,0.003526
46413000,0.0324,0.013523,0.002678,0.000431,0.003056
46414000,0.0324,0.013523,0.002678,0.000431,0.005054
46415000,0.0324,0.013523,0.002678,0.000431,0.000823
46416000,0.0324,0.013523,0.002678,0.000431,0.000940
46417000,0.0324,0.013523,0.002678,0.000431,0.000940
46418000,0.0324,0.013523,0.002678,0.000431,0.000940
46419000,0.0324,0.013523,0.002678,0.000431,0.226829
46420000,0.0324,0.013523,0.002678,0.000431,0.741133
46421000,0.0324,0.013523,0.002678,0.000431,0.465647
46422000,0.0324,0.013523,0.002678,0.000431,0.137273
46423000,0.0324,0.013523,0.002678,0.000431,0.469525
46424000,0.0324,0.013523,0.002678,0.000431,0.306984
46425000,0.0324,0.013523,0.002678,0.000431,0.325788
46426000,0.0324,0.013523,0.002678,0.000431,0.215429
46427000,0.0324,0.013523,0.002678,0.000431,0.182756
46428000,0.0324,0.013523,0.002678,0.000431,0.095198
46429000,0.0324,0.013523,0.002678,0.000431,0.564605
46430000,0.0324,0.013523,0.002678,0.000431,0.254213
46431000,0.0324,0.013523,0.002678,0.000431,0.205204
46432000,0.0324,0.013523,0.002678,0.000431,0.173942
46433000,0.0324,0.013523,0.002678,0.000431,0.148321
46434000,0.0324,0.013523,0.002678,0.000431,0.119996
46435000,0.0324,0.013523,0.002678,0.000431,0.108596
46436000,0.0324,0.013523,0.002678,0.000431,0.063818
46437000,0.0324,0.013523,0.002678,0.000431,0.042310
46438000,0.0324,0.013523,0.002678,0.000431,0.046776
46439000,0.0324,0.013523,0.002678,0.000431,0.023506
46440000,0.0324,0.013523,0.002678,0.000431,0.019157
46441000,0.0324,0.013523,0.002678,0.000431,0.015749
46442000,0.0324,0.013523,0.002678,0.000431,0.013281
46443000,0.0324,0.013523,0.002678,0.000431,0.017982
46444000,0.0324,0.013523,0.002678,0.000431,0.011635
46445000,0.0324,0.013523,0.002678,0.000431,0.002703
46446000,0.0324,0.013523,0.002678,0.000431,0.001763
46447000,0.0324,0.013523,0.002678,0.000431,0.003643
46448000,0.0324,0.013523,0.002678,0.000431,0.000823
46449000,0.0324,0.013523,0.002678,0.000431,0.000823
46450000,0.0324,0.013523,0.002678,0.000431,0.000823
46451000,0.0324,0.013523,0.002678,0.000431,0.000705
46452000,0.0324,0.013523,0.002678,0.000431,0.071927
46453000,0.0324,0.013523,0.002678,0.000431,0.797429
46454000,0.0324,0.013523,0.002678,0.000431,0.515714
46455000,0.0324,0.013523,0.002678,0.000431,0.149496
46456000,0.0324,0.013523,0.002678,0.000431,0.490093
46457000,0.0324,0.013523,0.002678,0.000431,0.300872
46458000,0.0324,0.013523,0.002678,0.000431,0.325788
46459000,0.0324,0.013523,0.002678,0.000431,0.184049
46460000,0.0324,0.013523,0.002678,0.000431,0.134922
46461000,0.0324,0.013523,0.002678,0.000431,0.240933
46462000,0.0324,0.013523,0.002678,0.000431,0.525469
46463000,0.0324,0.013523,0.002678,0.000431,0.222363
46464000,0.0324,0.013523,0.002678,0.000431,0.185930
46465000,0.0324,0.013523,0.002678,0.000431,0.154667
46466000,0.0324,0.013523,0.002678,0.000431,0.136568
46467000,0.0324,0.013523,0.002678,0.000431,0.097548
46468000,0.0324,0.013523,0.002678,0.000431,0.089556
46469000,0.0324,0.013523,0.002678,0.000431,0.062290
46470000,0.0324,0.013523,0.002678,0.000431,0.042310
46471000,0.0324,0.013523,0.002678,0.000431,0.034318
46472000,0.0324,0.013523,0.002678,0.000431,0.025504
46473000,0.0324,0.013523,0.002678,0.000431,0.013868
46474000,0.0324,0.013523,0.002678,0.000431,0.011870
46475000,0.0324,0.013523,0.002678,0.000431,0.005406
46476000,0.0324,0.013523,0.002678,0.000431,0.002703
46477000,0.0324,0.013523,0.002678,0.000431,0.004584
46478000,0.0324,0.013523,0.002678,0.000431,0.234351
46479000,0.0324,0.013523,0.002678,0.000431,0.725854
46480000,0.0324,0.013523,0.002678,0.000431,0.470700
46481000,0.0324,0.013523,0.002678,0.000431,0.138801
46482000,0.0324,0.013523,0.002678,0.000431,0.349999
46483000,0.0324,0.013523,0.002678,0.000431,0.392544
46484000,0.0324,0.013523,0.002678,0.000431,0.326611
46485000,0.0324,0.013523,0.002678,0.000431,0.281362
46486000,0.0324,0.013523,0.002678,0.000431,0.156783
46487000,0.0324,0.013523,0.002678,0.000431,0.112357
46488000,0.0324,0.013523,0.002678,0.000431,0.479868
46489000,0.0324,0.013523,0.002678,0.000431,0.322027
46490000,0.0324,0.013523,0.002678,0.000431,0.216369
46491000,0.0324,0.013523,0.002678,0.000431,0.181228
46492000,0.0324,0.013523,0.002678,0.000431,0.161249
46493000,0.0324,0.013523,0.002678,0.000431,0.127048
46494000,0.0324,0.013523,0.002678,0.000431,0.108126
46495000,0.0324,0.013523,0.002678,0.000431,0.081330
46496000,0.0324,0.013523,0.002678,0.000431,0.080859
46497000,0.0324,0.013523,0.002678,0.000431,0.048304
46498000,0.0324,0.013523,0.002678,0.000431,0.049362
46499000,0.0324,0.013523,0.002678,0.000431,0.042075
46500000,0.0324,0.013523,0.002678,0.000431,0.040430
46501000,0.0324,0.013523,0.002678,0.000431,0.030557
46502000,0.0324,0.013523,0.002678,0.000431,0.022095
46503000,0.0324,0.013523,0.002678,0.000431,0.014456
46504000,0.0324,0.013523,0.002678,0.000431,0.014221
46505000,0.0324,0.013523,0.002678,0.000431,0.008109
46506000,0.0324,0.013523,0.002678,0.000431,0.012458
46507000,0.0324,0.013523,0.002678,0.000431,0.007052
46508000,0.0324,0.013523,0.002678,0.000431,0.008815
46509000,0.0324,0.013523,0.002678,0.000431,0.006229
46510000,0.0324,0.013523,0.002678,0.000431,0.008815
46511000,0.0324,0.013523,0.002678,0.000431,0.009402
46512000,0.0324,0.013523,0.002678,0.000431,0.004701
46513000,0.0324,0.013523,0.002678,0.000431,0.000940
46514000,0.0324,0.013523,0.002678,0.000431,0.000823
46515000,0.0324,0.013523,0.002678,0.000431,0.000823
46516000,0.0324,0.013523,0.002678,0.000431,0.000823
46517000,0.0324,0.013523,0.002678,0.000431,0.001410
46518000,0.0324,0.013523,0.002678,0.000431,0.314505
46519000,0.0324,0.013523,0.002678,0.000431,0.838916
46520000,0.0324,0.013523,0.002678,0.000431,0.283008
46521000,0.0324,0.013523,0.002678,0.000431,0.137038
46522000,0.0324,0.013523,0.002678,0.000431,0.534636
46523000,0.0324,0.013523,0.002678,0.000431,0.258444
46524000,0.0324,0.013523,0.002678,0.000431,0.326023
46525000,0.0324,0.013523,0.002678,0.000431,0.200738
46526000,0.0324,0.013523,0.002678,0.000431,0.181464
46527000,0.0324,0.013523,0.002678,0.000431,0.089792
46528000,0.0324,0.013523,0.002678,0.000431,0.554615
46529000,0.0324,0.013523,0.002678,0.000431,0.255976
46530000,0.0324,0.013523,0.002678,0.000431,0.196390
46531000,0.0324,0.013523,0.002678,0.000431,0.168770
46532000,0.0324,0.013523,0.002678,0.000431,0.141974
46533000,0.0324,0.013523,0.002678,0.000431,0.122464
46534000,0.0324,0.013523,0.002678,0.000431,0.106833
46535000,0.0324,0.013523,0.002678,0.000431,0.087911
46536000,0.0324,0.013523,0.002678,0.000431,0.072632
46537000,0.0324,0.013523,0.002678,0.000431,0.057706
46538000,0.0324,0.013523,0.002678,0.000431,0.052300
46539000,0.0324,0.013523,0.002678,0.000431,0.031027
46540000,0.0324,0.013523,0.002678,0.000431,0.031733
46541000,0.0324,0.013523,0.002678,0.000431,0.015631
46542000,0.0324,0.013523,0.002678,0.000431,0.014456
46543000,0.0324,0.013523,0.002678,0.000431,0.012576
46544000,0.0324,0.013523,0.002678,0.000431,0.011400
46545000,0.0324,0.013523,0.002678,0.000431,0.006699
46546000,0.0324,0.013523,0.002678,0.000431,0.004349
46547000,0.0324,0.013523,0.002678,0.000431,0.003878
46548000,0.0324,0.013523,0.002678,0.000431,0.005641
46549000,0.0324,0.013523,0.002678,0.000431,0.002703
46550000,0.0324,0.013523,0.002678,0.000431,0.004231
46551000,0.0324,0.013523,0.002678,0.000431,0.001880
46552000,0.0324,0.013523,0.002678,0.000431,0.001763
46553000,0.0324,0.013523,0.002678,0.000431,0.003291
46554000,0.0324,0.013523,0.002678,0.000431,0.003526
46555000,0.0324,0.013523,0.002678,0.000431,0.549679
46556000,0.0324,0.013523,0.002678,0.000431,0.745834
46557000,0.0324,0.013523,0.002678,0.000431,0.139388
46558000,0.0324,0.013523,0.002678,0.000431,0.137273
46559000,0.0324,0.013523,0.002678,0.000431,0.574478
46560000,0.0324,0.013523,0.002678,0.000431,0.243636
46561000,0.0324,0.013523,0.002678,0.000431,0.345533
46562000,0.0324,0.013523,0.002678,0.000431,0.149496
46563000,0.0324,0.013523,0.002678,0.000431,0.173472
46564000,0.0324,0.013523,0.002678,0.000431,0.159368
46565000,0.0324,0.013523,0.002678,0.000431,0.528524
46566000,0.0324,0.013523,0.002678,0.000431,0.142444
46567000,0.0324,0.013523,0.002678,0.000431,0.124227
46568000,0.0324,0.013523,0.002678,0.000431,0.115060
46569000,0.0324,0.013523,0.002678,0.000431,0.083092
46570000,0.0324,0.013523,0.002678,0.000431,0.069224
46571000,0.0324,0.013523,0.002678,0.000431,0.062643
46572000,0.0324,0.013523,0.002678,0.000431,0.045836
46573000,0.0324,0.013523,0.002678,0.000431,0.025621
46574000,0.0324,0.013523,0.002678,0.000431,0.015984
46575000,0.0324,0.013523,0.002678,0.000431,0.013046
46576000,0.0324,0.013523,0.002678,0.000431,0.008697
46577000,0.0324,0.013523,0.002678,0.000431,0.004349
46578000,0.0324,0.013523,0.002678,0.000431,0.003761
46579000,0.0324,0.013523,0.002678,0.000431,0.001880
46580000,0.0324,0.013523,0.002678,0.000431,0.001763
46581000,0.0324,0.013523,0.002678,0.000431,0.001645
46582000,0.0324,0.013523,0.002678,0.000431,0.001645
46583000,0.0324,0.013523,0.002678,0.000431,0.001880
46584000,0.0324,0.013523,0.002678,0.000431,0.004936
46585000,0.0324,0.013523,0.002678,0.000431,0.067226
46586000,0.0324,0.013523,0.002678,0.000431,0.701878
46587000,0.0324,0.013523,0.002678,0.000431,0.534518
46588000,0.0324,0.013523,0.002678,0.000431,0.137155
46589000,0.0324,0.013523,0.002678,0.000431,0.245986
46590000,0.0324,0.013523,0.002678,0.000431,0.454129
46591000,0.0324,0.013523,0.002678,0.000431,0.323673
46592000,0.0324,0.013523,0.002678,0.000431,0.285006
46593000,0.0324,0.013523,0.002678,0.000431,0.179230
46594000,0.0324,0.013523,0.002678,0.000431,0.087558
46595000,0.0324,0.013523,0.002678,0.000431,0.550149
46596000,0.0324,0.013523,0.002678,0.000431,0.173707
46597000,0.0324,0.013523,0.002678,0.000431,0.130809
46598000,0.0324,0.013523,0.002678,0.000431,0.115883
46599000,0.0324,0.013523,0.002678,0.000431,0.100722
46600000,0.0324,0.013523,0.002678,0.000431,0.082622
46601000,0.0324,0.013523,0.002678,0.000431,0.072397
46602000,0.0324,0.013523,0.002678,0.000431,0.055238
46603000,0.0324,0.013523,0.002678,0.000431,0.038079
46604000,0.0324,0.013523,0.002678,0.000431,0.036081
46605000,0.0324,0.013523,0.002678,0.000431,0.035611
46606000,0.0324,0.013523,0.002678,0.000431,0.020920
46607000,0.0324,0.013523,0.002678,0.000431,0.015984
46608000,0.0324,0.013523,0.002678,0.000431,0.012105
46609000,0.0324,0.013523,0.002678,0.000431,0.011518
46610000,0.0324,0.013523,0.002678,0.000431,0.012340
46611000,0.0324,0.013523,0.002678,0.000431,0.012223
46612000,0.0324,0.013523,0.002678,0.000431,0.012811
46613000,0.0324,0.013523,0.002678,0.000431,0.004113
46614000,0.0324,0.013523,0.002678,0.000431,0.006464
46615000,0.0324,0.013523,0.002678,0.000431,0.004936
46616000,0.0324,0.013523,0.002678,0.000431,0.001880
46617000,0.0324,0.013523,0.002678,0.000431,0.001998
46618000,0.0324,0.013523,0.002678,0.000431,0.001998
46619000,0.0324,0.013523,0.002678,0.000431,0.003173
46620000,0.0324,0.013523,0.002678,0.000431,0.001528
46621000,0.0324,0.013523,0.002678,0.000431,0.001410
46622000,0.0324,0.013523,0.002678,0.000431,0.000940
46623000,0.0324,0.013523,0.002678,0.000431,0.014573
46624000,0.0324,0.013523,0.002678,0.000431,0.737019
46625000,0.0324,0.013523,0.002678,0.000431,0.539337
46626000,0.0324,0.013523,0.002678,0.000431,0.136803
46627000,0.0324,0.013523,0.002678,0.000431,0.155725
46628000,0.0324,0.013523,0.002678,0.000431,0.534753
46629000,0.0324,0.013523,0.002678,0.000431,0.284536
46630000,0.0324,0.013523,0.002678,0.000431,0.319324
46631000,0.0324,0.013523,0.002678,0.000431,0.153962
46632000,0.0324,0.013523,0.002678,0.000431,0.108949
46633000,0.0324,0.013523,0.002678,0.000431,0.392662
46634000,0.0324,0.013523,0.002678,0.000431,0.398068
46635000,0.0324,0.013523,0.002678,0.000431,0.195567
46636000,0.0324,0.013523,0.002678,0.000431,0.172296
46637000,0.0324,0.013523,0.002678,0.000431,0.159956
46638000,0.0324,0.013523,0.002678,0.000431,0.136803
46639000,0.0324,0.013523,0.002678,0.000431,0.112122
46640000,0.0324,0.013523,0.002678,0.000431,0.085678
46641000,0.0324,0.013523,0.002678,0.000431,0.072867
46642000,0.0324,0.013523,0.002678,0.000431,0.064641
46643000,0.0324,0.013523,0.002678,0.000431,0.046894
46644000,0.0324,0.013523,0.002678,0.000431,0.052770
46645000,0.0324,0.013523,0.002678,0.000431,0.033378
46646000,0.0324,0.013523,0.002678,0.000431,0.021743
46647000,0.0324,0.013523,0.002678,0.000431,0.011518
46648000,0.0324,0.013523,0.002678,0.000431,0.013986
46649000,0.0324,0.013523,0.002678,0.000431,0.011870
46650000,0.0324,0.013523,0.002678,0.000431,0.003291
46651000,0.0324,0.013523,0.002678,0.000431,0.003643
46652000,0.0324,0.013523,0.002678,0.000431,0.002938
46653000,0.0324,0.013523,0.002678,0.000431,0.002468
46654000,0.0324,0.013523,0.002678,0.000431,0.003526
46655000,0.0324,0.013523,0.002678,0.000431,0.003056
46656000,0.0324,0.013523,0.002678,0.000431,0.005759
46657000,0.0324,0.013523,0.002678,0.000431,0.324613
46658000,0.0324,0.013523,0.002678,0.000431,0.783913
46659000,0.0324,0.013523,0.002678,0.000431,0.315211
46660000,0.0324,0.013523,0.002678,0.000431,0.134922
46661000,0.0324,0.013523,0.002678,0.000431,0.467057
46662000,0.0324,0.013523,0.002678,0.000431,0.241168
46663000,0.0324,0.013523,0.002678,0.000431,0.274428
46664000,0.0324,0.013523,0.002678,0.000431,0.239993
46665000,0.0324,0.013523,0.002678,0.000431,0.152199
46666000,0.0324,0.013523,0.002678,0.000431,0.177350
46667000,0.0324,0.013523,0.002678,0.000431,0.145030
46668000,0.0324,0.013523,0.002678,0.000431,0.544273
46669000,0.0324,0.013523,0.002678,0.000431,0.233293
46670000,0.0324,0.013523,0.002678,0.000431,0.195684
46671000,0.0324,0.013523,0.002678,0.000431,0.156783
46672000,0.0324,0.013523,0.002678,0.000431,0.135510
46673000,0.0324,0.013523,0.002678,0.000431,0.109536
46674000,0.0324,0.013523,0.002678,0.000431,0.084855
46675000,0.0324,0.013523,0.002678,0.000431,0.072750
46676000,0.0324,0.013523,0.002678,0.000431,0.060880
46677000,0.0324,0.013523,0.002678,0.000431,0.048304
46678000,0.0324,0.013523,0.002678,0.000431,0.034553
46679000,0.0324,0.013523,0.002678,0.000431,0.023506
46680000,0.0324,0.013523,0.002678,0.000431,0.014456
46681000,0.0324,0.013523,0.002678,0.000431,0.009285
46682000,0.0324,0.013523,0.002678,0.000431,0.004113
46683000,0.0324,0.013523,0.002678,0.000431,0.006582
46684000,0.0324,0.013523,0.002678,0.000431,0.004466
46685000,0.0324,0.013523,0.002678,0.000431,0.000823
46686000,0.0324,0.013523,0.002678,0.000431,0.000823
46687000,0.0324,0.013523,0.002678,0.000431,0.000940
46688000,0.0324,0.013523,0.002678,0.000431,0.195802
46689000,0.0324,0.013523,0.002678,0.000431,0.736314
46690000,0.0324,0.013523,0.002678,0.000431,0.485626
46691000,0.0324,0.013523,0.002678,0.000431,0.136333
46692000,0.0324,0.013523,0.002678,0.000431,0.400771
46693000,0.0324,0.013523,0.002678,0.000431,0.389959
46694000,0.0324,0.013523,0.002678,0.000431,0.335660
46695000,0.0324,0.013523,0.002678,0.000431,0.214842
46696000,0.0324,0.013523,0.002678,0.000431,0.156900
46697000,0.0324,0.013523,0.002678,0.000431,0.101192
46698000,0.0324,0.013523,0.002678,0.000431,0.523235
46699000,0.0324,0.013523,0.002678,0.000431,0.238935
46700000,0.0324,0.013523,0.002678,0.000431,0.169476
46701000,0.0324,0.013523,0.002678,0.000431,0.157840
46702000,0.0324,0.013523,0.002678,0.000431,0.128341
46703000,0.0324,0.013523,0.002678,0.000431,0.099664
46704000,0.0324,0.013523,0.002678,0.000431,0.075806
46705000,0.0324,0.013523,0.002678,0.000431,0.052183
46706000,0.0324,0.013523,0.002678,0.000431,0.043250
46707000,0.0324,0.013523,0.002678,0.000431,0.030792
46708000,0.0324,0.013523,0.002678,0.000431,0.023623
46709000,0.0324,0.013523,0.002678,0.000431,0.018569
46710000,0.0324,0.013523,0.002678,0.000431,0.014809
46711000,0.0324,0.013523,0.002678,0.000431,0.010225
46712000,0.0324,0.013523,0.002678,0.000431,0.005289
46713000,0.0324,0.013523,0.002678,0.000431,0.010930
46714000,0.0324,0.013523,0.002678,0.000431,0.003526
46715000,0.0324,0.013523,0.002678,0.000431,0.002703
46716000,0.0324,0.013523,0.002678,0.000431,0.002703
46717000,0.0324,0.013523,0.002678,0.000431,0.004701
46718000,0.0324,0.013523,0.002678,0.000431,0.001763
46719000,0.0324,0.013523,0.002678,0.000431,0.001528
46720000,0.0324,0.013523,0.002678,0.000431,0.001763
46721000,0.0324,0.013523,0.002678,0.000431,0.001645
46722000,0.0324,0.013523,0.002678,0.000431,0.001645
46723000,0.0324,0.013523,0.002678,0.000431,0.001763
46724000,0.0324,0.013523,0.002678,0.000431,0.003878
46725000,0.0324,0.013523,0.002678,0.000431,0.000823
46726000,0.0324,0.013523,0.002678,0.000431,0.000823
46727000,0.0324,0.013523,0.002678,0.000431,0.000823
46728000,0.0324,0.013523,0.002678,0.000431,0.238465
46729000,0.0324,0.013523,0.002678,0.000431,0.673554
46730000,0.0324,0.013523,0.002678,0.000431,0.447782
46731000,0.0324,0.013523,0.002678,0.000431,0.135863
46732000,0.0324,0.013523,0.002678,0.000431,0.396775
46733000,0.0324,0.013523,0.002678,0.000431,0.297111
46734000,0.0324,0.013523,0.002678,0.000431,0.265731
46735000,0.0324,0.013523,0.002678,0.000431,0.263968
46736000,0.0324,0.013523,0.002678,0.000431,0.162189
46737000,0.0324,0.013523,0.002678,0.000431,0.146205
46738000,0.0324,0.013523,0.002678,0.000431,0.237172
46739000,0.0324,0.013523,0.002678,0.000431,0.488917
46740000,0.0324,0.013523,0.002678,0.000431,0.214371
46741000,0.0324,0.013523,0.002678,0.000431,0.195214
46742000,0.0324,0.013523,0.002678,0.000431,0.168535
46743000,0.0324,0.013523,0.002678,0.000431,0.139506
46744000,0.0324,0.013523,0.002678,0.000431,0.118116
46745000,0.0324,0.013523,0.002678,0.000431,0.094610
46746000,0.0324,0.013523,0.002678,0.000431,0.078626
46747000,0.0324,0.013523,0.002678,0.000431,0.063935
46748000,0.0324,0.013523,0.002678,0.000431,0.061115
46749000,0.0324,0.013523,0.002678,0.000431,0.044543
46750000,0.0324,0.013523,0.002678,0.000431,0.033731
46751000,0.0324,0.013523,0.002678,0.000431,0.014103
46752000,0.0324,0.013523,0.002678,0.000431,0.016219
46753000,0.0324,0.013523,0.002678,0.000431,0.011870
46754000,0.0324,0.013523,0.002678,0.000431,0.015749
46755000,0.0324,0.013523,0.002678,0.000431,0.008462
46756000,0.0324,0.013523,0.002678,0.000431,0.006229
46757000,0.0324,0.013523,0.002678,0.000431,0.003173
46758000,0.0324,0.013523,0.002678,0.000431,0.265379
46759000,0.0324,0.013523,0.002678,0.000431,0.754531
46760000,0.0324,0.013523,0.002678,0.000431,0.362457
46761000,0.0324,0.013523,0.002678,0.000431,0.135863
46762000,0.0324,0.013523,0.002678,0.000431,0.485744
46763000,0.0324,0.013523,0.002678,0.000431,0.284653
46764000,0.0324,0.013523,0.002678,0.000431,0.301695
46765000,0.0324,0.013523,0.002678,0.000431,0.235997
46766000,0.0324,0.013523,0.002678,0.000431,0.156430
46767000,0.0324,0.013523,0.002678,0.000431,0.105540
46768000,0.0324,0.013523,0.002678,0.000431,0.519357
46769000,0.0324,0.013523,0.002678,0.000431,0.243989
46770000,0.0324,0.013523,0.002678,0.000431,0.172649
46771000,0.0324,0.013523,0.002678,0.000431,0.144795
46772000,0.0324,0.013523,0.002678,0.000431,0.137626
46773000,0.0324,0.013523,0.002678,0.000431,0.114120
46774000,0.0324,0.013523,0.002678,0.000431,0.067931
46775000,0.0324,0.013523,0.002678,0.000431,0.058529
46776000,0.0324,0.013523,0.002678,0.000431,0.050772
46777000,0.0324,0.013523,0.002678,0.000431,0.047011
46778000,0.0324,0.013523,0.002678,0.000431,0.041252
46779000,0.0324,0.013523,0.002678,0.000431,0.033496
46780000,0.0324,0.013523,0.002678,0.000431,0.020097
46781000,0.0324,0.013523,0.002678,0.000431,0.014338
46782000,0.0324,0.013523,0.002678,0.000431,0.021155
46783000,0.0324,0.013523,0.002678,0.000431,0.041723
46784000,0.0324,0.013523,0.002678,0.000431,0.716569
46785000,0.0324,0.013523,0.002678,0.000431,0.547564
46786000,0.0324,0.013523,0.002678,0.000431,0.135863
46787000,0.0324,0.013523,0.002678,0.000431,0.180876
46788000,0.0324,0.013523,0.002678,0.000431,0.611969
46789000,0.0324,0.013523,0.002678,0.000431,0.247162
46790000,0.0324,0.013523,0.002678,0.000431,0.317796
46791000,0.0324,0.013523,0.002678,0.000431,0.154079
46792000,0.0324,0.013523,0.002678,0.000431,0.106128
46793000,0.0324,0.013523,0.002678,0.000431,0.382554
46794000,0.0324,0.013523,0.002678,0.000431,0.397833
46795000,0.0324,0.013523,0.002678,0.000431,0.205204
46796000,0.0324,0.013523,0.002678,0.000431,0.173942
46797000,0.0324,0.013523,0.002678,0.000431,0.149143
46798000,0.0324,0.013523,0.002678,0.000431,0.140681
46799000,0.0324,0.013523,0.002678,0.000431,0.098371
46800000,0.0324,0.013523,0.002678,0.000431,0.070752
46801000,0.0324,0.013523,0.002678,0.000431,0.047716
46802000,0.0324,0.013523,0.002678,0.000431,0.041958
46803000,0.0324,0.013523,0.002678,0.000431,0.020567
46804000,0.0324,0.013523,0.002678,0.000431,0.019627
46805000,0.0324,0.013523,0.002678,0.000431,0.022095
46806000,0.0324,0.013523,0.002678,0.000431,0.010930
46807000,0.0324,0.013523,0.002678,0.000431,0.013986
46808000,0.0324,0.013523,0.002678,0.000431,0.003173
46809000,0.0324,0.013523,0.002678,0.000431,0.002586
46810000,0.0324,0.013523,0.002678,0.000431,0.002468
46811000,0.0324,0.013523,0.002678,0.000431,0.002703
46812000,0.0324,0.013523,0.002678,0.000431,0.002821
46813000,0.0324,0.013523,0.002678,0.000431,0.002586
46814000,0.0324,0.013523,0.002678,0.000431,0.003526
46815000,0.0324,0.013523,0.002678,0.000431,0.005406
46816000,0.0324,0.013523,0.002678,0.000431,0.000940
46817000,0.0324,0.013523,0.002678,0.000431,0.000823
46818000,0.0324,0.013523,0.002678,0.000431,0.000823
46819000,0.0324,0.013523,0.002678,0.000431,0.015396
46820000,0.0324,0.013523,0.002678,0.000431,0.773218
46821000,0.0324,0.013523,0.002678,0.000431,0.545918
46822000,0.0324,0.013523,0.002678,0.000431,0.135275
46823000,0.0324,0.013523,0.002678,0.000431,0.166420
46824000,0.0324,0.013523,0.002678,0.000431,0.554380
46825000,0.0324,0.013523,0.002678,0.000431,0.271843
46826000,0.0324,0.013523,0.002678,0.000431,0.266084
46827000,0.0324,0.013523,0.002678,0.000431,0.156312
46828000,0.0324,0.013523,0.002678,0.000431,0.148321
46829000,0.0324,0.013523,0.002678,0.000431,0.242343
46830000,0.0324,0.013523,0.002678,0.000431,0.517829
46831000,0.0324,0.013523,0.002678,0.000431,0.217427
46832000,0.0324,0.013523,0.002678,0.000431,0.202384
46833000,0.0324,0.013523,0.002678,0.000431,0.163364
46834000,0.0324,0.013523,0.002678,0.000431,0.152904
46835000,0.0324,0.013523,0.002678,0.000431,0.106951
46836000,0.0324,0.013523,0.002678,0.000431,0.096726
46837000,0.0324,0.013523,0.002678,0.000431,0.070869
46838000,0.0324,0.013523,0.002678,0.000431,0.069224
46839000,0.0324,0.013523,0.002678,0.000431,0.053240
46840000,0.0324,0.013523,0.002678,0.000431,0.041135
46841000,0.0324,0.013523,0.002678,0.000431,0.034436
46842000,0.0324,0.013523,0.002678,0.000431,0.029970
46843000,0.0324,0.013523,0.002678,0.000431,0.007287
46844000,0.0324,0.013523,0.002678,0.000431,0.008462
46845000,0.0324,0.013523,0.002678,0.000431,0.013163
46846000,0.0324,0.013523,0.002678,0.000431,0.004466
46847000,0.0324,0.013523,0.002678,0.000431,0.002116
46848000,0.0324,0.013523,0.002678,0.000431,0.000940
46849000,0.0324,0.013523,0.002678,0.000431,0.000823
46850000,0.0324,0.013523,0.002678,0.000431,0.072515
46851000,0.0324,0.013523,0.002678,0.000431,0.803658
46852000,0.0324,0.013523,0.002678,0.000431,0.522060
46853000,0.0324,0.013523,0.002678,0.000431,0.136803
46854000,0.0324,0.013523,0.002678,0.000431,0.258562
46855000,0.0324,0.013523,0.002678,0.000431,0.481278
46856000,0.0324,0.013523,0.002678,0.000431,0.237642
46857000,0.0324,0.013523,0.002678,0.000431,0.281715
46858000,0.0324,0.013523,0.002678,0.000431,0.163834
46859000,0.0324,0.013523,0.002678,0.000431,0.120231
46860000,0.0324,0.013523,0.002678,0.000431,0.349294
46861000,0.0324,0.013523,0.002678,0.000431,0.408058
46862000,0.0324,0.013523,0.002678,0.000431,0.185577
46863000,0.0324,0.013523,0.002678,0.000431,0.165715
46864000,0.0324,0.013523,0.002678,0.000431,0.139271
46865000,0.0324,0.013523,0.002678,0.000431,0.111652
46866000,0.0324,0.013523,0.002678,0.000431,0.099899
46867000,0.0324,0.013523,0.002678,0.000431,0.076393
46868000,0.0324,0.013523,0.002678,0.000431,0.056649
46869000,0.0324,0.013523,0.002678,0.000431,0.047599
46870000,0.0324,0.013523,0.002678,0.000431,0.038314
46871000,0.0324,0.013523,0.002678,0.000431,0.029852
46872000,0.0324,0.013523,0.002678,0.000431,0.021390
46873000,0.0324,0.013523,0.002678,0.000431,0.017512
46874000,0.0324,0.013523,0.002678,0.000431,0.019157
46875000,0.0324,0.013523,0.002678,0.000431,0.015279
46876000,0.0324,0.013523,0.002678,0.000431,0.008345
46877000,0.0324,0.013523,0.002678,0.000431,0.009872
46878000,0.0324,0.013523,0.002678,0.000431,0.006934
46879000,0.0324,0.013523,0.002678,0.000431,0.008932
46880000,0.0324,0.013523,0.002678,0.000431,0.011283
46881000,0.0324,0.013523,0.002678,0.000431,0.003408
46882000,0.0324,0.013523,0.002678,0.000431,0.003526
46883000,0.0324,0.013523,0.002678,0.000431,0.002938
46884000,0.0324,0.013523,0.002678,0.000431,0.003761
46885000,0.0324,0.013523,0.002678,0.000431,0.003291
46886000,0.0324,0.013523,0.002678,0.000431,0.003408
46887000,0.0324,0.013523,0.002678,0.000431,0.005524
46888000,0.0324,0.013523,0.002678,0.000431,0.002938
46889000,0.0324,0.013523,0.002678,0.000431,0.004819
46890000,0.0324,0.013523,0.002678,0.000431,0.001645
46891000,0.0324,0.013523,0.002678,0.000431,0.001645
46892000,0.0324,0.013523,0.002678,0.000431,0.001880
46893000,0.0324,0.013523,0.002678,0.000431,0.001880
46894000,0.0324,0.013523,0.002678,0.000431,0.001645
46895000,0.0324,0.013523,0.002678,0.000431,0.001763
46896000,0.0324,0.013523,0.002678,0.000431,0.001528
46897000,0.0324,0.013523,0.002678,0.000431,0.001880
46898000,0.0324,0.013523,0.002678,0.000431,0.001645
46899000,0.0324,0.013523,0.002678,0.000431,0.001763
46900000,0.0324,0.013523,0.002678,0.000431,0.001763
46901000,0.0324,0.013523,0.002678,0.000431,0.001645
46902000,0.0324,0.013523,0.002678,0.000431,0.001763
46903000,0.0324,0.013523,0.002678,0.000431,0.001645
46904000,0.0324,0.013523,0.002678,0.000431,0.001763
46905000,0.0324,0.013523,0.002678,0.000431,0.001763
46906000,0.0324,0.013523,0.002678,0.000431,0.001645
46907000,0.0324,0.013523,0.002678,0.000431,0.001645
46908000,0.0324,0.013523,0.002678,0.000431,0.001763
46909000,0.0324,0.013523,0.002678,0.000431,0.001880
46910000,0.0324,0.013523,0.002678,0.000431,0.001410
46911000,0.0324,0.013523,0.002678,0.000431,0.001880
46912000,0.0324,0.013523,0.002678,0.000431,0.001763
46913000,0.0324,0.013523,0.002678,0.000431,0.001763
46914000,0.0324,0.013523,0.002678,0.000431,0.001410
46915000,0.0324,0.013523,0.002678,0.000431,0.001880
46916000,0.0324,0.013523,0.002678,0.000431,0.001880
46917000,0.0324,0.013523,0.002678,0.000431,0.001528
46918000,0.0324,0.013523,0.002678,0.000431,0.001880
46919000,0.0324,0.013523,0.002678,0.000431,0.001528
46920000,0.0324,0.013523,0.002678,0.000431,0.001880
46921000,0.0324,0.013523,0.002678,0.000431,0.001763
46922000,0.0324,0.013523,0.002678,0.000431,0.001763
46923000,0.0324,0.013523,0.002678,0.000431,0.001645
46924000,0.0324,0.013523,0.002678,0.000431,0.001645
46925000,0.0324,0.013523,0.002678,0.000431,0.001880
46926000,0.0324,0.013523,0.002678,0.000431,0.001645
46927000,0.0324,0.013523,0.002678,0.000431,0.001645
46928000,0.0324,0.013523,0.002678,0.000431,0.001763
46929000,0.0324,0.013523,0.002678,0.000431,0.001763
46930000,0.0324,0.013523,0.002678,0.000431,0.001645
46931000,0.0324,0.013523,0.002678,0.000431,0.002821
46932000,0.0324,0.013523,0.002678,0.000431,0.002233
46933000,0.0324,0.013523,0.002678,0.000431,0.013633
46934000,0.0324,0.013523,0.002678,0.000431,0.700938
46935000,0.0324,0.013523,0.002678,0.000431,0.587406
46936000,0.0324,0.013523,0.002678,0.000431,0.135510
46937000,0.0324,0.013523,0.002678,0.000431,0.137626
46938000,0.0324,0.013523,0.002678,0.000431,0.528407
46939000,0.0324,0.013523,0.002678,0.000431,0.260442
46940000,0.0324,0.013523,0.002678,0.000431,0.309217
46941000,0.0324,0.013523,0.002678,0.000431,0.145265
46942000,0.0324,0.013523,0.002678,0.000431,0.195919
46943000,0.0324,0.013523,0.002678,0.000431,0.085796
46944000,0.0324,0.013523,0.002678,0.000431,0.558611
46945000,0.0324,0.013523,0.002678,0.000431,0.258562
46946000,0.0324,0.013523,0.002678,0.000431,0.213079
46947000,0.0324,0.013523,0.002678,0.000431,0.201208
46948000,0.0324,0.013523,0.002678,0.000431,0.163482
46949000,0.0324,0.013523,0.002678,0.000431,0.139859
46950000,0.0324,0.013523,0.002678,0.000431,0.117528
46951000,0.0324,0.013523,0.002678,0.000431,0.090027
46952000,0.0324,0.013523,0.002678,0.000431,0.072867
46953000,0.0324,0.013523,0.002678,0.000431,0.060057
46954000,0.0324,0.013523,0.002678,0.000431,0.048069
46955000,0.0324,0.013523,0.002678,0.000431,0.035376
46956000,0.0324,0.013523,0.002678,0.000431,0.031615
46957000,0.0324,0.013523,0.002678,0.000431,0.019510
46958000,0.0324,0.013523,0.002678,0.000431,0.020332
46959000,0.0324,0.013523,0.002678,0.000431,0.007874
46960000,0.0324,0.013523,0.002678,0.000431,0.008227
46961000,0.0324,0.013523,0.002678,0.000431,0.003056
46962000,0.0324,0.013523,0.002678,0.000431,0.001880
46963000,0.0324,0.013523,0.002678,0.000431,0.001763
46964000,0.0324,0.013523,0.002678,0.000431,0.001763
46965000,0.0324,0.013523,0.002678,0.000431,0.001528
46966000,0.0324,0.013523,0.002678,0.000431,0.001763
46967000,0.0324,0.013523,0.002678,0.000431,0.001880
46968000,0.0324,0.013523,0.002678,0.000431,0.004231
46969000,0.0324,0.013523,0.002678,0.000431,0.000823
46970000,0.0324,0.013523,0.002678,0.000431,0.000940
46971000,0.0324,0.013523,0.002678,0.000431,0.000940
46972000,0.0324,0.013523,0.002678,0.000431,0.000823
46973000,0.0324,0.013523,0.002678,0.000431,0.000823
46974000,0.0324,0.013523,0.002678,0.000431,0.000940
46975000,0.0324,0.013523,0.002678,0.000431,0.039489
46976000,0.0324,0.013523,0.002678,0.000431,0.786381
46977000,0.0324,0.013523,0.002678,0.000431,0.535458
46978000,0.0324,0.013523,0.002678,0.000431,0.139271
46979000,0.0324,0.013523,0.002678,0.000431,0.154667
46980000,0.0324,0.013523,0.002678,0.000431,0.524528
46981000,0.0324,0.013523,0.002678,0.000431,0.245516
46982000,0.0324,0.013523,0.002678,0.000431,0.311332
46983000,0.0324,0.013523,0.002678,0.000431,0.152317
46984000,0.0324,0.013523,0.002678,0.000431,0.153727
46985000,0.0324,0.013523,0.002678,0.000431,0.238465
46986000,0.0324,0.013523,0.002678,0.000431,0.485744
46987000,0.0324,0.013523,0.002678,0.000431,0.171944
46988000,0.0324,0.013523,0.002678,0.000431,0.149143
46989000,0.0324,0.013523,0.002678,0.000431,0.123170
46990000,0.0324,0.013523,0.002678,0.000431,0.102720
46991000,0.0324,0.013523,0.002678,0.000431,0.095198
46992000,0.0324,0.013523,0.002678,0.000431,0.076158
46993000,0.0324,0.013523,0.002678,0.000431,0.060292
46994000,0.0324,0.013523,0.002678,0.000431,0.065698
46995000,0.0324,0.013523,0.002678,0.000431,0.042193
46996000,0.0324,0.013523,0.002678,0.000431,0.051595
46997000,0.0324,0.013523,0.002678,0.000431,0.021155
46998000,0.0324,0.013523,0.002678,0.000431,0.020920
46999000,0.0324,0.013523,0.002678,0.000431,0.015044
