Cycle,Area(mm^2),PeakDynamic(W),SubthresholdLeakage(W),GateLeakage(W),RunTimeDynamic(W)
84000000,0.0324,0.013523,0.002678,0.000431,0.004113
84001000,0.0324,0.013523,0.002678,0.000431,0.003526
84002000,0.0324,0.013523,0.002678,0.000431,0.004113
84003000,0.0324,0.013523,0.002678,0.000431,0.004231
84004000,0.0324,0.013523,0.002678,0.000431,0.003291
84005000,0.0324,0.013523,0.002678,0.000431,0.004113
84006000,0.0324,0.013523,0.002678,0.000431,0.003761
84007000,0.0324,0.013523,0.002678,0.000431,0.003761
84008000,0.0324,0.013523,0.002678,0.000431,0.004819
84009000,0.0324,0.013523,0.002678,0.000431,0.002703
84010000,0.0324,0.013523,0.002678,0.000431,0.004701
84011000,0.0324,0.013523,0.002678,0.000431,0.003291
84012000,0.0324,0.013523,0.002678,0.000431,0.004231
84013000,0.0324,0.013523,0.002678,0.000431,0.004819
84014000,0.0324,0.013523,0.002678,0.000431,0.002703
84015000,0.0324,0.013523,0.002678,0.000431,0.004701
84016000,0.0324,0.013523,0.002678,0.000431,0.003291
84017000,0.0324,0.013523,0.002678,0.000431,0.004231
84018000,0.0324,0.013523,0.002678,0.000431,0.004113
84019000,0.0324,0.013523,0.002678,0.000431,0.003408
84020000,0.0324,0.013523,0.002678,0.000431,0.003878
84021000,0.0324,0.013523,0.002678,0.000431,0.003643
84022000,0.0324,0.013523,0.002678,0.000431,0.003291
84023000,0.0324,0.013523,0.002678,0.000431,0.004231
84024000,0.0324,0.013523,0.002678,0.000431,0.004113
84025000,0.0324,0.013523,0.002678,0.000431,0.003526
84026000,0.0324,0.013523,0.002678,0.000431,0.002468
84027000,0.0324,0.013523,0.002678,0.000431,0.002703
84028000,0.0324,0.013523,0.002678,0.000431,0.002938
84029000,0.0324,0.013523,0.002678,0.000431,0.003291
84030000,0.0324,0.013523,0.002678,0.000431,0.004231
84031000,0.0324,0.013523,0.002678,0.000431,0.004466
84032000,0.0324,0.013523,0.002678,0.000431,0.003056
84033000,0.0324,0.013523,0.002678,0.000431,0.004701
84034000,0.0324,0.013523,0.002678,0.000431,0.003291
84035000,0.0324,0.013523,0.002678,0.000431,0.004231
84036000,0.0324,0.013523,0.002678,0.000431,0.004113
84037000,0.0324,0.013523,0.002678,0.000431,0.003408
84038000,0.0324,0.013523,0.002678,0.000431,0.003291
84039000,0.0324,0.013523,0.002678,0.000431,0.003526
84040000,0.0324,0.013523,0.002678,0.000431,0.003526
84041000,0.0324,0.013523,0.002678,0.000431,0.003996
84042000,0.0324,0.013523,0.002678,0.000431,0.004113
84043000,0.0324,0.013523,0.002678,0.000431,0.004231
84044000,0.0324,0.013523,0.002678,0.000431,0.003291
84045000,0.0324,0.013523,0.002678,0.000431,0.004113
84046000,0.0324,0.013523,0.002678,0.000431,0.003291
84047000,0.0324,0.013523,0.002678,0.000431,0.004231
84048000,0.0324,0.013523,0.002678,0.000431,0.004819
84049000,0.0324,0.013523,0.002678,0.000431,0.002703
84050000,0.0324,0.013523,0.002678,0.000431,0.004701
84051000,0.0324,0.013523,0.002678,0.000431,0.003291
84052000,0.0324,0.013523,0.002678,0.000431,0.004231
84053000,0.0324,0.013523,0.002678,0.000431,0.003878
84054000,0.0324,0.013523,0.002678,0.000431,0.003643
84055000,0.0324,0.013523,0.002678,0.000431,0.003408
84056000,0.0324,0.013523,0.002678,0.000431,0.004113
84057000,0.0324,0.013523,0.002678,0.000431,0.003408
84058000,0.0324,0.013523,0.002678,0.000431,0.004231
84059000,0.0324,0.013523,0.002678,0.000431,0.003291
84060000,0.0324,0.013523,0.002678,0.000431,0.004113
84061000,0.0324,0.013523,0.002678,0.000431,0.003996
84062000,0.0324,0.013523,0.002678,0.000431,0.004701
84063000,0.0324,0.013523,0.002678,0.000431,0.000823
84064000,0.0324,0.013523,0.002678,0.000431,0.000823
84065000,0.0324,0.013523,0.002678,0.000431,0.071810
84066000,0.0324,0.013523,0.002678,0.000431,0.690243
84067000,0.0324,0.013523,0.002678,0.000431,0.584350
84068000,0.0324,0.013523,0.002678,0.000431,0.134217
84069000,0.0324,0.013523,0.002678,0.000431,0.133982
84070000,0.0324,0.013523,0.002678,0.000431,0.574125
84071000,0.0324,0.013523,0.002678,0.000431,0.268317
84072000,0.0324,0.013523,0.002678,0.000431,0.267259
84073000,0.0324,0.013523,0.002678,0.000431,0.233528
84074000,0.0324,0.013523,0.002678,0.000431,0.154667
84075000,0.0324,0.013523,0.002678,0.000431,0.147263
84076000,0.0324,0.013523,0.002678,0.000431,0.204264
84077000,0.0324,0.013523,0.002678,0.000431,0.480220
84078000,0.0324,0.013523,0.002678,0.000431,0.195802
84079000,0.0324,0.013523,0.002678,0.000431,0.177468
84080000,0.0324,0.013523,0.002678,0.000431,0.144677
84081000,0.0324,0.013523,0.002678,0.000431,0.118351
84082000,0.0324,0.013523,0.002678,0.000431,0.114002
84083000,0.0324,0.013523,0.002678,0.000431,0.080154
84084000,0.0324,0.013523,0.002678,0.000431,0.062290
84085000,0.0324,0.013523,0.002678,0.000431,0.058764
84086000,0.0324,0.013523,0.002678,0.000431,0.045836
84087000,0.0324,0.013523,0.002678,0.000431,0.039842
84088000,0.0324,0.013523,0.002678,0.000431,0.023036
84089000,0.0324,0.013523,0.002678,0.000431,0.023976
84090000,0.0324,0.013523,0.002678,0.000431,0.014221
84091000,0.0324,0.013523,0.002678,0.000431,0.012576
84092000,0.0324,0.013523,0.002678,0.000431,0.009050
84093000,0.0324,0.013523,0.002678,0.000431,0.014338
84094000,0.0324,0.013523,0.002678,0.000431,0.007874
84095000,0.0324,0.013523,0.002678,0.000431,0.009167
84096000,0.0324,0.013523,0.002678,0.000431,0.006699
84097000,0.0324,0.013523,0.002678,0.000431,0.006934
84098000,0.0324,0.013523,0.002678,0.000431,0.008345
84099000,0.0324,0.013523,0.002678,0.000431,0.007992
84100000,0.0324,0.013523,0.002678,0.000431,0.006817
84101000,0.0324,0.013523,0.002678,0.000431,0.004113
84102000,0.0324,0.013523,0.002678,0.000431,0.003996
84103000,0.0324,0.013523,0.002678,0.000431,0.004231
84104000,0.0324,0.013523,0.002678,0.000431,0.005994
84105000,0.0324,0.013523,0.002678,0.000431,0.005171
84106000,0.0324,0.013523,0.002678,0.000431,0.002703
84107000,0.0324,0.013523,0.002678,0.000431,0.003173
84108000,0.0324,0.013523,0.002678,0.000431,0.002938
84109000,0.0324,0.013523,0.002678,0.000431,0.001763
84110000,0.0324,0.013523,0.002678,0.000431,0.001528
84111000,0.0324,0.013523,0.002678,0.000431,0.001763
84112000,0.0324,0.013523,0.002678,0.000431,0.001528
84113000,0.0324,0.013523,0.002678,0.000431,0.001880
84114000,0.0324,0.013523,0.002678,0.000431,0.001528
84115000,0.0324,0.013523,0.002678,0.000431,0.001763
84116000,0.0324,0.013523,0.002678,0.000431,0.001528
84117000,0.0324,0.013523,0.002678,0.000431,0.003996
84118000,0.0324,0.013523,0.002678,0.000431,0.000823
84119000,0.0324,0.013523,0.002678,0.000431,0.000823
84120000,0.0324,0.013523,0.002678,0.000431,0.000940
84121000,0.0324,0.013523,0.002678,0.000431,0.000705
84122000,0.0324,0.013523,0.002678,0.000431,0.000940
84123000,0.0324,0.013523,0.002678,0.000431,0.000823
84124000,0.0324,0.013523,0.002678,0.000431,0.000823
84125000,0.0324,0.013523,0.002678,0.000431,0.000823
84126000,0.0324,0.013523,0.002678,0.000431,0.001645
84127000,0.0324,0.013523,0.002678,0.000431,0.376090
84128000,0.0324,0.013523,0.002678,0.000431,0.740545
84129000,0.0324,0.013523,0.002678,0.000431,0.276779
84130000,0.0324,0.013523,0.002678,0.000431,0.150554
84131000,0.0324,0.013523,0.002678,0.000431,0.308159
84132000,0.0324,0.013523,0.002678,0.000431,0.537691
84133000,0.0324,0.013523,0.002678,0.000431,0.278189
84134000,0.0324,0.013523,0.002678,0.000431,0.273488
84135000,0.0324,0.013523,0.002678,0.000431,0.150789
84136000,0.0324,0.013523,0.002678,0.000431,0.172179
84137000,0.0324,0.013523,0.002678,0.000431,0.112004
84138000,0.0324,0.013523,0.002678,0.000431,0.529229
84139000,0.0324,0.013523,0.002678,0.000431,0.218367
84140000,0.0324,0.013523,0.002678,0.000431,0.157253
84141000,0.0324,0.013523,0.002678,0.000431,0.129281
84142000,0.0324,0.013523,0.002678,0.000431,0.116705
84143000,0.0324,0.013523,0.002678,0.000431,0.097313
84144000,0.0324,0.013523,0.002678,0.000431,0.082152
84145000,0.0324,0.013523,0.002678,0.000431,0.065816
84146000,0.0324,0.013523,0.002678,0.000431,0.058647
84147000,0.0324,0.013523,0.002678,0.000431,0.047364
84148000,0.0324,0.013523,0.002678,0.000431,0.037727
84149000,0.0324,0.013523,0.002678,0.000431,0.031262
84150000,0.0324,0.013523,0.002678,0.000431,0.026914
84151000,0.0324,0.013523,0.002678,0.000431,0.020097
84152000,0.0324,0.013523,0.002678,0.000431,0.016571
84153000,0.0324,0.013523,0.002678,0.000431,0.012458
84154000,0.0324,0.013523,0.002678,0.000431,0.010578
84155000,0.0324,0.013523,0.002678,0.000431,0.007522
84156000,0.0324,0.013523,0.002678,0.000431,0.007522
84157000,0.0324,0.013523,0.002678,0.000431,0.010813
84158000,0.0324,0.013523,0.002678,0.000431,0.011870
84159000,0.0324,0.013523,0.002678,0.000431,0.004936
84160000,0.0324,0.013523,0.002678,0.000431,0.003996
84161000,0.0324,0.013523,0.002678,0.000431,0.004231
84162000,0.0324,0.013523,0.002678,0.000431,0.007169
84163000,0.0324,0.013523,0.002678,0.000431,0.007639
84164000,0.0324,0.013523,0.002678,0.000431,0.000823
84165000,0.0324,0.013523,0.002678,0.000431,0.000823
84166000,0.0324,0.013523,0.002678,0.000431,0.000940
84167000,0.0324,0.013523,0.002678,0.000431,0.000705
84168000,0.0324,0.013523,0.002678,0.000431,0.000940
84169000,0.0324,0.013523,0.002678,0.000431,0.000823
84170000,0.0324,0.013523,0.002678,0.000431,0.000823
84171000,0.0324,0.013523,0.002678,0.000431,0.001763
84172000,0.0324,0.013523,0.002678,0.000431,0.428743
84173000,0.0324,0.013523,0.002678,0.000431,0.744424
84174000,0.0324,0.013523,0.002678,0.000431,0.238230
84175000,0.0324,0.013523,0.002678,0.000431,0.138683
84176000,0.0324,0.013523,0.002678,0.000431,0.259972
84177000,0.0324,0.013523,0.002678,0.000431,0.546271
84178000,0.0324,0.013523,0.002678,0.000431,0.239052
84179000,0.0324,0.013523,0.002678,0.000431,0.297464
84180000,0.0324,0.013523,0.002678,0.000431,0.142562
84181000,0.0324,0.013523,0.002678,0.000431,0.170768
84182000,0.0324,0.013523,0.002678,0.000431,0.111887
84183000,0.0324,0.013523,0.002678,0.000431,0.444844
84184000,0.0324,0.013523,0.002678,0.000431,0.277837
84185000,0.0324,0.013523,0.002678,0.000431,0.154550
84186000,0.0324,0.013523,0.002678,0.000431,0.128811
84187000,0.0324,0.013523,0.002678,0.000431,0.118939
84188000,0.0324,0.013523,0.002678,0.000431,0.079096
84189000,0.0324,0.013523,0.002678,0.000431,0.059822
84190000,0.0324,0.013523,0.002678,0.000431,0.052535
84191000,0.0324,0.013523,0.002678,0.000431,0.047599
84192000,0.0324,0.013523,0.002678,0.000431,0.032320
84193000,0.0324,0.013523,0.002678,0.000431,0.026091
84194000,0.0324,0.013523,0.002678,0.000431,0.019745
84195000,0.0324,0.013523,0.002678,0.000431,0.021038
84196000,0.0324,0.013523,0.002678,0.000431,0.016219
84197000,0.0324,0.013523,0.002678,0.000431,0.014456
84198000,0.0324,0.013523,0.002678,0.000431,0.008697
84199000,0.0324,0.013523,0.002678,0.000431,0.009755
84200000,0.0324,0.013523,0.002678,0.000431,0.005171
84201000,0.0324,0.013523,0.002678,0.000431,0.006582
84202000,0.0324,0.013523,0.002678,0.000431,0.004584
84203000,0.0324,0.013523,0.002678,0.000431,0.008345
84204000,0.0324,0.013523,0.002678,0.000431,0.003173
84205000,0.0324,0.013523,0.002678,0.000431,0.003526
84206000,0.0324,0.013523,0.002678,0.000431,0.004231
84207000,0.0324,0.013523,0.002678,0.000431,0.004701
84208000,0.0324,0.013523,0.002678,0.000431,0.000823
84209000,0.0324,0.013523,0.002678,0.000431,0.000823
84210000,0.0324,0.013523,0.002678,0.000431,0.000940
84211000,0.0324,0.013523,0.002678,0.000431,0.000705
84212000,0.0324,0.013523,0.002678,0.000431,0.000940
84213000,0.0324,0.013523,0.002678,0.000431,0.000823
84214000,0.0324,0.013523,0.002678,0.000431,0.000823
84215000,0.0324,0.013523,0.002678,0.000431,0.000940
84216000,0.0324,0.013523,0.002678,0.000431,0.000705
84217000,0.0324,0.013523,0.002678,0.000431,0.000940
84218000,0.0324,0.013523,0.002678,0.000431,0.000823
84219000,0.0324,0.013523,0.002678,0.000431,0.000940
84220000,0.0324,0.013523,0.002678,0.000431,0.001058
84221000,0.0324,0.013523,0.002678,0.000431,0.000940
84222000,0.0324,0.013523,0.002678,0.000431,0.000705
84223000,0.0324,0.013523,0.002678,0.000431,0.014338
84224000,0.0324,0.013523,0.002678,0.000431,0.629128
84225000,0.0324,0.013523,0.002678,0.000431,0.600451
84226000,0.0324,0.013523,0.002678,0.000431,0.145265
84227000,0.0324,0.013523,0.002678,0.000431,0.133982
84228000,0.0324,0.013523,0.002678,0.000431,0.505371
84229000,0.0324,0.013523,0.002678,0.000431,0.259620
84230000,0.0324,0.013523,0.002678,0.000431,0.246222
84231000,0.0324,0.013523,0.002678,0.000431,0.362809
84232000,0.0324,0.013523,0.002678,0.000431,0.139859
84233000,0.0324,0.013523,0.002678,0.000431,0.186752
84234000,0.0324,0.013523,0.002678,0.000431,0.086618
84235000,0.0324,0.013523,0.002678,0.000431,0.515714
84236000,0.0324,0.013523,0.002678,0.000431,0.249277
84237000,0.0324,0.013523,0.002678,0.000431,0.160191
84238000,0.0324,0.013523,0.002678,0.000431,0.136215
84239000,0.0324,0.013523,0.002678,0.000431,0.107773
84240000,0.0324,0.013523,0.002678,0.000431,0.098489
84241000,0.0324,0.013523,0.002678,0.000431,0.074043
84242000,0.0324,0.013523,0.002678,0.000431,0.066051
84243000,0.0324,0.013523,0.002678,0.000431,0.060174
84244000,0.0324,0.013523,0.002678,0.000431,0.046776
84245000,0.0324,0.013523,0.002678,0.000431,0.041135
84246000,0.0324,0.013523,0.002678,0.000431,0.035023
84247000,0.0324,0.013523,0.002678,0.000431,0.036904
84248000,0.0324,0.013523,0.002678,0.000431,0.024563
84249000,0.0324,0.013523,0.002678,0.000431,0.025974
84250000,0.0324,0.013523,0.002678,0.000431,0.030675
84251000,0.0324,0.013523,0.002678,0.000431,0.018452
84252000,0.0324,0.013523,0.002678,0.000431,0.018922
84253000,0.0324,0.013523,0.002678,0.000431,0.018569
84254000,0.0324,0.013523,0.002678,0.000431,0.020215
84255000,0.0324,0.013523,0.002678,0.000431,0.020802
84256000,0.0324,0.013523,0.002678,0.000431,0.017512
84257000,0.0324,0.013523,0.002678,0.000431,0.013516
84258000,0.0324,0.013523,0.002678,0.000431,0.015631
84259000,0.0324,0.013523,0.002678,0.000431,0.013633
84260000,0.0324,0.013523,0.002678,0.000431,0.015749
84261000,0.0324,0.013523,0.002678,0.000431,0.011870
84262000,0.0324,0.013523,0.002678,0.000431,0.011400
84263000,0.0324,0.013523,0.002678,0.000431,0.012576
84264000,0.0324,0.013523,0.002678,0.000431,0.010107
84265000,0.0324,0.013523,0.002678,0.000431,0.012458
84266000,0.0324,0.013523,0.002678,0.000431,0.008227
84267000,0.0324,0.013523,0.002678,0.000431,0.011753
84268000,0.0324,0.013523,0.002678,0.000431,0.008932
84269000,0.0324,0.013523,0.002678,0.000431,0.006582
84270000,0.0324,0.013523,0.002678,0.000431,0.007052
84271000,0.0324,0.013523,0.002678,0.000431,0.006934
84272000,0.0324,0.013523,0.002678,0.000431,0.006582
84273000,0.0324,0.013523,0.002678,0.000431,0.007639
84274000,0.0324,0.013523,0.002678,0.000431,0.005171
84275000,0.0324,0.013523,0.002678,0.000431,0.008932
84276000,0.0324,0.013523,0.002678,0.000431,0.002351
84277000,0.0324,0.013523,0.002678,0.000431,0.002821
84278000,0.0324,0.013523,0.002678,0.000431,0.002351
84279000,0.0324,0.013523,0.002678,0.000431,0.002703
84280000,0.0324,0.013523,0.002678,0.000431,0.002586
84281000,0.0324,0.013523,0.002678,0.000431,0.002586
84282000,0.0324,0.013523,0.002678,0.000431,0.002468
84283000,0.0324,0.013523,0.002678,0.000431,0.002703
84284000,0.0324,0.013523,0.002678,0.000431,0.003996
84285000,0.0324,0.013523,0.002678,0.000431,0.001763
84286000,0.0324,0.013523,0.002678,0.000431,0.001763
84287000,0.0324,0.013523,0.002678,0.000431,0.001763
84288000,0.0324,0.013523,0.002678,0.000431,0.001763
84289000,0.0324,0.013523,0.002678,0.000431,0.001645
84290000,0.0324,0.013523,0.002678,0.000431,0.001763
84291000,0.0324,0.013523,0.002678,0.000431,0.004231
84292000,0.0324,0.013523,0.002678,0.000431,0.003408
84293000,0.0324,0.013523,0.002678,0.000431,0.000705
84294000,0.0324,0.013523,0.002678,0.000431,0.000940
84295000,0.0324,0.013523,0.002678,0.000431,0.000940
84296000,0.0324,0.013523,0.002678,0.000431,0.000940
84297000,0.0324,0.013523,0.002678,0.000431,0.000705
84298000,0.0324,0.013523,0.002678,0.000431,0.000940
84299000,0.0324,0.013523,0.002678,0.000431,0.000940
84300000,0.0324,0.013523,0.002678,0.000431,0.000823
84301000,0.0324,0.013523,0.002678,0.000431,0.000823
84302000,0.0324,0.013523,0.002678,0.000431,0.000940
84303000,0.0324,0.013523,0.002678,0.000431,0.000940
84304000,0.0324,0.013523,0.002678,0.000431,0.000940
84305000,0.0324,0.013523,0.002678,0.000431,0.072280
84306000,0.0324,0.013523,0.002678,0.000431,0.658040
84307000,0.0324,0.013523,0.002678,0.000431,0.591989
84308000,0.0324,0.013523,0.002678,0.000431,0.136215
84309000,0.0324,0.013523,0.002678,0.000431,0.135157
84310000,0.0324,0.013523,0.002678,0.000431,0.593047
84311000,0.0324,0.013523,0.002678,0.000431,0.271490
84312000,0.0324,0.013523,0.002678,0.000431,0.261970
84313000,0.0324,0.013523,0.002678,0.000431,0.277719
84314000,0.0324,0.013523,0.002678,0.000431,0.146088
84315000,0.0324,0.013523,0.002678,0.000431,0.143384
84316000,0.0324,0.013523,0.002678,0.000431,0.217427
84317000,0.0324,0.013523,0.002678,0.000431,0.508074
84318000,0.0324,0.013523,0.002678,0.000431,0.205087
84319000,0.0324,0.013523,0.002678,0.000431,0.157840
84320000,0.0324,0.013523,0.002678,0.000431,0.123522
84321000,0.0324,0.013523,0.002678,0.000431,0.115530
84322000,0.0324,0.013523,0.002678,0.000431,0.086971
84323000,0.0324,0.013523,0.002678,0.000431,0.074865
84324000,0.0324,0.013523,0.002678,0.000431,0.047011
84325000,0.0324,0.013523,0.002678,0.000431,0.046894
84326000,0.0324,0.013523,0.002678,0.000431,0.029852
84327000,0.0324,0.013523,0.002678,0.000431,0.023741
84328000,0.0324,0.013523,0.002678,0.000431,0.019510
84329000,0.0324,0.013523,0.002678,0.000431,0.021508
84330000,0.0324,0.013523,0.002678,0.000431,0.016571
84331000,0.0324,0.013523,0.002678,0.000431,0.010225
84332000,0.0324,0.013523,0.002678,0.000431,0.008580
84333000,0.0324,0.013523,0.002678,0.000431,0.005876
84334000,0.0324,0.013523,0.002678,0.000431,0.005524
84335000,0.0324,0.013523,0.002678,0.000431,0.005406
84336000,0.0324,0.013523,0.002678,0.000431,0.004936
84337000,0.0324,0.013523,0.002678,0.000431,0.005406
84338000,0.0324,0.013523,0.002678,0.000431,0.010930
84339000,0.0324,0.013523,0.002678,0.000431,0.003643
84340000,0.0324,0.013523,0.002678,0.000431,0.003408
84341000,0.0324,0.013523,0.002678,0.000431,0.004584
84342000,0.0324,0.013523,0.002678,0.000431,0.005524
84343000,0.0324,0.013523,0.002678,0.000431,0.001763
84344000,0.0324,0.013523,0.002678,0.000431,0.001763
84345000,0.0324,0.013523,0.002678,0.000431,0.001763
84346000,0.0324,0.013523,0.002678,0.000431,0.003526
84347000,0.0324,0.013523,0.002678,0.000431,0.000823
84348000,0.0324,0.013523,0.002678,0.000431,0.000940
84349000,0.0324,0.013523,0.002678,0.000431,0.000940
84350000,0.0324,0.013523,0.002678,0.000431,0.000823
84351000,0.0324,0.013523,0.002678,0.000431,0.000823
84352000,0.0324,0.013523,0.002678,0.000431,0.000940
84353000,0.0324,0.013523,0.002678,0.000431,0.000940
84354000,0.0324,0.013523,0.002678,0.000431,0.000823
84355000,0.0324,0.013523,0.002678,0.000431,0.000823
84356000,0.0324,0.013523,0.002678,0.000431,0.016101
84357000,0.0324,0.013523,0.002678,0.000431,0.741720
84358000,0.0324,0.013523,0.002678,0.000431,0.595868
84359000,0.0324,0.013523,0.002678,0.000431,0.133630
84360000,0.0324,0.013523,0.002678,0.000431,0.135275
84361000,0.0324,0.013523,0.002678,0.000431,0.614320
84362000,0.0324,0.013523,0.002678,0.000431,0.267729
84363000,0.0324,0.013523,0.002678,0.000431,0.244576
84364000,0.0324,0.013523,0.002678,0.000431,0.225772
84365000,0.0324,0.013523,0.002678,0.000431,0.158310
84366000,0.0324,0.013523,0.002678,0.000431,0.123992
84367000,0.0324,0.013523,0.002678,0.000431,0.290530
84368000,0.0324,0.013523,0.002678,0.000431,0.618433
84369000,0.0324,0.013523,0.002678,0.000431,0.298287
84370000,0.0324,0.013523,0.002678,0.000431,0.253508
84371000,0.0324,0.013523,0.002678,0.000431,0.211786
84372000,0.0324,0.013523,0.002678,0.000431,0.166772
84373000,0.0324,0.013523,0.002678,0.000431,0.110124
84374000,0.0324,0.013523,0.002678,0.000431,0.109536
84375000,0.0324,0.013523,0.002678,0.000431,0.079567
84376000,0.0324,0.013523,0.002678,0.000431,0.078274
84377000,0.0324,0.013523,0.002678,0.000431,0.047011
84378000,0.0324,0.013523,0.002678,0.000431,0.039960
84379000,0.0324,0.013523,0.002678,0.000431,0.030792
84380000,0.0324,0.013523,0.002678,0.000431,0.014103
84381000,0.0324,0.013523,0.002678,0.000431,0.013751
84382000,0.0324,0.013523,0.002678,0.000431,0.010813
84383000,0.0324,0.013523,0.002678,0.000431,0.005759
84384000,0.0324,0.013523,0.002678,0.000431,0.006229
84385000,0.0324,0.013523,0.002678,0.000431,0.005524
84386000,0.0324,0.013523,0.002678,0.000431,0.004819
84387000,0.0324,0.013523,0.002678,0.000431,0.006817
84388000,0.0324,0.013523,0.002678,0.000431,0.004349
84389000,0.0324,0.013523,0.002678,0.000431,0.006934
84390000,0.0324,0.013523,0.002678,0.000431,0.003643
84391000,0.0324,0.013523,0.002678,0.000431,0.003056
84392000,0.0324,0.013523,0.002678,0.000431,0.003526
84393000,0.0324,0.013523,0.002678,0.000431,0.004466
84394000,0.0324,0.013523,0.002678,0.000431,0.003878
84395000,0.0324,0.013523,0.002678,0.000431,0.002351
84396000,0.0324,0.013523,0.002678,0.000431,0.002586
84397000,0.0324,0.013523,0.002678,0.000431,0.001645
84398000,0.0324,0.013523,0.002678,0.000431,0.001763
84399000,0.0324,0.013523,0.002678,0.000431,0.001880
84400000,0.0324,0.013523,0.002678,0.000431,0.003526
84401000,0.0324,0.013523,0.002678,0.000431,0.294526
84402000,0.0324,0.013523,0.002678,0.000431,0.896035
84403000,0.0324,0.013523,0.002678,0.000431,0.418048
84404000,0.0324,0.013523,0.002678,0.000431,0.140211
84405000,0.0324,0.013523,0.002678,0.000431,0.462708
84406000,0.0324,0.013523,0.002678,0.000431,0.355758
84407000,0.0324,0.013523,0.002678,0.000431,0.281598
84408000,0.0324,0.013523,0.002678,0.000431,0.264321
84409000,0.0324,0.013523,0.002678,0.000431,0.157488
84410000,0.0324,0.013523,0.002678,0.000431,0.108831
84411000,0.0324,0.013523,0.002678,0.000431,0.461886
84412000,0.0324,0.013523,0.002678,0.000431,0.289354
84413000,0.0324,0.013523,0.002678,0.000431,0.186165
84414000,0.0324,0.013523,0.002678,0.000431,0.158310
84415000,0.0324,0.013523,0.002678,0.000431,0.135628
84416000,0.0324,0.013523,0.002678,0.000431,0.111652
84417000,0.0324,0.013523,0.002678,0.000431,0.097783
84418000,0.0324,0.013523,0.002678,0.000431,0.087206
84419000,0.0324,0.013523,0.002678,0.000431,0.057236
84420000,0.0324,0.013523,0.002678,0.000431,0.055826
84421000,0.0324,0.013523,0.002678,0.000431,0.045601
84422000,0.0324,0.013523,0.002678,0.000431,0.051712
84423000,0.0324,0.013523,0.002678,0.000431,0.041370
84424000,0.0324,0.013523,0.002678,0.000431,0.039372
84425000,0.0324,0.013523,0.002678,0.000431,0.032085
84426000,0.0324,0.013523,0.002678,0.000431,0.026679
84427000,0.0324,0.013523,0.002678,0.000431,0.019510
84428000,0.0324,0.013523,0.002678,0.000431,0.019275
84429000,0.0324,0.013523,0.002678,0.000431,0.016454
84430000,0.0324,0.013523,0.002678,0.000431,0.011165
84431000,0.0324,0.013523,0.002678,0.000431,0.018805
84432000,0.0324,0.013523,0.002678,0.000431,0.013046
84433000,0.0324,0.013523,0.002678,0.000431,0.005994
84434000,0.0324,0.013523,0.002678,0.000431,0.005289
84435000,0.0324,0.013523,0.002678,0.000431,0.007404
84436000,0.0324,0.013523,0.002678,0.000431,0.003526
84437000,0.0324,0.013523,0.002678,0.000431,0.003291
84438000,0.0324,0.013523,0.002678,0.000431,0.003408
84439000,0.0324,0.013523,0.002678,0.000431,0.005524
84440000,0.0324,0.013523,0.002678,0.000431,0.002703
84441000,0.0324,0.013523,0.002678,0.000431,0.001645
84442000,0.0324,0.013523,0.002678,0.000431,0.001763
84443000,0.0324,0.013523,0.002678,0.000431,0.001880
84444000,0.0324,0.013523,0.002678,0.000431,0.001410
84445000,0.0324,0.013523,0.002678,0.000431,0.001880
84446000,0.0324,0.013523,0.002678,0.000431,0.001410
84447000,0.0324,0.013523,0.002678,0.000431,0.001880
84448000,0.0324,0.013523,0.002678,0.000431,0.001645
84449000,0.0324,0.013523,0.002678,0.000431,0.001763
84450000,0.0324,0.013523,0.002678,0.000431,0.001645
84451000,0.0324,0.013523,0.002678,0.000431,0.001763
84452000,0.0324,0.013523,0.002678,0.000431,0.004349
84453000,0.0324,0.013523,0.002678,0.000431,0.000705
84454000,0.0324,0.013523,0.002678,0.000431,0.013751
84455000,0.0324,0.013523,0.002678,0.000431,0.696825
84456000,0.0324,0.013523,0.002678,0.000431,0.559082
84457000,0.0324,0.013523,0.002678,0.000431,0.174999
84458000,0.0324,0.013523,0.002678,0.000431,0.148321
84459000,0.0324,0.013523,0.002678,0.000431,0.573067
84460000,0.0324,0.013523,0.002678,0.000431,0.274076
84461000,0.0324,0.013523,0.002678,0.000431,0.285006
84462000,0.0324,0.013523,0.002678,0.000431,0.279952
84463000,0.0324,0.013523,0.002678,0.000431,0.157018
84464000,0.0324,0.013523,0.002678,0.000431,0.138918
84465000,0.0324,0.013523,0.002678,0.000431,0.237760
84466000,0.0324,0.013523,0.002678,0.000431,0.513716
84467000,0.0324,0.013523,0.002678,0.000431,0.224596
84468000,0.0324,0.013523,0.002678,0.000431,0.196507
84469000,0.0324,0.013523,0.002678,0.000431,0.153139
84470000,0.0324,0.013523,0.002678,0.000431,0.133042
84471000,0.0324,0.013523,0.002678,0.000431,0.107421
84472000,0.0324,0.013523,0.002678,0.000431,0.095668
84473000,0.0324,0.013523,0.002678,0.000431,0.079214
84474000,0.0324,0.013523,0.002678,0.000431,0.058764
84475000,0.0324,0.013523,0.002678,0.000431,0.049949
84476000,0.0324,0.013523,0.002678,0.000431,0.045366
84477000,0.0324,0.013523,0.002678,0.000431,0.034318
84478000,0.0324,0.013523,0.002678,0.000431,0.042898
84479000,0.0324,0.013523,0.002678,0.000431,0.022213
84480000,0.0324,0.013523,0.002678,0.000431,0.016571
84481000,0.0324,0.013523,0.002678,0.000431,0.021155
84482000,0.0324,0.013523,0.002678,0.000431,0.008580
84483000,0.0324,0.013523,0.002678,0.000431,0.006229
84484000,0.0324,0.013523,0.002678,0.000431,0.007169
84485000,0.0324,0.013523,0.002678,0.000431,0.003761
84486000,0.0324,0.013523,0.002678,0.000431,0.003526
84487000,0.0324,0.013523,0.002678,0.000431,0.003173
84488000,0.0324,0.013523,0.002678,0.000431,0.007404
84489000,0.0324,0.013523,0.002678,0.000431,0.004819
84490000,0.0324,0.013523,0.002678,0.000431,0.001763
84491000,0.0324,0.013523,0.002678,0.000431,0.001645
84492000,0.0324,0.013523,0.002678,0.000431,0.001645
84493000,0.0324,0.013523,0.002678,0.000431,0.001645
84494000,0.0324,0.013523,0.002678,0.000431,0.001763
84495000,0.0324,0.013523,0.002678,0.000431,0.002938
84496000,0.0324,0.013523,0.002678,0.000431,0.002351
84497000,0.0324,0.013523,0.002678,0.000431,0.000705
84498000,0.0324,0.013523,0.002678,0.000431,0.000940
84499000,0.0324,0.013523,0.002678,0.000431,0.000705
84500000,0.0324,0.013523,0.002678,0.000431,0.072045
84501000,0.0324,0.013523,0.002678,0.000431,0.737959
84502000,0.0324,0.013523,0.002678,0.000431,0.593517
84503000,0.0324,0.013523,0.002678,0.000431,0.145265
84504000,0.0324,0.013523,0.002678,0.000431,0.168535
84505000,0.0324,0.013523,0.002678,0.000431,0.601274
84506000,0.0324,0.013523,0.002678,0.000431,0.267612
84507000,0.0324,0.013523,0.002678,0.000431,0.364925
84508000,0.0324,0.013523,0.002678,0.000431,0.195097
84509000,0.0324,0.013523,0.002678,0.000431,0.165245
84510000,0.0324,0.013523,0.002678,0.000431,0.115648
84511000,0.0324,0.013523,0.002678,0.000431,0.539572
84512000,0.0324,0.013523,0.002678,0.000431,0.288884
84513000,0.0324,0.013523,0.002678,0.000431,0.194157
84514000,0.0324,0.013523,0.002678,0.000431,0.162424
84515000,0.0324,0.013523,0.002678,0.000431,0.150554
84516000,0.0324,0.013523,0.002678,0.000431,0.121054
84517000,0.0324,0.013523,0.002678,0.000431,0.102485
84518000,0.0324,0.013523,0.002678,0.000431,0.093082
84519000,0.0324,0.013523,0.002678,0.000431,0.068872
84520000,0.0324,0.013523,0.002678,0.000431,0.067696
84521000,0.0324,0.013523,0.002678,0.000431,0.051125
84522000,0.0324,0.013523,0.002678,0.000431,0.044543
84523000,0.0324,0.013523,0.002678,0.000431,0.043133
84524000,0.0324,0.013523,0.002678,0.000431,0.034436
84525000,0.0324,0.013523,0.002678,0.000431,0.036199
84526000,0.0324,0.013523,0.002678,0.000431,0.028912
84527000,0.0324,0.013523,0.002678,0.000431,0.021390
84528000,0.0324,0.013523,0.002678,0.000431,0.021273
84529000,0.0324,0.013523,0.002678,0.000431,0.016807
84530000,0.0324,0.013523,0.002678,0.000431,0.018217
84531000,0.0324,0.013523,0.002678,0.000431,0.007757
84532000,0.0324,0.013523,0.002678,0.000431,0.011400
84533000,0.0324,0.013523,0.002678,0.000431,0.011165
84534000,0.0324,0.013523,0.002678,0.000431,0.004349
84535000,0.0324,0.013523,0.002678,0.000431,0.005171
84536000,0.0324,0.013523,0.002678,0.000431,0.004113
84537000,0.0324,0.013523,0.002678,0.000431,0.007874
84538000,0.0324,0.013523,0.002678,0.000431,0.001998
84539000,0.0324,0.013523,0.002678,0.000431,0.002233
84540000,0.0324,0.013523,0.002678,0.000431,0.003761
84541000,0.0324,0.013523,0.002678,0.000431,0.004819
84542000,0.0324,0.013523,0.002678,0.000431,0.001645
84543000,0.0324,0.013523,0.002678,0.000431,0.001293
84544000,0.0324,0.013523,0.002678,0.000431,0.001293
84545000,0.0324,0.013523,0.002678,0.000431,0.001410
84546000,0.0324,0.013523,0.002678,0.000431,0.001058
84547000,0.0324,0.013523,0.002678,0.000431,0.001058
84548000,0.0324,0.013523,0.002678,0.000431,0.248220
84549000,0.0324,0.013523,0.002678,0.000431,0.687892
84550000,0.0324,0.013523,0.002678,0.000431,0.526526
84551000,0.0324,0.013523,0.002678,0.000431,0.134922
84552000,0.0324,0.013523,0.002678,0.000431,0.139153
84553000,0.0324,0.013523,0.002678,0.000431,0.579531
84554000,0.0324,0.013523,0.002678,0.000431,0.237172
84555000,0.0324,0.013523,0.002678,0.000431,0.283008
84556000,0.0324,0.013523,0.002678,0.000431,0.203559
84557000,0.0324,0.013523,0.002678,0.000431,0.153844
84558000,0.0324,0.013523,0.002678,0.000431,0.155960
84559000,0.0324,0.013523,0.002678,0.000431,0.195802
84560000,0.0324,0.013523,0.002678,0.000431,0.500553
84561000,0.0324,0.013523,0.002678,0.000431,0.217192
84562000,0.0324,0.013523,0.002678,0.000431,0.183697
84563000,0.0324,0.013523,0.002678,0.000431,0.143619
84564000,0.0324,0.013523,0.002678,0.000431,0.122817
84565000,0.0324,0.013523,0.002678,0.000431,0.095080
84566000,0.0324,0.013523,0.002678,0.000431,0.091672
84567000,0.0324,0.013523,0.002678,0.000431,0.076158
84568000,0.0324,0.013523,0.002678,0.000431,0.056296
84569000,0.0324,0.013523,0.002678,0.000431,0.039489
84570000,0.0324,0.013523,0.002678,0.000431,0.048892
84571000,0.0324,0.013523,0.002678,0.000431,0.030322
84572000,0.0324,0.013523,0.002678,0.000431,0.034906
84573000,0.0324,0.013523,0.002678,0.000431,0.024446
84574000,0.0324,0.013523,0.002678,0.000431,0.023976
84575000,0.0324,0.013523,0.002678,0.000431,0.018334
84576000,0.0324,0.013523,0.002678,0.000431,0.022330
84577000,0.0324,0.013523,0.002678,0.000431,0.014221
84578000,0.0324,0.013523,0.002678,0.000431,0.010930
84579000,0.0324,0.013523,0.002678,0.000431,0.019510
84580000,0.0324,0.013523,0.002678,0.000431,0.015044
84581000,0.0324,0.013523,0.002678,0.000431,0.007522
84582000,0.0324,0.013523,0.002678,0.000431,0.004349
84583000,0.0324,0.013523,0.002678,0.000431,0.003056
84584000,0.0324,0.013523,0.002678,0.000431,0.004819
84585000,0.0324,0.013523,0.002678,0.000431,0.002468
84586000,0.0324,0.013523,0.002678,0.000431,0.002586
84587000,0.0324,0.013523,0.002678,0.000431,0.002703
84588000,0.0324,0.013523,0.002678,0.000431,0.002468
84589000,0.0324,0.013523,0.002678,0.000431,0.002468
84590000,0.0324,0.013523,0.002678,0.000431,0.002586
84591000,0.0324,0.013523,0.002678,0.000431,0.002703
84592000,0.0324,0.013523,0.002678,0.000431,0.003408
84593000,0.0324,0.013523,0.002678,0.000431,0.001645
84594000,0.0324,0.013523,0.002678,0.000431,0.001880
84595000,0.0324,0.013523,0.002678,0.000431,0.001645
84596000,0.0324,0.013523,0.002678,0.000431,0.001645
84597000,0.0324,0.013523,0.002678,0.000431,0.001763
84598000,0.0324,0.013523,0.002678,0.000431,0.001763
84599000,0.0324,0.013523,0.002678,0.000431,0.001528
84600000,0.0324,0.013523,0.002678,0.000431,0.001880
84601000,0.0324,0.013523,0.002678,0.000431,0.001763
84602000,0.0324,0.013523,0.002678,0.000431,0.001645
84603000,0.0324,0.013523,0.002678,0.000431,0.001645
84604000,0.0324,0.013523,0.002678,0.000431,0.001763
84605000,0.0324,0.013523,0.002678,0.000431,0.001763
84606000,0.0324,0.013523,0.002678,0.000431,0.001763
84607000,0.0324,0.013523,0.002678,0.000431,0.001645
84608000,0.0324,0.013523,0.002678,0.000431,0.001645
84609000,0.0324,0.013523,0.002678,0.000431,0.001763
84610000,0.0324,0.013523,0.002678,0.000431,0.001880
84611000,0.0324,0.013523,0.002678,0.000431,0.001645
84612000,0.0324,0.013523,0.002678,0.000431,0.001645
84613000,0.0324,0.013523,0.002678,0.000431,0.003878
84614000,0.0324,0.013523,0.002678,0.000431,0.000705
84615000,0.0324,0.013523,0.002678,0.000431,0.000940
84616000,0.0324,0.013523,0.002678,0.000431,0.000705
84617000,0.0324,0.013523,0.002678,0.000431,0.000940
84618000,0.0324,0.013523,0.002678,0.000431,0.000823
84619000,0.0324,0.013523,0.002678,0.000431,0.000823
84620000,0.0324,0.013523,0.002678,0.000431,0.000940
84621000,0.0324,0.013523,0.002678,0.000431,0.000705
84622000,0.0324,0.013523,0.002678,0.000431,0.000940
84623000,0.0324,0.013523,0.002678,0.000431,0.000823
84624000,0.0324,0.013523,0.002678,0.000431,0.000823
84625000,0.0324,0.013523,0.002678,0.000431,0.000823
84626000,0.0324,0.013523,0.002678,0.000431,0.000823
84627000,0.0324,0.013523,0.002678,0.000431,0.000823
84628000,0.0324,0.013523,0.002678,0.000431,0.000823
84629000,0.0324,0.013523,0.002678,0.000431,0.000705
84630000,0.0324,0.013523,0.002678,0.000431,0.000940
84631000,0.0324,0.013523,0.002678,0.000431,0.000823
84632000,0.0324,0.013523,0.002678,0.000431,0.000823
84633000,0.0324,0.013523,0.002678,0.000431,0.000940
84634000,0.0324,0.013523,0.002678,0.000431,0.000705
84635000,0.0324,0.013523,0.002678,0.000431,0.000940
84636000,0.0324,0.013523,0.002678,0.000431,0.072280
84637000,0.0324,0.013523,0.002678,0.000431,0.708577
84638000,0.0324,0.013523,0.002678,0.000431,0.577769
84639000,0.0324,0.013523,0.002678,0.000431,0.148321
84640000,0.0324,0.013523,0.002678,0.000431,0.140446
84641000,0.0324,0.013523,0.002678,0.000431,0.601039
84642000,0.0324,0.013523,0.002678,0.000431,0.277014
84643000,0.0324,0.013523,0.002678,0.000431,0.268552
84644000,0.0324,0.013523,0.002678,0.000431,0.218250
84645000,0.0324,0.013523,0.002678,0.000431,0.159368
84646000,0.0324,0.013523,0.002678,0.000431,0.144207
84647000,0.0324,0.013523,0.002678,0.000431,0.239993
84648000,0.0324,0.013523,0.002678,0.000431,0.503021
84649000,0.0324,0.013523,0.002678,0.000431,0.207320
84650000,0.0324,0.013523,0.002678,0.000431,0.177938
84651000,0.0324,0.013523,0.002678,0.000431,0.160779
84652000,0.0324,0.013523,0.002678,0.000431,0.122582
84653000,0.0324,0.013523,0.002678,0.000431,0.096608
84654000,0.0324,0.013523,0.002678,0.000431,0.107303
84655000,0.0324,0.013523,0.002678,0.000431,0.066403
84656000,0.0324,0.013523,0.002678,0.000431,0.060292
84657000,0.0324,0.013523,0.002678,0.000431,0.053828
84658000,0.0324,0.013523,0.002678,0.000431,0.053123
84659000,0.0324,0.013523,0.002678,0.000431,0.037139
84660000,0.0324,0.013523,0.002678,0.000431,0.027502
84661000,0.0324,0.013523,0.002678,0.000431,0.031498
84662000,0.0324,0.013523,0.002678,0.000431,0.024563
84663000,0.0324,0.013523,0.002678,0.000431,0.019275
84664000,0.0324,0.013523,0.002678,0.000431,0.019745
84665000,0.0324,0.013523,0.002678,0.000431,0.015279
84666000,0.0324,0.013523,0.002678,0.000431,0.011283
84667000,0.0324,0.013523,0.002678,0.000431,0.015279
84668000,0.0324,0.013523,0.002678,0.000431,0.018099
84669000,0.0324,0.013523,0.002678,0.000431,0.006229
84670000,0.0324,0.013523,0.002678,0.000431,0.005641
84671000,0.0324,0.013523,0.002678,0.000431,0.003408
84672000,0.0324,0.013523,0.002678,0.000431,0.002351
84673000,0.0324,0.013523,0.002678,0.000431,0.002468
84674000,0.0324,0.013523,0.002678,0.000431,0.002468
84675000,0.0324,0.013523,0.002678,0.000431,0.002586
84676000,0.0324,0.013523,0.002678,0.000431,0.003408
84677000,0.0324,0.013523,0.002678,0.000431,0.000940
84678000,0.0324,0.013523,0.002678,0.000431,0.000823
84679000,0.0324,0.013523,0.002678,0.000431,0.000940
84680000,0.0324,0.013523,0.002678,0.000431,0.000823
84681000,0.0324,0.013523,0.002678,0.000431,0.000823
84682000,0.0324,0.013523,0.002678,0.000431,0.000940
84683000,0.0324,0.013523,0.002678,0.000431,0.000940
84684000,0.0324,0.013523,0.002678,0.000431,0.000823
84685000,0.0324,0.013523,0.002678,0.000431,0.000823
84686000,0.0324,0.013523,0.002678,0.000431,0.000940
84687000,0.0324,0.013523,0.002678,0.000431,0.000940
84688000,0.0324,0.013523,0.002678,0.000431,0.000705
84689000,0.0324,0.013523,0.002678,0.000431,0.000940
84690000,0.0324,0.013523,0.002678,0.000431,0.000940
84691000,0.0324,0.013523,0.002678,0.000431,0.000940
84692000,0.0324,0.013523,0.002678,0.000431,0.000705
84693000,0.0324,0.013523,0.002678,0.000431,0.000940
84694000,0.0324,0.013523,0.002678,0.000431,0.000940
84695000,0.0324,0.013523,0.002678,0.000431,0.000823
84696000,0.0324,0.013523,0.002678,0.000431,0.000940
84697000,0.0324,0.013523,0.002678,0.000431,0.000823
84698000,0.0324,0.013523,0.002678,0.000431,0.000940
84699000,0.0324,0.013523,0.002678,0.000431,0.000823
84700000,0.0324,0.013523,0.002678,0.000431,0.000823
84701000,0.0324,0.013523,0.002678,0.000431,0.000940
84702000,0.0324,0.013523,0.002678,0.000431,0.000940
84703000,0.0324,0.013523,0.002678,0.000431,0.000823
84704000,0.0324,0.013523,0.002678,0.000431,0.000823
84705000,0.0324,0.013523,0.002678,0.000431,0.000940
84706000,0.0324,0.013523,0.002678,0.000431,0.059587
84707000,0.0324,0.013523,0.002678,0.000431,0.707167
84708000,0.0324,0.013523,0.002678,0.000431,0.598571
84709000,0.0324,0.013523,0.002678,0.000431,0.139506
84710000,0.0324,0.013523,0.002678,0.000431,0.138448
84711000,0.0324,0.013523,0.002678,0.000431,0.586818
84712000,0.0324,0.013523,0.002678,0.000431,0.276191
84713000,0.0324,0.013523,0.002678,0.000431,0.273723
84714000,0.0324,0.013523,0.002678,0.000431,0.244694
84715000,0.0324,0.013523,0.002678,0.000431,0.145382
84716000,0.0324,0.013523,0.002678,0.000431,0.128576
84717000,0.0324,0.013523,0.002678,0.000431,0.284888
84718000,0.0324,0.013523,0.002678,0.000431,0.498907
84719000,0.0324,0.013523,0.002678,0.000431,0.230473
84720000,0.0324,0.013523,0.002678,0.000431,0.197447
84721000,0.0324,0.013523,0.002678,0.000431,0.166420
84722000,0.0324,0.013523,0.002678,0.000431,0.136215
84723000,0.0324,0.013523,0.002678,0.000431,0.096138
84724000,0.0324,0.013523,0.002678,0.000431,0.094023
84725000,0.0324,0.013523,0.002678,0.000431,0.078979
84726000,0.0324,0.013523,0.002678,0.000431,0.049244
84727000,0.0324,0.013523,0.002678,0.000431,0.049714
84728000,0.0324,0.013523,0.002678,0.000431,0.040077
84729000,0.0324,0.013523,0.002678,0.000431,0.035258
84730000,0.0324,0.013523,0.002678,0.000431,0.032203
84731000,0.0324,0.013523,0.002678,0.000431,0.026444
84732000,0.0324,0.013523,0.002678,0.000431,0.023506
84733000,0.0324,0.013523,0.002678,0.000431,0.028794
84734000,0.0324,0.013523,0.002678,0.000431,0.023153
84735000,0.0324,0.013523,0.002678,0.000431,0.017629
84736000,0.0324,0.013523,0.002678,0.000431,0.015631
84737000,0.0324,0.013523,0.002678,0.000431,0.017042
84738000,0.0324,0.013523,0.002678,0.000431,0.013986
84739000,0.0324,0.013523,0.002678,0.000431,0.015749
84740000,0.0324,0.013523,0.002678,0.000431,0.008815
84741000,0.0324,0.013523,0.002678,0.000431,0.009402
84742000,0.0324,0.013523,0.002678,0.000431,0.006817
84743000,0.0324,0.013523,0.002678,0.000431,0.006582
84744000,0.0324,0.013523,0.002678,0.000431,0.008580
84745000,0.0324,0.013523,0.002678,0.000431,0.005289
84746000,0.0324,0.013523,0.002678,0.000431,0.007757
84747000,0.0324,0.013523,0.002678,0.000431,0.007639
84748000,0.0324,0.013523,0.002678,0.000431,0.001645
84749000,0.0324,0.013523,0.002678,0.000431,0.001645
84750000,0.0324,0.013523,0.002678,0.000431,0.003761
84751000,0.0324,0.013523,0.002678,0.000431,0.000940
84752000,0.0324,0.013523,0.002678,0.000431,0.000940
84753000,0.0324,0.013523,0.002678,0.000431,0.000823
84754000,0.0324,0.013523,0.002678,0.000431,0.000940
84755000,0.0324,0.013523,0.002678,0.000431,0.000823
84756000,0.0324,0.013523,0.002678,0.000431,0.000823
84757000,0.0324,0.013523,0.002678,0.000431,0.000940
84758000,0.0324,0.013523,0.002678,0.000431,0.000940
84759000,0.0324,0.013523,0.002678,0.000431,0.000940
84760000,0.0324,0.013523,0.002678,0.000431,0.000940
84761000,0.0324,0.013523,0.002678,0.000431,0.000823
84762000,0.0324,0.013523,0.002678,0.000431,0.000823
84763000,0.0324,0.013523,0.002678,0.000431,0.000940
84764000,0.0324,0.013523,0.002678,0.000431,0.000823
84765000,0.0324,0.013523,0.002678,0.000431,0.072985
84766000,0.0324,0.013523,0.002678,0.000431,0.780857
84767000,0.0324,0.013523,0.002678,0.000431,0.552265
84768000,0.0324,0.013523,0.002678,0.000431,0.151964
84769000,0.0324,0.013523,0.002678,0.000431,0.138566
84770000,0.0324,0.013523,0.002678,0.000431,0.591402
84771000,0.0324,0.013523,0.002678,0.000431,0.228122
84772000,0.0324,0.013523,0.002678,0.000431,0.311802
84773000,0.0324,0.013523,0.002678,0.000431,0.185812
84774000,0.0324,0.013523,0.002678,0.000431,0.171239
84775000,0.0324,0.013523,0.002678,0.000431,0.127636
84776000,0.0324,0.013523,0.002678,0.000431,0.276074
84777000,0.0324,0.013523,0.002678,0.000431,0.474931
84778000,0.0324,0.013523,0.002678,0.000431,0.212138
84779000,0.0324,0.013523,0.002678,0.000431,0.185459
84780000,0.0324,0.013523,0.002678,0.000431,0.155020
84781000,0.0324,0.013523,0.002678,0.000431,0.129751
84782000,0.0324,0.013523,0.002678,0.000431,0.117293
84783000,0.0324,0.013523,0.002678,0.000431,0.086971
84784000,0.0324,0.013523,0.002678,0.000431,0.078861
84785000,0.0324,0.013523,0.002678,0.000431,0.074513
84786000,0.0324,0.013523,0.002678,0.000431,0.068754
84787000,0.0324,0.013523,0.002678,0.000431,0.046306
84788000,0.0324,0.013523,0.002678,0.000431,0.034906
84789000,0.0324,0.013523,0.002678,0.000431,0.033848
84790000,0.0324,0.013523,0.002678,0.000431,0.020920
84791000,0.0324,0.013523,0.002678,0.000431,0.019275
84792000,0.0324,0.013523,0.002678,0.000431,0.015396
84793000,0.0324,0.013523,0.002678,0.000431,0.011635
84794000,0.0324,0.013523,0.002678,0.000431,0.013163
84795000,0.0324,0.013523,0.002678,0.000431,0.010342
84796000,0.0324,0.013523,0.002678,0.000431,0.002233
84797000,0.0324,0.013523,0.002678,0.000431,0.002821
84798000,0.0324,0.013523,0.002678,0.000431,0.007404
84799000,0.0324,0.013523,0.002678,0.000431,0.001175
84800000,0.0324,0.013523,0.002678,0.000431,0.000823
84801000,0.0324,0.013523,0.002678,0.000431,0.000823
84802000,0.0324,0.013523,0.002678,0.000431,0.000940
84803000,0.0324,0.013523,0.002678,0.000431,0.005876
84804000,0.0324,0.013523,0.002678,0.000431,0.612087
84805000,0.0324,0.013523,0.002678,0.000431,0.652281
84806000,0.0324,0.013523,0.002678,0.000431,0.194392
84807000,0.0324,0.013523,0.002678,0.000431,0.132924
84808000,0.0324,0.013523,0.002678,0.000431,0.521237
84809000,0.0324,0.013523,0.002678,0.000431,0.270785
84810000,0.0324,0.013523,0.002678,0.000431,0.266319
84811000,0.0324,0.013523,0.002678,0.000431,0.334955
84812000,0.0324,0.013523,0.002678,0.000431,0.147733
84813000,0.0324,0.013523,0.002678,0.000431,0.157135
84814000,0.0324,0.013523,0.002678,0.000431,0.156900
84815000,0.0324,0.013523,0.002678,0.000431,0.533108
84816000,0.0324,0.013523,0.002678,0.000431,0.224009
84817000,0.0324,0.013523,0.002678,0.000431,0.182874
84818000,0.0324,0.013523,0.002678,0.000431,0.153844
84819000,0.0324,0.013523,0.002678,0.000431,0.130574
84820000,0.0324,0.013523,0.002678,0.000431,0.112710
84821000,0.0324,0.013523,0.002678,0.000431,0.086618
84822000,0.0324,0.013523,0.002678,0.000431,0.078979
84823000,0.0324,0.013523,0.002678,0.000431,0.077921
84824000,0.0324,0.013523,0.002678,0.000431,0.064405
84825000,0.0324,0.013523,0.002678,0.000431,0.057001
84826000,0.0324,0.013523,0.002678,0.000431,0.040077
84827000,0.0324,0.013523,0.002678,0.000431,0.037139
84828000,0.0324,0.013523,0.002678,0.000431,0.034436
84829000,0.0324,0.013523,0.002678,0.000431,0.025739
84830000,0.0324,0.013523,0.002678,0.000431,0.026796
84831000,0.0324,0.013523,0.002678,0.000431,0.022448
84832000,0.0324,0.013523,0.002678,0.000431,0.021038
84833000,0.0324,0.013523,0.002678,0.000431,0.020450
84834000,0.0324,0.013523,0.002678,0.000431,0.013398
84835000,0.0324,0.013523,0.002678,0.000431,0.017042
84836000,0.0324,0.013523,0.002678,0.000431,0.013281
84837000,0.0324,0.013523,0.002678,0.000431,0.014691
84838000,0.0324,0.013523,0.002678,0.000431,0.012576
84839000,0.0324,0.013523,0.002678,0.000431,0.013751
84840000,0.0324,0.013523,0.002678,0.000431,0.009637
84841000,0.0324,0.013523,0.002678,0.000431,0.011518
84842000,0.0324,0.013523,0.002678,0.000431,0.009520
84843000,0.0324,0.013523,0.002678,0.000431,0.010342
84844000,0.0324,0.013523,0.002678,0.000431,0.013163
84845000,0.0324,0.013523,0.002678,0.000431,0.012811
84846000,0.0324,0.013523,0.002678,0.000431,0.009637
84847000,0.0324,0.013523,0.002678,0.000431,0.007404
84848000,0.0324,0.013523,0.002678,0.000431,0.011635
84849000,0.0324,0.013523,0.002678,0.000431,0.006347
84850000,0.0324,0.013523,0.002678,0.000431,0.005759
84851000,0.0324,0.013523,0.002678,0.000431,0.009285
84852000,0.0324,0.013523,0.002678,0.000431,0.003408
84853000,0.0324,0.013523,0.002678,0.000431,0.002703
84854000,0.0324,0.013523,0.002678,0.000431,0.003173
84855000,0.0324,0.013523,0.002678,0.000431,0.006582
84856000,0.0324,0.013523,0.002678,0.000431,0.001763
84857000,0.0324,0.013523,0.002678,0.000431,0.001175
84858000,0.0324,0.013523,0.002678,0.000431,0.001528
84859000,0.0324,0.013523,0.002678,0.000431,0.000940
84860000,0.0324,0.013523,0.002678,0.000431,0.001528
84861000,0.0324,0.013523,0.002678,0.000431,0.000940
84862000,0.0324,0.013523,0.002678,0.000431,0.001175
84863000,0.0324,0.013523,0.002678,0.000431,0.000940
84864000,0.0324,0.013523,0.002678,0.000431,0.074748
84865000,0.0324,0.013523,0.002678,0.000431,0.738077
84866000,0.0324,0.013523,0.002678,0.000431,0.569777
84867000,0.0324,0.013523,0.002678,0.000431,0.133512
84868000,0.0324,0.013523,0.002678,0.000431,0.159603
84869000,0.0324,0.013523,0.002678,0.000431,0.618433
84870000,0.0324,0.013523,0.002678,0.000431,0.236349
84871000,0.0324,0.013523,0.002678,0.000431,0.336013
84872000,0.0324,0.013523,0.002678,0.000431,0.174412
84873000,0.0324,0.013523,0.002678,0.000431,0.166537
84874000,0.0324,0.013523,0.002678,0.000431,0.099076
84875000,0.0324,0.013523,0.002678,0.000431,0.465529
84876000,0.0324,0.013523,0.002678,0.000431,0.243871
84877000,0.0324,0.013523,0.002678,0.000431,0.158193
84878000,0.0324,0.013523,0.002678,0.000431,0.125050
84879000,0.0324,0.013523,0.002678,0.000431,0.118116
84880000,0.0324,0.013523,0.002678,0.000431,0.088969
84881000,0.0324,0.013523,0.002678,0.000431,0.078039
84882000,0.0324,0.013523,0.002678,0.000431,0.071222
84883000,0.0324,0.013523,0.002678,0.000431,0.052653
84884000,0.0324,0.013523,0.002678,0.000431,0.052535
84885000,0.0324,0.013523,0.002678,0.000431,0.036786
84886000,0.0324,0.013523,0.002678,0.000431,0.035258
84887000,0.0324,0.013523,0.002678,0.000431,0.033731
84888000,0.0324,0.013523,0.002678,0.000431,0.023388
84889000,0.0324,0.013523,0.002678,0.000431,0.029265
84890000,0.0324,0.013523,0.002678,0.000431,0.021390
84891000,0.0324,0.013523,0.002678,0.000431,0.014456
84892000,0.0324,0.013523,0.002678,0.000431,0.014338
84893000,0.0324,0.013523,0.002678,0.000431,0.010695
84894000,0.0324,0.013523,0.002678,0.000431,0.007287
84895000,0.0324,0.013523,0.002678,0.000431,0.010695
84896000,0.0324,0.013523,0.002678,0.000431,0.007404
84897000,0.0324,0.013523,0.002678,0.000431,0.005876
84898000,0.0324,0.013523,0.002678,0.000431,0.005171
84899000,0.0324,0.013523,0.002678,0.000431,0.004819
84900000,0.0324,0.013523,0.002678,0.000431,0.005171
84901000,0.0324,0.013523,0.002678,0.000431,0.005289
84902000,0.0324,0.013523,0.002678,0.000431,0.006934
84903000,0.0324,0.013523,0.002678,0.000431,0.004349
84904000,0.0324,0.013523,0.002678,0.000431,0.007287
84905000,0.0324,0.013523,0.002678,0.000431,0.007052
84906000,0.0324,0.013523,0.002678,0.000431,0.001763
84907000,0.0324,0.013523,0.002678,0.000431,0.073338
84908000,0.0324,0.013523,0.002678,0.000431,0.608443
84909000,0.0324,0.013523,0.002678,0.000431,0.600334
84910000,0.0324,0.013523,0.002678,0.000431,0.143619
84911000,0.0324,0.013523,0.002678,0.000431,0.141386
84912000,0.0324,0.013523,0.002678,0.000431,0.585643
84913000,0.0324,0.013523,0.002678,0.000431,0.286886
84914000,0.0324,0.013523,0.002678,0.000431,0.227770
84915000,0.0324,0.013523,0.002678,0.000431,0.290530
84916000,0.0324,0.013523,0.002678,0.000431,0.150906
84917000,0.0324,0.013523,0.002678,0.000431,0.161601
84918000,0.0324,0.013523,0.002678,0.000431,0.144912
84919000,0.0324,0.013523,0.002678,0.000431,0.528524
84920000,0.0324,0.013523,0.002678,0.000431,0.252451
84921000,0.0324,0.013523,0.002678,0.000431,0.190043
84922000,0.0324,0.013523,0.002678,0.000431,0.146558
84923000,0.0324,0.013523,0.002678,0.000431,0.129046
84924000,0.0324,0.013523,0.002678,0.000431,0.115060
84925000,0.0324,0.013523,0.002678,0.000431,0.095080
84926000,0.0324,0.013523,0.002678,0.000431,0.079802
84927000,0.0324,0.013523,0.002678,0.000431,0.070517
84928000,0.0324,0.013523,0.002678,0.000431,0.049244
84929000,0.0324,0.013523,0.002678,0.000431,0.039842
84930000,0.0324,0.013523,0.002678,0.000431,0.033848
84931000,0.0324,0.013523,0.002678,0.000431,0.036316
84932000,0.0324,0.013523,0.002678,0.000431,0.022800
84933000,0.0324,0.013523,0.002678,0.000431,0.016689
84934000,0.0324,0.013523,0.002678,0.000431,0.021038
84935000,0.0324,0.013523,0.002678,0.000431,0.015044
84936000,0.0324,0.013523,0.002678,0.000431,0.008109
84937000,0.0324,0.013523,0.002678,0.000431,0.007404
84938000,0.0324,0.013523,0.002678,0.000431,0.007757
84939000,0.0324,0.013523,0.002678,0.000431,0.004231
84940000,0.0324,0.013523,0.002678,0.000431,0.006347
84941000,0.0324,0.013523,0.002678,0.000431,0.003291
84942000,0.0324,0.013523,0.002678,0.000431,0.003526
84943000,0.0324,0.013523,0.002678,0.000431,0.009520
84944000,0.0324,0.013523,0.002678,0.000431,0.001645
84945000,0.0324,0.013523,0.002678,0.000431,0.001763
84946000,0.0324,0.013523,0.002678,0.000431,0.001763
84947000,0.0324,0.013523,0.002678,0.000431,0.001645
84948000,0.0324,0.013523,0.002678,0.000431,0.001528
84949000,0.0324,0.013523,0.002678,0.000431,0.001763
84950000,0.0324,0.013523,0.002678,0.000431,0.001763
84951000,0.0324,0.013523,0.002678,0.000431,0.001410
84952000,0.0324,0.013523,0.002678,0.000431,0.004701
84953000,0.0324,0.013523,0.002678,0.000431,0.000823
84954000,0.0324,0.013523,0.002678,0.000431,0.000940
84955000,0.0324,0.013523,0.002678,0.000431,0.000823
84956000,0.0324,0.013523,0.002678,0.000431,0.000823
84957000,0.0324,0.013523,0.002678,0.000431,0.000940
84958000,0.0324,0.013523,0.002678,0.000431,0.000705
84959000,0.0324,0.013523,0.002678,0.000431,0.000940
84960000,0.0324,0.013523,0.002678,0.000431,0.000823
84961000,0.0324,0.013523,0.002678,0.000431,0.000823
84962000,0.0324,0.013523,0.002678,0.000431,0.000823
84963000,0.0324,0.013523,0.002678,0.000431,0.000823
84964000,0.0324,0.013523,0.002678,0.000431,0.000823
84965000,0.0324,0.013523,0.002678,0.000431,0.000823
84966000,0.0324,0.013523,0.002678,0.000431,0.000940
84967000,0.0324,0.013523,0.002678,0.000431,0.000705
84968000,0.0324,0.013523,0.002678,0.000431,0.000823
84969000,0.0324,0.013523,0.002678,0.000431,0.000940
84970000,0.0324,0.013523,0.002678,0.000431,0.003878
84971000,0.0324,0.013523,0.002678,0.000431,0.593282
84972000,0.0324,0.013523,0.002678,0.000431,0.653927
84973000,0.0324,0.013523,0.002678,0.000431,0.205322
84974000,0.0324,0.013523,0.002678,0.000431,0.145500
84975000,0.0324,0.013523,0.002678,0.000431,0.522530
84976000,0.0324,0.013523,0.002678,0.000431,0.287827
84977000,0.0324,0.013523,0.002678,0.000431,0.312507
84978000,0.0324,0.013523,0.002678,0.000431,0.283713
84979000,0.0324,0.013523,0.002678,0.000431,0.159251
84980000,0.0324,0.013523,0.002678,0.000431,0.136098
84981000,0.0324,0.013523,0.002678,0.000431,0.241285
84982000,0.0324,0.013523,0.002678,0.000431,0.452719
84983000,0.0324,0.013523,0.002678,0.000431,0.174059
84984000,0.0324,0.013523,0.002678,0.000431,0.154315
84985000,0.0324,0.013523,0.002678,0.000431,0.129634
84986000,0.0324,0.013523,0.002678,0.000431,0.108126
84987000,0.0324,0.013523,0.002678,0.000431,0.096961
84988000,0.0324,0.013523,0.002678,0.000431,0.082740
84989000,0.0324,0.013523,0.002678,0.000431,0.066286
84990000,0.0324,0.013523,0.002678,0.000431,0.056766
84991000,0.0324,0.013523,0.002678,0.000431,0.057589
84992000,0.0324,0.013523,0.002678,0.000431,0.042780
84993000,0.0324,0.013523,0.002678,0.000431,0.034671
84994000,0.0324,0.013523,0.002678,0.000431,0.030557
84995000,0.0324,0.013523,0.002678,0.000431,0.017159
84996000,0.0324,0.013523,0.002678,0.000431,0.022918
84997000,0.0324,0.013523,0.002678,0.000431,0.010578
84998000,0.0324,0.013523,0.002678,0.000431,0.012105
84999000,0.0324,0.013523,0.002678,0.000431,0.008580
