Cycle,Area(mm^2),PeakDynamic(W),SubthresholdLeakage(W),GateLeakage(W),RunTimeDynamic(W)
10000000,0.0324,0.013523,0.002678,0.000431,0.005994
10001000,0.0324,0.013523,0.002678,0.000431,0.001763
10002000,0.0324,0.013523,0.002678,0.000431,0.001410
10003000,0.0324,0.013523,0.002678,0.000431,0.001645
10004000,0.0324,0.013523,0.002678,0.000431,0.001645
10005000,0.0324,0.013523,0.002678,0.000431,0.001645
10006000,0.0324,0.013523,0.002678,0.000431,0.001410
10007000,0.0324,0.013523,0.002678,0.000431,0.001645
10008000,0.0324,0.013523,0.002678,0.000431,0.001645
10009000,0.0324,0.013523,0.002678,0.000431,0.001645
10010000,0.0324,0.013523,0.002678,0.000431,0.001410
10011000,0.0324,0.013523,0.002678,0.000431,0.001645
10012000,0.0324,0.013523,0.002678,0.000431,0.001293
10013000,0.0324,0.013523,0.002678,0.000431,0.001763
10014000,0.0324,0.013523,0.002678,0.000431,0.001880
10015000,0.0324,0.013523,0.002678,0.000431,0.001175
10016000,0.0324,0.013523,0.002678,0.000431,0.001880
10017000,0.0324,0.013523,0.002678,0.000431,0.001293
10018000,0.0324,0.013523,0.002678,0.000431,0.001763
10019000,0.0324,0.013523,0.002678,0.000431,0.001645
10020000,0.0324,0.013523,0.002678,0.000431,0.001410
10021000,0.0324,0.013523,0.002678,0.000431,0.001880
10022000,0.0324,0.013523,0.002678,0.000431,0.001293
10023000,0.0324,0.013523,0.002678,0.000431,0.001763
10024000,0.0324,0.013523,0.002678,0.000431,0.001645
10025000,0.0324,0.013523,0.002678,0.000431,0.001410
10026000,0.0324,0.013523,0.002678,0.000431,0.001645
10027000,0.0324,0.013523,0.002678,0.000431,0.001528
10028000,0.0324,0.013523,0.002678,0.000431,0.001528
10029000,0.0324,0.013523,0.002678,0.000431,0.001645
10030000,0.0324,0.013523,0.002678,0.000431,0.001410
10031000,0.0324,0.013523,0.002678,0.000431,0.002586
10032000,0.0324,0.013523,0.002678,0.000431,0.440496
10033000,0.0324,0.013523,0.002678,0.000431,0.747714
10034000,0.0324,0.013523,0.002678,0.000431,0.136685
10035000,0.0324,0.013523,0.002678,0.000431,0.134922
10036000,0.0324,0.013523,0.002678,0.000431,0.197212
10037000,0.0324,0.013523,0.002678,0.000431,0.601509
10038000,0.0324,0.013523,0.002678,0.000431,0.229415
10039000,0.0324,0.013523,0.002678,0.000431,0.287239
10040000,0.0324,0.013523,0.002678,0.000431,0.164539
10041000,0.0324,0.013523,0.002678,0.000431,0.156900
10042000,0.0324,0.013523,0.002678,0.000431,0.141034
10043000,0.0324,0.013523,0.002678,0.000431,0.231060
10044000,0.0324,0.013523,0.002678,0.000431,0.414169
10045000,0.0324,0.013523,0.002678,0.000431,0.123640
10046000,0.0324,0.013523,0.002678,0.000431,0.096021
10047000,0.0324,0.013523,0.002678,0.000431,0.088146
10048000,0.0324,0.013523,0.002678,0.000431,0.063583
10049000,0.0324,0.013523,0.002678,0.000431,0.056884
10050000,0.0324,0.013523,0.002678,0.000431,0.041487
10051000,0.0324,0.013523,0.002678,0.000431,0.043720
10052000,0.0324,0.013523,0.002678,0.000431,0.029735
10053000,0.0324,0.013523,0.002678,0.000431,0.018805
10054000,0.0324,0.013523,0.002678,0.000431,0.017394
10055000,0.0324,0.013523,0.002678,0.000431,0.013046
10056000,0.0324,0.013523,0.002678,0.000431,0.008109
10057000,0.0324,0.013523,0.002678,0.000431,0.005289
10058000,0.0324,0.013523,0.002678,0.000431,0.009285
10059000,0.0324,0.013523,0.002678,0.000431,0.003526
10060000,0.0324,0.013523,0.002678,0.000431,0.004231
10061000,0.0324,0.013523,0.002678,0.000431,0.003643
10062000,0.0324,0.013523,0.002678,0.000431,0.002703
10063000,0.0324,0.013523,0.002678,0.000431,0.004231
10064000,0.0324,0.013523,0.002678,0.000431,0.001645
10065000,0.0324,0.013523,0.002678,0.000431,0.001763
10066000,0.0324,0.013523,0.002678,0.000431,0.001763
10067000,0.0324,0.013523,0.002678,0.000431,0.001763
10068000,0.0324,0.013523,0.002678,0.000431,0.001880
10069000,0.0324,0.013523,0.002678,0.000431,0.001645
10070000,0.0324,0.013523,0.002678,0.000431,0.003996
10071000,0.0324,0.013523,0.002678,0.000431,0.000940
10072000,0.0324,0.013523,0.002678,0.000431,0.248220
10073000,0.0324,0.013523,0.002678,0.000431,0.713279
10074000,0.0324,0.013523,0.002678,0.000431,0.338364
10075000,0.0324,0.013523,0.002678,0.000431,0.131397
10076000,0.0324,0.013523,0.002678,0.000431,0.142562
10077000,0.0324,0.013523,0.002678,0.000431,0.624780
10078000,0.0324,0.013523,0.002678,0.000431,0.240345
10079000,0.0324,0.013523,0.002678,0.000431,0.231295
10080000,0.0324,0.013523,0.002678,0.000431,0.223891
10081000,0.0324,0.013523,0.002678,0.000431,0.146793
10082000,0.0324,0.013523,0.002678,0.000431,0.161836
10083000,0.0324,0.013523,0.002678,0.000431,0.106128
10084000,0.0324,0.013523,0.002678,0.000431,0.475401
10085000,0.0324,0.013523,0.002678,0.000431,0.191101
10086000,0.0324,0.013523,0.002678,0.000431,0.090027
10087000,0.0324,0.013523,0.002678,0.000431,0.061350
10088000,0.0324,0.013523,0.002678,0.000431,0.047246
10089000,0.0324,0.013523,0.002678,0.000431,0.049127
10090000,0.0324,0.013523,0.002678,0.000431,0.038549
10091000,0.0324,0.013523,0.002678,0.000431,0.018334
10092000,0.0324,0.013523,0.002678,0.000431,0.023153
10093000,0.0324,0.013523,0.002678,0.000431,0.010813
10094000,0.0324,0.013523,0.002678,0.000431,0.011048
10095000,0.0324,0.013523,0.002678,0.000431,0.008109
10096000,0.0324,0.013523,0.002678,0.000431,0.007639
10097000,0.0324,0.013523,0.002678,0.000431,0.006347
10098000,0.0324,0.013523,0.002678,0.000431,0.006817
10099000,0.0324,0.013523,0.002678,0.000431,0.003526
10100000,0.0324,0.013523,0.002678,0.000431,0.003526
10101000,0.0324,0.013523,0.002678,0.000431,0.005641
10102000,0.0324,0.013523,0.002678,0.000431,0.002703
10103000,0.0324,0.013523,0.002678,0.000431,0.003761
10104000,0.0324,0.013523,0.002678,0.000431,0.001763
10105000,0.0324,0.013523,0.002678,0.000431,0.002821
10106000,0.0324,0.013523,0.002678,0.000431,0.002351
10107000,0.0324,0.013523,0.002678,0.000431,0.000940
10108000,0.0324,0.013523,0.002678,0.000431,0.000823
10109000,0.0324,0.013523,0.002678,0.000431,0.000823
10110000,0.0324,0.013523,0.002678,0.000431,0.000940
10111000,0.0324,0.013523,0.002678,0.000431,0.000940
10112000,0.0324,0.013523,0.002678,0.000431,0.000823
10113000,0.0324,0.013523,0.002678,0.000431,0.000823
10114000,0.0324,0.013523,0.002678,0.000431,0.000940
10115000,0.0324,0.013523,0.002678,0.000431,0.000823
10116000,0.0324,0.013523,0.002678,0.000431,0.000940
10117000,0.0324,0.013523,0.002678,0.000431,0.000823
10118000,0.0324,0.013523,0.002678,0.000431,0.000940
10119000,0.0324,0.013523,0.002678,0.000431,0.000823
10120000,0.0324,0.013523,0.002678,0.000431,0.000823
10121000,0.0324,0.013523,0.002678,0.000431,0.000940
10122000,0.0324,0.013523,0.002678,0.000431,0.000940
10123000,0.0324,0.013523,0.002678,0.000431,0.138566
10124000,0.0324,0.013523,0.002678,0.000431,0.614202
10125000,0.0324,0.013523,0.002678,0.000431,0.519122
10126000,0.0324,0.013523,0.002678,0.000431,0.134452
10127000,0.0324,0.013523,0.002678,0.000431,0.147263
10128000,0.0324,0.013523,0.002678,0.000431,0.642527
10129000,0.0324,0.013523,0.002678,0.000431,0.235291
10130000,0.0324,0.013523,0.002678,0.000431,0.296053
10131000,0.0324,0.013523,0.002678,0.000431,0.203794
10132000,0.0324,0.013523,0.002678,0.000431,0.138566
10133000,0.0324,0.013523,0.002678,0.000431,0.140211
10134000,0.0324,0.013523,0.002678,0.000431,0.248925
10135000,0.0324,0.013523,0.002678,0.000431,0.438733
10136000,0.0324,0.013523,0.002678,0.000431,0.131632
10137000,0.0324,0.013523,0.002678,0.000431,0.097548
10138000,0.0324,0.013523,0.002678,0.000431,0.077334
10139000,0.0324,0.013523,0.002678,0.000431,0.057589
10140000,0.0324,0.013523,0.002678,0.000431,0.051595
10141000,0.0324,0.013523,0.002678,0.000431,0.041252
10142000,0.0324,0.013523,0.002678,0.000431,0.035376
10143000,0.0324,0.013523,0.002678,0.000431,0.034906
10144000,0.0324,0.013523,0.002678,0.000431,0.017629
10145000,0.0324,0.013523,0.002678,0.000431,0.014338
10146000,0.0324,0.013523,0.002678,0.000431,0.014103
10147000,0.0324,0.013523,0.002678,0.000431,0.016807
10148000,0.0324,0.013523,0.002678,0.000431,0.010930
10149000,0.0324,0.013523,0.002678,0.000431,0.006582
10150000,0.0324,0.013523,0.002678,0.000431,0.004701
10151000,0.0324,0.013523,0.002678,0.000431,0.004701
10152000,0.0324,0.013523,0.002678,0.000431,0.004936
10153000,0.0324,0.013523,0.002678,0.000431,0.004701
10154000,0.0324,0.013523,0.002678,0.000431,0.006111
10155000,0.0324,0.013523,0.002678,0.000431,0.002468
10156000,0.0324,0.013523,0.002678,0.000431,0.003878
10157000,0.0324,0.013523,0.002678,0.000431,0.001763
10158000,0.0324,0.013523,0.002678,0.000431,0.001880
10159000,0.0324,0.013523,0.002678,0.000431,0.001528
10160000,0.0324,0.013523,0.002678,0.000431,0.001880
10161000,0.0324,0.013523,0.002678,0.000431,0.001763
10162000,0.0324,0.013523,0.002678,0.000431,0.001880
10163000,0.0324,0.013523,0.002678,0.000431,0.002586
10164000,0.0324,0.013523,0.002678,0.000431,0.000823
10165000,0.0324,0.013523,0.002678,0.000431,0.000940
10166000,0.0324,0.013523,0.002678,0.000431,0.000940
10167000,0.0324,0.013523,0.002678,0.000431,0.000705
10168000,0.0324,0.013523,0.002678,0.000431,0.000940
10169000,0.0324,0.013523,0.002678,0.000431,0.071810
10170000,0.0324,0.013523,0.002678,0.000431,0.623840
10171000,0.0324,0.013523,0.002678,0.000431,0.582117
10172000,0.0324,0.013523,0.002678,0.000431,0.133747
10173000,0.0324,0.013523,0.002678,0.000431,0.133042
10174000,0.0324,0.013523,0.002678,0.000431,0.534401
10175000,0.0324,0.013523,0.002678,0.000431,0.248807
10176000,0.0324,0.013523,0.002678,0.000431,0.256917
10177000,0.0324,0.013523,0.002678,0.000431,0.298639
10178000,0.0324,0.013523,0.002678,0.000431,0.146440
10179000,0.0324,0.013523,0.002678,0.000431,0.163952
10180000,0.0324,0.013523,0.002678,0.000431,0.108126
10181000,0.0324,0.013523,0.002678,0.000431,0.500670
10182000,0.0324,0.013523,0.002678,0.000431,0.192511
10183000,0.0324,0.013523,0.002678,0.000431,0.115530
10184000,0.0324,0.013523,0.002678,0.000431,0.086618
10185000,0.0324,0.013523,0.002678,0.000431,0.072397
10186000,0.0324,0.013523,0.002678,0.000431,0.051830
10187000,0.0324,0.013523,0.002678,0.000431,0.045483
10188000,0.0324,0.013523,0.002678,0.000431,0.033025
10189000,0.0324,0.013523,0.002678,0.000431,0.029147
10190000,0.0324,0.013523,0.002678,0.000431,0.024446
10191000,0.0324,0.013523,0.002678,0.000431,0.014691
10192000,0.0324,0.013523,0.002678,0.000431,0.016336
10193000,0.0324,0.013523,0.002678,0.000431,0.012811
10194000,0.0324,0.013523,0.002678,0.000431,0.007287
10195000,0.0324,0.013523,0.002678,0.000431,0.005054
10196000,0.0324,0.013523,0.002678,0.000431,0.002703
10197000,0.0324,0.013523,0.002678,0.000431,0.004819
10198000,0.0324,0.013523,0.002678,0.000431,0.001410
10199000,0.0324,0.013523,0.002678,0.000431,0.001645
10200000,0.0324,0.013523,0.002678,0.000431,0.001880
10201000,0.0324,0.013523,0.002678,0.000431,0.001410
10202000,0.0324,0.013523,0.002678,0.000431,0.001645
10203000,0.0324,0.013523,0.002678,0.000431,0.001880
10204000,0.0324,0.013523,0.002678,0.000431,0.165950
10205000,0.0324,0.013523,0.002678,0.000431,0.615378
10206000,0.0324,0.013523,0.002678,0.000431,0.515831
10207000,0.0324,0.013523,0.002678,0.000431,0.135863
10208000,0.0324,0.013523,0.002678,0.000431,0.132102
10209000,0.0324,0.013523,0.002678,0.000431,0.605153
10210000,0.0324,0.013523,0.002678,0.000431,0.266319
10211000,0.0324,0.013523,0.002678,0.000431,0.278424
10212000,0.0324,0.013523,0.002678,0.000431,0.244459
10213000,0.0324,0.013523,0.002678,0.000431,0.138213
10214000,0.0324,0.013523,0.002678,0.000431,0.146558
10215000,0.0324,0.013523,0.002678,0.000431,0.237407
10216000,0.0324,0.013523,0.002678,0.000431,0.436030
10217000,0.0324,0.013523,0.002678,0.000431,0.117763
10218000,0.0324,0.013523,0.002678,0.000431,0.102367
10219000,0.0324,0.013523,0.002678,0.000431,0.072045
10220000,0.0324,0.013523,0.002678,0.000431,0.051830
10221000,0.0324,0.013523,0.002678,0.000431,0.036434
10222000,0.0324,0.013523,0.002678,0.000431,0.026326
10223000,0.0324,0.013523,0.002678,0.000431,0.032320
10224000,0.0324,0.013523,0.002678,0.000431,0.013046
10225000,0.0324,0.013523,0.002678,0.000431,0.009872
10226000,0.0324,0.013523,0.002678,0.000431,0.008580
10227000,0.0324,0.013523,0.002678,0.000431,0.011988
10228000,0.0324,0.013523,0.002678,0.000431,0.008580
10229000,0.0324,0.013523,0.002678,0.000431,0.007522
10230000,0.0324,0.013523,0.002678,0.000431,0.009520
10231000,0.0324,0.013523,0.002678,0.000431,0.007052
10232000,0.0324,0.013523,0.002678,0.000431,0.006229
10233000,0.0324,0.013523,0.002678,0.000431,0.005171
10234000,0.0324,0.013523,0.002678,0.000431,0.005171
10235000,0.0324,0.013523,0.002678,0.000431,0.005524
10236000,0.0324,0.013523,0.002678,0.000431,0.005054
10237000,0.0324,0.013523,0.002678,0.000431,0.005171
10238000,0.0324,0.013523,0.002678,0.000431,0.005406
10239000,0.0324,0.013523,0.002678,0.000431,0.005876
10240000,0.0324,0.013523,0.002678,0.000431,0.005876
10241000,0.0324,0.013523,0.002678,0.000431,0.005054
10242000,0.0324,0.013523,0.002678,0.000431,0.005289
10243000,0.0324,0.013523,0.002678,0.000431,0.005289
10244000,0.0324,0.013523,0.002678,0.000431,0.006817
10245000,0.0324,0.013523,0.002678,0.000431,0.004466
10246000,0.0324,0.013523,0.002678,0.000431,0.004349
10247000,0.0324,0.013523,0.002678,0.000431,0.003878
10248000,0.0324,0.013523,0.002678,0.000431,0.005406
10249000,0.0324,0.013523,0.002678,0.000431,0.002586
10250000,0.0324,0.013523,0.002678,0.000431,0.002586
10251000,0.0324,0.013523,0.002678,0.000431,0.002586
10252000,0.0324,0.013523,0.002678,0.000431,0.002468
10253000,0.0324,0.013523,0.002678,0.000431,0.002586
10254000,0.0324,0.013523,0.002678,0.000431,0.005171
10255000,0.0324,0.013523,0.002678,0.000431,0.001998
10256000,0.0324,0.013523,0.002678,0.000431,0.001763
10257000,0.0324,0.013523,0.002678,0.000431,0.001528
10258000,0.0324,0.013523,0.002678,0.000431,0.001880
10259000,0.0324,0.013523,0.002678,0.000431,0.001645
10260000,0.0324,0.013523,0.002678,0.000431,0.001763
10261000,0.0324,0.013523,0.002678,0.000431,0.001645
10262000,0.0324,0.013523,0.002678,0.000431,0.001763
10263000,0.0324,0.013523,0.002678,0.000431,0.001645
10264000,0.0324,0.013523,0.002678,0.000431,0.003526
10265000,0.0324,0.013523,0.002678,0.000431,0.000823
10266000,0.0324,0.013523,0.002678,0.000431,0.000940
10267000,0.0324,0.013523,0.002678,0.000431,0.000823
10268000,0.0324,0.013523,0.002678,0.000431,0.074395
10269000,0.0324,0.013523,0.002678,0.000431,0.676727
10270000,0.0324,0.013523,0.002678,0.000431,0.542393
10271000,0.0324,0.013523,0.002678,0.000431,0.134922
10272000,0.0324,0.013523,0.002678,0.000431,0.133512
10273000,0.0324,0.013523,0.002678,0.000431,0.615965
10274000,0.0324,0.013523,0.002678,0.000431,0.235762
10275000,0.0324,0.013523,0.002678,0.000431,0.271373
10276000,0.0324,0.013523,0.002678,0.000431,0.247162
10277000,0.0324,0.013523,0.002678,0.000431,0.138331
10278000,0.0324,0.013523,0.002678,0.000431,0.145617
10279000,0.0324,0.013523,0.002678,0.000431,0.237995
10280000,0.0324,0.013523,0.002678,0.000431,0.429683
10281000,0.0324,0.013523,0.002678,0.000431,0.150083
10282000,0.0324,0.013523,0.002678,0.000431,0.110712
10283000,0.0324,0.013523,0.002678,0.000431,0.085913
10284000,0.0324,0.013523,0.002678,0.000431,0.065698
10285000,0.0324,0.013523,0.002678,0.000431,0.054768
10286000,0.0324,0.013523,0.002678,0.000431,0.050067
10287000,0.0324,0.013523,0.002678,0.000431,0.034671
10288000,0.0324,0.013523,0.002678,0.000431,0.029852
10289000,0.0324,0.013523,0.002678,0.000431,0.020685
10290000,0.0324,0.013523,0.002678,0.000431,0.020332
10291000,0.0324,0.013523,0.002678,0.000431,0.019745
10292000,0.0324,0.013523,0.002678,0.000431,0.011870
10293000,0.0324,0.013523,0.002678,0.000431,0.008345
10294000,0.0324,0.013523,0.002678,0.000431,0.011870
10295000,0.0324,0.013523,0.002678,0.000431,0.006582
10296000,0.0324,0.013523,0.002678,0.000431,0.008932
10297000,0.0324,0.013523,0.002678,0.000431,0.006111
10298000,0.0324,0.013523,0.002678,0.000431,0.005641
10299000,0.0324,0.013523,0.002678,0.000431,0.007874
10300000,0.0324,0.013523,0.002678,0.000431,0.006582
10301000,0.0324,0.013523,0.002678,0.000431,0.006347
10302000,0.0324,0.013523,0.002678,0.000431,0.002586
10303000,0.0324,0.013523,0.002678,0.000431,0.002821
10304000,0.0324,0.013523,0.002678,0.000431,0.002233
10305000,0.0324,0.013523,0.002678,0.000431,0.002468
10306000,0.0324,0.013523,0.002678,0.000431,0.003526
10307000,0.0324,0.013523,0.002678,0.000431,0.000940
10308000,0.0324,0.013523,0.002678,0.000431,0.000823
10309000,0.0324,0.013523,0.002678,0.000431,0.000823
10310000,0.0324,0.013523,0.002678,0.000431,0.000940
10311000,0.0324,0.013523,0.002678,0.000431,0.000823
10312000,0.0324,0.013523,0.002678,0.000431,0.000940
10313000,0.0324,0.013523,0.002678,0.000431,0.000823
10314000,0.0324,0.013523,0.002678,0.000431,0.000940
10315000,0.0324,0.013523,0.002678,0.000431,0.000823
10316000,0.0324,0.013523,0.002678,0.000431,0.000823
10317000,0.0324,0.013523,0.002678,0.000431,0.000940
10318000,0.0324,0.013523,0.002678,0.000431,0.000940
10319000,0.0324,0.013523,0.002678,0.000431,0.000823
10320000,0.0324,0.013523,0.002678,0.000431,0.000823
10321000,0.0324,0.013523,0.002678,0.000431,0.000940
10322000,0.0324,0.013523,0.002678,0.000431,0.000940
10323000,0.0324,0.013523,0.002678,0.000431,0.000705
10324000,0.0324,0.013523,0.002678,0.000431,0.000940
10325000,0.0324,0.013523,0.002678,0.000431,0.000940
10326000,0.0324,0.013523,0.002678,0.000431,0.000823
10327000,0.0324,0.013523,0.002678,0.000431,0.000940
10328000,0.0324,0.013523,0.002678,0.000431,0.000823
10329000,0.0324,0.013523,0.002678,0.000431,0.000940
10330000,0.0324,0.013523,0.002678,0.000431,0.000823
10331000,0.0324,0.013523,0.002678,0.000431,0.072867
10332000,0.0324,0.013523,0.002678,0.000431,0.682016
10333000,0.0324,0.013523,0.002678,0.000431,0.543568
10334000,0.0324,0.013523,0.002678,0.000431,0.133982
10335000,0.0324,0.013523,0.002678,0.000431,0.133277
10336000,0.0324,0.013523,0.002678,0.000431,0.545683
10337000,0.0324,0.013523,0.002678,0.000431,0.239757
10338000,0.0324,0.013523,0.002678,0.000431,0.260090
10339000,0.0324,0.013523,0.002678,0.000431,0.261735
10340000,0.0324,0.013523,0.002678,0.000431,0.139388
10341000,0.0324,0.013523,0.002678,0.000431,0.154785
10342000,0.0324,0.013523,0.002678,0.000431,0.115648
10343000,0.0324,0.013523,0.002678,0.000431,0.403122
10344000,0.0324,0.013523,0.002678,0.000431,0.307571
10345000,0.0324,0.013523,0.002678,0.000431,0.132102
10346000,0.0324,0.013523,0.002678,0.000431,0.101544
10347000,0.0324,0.013523,0.002678,0.000431,0.086618
10348000,0.0324,0.013523,0.002678,0.000431,0.071222
10349000,0.0324,0.013523,0.002678,0.000431,0.058059
10350000,0.0324,0.013523,0.002678,0.000431,0.045954
10351000,0.0324,0.013523,0.002678,0.000431,0.038079
10352000,0.0324,0.013523,0.002678,0.000431,0.027502
10353000,0.0324,0.013523,0.002678,0.000431,0.018805
10354000,0.0324,0.013523,0.002678,0.000431,0.014926
10355000,0.0324,0.013523,0.002678,0.000431,0.015279
10356000,0.0324,0.013523,0.002678,0.000431,0.015749
10357000,0.0324,0.013523,0.002678,0.000431,0.011635
10358000,0.0324,0.013523,0.002678,0.000431,0.014103
10359000,0.0324,0.013523,0.002678,0.000431,0.011283
10360000,0.0324,0.013523,0.002678,0.000431,0.010342
10361000,0.0324,0.013523,0.002678,0.000431,0.009637
10362000,0.0324,0.013523,0.002678,0.000431,0.013516
10363000,0.0324,0.013523,0.002678,0.000431,0.007639
10364000,0.0324,0.013523,0.002678,0.000431,0.007522
10365000,0.0324,0.013523,0.002678,0.000431,0.007522
10366000,0.0324,0.013523,0.002678,0.000431,0.008815
10367000,0.0324,0.013523,0.002678,0.000431,0.008697
10368000,0.0324,0.013523,0.002678,0.000431,0.006934
10369000,0.0324,0.013523,0.002678,0.000431,0.006464
10370000,0.0324,0.013523,0.002678,0.000431,0.006817
10371000,0.0324,0.013523,0.002678,0.000431,0.006934
10372000,0.0324,0.013523,0.002678,0.000431,0.007052
10373000,0.0324,0.013523,0.002678,0.000431,0.006582
10374000,0.0324,0.013523,0.002678,0.000431,0.008462
10375000,0.0324,0.013523,0.002678,0.000431,0.006934
10376000,0.0324,0.013523,0.002678,0.000431,0.004936
10377000,0.0324,0.013523,0.002678,0.000431,0.005171
10378000,0.0324,0.013523,0.002678,0.000431,0.004936
10379000,0.0324,0.013523,0.002678,0.000431,0.005171
10380000,0.0324,0.013523,0.002678,0.000431,0.004701
10381000,0.0324,0.013523,0.002678,0.000431,0.005171
10382000,0.0324,0.013523,0.002678,0.000431,0.005171
10383000,0.0324,0.013523,0.002678,0.000431,0.006582
10384000,0.0324,0.013523,0.002678,0.000431,0.003291
10385000,0.0324,0.013523,0.002678,0.000431,0.003291
10386000,0.0324,0.013523,0.002678,0.000431,0.004819
10387000,0.0324,0.013523,0.002678,0.000431,0.002703
10388000,0.0324,0.013523,0.002678,0.000431,0.002116
10389000,0.0324,0.013523,0.002678,0.000431,0.002586
10390000,0.0324,0.013523,0.002678,0.000431,0.002703
10391000,0.0324,0.013523,0.002678,0.000431,0.002468
10392000,0.0324,0.013523,0.002678,0.000431,0.002233
10393000,0.0324,0.013523,0.002678,0.000431,0.002586
10394000,0.0324,0.013523,0.002678,0.000431,0.002586
10395000,0.0324,0.013523,0.002678,0.000431,0.002233
10396000,0.0324,0.013523,0.002678,0.000431,0.002586
10397000,0.0324,0.013523,0.002678,0.000431,0.002703
10398000,0.0324,0.013523,0.002678,0.000431,0.002468
10399000,0.0324,0.013523,0.002678,0.000431,0.002233
10400000,0.0324,0.013523,0.002678,0.000431,0.002586
10401000,0.0324,0.013523,0.002678,0.000431,0.002586
10402000,0.0324,0.013523,0.002678,0.000431,0.002586
10403000,0.0324,0.013523,0.002678,0.000431,0.002233
10404000,0.0324,0.013523,0.002678,0.000431,0.002703
10405000,0.0324,0.013523,0.002678,0.000431,0.002468
10406000,0.0324,0.013523,0.002678,0.000431,0.002468
10407000,0.0324,0.013523,0.002678,0.000431,0.002468
10408000,0.0324,0.013523,0.002678,0.000431,0.002468
10409000,0.0324,0.013523,0.002678,0.000431,0.002586
10410000,0.0324,0.013523,0.002678,0.000431,0.002351
10411000,0.0324,0.013523,0.002678,0.000431,0.002586
10412000,0.0324,0.013523,0.002678,0.000431,0.002468
10413000,0.0324,0.013523,0.002678,0.000431,0.002468
10414000,0.0324,0.013523,0.002678,0.000431,0.002468
10415000,0.0324,0.013523,0.002678,0.000431,0.002468
10416000,0.0324,0.013523,0.002678,0.000431,0.002586
10417000,0.0324,0.013523,0.002678,0.000431,0.002233
10418000,0.0324,0.013523,0.002678,0.000431,0.002703
10419000,0.0324,0.013523,0.002678,0.000431,0.002703
10420000,0.0324,0.013523,0.002678,0.000431,0.002233
10421000,0.0324,0.013523,0.002678,0.000431,0.002468
10422000,0.0324,0.013523,0.002678,0.000431,0.003878
10423000,0.0324,0.013523,0.002678,0.000431,0.001763
10424000,0.0324,0.013523,0.002678,0.000431,0.001645
10425000,0.0324,0.013523,0.002678,0.000431,0.001645
10426000,0.0324,0.013523,0.002678,0.000431,0.001645
10427000,0.0324,0.013523,0.002678,0.000431,0.001645
10428000,0.0324,0.013523,0.002678,0.000431,0.001645
10429000,0.0324,0.013523,0.002678,0.000431,0.001645
10430000,0.0324,0.013523,0.002678,0.000431,0.001645
10431000,0.0324,0.013523,0.002678,0.000431,0.001645
10432000,0.0324,0.013523,0.002678,0.000431,0.001645
10433000,0.0324,0.013523,0.002678,0.000431,0.001645
10434000,0.0324,0.013523,0.002678,0.000431,0.001763
10435000,0.0324,0.013523,0.002678,0.000431,0.001528
10436000,0.0324,0.013523,0.002678,0.000431,0.001645
10437000,0.0324,0.013523,0.002678,0.000431,0.001645
10438000,0.0324,0.013523,0.002678,0.000431,0.001880
10439000,0.0324,0.013523,0.002678,0.000431,0.001293
10440000,0.0324,0.013523,0.002678,0.000431,0.014926
10441000,0.0324,0.013523,0.002678,0.000431,0.654867
10442000,0.0324,0.013523,0.002678,0.000431,0.596573
10443000,0.0324,0.013523,0.002678,0.000431,0.133512
10444000,0.0324,0.013523,0.002678,0.000431,0.134452
10445000,0.0324,0.013523,0.002678,0.000431,0.511953
10446000,0.0324,0.013523,0.002678,0.000431,0.234116
10447000,0.0324,0.013523,0.002678,0.000431,0.237172
10448000,0.0324,0.013523,0.002678,0.000431,0.308041
10449000,0.0324,0.013523,0.002678,0.000431,0.141739
10450000,0.0324,0.013523,0.002678,0.000431,0.151846
10451000,0.0324,0.013523,0.002678,0.000431,0.126930
10452000,0.0324,0.013523,0.002678,0.000431,0.343065
10453000,0.0324,0.013523,0.002678,0.000431,0.386080
10454000,0.0324,0.013523,0.002678,0.000431,0.155725
10455000,0.0324,0.013523,0.002678,0.000431,0.125755
10456000,0.0324,0.013523,0.002678,0.000431,0.082152
10457000,0.0324,0.013523,0.002678,0.000431,0.071105
10458000,0.0324,0.013523,0.002678,0.000431,0.067344
10459000,0.0324,0.013523,0.002678,0.000431,0.057824
10460000,0.0324,0.013523,0.002678,0.000431,0.042193
10461000,0.0324,0.013523,0.002678,0.000431,0.043603
10462000,0.0324,0.013523,0.002678,0.000431,0.025739
10463000,0.0324,0.013523,0.002678,0.000431,0.027267
10464000,0.0324,0.013523,0.002678,0.000431,0.025974
10465000,0.0324,0.013523,0.002678,0.000431,0.011283
10466000,0.0324,0.013523,0.002678,0.000431,0.012340
10467000,0.0324,0.013523,0.002678,0.000431,0.012340
10468000,0.0324,0.013523,0.002678,0.000431,0.010578
10469000,0.0324,0.013523,0.002678,0.000431,0.014926
10470000,0.0324,0.013523,0.002678,0.000431,0.007757
10471000,0.0324,0.013523,0.002678,0.000431,0.004936
10472000,0.0324,0.013523,0.002678,0.000431,0.008227
10473000,0.0324,0.013523,0.002678,0.000431,0.006229
10474000,0.0324,0.013523,0.002678,0.000431,0.003291
10475000,0.0324,0.013523,0.002678,0.000431,0.004349
10476000,0.0324,0.013523,0.002678,0.000431,0.002703
10477000,0.0324,0.013523,0.002678,0.000431,0.003526
10478000,0.0324,0.013523,0.002678,0.000431,0.002821
10479000,0.0324,0.013523,0.002678,0.000431,0.001763
10480000,0.0324,0.013523,0.002678,0.000431,0.001763
10481000,0.0324,0.013523,0.002678,0.000431,0.003173
10482000,0.0324,0.013523,0.002678,0.000431,0.000823
10483000,0.0324,0.013523,0.002678,0.000431,0.000940
10484000,0.0324,0.013523,0.002678,0.000431,0.000940
10485000,0.0324,0.013523,0.002678,0.000431,0.000823
10486000,0.0324,0.013523,0.002678,0.000431,0.000823
10487000,0.0324,0.013523,0.002678,0.000431,0.000940
10488000,0.0324,0.013523,0.002678,0.000431,0.000940
10489000,0.0324,0.013523,0.002678,0.000431,0.000705
10490000,0.0324,0.013523,0.002678,0.000431,0.000940
10491000,0.0324,0.013523,0.002678,0.000431,0.000940
10492000,0.0324,0.013523,0.002678,0.000431,0.002116
10493000,0.0324,0.013523,0.002678,0.000431,0.376325
10494000,0.0324,0.013523,0.002678,0.000431,0.803893
10495000,0.0324,0.013523,0.002678,0.000431,0.210493
10496000,0.0324,0.013523,0.002678,0.000431,0.134335
10497000,0.0324,0.013523,0.002678,0.000431,0.189926
10498000,0.0324,0.013523,0.002678,0.000431,0.546976
10499000,0.0324,0.013523,0.002678,0.000431,0.272548
10500000,0.0324,0.013523,0.002678,0.000431,0.336248
10501000,0.0324,0.013523,0.002678,0.000431,0.182521
10502000,0.0324,0.013523,0.002678,0.000431,0.146910
10503000,0.0324,0.013523,0.002678,0.000431,0.116235
10504000,0.0324,0.013523,0.002678,0.000431,0.449075
10505000,0.0324,0.013523,0.002678,0.000431,0.213196
10506000,0.0324,0.013523,0.002678,0.000431,0.093317
10507000,0.0324,0.013523,0.002678,0.000431,0.068284
10508000,0.0324,0.013523,0.002678,0.000431,0.058529
10509000,0.0324,0.013523,0.002678,0.000431,0.039019
10510000,0.0324,0.013523,0.002678,0.000431,0.033966
10511000,0.0324,0.013523,0.002678,0.000431,0.028559
10512000,0.0324,0.013523,0.002678,0.000431,0.025034
10513000,0.0324,0.013523,0.002678,0.000431,0.025386
10514000,0.0324,0.013523,0.002678,0.000431,0.016571
10515000,0.0324,0.013523,0.002678,0.000431,0.015279
10516000,0.0324,0.013523,0.002678,0.000431,0.013751
10517000,0.0324,0.013523,0.002678,0.000431,0.011518
10518000,0.0324,0.013523,0.002678,0.000431,0.011283
10519000,0.0324,0.013523,0.002678,0.000431,0.007169
10520000,0.0324,0.013523,0.002678,0.000431,0.004466
10521000,0.0324,0.013523,0.002678,0.000431,0.005289
10522000,0.0324,0.013523,0.002678,0.000431,0.005759
10523000,0.0324,0.013523,0.002678,0.000431,0.002468
10524000,0.0324,0.013523,0.002678,0.000431,0.002703
10525000,0.0324,0.013523,0.002678,0.000431,0.004349
10526000,0.0324,0.013523,0.002678,0.000431,0.001645
10527000,0.0324,0.013523,0.002678,0.000431,0.001763
10528000,0.0324,0.013523,0.002678,0.000431,0.001763
10529000,0.0324,0.013523,0.002678,0.000431,0.001763
10530000,0.0324,0.013523,0.002678,0.000431,0.001528
10531000,0.0324,0.013523,0.002678,0.000431,0.001763
10532000,0.0324,0.013523,0.002678,0.000431,0.001763
10533000,0.0324,0.013523,0.002678,0.000431,0.001763
10534000,0.0324,0.013523,0.002678,0.000431,0.001645
10535000,0.0324,0.013523,0.002678,0.000431,0.003056
10536000,0.0324,0.013523,0.002678,0.000431,0.000705
10537000,0.0324,0.013523,0.002678,0.000431,0.000940
10538000,0.0324,0.013523,0.002678,0.000431,0.000940
10539000,0.0324,0.013523,0.002678,0.000431,0.001528
10540000,0.0324,0.013523,0.002678,0.000431,0.322262
10541000,0.0324,0.013523,0.002678,0.000431,0.739487
10542000,0.0324,0.013523,0.002678,0.000431,0.239287
10543000,0.0324,0.013523,0.002678,0.000431,0.132102
10544000,0.0324,0.013523,0.002678,0.000431,0.134452
10545000,0.0324,0.013523,0.002678,0.000431,0.577651
10546000,0.0324,0.013523,0.002678,0.000431,0.242813
10547000,0.0324,0.013523,0.002678,0.000431,0.256329
10548000,0.0324,0.013523,0.002678,0.000431,0.246104
10549000,0.0324,0.013523,0.002678,0.000431,0.144560
10550000,0.0324,0.013523,0.002678,0.000431,0.189808
10551000,0.0324,0.013523,0.002678,0.000431,0.083327
10552000,0.0324,0.013523,0.002678,0.000431,0.505606
10553000,0.0324,0.013523,0.002678,0.000431,0.145500
10554000,0.0324,0.013523,0.002678,0.000431,0.094493
10555000,0.0324,0.013523,0.002678,0.000431,0.077334
10556000,0.0324,0.013523,0.002678,0.000431,0.060292
10557000,0.0324,0.013523,0.002678,0.000431,0.051947
10558000,0.0324,0.013523,0.002678,0.000431,0.044543
10559000,0.0324,0.013523,0.002678,0.000431,0.038079
10560000,0.0324,0.013523,0.002678,0.000431,0.021273
10561000,0.0324,0.013523,0.002678,0.000431,0.026561
10562000,0.0324,0.013523,0.002678,0.000431,0.020567
10563000,0.0324,0.013523,0.002678,0.000431,0.018805
10564000,0.0324,0.013523,0.002678,0.000431,0.009990
10565000,0.0324,0.013523,0.002678,0.000431,0.006582
10566000,0.0324,0.013523,0.002678,0.000431,0.008227
10567000,0.0324,0.013523,0.002678,0.000431,0.005876
10568000,0.0324,0.013523,0.002678,0.000431,0.004466
10569000,0.0324,0.013523,0.002678,0.000431,0.004349
10570000,0.0324,0.013523,0.002678,0.000431,0.004349
10571000,0.0324,0.013523,0.002678,0.000431,0.006582
10572000,0.0324,0.013523,0.002678,0.000431,0.004936
10573000,0.0324,0.013523,0.002678,0.000431,0.002703
10574000,0.0324,0.013523,0.002678,0.000431,0.004349
10575000,0.0324,0.013523,0.002678,0.000431,0.001763
10576000,0.0324,0.013523,0.002678,0.000431,0.004466
10577000,0.0324,0.013523,0.002678,0.000431,0.385963
10578000,0.0324,0.013523,0.002678,0.000431,0.734551
10579000,0.0324,0.013523,0.002678,0.000431,0.192629
10580000,0.0324,0.013523,0.002678,0.000431,0.133277
10581000,0.0324,0.013523,0.002678,0.000431,0.133277
10582000,0.0324,0.013523,0.002678,0.000431,0.570834
10583000,0.0324,0.013523,0.002678,0.000431,0.241991
10584000,0.0324,0.013523,0.002678,0.000431,0.232353
10585000,0.0324,0.013523,0.002678,0.000431,0.244224
10586000,0.0324,0.013523,0.002678,0.000431,0.146910
10587000,0.0324,0.013523,0.002678,0.000431,0.168300
10588000,0.0324,0.013523,0.002678,0.000431,0.103072
10589000,0.0324,0.013523,0.002678,0.000431,0.484216
10590000,0.0324,0.013523,0.002678,0.000431,0.216252
10591000,0.0324,0.013523,0.002678,0.000431,0.117998
10592000,0.0324,0.013523,0.002678,0.000431,0.094493
10593000,0.0324,0.013523,0.002678,0.000431,0.070517
10594000,0.0324,0.013523,0.002678,0.000431,0.058999
10595000,0.0324,0.013523,0.002678,0.000431,0.048422
10596000,0.0324,0.013523,0.002678,0.000431,0.038902
10597000,0.0324,0.013523,0.002678,0.000431,0.035141
10598000,0.0324,0.013523,0.002678,0.000431,0.028442
10599000,0.0324,0.013523,0.002678,0.000431,0.022565
10600000,0.0324,0.013523,0.002678,0.000431,0.016689
10601000,0.0324,0.013523,0.002678,0.000431,0.014456
10602000,0.0324,0.013523,0.002678,0.000431,0.014691
10603000,0.0324,0.013523,0.002678,0.000431,0.010813
10604000,0.0324,0.013523,0.002678,0.000431,0.012223
10605000,0.0324,0.013523,0.002678,0.000431,0.011753
10606000,0.0324,0.013523,0.002678,0.000431,0.009872
10607000,0.0324,0.013523,0.002678,0.000431,0.007639
10608000,0.0324,0.013523,0.002678,0.000431,0.006347
10609000,0.0324,0.013523,0.002678,0.000431,0.003996
10610000,0.0324,0.013523,0.002678,0.000431,0.004466
10611000,0.0324,0.013523,0.002678,0.000431,0.003996
10612000,0.0324,0.013523,0.002678,0.000431,0.004466
10613000,0.0324,0.013523,0.002678,0.000431,0.003878
10614000,0.0324,0.013523,0.002678,0.000431,0.005876
10615000,0.0324,0.013523,0.002678,0.000431,0.003291
10616000,0.0324,0.013523,0.002678,0.000431,0.003291
10617000,0.0324,0.013523,0.002678,0.000431,0.003291
10618000,0.0324,0.013523,0.002678,0.000431,0.003408
10619000,0.0324,0.013523,0.002678,0.000431,0.003173
10620000,0.0324,0.013523,0.002678,0.000431,0.003408
10621000,0.0324,0.013523,0.002678,0.000431,0.003291
10622000,0.0324,0.013523,0.002678,0.000431,0.003291
10623000,0.0324,0.013523,0.002678,0.000431,0.003526
10624000,0.0324,0.013523,0.002678,0.000431,0.005524
10625000,0.0324,0.013523,0.002678,0.000431,0.002703
10626000,0.0324,0.013523,0.002678,0.000431,0.002233
10627000,0.0324,0.013523,0.002678,0.000431,0.002586
10628000,0.0324,0.013523,0.002678,0.000431,0.002468
10629000,0.0324,0.013523,0.002678,0.000431,0.002821
10630000,0.0324,0.013523,0.002678,0.000431,0.002116
10631000,0.0324,0.013523,0.002678,0.000431,0.002703
10632000,0.0324,0.013523,0.002678,0.000431,0.002703
10633000,0.0324,0.013523,0.002678,0.000431,0.002468
10634000,0.0324,0.013523,0.002678,0.000431,0.002351
10635000,0.0324,0.013523,0.002678,0.000431,0.004584
10636000,0.0324,0.013523,0.002678,0.000431,0.001880
10637000,0.0324,0.013523,0.002678,0.000431,0.001410
10638000,0.0324,0.013523,0.002678,0.000431,0.014573
10639000,0.0324,0.013523,0.002678,0.000431,0.637003
10640000,0.0324,0.013523,0.002678,0.000431,0.603860
10641000,0.0324,0.013523,0.002678,0.000431,0.133512
10642000,0.0324,0.013523,0.002678,0.000431,0.134452
10643000,0.0324,0.013523,0.002678,0.000431,0.582117
10644000,0.0324,0.013523,0.002678,0.000431,0.254566
10645000,0.0324,0.013523,0.002678,0.000431,0.280657
10646000,0.0324,0.013523,0.002678,0.000431,0.253273
10647000,0.0324,0.013523,0.002678,0.000431,0.141504
10648000,0.0324,0.013523,0.002678,0.000431,0.148673
10649000,0.0324,0.013523,0.002678,0.000431,0.108949
10650000,0.0324,0.013523,0.002678,0.000431,0.458007
10651000,0.0324,0.013523,0.002678,0.000431,0.225889
10652000,0.0324,0.013523,0.002678,0.000431,0.109536
10653000,0.0324,0.013523,0.002678,0.000431,0.085913
10654000,0.0324,0.013523,0.002678,0.000431,0.077334
10655000,0.0324,0.013523,0.002678,0.000431,0.055826
10656000,0.0324,0.013523,0.002678,0.000431,0.038549
10657000,0.0324,0.013523,0.002678,0.000431,0.037491
10658000,0.0324,0.013523,0.002678,0.000431,0.027267
10659000,0.0324,0.013523,0.002678,0.000431,0.015161
10660000,0.0324,0.013523,0.002678,0.000431,0.017747
10661000,0.0324,0.013523,0.002678,0.000431,0.016336
10662000,0.0324,0.013523,0.002678,0.000431,0.012458
10663000,0.0324,0.013523,0.002678,0.000431,0.006817
10664000,0.0324,0.013523,0.002678,0.000431,0.009637
10665000,0.0324,0.013523,0.002678,0.000431,0.007169
10666000,0.0324,0.013523,0.002678,0.000431,0.007874
10667000,0.0324,0.013523,0.002678,0.000431,0.003291
10668000,0.0324,0.013523,0.002678,0.000431,0.003526
10669000,0.0324,0.013523,0.002678,0.000431,0.003526
10670000,0.0324,0.013523,0.002678,0.000431,0.003291
10671000,0.0324,0.013523,0.002678,0.000431,0.003173
10672000,0.0324,0.013523,0.002678,0.000431,0.003526
10673000,0.0324,0.013523,0.002678,0.000431,0.003526
10674000,0.0324,0.013523,0.002678,0.000431,0.003408
10675000,0.0324,0.013523,0.002678,0.000431,0.003291
10676000,0.0324,0.013523,0.002678,0.000431,0.003643
10677000,0.0324,0.013523,0.002678,0.000431,0.003526
10678000,0.0324,0.013523,0.002678,0.000431,0.003408
10679000,0.0324,0.013523,0.002678,0.000431,0.005406
10680000,0.0324,0.013523,0.002678,0.000431,0.004349
10681000,0.0324,0.013523,0.002678,0.000431,0.001645
10682000,0.0324,0.013523,0.002678,0.000431,0.001763
10683000,0.0324,0.013523,0.002678,0.000431,0.001763
10684000,0.0324,0.013523,0.002678,0.000431,0.001880
10685000,0.0324,0.013523,0.002678,0.000431,0.001528
10686000,0.0324,0.013523,0.002678,0.000431,0.001763
10687000,0.0324,0.013523,0.002678,0.000431,0.001880
10688000,0.0324,0.013523,0.002678,0.000431,0.002821
10689000,0.0324,0.013523,0.002678,0.000431,0.003173
10690000,0.0324,0.013523,0.002678,0.000431,0.313800
10691000,0.0324,0.013523,0.002678,0.000431,0.734551
10692000,0.0324,0.013523,0.002678,0.000431,0.267494
10693000,0.0324,0.013523,0.002678,0.000431,0.132102
10694000,0.0324,0.013523,0.002678,0.000431,0.150436
10695000,0.0324,0.013523,0.002678,0.000431,0.641351
10696000,0.0324,0.013523,0.002678,0.000431,0.240580
10697000,0.0324,0.013523,0.002678,0.000431,0.283243
10698000,0.0324,0.013523,0.002678,0.000431,0.223304
10699000,0.0324,0.013523,0.002678,0.000431,0.143149
10700000,0.0324,0.013523,0.002678,0.000431,0.139036
10701000,0.0324,0.013523,0.002678,0.000431,0.234234
10702000,0.0324,0.013523,0.002678,0.000431,0.436382
10703000,0.0324,0.013523,0.002678,0.000431,0.140094
10704000,0.0324,0.013523,0.002678,0.000431,0.108361
10705000,0.0324,0.013523,0.002678,0.000431,0.090732
10706000,0.0324,0.013523,0.002678,0.000431,0.064405
10707000,0.0324,0.013523,0.002678,0.000431,0.070047
10708000,0.0324,0.013523,0.002678,0.000431,0.038902
10709000,0.0324,0.013523,0.002678,0.000431,0.034553
10710000,0.0324,0.013523,0.002678,0.000431,0.025974
10711000,0.0324,0.013523,0.002678,0.000431,0.020215
10712000,0.0324,0.013523,0.002678,0.000431,0.031380
10713000,0.0324,0.013523,0.002678,0.000431,0.020920
10714000,0.0324,0.013523,0.002678,0.000431,0.010930
10715000,0.0324,0.013523,0.002678,0.000431,0.010225
10716000,0.0324,0.013523,0.002678,0.000431,0.007287
10717000,0.0324,0.013523,0.002678,0.000431,0.008815
10718000,0.0324,0.013523,0.002678,0.000431,0.007169
10719000,0.0324,0.013523,0.002678,0.000431,0.003761
10720000,0.0324,0.013523,0.002678,0.000431,0.007169
10721000,0.0324,0.013523,0.002678,0.000431,0.003643
10722000,0.0324,0.013523,0.002678,0.000431,0.003408
10723000,0.0324,0.013523,0.002678,0.000431,0.003408
10724000,0.0324,0.013523,0.002678,0.000431,0.003643
10725000,0.0324,0.013523,0.002678,0.000431,0.003408
10726000,0.0324,0.013523,0.002678,0.000431,0.003408
10727000,0.0324,0.013523,0.002678,0.000431,0.004349
10728000,0.0324,0.013523,0.002678,0.000431,0.003173
10729000,0.0324,0.013523,0.002678,0.000431,0.002586
10730000,0.0324,0.013523,0.002678,0.000431,0.002586
10731000,0.0324,0.013523,0.002678,0.000431,0.004701
10732000,0.0324,0.013523,0.002678,0.000431,0.001528
10733000,0.0324,0.013523,0.002678,0.000431,0.001763
10734000,0.0324,0.013523,0.002678,0.000431,0.001880
10735000,0.0324,0.013523,0.002678,0.000431,0.001645
10736000,0.0324,0.013523,0.002678,0.000431,0.004584
10737000,0.0324,0.013523,0.002678,0.000431,0.000705
10738000,0.0324,0.013523,0.002678,0.000431,0.000940
10739000,0.0324,0.013523,0.002678,0.000431,0.000823
10740000,0.0324,0.013523,0.002678,0.000431,0.000823
10741000,0.0324,0.013523,0.002678,0.000431,0.000940
10742000,0.0324,0.013523,0.002678,0.000431,0.000823
10743000,0.0324,0.013523,0.002678,0.000431,0.000823
10744000,0.0324,0.013523,0.002678,0.000431,0.000940
10745000,0.0324,0.013523,0.002678,0.000431,0.000940
10746000,0.0324,0.013523,0.002678,0.000431,0.000823
10747000,0.0324,0.013523,0.002678,0.000431,0.000823
10748000,0.0324,0.013523,0.002678,0.000431,0.000940
10749000,0.0324,0.013523,0.002678,0.000431,0.000823
10750000,0.0324,0.013523,0.002678,0.000431,0.001058
10751000,0.0324,0.013523,0.002678,0.000431,0.000823
10752000,0.0324,0.013523,0.002678,0.000431,0.000940
10753000,0.0324,0.013523,0.002678,0.000431,0.072162
10754000,0.0324,0.013523,0.002678,0.000431,0.653457
10755000,0.0324,0.013523,0.002678,0.000431,0.566721
10756000,0.0324,0.013523,0.002678,0.000431,0.133630
10757000,0.0324,0.013523,0.002678,0.000431,0.132924
10758000,0.0324,0.013523,0.002678,0.000431,0.559317
10759000,0.0324,0.013523,0.002678,0.000431,0.256682
10760000,0.0324,0.013523,0.002678,0.000431,0.266084
10761000,0.0324,0.013523,0.002678,0.000431,0.311567
10762000,0.0324,0.013523,0.002678,0.000431,0.137978
10763000,0.0324,0.013523,0.002678,0.000431,0.174412
10764000,0.0324,0.013523,0.002678,0.000431,0.115060
10765000,0.0324,0.013523,0.002678,0.000431,0.505136
10766000,0.0324,0.013523,0.002678,0.000431,0.155960
10767000,0.0324,0.013523,0.002678,0.000431,0.101192
10768000,0.0324,0.013523,0.002678,0.000431,0.079214
10769000,0.0324,0.013523,0.002678,0.000431,0.064523
10770000,0.0324,0.013523,0.002678,0.000431,0.046071
10771000,0.0324,0.013523,0.002678,0.000431,0.034083
10772000,0.0324,0.013523,0.002678,0.000431,0.025034
10773000,0.0324,0.013523,0.002678,0.000431,0.022683
10774000,0.0324,0.013523,0.002678,0.000431,0.021978
10775000,0.0324,0.013523,0.002678,0.000431,0.015396
10776000,0.0324,0.013523,0.002678,0.000431,0.016336
10777000,0.0324,0.013523,0.002678,0.000431,0.011400
10778000,0.0324,0.013523,0.002678,0.000431,0.008697
10779000,0.0324,0.013523,0.002678,0.000431,0.008697
10780000,0.0324,0.013523,0.002678,0.000431,0.007169
10781000,0.0324,0.013523,0.002678,0.000431,0.006699
10782000,0.0324,0.013523,0.002678,0.000431,0.007404
10783000,0.0324,0.013523,0.002678,0.000431,0.004349
10784000,0.0324,0.013523,0.002678,0.000431,0.006347
10785000,0.0324,0.013523,0.002678,0.000431,0.005289
10786000,0.0324,0.013523,0.002678,0.000431,0.004113
10787000,0.0324,0.013523,0.002678,0.000431,0.001645
10788000,0.0324,0.013523,0.002678,0.000431,0.001645
10789000,0.0324,0.013523,0.002678,0.000431,0.003173
10790000,0.0324,0.013523,0.002678,0.000431,0.329667
10791000,0.0324,0.013523,0.002678,0.000431,0.744306
10792000,0.0324,0.013523,0.002678,0.000431,0.258797
10793000,0.0324,0.013523,0.002678,0.000431,0.132572
10794000,0.0324,0.013523,0.002678,0.000431,0.238817
10795000,0.0324,0.013523,0.002678,0.000431,0.592460
10796000,0.0324,0.013523,0.002678,0.000431,0.275369
10797000,0.0324,0.013523,0.002678,0.000431,0.327434
10798000,0.0324,0.013523,0.002678,0.000431,0.138448
10799000,0.0324,0.013523,0.002678,0.000431,0.174412
10800000,0.0324,0.013523,0.002678,0.000431,0.100369
10801000,0.0324,0.013523,0.002678,0.000431,0.504313
10802000,0.0324,0.013523,0.002678,0.000431,0.206497
10803000,0.0324,0.013523,0.002678,0.000431,0.127988
10804000,0.0324,0.013523,0.002678,0.000431,0.097196
10805000,0.0324,0.013523,0.002678,0.000431,0.070752
10806000,0.0324,0.013523,0.002678,0.000431,0.063230
10807000,0.0324,0.013523,0.002678,0.000431,0.043133
10808000,0.0324,0.013523,0.002678,0.000431,0.034083
10809000,0.0324,0.013523,0.002678,0.000431,0.029970
10810000,0.0324,0.013523,0.002678,0.000431,0.031968
10811000,0.0324,0.013523,0.002678,0.000431,0.021978
10812000,0.0324,0.013523,0.002678,0.000431,0.016454
10813000,0.0324,0.013523,0.002678,0.000431,0.012811
10814000,0.0324,0.013523,0.002678,0.000431,0.009872
10815000,0.0324,0.013523,0.002678,0.000431,0.005759
10816000,0.0324,0.013523,0.002678,0.000431,0.006111
10817000,0.0324,0.013523,0.002678,0.000431,0.005406
10818000,0.0324,0.013523,0.002678,0.000431,0.007992
10819000,0.0324,0.013523,0.002678,0.000431,0.005641
10820000,0.0324,0.013523,0.002678,0.000431,0.006582
10821000,0.0324,0.013523,0.002678,0.000431,0.002703
10822000,0.0324,0.013523,0.002678,0.000431,0.002703
10823000,0.0324,0.013523,0.002678,0.000431,0.002233
10824000,0.0324,0.013523,0.002678,0.000431,0.002821
10825000,0.0324,0.013523,0.002678,0.000431,0.002468
10826000,0.0324,0.013523,0.002678,0.000431,0.002586
10827000,0.0324,0.013523,0.002678,0.000431,0.002586
10828000,0.0324,0.013523,0.002678,0.000431,0.002468
10829000,0.0324,0.013523,0.002678,0.000431,0.002586
10830000,0.0324,0.013523,0.002678,0.000431,0.002586
10831000,0.0324,0.013523,0.002678,0.000431,0.002586
10832000,0.0324,0.013523,0.002678,0.000431,0.002586
10833000,0.0324,0.013523,0.002678,0.000431,0.002703
10834000,0.0324,0.013523,0.002678,0.000431,0.002351
10835000,0.0324,0.013523,0.002678,0.000431,0.002703
10836000,0.0324,0.013523,0.002678,0.000431,0.003643
10837000,0.0324,0.013523,0.002678,0.000431,0.002938
10838000,0.0324,0.013523,0.002678,0.000431,0.001645
10839000,0.0324,0.013523,0.002678,0.000431,0.004231
10840000,0.0324,0.013523,0.002678,0.000431,0.000940
10841000,0.0324,0.013523,0.002678,0.000431,0.000823
10842000,0.0324,0.013523,0.002678,0.000431,0.000823
10843000,0.0324,0.013523,0.002678,0.000431,0.000940
10844000,0.0324,0.013523,0.002678,0.000431,0.000940
10845000,0.0324,0.013523,0.002678,0.000431,0.000823
10846000,0.0324,0.013523,0.002678,0.000431,0.000823
10847000,0.0324,0.013523,0.002678,0.000431,0.000940
10848000,0.0324,0.013523,0.002678,0.000431,0.000823
10849000,0.0324,0.013523,0.002678,0.000431,0.000940
10850000,0.0324,0.013523,0.002678,0.000431,0.000823
10851000,0.0324,0.013523,0.002678,0.000431,0.000940
10852000,0.0324,0.013523,0.002678,0.000431,0.000823
10853000,0.0324,0.013523,0.002678,0.000431,0.000823
10854000,0.0324,0.013523,0.002678,0.000431,0.000940
10855000,0.0324,0.013523,0.002678,0.000431,0.000940
10856000,0.0324,0.013523,0.002678,0.000431,0.000823
10857000,0.0324,0.013523,0.002678,0.000431,0.000823
10858000,0.0324,0.013523,0.002678,0.000431,0.000940
10859000,0.0324,0.013523,0.002678,0.000431,0.000940
10860000,0.0324,0.013523,0.002678,0.000431,0.000705
10861000,0.0324,0.013523,0.002678,0.000431,0.000940
10862000,0.0324,0.013523,0.002678,0.000431,0.000940
10863000,0.0324,0.013523,0.002678,0.000431,0.000823
10864000,0.0324,0.013523,0.002678,0.000431,0.000940
10865000,0.0324,0.013523,0.002678,0.000431,0.000823
10866000,0.0324,0.013523,0.002678,0.000431,0.000940
10867000,0.0324,0.013523,0.002678,0.000431,0.000823
10868000,0.0324,0.013523,0.002678,0.000431,0.000823
10869000,0.0324,0.013523,0.002678,0.000431,0.000940
10870000,0.0324,0.013523,0.002678,0.000431,0.000940
10871000,0.0324,0.013523,0.002678,0.000431,0.000823
10872000,0.0324,0.013523,0.002678,0.000431,0.000823
10873000,0.0324,0.013523,0.002678,0.000431,0.000940
10874000,0.0324,0.013523,0.002678,0.000431,0.000940
10875000,0.0324,0.013523,0.002678,0.000431,0.000705
10876000,0.0324,0.013523,0.002678,0.000431,0.000940
10877000,0.0324,0.013523,0.002678,0.000431,0.000940
10878000,0.0324,0.013523,0.002678,0.000431,0.000940
10879000,0.0324,0.013523,0.002678,0.000431,0.000705
10880000,0.0324,0.013523,0.002678,0.000431,0.000940
10881000,0.0324,0.013523,0.002678,0.000431,0.000940
10882000,0.0324,0.013523,0.002678,0.000431,0.000823
10883000,0.0324,0.013523,0.002678,0.000431,0.000823
10884000,0.0324,0.013523,0.002678,0.000431,0.000940
10885000,0.0324,0.013523,0.002678,0.000431,0.000940
10886000,0.0324,0.013523,0.002678,0.000431,0.000823
10887000,0.0324,0.013523,0.002678,0.000431,0.000823
10888000,0.0324,0.013523,0.002678,0.000431,0.000940
10889000,0.0324,0.013523,0.002678,0.000431,0.000823
10890000,0.0324,0.013523,0.002678,0.000431,0.000940
10891000,0.0324,0.013523,0.002678,0.000431,0.000823
10892000,0.0324,0.013523,0.002678,0.000431,0.000940
10893000,0.0324,0.013523,0.002678,0.000431,0.000823
10894000,0.0324,0.013523,0.002678,0.000431,0.000823
10895000,0.0324,0.013523,0.002678,0.000431,0.000940
10896000,0.0324,0.013523,0.002678,0.000431,0.000940
10897000,0.0324,0.013523,0.002678,0.000431,0.000940
10898000,0.0324,0.013523,0.002678,0.000431,0.000705
10899000,0.0324,0.013523,0.002678,0.000431,0.001645
10900000,0.0324,0.013523,0.002678,0.000431,0.419458
10901000,0.0324,0.013523,0.002678,0.000431,0.776626
10902000,0.0324,0.013523,0.002678,0.000431,0.170651
10903000,0.0324,0.013523,0.002678,0.000431,0.133512
10904000,0.0324,0.013523,0.002678,0.000431,0.147028
10905000,0.0324,0.013523,0.002678,0.000431,0.589051
10906000,0.0324,0.013523,0.002678,0.000431,0.279482
10907000,0.0324,0.013523,0.002678,0.000431,0.243166
10908000,0.0324,0.013523,0.002678,0.000431,0.211903
10909000,0.0324,0.013523,0.002678,0.000431,0.149731
10910000,0.0324,0.013523,0.002678,0.000431,0.170416
10911000,0.0324,0.013523,0.002678,0.000431,0.113062
10912000,0.0324,0.013523,0.002678,0.000431,0.510072
10913000,0.0324,0.013523,0.002678,0.000431,0.169006
10914000,0.0324,0.013523,0.002678,0.000431,0.130456
10915000,0.0324,0.013523,0.002678,0.000431,0.093552
10916000,0.0324,0.013523,0.002678,0.000431,0.074278
10917000,0.0324,0.013523,0.002678,0.000431,0.064758
10918000,0.0324,0.013523,0.002678,0.000431,0.040782
10919000,0.0324,0.013523,0.002678,0.000431,0.037844
10920000,0.0324,0.013523,0.002678,0.000431,0.030087
10921000,0.0324,0.013523,0.002678,0.000431,0.027502
10922000,0.0324,0.013523,0.002678,0.000431,0.021625
10923000,0.0324,0.013523,0.002678,0.000431,0.019510
10924000,0.0324,0.013523,0.002678,0.000431,0.013751
10925000,0.0324,0.013523,0.002678,0.000431,0.013046
10926000,0.0324,0.013523,0.002678,0.000431,0.014809
10927000,0.0324,0.013523,0.002678,0.000431,0.009520
10928000,0.0324,0.013523,0.002678,0.000431,0.011400
10929000,0.0324,0.013523,0.002678,0.000431,0.006934
10930000,0.0324,0.013523,0.002678,0.000431,0.004231
10931000,0.0324,0.013523,0.002678,0.000431,0.002703
10932000,0.0324,0.013523,0.002678,0.000431,0.002233
10933000,0.0324,0.013523,0.002678,0.000431,0.002703
10934000,0.0324,0.013523,0.002678,0.000431,0.002821
10935000,0.0324,0.013523,0.002678,0.000431,0.002468
10936000,0.0324,0.013523,0.002678,0.000431,0.002586
10937000,0.0324,0.013523,0.002678,0.000431,0.002586
10938000,0.0324,0.013523,0.002678,0.000431,0.004584
10939000,0.0324,0.013523,0.002678,0.000431,0.001763
10940000,0.0324,0.013523,0.002678,0.000431,0.001645
10941000,0.0324,0.013523,0.002678,0.000431,0.001645
10942000,0.0324,0.013523,0.002678,0.000431,0.001763
10943000,0.0324,0.013523,0.002678,0.000431,0.001763
10944000,0.0324,0.013523,0.002678,0.000431,0.001645
10945000,0.0324,0.013523,0.002678,0.000431,0.001880
10946000,0.0324,0.013523,0.002678,0.000431,0.001528
10947000,0.0324,0.013523,0.002678,0.000431,0.001763
10948000,0.0324,0.013523,0.002678,0.000431,0.001880
10949000,0.0324,0.013523,0.002678,0.000431,0.001645
10950000,0.0324,0.013523,0.002678,0.000431,0.001645
10951000,0.0324,0.013523,0.002678,0.000431,0.001880
10952000,0.0324,0.013523,0.002678,0.000431,0.001645
10953000,0.0324,0.013523,0.002678,0.000431,0.001880
10954000,0.0324,0.013523,0.002678,0.000431,0.001763
10955000,0.0324,0.013523,0.002678,0.000431,0.001645
10956000,0.0324,0.013523,0.002678,0.000431,0.001763
10957000,0.0324,0.013523,0.002678,0.000431,0.003173
10958000,0.0324,0.013523,0.002678,0.000431,0.000823
10959000,0.0324,0.013523,0.002678,0.000431,0.000940
10960000,0.0324,0.013523,0.002678,0.000431,0.000823
10961000,0.0324,0.013523,0.002678,0.000431,0.000940
10962000,0.0324,0.013523,0.002678,0.000431,0.000823
10963000,0.0324,0.013523,0.002678,0.000431,0.000823
10964000,0.0324,0.013523,0.002678,0.000431,0.000940
10965000,0.0324,0.013523,0.002678,0.000431,0.000940
10966000,0.0324,0.013523,0.002678,0.000431,0.000823
10967000,0.0324,0.013523,0.002678,0.000431,0.000823
10968000,0.0324,0.013523,0.002678,0.000431,0.000940
10969000,0.0324,0.013523,0.002678,0.000431,0.000940
10970000,0.0324,0.013523,0.002678,0.000431,0.000705
10971000,0.0324,0.013523,0.002678,0.000431,0.000940
10972000,0.0324,0.013523,0.002678,0.000431,0.000823
10973000,0.0324,0.013523,0.002678,0.000431,0.000823
10974000,0.0324,0.013523,0.002678,0.000431,0.000823
10975000,0.0324,0.013523,0.002678,0.000431,0.000823
10976000,0.0324,0.013523,0.002678,0.000431,0.000940
10977000,0.0324,0.013523,0.002678,0.000431,0.000705
10978000,0.0324,0.013523,0.002678,0.000431,0.000940
10979000,0.0324,0.013523,0.002678,0.000431,0.000823
10980000,0.0324,0.013523,0.002678,0.000431,0.000823
10981000,0.0324,0.013523,0.002678,0.000431,0.000823
10982000,0.0324,0.013523,0.002678,0.000431,0.000823
10983000,0.0324,0.013523,0.002678,0.000431,0.000705
10984000,0.0324,0.013523,0.002678,0.000431,0.000940
10985000,0.0324,0.013523,0.002678,0.000431,0.000940
10986000,0.0324,0.013523,0.002678,0.000431,0.000705
10987000,0.0324,0.013523,0.002678,0.000431,0.000940
10988000,0.0324,0.013523,0.002678,0.000431,0.000705
10989000,0.0324,0.013523,0.002678,0.000431,0.000940
10990000,0.0324,0.013523,0.002678,0.000431,0.000823
10991000,0.0324,0.013523,0.002678,0.000431,0.001058
10992000,0.0324,0.013523,0.002678,0.000431,0.255036
10993000,0.0324,0.013523,0.002678,0.000431,0.733493
10994000,0.0324,0.013523,0.002678,0.000431,0.341419
10995000,0.0324,0.013523,0.002678,0.000431,0.132102
10996000,0.0324,0.013523,0.002678,0.000431,0.156548
10997000,0.0324,0.013523,0.002678,0.000431,0.575300
10998000,0.0324,0.013523,0.002678,0.000431,0.238817
10999000,0.0324,0.013523,0.002678,0.000431,0.336013
