Cycle,Area(mm^2),PeakDynamic(W),SubthresholdLeakage(W),GateLeakage(W),RunTimeDynamic(W)
132000000,0.0324,0.013523,0.002678,0.000431,0.687775
132001000,0.0324,0.013523,0.002678,0.000431,0.239287
132002000,0.0324,0.013523,0.002678,0.000431,0.240933
132003000,0.0324,0.013523,0.002678,0.000431,0.551795
132004000,0.0324,0.013523,0.002678,0.000431,0.281715
132005000,0.0324,0.013523,0.002678,0.000431,0.323320
132006000,0.0324,0.013523,0.002678,0.000431,0.172766
132007000,0.0324,0.013523,0.002678,0.000431,0.113180
132008000,0.0324,0.013523,0.002678,0.000431,0.393719
132009000,0.0324,0.013523,0.002678,0.000431,0.529935
132010000,0.0324,0.013523,0.002678,0.000431,0.308511
132011000,0.0324,0.013523,0.002678,0.000431,0.276074
132012000,0.0324,0.013523,0.002678,0.000431,0.234939
132013000,0.0324,0.013523,0.002678,0.000431,0.202854
132014000,0.0324,0.013523,0.002678,0.000431,0.160543
132015000,0.0324,0.013523,0.002678,0.000431,0.155020
132016000,0.0324,0.013523,0.002678,0.000431,0.135040
132017000,0.0324,0.013523,0.002678,0.000431,0.091202
132018000,0.0324,0.013523,0.002678,0.000431,0.079332
132019000,0.0324,0.013523,0.002678,0.000431,0.064405
132020000,0.0324,0.013523,0.002678,0.000431,0.052535
132021000,0.0324,0.013523,0.002678,0.000431,0.044191
132022000,0.0324,0.013523,0.002678,0.000431,0.045131
132023000,0.0324,0.013523,0.002678,0.000431,0.057236
132024000,0.0324,0.013523,0.002678,0.000431,0.028089
132025000,0.0324,0.013523,0.002678,0.000431,0.023388
132026000,0.0324,0.013523,0.002678,0.000431,0.013398
132027000,0.0324,0.013523,0.002678,0.000431,0.024211
132028000,0.0324,0.013523,0.002678,0.000431,0.011753
132029000,0.0324,0.013523,0.002678,0.000431,0.013516
132030000,0.0324,0.013523,0.002678,0.000431,0.008580
132031000,0.0324,0.013523,0.002678,0.000431,0.008697
132032000,0.0324,0.013523,0.002678,0.000431,0.010342
132033000,0.0324,0.013523,0.002678,0.000431,0.008462
132034000,0.0324,0.013523,0.002678,0.000431,0.011165
132035000,0.0324,0.013523,0.002678,0.000431,0.012928
132036000,0.0324,0.013523,0.002678,0.000431,0.001410
132037000,0.0324,0.013523,0.002678,0.000431,0.001645
132038000,0.0324,0.013523,0.002678,0.000431,0.001175
132039000,0.0324,0.013523,0.002678,0.000431,0.000823
132040000,0.0324,0.013523,0.002678,0.000431,0.000940
132041000,0.0324,0.013523,0.002678,0.000431,0.000823
132042000,0.0324,0.013523,0.002678,0.000431,0.000823
132043000,0.0324,0.013523,0.002678,0.000431,0.000940
132044000,0.0324,0.013523,0.002678,0.000431,0.000705
132045000,0.0324,0.013523,0.002678,0.000431,0.000940
132046000,0.0324,0.013523,0.002678,0.000431,0.000823
132047000,0.0324,0.013523,0.002678,0.000431,0.014573
132048000,0.0324,0.013523,0.002678,0.000431,0.940696
132049000,0.0324,0.013523,0.002678,0.000431,0.566721
132050000,0.0324,0.013523,0.002678,0.000431,0.221776
132051000,0.0324,0.013523,0.002678,0.000431,0.182051
132052000,0.0324,0.013523,0.002678,0.000431,0.564488
132053000,0.0324,0.013523,0.002678,0.000431,0.281127
132054000,0.0324,0.013523,0.002678,0.000431,0.335543
132055000,0.0324,0.013523,0.002678,0.000431,0.148203
132056000,0.0324,0.013523,0.002678,0.000431,0.139036
132057000,0.0324,0.013523,0.002678,0.000431,0.295818
132058000,0.0324,0.013523,0.002678,0.000431,0.609031
132059000,0.0324,0.013523,0.002678,0.000431,0.333663
132060000,0.0324,0.013523,0.002678,0.000431,0.281598
132061000,0.0324,0.013523,0.002678,0.000431,0.249160
132062000,0.0324,0.013523,0.002678,0.000431,0.203324
132063000,0.0324,0.013523,0.002678,0.000431,0.184167
132064000,0.0324,0.013523,0.002678,0.000431,0.144795
132065000,0.0324,0.013523,0.002678,0.000431,0.133512
132066000,0.0324,0.013523,0.002678,0.000431,0.111887
132067000,0.0324,0.013523,0.002678,0.000431,0.094493
132068000,0.0324,0.013523,0.002678,0.000431,0.077098
132069000,0.0324,0.013523,0.002678,0.000431,0.066756
132070000,0.0324,0.013523,0.002678,0.000431,0.061232
132071000,0.0324,0.013523,0.002678,0.000431,0.046541
132072000,0.0324,0.013523,0.002678,0.000431,0.054768
132073000,0.0324,0.013523,0.002678,0.000431,0.033613
132074000,0.0324,0.013523,0.002678,0.000431,0.028794
132075000,0.0324,0.013523,0.002678,0.000431,0.019627
132076000,0.0324,0.013523,0.002678,0.000431,0.019040
132077000,0.0324,0.013523,0.002678,0.000431,0.023388
132078000,0.0324,0.013523,0.002678,0.000431,0.018217
132079000,0.0324,0.013523,0.002678,0.000431,0.014103
132080000,0.0324,0.013523,0.002678,0.000431,0.012458
132081000,0.0324,0.013523,0.002678,0.000431,0.013046
132082000,0.0324,0.013523,0.002678,0.000431,0.008697
132083000,0.0324,0.013523,0.002678,0.000431,0.011870
132084000,0.0324,0.013523,0.002678,0.000431,0.009285
132085000,0.0324,0.013523,0.002678,0.000431,0.006229
132086000,0.0324,0.013523,0.002678,0.000431,0.006582
132087000,0.0324,0.013523,0.002678,0.000431,0.009402
132088000,0.0324,0.013523,0.002678,0.000431,0.008227
132089000,0.0324,0.013523,0.002678,0.000431,0.006817
132090000,0.0324,0.013523,0.002678,0.000431,0.003173
132091000,0.0324,0.013523,0.002678,0.000431,0.006229
132092000,0.0324,0.013523,0.002678,0.000431,0.001645
132093000,0.0324,0.013523,0.002678,0.000431,0.001880
132094000,0.0324,0.013523,0.002678,0.000431,0.004349
132095000,0.0324,0.013523,0.002678,0.000431,0.003291
132096000,0.0324,0.013523,0.002678,0.000431,0.000940
132097000,0.0324,0.013523,0.002678,0.000431,0.000705
132098000,0.0324,0.013523,0.002678,0.000431,0.000823
132099000,0.0324,0.013523,0.002678,0.000431,0.000823
132100000,0.0324,0.013523,0.002678,0.000431,0.000705
132101000,0.0324,0.013523,0.002678,0.000431,0.000940
132102000,0.0324,0.013523,0.002678,0.000431,0.000705
132103000,0.0324,0.013523,0.002678,0.000431,0.000940
132104000,0.0324,0.013523,0.002678,0.000431,0.000705
132105000,0.0324,0.013523,0.002678,0.000431,0.000940
132106000,0.0324,0.013523,0.002678,0.000431,0.000705
132107000,0.0324,0.013523,0.002678,0.000431,0.000823
132108000,0.0324,0.013523,0.002678,0.000431,0.000823
132109000,0.0324,0.013523,0.002678,0.000431,0.000940
132110000,0.0324,0.013523,0.002678,0.000431,0.000705
132111000,0.0324,0.013523,0.002678,0.000431,0.001058
132112000,0.0324,0.013523,0.002678,0.000431,0.000940
132113000,0.0324,0.013523,0.002678,0.000431,0.000823
132114000,0.0324,0.013523,0.002678,0.000431,0.244106
132115000,0.0324,0.013523,0.002678,0.000431,0.876173
132116000,0.0324,0.013523,0.002678,0.000431,0.497027
132117000,0.0324,0.013523,0.002678,0.000431,0.200386
132118000,0.0324,0.013523,0.002678,0.000431,0.371272
132119000,0.0324,0.013523,0.002678,0.000431,0.437322
132120000,0.0324,0.013523,0.002678,0.000431,0.327786
132121000,0.0324,0.013523,0.002678,0.000431,0.247397
132122000,0.0324,0.013523,0.002678,0.000431,0.189455
132123000,0.0324,0.013523,0.002678,0.000431,0.082387
132124000,0.0324,0.013523,0.002678,0.000431,0.593047
132125000,0.0324,0.013523,0.002678,0.000431,0.428155
132126000,0.0324,0.013523,0.002678,0.000431,0.318266
132127000,0.0324,0.013523,0.002678,0.000431,0.293115
132128000,0.0324,0.013523,0.002678,0.000431,0.257387
132129000,0.0324,0.013523,0.002678,0.000431,0.192041
132130000,0.0324,0.013523,0.002678,0.000431,0.176292
132131000,0.0324,0.013523,0.002678,0.000431,0.141386
132132000,0.0324,0.013523,0.002678,0.000431,0.112004
132133000,0.0324,0.013523,0.002678,0.000431,0.095785
132134000,0.0324,0.013523,0.002678,0.000431,0.066286
132135000,0.0324,0.013523,0.002678,0.000431,0.064641
132136000,0.0324,0.013523,0.002678,0.000431,0.063230
132137000,0.0324,0.013523,0.002678,0.000431,0.051242
132138000,0.0324,0.013523,0.002678,0.000431,0.035141
132139000,0.0324,0.013523,0.002678,0.000431,0.031850
132140000,0.0324,0.013523,0.002678,0.000431,0.032555
132141000,0.0324,0.013523,0.002678,0.000431,0.025621
132142000,0.0324,0.013523,0.002678,0.000431,0.022448
132143000,0.0324,0.013523,0.002678,0.000431,0.022095
132144000,0.0324,0.013523,0.002678,0.000431,0.017629
132145000,0.0324,0.013523,0.002678,0.000431,0.014691
132146000,0.0324,0.013523,0.002678,0.000431,0.013751
132147000,0.0324,0.013523,0.002678,0.000431,0.008462
132148000,0.0324,0.013523,0.002678,0.000431,0.004349
132149000,0.0324,0.013523,0.002678,0.000431,0.004584
132150000,0.0324,0.013523,0.002678,0.000431,0.004231
132151000,0.0324,0.013523,0.002678,0.000431,0.006582
132152000,0.0324,0.013523,0.002678,0.000431,0.007639
132153000,0.0324,0.013523,0.002678,0.000431,0.011283
132154000,0.0324,0.013523,0.002678,0.000431,0.001293
132155000,0.0324,0.013523,0.002678,0.000431,0.000823
132156000,0.0324,0.013523,0.002678,0.000431,0.000940
132157000,0.0324,0.013523,0.002678,0.000431,0.001175
132158000,0.0324,0.013523,0.002678,0.000431,0.000940
132159000,0.0324,0.013523,0.002678,0.000431,0.001058
132160000,0.0324,0.013523,0.002678,0.000431,0.001058
132161000,0.0324,0.013523,0.002678,0.000431,0.000940
132162000,0.0324,0.013523,0.002678,0.000431,0.001175
132163000,0.0324,0.013523,0.002678,0.000431,0.000823
132164000,0.0324,0.013523,0.002678,0.000431,0.001175
132165000,0.0324,0.013523,0.002678,0.000431,0.000940
132166000,0.0324,0.013523,0.002678,0.000431,0.000940
132167000,0.0324,0.013523,0.002678,0.000431,0.001293
132168000,0.0324,0.013523,0.002678,0.000431,0.000705
132169000,0.0324,0.013523,0.002678,0.000431,0.001293
132170000,0.0324,0.013523,0.002678,0.000431,0.000940
132171000,0.0324,0.013523,0.002678,0.000431,0.000940
132172000,0.0324,0.013523,0.002678,0.000431,0.001175
132173000,0.0324,0.013523,0.002678,0.000431,0.000823
132174000,0.0324,0.013523,0.002678,0.000431,0.001058
132175000,0.0324,0.013523,0.002678,0.000431,0.001058
132176000,0.0324,0.013523,0.002678,0.000431,0.001058
132177000,0.0324,0.013523,0.002678,0.000431,0.001058
132178000,0.0324,0.013523,0.002678,0.000431,0.001175
132179000,0.0324,0.013523,0.002678,0.000431,0.000705
132180000,0.0324,0.013523,0.002678,0.000431,0.001410
132181000,0.0324,0.013523,0.002678,0.000431,0.000823
132182000,0.0324,0.013523,0.002678,0.000431,0.001058
132183000,0.0324,0.013523,0.002678,0.000431,0.001058
132184000,0.0324,0.013523,0.002678,0.000431,0.000823
132185000,0.0324,0.013523,0.002678,0.000431,0.001293
132186000,0.0324,0.013523,0.002678,0.000431,0.000823
132187000,0.0324,0.013523,0.002678,0.000431,0.001293
132188000,0.0324,0.013523,0.002678,0.000431,0.000823
132189000,0.0324,0.013523,0.002678,0.000431,0.001058
132190000,0.0324,0.013523,0.002678,0.000431,0.001175
132191000,0.0324,0.013523,0.002678,0.000431,0.000823
132192000,0.0324,0.013523,0.002678,0.000431,0.001293
132193000,0.0324,0.013523,0.002678,0.000431,0.000823
132194000,0.0324,0.013523,0.002678,0.000431,0.001175
132195000,0.0324,0.013523,0.002678,0.000431,0.008932
132196000,0.0324,0.013523,0.002678,0.000431,0.808946
132197000,0.0324,0.013523,0.002678,0.000431,0.668500
132198000,0.0324,0.013523,0.002678,0.000431,0.274076
132199000,0.0324,0.013523,0.002678,0.000431,0.200738
132200000,0.0324,0.013523,0.002678,0.000431,0.585996
132201000,0.0324,0.013523,0.002678,0.000431,0.275016
132202000,0.0324,0.013523,0.002678,0.000431,0.364572
132203000,0.0324,0.013523,0.002678,0.000431,0.153492
132204000,0.0324,0.013523,0.002678,0.000431,0.133747
132205000,0.0324,0.013523,0.002678,0.000431,0.270550
132206000,0.0324,0.013523,0.002678,0.000431,0.621136
132207000,0.0324,0.013523,0.002678,0.000431,0.297464
132208000,0.0324,0.013523,0.002678,0.000431,0.254331
132209000,0.0324,0.013523,0.002678,0.000431,0.223421
132210000,0.0324,0.013523,0.002678,0.000431,0.190866
132211000,0.0324,0.013523,0.002678,0.000431,0.172766
132212000,0.0324,0.013523,0.002678,0.000431,0.140564
132213000,0.0324,0.013523,0.002678,0.000431,0.112945
132214000,0.0324,0.013523,0.002678,0.000431,0.111769
132215000,0.0324,0.013523,0.002678,0.000431,0.072162
132216000,0.0324,0.013523,0.002678,0.000431,0.057471
132217000,0.0324,0.013523,0.002678,0.000431,0.051595
132218000,0.0324,0.013523,0.002678,0.000431,0.038079
132219000,0.0324,0.013523,0.002678,0.000431,0.032320
132220000,0.0324,0.013523,0.002678,0.000431,0.030557
132221000,0.0324,0.013523,0.002678,0.000431,0.030322
132222000,0.0324,0.013523,0.002678,0.000431,0.021038
132223000,0.0324,0.013523,0.002678,0.000431,0.023506
132224000,0.0324,0.013523,0.002678,0.000431,0.019862
132225000,0.0324,0.013523,0.002678,0.000431,0.012576
132226000,0.0324,0.013523,0.002678,0.000431,0.009402
132227000,0.0324,0.013523,0.002678,0.000431,0.008697
132228000,0.0324,0.013523,0.002678,0.000431,0.007169
132229000,0.0324,0.013523,0.002678,0.000431,0.007992
132230000,0.0324,0.013523,0.002678,0.000431,0.007639
132231000,0.0324,0.013523,0.002678,0.000431,0.006817
132232000,0.0324,0.013523,0.002678,0.000431,0.005759
132233000,0.0324,0.013523,0.002678,0.000431,0.005289
132234000,0.0324,0.013523,0.002678,0.000431,0.004349
132235000,0.0324,0.013523,0.002678,0.000431,0.007522
132236000,0.0324,0.013523,0.002678,0.000431,0.003643
132237000,0.0324,0.013523,0.002678,0.000431,0.009755
132238000,0.0324,0.013523,0.002678,0.000431,0.001880
132239000,0.0324,0.013523,0.002678,0.000431,0.001645
132240000,0.0324,0.013523,0.002678,0.000431,0.001645
132241000,0.0324,0.013523,0.002678,0.000431,0.001645
132242000,0.0324,0.013523,0.002678,0.000431,0.001880
132243000,0.0324,0.013523,0.002678,0.000431,0.001645
132244000,0.0324,0.013523,0.002678,0.000431,0.001645
132245000,0.0324,0.013523,0.002678,0.000431,0.001645
132246000,0.0324,0.013523,0.002678,0.000431,0.001763
132247000,0.0324,0.013523,0.002678,0.000431,0.001880
132248000,0.0324,0.013523,0.002678,0.000431,0.001528
132249000,0.0324,0.013523,0.002678,0.000431,0.001528
132250000,0.0324,0.013523,0.002678,0.000431,0.004231
132251000,0.0324,0.013523,0.002678,0.000431,0.000705
132252000,0.0324,0.013523,0.002678,0.000431,0.000940
132253000,0.0324,0.013523,0.002678,0.000431,0.000823
132254000,0.0324,0.013523,0.002678,0.000431,0.010930
132255000,0.0324,0.013523,0.002678,0.000431,0.778859
132256000,0.0324,0.013523,0.002678,0.000431,0.713043
132257000,0.0324,0.013523,0.002678,0.000431,0.197095
132258000,0.0324,0.013523,0.002678,0.000431,0.153139
132259000,0.0324,0.013523,0.002678,0.000431,0.583762
132260000,0.0324,0.013523,0.002678,0.000431,0.248925
132261000,0.0324,0.013523,0.002678,0.000431,0.371154
132262000,0.0324,0.013523,0.002678,0.000431,0.160426
132263000,0.0324,0.013523,0.002678,0.000431,0.166655
132264000,0.0324,0.013523,0.002678,0.000431,0.152904
132265000,0.0324,0.013523,0.002678,0.000431,0.589521
132266000,0.0324,0.013523,0.002678,0.000431,0.405237
132267000,0.0324,0.013523,0.002678,0.000431,0.283008
132268000,0.0324,0.013523,0.002678,0.000431,0.269845
132269000,0.0324,0.013523,0.002678,0.000431,0.215899
132270000,0.0324,0.013523,0.002678,0.000431,0.179818
132271000,0.0324,0.013523,0.002678,0.000431,0.168888
132272000,0.0324,0.013523,0.002678,0.000431,0.134687
132273000,0.0324,0.013523,0.002678,0.000431,0.103190
132274000,0.0324,0.013523,0.002678,0.000431,0.084268
132275000,0.0324,0.013523,0.002678,0.000431,0.065698
132276000,0.0324,0.013523,0.002678,0.000431,0.066168
132277000,0.0324,0.013523,0.002678,0.000431,0.063700
132278000,0.0324,0.013523,0.002678,0.000431,0.051830
132279000,0.0324,0.013523,0.002678,0.000431,0.037844
132280000,0.0324,0.013523,0.002678,0.000431,0.030440
132281000,0.0324,0.013523,0.002678,0.000431,0.030792
132282000,0.0324,0.013523,0.002678,0.000431,0.024328
132283000,0.0324,0.013523,0.002678,0.000431,0.019510
132284000,0.0324,0.013523,0.002678,0.000431,0.019862
132285000,0.0324,0.013523,0.002678,0.000431,0.017864
132286000,0.0324,0.013523,0.002678,0.000431,0.015161
132287000,0.0324,0.013523,0.002678,0.000431,0.020215
132288000,0.0324,0.013523,0.002678,0.000431,0.011870
132289000,0.0324,0.013523,0.002678,0.000431,0.010342
132290000,0.0324,0.013523,0.002678,0.000431,0.008109
132291000,0.0324,0.013523,0.002678,0.000431,0.005641
132292000,0.0324,0.013523,0.002678,0.000431,0.001763
132293000,0.0324,0.013523,0.002678,0.000431,0.003996
132294000,0.0324,0.013523,0.002678,0.000431,0.000940
132295000,0.0324,0.013523,0.002678,0.000431,0.000705
132296000,0.0324,0.013523,0.002678,0.000431,0.000940
132297000,0.0324,0.013523,0.002678,0.000431,0.000940
132298000,0.0324,0.013523,0.002678,0.000431,0.000705
132299000,0.0324,0.013523,0.002678,0.000431,0.000940
132300000,0.0324,0.013523,0.002678,0.000431,0.000705
132301000,0.0324,0.013523,0.002678,0.000431,0.000940
132302000,0.0324,0.013523,0.002678,0.000431,0.000823
132303000,0.0324,0.013523,0.002678,0.000431,0.000823
132304000,0.0324,0.013523,0.002678,0.000431,0.000823
132305000,0.0324,0.013523,0.002678,0.000431,0.000823
132306000,0.0324,0.013523,0.002678,0.000431,0.000940
132307000,0.0324,0.013523,0.002678,0.000431,0.000705
132308000,0.0324,0.013523,0.002678,0.000431,0.000940
132309000,0.0324,0.013523,0.002678,0.000431,0.000705
132310000,0.0324,0.013523,0.002678,0.000431,0.000823
132311000,0.0324,0.013523,0.002678,0.000431,0.000940
132312000,0.0324,0.013523,0.002678,0.000431,0.000823
132313000,0.0324,0.013523,0.002678,0.000431,0.000823
132314000,0.0324,0.013523,0.002678,0.000431,0.000823
132315000,0.0324,0.013523,0.002678,0.000431,0.000823
132316000,0.0324,0.013523,0.002678,0.000431,0.000823
132317000,0.0324,0.013523,0.002678,0.000431,0.000940
132318000,0.0324,0.013523,0.002678,0.000431,0.000705
132319000,0.0324,0.013523,0.002678,0.000431,0.000940
132320000,0.0324,0.013523,0.002678,0.000431,0.000705
132321000,0.0324,0.013523,0.002678,0.000431,0.000940
132322000,0.0324,0.013523,0.002678,0.000431,0.000940
132323000,0.0324,0.013523,0.002678,0.000431,0.000705
132324000,0.0324,0.013523,0.002678,0.000431,0.000940
132325000,0.0324,0.013523,0.002678,0.000431,0.000705
132326000,0.0324,0.013523,0.002678,0.000431,0.000940
132327000,0.0324,0.013523,0.002678,0.000431,0.000823
132328000,0.0324,0.013523,0.002678,0.000431,0.000823
132329000,0.0324,0.013523,0.002678,0.000431,0.000823
132330000,0.0324,0.013523,0.002678,0.000431,0.000823
132331000,0.0324,0.013523,0.002678,0.000431,0.093317
132332000,0.0324,0.013523,0.002678,0.000431,0.978657
132333000,0.0324,0.013523,0.002678,0.000431,0.574243
132334000,0.0324,0.013523,0.002678,0.000431,0.171591
132335000,0.0324,0.013523,0.002678,0.000431,0.325200
132336000,0.0324,0.013523,0.002678,0.000431,0.512423
132337000,0.0324,0.013523,0.002678,0.000431,0.311332
132338000,0.0324,0.013523,0.002678,0.000431,0.284888
132339000,0.0324,0.013523,0.002678,0.000431,0.170298
132340000,0.0324,0.013523,0.002678,0.000431,0.098841
132341000,0.0324,0.013523,0.002678,0.000431,0.570482
132342000,0.0324,0.013523,0.002678,0.000431,0.413464
132343000,0.0324,0.013523,0.002678,0.000431,0.295348
132344000,0.0324,0.013523,0.002678,0.000431,0.255036
132345000,0.0324,0.013523,0.002678,0.000431,0.225772
132346000,0.0324,0.013523,0.002678,0.000431,0.184167
132347000,0.0324,0.013523,0.002678,0.000431,0.160543
132348000,0.0324,0.013523,0.002678,0.000431,0.145500
132349000,0.0324,0.013523,0.002678,0.000431,0.125285
132350000,0.0324,0.013523,0.002678,0.000431,0.094493
132351000,0.0324,0.013523,0.002678,0.000431,0.075101
132352000,0.0324,0.013523,0.002678,0.000431,0.068636
132353000,0.0324,0.013523,0.002678,0.000431,0.070634
132354000,0.0324,0.013523,0.002678,0.000431,0.056884
132355000,0.0324,0.013523,0.002678,0.000431,0.034671
132356000,0.0324,0.013523,0.002678,0.000431,0.032908
132357000,0.0324,0.013523,0.002678,0.000431,0.035376
132358000,0.0324,0.013523,0.002678,0.000431,0.025386
132359000,0.0324,0.013523,0.002678,0.000431,0.021038
132360000,0.0324,0.013523,0.002678,0.000431,0.029029
132361000,0.0324,0.013523,0.002678,0.000431,0.022683
132362000,0.0324,0.013523,0.002678,0.000431,0.016571
132363000,0.0324,0.013523,0.002678,0.000431,0.010107
132364000,0.0324,0.013523,0.002678,0.000431,0.017042
132365000,0.0324,0.013523,0.002678,0.000431,0.006699
132366000,0.0324,0.013523,0.002678,0.000431,0.009872
132367000,0.0324,0.013523,0.002678,0.000431,0.002703
132368000,0.0324,0.013523,0.002678,0.000431,0.006464
132369000,0.0324,0.013523,0.002678,0.000431,0.001645
132370000,0.0324,0.013523,0.002678,0.000431,0.001763
132371000,0.0324,0.013523,0.002678,0.000431,0.001880
132372000,0.0324,0.013523,0.002678,0.000431,0.004349
132373000,0.0324,0.013523,0.002678,0.000431,0.072750
132374000,0.0324,0.013523,0.002678,0.000431,0.964319
132375000,0.0324,0.013523,0.002678,0.000431,0.530052
132376000,0.0324,0.013523,0.002678,0.000431,0.188515
132377000,0.0324,0.013523,0.002678,0.000431,0.381379
132378000,0.0324,0.013523,0.002678,0.000431,0.491973
132379000,0.0324,0.013523,0.002678,0.000431,0.292410
132380000,0.0324,0.013523,0.002678,0.000431,0.219425
132381000,0.0324,0.013523,0.002678,0.000431,0.163599
132382000,0.0324,0.013523,0.002678,0.000431,0.171239
132383000,0.0324,0.013523,0.002678,0.000431,0.575300
132384000,0.0324,0.013523,0.002678,0.000431,0.392309
132385000,0.0324,0.013523,0.002678,0.000431,0.289119
132386000,0.0324,0.013523,0.002678,0.000431,0.283243
132387000,0.0324,0.013523,0.002678,0.000431,0.231178
132388000,0.0324,0.013523,0.002678,0.000431,0.193804
132389000,0.0324,0.013523,0.002678,0.000431,0.149966
132390000,0.0324,0.013523,0.002678,0.000431,0.145265
132391000,0.0324,0.013523,0.002678,0.000431,0.101074
132392000,0.0324,0.013523,0.002678,0.000431,0.091084
132393000,0.0324,0.013523,0.002678,0.000431,0.074748
132394000,0.0324,0.013523,0.002678,0.000431,0.050772
132395000,0.0324,0.013523,0.002678,0.000431,0.054651
132396000,0.0324,0.013523,0.002678,0.000431,0.044778
132397000,0.0324,0.013523,0.002678,0.000431,0.055238
132398000,0.0324,0.013523,0.002678,0.000431,0.018099
132399000,0.0324,0.013523,0.002678,0.000431,0.026444
132400000,0.0324,0.013523,0.002678,0.000431,0.018687
132401000,0.0324,0.013523,0.002678,0.000431,0.027737
132402000,0.0324,0.013523,0.002678,0.000431,0.010107
132403000,0.0324,0.013523,0.002678,0.000431,0.012576
132404000,0.0324,0.013523,0.002678,0.000431,0.010225
132405000,0.0324,0.013523,0.002678,0.000431,0.008580
132406000,0.0324,0.013523,0.002678,0.000431,0.006111
132407000,0.0324,0.013523,0.002678,0.000431,0.005171
132408000,0.0324,0.013523,0.002678,0.000431,0.008697
132409000,0.0324,0.013523,0.002678,0.000431,0.003761
132410000,0.0324,0.013523,0.002678,0.000431,0.007874
132411000,0.0324,0.013523,0.002678,0.000431,0.003291
132412000,0.0324,0.013523,0.002678,0.000431,0.002703
132413000,0.0324,0.013523,0.002678,0.000431,0.004584
132414000,0.0324,0.013523,0.002678,0.000431,0.003173
132415000,0.0324,0.013523,0.002678,0.000431,0.002116
132416000,0.0324,0.013523,0.002678,0.000431,0.002351
132417000,0.0324,0.013523,0.002678,0.000431,0.001763
132418000,0.0324,0.013523,0.002678,0.000431,0.002703
132419000,0.0324,0.013523,0.002678,0.000431,0.001880
132420000,0.0324,0.013523,0.002678,0.000431,0.002233
132421000,0.0324,0.013523,0.002678,0.000431,0.002351
132422000,0.0324,0.013523,0.002678,0.000431,0.001880
132423000,0.0324,0.013523,0.002678,0.000431,0.002586
132424000,0.0324,0.013523,0.002678,0.000431,0.001763
132425000,0.0324,0.013523,0.002678,0.000431,0.002351
132426000,0.0324,0.013523,0.002678,0.000431,0.002351
132427000,0.0324,0.013523,0.002678,0.000431,0.001880
132428000,0.0324,0.013523,0.002678,0.000431,0.002351
132429000,0.0324,0.013523,0.002678,0.000431,0.001998
132430000,0.0324,0.013523,0.002678,0.000431,0.002468
132431000,0.0324,0.013523,0.002678,0.000431,0.002233
132432000,0.0324,0.013523,0.002678,0.000431,0.003996
132433000,0.0324,0.013523,0.002678,0.000431,0.001410
132434000,0.0324,0.013523,0.002678,0.000431,0.001293
132435000,0.0324,0.013523,0.002678,0.000431,0.001293
132436000,0.0324,0.013523,0.002678,0.000431,0.001528
132437000,0.0324,0.013523,0.002678,0.000431,0.000940
132438000,0.0324,0.013523,0.002678,0.000431,0.001528
132439000,0.0324,0.013523,0.002678,0.000431,0.001293
132440000,0.0324,0.013523,0.002678,0.000431,0.001058
132441000,0.0324,0.013523,0.002678,0.000431,0.001763
132442000,0.0324,0.013523,0.002678,0.000431,0.000940
132443000,0.0324,0.013523,0.002678,0.000431,0.001763
132444000,0.0324,0.013523,0.002678,0.000431,0.001058
132445000,0.0324,0.013523,0.002678,0.000431,0.001528
132446000,0.0324,0.013523,0.002678,0.000431,0.001175
132447000,0.0324,0.013523,0.002678,0.000431,0.001175
132448000,0.0324,0.013523,0.002678,0.000431,0.001763
132449000,0.0324,0.013523,0.002678,0.000431,0.000823
132450000,0.0324,0.013523,0.002678,0.000431,0.001645
132451000,0.0324,0.013523,0.002678,0.000431,0.001528
132452000,0.0324,0.013523,0.002678,0.000431,0.001175
132453000,0.0324,0.013523,0.002678,0.000431,0.004701
132454000,0.0324,0.013523,0.002678,0.000431,0.690243
132455000,0.0324,0.013523,0.002678,0.000431,0.717980
132456000,0.0324,0.013523,0.002678,0.000431,0.284536
132457000,0.0324,0.013523,0.002678,0.000431,0.166772
132458000,0.0324,0.013523,0.002678,0.000431,0.571657
132459000,0.0324,0.013523,0.002678,0.000431,0.260913
132460000,0.0324,0.013523,0.002678,0.000431,0.304398
132461000,0.0324,0.013523,0.002678,0.000431,0.170416
132462000,0.0324,0.013523,0.002678,0.000431,0.174177
132463000,0.0324,0.013523,0.002678,0.000431,0.160779
132464000,0.0324,0.013523,0.002678,0.000431,0.561550
132465000,0.0324,0.013523,0.002678,0.000431,0.351174
132466000,0.0324,0.013523,0.002678,0.000431,0.272078
132467000,0.0324,0.013523,0.002678,0.000431,0.237172
132468000,0.0324,0.013523,0.002678,0.000431,0.207085
132469000,0.0324,0.013523,0.002678,0.000431,0.174882
132470000,0.0324,0.013523,0.002678,0.000431,0.145970
132471000,0.0324,0.013523,0.002678,0.000431,0.128811
132472000,0.0324,0.013523,0.002678,0.000431,0.116235
132473000,0.0324,0.013523,0.002678,0.000431,0.095668
132474000,0.0324,0.013523,0.002678,0.000431,0.087794
132475000,0.0324,0.013523,0.002678,0.000431,0.070987
132476000,0.0324,0.013523,0.002678,0.000431,0.057001
132477000,0.0324,0.013523,0.002678,0.000431,0.055003
132478000,0.0324,0.013523,0.002678,0.000431,0.049479
132479000,0.0324,0.013523,0.002678,0.000431,0.033613
132480000,0.0324,0.013523,0.002678,0.000431,0.030675
132481000,0.0324,0.013523,0.002678,0.000431,0.028324
132482000,0.0324,0.013523,0.002678,0.000431,0.020802
132483000,0.0324,0.013523,0.002678,0.000431,0.026326
132484000,0.0324,0.013523,0.002678,0.000431,0.021390
132485000,0.0324,0.013523,0.002678,0.000431,0.024328
132486000,0.0324,0.013523,0.002678,0.000431,0.014691
132487000,0.0324,0.013523,0.002678,0.000431,0.013751
132488000,0.0324,0.013523,0.002678,0.000431,0.012340
132489000,0.0324,0.013523,0.002678,0.000431,0.009285
132490000,0.0324,0.013523,0.002678,0.000431,0.010225
132491000,0.0324,0.013523,0.002678,0.000431,0.011635
132492000,0.0324,0.013523,0.002678,0.000431,0.009755
132493000,0.0324,0.013523,0.002678,0.000431,0.012340
132494000,0.0324,0.013523,0.002678,0.000431,0.006111
132495000,0.0324,0.013523,0.002678,0.000431,0.002468
132496000,0.0324,0.013523,0.002678,0.000431,0.006934
132497000,0.0324,0.013523,0.002678,0.000431,0.001880
132498000,0.0324,0.013523,0.002678,0.000431,0.001880
132499000,0.0324,0.013523,0.002678,0.000431,0.001528
132500000,0.0324,0.013523,0.002678,0.000431,0.001645
132501000,0.0324,0.013523,0.002678,0.000431,0.001645
132502000,0.0324,0.013523,0.002678,0.000431,0.001763
132503000,0.0324,0.013523,0.002678,0.000431,0.001528
132504000,0.0324,0.013523,0.002678,0.000431,0.001763
132505000,0.0324,0.013523,0.002678,0.000431,0.001645
132506000,0.0324,0.013523,0.002678,0.000431,0.001645
132507000,0.0324,0.013523,0.002678,0.000431,0.001880
132508000,0.0324,0.013523,0.002678,0.000431,0.001528
132509000,0.0324,0.013523,0.002678,0.000431,0.001763
132510000,0.0324,0.013523,0.002678,0.000431,0.001410
132511000,0.0324,0.013523,0.002678,0.000431,0.001880
132512000,0.0324,0.013523,0.002678,0.000431,0.001645
132513000,0.0324,0.013523,0.002678,0.000431,0.001645
132514000,0.0324,0.013523,0.002678,0.000431,0.001763
132515000,0.0324,0.013523,0.002678,0.000431,0.001528
132516000,0.0324,0.013523,0.002678,0.000431,0.001880
132517000,0.0324,0.013523,0.002678,0.000431,0.001645
132518000,0.0324,0.013523,0.002678,0.000431,0.001763
132519000,0.0324,0.013523,0.002678,0.000431,0.004466
132520000,0.0324,0.013523,0.002678,0.000431,0.000705
132521000,0.0324,0.013523,0.002678,0.000431,0.000940
132522000,0.0324,0.013523,0.002678,0.000431,0.000705
132523000,0.0324,0.013523,0.002678,0.000431,0.000940
132524000,0.0324,0.013523,0.002678,0.000431,0.000823
132525000,0.0324,0.013523,0.002678,0.000431,0.000823
132526000,0.0324,0.013523,0.002678,0.000431,0.000823
132527000,0.0324,0.013523,0.002678,0.000431,0.000823
132528000,0.0324,0.013523,0.002678,0.000431,0.000940
132529000,0.0324,0.013523,0.002678,0.000431,0.000705
132530000,0.0324,0.013523,0.002678,0.000431,0.000940
132531000,0.0324,0.013523,0.002678,0.000431,0.000705
132532000,0.0324,0.013523,0.002678,0.000431,0.000940
132533000,0.0324,0.013523,0.002678,0.000431,0.000705
132534000,0.0324,0.013523,0.002678,0.000431,0.000940
132535000,0.0324,0.013523,0.002678,0.000431,0.000940
132536000,0.0324,0.013523,0.002678,0.000431,0.000705
132537000,0.0324,0.013523,0.002678,0.000431,0.000940
132538000,0.0324,0.013523,0.002678,0.000431,0.000705
132539000,0.0324,0.013523,0.002678,0.000431,0.000940
132540000,0.0324,0.013523,0.002678,0.000431,0.000823
132541000,0.0324,0.013523,0.002678,0.000431,0.000823
132542000,0.0324,0.013523,0.002678,0.000431,0.000823
132543000,0.0324,0.013523,0.002678,0.000431,0.000823
132544000,0.0324,0.013523,0.002678,0.000431,0.000940
132545000,0.0324,0.013523,0.002678,0.000431,0.000705
132546000,0.0324,0.013523,0.002678,0.000431,0.000940
132547000,0.0324,0.013523,0.002678,0.000431,0.000823
132548000,0.0324,0.013523,0.002678,0.000431,0.000823
132549000,0.0324,0.013523,0.002678,0.000431,0.000823
132550000,0.0324,0.013523,0.002678,0.000431,0.000823
132551000,0.0324,0.013523,0.002678,0.000431,0.000823
132552000,0.0324,0.013523,0.002678,0.000431,0.000823
132553000,0.0324,0.013523,0.002678,0.000431,0.000823
132554000,0.0324,0.013523,0.002678,0.000431,0.000940
132555000,0.0324,0.013523,0.002678,0.000431,0.000823
132556000,0.0324,0.013523,0.002678,0.000431,0.000823
132557000,0.0324,0.013523,0.002678,0.000431,0.000823
132558000,0.0324,0.013523,0.002678,0.000431,0.000705
132559000,0.0324,0.013523,0.002678,0.000431,0.000940
132560000,0.0324,0.013523,0.002678,0.000431,0.000940
132561000,0.0324,0.013523,0.002678,0.000431,0.000705
132562000,0.0324,0.013523,0.002678,0.000431,0.000940
132563000,0.0324,0.013523,0.002678,0.000431,0.000705
132564000,0.0324,0.013523,0.002678,0.000431,0.000940
132565000,0.0324,0.013523,0.002678,0.000431,0.000940
132566000,0.0324,0.013523,0.002678,0.000431,0.000705
132567000,0.0324,0.013523,0.002678,0.000431,0.000940
132568000,0.0324,0.013523,0.002678,0.000431,0.000705
132569000,0.0324,0.013523,0.002678,0.000431,0.000940
132570000,0.0324,0.013523,0.002678,0.000431,0.000823
132571000,0.0324,0.013523,0.002678,0.000431,0.000823
132572000,0.0324,0.013523,0.002678,0.000431,0.000823
132573000,0.0324,0.013523,0.002678,0.000431,0.000823
132574000,0.0324,0.013523,0.002678,0.000431,0.000940
132575000,0.0324,0.013523,0.002678,0.000431,0.000705
132576000,0.0324,0.013523,0.002678,0.000431,0.000940
132577000,0.0324,0.013523,0.002678,0.000431,0.000823
132578000,0.0324,0.013523,0.002678,0.000431,0.000823
132579000,0.0324,0.013523,0.002678,0.000431,0.000823
132580000,0.0324,0.013523,0.002678,0.000431,0.000823
132581000,0.0324,0.013523,0.002678,0.000431,0.000705
132582000,0.0324,0.013523,0.002678,0.000431,0.000940
132583000,0.0324,0.013523,0.002678,0.000431,0.000940
132584000,0.0324,0.013523,0.002678,0.000431,0.000705
132585000,0.0324,0.013523,0.002678,0.000431,0.000940
132586000,0.0324,0.013523,0.002678,0.000431,0.000705
132587000,0.0324,0.013523,0.002678,0.000431,0.000940
132588000,0.0324,0.013523,0.002678,0.000431,0.000940
132589000,0.0324,0.013523,0.002678,0.000431,0.000705
132590000,0.0324,0.013523,0.002678,0.000431,0.000940
132591000,0.0324,0.013523,0.002678,0.000431,0.000705
132592000,0.0324,0.013523,0.002678,0.000431,0.000940
132593000,0.0324,0.013523,0.002678,0.000431,0.000823
132594000,0.0324,0.013523,0.002678,0.000431,0.000823
132595000,0.0324,0.013523,0.002678,0.000431,0.000823
132596000,0.0324,0.013523,0.002678,0.000431,0.000823
132597000,0.0324,0.013523,0.002678,0.000431,0.000940
132598000,0.0324,0.013523,0.002678,0.000431,0.000705
132599000,0.0324,0.013523,0.002678,0.000431,0.000940
132600000,0.0324,0.013523,0.002678,0.000431,0.000823
132601000,0.0324,0.013523,0.002678,0.000431,0.000823
132602000,0.0324,0.013523,0.002678,0.000431,0.000823
132603000,0.0324,0.013523,0.002678,0.000431,0.000823
132604000,0.0324,0.013523,0.002678,0.000431,0.000823
132605000,0.0324,0.013523,0.002678,0.000431,0.000823
132606000,0.0324,0.013523,0.002678,0.000431,0.000823
132607000,0.0324,0.013523,0.002678,0.000431,0.000823
132608000,0.0324,0.013523,0.002678,0.000431,0.000940
132609000,0.0324,0.013523,0.002678,0.000431,0.000823
132610000,0.0324,0.013523,0.002678,0.000431,0.000823
132611000,0.0324,0.013523,0.002678,0.000431,0.000705
132612000,0.0324,0.013523,0.002678,0.000431,0.000940
132613000,0.0324,0.013523,0.002678,0.000431,0.000940
132614000,0.0324,0.013523,0.002678,0.000431,0.000705
132615000,0.0324,0.013523,0.002678,0.000431,0.000940
132616000,0.0324,0.013523,0.002678,0.000431,0.000705
132617000,0.0324,0.013523,0.002678,0.000431,0.000940
132618000,0.0324,0.013523,0.002678,0.000431,0.000823
132619000,0.0324,0.013523,0.002678,0.000431,0.000823
132620000,0.0324,0.013523,0.002678,0.000431,0.000940
132621000,0.0324,0.013523,0.002678,0.000431,0.000705
132622000,0.0324,0.013523,0.002678,0.000431,0.000940
132623000,0.0324,0.013523,0.002678,0.000431,0.000823
132624000,0.0324,0.013523,0.002678,0.000431,0.000823
132625000,0.0324,0.013523,0.002678,0.000431,0.000823
132626000,0.0324,0.013523,0.002678,0.000431,0.000823
132627000,0.0324,0.013523,0.002678,0.000431,0.000823
132628000,0.0324,0.013523,0.002678,0.000431,0.000823
132629000,0.0324,0.013523,0.002678,0.000431,0.000940
132630000,0.0324,0.013523,0.002678,0.000431,0.000823
132631000,0.0324,0.013523,0.002678,0.000431,0.000823
132632000,0.0324,0.013523,0.002678,0.000431,0.000823
132633000,0.0324,0.013523,0.002678,0.000431,0.000823
132634000,0.0324,0.013523,0.002678,0.000431,0.000705
132635000,0.0324,0.013523,0.002678,0.000431,0.000940
132636000,0.0324,0.013523,0.002678,0.000431,0.000940
132637000,0.0324,0.013523,0.002678,0.000431,0.000705
132638000,0.0324,0.013523,0.002678,0.000431,0.000940
132639000,0.0324,0.013523,0.002678,0.000431,0.000705
132640000,0.0324,0.013523,0.002678,0.000431,0.000940
132641000,0.0324,0.013523,0.002678,0.000431,0.000823
132642000,0.0324,0.013523,0.002678,0.000431,0.000823
132643000,0.0324,0.013523,0.002678,0.000431,0.000940
132644000,0.0324,0.013523,0.002678,0.000431,0.000705
132645000,0.0324,0.013523,0.002678,0.000431,0.000940
132646000,0.0324,0.013523,0.002678,0.000431,0.000823
132647000,0.0324,0.013523,0.002678,0.000431,0.000823
132648000,0.0324,0.013523,0.002678,0.000431,0.000823
132649000,0.0324,0.013523,0.002678,0.000431,0.000823
132650000,0.0324,0.013523,0.002678,0.000431,0.000940
132651000,0.0324,0.013523,0.002678,0.000431,0.000705
132652000,0.0324,0.013523,0.002678,0.000431,0.000940
132653000,0.0324,0.013523,0.002678,0.000431,0.000705
132654000,0.0324,0.013523,0.002678,0.000431,0.000823
132655000,0.0324,0.013523,0.002678,0.000431,0.000940
132656000,0.0324,0.013523,0.002678,0.000431,0.000823
132657000,0.0324,0.013523,0.002678,0.000431,0.000823
132658000,0.0324,0.013523,0.002678,0.000431,0.000823
132659000,0.0324,0.013523,0.002678,0.000431,0.000823
132660000,0.0324,0.013523,0.002678,0.000431,0.000823
132661000,0.0324,0.013523,0.002678,0.000431,0.000940
132662000,0.0324,0.013523,0.002678,0.000431,0.000705
132663000,0.0324,0.013523,0.002678,0.000431,0.000940
132664000,0.0324,0.013523,0.002678,0.000431,0.000705
132665000,0.0324,0.013523,0.002678,0.000431,0.000940
132666000,0.0324,0.013523,0.002678,0.000431,0.000940
132667000,0.0324,0.013523,0.002678,0.000431,0.000705
132668000,0.0324,0.013523,0.002678,0.000431,0.000940
132669000,0.0324,0.013523,0.002678,0.000431,0.000705
132670000,0.0324,0.013523,0.002678,0.000431,0.000940
132671000,0.0324,0.013523,0.002678,0.000431,0.000823
132672000,0.0324,0.013523,0.002678,0.000431,0.000823
132673000,0.0324,0.013523,0.002678,0.000431,0.000823
132674000,0.0324,0.013523,0.002678,0.000431,0.000823
132675000,0.0324,0.013523,0.002678,0.000431,0.000940
132676000,0.0324,0.013523,0.002678,0.000431,0.000823
132677000,0.0324,0.013523,0.002678,0.000431,0.000823
132678000,0.0324,0.013523,0.002678,0.000431,0.000823
132679000,0.0324,0.013523,0.002678,0.000431,0.000823
132680000,0.0324,0.013523,0.002678,0.000431,0.000823
132681000,0.0324,0.013523,0.002678,0.000431,0.000823
132682000,0.0324,0.013523,0.002678,0.000431,0.000940
132683000,0.0324,0.013523,0.002678,0.000431,0.000705
132684000,0.0324,0.013523,0.002678,0.000431,0.000940
132685000,0.0324,0.013523,0.002678,0.000431,0.000823
132686000,0.0324,0.013523,0.002678,0.000431,0.000823
132687000,0.0324,0.013523,0.002678,0.000431,0.000705
132688000,0.0324,0.013523,0.002678,0.000431,0.000940
132689000,0.0324,0.013523,0.002678,0.000431,0.000940
132690000,0.0324,0.013523,0.002678,0.000431,0.000705
132691000,0.0324,0.013523,0.002678,0.000431,0.000940
132692000,0.0324,0.013523,0.002678,0.000431,0.000705
132693000,0.0324,0.013523,0.002678,0.000431,0.000940
132694000,0.0324,0.013523,0.002678,0.000431,0.000823
132695000,0.0324,0.013523,0.002678,0.000431,0.000823
132696000,0.0324,0.013523,0.002678,0.000431,0.000940
132697000,0.0324,0.013523,0.002678,0.000431,0.000705
132698000,0.0324,0.013523,0.002678,0.000431,0.000940
132699000,0.0324,0.013523,0.002678,0.000431,0.000823
132700000,0.0324,0.013523,0.002678,0.000431,0.000823
132701000,0.0324,0.013523,0.002678,0.000431,0.000823
132702000,0.0324,0.013523,0.002678,0.000431,0.000823
132703000,0.0324,0.013523,0.002678,0.000431,0.000823
132704000,0.0324,0.013523,0.002678,0.000431,0.000823
132705000,0.0324,0.013523,0.002678,0.000431,0.000940
132706000,0.0324,0.013523,0.002678,0.000431,0.000705
132707000,0.0324,0.013523,0.002678,0.000431,0.000823
132708000,0.0324,0.013523,0.002678,0.000431,0.000940
132709000,0.0324,0.013523,0.002678,0.000431,0.000823
132710000,0.0324,0.013523,0.002678,0.000431,0.000823
132711000,0.0324,0.013523,0.002678,0.000431,0.000823
132712000,0.0324,0.013523,0.002678,0.000431,0.000705
132713000,0.0324,0.013523,0.002678,0.000431,0.000940
132714000,0.0324,0.013523,0.002678,0.000431,0.000940
132715000,0.0324,0.013523,0.002678,0.000431,0.000705
132716000,0.0324,0.013523,0.002678,0.000431,0.000940
132717000,0.0324,0.013523,0.002678,0.000431,0.000705
132718000,0.0324,0.013523,0.002678,0.000431,0.000940
132719000,0.0324,0.013523,0.002678,0.000431,0.000940
132720000,0.0324,0.013523,0.002678,0.000431,0.000705
132721000,0.0324,0.013523,0.002678,0.000431,0.000940
132722000,0.0324,0.013523,0.002678,0.000431,0.000705
132723000,0.0324,0.013523,0.002678,0.000431,0.000940
132724000,0.0324,0.013523,0.002678,0.000431,0.000823
132725000,0.0324,0.013523,0.002678,0.000431,0.000823
132726000,0.0324,0.013523,0.002678,0.000431,0.000940
132727000,0.0324,0.013523,0.002678,0.000431,0.000705
132728000,0.0324,0.013523,0.002678,0.000431,0.000940
132729000,0.0324,0.013523,0.002678,0.000431,0.000823
132730000,0.0324,0.013523,0.002678,0.000431,0.000823
132731000,0.0324,0.013523,0.002678,0.000431,0.000940
132732000,0.0324,0.013523,0.002678,0.000431,0.000823
132733000,0.0324,0.013523,0.002678,0.000431,0.000940
132734000,0.0324,0.013523,0.002678,0.000431,0.000823
132735000,0.0324,0.013523,0.002678,0.000431,0.000940
132736000,0.0324,0.013523,0.002678,0.000431,0.000940
132737000,0.0324,0.013523,0.002678,0.000431,0.000940
132738000,0.0324,0.013523,0.002678,0.000431,0.000823
132739000,0.0324,0.013523,0.002678,0.000431,0.000823
132740000,0.0324,0.013523,0.002678,0.000431,0.000940
132741000,0.0324,0.013523,0.002678,0.000431,0.000940
132742000,0.0324,0.013523,0.002678,0.000431,0.000823
132743000,0.0324,0.013523,0.002678,0.000431,0.080507
132744000,0.0324,0.013523,0.002678,0.000431,0.896035
132745000,0.0324,0.013523,0.002678,0.000431,0.534283
132746000,0.0324,0.013523,0.002678,0.000431,0.199093
132747000,0.0324,0.013523,0.002678,0.000431,0.204734
132748000,0.0324,0.013523,0.002678,0.000431,0.578944
132749000,0.0324,0.013523,0.002678,0.000431,0.265026
132750000,0.0324,0.013523,0.002678,0.000431,0.364220
132751000,0.0324,0.013523,0.002678,0.000431,0.151141
132752000,0.0324,0.013523,0.002678,0.000431,0.150671
132753000,0.0324,0.013523,0.002678,0.000431,0.239052
132754000,0.0324,0.013523,0.002678,0.000431,0.578826
132755000,0.0324,0.013523,0.002678,0.000431,0.343887
132756000,0.0324,0.013523,0.002678,0.000431,0.276309
132757000,0.0324,0.013523,0.002678,0.000431,0.233646
132758000,0.0324,0.013523,0.002678,0.000431,0.214489
132759000,0.0324,0.013523,0.002678,0.000431,0.200150
132760000,0.0324,0.013523,0.002678,0.000431,0.171004
132761000,0.0324,0.013523,0.002678,0.000431,0.145030
132762000,0.0324,0.013523,0.002678,0.000431,0.132689
132763000,0.0324,0.013523,0.002678,0.000431,0.106363
132764000,0.0324,0.013523,0.002678,0.000431,0.083563
132765000,0.0324,0.013523,0.002678,0.000431,0.088264
132766000,0.0324,0.013523,0.002678,0.000431,0.066638
132767000,0.0324,0.013523,0.002678,0.000431,0.075453
132768000,0.0324,0.013523,0.002678,0.000431,0.057236
132769000,0.0324,0.013523,0.002678,0.000431,0.054533
132770000,0.0324,0.013523,0.002678,0.000431,0.057236
132771000,0.0324,0.013523,0.002678,0.000431,0.052653
132772000,0.0324,0.013523,0.002678,0.000431,0.034906
132773000,0.0324,0.013523,0.002678,0.000431,0.038314
132774000,0.0324,0.013523,0.002678,0.000431,0.030322
132775000,0.0324,0.013523,0.002678,0.000431,0.025151
132776000,0.0324,0.013523,0.002678,0.000431,0.018217
132777000,0.0324,0.013523,0.002678,0.000431,0.020920
132778000,0.0324,0.013523,0.002678,0.000431,0.022330
132779000,0.0324,0.013523,0.002678,0.000431,0.021978
132780000,0.0324,0.013523,0.002678,0.000431,0.013516
132781000,0.0324,0.013523,0.002678,0.000431,0.014221
132782000,0.0324,0.013523,0.002678,0.000431,0.011870
132783000,0.0324,0.013523,0.002678,0.000431,0.010107
132784000,0.0324,0.013523,0.002678,0.000431,0.006699
132785000,0.0324,0.013523,0.002678,0.000431,0.002938
132786000,0.0324,0.013523,0.002678,0.000431,0.005289
132787000,0.0324,0.013523,0.002678,0.000431,0.001880
132788000,0.0324,0.013523,0.002678,0.000431,0.001998
132789000,0.0324,0.013523,0.002678,0.000431,0.004701
132790000,0.0324,0.013523,0.002678,0.000431,0.002703
132791000,0.0324,0.013523,0.002678,0.000431,0.471758
132792000,0.0324,0.013523,0.002678,0.000431,0.787556
132793000,0.0324,0.013523,0.002678,0.000431,0.376325
132794000,0.0324,0.013523,0.002678,0.000431,0.160543
132795000,0.0324,0.013523,0.002678,0.000431,0.542980
132796000,0.0324,0.013523,0.002678,0.000431,0.306984
132797000,0.0324,0.013523,0.002678,0.000431,0.296524
132798000,0.0324,0.013523,0.002678,0.000431,0.198975
132799000,0.0324,0.013523,0.002678,0.000431,0.187575
132800000,0.0324,0.013523,0.002678,0.000431,0.098254
132801000,0.0324,0.013523,0.002678,0.000431,0.553088
132802000,0.0324,0.013523,0.002678,0.000431,0.396423
132803000,0.0324,0.013523,0.002678,0.000431,0.278307
132804000,0.0324,0.013523,0.002678,0.000431,0.265966
132805000,0.0324,0.013523,0.002678,0.000431,0.214371
132806000,0.0324,0.013523,0.002678,0.000431,0.194862
132807000,0.0324,0.013523,0.002678,0.000431,0.159956
132808000,0.0324,0.013523,0.002678,0.000431,0.122934
132809000,0.0324,0.013523,0.002678,0.000431,0.108243
132810000,0.0324,0.013523,0.002678,0.000431,0.104365
132811000,0.0324,0.013523,0.002678,0.000431,0.090144
132812000,0.0324,0.013523,0.002678,0.000431,0.072750
132813000,0.0324,0.013523,0.002678,0.000431,0.055473
132814000,0.0324,0.013523,0.002678,0.000431,0.055121
132815000,0.0324,0.013523,0.002678,0.000431,0.063113
132816000,0.0324,0.013523,0.002678,0.000431,0.037374
132817000,0.0324,0.013523,0.002678,0.000431,0.028559
132818000,0.0324,0.013523,0.002678,0.000431,0.028794
132819000,0.0324,0.013523,0.002678,0.000431,0.023976
132820000,0.0324,0.013523,0.002678,0.000431,0.026914
132821000,0.0324,0.013523,0.002678,0.000431,0.019392
132822000,0.0324,0.013523,0.002678,0.000431,0.016571
132823000,0.0324,0.013523,0.002678,0.000431,0.014573
132824000,0.0324,0.013523,0.002678,0.000431,0.011048
132825000,0.0324,0.013523,0.002678,0.000431,0.003761
132826000,0.0324,0.013523,0.002678,0.000431,0.005759
132827000,0.0324,0.013523,0.002678,0.000431,0.002703
132828000,0.0324,0.013523,0.002678,0.000431,0.002468
132829000,0.0324,0.013523,0.002678,0.000431,0.002586
132830000,0.0324,0.013523,0.002678,0.000431,0.002703
132831000,0.0324,0.013523,0.002678,0.000431,0.002703
132832000,0.0324,0.013523,0.002678,0.000431,0.005641
132833000,0.0324,0.013523,0.002678,0.000431,0.001645
132834000,0.0324,0.013523,0.002678,0.000431,0.001880
132835000,0.0324,0.013523,0.002678,0.000431,0.001763
132836000,0.0324,0.013523,0.002678,0.000431,0.001763
132837000,0.0324,0.013523,0.002678,0.000431,0.003878
132838000,0.0324,0.013523,0.002678,0.000431,0.001998
132839000,0.0324,0.013523,0.002678,0.000431,0.000823
132840000,0.0324,0.013523,0.002678,0.000431,0.000940
132841000,0.0324,0.013523,0.002678,0.000431,0.000940
132842000,0.0324,0.013523,0.002678,0.000431,0.000823
132843000,0.0324,0.013523,0.002678,0.000431,0.000940
132844000,0.0324,0.013523,0.002678,0.000431,0.000940
132845000,0.0324,0.013523,0.002678,0.000431,0.000940
132846000,0.0324,0.013523,0.002678,0.000431,0.000940
132847000,0.0324,0.013523,0.002678,0.000431,0.000823
132848000,0.0324,0.013523,0.002678,0.000431,0.000823
132849000,0.0324,0.013523,0.002678,0.000431,0.000940
132850000,0.0324,0.013523,0.002678,0.000431,0.000940
132851000,0.0324,0.013523,0.002678,0.000431,0.015044
132852000,0.0324,0.013523,0.002678,0.000431,0.863244
132853000,0.0324,0.013523,0.002678,0.000431,0.578709
132854000,0.0324,0.013523,0.002678,0.000431,0.203324
132855000,0.0324,0.013523,0.002678,0.000431,0.170768
132856000,0.0324,0.013523,0.002678,0.000431,0.568484
132857000,0.0324,0.013523,0.002678,0.000431,0.259502
132858000,0.0324,0.013523,0.002678,0.000431,0.376208
132859000,0.0324,0.013523,0.002678,0.000431,0.162659
132860000,0.0324,0.013523,0.002678,0.000431,0.149613
132861000,0.0324,0.013523,0.002678,0.000431,0.207320
132862000,0.0324,0.013523,0.002678,0.000431,0.573067
132863000,0.0324,0.013523,0.002678,0.000431,0.351762
132864000,0.0324,0.013523,0.002678,0.000431,0.267142
132865000,0.0324,0.013523,0.002678,0.000431,0.227652
132866000,0.0324,0.013523,0.002678,0.000431,0.206144
132867000,0.0324,0.013523,0.002678,0.000431,0.154197
132868000,0.0324,0.013523,0.002678,0.000431,0.160896
132869000,0.0324,0.013523,0.002678,0.000431,0.130339
132870000,0.0324,0.013523,0.002678,0.000431,0.126930
132871000,0.0324,0.013523,0.002678,0.000431,0.098606
132872000,0.0324,0.013523,0.002678,0.000431,0.095433
132873000,0.0324,0.013523,0.002678,0.000431,0.076276
132874000,0.0324,0.013523,0.002678,0.000431,0.068754
132875000,0.0324,0.013523,0.002678,0.000431,0.058294
132876000,0.0324,0.013523,0.002678,0.000431,0.058176
132877000,0.0324,0.013523,0.002678,0.000431,0.051007
132878000,0.0324,0.013523,0.002678,0.000431,0.028559
132879000,0.0324,0.013523,0.002678,0.000431,0.030440
132880000,0.0324,0.013523,0.002678,0.000431,0.019275
132881000,0.0324,0.013523,0.002678,0.000431,0.028442
132882000,0.0324,0.013523,0.002678,0.000431,0.017277
132883000,0.0324,0.013523,0.002678,0.000431,0.015279
132884000,0.0324,0.013523,0.002678,0.000431,0.016689
132885000,0.0324,0.013523,0.002678,0.000431,0.013633
132886000,0.0324,0.013523,0.002678,0.000431,0.012811
132887000,0.0324,0.013523,0.002678,0.000431,0.007287
132888000,0.0324,0.013523,0.002678,0.000431,0.007992
132889000,0.0324,0.013523,0.002678,0.000431,0.008932
132890000,0.0324,0.013523,0.002678,0.000431,0.006111
132891000,0.0324,0.013523,0.002678,0.000431,0.011165
132892000,0.0324,0.013523,0.002678,0.000431,0.007404
132893000,0.0324,0.013523,0.002678,0.000431,0.008345
132894000,0.0324,0.013523,0.002678,0.000431,0.001880
132895000,0.0324,0.013523,0.002678,0.000431,0.002351
132896000,0.0324,0.013523,0.002678,0.000431,0.001645
132897000,0.0324,0.013523,0.002678,0.000431,0.003173
132898000,0.0324,0.013523,0.002678,0.000431,0.002586
132899000,0.0324,0.013523,0.002678,0.000431,0.001058
132900000,0.0324,0.013523,0.002678,0.000431,0.001058
132901000,0.0324,0.013523,0.002678,0.000431,0.000940
132902000,0.0324,0.013523,0.002678,0.000431,0.000940
132903000,0.0324,0.013523,0.002678,0.000431,0.001175
132904000,0.0324,0.013523,0.002678,0.000431,0.000823
132905000,0.0324,0.013523,0.002678,0.000431,0.001293
132906000,0.0324,0.013523,0.002678,0.000431,0.000823
132907000,0.0324,0.013523,0.002678,0.000431,0.001058
132908000,0.0324,0.013523,0.002678,0.000431,0.001175
132909000,0.0324,0.013523,0.002678,0.000431,0.000705
132910000,0.0324,0.013523,0.002678,0.000431,0.001410
132911000,0.0324,0.013523,0.002678,0.000431,0.000940
132912000,0.0324,0.013523,0.002678,0.000431,0.001293
132913000,0.0324,0.013523,0.002678,0.000431,0.000940
132914000,0.0324,0.013523,0.002678,0.000431,0.000940
132915000,0.0324,0.013523,0.002678,0.000431,0.001293
132916000,0.0324,0.013523,0.002678,0.000431,0.000823
132917000,0.0324,0.013523,0.002678,0.000431,0.001410
132918000,0.0324,0.013523,0.002678,0.000431,0.000823
132919000,0.0324,0.013523,0.002678,0.000431,0.000940
132920000,0.0324,0.013523,0.002678,0.000431,0.001175
132921000,0.0324,0.013523,0.002678,0.000431,0.000940
132922000,0.0324,0.013523,0.002678,0.000431,0.001058
132923000,0.0324,0.013523,0.002678,0.000431,0.001058
132924000,0.0324,0.013523,0.002678,0.000431,0.000940
132925000,0.0324,0.013523,0.002678,0.000431,0.001175
132926000,0.0324,0.013523,0.002678,0.000431,0.000823
132927000,0.0324,0.013523,0.002678,0.000431,0.001175
132928000,0.0324,0.013523,0.002678,0.000431,0.000940
132929000,0.0324,0.013523,0.002678,0.000431,0.000940
132930000,0.0324,0.013523,0.002678,0.000431,0.001293
132931000,0.0324,0.013523,0.002678,0.000431,0.000705
132932000,0.0324,0.013523,0.002678,0.000431,0.001293
132933000,0.0324,0.013523,0.002678,0.000431,0.000940
132934000,0.0324,0.013523,0.002678,0.000431,0.000940
132935000,0.0324,0.013523,0.002678,0.000431,0.001175
132936000,0.0324,0.013523,0.002678,0.000431,0.000823
132937000,0.0324,0.013523,0.002678,0.000431,0.001058
132938000,0.0324,0.013523,0.002678,0.000431,0.001293
132939000,0.0324,0.013523,0.002678,0.000431,0.001410
132940000,0.0324,0.013523,0.002678,0.000431,0.001293
132941000,0.0324,0.013523,0.002678,0.000431,0.001175
132942000,0.0324,0.013523,0.002678,0.000431,0.001528
132943000,0.0324,0.013523,0.002678,0.000431,0.001410
132944000,0.0324,0.013523,0.002678,0.000431,0.017159
132945000,0.0324,0.013523,0.002678,0.000431,0.806243
132946000,0.0324,0.013523,0.002678,0.000431,0.621254
132947000,0.0324,0.013523,0.002678,0.000431,0.201208
132948000,0.0324,0.013523,0.002678,0.000431,0.179936
132949000,0.0324,0.013523,0.002678,0.000431,0.548857
132950000,0.0324,0.013523,0.002678,0.000431,0.279835
132951000,0.0324,0.013523,0.002678,0.000431,0.353407
132952000,0.0324,0.013523,0.002678,0.000431,0.152434
132953000,0.0324,0.013523,0.002678,0.000431,0.151964
132954000,0.0324,0.013523,0.002678,0.000431,0.235174
132955000,0.0324,0.013523,0.002678,0.000431,0.572362
132956000,0.0324,0.013523,0.002678,0.000431,0.322262
132957000,0.0324,0.013523,0.002678,0.000431,0.275133
132958000,0.0324,0.013523,0.002678,0.000431,0.238465
132959000,0.0324,0.013523,0.002678,0.000431,0.191924
132960000,0.0324,0.013523,0.002678,0.000431,0.162189
132961000,0.0324,0.013523,0.002678,0.000431,0.159486
132962000,0.0324,0.013523,0.002678,0.000431,0.115295
132963000,0.0324,0.013523,0.002678,0.000431,0.097901
132964000,0.0324,0.013523,0.002678,0.000431,0.085090
132965000,0.0324,0.013523,0.002678,0.000431,0.069459
132966000,0.0324,0.013523,0.002678,0.000431,0.063583
132967000,0.0324,0.013523,0.002678,0.000431,0.054533
132968000,0.0324,0.013523,0.002678,0.000431,0.068284
132969000,0.0324,0.013523,0.002678,0.000431,0.025974
132970000,0.0324,0.013523,0.002678,0.000431,0.025504
132971000,0.0324,0.013523,0.002678,0.000431,0.020685
132972000,0.0324,0.013523,0.002678,0.000431,0.022448
132973000,0.0324,0.013523,0.002678,0.000431,0.016454
132974000,0.0324,0.013523,0.002678,0.000431,0.017277
132975000,0.0324,0.013523,0.002678,0.000431,0.008580
132976000,0.0324,0.013523,0.002678,0.000431,0.009990
132977000,0.0324,0.013523,0.002678,0.000431,0.012340
132978000,0.0324,0.013523,0.002678,0.000431,0.004936
132979000,0.0324,0.013523,0.002678,0.000431,0.001528
132980000,0.0324,0.013523,0.002678,0.000431,0.001880
132981000,0.0324,0.013523,0.002678,0.000431,0.001880
132982000,0.0324,0.013523,0.002678,0.000431,0.001763
132983000,0.0324,0.013523,0.002678,0.000431,0.001880
132984000,0.0324,0.013523,0.002678,0.000431,0.003996
132985000,0.0324,0.013523,0.002678,0.000431,0.000940
132986000,0.0324,0.013523,0.002678,0.000431,0.149378
132987000,0.0324,0.013523,0.002678,0.000431,0.885927
132988000,0.0324,0.013523,0.002678,0.000431,0.528054
132989000,0.0324,0.013523,0.002678,0.000431,0.188280
132990000,0.0324,0.013523,0.002678,0.000431,0.346708
132991000,0.0324,0.013523,0.002678,0.000431,0.508662
132992000,0.0324,0.013523,0.002678,0.000431,0.309922
132993000,0.0324,0.013523,0.002678,0.000431,0.265379
132994000,0.0324,0.013523,0.002678,0.000431,0.175470
132995000,0.0324,0.013523,0.002678,0.000431,0.087676
132996000,0.0324,0.013523,0.002678,0.000431,0.582352
132997000,0.0324,0.013523,0.002678,0.000431,0.344710
132998000,0.0324,0.013523,0.002678,0.000431,0.255271
132999000,0.0324,0.013523,0.002678,0.000431,0.219308
