Cycle,Area(mm^2),PeakDynamic(W),SubthresholdLeakage(W),GateLeakage(W),RunTimeDynamic(W)
36000000,0.0324,0.013523,0.002678,0.000431,0.000823
36001000,0.0324,0.013523,0.002678,0.000431,0.000823
36002000,0.0324,0.013523,0.002678,0.000431,0.000940
36003000,0.0324,0.013523,0.002678,0.000431,0.000705
36004000,0.0324,0.013523,0.002678,0.000431,0.000940
36005000,0.0324,0.013523,0.002678,0.000431,0.000823
36006000,0.0324,0.013523,0.002678,0.000431,0.000823
36007000,0.0324,0.013523,0.002678,0.000431,0.072045
36008000,0.0324,0.013523,0.002678,0.000431,0.708107
36009000,0.0324,0.013523,0.002678,0.000431,0.566956
36010000,0.0324,0.013523,0.002678,0.000431,0.160543
36011000,0.0324,0.013523,0.002678,0.000431,0.153022
36012000,0.0324,0.013523,0.002678,0.000431,0.623252
36013000,0.0324,0.013523,0.002678,0.000431,0.265144
36014000,0.0324,0.013523,0.002678,0.000431,0.262205
36015000,0.0324,0.013523,0.002678,0.000431,0.245869
36016000,0.0324,0.013523,0.002678,0.000431,0.141386
36017000,0.0324,0.013523,0.002678,0.000431,0.152317
36018000,0.0324,0.013523,0.002678,0.000431,0.205557
36019000,0.0324,0.013523,0.002678,0.000431,0.458007
36020000,0.0324,0.013523,0.002678,0.000431,0.198623
36021000,0.0324,0.013523,0.002678,0.000431,0.157723
36022000,0.0324,0.013523,0.002678,0.000431,0.141386
36023000,0.0324,0.013523,0.002678,0.000431,0.129516
36024000,0.0324,0.013523,0.002678,0.000431,0.103190
36025000,0.0324,0.013523,0.002678,0.000431,0.094140
36026000,0.0324,0.013523,0.002678,0.000431,0.081212
36027000,0.0324,0.013523,0.002678,0.000431,0.071692
36028000,0.0324,0.013523,0.002678,0.000431,0.067814
36029000,0.0324,0.013523,0.002678,0.000431,0.041840
36030000,0.0324,0.013523,0.002678,0.000431,0.043015
36031000,0.0324,0.013523,0.002678,0.000431,0.048892
36032000,0.0324,0.013523,0.002678,0.000431,0.026796
36033000,0.0324,0.013523,0.002678,0.000431,0.035846
36034000,0.0324,0.013523,0.002678,0.000431,0.030557
36035000,0.0324,0.013523,0.002678,0.000431,0.026091
36036000,0.0324,0.013523,0.002678,0.000431,0.012576
36037000,0.0324,0.013523,0.002678,0.000431,0.016101
36038000,0.0324,0.013523,0.002678,0.000431,0.013986
36039000,0.0324,0.013523,0.002678,0.000431,0.006347
36040000,0.0324,0.013523,0.002678,0.000431,0.008345
36041000,0.0324,0.013523,0.002678,0.000431,0.008462
36042000,0.0324,0.013523,0.002678,0.000431,0.006934
36043000,0.0324,0.013523,0.002678,0.000431,0.005759
36044000,0.0324,0.013523,0.002678,0.000431,0.004701
36045000,0.0324,0.013523,0.002678,0.000431,0.004349
36046000,0.0324,0.013523,0.002678,0.000431,0.002351
36047000,0.0324,0.013523,0.002678,0.000431,0.002821
36048000,0.0324,0.013523,0.002678,0.000431,0.004466
36049000,0.0324,0.013523,0.002678,0.000431,0.001880
36050000,0.0324,0.013523,0.002678,0.000431,0.001645
36051000,0.0324,0.013523,0.002678,0.000431,0.001645
36052000,0.0324,0.013523,0.002678,0.000431,0.001645
36053000,0.0324,0.013523,0.002678,0.000431,0.003761
36054000,0.0324,0.013523,0.002678,0.000431,0.001058
36055000,0.0324,0.013523,0.002678,0.000431,0.000705
36056000,0.0324,0.013523,0.002678,0.000431,0.230473
36057000,0.0324,0.013523,0.002678,0.000431,0.620549
36058000,0.0324,0.013523,0.002678,0.000431,0.525116
36059000,0.0324,0.013523,0.002678,0.000431,0.142797
36060000,0.0324,0.013523,0.002678,0.000431,0.148438
36061000,0.0324,0.013523,0.002678,0.000431,0.637590
36062000,0.0324,0.013523,0.002678,0.000431,0.260442
36063000,0.0324,0.013523,0.002678,0.000431,0.286886
36064000,0.0324,0.013523,0.002678,0.000431,0.232823
36065000,0.0324,0.013523,0.002678,0.000431,0.144090
36066000,0.0324,0.013523,0.002678,0.000431,0.127048
36067000,0.0324,0.013523,0.002678,0.000431,0.308982
36068000,0.0324,0.013523,0.002678,0.000431,0.395835
36069000,0.0324,0.013523,0.002678,0.000431,0.170886
36070000,0.0324,0.013523,0.002678,0.000431,0.158428
36071000,0.0324,0.013523,0.002678,0.000431,0.125285
36072000,0.0324,0.013523,0.002678,0.000431,0.114590
36073000,0.0324,0.013523,0.002678,0.000431,0.091202
36074000,0.0324,0.013523,0.002678,0.000431,0.075571
36075000,0.0324,0.013523,0.002678,0.000431,0.068989
36076000,0.0324,0.013523,0.002678,0.000431,0.059234
36077000,0.0324,0.013523,0.002678,0.000431,0.046189
36078000,0.0324,0.013523,0.002678,0.000431,0.035258
36079000,0.0324,0.013523,0.002678,0.000431,0.032790
36080000,0.0324,0.013523,0.002678,0.000431,0.029970
36081000,0.0324,0.013523,0.002678,0.000431,0.028559
36082000,0.0324,0.013523,0.002678,0.000431,0.019980
36083000,0.0324,0.013523,0.002678,0.000431,0.017512
36084000,0.0324,0.013523,0.002678,0.000431,0.012928
36085000,0.0324,0.013523,0.002678,0.000431,0.019157
36086000,0.0324,0.013523,0.002678,0.000431,0.010342
36087000,0.0324,0.013523,0.002678,0.000431,0.009755
36088000,0.0324,0.013523,0.002678,0.000431,0.008580
36089000,0.0324,0.013523,0.002678,0.000431,0.009167
36090000,0.0324,0.013523,0.002678,0.000431,0.006229
36091000,0.0324,0.013523,0.002678,0.000431,0.008580
36092000,0.0324,0.013523,0.002678,0.000431,0.003878
36093000,0.0324,0.013523,0.002678,0.000431,0.004466
36094000,0.0324,0.013523,0.002678,0.000431,0.007757
36095000,0.0324,0.013523,0.002678,0.000431,0.005054
36096000,0.0324,0.013523,0.002678,0.000431,0.001645
36097000,0.0324,0.013523,0.002678,0.000431,0.001528
36098000,0.0324,0.013523,0.002678,0.000431,0.001763
36099000,0.0324,0.013523,0.002678,0.000431,0.001645
36100000,0.0324,0.013523,0.002678,0.000431,0.001763
36101000,0.0324,0.013523,0.002678,0.000431,0.001645
36102000,0.0324,0.013523,0.002678,0.000431,0.001645
36103000,0.0324,0.013523,0.002678,0.000431,0.001645
36104000,0.0324,0.013523,0.002678,0.000431,0.001763
36105000,0.0324,0.013523,0.002678,0.000431,0.001528
36106000,0.0324,0.013523,0.002678,0.000431,0.001763
36107000,0.0324,0.013523,0.002678,0.000431,0.001645
36108000,0.0324,0.013523,0.002678,0.000431,0.001645
36109000,0.0324,0.013523,0.002678,0.000431,0.001880
36110000,0.0324,0.013523,0.002678,0.000431,0.001528
36111000,0.0324,0.013523,0.002678,0.000431,0.001763
36112000,0.0324,0.013523,0.002678,0.000431,0.001410
36113000,0.0324,0.013523,0.002678,0.000431,0.001880
36114000,0.0324,0.013523,0.002678,0.000431,0.001763
36115000,0.0324,0.013523,0.002678,0.000431,0.001528
36116000,0.0324,0.013523,0.002678,0.000431,0.001763
36117000,0.0324,0.013523,0.002678,0.000431,0.001528
36118000,0.0324,0.013523,0.002678,0.000431,0.002116
36119000,0.0324,0.013523,0.002678,0.000431,0.001528
36120000,0.0324,0.013523,0.002678,0.000431,0.001763
36121000,0.0324,0.013523,0.002678,0.000431,0.001880
36122000,0.0324,0.013523,0.002678,0.000431,0.001528
36123000,0.0324,0.013523,0.002678,0.000431,0.001763
36124000,0.0324,0.013523,0.002678,0.000431,0.001763
36125000,0.0324,0.013523,0.002678,0.000431,0.001763
36126000,0.0324,0.013523,0.002678,0.000431,0.001645
36127000,0.0324,0.013523,0.002678,0.000431,0.001645
36128000,0.0324,0.013523,0.002678,0.000431,0.001763
36129000,0.0324,0.013523,0.002678,0.000431,0.001645
36130000,0.0324,0.013523,0.002678,0.000431,0.001763
36131000,0.0324,0.013523,0.002678,0.000431,0.001645
36132000,0.0324,0.013523,0.002678,0.000431,0.001763
36133000,0.0324,0.013523,0.002678,0.000431,0.001645
36134000,0.0324,0.013523,0.002678,0.000431,0.001763
36135000,0.0324,0.013523,0.002678,0.000431,0.003056
36136000,0.0324,0.013523,0.002678,0.000431,0.002468
36137000,0.0324,0.013523,0.002678,0.000431,0.000705
36138000,0.0324,0.013523,0.002678,0.000431,0.000940
36139000,0.0324,0.013523,0.002678,0.000431,0.000940
36140000,0.0324,0.013523,0.002678,0.000431,0.000705
36141000,0.0324,0.013523,0.002678,0.000431,0.000940
36142000,0.0324,0.013523,0.002678,0.000431,0.000705
36143000,0.0324,0.013523,0.002678,0.000431,0.000940
36144000,0.0324,0.013523,0.002678,0.000431,0.000823
36145000,0.0324,0.013523,0.002678,0.000431,0.000823
36146000,0.0324,0.013523,0.002678,0.000431,0.000940
36147000,0.0324,0.013523,0.002678,0.000431,0.000705
36148000,0.0324,0.013523,0.002678,0.000431,0.000940
36149000,0.0324,0.013523,0.002678,0.000431,0.000823
36150000,0.0324,0.013523,0.002678,0.000431,0.000823
36151000,0.0324,0.013523,0.002678,0.000431,0.000823
36152000,0.0324,0.013523,0.002678,0.000431,0.001645
36153000,0.0324,0.013523,0.002678,0.000431,0.475519
36154000,0.0324,0.013523,0.002678,0.000431,0.697412
36155000,0.0324,0.013523,0.002678,0.000431,0.235409
36156000,0.0324,0.013523,0.002678,0.000431,0.136098
36157000,0.0324,0.013523,0.002678,0.000431,0.222363
36158000,0.0324,0.013523,0.002678,0.000431,0.555908
36159000,0.0324,0.013523,0.002678,0.000431,0.275721
36160000,0.0324,0.013523,0.002678,0.000431,0.295348
36161000,0.0324,0.013523,0.002678,0.000431,0.179936
36162000,0.0324,0.013523,0.002678,0.000431,0.152787
36163000,0.0324,0.013523,0.002678,0.000431,0.124697
36164000,0.0324,0.013523,0.002678,0.000431,0.317326
36165000,0.0324,0.013523,0.002678,0.000431,0.382319
36166000,0.0324,0.013523,0.002678,0.000431,0.170651
36167000,0.0324,0.013523,0.002678,0.000431,0.140564
36168000,0.0324,0.013523,0.002678,0.000431,0.122817
36169000,0.0324,0.013523,0.002678,0.000431,0.123052
36170000,0.0324,0.013523,0.002678,0.000431,0.095080
36171000,0.0324,0.013523,0.002678,0.000431,0.092847
36172000,0.0324,0.013523,0.002678,0.000431,0.078156
36173000,0.0324,0.013523,0.002678,0.000431,0.069694
36174000,0.0324,0.013523,0.002678,0.000431,0.051360
36175000,0.0324,0.013523,0.002678,0.000431,0.051947
36176000,0.0324,0.013523,0.002678,0.000431,0.041135
36177000,0.0324,0.013523,0.002678,0.000431,0.049362
36178000,0.0324,0.013523,0.002678,0.000431,0.032555
36179000,0.0324,0.013523,0.002678,0.000431,0.028442
36180000,0.0324,0.013523,0.002678,0.000431,0.028324
36181000,0.0324,0.013523,0.002678,0.000431,0.021743
36182000,0.0324,0.013523,0.002678,0.000431,0.016454
36183000,0.0324,0.013523,0.002678,0.000431,0.018334
36184000,0.0324,0.013523,0.002678,0.000431,0.015749
36185000,0.0324,0.013523,0.002678,0.000431,0.011753
36186000,0.0324,0.013523,0.002678,0.000431,0.010342
36187000,0.0324,0.013523,0.002678,0.000431,0.010695
36188000,0.0324,0.013523,0.002678,0.000431,0.009872
36189000,0.0324,0.013523,0.002678,0.000431,0.010695
36190000,0.0324,0.013523,0.002678,0.000431,0.009872
36191000,0.0324,0.013523,0.002678,0.000431,0.009167
36192000,0.0324,0.013523,0.002678,0.000431,0.007874
36193000,0.0324,0.013523,0.002678,0.000431,0.008815
36194000,0.0324,0.013523,0.002678,0.000431,0.005171
36195000,0.0324,0.013523,0.002678,0.000431,0.004936
36196000,0.0324,0.013523,0.002678,0.000431,0.005054
36197000,0.0324,0.013523,0.002678,0.000431,0.006934
36198000,0.0324,0.013523,0.002678,0.000431,0.005524
36199000,0.0324,0.013523,0.002678,0.000431,0.005171
36200000,0.0324,0.013523,0.002678,0.000431,0.003526
36201000,0.0324,0.013523,0.002678,0.000431,0.003291
36202000,0.0324,0.013523,0.002678,0.000431,0.005759
36203000,0.0324,0.013523,0.002678,0.000431,0.002586
36204000,0.0324,0.013523,0.002678,0.000431,0.002351
36205000,0.0324,0.013523,0.002678,0.000431,0.002468
36206000,0.0324,0.013523,0.002678,0.000431,0.005171
36207000,0.0324,0.013523,0.002678,0.000431,0.001763
36208000,0.0324,0.013523,0.002678,0.000431,0.001645
36209000,0.0324,0.013523,0.002678,0.000431,0.001763
36210000,0.0324,0.013523,0.002678,0.000431,0.001528
36211000,0.0324,0.013523,0.002678,0.000431,0.001880
36212000,0.0324,0.013523,0.002678,0.000431,0.001528
36213000,0.0324,0.013523,0.002678,0.000431,0.001763
36214000,0.0324,0.013523,0.002678,0.000431,0.001645
36215000,0.0324,0.013523,0.002678,0.000431,0.001645
36216000,0.0324,0.013523,0.002678,0.000431,0.001880
36217000,0.0324,0.013523,0.002678,0.000431,0.001528
36218000,0.0324,0.013523,0.002678,0.000431,0.001763
36219000,0.0324,0.013523,0.002678,0.000431,0.001763
36220000,0.0324,0.013523,0.002678,0.000431,0.001528
36221000,0.0324,0.013523,0.002678,0.000431,0.001763
36222000,0.0324,0.013523,0.002678,0.000431,0.001645
36223000,0.0324,0.013523,0.002678,0.000431,0.001645
36224000,0.0324,0.013523,0.002678,0.000431,0.001763
36225000,0.0324,0.013523,0.002678,0.000431,0.001528
36226000,0.0324,0.013523,0.002678,0.000431,0.001763
36227000,0.0324,0.013523,0.002678,0.000431,0.001880
36228000,0.0324,0.013523,0.002678,0.000431,0.001410
36229000,0.0324,0.013523,0.002678,0.000431,0.001880
36230000,0.0324,0.013523,0.002678,0.000431,0.001528
36231000,0.0324,0.013523,0.002678,0.000431,0.001763
36232000,0.0324,0.013523,0.002678,0.000431,0.001763
36233000,0.0324,0.013523,0.002678,0.000431,0.001528
36234000,0.0324,0.013523,0.002678,0.000431,0.001645
36235000,0.0324,0.013523,0.002678,0.000431,0.001528
36236000,0.0324,0.013523,0.002678,0.000431,0.001763
36237000,0.0324,0.013523,0.002678,0.000431,0.001645
36238000,0.0324,0.013523,0.002678,0.000431,0.001410
36239000,0.0324,0.013523,0.002678,0.000431,0.001645
36240000,0.0324,0.013523,0.002678,0.000431,0.001528
36241000,0.0324,0.013523,0.002678,0.000431,0.001528
36242000,0.0324,0.013523,0.002678,0.000431,0.001645
36243000,0.0324,0.013523,0.002678,0.000431,0.001645
36244000,0.0324,0.013523,0.002678,0.000431,0.004584
36245000,0.0324,0.013523,0.002678,0.000431,0.476342
36246000,0.0324,0.013523,0.002678,0.000431,0.761348
36247000,0.0324,0.013523,0.002678,0.000431,0.163952
36248000,0.0324,0.013523,0.002678,0.000431,0.134100
36249000,0.0324,0.013523,0.002678,0.000431,0.144912
36250000,0.0324,0.013523,0.002678,0.000431,0.581177
36251000,0.0324,0.013523,0.002678,0.000431,0.252921
36252000,0.0324,0.013523,0.002678,0.000431,0.267847
36253000,0.0324,0.013523,0.002678,0.000431,0.230590
36254000,0.0324,0.013523,0.002678,0.000431,0.140211
36255000,0.0324,0.013523,0.002678,0.000431,0.180053
36256000,0.0324,0.013523,0.002678,0.000431,0.102250
36257000,0.0324,0.013523,0.002678,0.000431,0.497497
36258000,0.0324,0.013523,0.002678,0.000431,0.186282
36259000,0.0324,0.013523,0.002678,0.000431,0.135980
36260000,0.0324,0.013523,0.002678,0.000431,0.117881
36261000,0.0324,0.013523,0.002678,0.000431,0.094728
36262000,0.0324,0.013523,0.002678,0.000431,0.087088
36263000,0.0324,0.013523,0.002678,0.000431,0.083798
36264000,0.0324,0.013523,0.002678,0.000431,0.080859
36265000,0.0324,0.013523,0.002678,0.000431,0.061467
36266000,0.0324,0.013523,0.002678,0.000431,0.055591
36267000,0.0324,0.013523,0.002678,0.000431,0.040195
36268000,0.0324,0.013523,0.002678,0.000431,0.041840
36269000,0.0324,0.013523,0.002678,0.000431,0.031850
36270000,0.0324,0.013523,0.002678,0.000431,0.027972
36271000,0.0324,0.013523,0.002678,0.000431,0.028559
36272000,0.0324,0.013523,0.002678,0.000431,0.027502
36273000,0.0324,0.013523,0.002678,0.000431,0.022330
36274000,0.0324,0.013523,0.002678,0.000431,0.023153
36275000,0.0324,0.013523,0.002678,0.000431,0.019980
36276000,0.0324,0.013523,0.002678,0.000431,0.015396
36277000,0.0324,0.013523,0.002678,0.000431,0.016454
36278000,0.0324,0.013523,0.002678,0.000431,0.014691
36279000,0.0324,0.013523,0.002678,0.000431,0.012576
36280000,0.0324,0.013523,0.002678,0.000431,0.011870
36281000,0.0324,0.013523,0.002678,0.000431,0.011048
36282000,0.0324,0.013523,0.002678,0.000431,0.010107
36283000,0.0324,0.013523,0.002678,0.000431,0.007757
36284000,0.0324,0.013523,0.002678,0.000431,0.009755
36285000,0.0324,0.013523,0.002678,0.000431,0.006229
36286000,0.0324,0.013523,0.002678,0.000431,0.005524
36287000,0.0324,0.013523,0.002678,0.000431,0.007522
36288000,0.0324,0.013523,0.002678,0.000431,0.006817
36289000,0.0324,0.013523,0.002678,0.000431,0.004231
36290000,0.0324,0.013523,0.002678,0.000431,0.006464
36291000,0.0324,0.013523,0.002678,0.000431,0.005171
36292000,0.0324,0.013523,0.002678,0.000431,0.002351
36293000,0.0324,0.013523,0.002678,0.000431,0.002703
36294000,0.0324,0.013523,0.002678,0.000431,0.002233
36295000,0.0324,0.013523,0.002678,0.000431,0.005289
36296000,0.0324,0.013523,0.002678,0.000431,0.001645
36297000,0.0324,0.013523,0.002678,0.000431,0.001528
36298000,0.0324,0.013523,0.002678,0.000431,0.001880
36299000,0.0324,0.013523,0.002678,0.000431,0.001528
36300000,0.0324,0.013523,0.002678,0.000431,0.001880
36301000,0.0324,0.013523,0.002678,0.000431,0.001645
36302000,0.0324,0.013523,0.002678,0.000431,0.003761
36303000,0.0324,0.013523,0.002678,0.000431,0.001058
36304000,0.0324,0.013523,0.002678,0.000431,0.000705
36305000,0.0324,0.013523,0.002678,0.000431,0.000940
36306000,0.0324,0.013523,0.002678,0.000431,0.000823
36307000,0.0324,0.013523,0.002678,0.000431,0.000823
36308000,0.0324,0.013523,0.002678,0.000431,0.000823
36309000,0.0324,0.013523,0.002678,0.000431,0.000823
36310000,0.0324,0.013523,0.002678,0.000431,0.226829
36311000,0.0324,0.013523,0.002678,0.000431,0.603625
36312000,0.0324,0.013523,0.002678,0.000431,0.505254
36313000,0.0324,0.013523,0.002678,0.000431,0.137861
36314000,0.0324,0.013523,0.002678,0.000431,0.133512
36315000,0.0324,0.013523,0.002678,0.000431,0.611734
36316000,0.0324,0.013523,0.002678,0.000431,0.235056
36317000,0.0324,0.013523,0.002678,0.000431,0.326846
36318000,0.0324,0.013523,0.002678,0.000431,0.243518
36319000,0.0324,0.013523,0.002678,0.000431,0.147263
36320000,0.0324,0.013523,0.002678,0.000431,0.153257
36321000,0.0324,0.013523,0.002678,0.000431,0.151729
36322000,0.0324,0.013523,0.002678,0.000431,0.488682
36323000,0.0324,0.013523,0.002678,0.000431,0.165010
36324000,0.0324,0.013523,0.002678,0.000431,0.136333
36325000,0.0324,0.013523,0.002678,0.000431,0.127871
36326000,0.0324,0.013523,0.002678,0.000431,0.117176
36327000,0.0324,0.013523,0.002678,0.000431,0.095315
36328000,0.0324,0.013523,0.002678,0.000431,0.085090
36329000,0.0324,0.013523,0.002678,0.000431,0.078274
36330000,0.0324,0.013523,0.002678,0.000431,0.054886
36331000,0.0324,0.013523,0.002678,0.000431,0.061937
36332000,0.0324,0.013523,0.002678,0.000431,0.045366
36333000,0.0324,0.013523,0.002678,0.000431,0.042193
36334000,0.0324,0.013523,0.002678,0.000431,0.044191
36335000,0.0324,0.013523,0.002678,0.000431,0.030440
36336000,0.0324,0.013523,0.002678,0.000431,0.030792
36337000,0.0324,0.013523,0.002678,0.000431,0.033025
36338000,0.0324,0.013523,0.002678,0.000431,0.026091
36339000,0.0324,0.013523,0.002678,0.000431,0.022213
36340000,0.0324,0.013523,0.002678,0.000431,0.019275
36341000,0.0324,0.013523,0.002678,0.000431,0.017982
36342000,0.0324,0.013523,0.002678,0.000431,0.016924
36343000,0.0324,0.013523,0.002678,0.000431,0.017394
36344000,0.0324,0.013523,0.002678,0.000431,0.014456
36345000,0.0324,0.013523,0.002678,0.000431,0.014809
36346000,0.0324,0.013523,0.002678,0.000431,0.016689
36347000,0.0324,0.013523,0.002678,0.000431,0.014456
36348000,0.0324,0.013523,0.002678,0.000431,0.012458
36349000,0.0324,0.013523,0.002678,0.000431,0.011400
36350000,0.0324,0.013523,0.002678,0.000431,0.010578
36351000,0.0324,0.013523,0.002678,0.000431,0.008462
36352000,0.0324,0.013523,0.002678,0.000431,0.010107
36353000,0.0324,0.013523,0.002678,0.000431,0.008697
36354000,0.0324,0.013523,0.002678,0.000431,0.006817
36355000,0.0324,0.013523,0.002678,0.000431,0.006582
36356000,0.0324,0.013523,0.002678,0.000431,0.007757
36357000,0.0324,0.013523,0.002678,0.000431,0.008697
36358000,0.0324,0.013523,0.002678,0.000431,0.006817
36359000,0.0324,0.013523,0.002678,0.000431,0.005759
36360000,0.0324,0.013523,0.002678,0.000431,0.004584
36361000,0.0324,0.013523,0.002678,0.000431,0.004466
36362000,0.0324,0.013523,0.002678,0.000431,0.004231
36363000,0.0324,0.013523,0.002678,0.000431,0.003996
36364000,0.0324,0.013523,0.002678,0.000431,0.005994
36365000,0.0324,0.013523,0.002678,0.000431,0.003526
36366000,0.0324,0.013523,0.002678,0.000431,0.003173
36367000,0.0324,0.013523,0.002678,0.000431,0.002233
36368000,0.0324,0.013523,0.002678,0.000431,0.002468
36369000,0.0324,0.013523,0.002678,0.000431,0.002586
36370000,0.0324,0.013523,0.002678,0.000431,0.002586
36371000,0.0324,0.013523,0.002678,0.000431,0.002351
36372000,0.0324,0.013523,0.002678,0.000431,0.002586
36373000,0.0324,0.013523,0.002678,0.000431,0.002821
36374000,0.0324,0.013523,0.002678,0.000431,0.002351
36375000,0.0324,0.013523,0.002678,0.000431,0.002351
36376000,0.0324,0.013523,0.002678,0.000431,0.002703
36377000,0.0324,0.013523,0.002678,0.000431,0.002586
36378000,0.0324,0.013523,0.002678,0.000431,0.002351
36379000,0.0324,0.013523,0.002678,0.000431,0.002468
36380000,0.0324,0.013523,0.002678,0.000431,0.002821
36381000,0.0324,0.013523,0.002678,0.000431,0.002351
36382000,0.0324,0.013523,0.002678,0.000431,0.002468
36383000,0.0324,0.013523,0.002678,0.000431,0.002703
36384000,0.0324,0.013523,0.002678,0.000431,0.002586
36385000,0.0324,0.013523,0.002678,0.000431,0.002351
36386000,0.0324,0.013523,0.002678,0.000431,0.002586
36387000,0.0324,0.013523,0.002678,0.000431,0.002703
36388000,0.0324,0.013523,0.002678,0.000431,0.002468
36389000,0.0324,0.013523,0.002678,0.000431,0.002233
36390000,0.0324,0.013523,0.002678,0.000431,0.002703
36391000,0.0324,0.013523,0.002678,0.000431,0.002468
36392000,0.0324,0.013523,0.002678,0.000431,0.002468
36393000,0.0324,0.013523,0.002678,0.000431,0.002586
36394000,0.0324,0.013523,0.002678,0.000431,0.002468
36395000,0.0324,0.013523,0.002678,0.000431,0.002586
36396000,0.0324,0.013523,0.002678,0.000431,0.002468
36397000,0.0324,0.013523,0.002678,0.000431,0.002586
36398000,0.0324,0.013523,0.002678,0.000431,0.002468
36399000,0.0324,0.013523,0.002678,0.000431,0.002586
36400000,0.0324,0.013523,0.002678,0.000431,0.002468
36401000,0.0324,0.013523,0.002678,0.000431,0.002586
36402000,0.0324,0.013523,0.002678,0.000431,0.002468
36403000,0.0324,0.013523,0.002678,0.000431,0.002586
36404000,0.0324,0.013523,0.002678,0.000431,0.002351
36405000,0.0324,0.013523,0.002678,0.000431,0.002703
36406000,0.0324,0.013523,0.002678,0.000431,0.002586
36407000,0.0324,0.013523,0.002678,0.000431,0.002351
36408000,0.0324,0.013523,0.002678,0.000431,0.002586
36409000,0.0324,0.013523,0.002678,0.000431,0.002586
36410000,0.0324,0.013523,0.002678,0.000431,0.002703
36411000,0.0324,0.013523,0.002678,0.000431,0.002233
36412000,0.0324,0.013523,0.002678,0.000431,0.002468
36413000,0.0324,0.013523,0.002678,0.000431,0.002703
36414000,0.0324,0.013523,0.002678,0.000431,0.004349
36415000,0.0324,0.013523,0.002678,0.000431,0.001645
36416000,0.0324,0.013523,0.002678,0.000431,0.001763
36417000,0.0324,0.013523,0.002678,0.000431,0.001763
36418000,0.0324,0.013523,0.002678,0.000431,0.001410
36419000,0.0324,0.013523,0.002678,0.000431,0.001528
36420000,0.0324,0.013523,0.002678,0.000431,0.000940
36421000,0.0324,0.013523,0.002678,0.000431,0.000823
36422000,0.0324,0.013523,0.002678,0.000431,0.000823
36423000,0.0324,0.013523,0.002678,0.000431,0.000940
36424000,0.0324,0.013523,0.002678,0.000431,0.000705
36425000,0.0324,0.013523,0.002678,0.000431,0.000940
36426000,0.0324,0.013523,0.002678,0.000431,0.000823
36427000,0.0324,0.013523,0.002678,0.000431,0.014809
36428000,0.0324,0.013523,0.002678,0.000431,0.665327
36429000,0.0324,0.013523,0.002678,0.000431,0.603860
36430000,0.0324,0.013523,0.002678,0.000431,0.138448
36431000,0.0324,0.013523,0.002678,0.000431,0.133747
36432000,0.0324,0.013523,0.002678,0.000431,0.559552
36433000,0.0324,0.013523,0.002678,0.000431,0.279247
36434000,0.0324,0.013523,0.002678,0.000431,0.247279
36435000,0.0324,0.013523,0.002678,0.000431,0.328139
36436000,0.0324,0.013523,0.002678,0.000431,0.146440
36437000,0.0324,0.013523,0.002678,0.000431,0.165480
36438000,0.0324,0.013523,0.002678,0.000431,0.140211
36439000,0.0324,0.013523,0.002678,0.000431,0.518064
36440000,0.0324,0.013523,0.002678,0.000431,0.245399
36441000,0.0324,0.013523,0.002678,0.000431,0.184754
36442000,0.0324,0.013523,0.002678,0.000431,0.171591
36443000,0.0324,0.013523,0.002678,0.000431,0.143854
36444000,0.0324,0.013523,0.002678,0.000431,0.123287
36445000,0.0324,0.013523,0.002678,0.000431,0.106716
36446000,0.0324,0.013523,0.002678,0.000431,0.094610
36447000,0.0324,0.013523,0.002678,0.000431,0.079919
36448000,0.0324,0.013523,0.002678,0.000431,0.070752
36449000,0.0324,0.013523,0.002678,0.000431,0.062760
36450000,0.0324,0.013523,0.002678,0.000431,0.054298
36451000,0.0324,0.013523,0.002678,0.000431,0.057001
36452000,0.0324,0.013523,0.002678,0.000431,0.038314
36453000,0.0324,0.013523,0.002678,0.000431,0.046894
36454000,0.0324,0.013523,0.002678,0.000431,0.031380
36455000,0.0324,0.013523,0.002678,0.000431,0.028089
36456000,0.0324,0.013523,0.002678,0.000431,0.028207
36457000,0.0324,0.013523,0.002678,0.000431,0.024328
36458000,0.0324,0.013523,0.002678,0.000431,0.021860
36459000,0.0324,0.013523,0.002678,0.000431,0.021743
36460000,0.0324,0.013523,0.002678,0.000431,0.020097
36461000,0.0324,0.013523,0.002678,0.000431,0.010342
36462000,0.0324,0.013523,0.002678,0.000431,0.006111
36463000,0.0324,0.013523,0.002678,0.000431,0.005876
36464000,0.0324,0.013523,0.002678,0.000431,0.007287
36465000,0.0324,0.013523,0.002678,0.000431,0.006111
36466000,0.0324,0.013523,0.002678,0.000431,0.005641
36467000,0.0324,0.013523,0.002678,0.000431,0.002233
36468000,0.0324,0.013523,0.002678,0.000431,0.002703
36469000,0.0324,0.013523,0.002678,0.000431,0.002351
36470000,0.0324,0.013523,0.002678,0.000431,0.002703
36471000,0.0324,0.013523,0.002678,0.000431,0.006347
36472000,0.0324,0.013523,0.002678,0.000431,0.002703
36473000,0.0324,0.013523,0.002678,0.000431,0.477752
36474000,0.0324,0.013523,0.002678,0.000431,0.736432
36475000,0.0324,0.013523,0.002678,0.000431,0.242108
36476000,0.0324,0.013523,0.002678,0.000431,0.133982
36477000,0.0324,0.013523,0.002678,0.000431,0.213784
36478000,0.0324,0.013523,0.002678,0.000431,0.553910
36479000,0.0324,0.013523,0.002678,0.000431,0.240228
36480000,0.0324,0.013523,0.002678,0.000431,0.351057
36481000,0.0324,0.013523,0.002678,0.000431,0.173237
36482000,0.0324,0.013523,0.002678,0.000431,0.149261
36483000,0.0324,0.013523,0.002678,0.000431,0.109184
36484000,0.0324,0.013523,0.002678,0.000431,0.414757
36485000,0.0324,0.013523,0.002678,0.000431,0.349294
36486000,0.0324,0.013523,0.002678,0.000431,0.195332
36487000,0.0324,0.013523,0.002678,0.000431,0.154197
36488000,0.0324,0.013523,0.002678,0.000431,0.139741
36489000,0.0324,0.013523,0.002678,0.000431,0.117293
36490000,0.0324,0.013523,0.002678,0.000431,0.104835
36491000,0.0324,0.013523,0.002678,0.000431,0.090614
36492000,0.0324,0.013523,0.002678,0.000431,0.072162
36493000,0.0324,0.013523,0.002678,0.000431,0.074278
36494000,0.0324,0.013523,0.002678,0.000431,0.062878
36495000,0.0324,0.013523,0.002678,0.000431,0.052888
36496000,0.0324,0.013523,0.002678,0.000431,0.040430
36497000,0.0324,0.013523,0.002678,0.000431,0.047246
36498000,0.0324,0.013523,0.002678,0.000431,0.034553
36499000,0.0324,0.013523,0.002678,0.000431,0.030322
36500000,0.0324,0.013523,0.002678,0.000431,0.029852
36501000,0.0324,0.013523,0.002678,0.000431,0.033260
36502000,0.0324,0.013523,0.002678,0.000431,0.022213
36503000,0.0324,0.013523,0.002678,0.000431,0.015044
36504000,0.0324,0.013523,0.002678,0.000431,0.015631
36505000,0.0324,0.013523,0.002678,0.000431,0.009637
36506000,0.0324,0.013523,0.002678,0.000431,0.008109
36507000,0.0324,0.013523,0.002678,0.000431,0.009520
36508000,0.0324,0.013523,0.002678,0.000431,0.011283
36509000,0.0324,0.013523,0.002678,0.000431,0.007052
36510000,0.0324,0.013523,0.002678,0.000431,0.004819
36511000,0.0324,0.013523,0.002678,0.000431,0.010225
36512000,0.0324,0.013523,0.002678,0.000431,0.003291
36513000,0.0324,0.013523,0.002678,0.000431,0.003291
36514000,0.0324,0.013523,0.002678,0.000431,0.004819
36515000,0.0324,0.013523,0.002678,0.000431,0.005171
36516000,0.0324,0.013523,0.002678,0.000431,0.000940
36517000,0.0324,0.013523,0.002678,0.000431,0.000940
36518000,0.0324,0.013523,0.002678,0.000431,0.211551
36519000,0.0324,0.013523,0.002678,0.000431,0.647698
36520000,0.0324,0.013523,0.002678,0.000431,0.536986
36521000,0.0324,0.013523,0.002678,0.000431,0.142914
36522000,0.0324,0.013523,0.002678,0.000431,0.146088
36523000,0.0324,0.013523,0.002678,0.000431,0.642056
36524000,0.0324,0.013523,0.002678,0.000431,0.241285
36525000,0.0324,0.013523,0.002678,0.000431,0.262323
36526000,0.0324,0.013523,0.002678,0.000431,0.237172
36527000,0.0324,0.013523,0.002678,0.000431,0.150319
36528000,0.0324,0.013523,0.002678,0.000431,0.152434
36529000,0.0324,0.013523,0.002678,0.000431,0.190983
36530000,0.0324,0.013523,0.002678,0.000431,0.453894
36531000,0.0324,0.013523,0.002678,0.000431,0.174294
36532000,0.0324,0.013523,0.002678,0.000431,0.147850
36533000,0.0324,0.013523,0.002678,0.000431,0.134570
36534000,0.0324,0.013523,0.002678,0.000431,0.109419
36535000,0.0324,0.013523,0.002678,0.000431,0.096491
36536000,0.0324,0.013523,0.002678,0.000431,0.082622
36537000,0.0324,0.013523,0.002678,0.000431,0.063818
36538000,0.0324,0.013523,0.002678,0.000431,0.058999
36539000,0.0324,0.013523,0.002678,0.000431,0.057354
36540000,0.0324,0.013523,0.002678,0.000431,0.049714
36541000,0.0324,0.013523,0.002678,0.000431,0.045131
36542000,0.0324,0.013523,0.002678,0.000431,0.040782
36543000,0.0324,0.013523,0.002678,0.000431,0.031733
36544000,0.0324,0.013523,0.002678,0.000431,0.030675
36545000,0.0324,0.013523,0.002678,0.000431,0.026444
36546000,0.0324,0.013523,0.002678,0.000431,0.021860
36547000,0.0324,0.013523,0.002678,0.000431,0.021625
36548000,0.0324,0.013523,0.002678,0.000431,0.011988
36549000,0.0324,0.013523,0.002678,0.000431,0.013986
36550000,0.0324,0.013523,0.002678,0.000431,0.009402
36551000,0.0324,0.013523,0.002678,0.000431,0.008697
36552000,0.0324,0.013523,0.002678,0.000431,0.007287
36553000,0.0324,0.013523,0.002678,0.000431,0.003996
36554000,0.0324,0.013523,0.002678,0.000431,0.004466
36555000,0.0324,0.013523,0.002678,0.000431,0.004466
36556000,0.0324,0.013523,0.002678,0.000431,0.004349
36557000,0.0324,0.013523,0.002678,0.000431,0.006229
36558000,0.0324,0.013523,0.002678,0.000431,0.004701
36559000,0.0324,0.013523,0.002678,0.000431,0.004584
36560000,0.0324,0.013523,0.002678,0.000431,0.003996
36561000,0.0324,0.013523,0.002678,0.000431,0.001880
36562000,0.0324,0.013523,0.002678,0.000431,0.001645
36563000,0.0324,0.013523,0.002678,0.000431,0.001645
36564000,0.0324,0.013523,0.002678,0.000431,0.001645
36565000,0.0324,0.013523,0.002678,0.000431,0.001528
36566000,0.0324,0.013523,0.002678,0.000431,0.002116
36567000,0.0324,0.013523,0.002678,0.000431,0.003643
36568000,0.0324,0.013523,0.002678,0.000431,0.000940
36569000,0.0324,0.013523,0.002678,0.000431,0.000823
36570000,0.0324,0.013523,0.002678,0.000431,0.000823
36571000,0.0324,0.013523,0.002678,0.000431,0.000705
36572000,0.0324,0.013523,0.002678,0.000431,0.000940
36573000,0.0324,0.013523,0.002678,0.000431,0.000940
36574000,0.0324,0.013523,0.002678,0.000431,0.000705
36575000,0.0324,0.013523,0.002678,0.000431,0.000940
36576000,0.0324,0.013523,0.002678,0.000431,0.000705
36577000,0.0324,0.013523,0.002678,0.000431,0.000940
36578000,0.0324,0.013523,0.002678,0.000431,0.000823
36579000,0.0324,0.013523,0.002678,0.000431,0.000823
36580000,0.0324,0.013523,0.002678,0.000431,0.000823
36581000,0.0324,0.013523,0.002678,0.000431,0.000823
36582000,0.0324,0.013523,0.002678,0.000431,0.000705
36583000,0.0324,0.013523,0.002678,0.000431,0.071810
36584000,0.0324,0.013523,0.002678,0.000431,0.619374
36585000,0.0324,0.013523,0.002678,0.000431,0.599041
36586000,0.0324,0.013523,0.002678,0.000431,0.153492
36587000,0.0324,0.013523,0.002678,0.000431,0.148673
36588000,0.0324,0.013523,0.002678,0.000431,0.602214
36589000,0.0324,0.013523,0.002678,0.000431,0.233881
36590000,0.0324,0.013523,0.002678,0.000431,0.270197
36591000,0.0324,0.013523,0.002678,0.000431,0.304280
36592000,0.0324,0.013523,0.002678,0.000431,0.149848
36593000,0.0324,0.013523,0.002678,0.000431,0.179936
36594000,0.0324,0.013523,0.002678,0.000431,0.086031
36595000,0.0324,0.013523,0.002678,0.000431,0.502433
36596000,0.0324,0.013523,0.002678,0.000431,0.220718
36597000,0.0324,0.013523,0.002678,0.000431,0.139859
36598000,0.0324,0.013523,0.002678,0.000431,0.143267
36599000,0.0324,0.013523,0.002678,0.000431,0.113415
36600000,0.0324,0.013523,0.002678,0.000431,0.094845
36601000,0.0324,0.013523,0.002678,0.000431,0.077569
36602000,0.0324,0.013523,0.002678,0.000431,0.062407
36603000,0.0324,0.013523,0.002678,0.000431,0.061820
36604000,0.0324,0.013523,0.002678,0.000431,0.047951
36605000,0.0324,0.013523,0.002678,0.000431,0.049127
36606000,0.0324,0.013523,0.002678,0.000431,0.037021
36607000,0.0324,0.013523,0.002678,0.000431,0.033613
36608000,0.0324,0.013523,0.002678,0.000431,0.042780
36609000,0.0324,0.013523,0.002678,0.000431,0.029970
36610000,0.0324,0.013523,0.002678,0.000431,0.026209
36611000,0.0324,0.013523,0.002678,0.000431,0.019157
36612000,0.0324,0.013523,0.002678,0.000431,0.015866
36613000,0.0324,0.013523,0.002678,0.000431,0.022683
36614000,0.0324,0.013523,0.002678,0.000431,0.014809
36615000,0.0324,0.013523,0.002678,0.000431,0.014221
36616000,0.0324,0.013523,0.002678,0.000431,0.013046
36617000,0.0324,0.013523,0.002678,0.000431,0.008345
36618000,0.0324,0.013523,0.002678,0.000431,0.006347
36619000,0.0324,0.013523,0.002678,0.000431,0.006817
36620000,0.0324,0.013523,0.002678,0.000431,0.001645
36621000,0.0324,0.013523,0.002678,0.000431,0.001880
36622000,0.0324,0.013523,0.002678,0.000431,0.001528
36623000,0.0324,0.013523,0.002678,0.000431,0.001763
36624000,0.0324,0.013523,0.002678,0.000431,0.001763
36625000,0.0324,0.013523,0.002678,0.000431,0.001645
36626000,0.0324,0.013523,0.002678,0.000431,0.001645
36627000,0.0324,0.013523,0.002678,0.000431,0.001763
36628000,0.0324,0.013523,0.002678,0.000431,0.001880
36629000,0.0324,0.013523,0.002678,0.000431,0.001528
36630000,0.0324,0.013523,0.002678,0.000431,0.001763
36631000,0.0324,0.013523,0.002678,0.000431,0.001763
36632000,0.0324,0.013523,0.002678,0.000431,0.001645
36633000,0.0324,0.013523,0.002678,0.000431,0.002938
36634000,0.0324,0.013523,0.002678,0.000431,0.002233
36635000,0.0324,0.013523,0.002678,0.000431,0.000940
36636000,0.0324,0.013523,0.002678,0.000431,0.000940
36637000,0.0324,0.013523,0.002678,0.000431,0.000705
36638000,0.0324,0.013523,0.002678,0.000431,0.000940
36639000,0.0324,0.013523,0.002678,0.000431,0.000940
36640000,0.0324,0.013523,0.002678,0.000431,0.000940
36641000,0.0324,0.013523,0.002678,0.000431,0.000705
36642000,0.0324,0.013523,0.002678,0.000431,0.000940
36643000,0.0324,0.013523,0.002678,0.000431,0.000940
36644000,0.0324,0.013523,0.002678,0.000431,0.000823
36645000,0.0324,0.013523,0.002678,0.000431,0.000823
36646000,0.0324,0.013523,0.002678,0.000431,0.000940
36647000,0.0324,0.013523,0.002678,0.000431,0.000823
36648000,0.0324,0.013523,0.002678,0.000431,0.000940
36649000,0.0324,0.013523,0.002678,0.000431,0.000823
36650000,0.0324,0.013523,0.002678,0.000431,0.000940
36651000,0.0324,0.013523,0.002678,0.000431,0.000823
36652000,0.0324,0.013523,0.002678,0.000431,0.000823
36653000,0.0324,0.013523,0.002678,0.000431,0.000940
36654000,0.0324,0.013523,0.002678,0.000431,0.000940
36655000,0.0324,0.013523,0.002678,0.000431,0.000823
36656000,0.0324,0.013523,0.002678,0.000431,0.013868
36657000,0.0324,0.013523,0.002678,0.000431,0.695414
36658000,0.0324,0.013523,0.002678,0.000431,0.593047
36659000,0.0324,0.013523,0.002678,0.000431,0.155020
36660000,0.0324,0.013523,0.002678,0.000431,0.138213
36661000,0.0324,0.013523,0.002678,0.000431,0.572480
36662000,0.0324,0.013523,0.002678,0.000431,0.246927
36663000,0.0324,0.013523,0.002678,0.000431,0.283713
36664000,0.0324,0.013523,0.002678,0.000431,0.339069
36665000,0.0324,0.013523,0.002678,0.000431,0.142092
36666000,0.0324,0.013523,0.002678,0.000431,0.145382
36667000,0.0324,0.013523,0.002678,0.000431,0.177350
36668000,0.0324,0.013523,0.002678,0.000431,0.467292
36669000,0.0324,0.013523,0.002678,0.000431,0.190631
36670000,0.0324,0.013523,0.002678,0.000431,0.146323
36671000,0.0324,0.013523,0.002678,0.000431,0.129399
36672000,0.0324,0.013523,0.002678,0.000431,0.121054
36673000,0.0324,0.013523,0.002678,0.000431,0.091790
36674000,0.0324,0.013523,0.002678,0.000431,0.088734
36675000,0.0324,0.013523,0.002678,0.000431,0.073220
36676000,0.0324,0.013523,0.002678,0.000431,0.061820
36677000,0.0324,0.013523,0.002678,0.000431,0.054063
36678000,0.0324,0.013523,0.002678,0.000431,0.045248
36679000,0.0324,0.013523,0.002678,0.000431,0.043015
36680000,0.0324,0.013523,0.002678,0.000431,0.034553
36681000,0.0324,0.013523,0.002678,0.000431,0.033496
36682000,0.0324,0.013523,0.002678,0.000431,0.030675
36683000,0.0324,0.013523,0.002678,0.000431,0.028912
36684000,0.0324,0.013523,0.002678,0.000431,0.031615
36685000,0.0324,0.013523,0.002678,0.000431,0.021038
36686000,0.0324,0.013523,0.002678,0.000431,0.019157
36687000,0.0324,0.013523,0.002678,0.000431,0.017042
36688000,0.0324,0.013523,0.002678,0.000431,0.020332
36689000,0.0324,0.013523,0.002678,0.000431,0.018805
36690000,0.0324,0.013523,0.002678,0.000431,0.014221
36691000,0.0324,0.013523,0.002678,0.000431,0.011635
36692000,0.0324,0.013523,0.002678,0.000431,0.007522
36693000,0.0324,0.013523,0.002678,0.000431,0.008227
36694000,0.0324,0.013523,0.002678,0.000431,0.011753
36695000,0.0324,0.013523,0.002678,0.000431,0.007169
36696000,0.0324,0.013523,0.002678,0.000431,0.004113
36697000,0.0324,0.013523,0.002678,0.000431,0.006229
36698000,0.0324,0.013523,0.002678,0.000431,0.003408
36699000,0.0324,0.013523,0.002678,0.000431,0.003173
36700000,0.0324,0.013523,0.002678,0.000431,0.004936
36701000,0.0324,0.013523,0.002678,0.000431,0.006229
36702000,0.0324,0.013523,0.002678,0.000431,0.001763
36703000,0.0324,0.013523,0.002678,0.000431,0.001763
36704000,0.0324,0.013523,0.002678,0.000431,0.001763
36705000,0.0324,0.013523,0.002678,0.000431,0.001528
36706000,0.0324,0.013523,0.002678,0.000431,0.001763
36707000,0.0324,0.013523,0.002678,0.000431,0.001763
36708000,0.0324,0.013523,0.002678,0.000431,0.001763
36709000,0.0324,0.013523,0.002678,0.000431,0.001528
36710000,0.0324,0.013523,0.002678,0.000431,0.001763
36711000,0.0324,0.013523,0.002678,0.000431,0.001880
36712000,0.0324,0.013523,0.002678,0.000431,0.004113
36713000,0.0324,0.013523,0.002678,0.000431,0.014573
36714000,0.0324,0.013523,0.002678,0.000431,0.633594
36715000,0.0324,0.013523,0.002678,0.000431,0.643937
36716000,0.0324,0.013523,0.002678,0.000431,0.139859
36717000,0.0324,0.013523,0.002678,0.000431,0.134452
36718000,0.0324,0.013523,0.002678,0.000431,0.420868
36719000,0.0324,0.013523,0.002678,0.000431,0.359989
36720000,0.0324,0.013523,0.002678,0.000431,0.261970
36721000,0.0324,0.013523,0.002678,0.000431,0.322850
36722000,0.0324,0.013523,0.002678,0.000431,0.138801
36723000,0.0324,0.013523,0.002678,0.000431,0.150083
36724000,0.0324,0.013523,0.002678,0.000431,0.120936
36725000,0.0324,0.013523,0.002678,0.000431,0.327551
36726000,0.0324,0.013523,0.002678,0.000431,0.372682
36727000,0.0324,0.013523,0.002678,0.000431,0.189573
36728000,0.0324,0.013523,0.002678,0.000431,0.141386
36729000,0.0324,0.013523,0.002678,0.000431,0.121759
36730000,0.0324,0.013523,0.002678,0.000431,0.098019
36731000,0.0324,0.013523,0.002678,0.000431,0.093552
36732000,0.0324,0.013523,0.002678,0.000431,0.068519
36733000,0.0324,0.013523,0.002678,0.000431,0.059469
36734000,0.0324,0.013523,0.002678,0.000431,0.061585
36735000,0.0324,0.013523,0.002678,0.000431,0.041605
36736000,0.0324,0.013523,0.002678,0.000431,0.032438
36737000,0.0324,0.013523,0.002678,0.000431,0.027267
36738000,0.0324,0.013523,0.002678,0.000431,0.016807
36739000,0.0324,0.013523,0.002678,0.000431,0.031850
36740000,0.0324,0.013523,0.002678,0.000431,0.013046
36741000,0.0324,0.013523,0.002678,0.000431,0.015749
36742000,0.0324,0.013523,0.002678,0.000431,0.013046
36743000,0.0324,0.013523,0.002678,0.000431,0.014221
36744000,0.0324,0.013523,0.002678,0.000431,0.004936
36745000,0.0324,0.013523,0.002678,0.000431,0.004584
36746000,0.0324,0.013523,0.002678,0.000431,0.004584
36747000,0.0324,0.013523,0.002678,0.000431,0.004466
36748000,0.0324,0.013523,0.002678,0.000431,0.004231
36749000,0.0324,0.013523,0.002678,0.000431,0.003173
36750000,0.0324,0.013523,0.002678,0.000431,0.006229
36751000,0.0324,0.013523,0.002678,0.000431,0.007169
36752000,0.0324,0.013523,0.002678,0.000431,0.000940
36753000,0.0324,0.013523,0.002678,0.000431,0.000940
36754000,0.0324,0.013523,0.002678,0.000431,0.000940
36755000,0.0324,0.013523,0.002678,0.000431,0.000705
36756000,0.0324,0.013523,0.002678,0.000431,0.072750
36757000,0.0324,0.013523,0.002678,0.000431,0.656277
36758000,0.0324,0.013523,0.002678,0.000431,0.609736
36759000,0.0324,0.013523,0.002678,0.000431,0.132572
36760000,0.0324,0.013523,0.002678,0.000431,0.133512
36761000,0.0324,0.013523,0.002678,0.000431,0.559552
36762000,0.0324,0.013523,0.002678,0.000431,0.238465
36763000,0.0324,0.013523,0.002678,0.000431,0.275016
36764000,0.0324,0.013523,0.002678,0.000431,0.297229
36765000,0.0324,0.013523,0.002678,0.000431,0.144090
36766000,0.0324,0.013523,0.002678,0.000431,0.161249
36767000,0.0324,0.013523,0.002678,0.000431,0.102485
36768000,0.0324,0.013523,0.002678,0.000431,0.473521
36769000,0.0324,0.013523,0.002678,0.000431,0.284771
36770000,0.0324,0.013523,0.002678,0.000431,0.167243
36771000,0.0324,0.013523,0.002678,0.000431,0.131279
36772000,0.0324,0.013523,0.002678,0.000431,0.107656
36773000,0.0324,0.013523,0.002678,0.000431,0.103542
36774000,0.0324,0.013523,0.002678,0.000431,0.077569
36775000,0.0324,0.013523,0.002678,0.000431,0.059587
36776000,0.0324,0.013523,0.002678,0.000431,0.066403
36777000,0.0324,0.013523,0.002678,0.000431,0.045248
36778000,0.0324,0.013523,0.002678,0.000431,0.046189
36779000,0.0324,0.013523,0.002678,0.000431,0.039372
36780000,0.0324,0.013523,0.002678,0.000431,0.037609
36781000,0.0324,0.013523,0.002678,0.000431,0.040312
36782000,0.0324,0.013523,0.002678,0.000431,0.032673
36783000,0.0324,0.013523,0.002678,0.000431,0.036551
36784000,0.0324,0.013523,0.002678,0.000431,0.022095
36785000,0.0324,0.013523,0.002678,0.000431,0.022213
36786000,0.0324,0.013523,0.002678,0.000431,0.015631
36787000,0.0324,0.013523,0.002678,0.000431,0.016807
36788000,0.0324,0.013523,0.002678,0.000431,0.014103
36789000,0.0324,0.013523,0.002678,0.000431,0.011870
36790000,0.0324,0.013523,0.002678,0.000431,0.011870
36791000,0.0324,0.013523,0.002678,0.000431,0.007874
36792000,0.0324,0.013523,0.002678,0.000431,0.010695
36793000,0.0324,0.013523,0.002678,0.000431,0.003878
36794000,0.0324,0.013523,0.002678,0.000431,0.004349
36795000,0.0324,0.013523,0.002678,0.000431,0.008227
36796000,0.0324,0.013523,0.002678,0.000431,0.002233
36797000,0.0324,0.013523,0.002678,0.000431,0.002586
36798000,0.0324,0.013523,0.002678,0.000431,0.002351
36799000,0.0324,0.013523,0.002678,0.000431,0.002468
36800000,0.0324,0.013523,0.002678,0.000431,0.002468
36801000,0.0324,0.013523,0.002678,0.000431,0.002233
36802000,0.0324,0.013523,0.002678,0.000431,0.004231
36803000,0.0324,0.013523,0.002678,0.000431,0.000940
36804000,0.0324,0.013523,0.002678,0.000431,0.000823
36805000,0.0324,0.013523,0.002678,0.000431,0.000940
36806000,0.0324,0.013523,0.002678,0.000431,0.000940
36807000,0.0324,0.013523,0.002678,0.000431,0.000823
36808000,0.0324,0.013523,0.002678,0.000431,0.000823
36809000,0.0324,0.013523,0.002678,0.000431,0.000940
36810000,0.0324,0.013523,0.002678,0.000431,0.000940
36811000,0.0324,0.013523,0.002678,0.000431,0.000823
36812000,0.0324,0.013523,0.002678,0.000431,0.015984
36813000,0.0324,0.013523,0.002678,0.000431,0.708107
36814000,0.0324,0.013523,0.002678,0.000431,0.599159
36815000,0.0324,0.013523,0.002678,0.000431,0.145852
36816000,0.0324,0.013523,0.002678,0.000431,0.137743
36817000,0.0324,0.013523,0.002678,0.000431,0.565898
36818000,0.0324,0.013523,0.002678,0.000431,0.248220
36819000,0.0324,0.013523,0.002678,0.000431,0.275016
36820000,0.0324,0.013523,0.002678,0.000431,0.300049
36821000,0.0324,0.013523,0.002678,0.000431,0.147733
36822000,0.0324,0.013523,0.002678,0.000431,0.174764
36823000,0.0324,0.013523,0.002678,0.000431,0.114943
36824000,0.0324,0.013523,0.002678,0.000431,0.509132
36825000,0.0324,0.013523,0.002678,0.000431,0.214019
36826000,0.0324,0.013523,0.002678,0.000431,0.146793
36827000,0.0324,0.013523,0.002678,0.000431,0.148203
36828000,0.0324,0.013523,0.002678,0.000431,0.122464
36829000,0.0324,0.013523,0.002678,0.000431,0.108126
36830000,0.0324,0.013523,0.002678,0.000431,0.094375
36831000,0.0324,0.013523,0.002678,0.000431,0.084620
36832000,0.0324,0.013523,0.002678,0.000431,0.075218
36833000,0.0324,0.013523,0.002678,0.000431,0.063465
36834000,0.0324,0.013523,0.002678,0.000431,0.064758
36835000,0.0324,0.013523,0.002678,0.000431,0.050772
36836000,0.0324,0.013523,0.002678,0.000431,0.052183
36837000,0.0324,0.013523,0.002678,0.000431,0.045131
36838000,0.0324,0.013523,0.002678,0.000431,0.039372
36839000,0.0324,0.013523,0.002678,0.000431,0.025151
36840000,0.0324,0.013523,0.002678,0.000431,0.022095
36841000,0.0324,0.013523,0.002678,0.000431,0.021038
36842000,0.0324,0.013523,0.002678,0.000431,0.018687
36843000,0.0324,0.013523,0.002678,0.000431,0.021273
36844000,0.0324,0.013523,0.002678,0.000431,0.012928
36845000,0.0324,0.013523,0.002678,0.000431,0.013281
36846000,0.0324,0.013523,0.002678,0.000431,0.013633
36847000,0.0324,0.013523,0.002678,0.000431,0.014103
36848000,0.0324,0.013523,0.002678,0.000431,0.011870
36849000,0.0324,0.013523,0.002678,0.000431,0.013868
36850000,0.0324,0.013523,0.002678,0.000431,0.011048
36851000,0.0324,0.013523,0.002678,0.000431,0.010578
36852000,0.0324,0.013523,0.002678,0.000431,0.011870
36853000,0.0324,0.013523,0.002678,0.000431,0.011048
36854000,0.0324,0.013523,0.002678,0.000431,0.009402
36855000,0.0324,0.013523,0.002678,0.000431,0.005876
36856000,0.0324,0.013523,0.002678,0.000431,0.010107
36857000,0.0324,0.013523,0.002678,0.000431,0.004936
36858000,0.0324,0.013523,0.002678,0.000431,0.005171
36859000,0.0324,0.013523,0.002678,0.000431,0.004584
36860000,0.0324,0.013523,0.002678,0.000431,0.010225
36861000,0.0324,0.013523,0.002678,0.000431,0.002233
36862000,0.0324,0.013523,0.002678,0.000431,0.002821
36863000,0.0324,0.013523,0.002678,0.000431,0.002233
36864000,0.0324,0.013523,0.002678,0.000431,0.002468
36865000,0.0324,0.013523,0.002678,0.000431,0.002586
36866000,0.0324,0.013523,0.002678,0.000431,0.002586
36867000,0.0324,0.013523,0.002678,0.000431,0.003173
36868000,0.0324,0.013523,0.002678,0.000431,0.001998
36869000,0.0324,0.013523,0.002678,0.000431,0.000940
36870000,0.0324,0.013523,0.002678,0.000431,0.041840
36871000,0.0324,0.013523,0.002678,0.000431,0.676375
36872000,0.0324,0.013523,0.002678,0.000431,0.611382
36873000,0.0324,0.013523,0.002678,0.000431,0.132102
36874000,0.0324,0.013523,0.002678,0.000431,0.134452
36875000,0.0324,0.013523,0.002678,0.000431,0.538867
36876000,0.0324,0.013523,0.002678,0.000431,0.228592
36877000,0.0324,0.013523,0.002678,0.000431,0.276544
36878000,0.0324,0.013523,0.002678,0.000431,0.292528
36879000,0.0324,0.013523,0.002678,0.000431,0.139506
36880000,0.0324,0.013523,0.002678,0.000431,0.157723
36881000,0.0324,0.013523,0.002678,0.000431,0.116470
36882000,0.0324,0.013523,0.002678,0.000431,0.450603
36883000,0.0324,0.013523,0.002678,0.000431,0.324965
36884000,0.0324,0.013523,0.002678,0.000431,0.191218
36885000,0.0324,0.013523,0.002678,0.000431,0.163012
36886000,0.0324,0.013523,0.002678,0.000431,0.135040
36887000,0.0324,0.013523,0.002678,0.000431,0.116235
36888000,0.0324,0.013523,0.002678,0.000431,0.117058
36889000,0.0324,0.013523,0.002678,0.000431,0.087794
36890000,0.0324,0.013523,0.002678,0.000431,0.064170
36891000,0.0324,0.013523,0.002678,0.000431,0.064405
36892000,0.0324,0.013523,0.002678,0.000431,0.065581
36893000,0.0324,0.013523,0.002678,0.000431,0.046071
36894000,0.0324,0.013523,0.002678,0.000431,0.044543
36895000,0.0324,0.013523,0.002678,0.000431,0.040077
36896000,0.0324,0.013523,0.002678,0.000431,0.036434
36897000,0.0324,0.013523,0.002678,0.000431,0.030440
36898000,0.0324,0.013523,0.002678,0.000431,0.028794
36899000,0.0324,0.013523,0.002678,0.000431,0.017982
36900000,0.0324,0.013523,0.002678,0.000431,0.014338
36901000,0.0324,0.013523,0.002678,0.000431,0.016571
36902000,0.0324,0.013523,0.002678,0.000431,0.011400
36903000,0.0324,0.013523,0.002678,0.000431,0.009285
36904000,0.0324,0.013523,0.002678,0.000431,0.014221
36905000,0.0324,0.013523,0.002678,0.000431,0.009520
36906000,0.0324,0.013523,0.002678,0.000431,0.009167
36907000,0.0324,0.013523,0.002678,0.000431,0.008109
36908000,0.0324,0.013523,0.002678,0.000431,0.008345
36909000,0.0324,0.013523,0.002678,0.000431,0.007757
36910000,0.0324,0.013523,0.002678,0.000431,0.007639
36911000,0.0324,0.013523,0.002678,0.000431,0.002468
36912000,0.0324,0.013523,0.002678,0.000431,0.002821
36913000,0.0324,0.013523,0.002678,0.000431,0.002586
36914000,0.0324,0.013523,0.002678,0.000431,0.002351
36915000,0.0324,0.013523,0.002678,0.000431,0.002703
36916000,0.0324,0.013523,0.002678,0.000431,0.002703
36917000,0.0324,0.013523,0.002678,0.000431,0.002586
36918000,0.0324,0.013523,0.002678,0.000431,0.002703
36919000,0.0324,0.013523,0.002678,0.000431,0.003761
36920000,0.0324,0.013523,0.002678,0.000431,0.003291
36921000,0.0324,0.013523,0.002678,0.000431,0.001645
36922000,0.0324,0.013523,0.002678,0.000431,0.001880
36923000,0.0324,0.013523,0.002678,0.000431,0.001763
36924000,0.0324,0.013523,0.002678,0.000431,0.001645
36925000,0.0324,0.013523,0.002678,0.000431,0.001763
36926000,0.0324,0.013523,0.002678,0.000431,0.001763
36927000,0.0324,0.013523,0.002678,0.000431,0.001880
36928000,0.0324,0.013523,0.002678,0.000431,0.005406
36929000,0.0324,0.013523,0.002678,0.000431,0.380674
36930000,0.0324,0.013523,0.002678,0.000431,0.724444
36931000,0.0324,0.013523,0.002678,0.000431,0.342242
36932000,0.0324,0.013523,0.002678,0.000431,0.139623
36933000,0.0324,0.013523,0.002678,0.000431,0.153609
36934000,0.0324,0.013523,0.002678,0.000431,0.610676
36935000,0.0324,0.013523,0.002678,0.000431,0.253743
36936000,0.0324,0.013523,0.002678,0.000431,0.341537
36937000,0.0324,0.013523,0.002678,0.000431,0.206144
36938000,0.0324,0.013523,0.002678,0.000431,0.150789
36939000,0.0324,0.013523,0.002678,0.000431,0.107656
36940000,0.0324,0.013523,0.002678,0.000431,0.432151
36941000,0.0324,0.013523,0.002678,0.000431,0.293233
36942000,0.0324,0.013523,0.002678,0.000431,0.155725
36943000,0.0324,0.013523,0.002678,0.000431,0.135392
36944000,0.0324,0.013523,0.002678,0.000431,0.120936
36945000,0.0324,0.013523,0.002678,0.000431,0.090497
36946000,0.0324,0.013523,0.002678,0.000431,0.075453
36947000,0.0324,0.013523,0.002678,0.000431,0.069929
36948000,0.0324,0.013523,0.002678,0.000431,0.057471
36949000,0.0324,0.013523,0.002678,0.000431,0.052418
36950000,0.0324,0.013523,0.002678,0.000431,0.044073
36951000,0.0324,0.013523,0.002678,0.000431,0.041958
36952000,0.0324,0.013523,0.002678,0.000431,0.049362
36953000,0.0324,0.013523,0.002678,0.000431,0.029382
36954000,0.0324,0.013523,0.002678,0.000431,0.025739
36955000,0.0324,0.013523,0.002678,0.000431,0.029970
36956000,0.0324,0.013523,0.002678,0.000431,0.019627
36957000,0.0324,0.013523,0.002678,0.000431,0.022800
36958000,0.0324,0.013523,0.002678,0.000431,0.017864
36959000,0.0324,0.013523,0.002678,0.000431,0.011988
36960000,0.0324,0.013523,0.002678,0.000431,0.015749
36961000,0.0324,0.013523,0.002678,0.000431,0.015161
36962000,0.0324,0.013523,0.002678,0.000431,0.007287
36963000,0.0324,0.013523,0.002678,0.000431,0.008109
36964000,0.0324,0.013523,0.002678,0.000431,0.014691
36965000,0.0324,0.013523,0.002678,0.000431,0.007757
36966000,0.0324,0.013523,0.002678,0.000431,0.004349
36967000,0.0324,0.013523,0.002678,0.000431,0.004113
36968000,0.0324,0.013523,0.002678,0.000431,0.004584
36969000,0.0324,0.013523,0.002678,0.000431,0.003761
36970000,0.0324,0.013523,0.002678,0.000431,0.004349
36971000,0.0324,0.013523,0.002678,0.000431,0.005876
36972000,0.0324,0.013523,0.002678,0.000431,0.003526
36973000,0.0324,0.013523,0.002678,0.000431,0.003291
36974000,0.0324,0.013523,0.002678,0.000431,0.004819
36975000,0.0324,0.013523,0.002678,0.000431,0.002703
36976000,0.0324,0.013523,0.002678,0.000431,0.002586
36977000,0.0324,0.013523,0.002678,0.000431,0.003761
36978000,0.0324,0.013523,0.002678,0.000431,0.003291
36979000,0.0324,0.013523,0.002678,0.000431,0.003643
36980000,0.0324,0.013523,0.002678,0.000431,0.000823
36981000,0.0324,0.013523,0.002678,0.000431,0.000823
36982000,0.0324,0.013523,0.002678,0.000431,0.000823
36983000,0.0324,0.013523,0.002678,0.000431,0.000823
36984000,0.0324,0.013523,0.002678,0.000431,0.000823
36985000,0.0324,0.013523,0.002678,0.000431,0.000823
36986000,0.0324,0.013523,0.002678,0.000431,0.000940
36987000,0.0324,0.013523,0.002678,0.000431,0.000823
36988000,0.0324,0.013523,0.002678,0.000431,0.000823
36989000,0.0324,0.013523,0.002678,0.000431,0.000705
36990000,0.0324,0.013523,0.002678,0.000431,0.000940
36991000,0.0324,0.013523,0.002678,0.000431,0.000940
36992000,0.0324,0.013523,0.002678,0.000431,0.000705
36993000,0.0324,0.013523,0.002678,0.000431,0.000940
36994000,0.0324,0.013523,0.002678,0.000431,0.000705
36995000,0.0324,0.013523,0.002678,0.000431,0.000940
36996000,0.0324,0.013523,0.002678,0.000431,0.000823
36997000,0.0324,0.013523,0.002678,0.000431,0.000823
36998000,0.0324,0.013523,0.002678,0.000431,0.000823
36999000,0.0324,0.013523,0.002678,0.000431,0.000823
