Cycle,Area(mm^2),PeakDynamic(W),SubthresholdLeakage(W),GateLeakage(W),RunTimeDynamic(W)
108000000,0.0324,0.013523,0.002678,0.000431,0.609501
108001000,0.0324,0.013523,0.002678,0.000431,0.140564
108002000,0.0324,0.013523,0.002678,0.000431,0.140329
108003000,0.0324,0.013523,0.002678,0.000431,0.501845
108004000,0.0324,0.013523,0.002678,0.000431,0.348001
108005000,0.0324,0.013523,0.002678,0.000431,0.251275
108006000,0.0324,0.013523,0.002678,0.000431,0.311567
108007000,0.0324,0.013523,0.002678,0.000431,0.146793
108008000,0.0324,0.013523,0.002678,0.000431,0.181346
108009000,0.0324,0.013523,0.002678,0.000431,0.091554
108010000,0.0324,0.013523,0.002678,0.000431,0.524881
108011000,0.0324,0.013523,0.002678,0.000431,0.304280
108012000,0.0324,0.013523,0.002678,0.000431,0.216722
108013000,0.0324,0.013523,0.002678,0.000431,0.179701
108014000,0.0324,0.013523,0.002678,0.000431,0.139153
108015000,0.0324,0.013523,0.002678,0.000431,0.118821
108016000,0.0324,0.013523,0.002678,0.000431,0.111417
108017000,0.0324,0.013523,0.002678,0.000431,0.109419
108018000,0.0324,0.013523,0.002678,0.000431,0.095198
108019000,0.0324,0.013523,0.002678,0.000431,0.072515
108020000,0.0324,0.013523,0.002678,0.000431,0.059234
108021000,0.0324,0.013523,0.002678,0.000431,0.062760
108022000,0.0324,0.013523,0.002678,0.000431,0.048422
108023000,0.0324,0.013523,0.002678,0.000431,0.045954
108024000,0.0324,0.013523,0.002678,0.000431,0.043720
108025000,0.0324,0.013523,0.002678,0.000431,0.036199
108026000,0.0324,0.013523,0.002678,0.000431,0.032673
108027000,0.0324,0.013523,0.002678,0.000431,0.031733
108028000,0.0324,0.013523,0.002678,0.000431,0.030322
108029000,0.0324,0.013523,0.002678,0.000431,0.027502
108030000,0.0324,0.013523,0.002678,0.000431,0.025386
108031000,0.0324,0.013523,0.002678,0.000431,0.022683
108032000,0.0324,0.013523,0.002678,0.000431,0.022918
108033000,0.0324,0.013523,0.002678,0.000431,0.024563
108034000,0.0324,0.013523,0.002678,0.000431,0.021743
108035000,0.0324,0.013523,0.002678,0.000431,0.019745
108036000,0.0324,0.013523,0.002678,0.000431,0.017629
108037000,0.0324,0.013523,0.002678,0.000431,0.016924
108038000,0.0324,0.013523,0.002678,0.000431,0.018334
108039000,0.0324,0.013523,0.002678,0.000431,0.014103
108040000,0.0324,0.013523,0.002678,0.000431,0.019392
108041000,0.0324,0.013523,0.002678,0.000431,0.013868
108042000,0.0324,0.013523,0.002678,0.000431,0.008815
108043000,0.0324,0.013523,0.002678,0.000431,0.010813
108044000,0.0324,0.013523,0.002678,0.000431,0.011048
108045000,0.0324,0.013523,0.002678,0.000431,0.008462
108046000,0.0324,0.013523,0.002678,0.000431,0.011870
108047000,0.0324,0.013523,0.002678,0.000431,0.007874
108048000,0.0324,0.013523,0.002678,0.000431,0.003643
108049000,0.0324,0.013523,0.002678,0.000431,0.002586
108050000,0.0324,0.013523,0.002678,0.000431,0.002586
108051000,0.0324,0.013523,0.002678,0.000431,0.002468
108052000,0.0324,0.013523,0.002678,0.000431,0.005759
108053000,0.0324,0.013523,0.002678,0.000431,0.001763
108054000,0.0324,0.013523,0.002678,0.000431,0.001645
108055000,0.0324,0.013523,0.002678,0.000431,0.001763
108056000,0.0324,0.013523,0.002678,0.000431,0.001645
108057000,0.0324,0.013523,0.002678,0.000431,0.004584
108058000,0.0324,0.013523,0.002678,0.000431,0.000940
108059000,0.0324,0.013523,0.002678,0.000431,0.000823
108060000,0.0324,0.013523,0.002678,0.000431,0.000823
108061000,0.0324,0.013523,0.002678,0.000431,0.000823
108062000,0.0324,0.013523,0.002678,0.000431,0.000823
108063000,0.0324,0.013523,0.002678,0.000431,0.000940
108064000,0.0324,0.013523,0.002678,0.000431,0.000705
108065000,0.0324,0.013523,0.002678,0.000431,0.000823
108066000,0.0324,0.013523,0.002678,0.000431,0.000823
108067000,0.0324,0.013523,0.002678,0.000431,0.000940
108068000,0.0324,0.013523,0.002678,0.000431,0.000823
108069000,0.0324,0.013523,0.002678,0.000431,0.000823
108070000,0.0324,0.013523,0.002678,0.000431,0.000705
108071000,0.0324,0.013523,0.002678,0.000431,0.000940
108072000,0.0324,0.013523,0.002678,0.000431,0.000940
108073000,0.0324,0.013523,0.002678,0.000431,0.000705
108074000,0.0324,0.013523,0.002678,0.000431,0.000940
108075000,0.0324,0.013523,0.002678,0.000431,0.000705
108076000,0.0324,0.013523,0.002678,0.000431,0.000940
108077000,0.0324,0.013523,0.002678,0.000431,0.000823
108078000,0.0324,0.013523,0.002678,0.000431,0.000823
108079000,0.0324,0.013523,0.002678,0.000431,0.000823
108080000,0.0324,0.013523,0.002678,0.000431,0.000823
108081000,0.0324,0.013523,0.002678,0.000431,0.000940
108082000,0.0324,0.013523,0.002678,0.000431,0.000705
108083000,0.0324,0.013523,0.002678,0.000431,0.000940
108084000,0.0324,0.013523,0.002678,0.000431,0.000823
108085000,0.0324,0.013523,0.002678,0.000431,0.000823
108086000,0.0324,0.013523,0.002678,0.000431,0.000823
108087000,0.0324,0.013523,0.002678,0.000431,0.000823
108088000,0.0324,0.013523,0.002678,0.000431,0.000823
108089000,0.0324,0.013523,0.002678,0.000431,0.000823
108090000,0.0324,0.013523,0.002678,0.000431,0.000940
108091000,0.0324,0.013523,0.002678,0.000431,0.000705
108092000,0.0324,0.013523,0.002678,0.000431,0.000940
108093000,0.0324,0.013523,0.002678,0.000431,0.073338
108094000,0.0324,0.013523,0.002678,0.000431,0.778859
108095000,0.0324,0.013523,0.002678,0.000431,0.562607
108096000,0.0324,0.013523,0.002678,0.000431,0.150554
108097000,0.0324,0.013523,0.002678,0.000431,0.167830
108098000,0.0324,0.013523,0.002678,0.000431,0.612322
108099000,0.0324,0.013523,0.002678,0.000431,0.288179
108100000,0.0324,0.013523,0.002678,0.000431,0.344828
108101000,0.0324,0.013523,0.002678,0.000431,0.186282
108102000,0.0324,0.013523,0.002678,0.000431,0.167478
108103000,0.0324,0.013523,0.002678,0.000431,0.112357
108104000,0.0324,0.013523,0.002678,0.000431,0.497732
108105000,0.0324,0.013523,0.002678,0.000431,0.198035
108106000,0.0324,0.013523,0.002678,0.000431,0.141857
108107000,0.0324,0.013523,0.002678,0.000431,0.126460
108108000,0.0324,0.013523,0.002678,0.000431,0.110594
108109000,0.0324,0.013523,0.002678,0.000431,0.102485
108110000,0.0324,0.013523,0.002678,0.000431,0.087088
108111000,0.0324,0.013523,0.002678,0.000431,0.073925
108112000,0.0324,0.013523,0.002678,0.000431,0.068166
108113000,0.0324,0.013523,0.002678,0.000431,0.059234
108114000,0.0324,0.013523,0.002678,0.000431,0.063348
108115000,0.0324,0.013523,0.002678,0.000431,0.050537
108116000,0.0324,0.013523,0.002678,0.000431,0.053240
108117000,0.0324,0.013523,0.002678,0.000431,0.048422
108118000,0.0324,0.013523,0.002678,0.000431,0.038079
108119000,0.0324,0.013523,0.002678,0.000431,0.043015
108120000,0.0324,0.013523,0.002678,0.000431,0.029029
108121000,0.0324,0.013523,0.002678,0.000431,0.031498
108122000,0.0324,0.013523,0.002678,0.000431,0.030440
108123000,0.0324,0.013523,0.002678,0.000431,0.024798
108124000,0.0324,0.013523,0.002678,0.000431,0.023506
108125000,0.0324,0.013523,0.002678,0.000431,0.021038
108126000,0.0324,0.013523,0.002678,0.000431,0.015749
108127000,0.0324,0.013523,0.002678,0.000431,0.017394
108128000,0.0324,0.013523,0.002678,0.000431,0.014926
108129000,0.0324,0.013523,0.002678,0.000431,0.021155
108130000,0.0324,0.013523,0.002678,0.000431,0.016336
108131000,0.0324,0.013523,0.002678,0.000431,0.011870
108132000,0.0324,0.013523,0.002678,0.000431,0.011518
108133000,0.0324,0.013523,0.002678,0.000431,0.014456
108134000,0.0324,0.013523,0.002678,0.000431,0.011283
108135000,0.0324,0.013523,0.002678,0.000431,0.010695
108136000,0.0324,0.013523,0.002678,0.000431,0.011988
108137000,0.0324,0.013523,0.002678,0.000431,0.012105
108138000,0.0324,0.013523,0.002678,0.000431,0.012223
108139000,0.0324,0.013523,0.002678,0.000431,0.009402
108140000,0.0324,0.013523,0.002678,0.000431,0.009755
108141000,0.0324,0.013523,0.002678,0.000431,0.005054
108142000,0.0324,0.013523,0.002678,0.000431,0.008462
108143000,0.0324,0.013523,0.002678,0.000431,0.004584
108144000,0.0324,0.013523,0.002678,0.000431,0.003878
108145000,0.0324,0.013523,0.002678,0.000431,0.005759
108146000,0.0324,0.013523,0.002678,0.000431,0.003408
108147000,0.0324,0.013523,0.002678,0.000431,0.003291
108148000,0.0324,0.013523,0.002678,0.000431,0.003526
108149000,0.0324,0.013523,0.002678,0.000431,0.003056
108150000,0.0324,0.013523,0.002678,0.000431,0.003408
108151000,0.0324,0.013523,0.002678,0.000431,0.003173
108152000,0.0324,0.013523,0.002678,0.000431,0.003291
108153000,0.0324,0.013523,0.002678,0.000431,0.003526
108154000,0.0324,0.013523,0.002678,0.000431,0.002938
108155000,0.0324,0.013523,0.002678,0.000431,0.004819
108156000,0.0324,0.013523,0.002678,0.000431,0.002351
108157000,0.0324,0.013523,0.002678,0.000431,0.002468
108158000,0.0324,0.013523,0.002678,0.000431,0.002586
108159000,0.0324,0.013523,0.002678,0.000431,0.002233
108160000,0.0324,0.013523,0.002678,0.000431,0.002468
108161000,0.0324,0.013523,0.002678,0.000431,0.002586
108162000,0.0324,0.013523,0.002678,0.000431,0.002351
108163000,0.0324,0.013523,0.002678,0.000431,0.002468
108164000,0.0324,0.013523,0.002678,0.000431,0.002468
108165000,0.0324,0.013523,0.002678,0.000431,0.002351
108166000,0.0324,0.013523,0.002678,0.000431,0.002821
108167000,0.0324,0.013523,0.002678,0.000431,0.002116
108168000,0.0324,0.013523,0.002678,0.000431,0.002586
108169000,0.0324,0.013523,0.002678,0.000431,0.002233
108170000,0.0324,0.013523,0.002678,0.000431,0.002703
108171000,0.0324,0.013523,0.002678,0.000431,0.002703
108172000,0.0324,0.013523,0.002678,0.000431,0.003291
108173000,0.0324,0.013523,0.002678,0.000431,0.001880
108174000,0.0324,0.013523,0.002678,0.000431,0.001293
108175000,0.0324,0.013523,0.002678,0.000431,0.001763
108176000,0.0324,0.013523,0.002678,0.000431,0.001645
108177000,0.0324,0.013523,0.002678,0.000431,0.001645
108178000,0.0324,0.013523,0.002678,0.000431,0.250570
108179000,0.0324,0.013523,0.002678,0.000431,0.662741
108180000,0.0324,0.013523,0.002678,0.000431,0.438380
108181000,0.0324,0.013523,0.002678,0.000431,0.132572
108182000,0.0324,0.013523,0.002678,0.000431,0.160308
108183000,0.0324,0.013523,0.002678,0.000431,0.646993
108184000,0.0324,0.013523,0.002678,0.000431,0.239757
108185000,0.0324,0.013523,0.002678,0.000431,0.294408
108186000,0.0324,0.013523,0.002678,0.000431,0.206027
108187000,0.0324,0.013523,0.002678,0.000431,0.147380
108188000,0.0324,0.013523,0.002678,0.000431,0.121759
108189000,0.0324,0.013523,0.002678,0.000431,0.292058
108190000,0.0324,0.013523,0.002678,0.000431,0.424747
108191000,0.0324,0.013523,0.002678,0.000431,0.181816
108192000,0.0324,0.013523,0.002678,0.000431,0.163834
108193000,0.0324,0.013523,0.002678,0.000431,0.162777
108194000,0.0324,0.013523,0.002678,0.000431,0.129869
108195000,0.0324,0.013523,0.002678,0.000431,0.107891
108196000,0.0324,0.013523,0.002678,0.000431,0.113062
108197000,0.0324,0.013523,0.002678,0.000431,0.105775
108198000,0.0324,0.013523,0.002678,0.000431,0.086971
108199000,0.0324,0.013523,0.002678,0.000431,0.076981
108200000,0.0324,0.013523,0.002678,0.000431,0.076041
108201000,0.0324,0.013523,0.002678,0.000431,0.051242
108202000,0.0324,0.013523,0.002678,0.000431,0.045718
108203000,0.0324,0.013523,0.002678,0.000431,0.043368
108204000,0.0324,0.013523,0.002678,0.000431,0.045366
108205000,0.0324,0.013523,0.002678,0.000431,0.040547
108206000,0.0324,0.013523,0.002678,0.000431,0.030205
108207000,0.0324,0.013523,0.002678,0.000431,0.032908
108208000,0.0324,0.013523,0.002678,0.000431,0.029852
108209000,0.0324,0.013523,0.002678,0.000431,0.018805
108210000,0.0324,0.013523,0.002678,0.000431,0.017982
108211000,0.0324,0.013523,0.002678,0.000431,0.018805
108212000,0.0324,0.013523,0.002678,0.000431,0.015279
108213000,0.0324,0.013523,0.002678,0.000431,0.014221
108214000,0.0324,0.013523,0.002678,0.000431,0.011988
108215000,0.0324,0.013523,0.002678,0.000431,0.008109
108216000,0.0324,0.013523,0.002678,0.000431,0.007874
108217000,0.0324,0.013523,0.002678,0.000431,0.007992
108218000,0.0324,0.013523,0.002678,0.000431,0.005406
108219000,0.0324,0.013523,0.002678,0.000431,0.008462
108220000,0.0324,0.013523,0.002678,0.000431,0.004466
108221000,0.0324,0.013523,0.002678,0.000431,0.006934
108222000,0.0324,0.013523,0.002678,0.000431,0.006111
108223000,0.0324,0.013523,0.002678,0.000431,0.002821
108224000,0.0324,0.013523,0.002678,0.000431,0.003643
108225000,0.0324,0.013523,0.002678,0.000431,0.002821
108226000,0.0324,0.013523,0.002678,0.000431,0.003291
108227000,0.0324,0.013523,0.002678,0.000431,0.003526
108228000,0.0324,0.013523,0.002678,0.000431,0.002586
108229000,0.0324,0.013523,0.002678,0.000431,0.003761
108230000,0.0324,0.013523,0.002678,0.000431,0.002821
108231000,0.0324,0.013523,0.002678,0.000431,0.002586
108232000,0.0324,0.013523,0.002678,0.000431,0.005054
108233000,0.0324,0.013523,0.002678,0.000431,0.003173
108234000,0.0324,0.013523,0.002678,0.000431,0.002586
108235000,0.0324,0.013523,0.002678,0.000431,0.000940
108236000,0.0324,0.013523,0.002678,0.000431,0.000823
108237000,0.0324,0.013523,0.002678,0.000431,0.000940
108238000,0.0324,0.013523,0.002678,0.000431,0.000823
108239000,0.0324,0.013523,0.002678,0.000431,0.000823
108240000,0.0324,0.013523,0.002678,0.000431,0.000940
108241000,0.0324,0.013523,0.002678,0.000431,0.000940
108242000,0.0324,0.013523,0.002678,0.000431,0.000823
108243000,0.0324,0.013523,0.002678,0.000431,0.000823
108244000,0.0324,0.013523,0.002678,0.000431,0.000940
108245000,0.0324,0.013523,0.002678,0.000431,0.000940
108246000,0.0324,0.013523,0.002678,0.000431,0.000705
108247000,0.0324,0.013523,0.002678,0.000431,0.000940
108248000,0.0324,0.013523,0.002678,0.000431,0.000823
108249000,0.0324,0.013523,0.002678,0.000431,0.000823
108250000,0.0324,0.013523,0.002678,0.000431,0.000823
108251000,0.0324,0.013523,0.002678,0.000431,0.000823
108252000,0.0324,0.013523,0.002678,0.000431,0.000823
108253000,0.0324,0.013523,0.002678,0.000431,0.000823
108254000,0.0324,0.013523,0.002678,0.000431,0.000940
108255000,0.0324,0.013523,0.002678,0.000431,0.000823
108256000,0.0324,0.013523,0.002678,0.000431,0.000823
108257000,0.0324,0.013523,0.002678,0.000431,0.000940
108258000,0.0324,0.013523,0.002678,0.000431,0.000823
108259000,0.0324,0.013523,0.002678,0.000431,0.000940
108260000,0.0324,0.013523,0.002678,0.000431,0.000823
108261000,0.0324,0.013523,0.002678,0.000431,0.000940
108262000,0.0324,0.013523,0.002678,0.000431,0.000823
108263000,0.0324,0.013523,0.002678,0.000431,0.000823
108264000,0.0324,0.013523,0.002678,0.000431,0.000940
108265000,0.0324,0.013523,0.002678,0.000431,0.000823
108266000,0.0324,0.013523,0.002678,0.000431,0.000823
108267000,0.0324,0.013523,0.002678,0.000431,0.000940
108268000,0.0324,0.013523,0.002678,0.000431,0.000940
108269000,0.0324,0.013523,0.002678,0.000431,0.000823
108270000,0.0324,0.013523,0.002678,0.000431,0.000823
108271000,0.0324,0.013523,0.002678,0.000431,0.000940
108272000,0.0324,0.013523,0.002678,0.000431,0.000823
108273000,0.0324,0.013523,0.002678,0.000431,0.000940
108274000,0.0324,0.013523,0.002678,0.000431,0.000823
108275000,0.0324,0.013523,0.002678,0.000431,0.000940
108276000,0.0324,0.013523,0.002678,0.000431,0.000823
108277000,0.0324,0.013523,0.002678,0.000431,0.000823
108278000,0.0324,0.013523,0.002678,0.000431,0.000940
108279000,0.0324,0.013523,0.002678,0.000431,0.000940
108280000,0.0324,0.013523,0.002678,0.000431,0.000940
108281000,0.0324,0.013523,0.002678,0.000431,0.000705
108282000,0.0324,0.013523,0.002678,0.000431,0.000940
108283000,0.0324,0.013523,0.002678,0.000431,0.002233
108284000,0.0324,0.013523,0.002678,0.000431,0.397833
108285000,0.0324,0.013523,0.002678,0.000431,0.717745
108286000,0.0324,0.013523,0.002678,0.000431,0.277367
108287000,0.0324,0.013523,0.002678,0.000431,0.136450
108288000,0.0324,0.013523,0.002678,0.000431,0.174999
108289000,0.0324,0.013523,0.002678,0.000431,0.604095
108290000,0.0324,0.013523,0.002678,0.000431,0.287709
108291000,0.0324,0.013523,0.002678,0.000431,0.290060
108292000,0.0324,0.013523,0.002678,0.000431,0.179936
108293000,0.0324,0.013523,0.002678,0.000431,0.157605
108294000,0.0324,0.013523,0.002678,0.000431,0.118233
108295000,0.0324,0.013523,0.002678,0.000431,0.320147
108296000,0.0324,0.013523,0.002678,0.000431,0.379381
108297000,0.0324,0.013523,0.002678,0.000431,0.160426
108298000,0.0324,0.013523,0.002678,0.000431,0.155607
108299000,0.0324,0.013523,0.002678,0.000431,0.141034
108300000,0.0324,0.013523,0.002678,0.000431,0.119996
108301000,0.0324,0.013523,0.002678,0.000431,0.109301
108302000,0.0324,0.013523,0.002678,0.000431,0.100604
108303000,0.0324,0.013523,0.002678,0.000431,0.087794
108304000,0.0324,0.013523,0.002678,0.000431,0.083563
108305000,0.0324,0.013523,0.002678,0.000431,0.075336
108306000,0.0324,0.013523,0.002678,0.000431,0.067344
108307000,0.0324,0.013523,0.002678,0.000431,0.053710
108308000,0.0324,0.013523,0.002678,0.000431,0.057119
108309000,0.0324,0.013523,0.002678,0.000431,0.051595
108310000,0.0324,0.013523,0.002678,0.000431,0.048304
108311000,0.0324,0.013523,0.002678,0.000431,0.037609
108312000,0.0324,0.013523,0.002678,0.000431,0.035376
108313000,0.0324,0.013523,0.002678,0.000431,0.031850
108314000,0.0324,0.013523,0.002678,0.000431,0.034201
108315000,0.0324,0.013523,0.002678,0.000431,0.031380
108316000,0.0324,0.013523,0.002678,0.000431,0.032438
108317000,0.0324,0.013523,0.002678,0.000431,0.027149
108318000,0.0324,0.013523,0.002678,0.000431,0.025386
108319000,0.0324,0.013523,0.002678,0.000431,0.018687
108320000,0.0324,0.013523,0.002678,0.000431,0.018099
108321000,0.0324,0.013523,0.002678,0.000431,0.022095
108322000,0.0324,0.013523,0.002678,0.000431,0.016924
108323000,0.0324,0.013523,0.002678,0.000431,0.017159
108324000,0.0324,0.013523,0.002678,0.000431,0.012811
108325000,0.0324,0.013523,0.002678,0.000431,0.007169
108326000,0.0324,0.013523,0.002678,0.000431,0.009402
108327000,0.0324,0.013523,0.002678,0.000431,0.006111
108328000,0.0324,0.013523,0.002678,0.000431,0.005406
108329000,0.0324,0.013523,0.002678,0.000431,0.006229
108330000,0.0324,0.013523,0.002678,0.000431,0.006347
108331000,0.0324,0.013523,0.002678,0.000431,0.006347
108332000,0.0324,0.013523,0.002678,0.000431,0.005759
108333000,0.0324,0.013523,0.002678,0.000431,0.007522
108334000,0.0324,0.013523,0.002678,0.000431,0.006111
108335000,0.0324,0.013523,0.002678,0.000431,0.003643
108336000,0.0324,0.013523,0.002678,0.000431,0.003526
108337000,0.0324,0.013523,0.002678,0.000431,0.003408
108338000,0.0324,0.013523,0.002678,0.000431,0.003408
108339000,0.0324,0.013523,0.002678,0.000431,0.004113
108340000,0.0324,0.013523,0.002678,0.000431,0.004113
108341000,0.0324,0.013523,0.002678,0.000431,0.003291
108342000,0.0324,0.013523,0.002678,0.000431,0.004349
108343000,0.0324,0.013523,0.002678,0.000431,0.003291
108344000,0.0324,0.013523,0.002678,0.000431,0.004113
108345000,0.0324,0.013523,0.002678,0.000431,0.003761
108346000,0.0324,0.013523,0.002678,0.000431,0.003056
108347000,0.0324,0.013523,0.002678,0.000431,0.003173
108348000,0.0324,0.013523,0.002678,0.000431,0.002586
108349000,0.0324,0.013523,0.002678,0.000431,0.002586
108350000,0.0324,0.013523,0.002678,0.000431,0.002586
108351000,0.0324,0.013523,0.002678,0.000431,0.002586
108352000,0.0324,0.013523,0.002678,0.000431,0.002468
108353000,0.0324,0.013523,0.002678,0.000431,0.002468
108354000,0.0324,0.013523,0.002678,0.000431,0.004819
108355000,0.0324,0.013523,0.002678,0.000431,0.001763
108356000,0.0324,0.013523,0.002678,0.000431,0.001645
108357000,0.0324,0.013523,0.002678,0.000431,0.001645
108358000,0.0324,0.013523,0.002678,0.000431,0.001645
108359000,0.0324,0.013523,0.002678,0.000431,0.001763
108360000,0.0324,0.013523,0.002678,0.000431,0.001645
108361000,0.0324,0.013523,0.002678,0.000431,0.001645
108362000,0.0324,0.013523,0.002678,0.000431,0.001645
108363000,0.0324,0.013523,0.002678,0.000431,0.001763
108364000,0.0324,0.013523,0.002678,0.000431,0.001645
108365000,0.0324,0.013523,0.002678,0.000431,0.001645
108366000,0.0324,0.013523,0.002678,0.000431,0.001645
108367000,0.0324,0.013523,0.002678,0.000431,0.001528
108368000,0.0324,0.013523,0.002678,0.000431,0.001880
108369000,0.0324,0.013523,0.002678,0.000431,0.001880
108370000,0.0324,0.013523,0.002678,0.000431,0.001528
108371000,0.0324,0.013523,0.002678,0.000431,0.001763
108372000,0.0324,0.013523,0.002678,0.000431,0.001645
108373000,0.0324,0.013523,0.002678,0.000431,0.001880
108374000,0.0324,0.013523,0.002678,0.000431,0.001763
108375000,0.0324,0.013523,0.002678,0.000431,0.001528
108376000,0.0324,0.013523,0.002678,0.000431,0.001880
108377000,0.0324,0.013523,0.002678,0.000431,0.001528
108378000,0.0324,0.013523,0.002678,0.000431,0.001763
108379000,0.0324,0.013523,0.002678,0.000431,0.001645
108380000,0.0324,0.013523,0.002678,0.000431,0.001645
108381000,0.0324,0.013523,0.002678,0.000431,0.001763
108382000,0.0324,0.013523,0.002678,0.000431,0.001528
108383000,0.0324,0.013523,0.002678,0.000431,0.001880
108384000,0.0324,0.013523,0.002678,0.000431,0.001528
108385000,0.0324,0.013523,0.002678,0.000431,0.001763
108386000,0.0324,0.013523,0.002678,0.000431,0.001645
108387000,0.0324,0.013523,0.002678,0.000431,0.001645
108388000,0.0324,0.013523,0.002678,0.000431,0.001763
108389000,0.0324,0.013523,0.002678,0.000431,0.001528
108390000,0.0324,0.013523,0.002678,0.000431,0.003526
108391000,0.0324,0.013523,0.002678,0.000431,0.000823
108392000,0.0324,0.013523,0.002678,0.000431,0.000940
108393000,0.0324,0.013523,0.002678,0.000431,0.000705
108394000,0.0324,0.013523,0.002678,0.000431,0.000940
108395000,0.0324,0.013523,0.002678,0.000431,0.000705
108396000,0.0324,0.013523,0.002678,0.000431,0.000940
108397000,0.0324,0.013523,0.002678,0.000431,0.000705
108398000,0.0324,0.013523,0.002678,0.000431,0.000940
108399000,0.0324,0.013523,0.002678,0.000431,0.000823
108400000,0.0324,0.013523,0.002678,0.000431,0.000823
108401000,0.0324,0.013523,0.002678,0.000431,0.000940
108402000,0.0324,0.013523,0.002678,0.000431,0.000705
108403000,0.0324,0.013523,0.002678,0.000431,0.000940
108404000,0.0324,0.013523,0.002678,0.000431,0.000823
108405000,0.0324,0.013523,0.002678,0.000431,0.000823
108406000,0.0324,0.013523,0.002678,0.000431,0.000823
108407000,0.0324,0.013523,0.002678,0.000431,0.000823
108408000,0.0324,0.013523,0.002678,0.000431,0.000823
108409000,0.0324,0.013523,0.002678,0.000431,0.000823
108410000,0.0324,0.013523,0.002678,0.000431,0.000940
108411000,0.0324,0.013523,0.002678,0.000431,0.000705
108412000,0.0324,0.013523,0.002678,0.000431,0.000940
108413000,0.0324,0.013523,0.002678,0.000431,0.000823
108414000,0.0324,0.013523,0.002678,0.000431,0.000823
108415000,0.0324,0.013523,0.002678,0.000431,0.000705
108416000,0.0324,0.013523,0.002678,0.000431,0.000940
108417000,0.0324,0.013523,0.002678,0.000431,0.000940
108418000,0.0324,0.013523,0.002678,0.000431,0.000705
108419000,0.0324,0.013523,0.002678,0.000431,0.000940
108420000,0.0324,0.013523,0.002678,0.000431,0.000705
108421000,0.0324,0.013523,0.002678,0.000431,0.000940
108422000,0.0324,0.013523,0.002678,0.000431,0.000823
108423000,0.0324,0.013523,0.002678,0.000431,0.000823
108424000,0.0324,0.013523,0.002678,0.000431,0.000823
108425000,0.0324,0.013523,0.002678,0.000431,0.000823
108426000,0.0324,0.013523,0.002678,0.000431,0.000940
108427000,0.0324,0.013523,0.002678,0.000431,0.000705
108428000,0.0324,0.013523,0.002678,0.000431,0.000940
108429000,0.0324,0.013523,0.002678,0.000431,0.000823
108430000,0.0324,0.013523,0.002678,0.000431,0.000823
108431000,0.0324,0.013523,0.002678,0.000431,0.000823
108432000,0.0324,0.013523,0.002678,0.000431,0.000823
108433000,0.0324,0.013523,0.002678,0.000431,0.000823
108434000,0.0324,0.013523,0.002678,0.000431,0.000823
108435000,0.0324,0.013523,0.002678,0.000431,0.000823
108436000,0.0324,0.013523,0.002678,0.000431,0.000823
108437000,0.0324,0.013523,0.002678,0.000431,0.000940
108438000,0.0324,0.013523,0.002678,0.000431,0.000823
108439000,0.0324,0.013523,0.002678,0.000431,0.000823
108440000,0.0324,0.013523,0.002678,0.000431,0.000705
108441000,0.0324,0.013523,0.002678,0.000431,0.000823
108442000,0.0324,0.013523,0.002678,0.000431,0.000823
108443000,0.0324,0.013523,0.002678,0.000431,0.000940
108444000,0.0324,0.013523,0.002678,0.000431,0.000823
108445000,0.0324,0.013523,0.002678,0.000431,0.000823
108446000,0.0324,0.013523,0.002678,0.000431,0.000823
108447000,0.0324,0.013523,0.002678,0.000431,0.000823
108448000,0.0324,0.013523,0.002678,0.000431,0.000823
108449000,0.0324,0.013523,0.002678,0.000431,0.000823
108450000,0.0324,0.013523,0.002678,0.000431,0.000940
108451000,0.0324,0.013523,0.002678,0.000431,0.000705
108452000,0.0324,0.013523,0.002678,0.000431,0.000823
108453000,0.0324,0.013523,0.002678,0.000431,0.000940
108454000,0.0324,0.013523,0.002678,0.000431,0.000823
108455000,0.0324,0.013523,0.002678,0.000431,0.000823
108456000,0.0324,0.013523,0.002678,0.000431,0.000823
108457000,0.0324,0.013523,0.002678,0.000431,0.000705
108458000,0.0324,0.013523,0.002678,0.000431,0.000940
108459000,0.0324,0.013523,0.002678,0.000431,0.000940
108460000,0.0324,0.013523,0.002678,0.000431,0.000705
108461000,0.0324,0.013523,0.002678,0.000431,0.000940
108462000,0.0324,0.013523,0.002678,0.000431,0.000705
108463000,0.0324,0.013523,0.002678,0.000431,0.000940
108464000,0.0324,0.013523,0.002678,0.000431,0.000940
108465000,0.0324,0.013523,0.002678,0.000431,0.000705
108466000,0.0324,0.013523,0.002678,0.000431,0.000823
108467000,0.0324,0.013523,0.002678,0.000431,0.000823
108468000,0.0324,0.013523,0.002678,0.000431,0.000940
108469000,0.0324,0.013523,0.002678,0.000431,0.000940
108470000,0.0324,0.013523,0.002678,0.000431,0.000705
108471000,0.0324,0.013523,0.002678,0.000431,0.000940
108472000,0.0324,0.013523,0.002678,0.000431,0.000823
108473000,0.0324,0.013523,0.002678,0.000431,0.000823
108474000,0.0324,0.013523,0.002678,0.000431,0.000823
108475000,0.0324,0.013523,0.002678,0.000431,0.000823
108476000,0.0324,0.013523,0.002678,0.000431,0.000823
108477000,0.0324,0.013523,0.002678,0.000431,0.000823
108478000,0.0324,0.013523,0.002678,0.000431,0.000940
108479000,0.0324,0.013523,0.002678,0.000431,0.000705
108480000,0.0324,0.013523,0.002678,0.000431,0.000940
108481000,0.0324,0.013523,0.002678,0.000431,0.257034
108482000,0.0324,0.013523,0.002678,0.000431,0.703171
108483000,0.0324,0.013523,0.002678,0.000431,0.375267
108484000,0.0324,0.013523,0.002678,0.000431,0.136450
108485000,0.0324,0.013523,0.002678,0.000431,0.174177
108486000,0.0324,0.013523,0.002678,0.000431,0.628423
108487000,0.0324,0.013523,0.002678,0.000431,0.237289
108488000,0.0324,0.013523,0.002678,0.000431,0.251393
108489000,0.0324,0.013523,0.002678,0.000431,0.203559
108490000,0.0324,0.013523,0.002678,0.000431,0.152904
108491000,0.0324,0.013523,0.002678,0.000431,0.157723
108492000,0.0324,0.013523,0.002678,0.000431,0.153257
108493000,0.0324,0.013523,0.002678,0.000431,0.470700
108494000,0.0324,0.013523,0.002678,0.000431,0.172179
108495000,0.0324,0.013523,0.002678,0.000431,0.136333
108496000,0.0324,0.013523,0.002678,0.000431,0.120584
108497000,0.0324,0.013523,0.002678,0.000431,0.116470
108498000,0.0324,0.013523,0.002678,0.000431,0.104600
108499000,0.0324,0.013523,0.002678,0.000431,0.081447
108500000,0.0324,0.013523,0.002678,0.000431,0.085208
108501000,0.0324,0.013523,0.002678,0.000431,0.072280
108502000,0.0324,0.013523,0.002678,0.000431,0.065463
108503000,0.0324,0.013523,0.002678,0.000431,0.053240
108504000,0.0324,0.013523,0.002678,0.000431,0.051125
108505000,0.0324,0.013523,0.002678,0.000431,0.054180
108506000,0.0324,0.013523,0.002678,0.000431,0.045483
108507000,0.0324,0.013523,0.002678,0.000431,0.044191
108508000,0.0324,0.013523,0.002678,0.000431,0.048657
108509000,0.0324,0.013523,0.002678,0.000431,0.041017
108510000,0.0324,0.013523,0.002678,0.000431,0.029970
108511000,0.0324,0.013523,0.002678,0.000431,0.040430
108512000,0.0324,0.013523,0.002678,0.000431,0.025269
108513000,0.0324,0.013523,0.002678,0.000431,0.029617
108514000,0.0324,0.013523,0.002678,0.000431,0.023153
108515000,0.0324,0.013523,0.002678,0.000431,0.019745
108516000,0.0324,0.013523,0.002678,0.000431,0.020215
108517000,0.0324,0.013523,0.002678,0.000431,0.017042
108518000,0.0324,0.013523,0.002678,0.000431,0.015161
108519000,0.0324,0.013523,0.002678,0.000431,0.009755
108520000,0.0324,0.013523,0.002678,0.000431,0.014926
108521000,0.0324,0.013523,0.002678,0.000431,0.009050
108522000,0.0324,0.013523,0.002678,0.000431,0.006347
108523000,0.0324,0.013523,0.002678,0.000431,0.006817
108524000,0.0324,0.013523,0.002678,0.000431,0.009872
108525000,0.0324,0.013523,0.002678,0.000431,0.005054
108526000,0.0324,0.013523,0.002678,0.000431,0.005054
108527000,0.0324,0.013523,0.002678,0.000431,0.003996
108528000,0.0324,0.013523,0.002678,0.000431,0.004231
108529000,0.0324,0.013523,0.002678,0.000431,0.007639
108530000,0.0324,0.013523,0.002678,0.000431,0.003878
108531000,0.0324,0.013523,0.002678,0.000431,0.002468
108532000,0.0324,0.013523,0.002678,0.000431,0.002703
108533000,0.0324,0.013523,0.002678,0.000431,0.002586
108534000,0.0324,0.013523,0.002678,0.000431,0.002586
108535000,0.0324,0.013523,0.002678,0.000431,0.004113
108536000,0.0324,0.013523,0.002678,0.000431,0.004349
108537000,0.0324,0.013523,0.002678,0.000431,0.001998
108538000,0.0324,0.013523,0.002678,0.000431,0.000823
108539000,0.0324,0.013523,0.002678,0.000431,0.000940
108540000,0.0324,0.013523,0.002678,0.000431,0.000823
108541000,0.0324,0.013523,0.002678,0.000431,0.000823
108542000,0.0324,0.013523,0.002678,0.000431,0.000705
108543000,0.0324,0.013523,0.002678,0.000431,0.000940
108544000,0.0324,0.013523,0.002678,0.000431,0.000940
108545000,0.0324,0.013523,0.002678,0.000431,0.000705
108546000,0.0324,0.013523,0.002678,0.000431,0.000940
108547000,0.0324,0.013523,0.002678,0.000431,0.000705
108548000,0.0324,0.013523,0.002678,0.000431,0.000940
108549000,0.0324,0.013523,0.002678,0.000431,0.000705
108550000,0.0324,0.013523,0.002678,0.000431,0.000940
108551000,0.0324,0.013523,0.002678,0.000431,0.000705
108552000,0.0324,0.013523,0.002678,0.000431,0.013163
108553000,0.0324,0.013523,0.002678,0.000431,0.585760
108554000,0.0324,0.013523,0.002678,0.000431,0.636650
108555000,0.0324,0.013523,0.002678,0.000431,0.139976
108556000,0.0324,0.013523,0.002678,0.000431,0.137861
108557000,0.0324,0.013523,0.002678,0.000431,0.420633
108558000,0.0324,0.013523,0.002678,0.000431,0.352349
108559000,0.0324,0.013523,0.002678,0.000431,0.259502
108560000,0.0324,0.013523,0.002678,0.000431,0.325318
108561000,0.0324,0.013523,0.002678,0.000431,0.138801
108562000,0.0324,0.013523,0.002678,0.000431,0.147028
108563000,0.0324,0.013523,0.002678,0.000431,0.125520
108564000,0.0324,0.013523,0.002678,0.000431,0.349999
108565000,0.0324,0.013523,0.002678,0.000431,0.422396
108566000,0.0324,0.013523,0.002678,0.000431,0.213549
108567000,0.0324,0.013523,0.002678,0.000431,0.198740
108568000,0.0324,0.013523,0.002678,0.000431,0.183697
108569000,0.0324,0.013523,0.002678,0.000431,0.140799
108570000,0.0324,0.013523,0.002678,0.000431,0.116470
108571000,0.0324,0.013523,0.002678,0.000431,0.114237
108572000,0.0324,0.013523,0.002678,0.000431,0.087088
108573000,0.0324,0.013523,0.002678,0.000431,0.080272
108574000,0.0324,0.013523,0.002678,0.000431,0.085443
108575000,0.0324,0.013523,0.002678,0.000431,0.063700
108576000,0.0324,0.013523,0.002678,0.000431,0.062525
108577000,0.0324,0.013523,0.002678,0.000431,0.046776
108578000,0.0324,0.013523,0.002678,0.000431,0.035964
108579000,0.0324,0.013523,0.002678,0.000431,0.041370
108580000,0.0324,0.013523,0.002678,0.000431,0.040782
108581000,0.0324,0.013523,0.002678,0.000431,0.029029
108582000,0.0324,0.013523,0.002678,0.000431,0.026091
108583000,0.0324,0.013523,0.002678,0.000431,0.029617
108584000,0.0324,0.013523,0.002678,0.000431,0.014456
108585000,0.0324,0.013523,0.002678,0.000431,0.015161
108586000,0.0324,0.013523,0.002678,0.000431,0.013163
108587000,0.0324,0.013523,0.002678,0.000431,0.010225
108588000,0.0324,0.013523,0.002678,0.000431,0.007874
108589000,0.0324,0.013523,0.002678,0.000431,0.007874
108590000,0.0324,0.013523,0.002678,0.000431,0.012223
108591000,0.0324,0.013523,0.002678,0.000431,0.005759
108592000,0.0324,0.013523,0.002678,0.000431,0.006229
108593000,0.0324,0.013523,0.002678,0.000431,0.005994
108594000,0.0324,0.013523,0.002678,0.000431,0.012105
108595000,0.0324,0.013523,0.002678,0.000431,0.007639
108596000,0.0324,0.013523,0.002678,0.000431,0.003291
108597000,0.0324,0.013523,0.002678,0.000431,0.003408
108598000,0.0324,0.013523,0.002678,0.000431,0.003643
108599000,0.0324,0.013523,0.002678,0.000431,0.008580
108600000,0.0324,0.013523,0.002678,0.000431,0.001763
108601000,0.0324,0.013523,0.002678,0.000431,0.003996
108602000,0.0324,0.013523,0.002678,0.000431,0.000823
108603000,0.0324,0.013523,0.002678,0.000431,0.000705
108604000,0.0324,0.013523,0.002678,0.000431,0.000940
108605000,0.0324,0.013523,0.002678,0.000431,0.000940
108606000,0.0324,0.013523,0.002678,0.000431,0.000705
108607000,0.0324,0.013523,0.002678,0.000431,0.000940
108608000,0.0324,0.013523,0.002678,0.000431,0.000705
108609000,0.0324,0.013523,0.002678,0.000431,0.000940
108610000,0.0324,0.013523,0.002678,0.000431,0.000823
108611000,0.0324,0.013523,0.002678,0.000431,0.001645
108612000,0.0324,0.013523,0.002678,0.000431,0.504196
108613000,0.0324,0.013523,0.002678,0.000431,0.679078
108614000,0.0324,0.013523,0.002678,0.000431,0.274311
108615000,0.0324,0.013523,0.002678,0.000431,0.139036
108616000,0.0324,0.013523,0.002678,0.000431,0.290412
108617000,0.0324,0.013523,0.002678,0.000431,0.516184
108618000,0.0324,0.013523,0.002678,0.000431,0.275369
108619000,0.0324,0.013523,0.002678,0.000431,0.356463
108620000,0.0324,0.013523,0.002678,0.000431,0.143619
108621000,0.0324,0.013523,0.002678,0.000431,0.181464
108622000,0.0324,0.013523,0.002678,0.000431,0.090614
108623000,0.0324,0.013523,0.002678,0.000431,0.511835
108624000,0.0324,0.013523,0.002678,0.000431,0.225537
108625000,0.0324,0.013523,0.002678,0.000431,0.147145
108626000,0.0324,0.013523,0.002678,0.000431,0.138213
108627000,0.0324,0.013523,0.002678,0.000431,0.119761
108628000,0.0324,0.013523,0.002678,0.000431,0.117058
108629000,0.0324,0.013523,0.002678,0.000431,0.106245
108630000,0.0324,0.013523,0.002678,0.000431,0.082035
108631000,0.0324,0.013523,0.002678,0.000431,0.079567
108632000,0.0324,0.013523,0.002678,0.000431,0.065463
108633000,0.0324,0.013523,0.002678,0.000431,0.068284
108634000,0.0324,0.013523,0.002678,0.000431,0.059469
108635000,0.0324,0.013523,0.002678,0.000431,0.052418
108636000,0.0324,0.013523,0.002678,0.000431,0.046424
108637000,0.0324,0.013523,0.002678,0.000431,0.040782
108638000,0.0324,0.013523,0.002678,0.000431,0.031027
108639000,0.0324,0.013523,0.002678,0.000431,0.030910
108640000,0.0324,0.013523,0.002678,0.000431,0.026209
108641000,0.0324,0.013523,0.002678,0.000431,0.024093
108642000,0.0324,0.013523,0.002678,0.000431,0.031380
108643000,0.0324,0.013523,0.002678,0.000431,0.024446
108644000,0.0324,0.013523,0.002678,0.000431,0.021743
108645000,0.0324,0.013523,0.002678,0.000431,0.019510
108646000,0.0324,0.013523,0.002678,0.000431,0.017512
108647000,0.0324,0.013523,0.002678,0.000431,0.013281
108648000,0.0324,0.013523,0.002678,0.000431,0.012458
108649000,0.0324,0.013523,0.002678,0.000431,0.012693
108650000,0.0324,0.013523,0.002678,0.000431,0.014691
108651000,0.0324,0.013523,0.002678,0.000431,0.005994
108652000,0.0324,0.013523,0.002678,0.000431,0.006817
108653000,0.0324,0.013523,0.002678,0.000431,0.006111
108654000,0.0324,0.013523,0.002678,0.000431,0.005524
108655000,0.0324,0.013523,0.002678,0.000431,0.005759
108656000,0.0324,0.013523,0.002678,0.000431,0.005406
108657000,0.0324,0.013523,0.002678,0.000431,0.005406
108658000,0.0324,0.013523,0.002678,0.000431,0.005054
108659000,0.0324,0.013523,0.002678,0.000431,0.004701
108660000,0.0324,0.013523,0.002678,0.000431,0.004819
108661000,0.0324,0.013523,0.002678,0.000431,0.005289
108662000,0.0324,0.013523,0.002678,0.000431,0.004819
108663000,0.0324,0.013523,0.002678,0.000431,0.008462
108664000,0.0324,0.013523,0.002678,0.000431,0.003408
108665000,0.0324,0.013523,0.002678,0.000431,0.002821
108666000,0.0324,0.013523,0.002678,0.000431,0.003173
108667000,0.0324,0.013523,0.002678,0.000431,0.003056
108668000,0.0324,0.013523,0.002678,0.000431,0.003291
108669000,0.0324,0.013523,0.002678,0.000431,0.003173
108670000,0.0324,0.013523,0.002678,0.000431,0.002938
108671000,0.0324,0.013523,0.002678,0.000431,0.002586
108672000,0.0324,0.013523,0.002678,0.000431,0.005171
108673000,0.0324,0.013523,0.002678,0.000431,0.005406
108674000,0.0324,0.013523,0.002678,0.000431,0.000823
108675000,0.0324,0.013523,0.002678,0.000431,0.000940
108676000,0.0324,0.013523,0.002678,0.000431,0.000823
108677000,0.0324,0.013523,0.002678,0.000431,0.000823
108678000,0.0324,0.013523,0.002678,0.000431,0.000705
108679000,0.0324,0.013523,0.002678,0.000431,0.000940
108680000,0.0324,0.013523,0.002678,0.000431,0.070517
108681000,0.0324,0.013523,0.002678,0.000431,0.624662
108682000,0.0324,0.013523,0.002678,0.000431,0.601979
108683000,0.0324,0.013523,0.002678,0.000431,0.144795
108684000,0.0324,0.013523,0.002678,0.000431,0.138096
108685000,0.0324,0.013523,0.002678,0.000431,0.589874
108686000,0.0324,0.013523,0.002678,0.000431,0.238347
108687000,0.0324,0.013523,0.002678,0.000431,0.321205
108688000,0.0324,0.013523,0.002678,0.000431,0.295348
108689000,0.0324,0.013523,0.002678,0.000431,0.145500
108690000,0.0324,0.013523,0.002678,0.000431,0.120819
108691000,0.0324,0.013523,0.002678,0.000431,0.312272
108692000,0.0324,0.013523,0.002678,0.000431,0.403827
108693000,0.0324,0.013523,0.002678,0.000431,0.194039
108694000,0.0324,0.013523,0.002678,0.000431,0.165597
108695000,0.0324,0.013523,0.002678,0.000431,0.139976
108696000,0.0324,0.013523,0.002678,0.000431,0.129869
108697000,0.0324,0.013523,0.002678,0.000431,0.100722
108698000,0.0324,0.013523,0.002678,0.000431,0.096961
108699000,0.0324,0.013523,0.002678,0.000431,0.093200
108700000,0.0324,0.013523,0.002678,0.000431,0.075101
108701000,0.0324,0.013523,0.002678,0.000431,0.058412
108702000,0.0324,0.013523,0.002678,0.000431,0.054063
108703000,0.0324,0.013523,0.002678,0.000431,0.054533
108704000,0.0324,0.013523,0.002678,0.000431,0.050067
108705000,0.0324,0.013523,0.002678,0.000431,0.046189
108706000,0.0324,0.013523,0.002678,0.000431,0.040195
108707000,0.0324,0.013523,0.002678,0.000431,0.038197
108708000,0.0324,0.013523,0.002678,0.000431,0.034906
108709000,0.0324,0.013523,0.002678,0.000431,0.031968
108710000,0.0324,0.013523,0.002678,0.000431,0.031615
108711000,0.0324,0.013523,0.002678,0.000431,0.034083
108712000,0.0324,0.013523,0.002678,0.000431,0.020685
108713000,0.0324,0.013523,0.002678,0.000431,0.020685
108714000,0.0324,0.013523,0.002678,0.000431,0.021860
108715000,0.0324,0.013523,0.002678,0.000431,0.016219
108716000,0.0324,0.013523,0.002678,0.000431,0.015161
108717000,0.0324,0.013523,0.002678,0.000431,0.013633
108718000,0.0324,0.013523,0.002678,0.000431,0.009637
108719000,0.0324,0.013523,0.002678,0.000431,0.010930
108720000,0.0324,0.013523,0.002678,0.000431,0.009402
108721000,0.0324,0.013523,0.002678,0.000431,0.012693
108722000,0.0324,0.013523,0.002678,0.000431,0.009872
108723000,0.0324,0.013523,0.002678,0.000431,0.003408
108724000,0.0324,0.013523,0.002678,0.000431,0.005171
108725000,0.0324,0.013523,0.002678,0.000431,0.001880
108726000,0.0324,0.013523,0.002678,0.000431,0.001645
108727000,0.0324,0.013523,0.002678,0.000431,0.001763
108728000,0.0324,0.013523,0.002678,0.000431,0.001528
108729000,0.0324,0.013523,0.002678,0.000431,0.005171
108730000,0.0324,0.013523,0.002678,0.000431,0.000705
108731000,0.0324,0.013523,0.002678,0.000431,0.000940
108732000,0.0324,0.013523,0.002678,0.000431,0.000940
108733000,0.0324,0.013523,0.002678,0.000431,0.000823
108734000,0.0324,0.013523,0.002678,0.000431,0.000823
108735000,0.0324,0.013523,0.002678,0.000431,0.000940
108736000,0.0324,0.013523,0.002678,0.000431,0.000940
108737000,0.0324,0.013523,0.002678,0.000431,0.000705
108738000,0.0324,0.013523,0.002678,0.000431,0.000940
108739000,0.0324,0.013523,0.002678,0.000431,0.000940
108740000,0.0324,0.013523,0.002678,0.000431,0.000940
108741000,0.0324,0.013523,0.002678,0.000431,0.000823
108742000,0.0324,0.013523,0.002678,0.000431,0.000705
108743000,0.0324,0.013523,0.002678,0.000431,0.000940
108744000,0.0324,0.013523,0.002678,0.000431,0.000823
108745000,0.0324,0.013523,0.002678,0.000431,0.000823
108746000,0.0324,0.013523,0.002678,0.000431,0.000823
108747000,0.0324,0.013523,0.002678,0.000431,0.000823
108748000,0.0324,0.013523,0.002678,0.000431,0.000823
108749000,0.0324,0.013523,0.002678,0.000431,0.000940
108750000,0.0324,0.013523,0.002678,0.000431,0.000823
108751000,0.0324,0.013523,0.002678,0.000431,0.000823
108752000,0.0324,0.013523,0.002678,0.000431,0.000940
108753000,0.0324,0.013523,0.002678,0.000431,0.000823
108754000,0.0324,0.013523,0.002678,0.000431,0.000823
108755000,0.0324,0.013523,0.002678,0.000431,0.000940
108756000,0.0324,0.013523,0.002678,0.000431,0.000940
108757000,0.0324,0.013523,0.002678,0.000431,0.000705
108758000,0.0324,0.013523,0.002678,0.000431,0.000940
108759000,0.0324,0.013523,0.002678,0.000431,0.000940
108760000,0.0324,0.013523,0.002678,0.000431,0.000940
108761000,0.0324,0.013523,0.002678,0.000431,0.000705
108762000,0.0324,0.013523,0.002678,0.000431,0.000940
108763000,0.0324,0.013523,0.002678,0.000431,0.000823
108764000,0.0324,0.013523,0.002678,0.000431,0.000823
108765000,0.0324,0.013523,0.002678,0.000431,0.000823
108766000,0.0324,0.013523,0.002678,0.000431,0.000823
108767000,0.0324,0.013523,0.002678,0.000431,0.000823
108768000,0.0324,0.013523,0.002678,0.000431,0.000823
108769000,0.0324,0.013523,0.002678,0.000431,0.000940
108770000,0.0324,0.013523,0.002678,0.000431,0.000705
108771000,0.0324,0.013523,0.002678,0.000431,0.000940
108772000,0.0324,0.013523,0.002678,0.000431,0.000705
108773000,0.0324,0.013523,0.002678,0.000431,0.000940
108774000,0.0324,0.013523,0.002678,0.000431,0.000823
108775000,0.0324,0.013523,0.002678,0.000431,0.000823
108776000,0.0324,0.013523,0.002678,0.000431,0.000940
108777000,0.0324,0.013523,0.002678,0.000431,0.000705
108778000,0.0324,0.013523,0.002678,0.000431,0.000940
108779000,0.0324,0.013523,0.002678,0.000431,0.000823
108780000,0.0324,0.013523,0.002678,0.000431,0.000823
108781000,0.0324,0.013523,0.002678,0.000431,0.232118
108782000,0.0324,0.013523,0.002678,0.000431,0.632067
108783000,0.0324,0.013523,0.002678,0.000431,0.484216
108784000,0.0324,0.013523,0.002678,0.000431,0.141386
108785000,0.0324,0.013523,0.002678,0.000431,0.171356
108786000,0.0324,0.013523,0.002678,0.000431,0.643232
108787000,0.0324,0.013523,0.002678,0.000431,0.251980
108788000,0.0324,0.013523,0.002678,0.000431,0.338481
108789000,0.0324,0.013523,0.002678,0.000431,0.196507
108790000,0.0324,0.013523,0.002678,0.000431,0.150201
108791000,0.0324,0.013523,0.002678,0.000431,0.114355
108792000,0.0324,0.013523,0.002678,0.000431,0.451191
108793000,0.0324,0.013523,0.002678,0.000431,0.321440
108794000,0.0324,0.013523,0.002678,0.000431,0.206497
108795000,0.0324,0.013523,0.002678,0.000431,0.161836
108796000,0.0324,0.013523,0.002678,0.000431,0.141621
108797000,0.0324,0.013523,0.002678,0.000431,0.138801
108798000,0.0324,0.013523,0.002678,0.000431,0.117293
108799000,0.0324,0.013523,0.002678,0.000431,0.094728
108800000,0.0324,0.013523,0.002678,0.000431,0.087794
108801000,0.0324,0.013523,0.002678,0.000431,0.081565
108802000,0.0324,0.013523,0.002678,0.000431,0.069694
108803000,0.0324,0.013523,0.002678,0.000431,0.063583
108804000,0.0324,0.013523,0.002678,0.000431,0.049714
108805000,0.0324,0.013523,0.002678,0.000431,0.046541
108806000,0.0324,0.013523,0.002678,0.000431,0.043015
108807000,0.0324,0.013523,0.002678,0.000431,0.039607
108808000,0.0324,0.013523,0.002678,0.000431,0.037491
108809000,0.0324,0.013523,0.002678,0.000431,0.027619
108810000,0.0324,0.013523,0.002678,0.000431,0.026091
108811000,0.0324,0.013523,0.002678,0.000431,0.022448
108812000,0.0324,0.013523,0.002678,0.000431,0.023388
108813000,0.0324,0.013523,0.002678,0.000431,0.022800
108814000,0.0324,0.013523,0.002678,0.000431,0.020332
108815000,0.0324,0.013523,0.002678,0.000431,0.016571
108816000,0.0324,0.013523,0.002678,0.000431,0.011283
108817000,0.0324,0.013523,0.002678,0.000431,0.009285
108818000,0.0324,0.013523,0.002678,0.000431,0.005759
108819000,0.0324,0.013523,0.002678,0.000431,0.004584
108820000,0.0324,0.013523,0.002678,0.000431,0.008462
108821000,0.0324,0.013523,0.002678,0.000431,0.003996
108822000,0.0324,0.013523,0.002678,0.000431,0.004466
108823000,0.0324,0.013523,0.002678,0.000431,0.004466
108824000,0.0324,0.013523,0.002678,0.000431,0.004231
108825000,0.0324,0.013523,0.002678,0.000431,0.004113
108826000,0.0324,0.013523,0.002678,0.000431,0.004231
108827000,0.0324,0.013523,0.002678,0.000431,0.004701
108828000,0.0324,0.013523,0.002678,0.000431,0.004349
108829000,0.0324,0.013523,0.002678,0.000431,0.004231
108830000,0.0324,0.013523,0.002678,0.000431,0.004349
108831000,0.0324,0.013523,0.002678,0.000431,0.004584
108832000,0.0324,0.013523,0.002678,0.000431,0.003761
108833000,0.0324,0.013523,0.002678,0.000431,0.004936
108834000,0.0324,0.013523,0.002678,0.000431,0.006229
108835000,0.0324,0.013523,0.002678,0.000431,0.003526
108836000,0.0324,0.013523,0.002678,0.000431,0.003761
108837000,0.0324,0.013523,0.002678,0.000431,0.003291
108838000,0.0324,0.013523,0.002678,0.000431,0.003643
108839000,0.0324,0.013523,0.002678,0.000431,0.003526
108840000,0.0324,0.013523,0.002678,0.000431,0.003291
108841000,0.0324,0.013523,0.002678,0.000431,0.005406
108842000,0.0324,0.013523,0.002678,0.000431,0.002821
108843000,0.0324,0.013523,0.002678,0.000431,0.002233
108844000,0.0324,0.013523,0.002678,0.000431,0.003996
108845000,0.0324,0.013523,0.002678,0.000431,0.003643
108846000,0.0324,0.013523,0.002678,0.000431,0.002116
108847000,0.0324,0.013523,0.002678,0.000431,0.000823
108848000,0.0324,0.013523,0.002678,0.000431,0.068636
108849000,0.0324,0.013523,0.002678,0.000431,0.674142
108850000,0.0324,0.013523,0.002678,0.000431,0.594105
108851000,0.0324,0.013523,0.002678,0.000431,0.156430
108852000,0.0324,0.013523,0.002678,0.000431,0.138213
108853000,0.0324,0.013523,0.002678,0.000431,0.597631
108854000,0.0324,0.013523,0.002678,0.000431,0.236232
108855000,0.0324,0.013523,0.002678,0.000431,0.287591
108856000,0.0324,0.013523,0.002678,0.000431,0.281950
108857000,0.0324,0.013523,0.002678,0.000431,0.151729
108858000,0.0324,0.013523,0.002678,0.000431,0.145147
108859000,0.0324,0.013523,0.002678,0.000431,0.231413
108860000,0.0324,0.013523,0.002678,0.000431,0.481278
108861000,0.0324,0.013523,0.002678,0.000431,0.219660
108862000,0.0324,0.013523,0.002678,0.000431,0.197800
108863000,0.0324,0.013523,0.002678,0.000431,0.171591
108864000,0.0324,0.013523,0.002678,0.000431,0.152317
108865000,0.0324,0.013523,0.002678,0.000431,0.121759
108866000,0.0324,0.013523,0.002678,0.000431,0.105305
108867000,0.0324,0.013523,0.002678,0.000431,0.095315
108868000,0.0324,0.013523,0.002678,0.000431,0.098841
108869000,0.0324,0.013523,0.002678,0.000431,0.080389
108870000,0.0324,0.013523,0.002678,0.000431,0.074395
108871000,0.0324,0.013523,0.002678,0.000431,0.062290
108872000,0.0324,0.013523,0.002678,0.000431,0.042663
108873000,0.0324,0.013523,0.002678,0.000431,0.045836
108874000,0.0324,0.013523,0.002678,0.000431,0.040547
108875000,0.0324,0.013523,0.002678,0.000431,0.041017
108876000,0.0324,0.013523,0.002678,0.000431,0.037491
108877000,0.0324,0.013523,0.002678,0.000431,0.034318
108878000,0.0324,0.013523,0.002678,0.000431,0.031027
108879000,0.0324,0.013523,0.002678,0.000431,0.020450
108880000,0.0324,0.013523,0.002678,0.000431,0.017277
108881000,0.0324,0.013523,0.002678,0.000431,0.020332
108882000,0.0324,0.013523,0.002678,0.000431,0.012458
108883000,0.0324,0.013523,0.002678,0.000431,0.015161
108884000,0.0324,0.013523,0.002678,0.000431,0.011870
108885000,0.0324,0.013523,0.002678,0.000431,0.006111
108886000,0.0324,0.013523,0.002678,0.000431,0.006111
108887000,0.0324,0.013523,0.002678,0.000431,0.006229
108888000,0.0324,0.013523,0.002678,0.000431,0.004701
108889000,0.0324,0.013523,0.002678,0.000431,0.004466
108890000,0.0324,0.013523,0.002678,0.000431,0.004349
108891000,0.0324,0.013523,0.002678,0.000431,0.004584
108892000,0.0324,0.013523,0.002678,0.000431,0.005171
108893000,0.0324,0.013523,0.002678,0.000431,0.005054
108894000,0.0324,0.013523,0.002678,0.000431,0.003526
108895000,0.0324,0.013523,0.002678,0.000431,0.006934
108896000,0.0324,0.013523,0.002678,0.000431,0.003408
108897000,0.0324,0.013523,0.002678,0.000431,0.002468
108898000,0.0324,0.013523,0.002678,0.000431,0.003173
108899000,0.0324,0.013523,0.002678,0.000431,0.002468
108900000,0.0324,0.013523,0.002678,0.000431,0.003526
108901000,0.0324,0.013523,0.002678,0.000431,0.000823
108902000,0.0324,0.013523,0.002678,0.000431,0.000823
108903000,0.0324,0.013523,0.002678,0.000431,0.000705
108904000,0.0324,0.013523,0.002678,0.000431,0.000940
108905000,0.0324,0.013523,0.002678,0.000431,0.000823
108906000,0.0324,0.013523,0.002678,0.000431,0.000823
108907000,0.0324,0.013523,0.002678,0.000431,0.000705
108908000,0.0324,0.013523,0.002678,0.000431,0.000940
108909000,0.0324,0.013523,0.002678,0.000431,0.000940
108910000,0.0324,0.013523,0.002678,0.000431,0.000705
108911000,0.0324,0.013523,0.002678,0.000431,0.000940
108912000,0.0324,0.013523,0.002678,0.000431,0.000705
108913000,0.0324,0.013523,0.002678,0.000431,0.000940
108914000,0.0324,0.013523,0.002678,0.000431,0.000823
108915000,0.0324,0.013523,0.002678,0.000431,0.000823
108916000,0.0324,0.013523,0.002678,0.000431,0.000940
108917000,0.0324,0.013523,0.002678,0.000431,0.000705
108918000,0.0324,0.013523,0.002678,0.000431,0.000940
108919000,0.0324,0.013523,0.002678,0.000431,0.000823
108920000,0.0324,0.013523,0.002678,0.000431,0.000823
108921000,0.0324,0.013523,0.002678,0.000431,0.000705
108922000,0.0324,0.013523,0.002678,0.000431,0.000940
108923000,0.0324,0.013523,0.002678,0.000431,0.000705
108924000,0.0324,0.013523,0.002678,0.000431,0.002821
108925000,0.0324,0.013523,0.002678,0.000431,0.480690
108926000,0.0324,0.013523,0.002678,0.000431,0.696825
108927000,0.0324,0.013523,0.002678,0.000431,0.246692
108928000,0.0324,0.013523,0.002678,0.000431,0.162071
108929000,0.0324,0.013523,0.002678,0.000431,0.374445
108930000,0.0324,0.013523,0.002678,0.000431,0.487977
108931000,0.0324,0.013523,0.002678,0.000431,0.272548
108932000,0.0324,0.013523,0.002678,0.000431,0.304633
108933000,0.0324,0.013523,0.002678,0.000431,0.154432
108934000,0.0324,0.013523,0.002678,0.000431,0.134335
108935000,0.0324,0.013523,0.002678,0.000431,0.240933
108936000,0.0324,0.013523,0.002678,0.000431,0.464589
108937000,0.0324,0.013523,0.002678,0.000431,0.197917
108938000,0.0324,0.013523,0.002678,0.000431,0.169358
108939000,0.0324,0.013523,0.002678,0.000431,0.147733
108940000,0.0324,0.013523,0.002678,0.000431,0.137155
108941000,0.0324,0.013523,0.002678,0.000431,0.118233
108942000,0.0324,0.013523,0.002678,0.000431,0.115530
108943000,0.0324,0.013523,0.002678,0.000431,0.098019
108944000,0.0324,0.013523,0.002678,0.000431,0.081212
108945000,0.0324,0.013523,0.002678,0.000431,0.073103
108946000,0.0324,0.013523,0.002678,0.000431,0.073455
108947000,0.0324,0.013523,0.002678,0.000431,0.061820
108948000,0.0324,0.013523,0.002678,0.000431,0.055473
108949000,0.0324,0.013523,0.002678,0.000431,0.046306
108950000,0.0324,0.013523,0.002678,0.000431,0.042545
108951000,0.0324,0.013523,0.002678,0.000431,0.038197
108952000,0.0324,0.013523,0.002678,0.000431,0.040077
108953000,0.0324,0.013523,0.002678,0.000431,0.035376
108954000,0.0324,0.013523,0.002678,0.000431,0.026561
108955000,0.0324,0.013523,0.002678,0.000431,0.019745
108956000,0.0324,0.013523,0.002678,0.000431,0.018922
108957000,0.0324,0.013523,0.002678,0.000431,0.015866
108958000,0.0324,0.013523,0.002678,0.000431,0.017982
108959000,0.0324,0.013523,0.002678,0.000431,0.016689
108960000,0.0324,0.013523,0.002678,0.000431,0.015984
108961000,0.0324,0.013523,0.002678,0.000431,0.011988
108962000,0.0324,0.013523,0.002678,0.000431,0.008580
108963000,0.0324,0.013523,0.002678,0.000431,0.014103
108964000,0.0324,0.013523,0.002678,0.000431,0.007992
108965000,0.0324,0.013523,0.002678,0.000431,0.006582
108966000,0.0324,0.013523,0.002678,0.000431,0.003408
108967000,0.0324,0.013523,0.002678,0.000431,0.003408
108968000,0.0324,0.013523,0.002678,0.000431,0.003408
108969000,0.0324,0.013523,0.002678,0.000431,0.003408
108970000,0.0324,0.013523,0.002678,0.000431,0.003291
108971000,0.0324,0.013523,0.002678,0.000431,0.003291
108972000,0.0324,0.013523,0.002678,0.000431,0.003526
108973000,0.0324,0.013523,0.002678,0.000431,0.003408
108974000,0.0324,0.013523,0.002678,0.000431,0.003173
108975000,0.0324,0.013523,0.002678,0.000431,0.005994
108976000,0.0324,0.013523,0.002678,0.000431,0.004701
108977000,0.0324,0.013523,0.002678,0.000431,0.001763
108978000,0.0324,0.013523,0.002678,0.000431,0.001645
108979000,0.0324,0.013523,0.002678,0.000431,0.001645
108980000,0.0324,0.013523,0.002678,0.000431,0.001763
108981000,0.0324,0.013523,0.002678,0.000431,0.001645
108982000,0.0324,0.013523,0.002678,0.000431,0.001763
108983000,0.0324,0.013523,0.002678,0.000431,0.001410
108984000,0.0324,0.013523,0.002678,0.000431,0.001880
108985000,0.0324,0.013523,0.002678,0.000431,0.001763
108986000,0.0324,0.013523,0.002678,0.000431,0.001528
108987000,0.0324,0.013523,0.002678,0.000431,0.003173
108988000,0.0324,0.013523,0.002678,0.000431,0.002586
108989000,0.0324,0.013523,0.002678,0.000431,0.000823
108990000,0.0324,0.013523,0.002678,0.000431,0.000823
108991000,0.0324,0.013523,0.002678,0.000431,0.000940
108992000,0.0324,0.013523,0.002678,0.000431,0.000705
108993000,0.0324,0.013523,0.002678,0.000431,0.000940
108994000,0.0324,0.013523,0.002678,0.000431,0.000823
108995000,0.0324,0.013523,0.002678,0.000431,0.000823
108996000,0.0324,0.013523,0.002678,0.000431,0.000823
108997000,0.0324,0.013523,0.002678,0.000431,0.000823
108998000,0.0324,0.013523,0.002678,0.000431,0.000823
108999000,0.0324,0.013523,0.002678,0.000431,0.000823
