Cycle,Area(mm^2),PeakDynamic(W),SubthresholdLeakage(W),GateLeakage(W),RunTimeDynamic(W)
93000000,0.0324,0.013523,0.002678,0.000431,0.006111
93001000,0.0324,0.013523,0.002678,0.000431,0.005641
93002000,0.0324,0.013523,0.002678,0.000431,0.005876
93003000,0.0324,0.013523,0.002678,0.000431,0.006111
93004000,0.0324,0.013523,0.002678,0.000431,0.005759
93005000,0.0324,0.013523,0.002678,0.000431,0.005994
93006000,0.0324,0.013523,0.002678,0.000431,0.005406
93007000,0.0324,0.013523,0.002678,0.000431,0.008109
93008000,0.0324,0.013523,0.002678,0.000431,0.005289
93009000,0.0324,0.013523,0.002678,0.000431,0.004466
93010000,0.0324,0.013523,0.002678,0.000431,0.004701
93011000,0.0324,0.013523,0.002678,0.000431,0.004819
93012000,0.0324,0.013523,0.002678,0.000431,0.005289
93013000,0.0324,0.013523,0.002678,0.000431,0.006464
93014000,0.0324,0.013523,0.002678,0.000431,0.003173
93015000,0.0324,0.013523,0.002678,0.000431,0.002351
93016000,0.0324,0.013523,0.002678,0.000431,0.002586
93017000,0.0324,0.013523,0.002678,0.000431,0.002703
93018000,0.0324,0.013523,0.002678,0.000431,0.003526
93019000,0.0324,0.013523,0.002678,0.000431,0.002586
93020000,0.0324,0.013523,0.002678,0.000431,0.001058
93021000,0.0324,0.013523,0.002678,0.000431,0.250570
93022000,0.0324,0.013523,0.002678,0.000431,0.695414
93023000,0.0324,0.013523,0.002678,0.000431,0.363162
93024000,0.0324,0.013523,0.002678,0.000431,0.138213
93025000,0.0324,0.013523,0.002678,0.000431,0.164422
93026000,0.0324,0.013523,0.002678,0.000431,0.569424
93027000,0.0324,0.013523,0.002678,0.000431,0.234116
93028000,0.0324,0.013523,0.002678,0.000431,0.296759
93029000,0.0324,0.013523,0.002678,0.000431,0.192041
93030000,0.0324,0.013523,0.002678,0.000431,0.155842
93031000,0.0324,0.013523,0.002678,0.000431,0.141621
93032000,0.0324,0.013523,0.002678,0.000431,0.242931
93033000,0.0324,0.013523,0.002678,0.000431,0.413229
93034000,0.0324,0.013523,0.002678,0.000431,0.134805
93035000,0.0324,0.013523,0.002678,0.000431,0.122699
93036000,0.0324,0.013523,0.002678,0.000431,0.112239
93037000,0.0324,0.013523,0.002678,0.000431,0.095550
93038000,0.0324,0.013523,0.002678,0.000431,0.084503
93039000,0.0324,0.013523,0.002678,0.000431,0.081800
93040000,0.0324,0.013523,0.002678,0.000431,0.059939
93041000,0.0324,0.013523,0.002678,0.000431,0.057706
93042000,0.0324,0.013523,0.002678,0.000431,0.053475
93043000,0.0324,0.013523,0.002678,0.000431,0.042663
93044000,0.0324,0.013523,0.002678,0.000431,0.036434
93045000,0.0324,0.013523,0.002678,0.000431,0.032673
93046000,0.0324,0.013523,0.002678,0.000431,0.027854
93047000,0.0324,0.013523,0.002678,0.000431,0.022565
93048000,0.0324,0.013523,0.002678,0.000431,0.023623
93049000,0.0324,0.013523,0.002678,0.000431,0.018569
93050000,0.0324,0.013523,0.002678,0.000431,0.017042
93051000,0.0324,0.013523,0.002678,0.000431,0.019510
93052000,0.0324,0.013523,0.002678,0.000431,0.016101
93053000,0.0324,0.013523,0.002678,0.000431,0.013751
93054000,0.0324,0.013523,0.002678,0.000431,0.010460
93055000,0.0324,0.013523,0.002678,0.000431,0.010460
93056000,0.0324,0.013523,0.002678,0.000431,0.010578
93057000,0.0324,0.013523,0.002678,0.000431,0.010107
93058000,0.0324,0.013523,0.002678,0.000431,0.010107
93059000,0.0324,0.013523,0.002678,0.000431,0.011635
93060000,0.0324,0.013523,0.002678,0.000431,0.009637
93061000,0.0324,0.013523,0.002678,0.000431,0.009755
93062000,0.0324,0.013523,0.002678,0.000431,0.009402
93063000,0.0324,0.013523,0.002678,0.000431,0.012340
93064000,0.0324,0.013523,0.002678,0.000431,0.008697
93065000,0.0324,0.013523,0.002678,0.000431,0.009520
93066000,0.0324,0.013523,0.002678,0.000431,0.011048
93067000,0.0324,0.013523,0.002678,0.000431,0.005171
93068000,0.0324,0.013523,0.002678,0.000431,0.005289
93069000,0.0324,0.013523,0.002678,0.000431,0.005406
93070000,0.0324,0.013523,0.002678,0.000431,0.004819
93071000,0.0324,0.013523,0.002678,0.000431,0.005171
93072000,0.0324,0.013523,0.002678,0.000431,0.006111
93073000,0.0324,0.013523,0.002678,0.000431,0.004231
93074000,0.0324,0.013523,0.002678,0.000431,0.004231
93075000,0.0324,0.013523,0.002678,0.000431,0.005994
93076000,0.0324,0.013523,0.002678,0.000431,0.004819
93077000,0.0324,0.013523,0.002678,0.000431,0.001763
93078000,0.0324,0.013523,0.002678,0.000431,0.001880
93079000,0.0324,0.013523,0.002678,0.000431,0.001645
93080000,0.0324,0.013523,0.002678,0.000431,0.001763
93081000,0.0324,0.013523,0.002678,0.000431,0.001763
93082000,0.0324,0.013523,0.002678,0.000431,0.004584
93083000,0.0324,0.013523,0.002678,0.000431,0.000823
93084000,0.0324,0.013523,0.002678,0.000431,0.001058
93085000,0.0324,0.013523,0.002678,0.000431,0.245986
93086000,0.0324,0.013523,0.002678,0.000431,0.651929
93087000,0.0324,0.013523,0.002678,0.000431,0.367746
93088000,0.0324,0.013523,0.002678,0.000431,0.133042
93089000,0.0324,0.013523,0.002678,0.000431,0.150083
93090000,0.0324,0.013523,0.002678,0.000431,0.640646
93091000,0.0324,0.013523,0.002678,0.000431,0.239875
93092000,0.0324,0.013523,0.002678,0.000431,0.263498
93093000,0.0324,0.013523,0.002678,0.000431,0.223774
93094000,0.0324,0.013523,0.002678,0.000431,0.150083
93095000,0.0324,0.013523,0.002678,0.000431,0.145852
93096000,0.0324,0.013523,0.002678,0.000431,0.216722
93097000,0.0324,0.013523,0.002678,0.000431,0.447195
93098000,0.0324,0.013523,0.002678,0.000431,0.178055
93099000,0.0324,0.013523,0.002678,0.000431,0.155255
93100000,0.0324,0.013523,0.002678,0.000431,0.139623
93101000,0.0324,0.013523,0.002678,0.000431,0.117763
93102000,0.0324,0.013523,0.002678,0.000431,0.105305
93103000,0.0324,0.013523,0.002678,0.000431,0.110476
93104000,0.0324,0.013523,0.002678,0.000431,0.096138
93105000,0.0324,0.013523,0.002678,0.000431,0.083915
93106000,0.0324,0.013523,0.002678,0.000431,0.081682
93107000,0.0324,0.013523,0.002678,0.000431,0.071340
93108000,0.0324,0.013523,0.002678,0.000431,0.060057
93109000,0.0324,0.013523,0.002678,0.000431,0.058176
93110000,0.0324,0.013523,0.002678,0.000431,0.046541
93111000,0.0324,0.013523,0.002678,0.000431,0.046541
93112000,0.0324,0.013523,0.002678,0.000431,0.034318
93113000,0.0324,0.013523,0.002678,0.000431,0.038197
93114000,0.0324,0.013523,0.002678,0.000431,0.029382
93115000,0.0324,0.013523,0.002678,0.000431,0.028089
93116000,0.0324,0.013523,0.002678,0.000431,0.022448
93117000,0.0324,0.013523,0.002678,0.000431,0.026796
93118000,0.0324,0.013523,0.002678,0.000431,0.020332
93119000,0.0324,0.013523,0.002678,0.000431,0.019157
93120000,0.0324,0.013523,0.002678,0.000431,0.018922
93121000,0.0324,0.013523,0.002678,0.000431,0.015396
93122000,0.0324,0.013523,0.002678,0.000431,0.017277
93123000,0.0324,0.013523,0.002678,0.000431,0.015396
93124000,0.0324,0.013523,0.002678,0.000431,0.011400
93125000,0.0324,0.013523,0.002678,0.000431,0.013046
93126000,0.0324,0.013523,0.002678,0.000431,0.012340
93127000,0.0324,0.013523,0.002678,0.000431,0.007757
93128000,0.0324,0.013523,0.002678,0.000431,0.008697
93129000,0.0324,0.013523,0.002678,0.000431,0.009402
93130000,0.0324,0.013523,0.002678,0.000431,0.007169
93131000,0.0324,0.013523,0.002678,0.000431,0.006934
93132000,0.0324,0.013523,0.002678,0.000431,0.006934
93133000,0.0324,0.013523,0.002678,0.000431,0.008462
93134000,0.0324,0.013523,0.002678,0.000431,0.009755
93135000,0.0324,0.013523,0.002678,0.000431,0.005641
93136000,0.0324,0.013523,0.002678,0.000431,0.005994
93137000,0.0324,0.013523,0.002678,0.000431,0.002468
93138000,0.0324,0.013523,0.002678,0.000431,0.002703
93139000,0.0324,0.013523,0.002678,0.000431,0.005524
93140000,0.0324,0.013523,0.002678,0.000431,0.001880
93141000,0.0324,0.013523,0.002678,0.000431,0.001763
93142000,0.0324,0.013523,0.002678,0.000431,0.001528
93143000,0.0324,0.013523,0.002678,0.000431,0.001880
93144000,0.0324,0.013523,0.002678,0.000431,0.001645
93145000,0.0324,0.013523,0.002678,0.000431,0.001645
93146000,0.0324,0.013523,0.002678,0.000431,0.001763
93147000,0.0324,0.013523,0.002678,0.000431,0.001763
93148000,0.0324,0.013523,0.002678,0.000431,0.003878
93149000,0.0324,0.013523,0.002678,0.000431,0.000940
93150000,0.0324,0.013523,0.002678,0.000431,0.000940
93151000,0.0324,0.013523,0.002678,0.000431,0.000705
93152000,0.0324,0.013523,0.002678,0.000431,0.000823
93153000,0.0324,0.013523,0.002678,0.000431,0.000940
93154000,0.0324,0.013523,0.002678,0.000431,0.000823
93155000,0.0324,0.013523,0.002678,0.000431,0.000823
93156000,0.0324,0.013523,0.002678,0.000431,0.000823
93157000,0.0324,0.013523,0.002678,0.000431,0.000823
93158000,0.0324,0.013523,0.002678,0.000431,0.000823
93159000,0.0324,0.013523,0.002678,0.000431,0.000823
93160000,0.0324,0.013523,0.002678,0.000431,0.000823
93161000,0.0324,0.013523,0.002678,0.000431,0.000940
93162000,0.0324,0.013523,0.002678,0.000431,0.000705
93163000,0.0324,0.013523,0.002678,0.000431,0.000940
93164000,0.0324,0.013523,0.002678,0.000431,0.000705
93165000,0.0324,0.013523,0.002678,0.000431,0.000940
93166000,0.0324,0.013523,0.002678,0.000431,0.007287
93167000,0.0324,0.013523,0.002678,0.000431,0.553205
93168000,0.0324,0.013523,0.002678,0.000431,0.656630
93169000,0.0324,0.013523,0.002678,0.000431,0.140916
93170000,0.0324,0.013523,0.002678,0.000431,0.132102
93171000,0.0324,0.013523,0.002678,0.000431,0.295583
93172000,0.0324,0.013523,0.002678,0.000431,0.542745
93173000,0.0324,0.013523,0.002678,0.000431,0.221306
93174000,0.0324,0.013523,0.002678,0.000431,0.324378
93175000,0.0324,0.013523,0.002678,0.000431,0.162189
93176000,0.0324,0.013523,0.002678,0.000431,0.143267
93177000,0.0324,0.013523,0.002678,0.000431,0.113885
93178000,0.0324,0.013523,0.002678,0.000431,0.375620
93179000,0.0324,0.013523,0.002678,0.000431,0.392309
93180000,0.0324,0.013523,0.002678,0.000431,0.220600
93181000,0.0324,0.013523,0.002678,0.000431,0.184519
93182000,0.0324,0.013523,0.002678,0.000431,0.171356
93183000,0.0324,0.013523,0.002678,0.000431,0.146205
93184000,0.0324,0.013523,0.002678,0.000431,0.134570
93185000,0.0324,0.013523,0.002678,0.000431,0.118703
93186000,0.0324,0.013523,0.002678,0.000431,0.116470
93187000,0.0324,0.013523,0.002678,0.000431,0.087441
93188000,0.0324,0.013523,0.002678,0.000431,0.075453
93189000,0.0324,0.013523,0.002678,0.000431,0.064758
93190000,0.0324,0.013523,0.002678,0.000431,0.057706
93191000,0.0324,0.013523,0.002678,0.000431,0.058059
93192000,0.0324,0.013523,0.002678,0.000431,0.040312
93193000,0.0324,0.013523,0.002678,0.000431,0.045836
93194000,0.0324,0.013523,0.002678,0.000431,0.033613
93195000,0.0324,0.013523,0.002678,0.000431,0.042075
93196000,0.0324,0.013523,0.002678,0.000431,0.031733
93197000,0.0324,0.013523,0.002678,0.000431,0.026091
93198000,0.0324,0.013523,0.002678,0.000431,0.018805
93199000,0.0324,0.013523,0.002678,0.000431,0.023388
93200000,0.0324,0.013523,0.002678,0.000431,0.022683
93201000,0.0324,0.013523,0.002678,0.000431,0.019745
93202000,0.0324,0.013523,0.002678,0.000431,0.011165
93203000,0.0324,0.013523,0.002678,0.000431,0.009167
93204000,0.0324,0.013523,0.002678,0.000431,0.006817
93205000,0.0324,0.013523,0.002678,0.000431,0.011518
93206000,0.0324,0.013523,0.002678,0.000431,0.007522
93207000,0.0324,0.013523,0.002678,0.000431,0.002821
93208000,0.0324,0.013523,0.002678,0.000431,0.002233
93209000,0.0324,0.013523,0.002678,0.000431,0.002703
93210000,0.0324,0.013523,0.002678,0.000431,0.002586
93211000,0.0324,0.013523,0.002678,0.000431,0.002586
93212000,0.0324,0.013523,0.002678,0.000431,0.002351
93213000,0.0324,0.013523,0.002678,0.000431,0.002586
93214000,0.0324,0.013523,0.002678,0.000431,0.004349
93215000,0.0324,0.013523,0.002678,0.000431,0.001645
93216000,0.0324,0.013523,0.002678,0.000431,0.001880
93217000,0.0324,0.013523,0.002678,0.000431,0.001410
93218000,0.0324,0.013523,0.002678,0.000431,0.001880
93219000,0.0324,0.013523,0.002678,0.000431,0.004113
93220000,0.0324,0.013523,0.002678,0.000431,0.000940
93221000,0.0324,0.013523,0.002678,0.000431,0.000705
93222000,0.0324,0.013523,0.002678,0.000431,0.000940
93223000,0.0324,0.013523,0.002678,0.000431,0.000823
93224000,0.0324,0.013523,0.002678,0.000431,0.000823
93225000,0.0324,0.013523,0.002678,0.000431,0.000705
93226000,0.0324,0.013523,0.002678,0.000431,0.071340
93227000,0.0324,0.013523,0.002678,0.000431,0.687657
93228000,0.0324,0.013523,0.002678,0.000431,0.570129
93229000,0.0324,0.013523,0.002678,0.000431,0.166185
93230000,0.0324,0.013523,0.002678,0.000431,0.161366
93231000,0.0324,0.013523,0.002678,0.000431,0.572597
93232000,0.0324,0.013523,0.002678,0.000431,0.247397
93233000,0.0324,0.013523,0.002678,0.000431,0.275956
93234000,0.0324,0.013523,0.002678,0.000431,0.269962
93235000,0.0324,0.013523,0.002678,0.000431,0.150554
93236000,0.0324,0.013523,0.002678,0.000431,0.149496
93237000,0.0324,0.013523,0.002678,0.000431,0.224244
93238000,0.0324,0.013523,0.002678,0.000431,0.423219
93239000,0.0324,0.013523,0.002678,0.000431,0.161719
93240000,0.0324,0.013523,0.002678,0.000431,0.155607
93241000,0.0324,0.013523,0.002678,0.000431,0.126225
93242000,0.0324,0.013523,0.002678,0.000431,0.120936
93243000,0.0324,0.013523,0.002678,0.000431,0.110476
93244000,0.0324,0.013523,0.002678,0.000431,0.097901
93245000,0.0324,0.013523,0.002678,0.000431,0.091084
93246000,0.0324,0.013523,0.002678,0.000431,0.084503
93247000,0.0324,0.013523,0.002678,0.000431,0.078861
93248000,0.0324,0.013523,0.002678,0.000431,0.072045
93249000,0.0324,0.013523,0.002678,0.000431,0.059117
93250000,0.0324,0.013523,0.002678,0.000431,0.057236
93251000,0.0324,0.013523,0.002678,0.000431,0.057119
93252000,0.0324,0.013523,0.002678,0.000431,0.040430
93253000,0.0324,0.013523,0.002678,0.000431,0.035141
93254000,0.0324,0.013523,0.002678,0.000431,0.035376
93255000,0.0324,0.013523,0.002678,0.000431,0.028207
93256000,0.0324,0.013523,0.002678,0.000431,0.019980
93257000,0.0324,0.013523,0.002678,0.000431,0.017394
93258000,0.0324,0.013523,0.002678,0.000431,0.008697
93259000,0.0324,0.013523,0.002678,0.000431,0.012223
93260000,0.0324,0.013523,0.002678,0.000431,0.010342
93261000,0.0324,0.013523,0.002678,0.000431,0.004231
93262000,0.0324,0.013523,0.002678,0.000431,0.004231
93263000,0.0324,0.013523,0.002678,0.000431,0.005876
93264000,0.0324,0.013523,0.002678,0.000431,0.003291
93265000,0.0324,0.013523,0.002678,0.000431,0.003643
93266000,0.0324,0.013523,0.002678,0.000431,0.003291
93267000,0.0324,0.013523,0.002678,0.000431,0.003761
93268000,0.0324,0.013523,0.002678,0.000431,0.005406
93269000,0.0324,0.013523,0.002678,0.000431,0.002468
93270000,0.0324,0.013523,0.002678,0.000431,0.002586
93271000,0.0324,0.013523,0.002678,0.000431,0.005054
93272000,0.0324,0.013523,0.002678,0.000431,0.001645
93273000,0.0324,0.013523,0.002678,0.000431,0.001763
93274000,0.0324,0.013523,0.002678,0.000431,0.001880
93275000,0.0324,0.013523,0.002678,0.000431,0.001763
93276000,0.0324,0.013523,0.002678,0.000431,0.001763
93277000,0.0324,0.013523,0.002678,0.000431,0.001645
93278000,0.0324,0.013523,0.002678,0.000431,0.001880
93279000,0.0324,0.013523,0.002678,0.000431,0.003056
93280000,0.0324,0.013523,0.002678,0.000431,0.000940
93281000,0.0324,0.013523,0.002678,0.000431,0.000705
93282000,0.0324,0.013523,0.002678,0.000431,0.000940
93283000,0.0324,0.013523,0.002678,0.000431,0.000705
93284000,0.0324,0.013523,0.002678,0.000431,0.000940
93285000,0.0324,0.013523,0.002678,0.000431,0.000940
93286000,0.0324,0.013523,0.002678,0.000431,0.000705
93287000,0.0324,0.013523,0.002678,0.000431,0.000940
93288000,0.0324,0.013523,0.002678,0.000431,0.000705
93289000,0.0324,0.013523,0.002678,0.000431,0.000940
93290000,0.0324,0.013523,0.002678,0.000431,0.000823
93291000,0.0324,0.013523,0.002678,0.000431,0.000823
93292000,0.0324,0.013523,0.002678,0.000431,0.000823
93293000,0.0324,0.013523,0.002678,0.000431,0.000823
93294000,0.0324,0.013523,0.002678,0.000431,0.000940
93295000,0.0324,0.013523,0.002678,0.000431,0.000705
93296000,0.0324,0.013523,0.002678,0.000431,0.000940
93297000,0.0324,0.013523,0.002678,0.000431,0.000823
93298000,0.0324,0.013523,0.002678,0.000431,0.000823
93299000,0.0324,0.013523,0.002678,0.000431,0.000823
93300000,0.0324,0.013523,0.002678,0.000431,0.000823
93301000,0.0324,0.013523,0.002678,0.000431,0.000705
93302000,0.0324,0.013523,0.002678,0.000431,0.000940
93303000,0.0324,0.013523,0.002678,0.000431,0.000940
93304000,0.0324,0.013523,0.002678,0.000431,0.000705
93305000,0.0324,0.013523,0.002678,0.000431,0.000940
93306000,0.0324,0.013523,0.002678,0.000431,0.000705
93307000,0.0324,0.013523,0.002678,0.000431,0.000940
93308000,0.0324,0.013523,0.002678,0.000431,0.008815
93309000,0.0324,0.013523,0.002678,0.000431,0.532520
93310000,0.0324,0.013523,0.002678,0.000431,0.651224
93311000,0.0324,0.013523,0.002678,0.000431,0.147850
93312000,0.0324,0.013523,0.002678,0.000431,0.134217
93313000,0.0324,0.013523,0.002678,0.000431,0.420986
93314000,0.0324,0.013523,0.002678,0.000431,0.408410
93315000,0.0324,0.013523,0.002678,0.000431,0.305926
93316000,0.0324,0.013523,0.002678,0.000431,0.314623
93317000,0.0324,0.013523,0.002678,0.000431,0.142092
93318000,0.0324,0.013523,0.002678,0.000431,0.174059
93319000,0.0324,0.013523,0.002678,0.000431,0.084973
93320000,0.0324,0.013523,0.002678,0.000431,0.508192
93321000,0.0324,0.013523,0.002678,0.000431,0.237289
93322000,0.0324,0.013523,0.002678,0.000431,0.174412
93323000,0.0324,0.013523,0.002678,0.000431,0.151611
93324000,0.0324,0.013523,0.002678,0.000431,0.144090
93325000,0.0324,0.013523,0.002678,0.000431,0.124110
93326000,0.0324,0.013523,0.002678,0.000431,0.118233
93327000,0.0324,0.013523,0.002678,0.000431,0.090614
93328000,0.0324,0.013523,0.002678,0.000431,0.085325
93329000,0.0324,0.013523,0.002678,0.000431,0.068519
93330000,0.0324,0.013523,0.002678,0.000431,0.064053
93331000,0.0324,0.013523,0.002678,0.000431,0.056296
93332000,0.0324,0.013523,0.002678,0.000431,0.049362
93333000,0.0324,0.013523,0.002678,0.000431,0.048187
93334000,0.0324,0.013523,0.002678,0.000431,0.036669
93335000,0.0324,0.013523,0.002678,0.000431,0.024798
93336000,0.0324,0.013523,0.002678,0.000431,0.025269
93337000,0.0324,0.013523,0.002678,0.000431,0.023858
93338000,0.0324,0.013523,0.002678,0.000431,0.021155
93339000,0.0324,0.013523,0.002678,0.000431,0.017159
93340000,0.0324,0.013523,0.002678,0.000431,0.015514
93341000,0.0324,0.013523,0.002678,0.000431,0.012928
93342000,0.0324,0.013523,0.002678,0.000431,0.011635
93343000,0.0324,0.013523,0.002678,0.000431,0.017982
93344000,0.0324,0.013523,0.002678,0.000431,0.012105
93345000,0.0324,0.013523,0.002678,0.000431,0.007404
93346000,0.0324,0.013523,0.002678,0.000431,0.004819
93347000,0.0324,0.013523,0.002678,0.000431,0.006934
93348000,0.0324,0.013523,0.002678,0.000431,0.003761
93349000,0.0324,0.013523,0.002678,0.000431,0.004113
93350000,0.0324,0.013523,0.002678,0.000431,0.003526
93351000,0.0324,0.013523,0.002678,0.000431,0.007287
93352000,0.0324,0.013523,0.002678,0.000431,0.003996
93353000,0.0324,0.013523,0.002678,0.000431,0.001058
93354000,0.0324,0.013523,0.002678,0.000431,0.001175
93355000,0.0324,0.013523,0.002678,0.000431,0.013633
93356000,0.0324,0.013523,0.002678,0.000431,0.658510
93357000,0.0324,0.013523,0.002678,0.000431,0.587171
93358000,0.0324,0.013523,0.002678,0.000431,0.141974
93359000,0.0324,0.013523,0.002678,0.000431,0.139859
93360000,0.0324,0.013523,0.002678,0.000431,0.624427
93361000,0.0324,0.013523,0.002678,0.000431,0.285711
93362000,0.0324,0.013523,0.002678,0.000431,0.239875
93363000,0.0324,0.013523,0.002678,0.000431,0.249277
93364000,0.0324,0.013523,0.002678,0.000431,0.138918
93365000,0.0324,0.013523,0.002678,0.000431,0.183226
93366000,0.0324,0.013523,0.002678,0.000431,0.094610
93367000,0.0324,0.013523,0.002678,0.000431,0.515949
93368000,0.0324,0.013523,0.002678,0.000431,0.187457
93369000,0.0324,0.013523,0.002678,0.000431,0.165127
93370000,0.0324,0.013523,0.002678,0.000431,0.150201
93371000,0.0324,0.013523,0.002678,0.000431,0.136215
93372000,0.0324,0.013523,0.002678,0.000431,0.115413
93373000,0.0324,0.013523,0.002678,0.000431,0.113767
93374000,0.0324,0.013523,0.002678,0.000431,0.095198
93375000,0.0324,0.013523,0.002678,0.000431,0.082622
93376000,0.0324,0.013523,0.002678,0.000431,0.082975
93377000,0.0324,0.013523,0.002678,0.000431,0.082975
93378000,0.0324,0.013523,0.002678,0.000431,0.075806
93379000,0.0324,0.013523,0.002678,0.000431,0.065933
93380000,0.0324,0.013523,0.002678,0.000431,0.067109
93381000,0.0324,0.013523,0.002678,0.000431,0.058412
93382000,0.0324,0.013523,0.002678,0.000431,0.046894
93383000,0.0324,0.013523,0.002678,0.000431,0.048187
93384000,0.0324,0.013523,0.002678,0.000431,0.041017
93385000,0.0324,0.013523,0.002678,0.000431,0.034788
93386000,0.0324,0.013523,0.002678,0.000431,0.033143
93387000,0.0324,0.013523,0.002678,0.000431,0.025974
93388000,0.0324,0.013523,0.002678,0.000431,0.026091
93389000,0.0324,0.013523,0.002678,0.000431,0.025856
93390000,0.0324,0.013523,0.002678,0.000431,0.020567
93391000,0.0324,0.013523,0.002678,0.000431,0.023036
93392000,0.0324,0.013523,0.002678,0.000431,0.019980
93393000,0.0324,0.013523,0.002678,0.000431,0.019862
93394000,0.0324,0.013523,0.002678,0.000431,0.017747
93395000,0.0324,0.013523,0.002678,0.000431,0.014926
93396000,0.0324,0.013523,0.002678,0.000431,0.017042
93397000,0.0324,0.013523,0.002678,0.000431,0.015279
93398000,0.0324,0.013523,0.002678,0.000431,0.014221
93399000,0.0324,0.013523,0.002678,0.000431,0.013046
93400000,0.0324,0.013523,0.002678,0.000431,0.011283
93401000,0.0324,0.013523,0.002678,0.000431,0.011870
93402000,0.0324,0.013523,0.002678,0.000431,0.007874
93403000,0.0324,0.013523,0.002678,0.000431,0.010813
93404000,0.0324,0.013523,0.002678,0.000431,0.009167
93405000,0.0324,0.013523,0.002678,0.000431,0.006699
93406000,0.0324,0.013523,0.002678,0.000431,0.006582
93407000,0.0324,0.013523,0.002678,0.000431,0.004936
93408000,0.0324,0.013523,0.002678,0.000431,0.009637
93409000,0.0324,0.013523,0.002678,0.000431,0.003526
93410000,0.0324,0.013523,0.002678,0.000431,0.005759
93411000,0.0324,0.013523,0.002678,0.000431,0.004349
93412000,0.0324,0.013523,0.002678,0.000431,0.001528
93413000,0.0324,0.013523,0.002678,0.000431,0.003526
93414000,0.0324,0.013523,0.002678,0.000431,0.475637
93415000,0.0324,0.013523,0.002678,0.000431,0.726207
93416000,0.0324,0.013523,0.002678,0.000431,0.133512
93417000,0.0324,0.013523,0.002678,0.000431,0.134922
93418000,0.0324,0.013523,0.002678,0.000431,0.475284
93419000,0.0324,0.013523,0.002678,0.000431,0.298051
93420000,0.0324,0.013523,0.002678,0.000431,0.321087
93421000,0.0324,0.013523,0.002678,0.000431,0.298404
93422000,0.0324,0.013523,0.002678,0.000431,0.140681
93423000,0.0324,0.013523,0.002678,0.000431,0.153139
93424000,0.0324,0.013523,0.002678,0.000431,0.179113
93425000,0.0324,0.013523,0.002678,0.000431,0.483746
93426000,0.0324,0.013523,0.002678,0.000431,0.147968
93427000,0.0324,0.013523,0.002678,0.000431,0.111534
93428000,0.0324,0.013523,0.002678,0.000431,0.106481
93429000,0.0324,0.013523,0.002678,0.000431,0.091907
93430000,0.0324,0.013523,0.002678,0.000431,0.087676
93431000,0.0324,0.013523,0.002678,0.000431,0.072867
93432000,0.0324,0.013523,0.002678,0.000431,0.059822
93433000,0.0324,0.013523,0.002678,0.000431,0.055708
93434000,0.0324,0.013523,0.002678,0.000431,0.046424
93435000,0.0324,0.013523,0.002678,0.000431,0.044308
93436000,0.0324,0.013523,0.002678,0.000431,0.030910
93437000,0.0324,0.013523,0.002678,0.000431,0.024563
93438000,0.0324,0.013523,0.002678,0.000431,0.021508
93439000,0.0324,0.013523,0.002678,0.000431,0.027267
93440000,0.0324,0.013523,0.002678,0.000431,0.019040
93441000,0.0324,0.013523,0.002678,0.000431,0.015984
93442000,0.0324,0.013523,0.002678,0.000431,0.017982
93443000,0.0324,0.013523,0.002678,0.000431,0.015161
93444000,0.0324,0.013523,0.002678,0.000431,0.014338
93445000,0.0324,0.013523,0.002678,0.000431,0.013633
93446000,0.0324,0.013523,0.002678,0.000431,0.011400
93447000,0.0324,0.013523,0.002678,0.000431,0.011988
93448000,0.0324,0.013523,0.002678,0.000431,0.009050
93449000,0.0324,0.013523,0.002678,0.000431,0.008697
93450000,0.0324,0.013523,0.002678,0.000431,0.011283
93451000,0.0324,0.013523,0.002678,0.000431,0.007757
93452000,0.0324,0.013523,0.002678,0.000431,0.007052
93453000,0.0324,0.013523,0.002678,0.000431,0.009637
93454000,0.0324,0.013523,0.002678,0.000431,0.006699
93455000,0.0324,0.013523,0.002678,0.000431,0.008345
93456000,0.0324,0.013523,0.002678,0.000431,0.003291
93457000,0.0324,0.013523,0.002678,0.000431,0.004584
93458000,0.0324,0.013523,0.002678,0.000431,0.072750
93459000,0.0324,0.013523,0.002678,0.000431,0.670733
93460000,0.0324,0.013523,0.002678,0.000431,0.526174
93461000,0.0324,0.013523,0.002678,0.000431,0.135863
93462000,0.0324,0.013523,0.002678,0.000431,0.139506
93463000,0.0324,0.013523,0.002678,0.000431,0.568836
93464000,0.0324,0.013523,0.002678,0.000431,0.276779
93465000,0.0324,0.013523,0.002678,0.000431,0.295583
93466000,0.0324,0.013523,0.002678,0.000431,0.165832
93467000,0.0324,0.013523,0.002678,0.000431,0.167008
93468000,0.0324,0.013523,0.002678,0.000431,0.108596
93469000,0.0324,0.013523,0.002678,0.000431,0.447665
93470000,0.0324,0.013523,0.002678,0.000431,0.303810
93471000,0.0324,0.013523,0.002678,0.000431,0.181816
93472000,0.0324,0.013523,0.002678,0.000431,0.156783
93473000,0.0324,0.013523,0.002678,0.000431,0.138213
93474000,0.0324,0.013523,0.002678,0.000431,0.128223
93475000,0.0324,0.013523,0.002678,0.000431,0.106833
93476000,0.0324,0.013523,0.002678,0.000431,0.078039
93477000,0.0324,0.013523,0.002678,0.000431,0.057354
93478000,0.0324,0.013523,0.002678,0.000431,0.061115
93479000,0.0324,0.013523,0.002678,0.000431,0.051360
93480000,0.0324,0.013523,0.002678,0.000431,0.033613
93481000,0.0324,0.013523,0.002678,0.000431,0.025386
93482000,0.0324,0.013523,0.002678,0.000431,0.032438
93483000,0.0324,0.013523,0.002678,0.000431,0.018805
93484000,0.0324,0.013523,0.002678,0.000431,0.017277
93485000,0.0324,0.013523,0.002678,0.000431,0.015396
93486000,0.0324,0.013523,0.002678,0.000431,0.009520
93487000,0.0324,0.013523,0.002678,0.000431,0.010342
93488000,0.0324,0.013523,0.002678,0.000431,0.005641
93489000,0.0324,0.013523,0.002678,0.000431,0.003526
93490000,0.0324,0.013523,0.002678,0.000431,0.003761
93491000,0.0324,0.013523,0.002678,0.000431,0.003291
93492000,0.0324,0.013523,0.002678,0.000431,0.003408
93493000,0.0324,0.013523,0.002678,0.000431,0.003526
93494000,0.0324,0.013523,0.002678,0.000431,0.005289
93495000,0.0324,0.013523,0.002678,0.000431,0.002703
93496000,0.0324,0.013523,0.002678,0.000431,0.002351
93497000,0.0324,0.013523,0.002678,0.000431,0.002821
93498000,0.0324,0.013523,0.002678,0.000431,0.002468
93499000,0.0324,0.013523,0.002678,0.000431,0.004584
93500000,0.0324,0.013523,0.002678,0.000431,0.001763
93501000,0.0324,0.013523,0.002678,0.000431,0.001528
93502000,0.0324,0.013523,0.002678,0.000431,0.001645
93503000,0.0324,0.013523,0.002678,0.000431,0.001763
93504000,0.0324,0.013523,0.002678,0.000431,0.002938
93505000,0.0324,0.013523,0.002678,0.000431,0.002468
93506000,0.0324,0.013523,0.002678,0.000431,0.000823
93507000,0.0324,0.013523,0.002678,0.000431,0.000823
93508000,0.0324,0.013523,0.002678,0.000431,0.000823
93509000,0.0324,0.013523,0.002678,0.000431,0.000705
93510000,0.0324,0.013523,0.002678,0.000431,0.000940
93511000,0.0324,0.013523,0.002678,0.000431,0.000705
93512000,0.0324,0.013523,0.002678,0.000431,0.000823
93513000,0.0324,0.013523,0.002678,0.000431,0.000823
93514000,0.0324,0.013523,0.002678,0.000431,0.021743
93515000,0.0324,0.013523,0.002678,0.000431,0.703406
93516000,0.0324,0.013523,0.002678,0.000431,0.589521
93517000,0.0324,0.013523,0.002678,0.000431,0.138213
93518000,0.0324,0.013523,0.002678,0.000431,0.134452
93519000,0.0324,0.013523,0.002678,0.000431,0.621136
93520000,0.0324,0.013523,0.002678,0.000431,0.240815
93521000,0.0324,0.013523,0.002678,0.000431,0.309217
93522000,0.0324,0.013523,0.002678,0.000431,0.238230
93523000,0.0324,0.013523,0.002678,0.000431,0.151611
93524000,0.0324,0.013523,0.002678,0.000431,0.107303
93525000,0.0324,0.013523,0.002678,0.000431,0.386550
93526000,0.0324,0.013523,0.002678,0.000431,0.411349
93527000,0.0324,0.013523,0.002678,0.000431,0.224714
93528000,0.0324,0.013523,0.002678,0.000431,0.200856
93529000,0.0324,0.013523,0.002678,0.000431,0.180406
93530000,0.0324,0.013523,0.002678,0.000431,0.161719
93531000,0.0324,0.013523,0.002678,0.000431,0.122229
93532000,0.0324,0.013523,0.002678,0.000431,0.117176
93533000,0.0324,0.013523,0.002678,0.000431,0.103190
93534000,0.0324,0.013523,0.002678,0.000431,0.090262
93535000,0.0324,0.013523,0.002678,0.000431,0.065346
93536000,0.0324,0.013523,0.002678,0.000431,0.067579
93537000,0.0324,0.013523,0.002678,0.000431,0.058999
93538000,0.0324,0.013523,0.002678,0.000431,0.047481
93539000,0.0324,0.013523,0.002678,0.000431,0.031850
93540000,0.0324,0.013523,0.002678,0.000431,0.024563
93541000,0.0324,0.013523,0.002678,0.000431,0.023271
93542000,0.0324,0.013523,0.002678,0.000431,0.026326
93543000,0.0324,0.013523,0.002678,0.000431,0.026091
93544000,0.0324,0.013523,0.002678,0.000431,0.017747
93545000,0.0324,0.013523,0.002678,0.000431,0.019510
93546000,0.0324,0.013523,0.002678,0.000431,0.013281
93547000,0.0324,0.013523,0.002678,0.000431,0.011753
93548000,0.0324,0.013523,0.002678,0.000431,0.010813
93549000,0.0324,0.013523,0.002678,0.000431,0.011635
93550000,0.0324,0.013523,0.002678,0.000431,0.012928
93551000,0.0324,0.013523,0.002678,0.000431,0.016924
93552000,0.0324,0.013523,0.002678,0.000431,0.008345
93553000,0.0324,0.013523,0.002678,0.000431,0.008345
93554000,0.0324,0.013523,0.002678,0.000431,0.007757
93555000,0.0324,0.013523,0.002678,0.000431,0.007522
93556000,0.0324,0.013523,0.002678,0.000431,0.007287
93557000,0.0324,0.013523,0.002678,0.000431,0.006934
93558000,0.0324,0.013523,0.002678,0.000431,0.008109
93559000,0.0324,0.013523,0.002678,0.000431,0.007404
93560000,0.0324,0.013523,0.002678,0.000431,0.007287
93561000,0.0324,0.013523,0.002678,0.000431,0.008580
93562000,0.0324,0.013523,0.002678,0.000431,0.003878
93563000,0.0324,0.013523,0.002678,0.000431,0.002586
93564000,0.0324,0.013523,0.002678,0.000431,0.002703
93565000,0.0324,0.013523,0.002678,0.000431,0.002586
93566000,0.0324,0.013523,0.002678,0.000431,0.002351
93567000,0.0324,0.013523,0.002678,0.000431,0.002703
93568000,0.0324,0.013523,0.002678,0.000431,0.004349
93569000,0.0324,0.013523,0.002678,0.000431,0.003526
93570000,0.0324,0.013523,0.002678,0.000431,0.001880
93571000,0.0324,0.013523,0.002678,0.000431,0.001645
93572000,0.0324,0.013523,0.002678,0.000431,0.001763
93573000,0.0324,0.013523,0.002678,0.000431,0.001645
93574000,0.0324,0.013523,0.002678,0.000431,0.001763
93575000,0.0324,0.013523,0.002678,0.000431,0.001880
93576000,0.0324,0.013523,0.002678,0.000431,0.001645
93577000,0.0324,0.013523,0.002678,0.000431,0.001645
93578000,0.0324,0.013523,0.002678,0.000431,0.001880
93579000,0.0324,0.013523,0.002678,0.000431,0.001528
93580000,0.0324,0.013523,0.002678,0.000431,0.001880
93581000,0.0324,0.013523,0.002678,0.000431,0.001645
93582000,0.0324,0.013523,0.002678,0.000431,0.001763
93583000,0.0324,0.013523,0.002678,0.000431,0.001763
93584000,0.0324,0.013523,0.002678,0.000431,0.001645
93585000,0.0324,0.013523,0.002678,0.000431,0.003291
93586000,0.0324,0.013523,0.002678,0.000431,0.014573
93587000,0.0324,0.013523,0.002678,0.000431,0.704817
93588000,0.0324,0.013523,0.002678,0.000431,0.589991
93589000,0.0324,0.013523,0.002678,0.000431,0.178525
93590000,0.0324,0.013523,0.002678,0.000431,0.133982
93591000,0.0324,0.013523,0.002678,0.000431,0.635005
93592000,0.0324,0.013523,0.002678,0.000431,0.246692
93593000,0.0324,0.013523,0.002678,0.000431,0.299579
93594000,0.0324,0.013523,0.002678,0.000431,0.242226
93595000,0.0324,0.013523,0.002678,0.000431,0.158310
93596000,0.0324,0.013523,0.002678,0.000431,0.104835
93597000,0.0324,0.013523,0.002678,0.000431,0.370449
93598000,0.0324,0.013523,0.002678,0.000431,0.388548
93599000,0.0324,0.013523,0.002678,0.000431,0.182756
93600000,0.0324,0.013523,0.002678,0.000431,0.162777
93601000,0.0324,0.013523,0.002678,0.000431,0.138448
93602000,0.0324,0.013523,0.002678,0.000431,0.114472
93603000,0.0324,0.013523,0.002678,0.000431,0.097901
93604000,0.0324,0.013523,0.002678,0.000431,0.094258
93605000,0.0324,0.013523,0.002678,0.000431,0.108949
93606000,0.0324,0.013523,0.002678,0.000431,0.072280
93607000,0.0324,0.013523,0.002678,0.000431,0.076511
93608000,0.0324,0.013523,0.002678,0.000431,0.050302
93609000,0.0324,0.013523,0.002678,0.000431,0.040547
93610000,0.0324,0.013523,0.002678,0.000431,0.042310
93611000,0.0324,0.013523,0.002678,0.000431,0.035141
93612000,0.0324,0.013523,0.002678,0.000431,0.027737
93613000,0.0324,0.013523,0.002678,0.000431,0.028207
93614000,0.0324,0.013523,0.002678,0.000431,0.024211
93615000,0.0324,0.013523,0.002678,0.000431,0.024328
93616000,0.0324,0.013523,0.002678,0.000431,0.023858
93617000,0.0324,0.013523,0.002678,0.000431,0.022918
93618000,0.0324,0.013523,0.002678,0.000431,0.023271
93619000,0.0324,0.013523,0.002678,0.000431,0.019157
93620000,0.0324,0.013523,0.002678,0.000431,0.023623
93621000,0.0324,0.013523,0.002678,0.000431,0.017394
93622000,0.0324,0.013523,0.002678,0.000431,0.014691
93623000,0.0324,0.013523,0.002678,0.000431,0.013281
93624000,0.0324,0.013523,0.002678,0.000431,0.018452
93625000,0.0324,0.013523,0.002678,0.000431,0.011635
93626000,0.0324,0.013523,0.002678,0.000431,0.009637
93627000,0.0324,0.013523,0.002678,0.000431,0.010342
93628000,0.0324,0.013523,0.002678,0.000431,0.008815
93629000,0.0324,0.013523,0.002678,0.000431,0.010107
93630000,0.0324,0.013523,0.002678,0.000431,0.016219
93631000,0.0324,0.013523,0.002678,0.000431,0.008580
93632000,0.0324,0.013523,0.002678,0.000431,0.005759
93633000,0.0324,0.013523,0.002678,0.000431,0.006111
93634000,0.0324,0.013523,0.002678,0.000431,0.005289
93635000,0.0324,0.013523,0.002678,0.000431,0.009285
93636000,0.0324,0.013523,0.002678,0.000431,0.005994
93637000,0.0324,0.013523,0.002678,0.000431,0.003878
93638000,0.0324,0.013523,0.002678,0.000431,0.002351
93639000,0.0324,0.013523,0.002678,0.000431,0.001763
93640000,0.0324,0.013523,0.002678,0.000431,0.002116
93641000,0.0324,0.013523,0.002678,0.000431,0.001763
93642000,0.0324,0.013523,0.002678,0.000431,0.001880
93643000,0.0324,0.013523,0.002678,0.000431,0.002233
93644000,0.0324,0.013523,0.002678,0.000431,0.001645
93645000,0.0324,0.013523,0.002678,0.000431,0.002233
93646000,0.0324,0.013523,0.002678,0.000431,0.003408
93647000,0.0324,0.013523,0.002678,0.000431,0.001058
93648000,0.0324,0.013523,0.002678,0.000431,0.001998
93649000,0.0324,0.013523,0.002678,0.000431,0.465059
93650000,0.0324,0.013523,0.002678,0.000431,0.710340
93651000,0.0324,0.013523,0.002678,0.000431,0.232236
93652000,0.0324,0.013523,0.002678,0.000431,0.133042
93653000,0.0324,0.013523,0.002678,0.000431,0.214019
93654000,0.0324,0.013523,0.002678,0.000431,0.530287
93655000,0.0324,0.013523,0.002678,0.000431,0.240580
93656000,0.0324,0.013523,0.002678,0.000431,0.316856
93657000,0.0324,0.013523,0.002678,0.000431,0.178760
93658000,0.0324,0.013523,0.002678,0.000431,0.151494
93659000,0.0324,0.013523,0.002678,0.000431,0.129046
93660000,0.0324,0.013523,0.002678,0.000431,0.292175
93661000,0.0324,0.013523,0.002678,0.000431,0.391721
93662000,0.0324,0.013523,0.002678,0.000431,0.165715
93663000,0.0324,0.013523,0.002678,0.000431,0.162541
93664000,0.0324,0.013523,0.002678,0.000431,0.132102
93665000,0.0324,0.013523,0.002678,0.000431,0.118468
93666000,0.0324,0.013523,0.002678,0.000431,0.097548
93667000,0.0324,0.013523,0.002678,0.000431,0.089556
93668000,0.0324,0.013523,0.002678,0.000431,0.089556
93669000,0.0324,0.013523,0.002678,0.000431,0.082622
93670000,0.0324,0.013523,0.002678,0.000431,0.060645
93671000,0.0324,0.013523,0.002678,0.000431,0.063230
93672000,0.0324,0.013523,0.002678,0.000431,0.051830
93673000,0.0324,0.013523,0.002678,0.000431,0.039372
93674000,0.0324,0.013523,0.002678,0.000431,0.038902
93675000,0.0324,0.013523,0.002678,0.000431,0.022095
93676000,0.0324,0.013523,0.002678,0.000431,0.027267
93677000,0.0324,0.013523,0.002678,0.000431,0.023976
93678000,0.0324,0.013523,0.002678,0.000431,0.021155
93679000,0.0324,0.013523,0.002678,0.000431,0.021978
93680000,0.0324,0.013523,0.002678,0.000431,0.016336
93681000,0.0324,0.013523,0.002678,0.000431,0.014456
93682000,0.0324,0.013523,0.002678,0.000431,0.011165
93683000,0.0324,0.013523,0.002678,0.000431,0.012458
93684000,0.0324,0.013523,0.002678,0.000431,0.006111
93685000,0.0324,0.013523,0.002678,0.000431,0.007052
93686000,0.0324,0.013523,0.002678,0.000431,0.004231
93687000,0.0324,0.013523,0.002678,0.000431,0.003878
93688000,0.0324,0.013523,0.002678,0.000431,0.004466
93689000,0.0324,0.013523,0.002678,0.000431,0.006699
93690000,0.0324,0.013523,0.002678,0.000431,0.003291
93691000,0.0324,0.013523,0.002678,0.000431,0.003408
93692000,0.0324,0.013523,0.002678,0.000431,0.003056
93693000,0.0324,0.013523,0.002678,0.000431,0.003408
93694000,0.0324,0.013523,0.002678,0.000431,0.003173
93695000,0.0324,0.013523,0.002678,0.000431,0.003408
93696000,0.0324,0.013523,0.002678,0.000431,0.003291
93697000,0.0324,0.013523,0.002678,0.000431,0.003408
93698000,0.0324,0.013523,0.002678,0.000431,0.002938
93699000,0.0324,0.013523,0.002678,0.000431,0.004113
93700000,0.0324,0.013523,0.002678,0.000431,0.001763
93701000,0.0324,0.013523,0.002678,0.000431,0.003173
93702000,0.0324,0.013523,0.002678,0.000431,0.071810
93703000,0.0324,0.013523,0.002678,0.000431,0.618903
93704000,0.0324,0.013523,0.002678,0.000431,0.605035
93705000,0.0324,0.013523,0.002678,0.000431,0.132337
93706000,0.0324,0.013523,0.002678,0.000431,0.134452
93707000,0.0324,0.013523,0.002678,0.000431,0.547799
93708000,0.0324,0.013523,0.002678,0.000431,0.232941
93709000,0.0324,0.013523,0.002678,0.000431,0.237407
93710000,0.0324,0.013523,0.002678,0.000431,0.301930
93711000,0.0324,0.013523,0.002678,0.000431,0.152669
93712000,0.0324,0.013523,0.002678,0.000431,0.160426
93713000,0.0324,0.013523,0.002678,0.000431,0.104600
93714000,0.0324,0.013523,0.002678,0.000431,0.462121
93715000,0.0324,0.013523,0.002678,0.000431,0.261735
93716000,0.0324,0.013523,0.002678,0.000431,0.163364
93717000,0.0324,0.013523,0.002678,0.000431,0.128106
93718000,0.0324,0.013523,0.002678,0.000431,0.105305
93719000,0.0324,0.013523,0.002678,0.000431,0.100839
93720000,0.0324,0.013523,0.002678,0.000431,0.083210
93721000,0.0324,0.013523,0.002678,0.000431,0.068401
93722000,0.0324,0.013523,0.002678,0.000431,0.074748
93723000,0.0324,0.013523,0.002678,0.000431,0.054768
93724000,0.0324,0.013523,0.002678,0.000431,0.054533
93725000,0.0324,0.013523,0.002678,0.000431,0.051947
93726000,0.0324,0.013523,0.002678,0.000431,0.039489
93727000,0.0324,0.013523,0.002678,0.000431,0.035494
93728000,0.0324,0.013523,0.002678,0.000431,0.034318
93729000,0.0324,0.013523,0.002678,0.000431,0.026561
93730000,0.0324,0.013523,0.002678,0.000431,0.026091
93731000,0.0324,0.013523,0.002678,0.000431,0.018569
93732000,0.0324,0.013523,0.002678,0.000431,0.020802
93733000,0.0324,0.013523,0.002678,0.000431,0.019157
93734000,0.0324,0.013523,0.002678,0.000431,0.012458
93735000,0.0324,0.013523,0.002678,0.000431,0.012928
93736000,0.0324,0.013523,0.002678,0.000431,0.019862
93737000,0.0324,0.013523,0.002678,0.000431,0.010930
93738000,0.0324,0.013523,0.002678,0.000431,0.008932
93739000,0.0324,0.013523,0.002678,0.000431,0.010813
93740000,0.0324,0.013523,0.002678,0.000431,0.006934
93741000,0.0324,0.013523,0.002678,0.000431,0.005406
93742000,0.0324,0.013523,0.002678,0.000431,0.002938
93743000,0.0324,0.013523,0.002678,0.000431,0.002233
93744000,0.0324,0.013523,0.002678,0.000431,0.002586
93745000,0.0324,0.013523,0.002678,0.000431,0.002468
93746000,0.0324,0.013523,0.002678,0.000431,0.003291
93747000,0.0324,0.013523,0.002678,0.000431,0.249512
93748000,0.0324,0.013523,0.002678,0.000431,0.681076
93749000,0.0324,0.013523,0.002678,0.000431,0.423219
93750000,0.0324,0.013523,0.002678,0.000431,0.133042
93751000,0.0324,0.013523,0.002678,0.000431,0.174059
93752000,0.0324,0.013523,0.002678,0.000431,0.645347
93753000,0.0324,0.013523,0.002678,0.000431,0.241873
93754000,0.0324,0.013523,0.002678,0.000431,0.330842
93755000,0.0324,0.013523,0.002678,0.000431,0.186165
93756000,0.0324,0.013523,0.002678,0.000431,0.147145
93757000,0.0324,0.013523,0.002678,0.000431,0.112827
93758000,0.0324,0.013523,0.002678,0.000431,0.430506
93759000,0.0324,0.013523,0.002678,0.000431,0.216957
93760000,0.0324,0.013523,0.002678,0.000431,0.117646
93761000,0.0324,0.013523,0.002678,0.000431,0.088499
93762000,0.0324,0.013523,0.002678,0.000431,0.076276
93763000,0.0324,0.013523,0.002678,0.000431,0.072280
93764000,0.0324,0.013523,0.002678,0.000431,0.071105
93765000,0.0324,0.013523,0.002678,0.000431,0.054651
93766000,0.0324,0.013523,0.002678,0.000431,0.051595
93767000,0.0324,0.013523,0.002678,0.000431,0.035964
93768000,0.0324,0.013523,0.002678,0.000431,0.032908
93769000,0.0324,0.013523,0.002678,0.000431,0.029970
93770000,0.0324,0.013523,0.002678,0.000431,0.029735
93771000,0.0324,0.013523,0.002678,0.000431,0.022565
93772000,0.0324,0.013523,0.002678,0.000431,0.015279
93773000,0.0324,0.013523,0.002678,0.000431,0.012223
93774000,0.0324,0.013523,0.002678,0.000431,0.015279
93775000,0.0324,0.013523,0.002678,0.000431,0.012811
93776000,0.0324,0.013523,0.002678,0.000431,0.013868
93777000,0.0324,0.013523,0.002678,0.000431,0.011988
93778000,0.0324,0.013523,0.002678,0.000431,0.011048
93779000,0.0324,0.013523,0.002678,0.000431,0.011400
93780000,0.0324,0.013523,0.002678,0.000431,0.004231
93781000,0.0324,0.013523,0.002678,0.000431,0.003878
93782000,0.0324,0.013523,0.002678,0.000431,0.004113
93783000,0.0324,0.013523,0.002678,0.000431,0.004113
93784000,0.0324,0.013523,0.002678,0.000431,0.004113
93785000,0.0324,0.013523,0.002678,0.000431,0.003878
93786000,0.0324,0.013523,0.002678,0.000431,0.004349
93787000,0.0324,0.013523,0.002678,0.000431,0.003643
93788000,0.0324,0.013523,0.002678,0.000431,0.005759
93789000,0.0324,0.013523,0.002678,0.000431,0.002938
93790000,0.0324,0.013523,0.002678,0.000431,0.003291
93791000,0.0324,0.013523,0.002678,0.000431,0.003408
93792000,0.0324,0.013523,0.002678,0.000431,0.003291
93793000,0.0324,0.013523,0.002678,0.000431,0.003408
93794000,0.0324,0.013523,0.002678,0.000431,0.003056
93795000,0.0324,0.013523,0.002678,0.000431,0.003291
93796000,0.0324,0.013523,0.002678,0.000431,0.003408
93797000,0.0324,0.013523,0.002678,0.000431,0.003056
93798000,0.0324,0.013523,0.002678,0.000431,0.003408
93799000,0.0324,0.013523,0.002678,0.000431,0.003173
93800000,0.0324,0.013523,0.002678,0.000431,0.003056
93801000,0.0324,0.013523,0.002678,0.000431,0.003526
93802000,0.0324,0.013523,0.002678,0.000431,0.003643
93803000,0.0324,0.013523,0.002678,0.000431,0.001763
93804000,0.0324,0.013523,0.002678,0.000431,0.002586
93805000,0.0324,0.013523,0.002678,0.000431,0.002116
93806000,0.0324,0.013523,0.002678,0.000431,0.000940
93807000,0.0324,0.013523,0.002678,0.000431,0.000940
93808000,0.0324,0.013523,0.002678,0.000431,0.000705
93809000,0.0324,0.013523,0.002678,0.000431,0.000940
93810000,0.0324,0.013523,0.002678,0.000431,0.000705
93811000,0.0324,0.013523,0.002678,0.000431,0.000940
93812000,0.0324,0.013523,0.002678,0.000431,0.000940
93813000,0.0324,0.013523,0.002678,0.000431,0.000705
93814000,0.0324,0.013523,0.002678,0.000431,0.000940
93815000,0.0324,0.013523,0.002678,0.000431,0.000705
93816000,0.0324,0.013523,0.002678,0.000431,0.000940
93817000,0.0324,0.013523,0.002678,0.000431,0.000823
93818000,0.0324,0.013523,0.002678,0.000431,0.000823
93819000,0.0324,0.013523,0.002678,0.000431,0.000823
93820000,0.0324,0.013523,0.002678,0.000431,0.000823
93821000,0.0324,0.013523,0.002678,0.000431,0.000940
93822000,0.0324,0.013523,0.002678,0.000431,0.000705
93823000,0.0324,0.013523,0.002678,0.000431,0.000940
93824000,0.0324,0.013523,0.002678,0.000431,0.000823
93825000,0.0324,0.013523,0.002678,0.000431,0.000823
93826000,0.0324,0.013523,0.002678,0.000431,0.000823
93827000,0.0324,0.013523,0.002678,0.000431,0.000823
93828000,0.0324,0.013523,0.002678,0.000431,0.000705
93829000,0.0324,0.013523,0.002678,0.000431,0.000940
93830000,0.0324,0.013523,0.002678,0.000431,0.000940
93831000,0.0324,0.013523,0.002678,0.000431,0.000705
93832000,0.0324,0.013523,0.002678,0.000431,0.000940
93833000,0.0324,0.013523,0.002678,0.000431,0.000705
93834000,0.0324,0.013523,0.002678,0.000431,0.000940
93835000,0.0324,0.013523,0.002678,0.000431,0.000823
93836000,0.0324,0.013523,0.002678,0.000431,0.000823
93837000,0.0324,0.013523,0.002678,0.000431,0.000940
93838000,0.0324,0.013523,0.002678,0.000431,0.000705
93839000,0.0324,0.013523,0.002678,0.000431,0.000940
93840000,0.0324,0.013523,0.002678,0.000431,0.000823
93841000,0.0324,0.013523,0.002678,0.000431,0.000823
93842000,0.0324,0.013523,0.002678,0.000431,0.071340
93843000,0.0324,0.013523,0.002678,0.000431,0.558964
93844000,0.0324,0.013523,0.002678,0.000431,0.589404
93845000,0.0324,0.013523,0.002678,0.000431,0.132219
93846000,0.0324,0.013523,0.002678,0.000431,0.134805
93847000,0.0324,0.013523,0.002678,0.000431,0.576593
93848000,0.0324,0.013523,0.002678,0.000431,0.257857
93849000,0.0324,0.013523,0.002678,0.000431,0.276896
93850000,0.0324,0.013523,0.002678,0.000431,0.312272
93851000,0.0324,0.013523,0.002678,0.000431,0.147733
93852000,0.0324,0.013523,0.002678,0.000431,0.156783
93853000,0.0324,0.013523,0.002678,0.000431,0.126695
93854000,0.0324,0.013523,0.002678,0.000431,0.472463
93855000,0.0324,0.013523,0.002678,0.000431,0.151494
93856000,0.0324,0.013523,0.002678,0.000431,0.110006
93857000,0.0324,0.013523,0.002678,0.000431,0.115178
93858000,0.0324,0.013523,0.002678,0.000431,0.095668
93859000,0.0324,0.013523,0.002678,0.000431,0.083915
93860000,0.0324,0.013523,0.002678,0.000431,0.065933
93861000,0.0324,0.013523,0.002678,0.000431,0.061585
93862000,0.0324,0.013523,0.002678,0.000431,0.056531
93863000,0.0324,0.013523,0.002678,0.000431,0.052300
93864000,0.0324,0.013523,0.002678,0.000431,0.050185
93865000,0.0324,0.013523,0.002678,0.000431,0.037727
93866000,0.0324,0.013523,0.002678,0.000431,0.042075
93867000,0.0324,0.013523,0.002678,0.000431,0.039607
93868000,0.0324,0.013523,0.002678,0.000431,0.037491
93869000,0.0324,0.013523,0.002678,0.000431,0.032908
93870000,0.0324,0.013523,0.002678,0.000431,0.027149
93871000,0.0324,0.013523,0.002678,0.000431,0.019040
93872000,0.0324,0.013523,0.002678,0.000431,0.020215
93873000,0.0324,0.013523,0.002678,0.000431,0.017394
93874000,0.0324,0.013523,0.002678,0.000431,0.019275
93875000,0.0324,0.013523,0.002678,0.000431,0.015866
93876000,0.0324,0.013523,0.002678,0.000431,0.019980
93877000,0.0324,0.013523,0.002678,0.000431,0.010695
93878000,0.0324,0.013523,0.002678,0.000431,0.011988
93879000,0.0324,0.013523,0.002678,0.000431,0.011635
93880000,0.0324,0.013523,0.002678,0.000431,0.006817
93881000,0.0324,0.013523,0.002678,0.000431,0.006347
93882000,0.0324,0.013523,0.002678,0.000431,0.007757
93883000,0.0324,0.013523,0.002678,0.000431,0.005406
93884000,0.0324,0.013523,0.002678,0.000431,0.004936
93885000,0.0324,0.013523,0.002678,0.000431,0.005054
93886000,0.0324,0.013523,0.002678,0.000431,0.006582
93887000,0.0324,0.013523,0.002678,0.000431,0.009167
93888000,0.0324,0.013523,0.002678,0.000431,0.002586
93889000,0.0324,0.013523,0.002678,0.000431,0.002586
93890000,0.0324,0.013523,0.002678,0.000431,0.002468
93891000,0.0324,0.013523,0.002678,0.000431,0.005289
93892000,0.0324,0.013523,0.002678,0.000431,0.001763
93893000,0.0324,0.013523,0.002678,0.000431,0.001763
93894000,0.0324,0.013523,0.002678,0.000431,0.001645
93895000,0.0324,0.013523,0.002678,0.000431,0.001763
93896000,0.0324,0.013523,0.002678,0.000431,0.003526
93897000,0.0324,0.013523,0.002678,0.000431,0.000940
93898000,0.0324,0.013523,0.002678,0.000431,0.000940
93899000,0.0324,0.013523,0.002678,0.000431,0.000705
93900000,0.0324,0.013523,0.002678,0.000431,0.086266
93901000,0.0324,0.013523,0.002678,0.000431,0.613497
93902000,0.0324,0.013523,0.002678,0.000431,0.546859
93903000,0.0324,0.013523,0.002678,0.000431,0.133865
93904000,0.0324,0.013523,0.002678,0.000431,0.133159
93905000,0.0324,0.013523,0.002678,0.000431,0.657335
93906000,0.0324,0.013523,0.002678,0.000431,0.243048
93907000,0.0324,0.013523,0.002678,0.000431,0.307571
93908000,0.0324,0.013523,0.002678,0.000431,0.235997
93909000,0.0324,0.013523,0.002678,0.000431,0.141269
93910000,0.0324,0.013523,0.002678,0.000431,0.126460
93911000,0.0324,0.013523,0.002678,0.000431,0.320264
93912000,0.0324,0.013523,0.002678,0.000431,0.384082
93913000,0.0324,0.013523,0.002678,0.000431,0.176880
93914000,0.0324,0.013523,0.002678,0.000431,0.160191
93915000,0.0324,0.013523,0.002678,0.000431,0.152904
93916000,0.0324,0.013523,0.002678,0.000431,0.133865
93917000,0.0324,0.013523,0.002678,0.000431,0.118233
93918000,0.0324,0.013523,0.002678,0.000431,0.102602
93919000,0.0324,0.013523,0.002678,0.000431,0.093670
93920000,0.0324,0.013523,0.002678,0.000431,0.078039
93921000,0.0324,0.013523,0.002678,0.000431,0.062290
93922000,0.0324,0.013523,0.002678,0.000431,0.065111
93923000,0.0324,0.013523,0.002678,0.000431,0.051595
93924000,0.0324,0.013523,0.002678,0.000431,0.047481
93925000,0.0324,0.013523,0.002678,0.000431,0.039960
93926000,0.0324,0.013523,0.002678,0.000431,0.035023
93927000,0.0324,0.013523,0.002678,0.000431,0.031850
93928000,0.0324,0.013523,0.002678,0.000431,0.026326
93929000,0.0324,0.013523,0.002678,0.000431,0.025151
93930000,0.0324,0.013523,0.002678,0.000431,0.022918
93931000,0.0324,0.013523,0.002678,0.000431,0.020567
93932000,0.0324,0.013523,0.002678,0.000431,0.025504
93933000,0.0324,0.013523,0.002678,0.000431,0.015279
93934000,0.0324,0.013523,0.002678,0.000431,0.017982
93935000,0.0324,0.013523,0.002678,0.000431,0.014691
93936000,0.0324,0.013523,0.002678,0.000431,0.013163
93937000,0.0324,0.013523,0.002678,0.000431,0.012458
93938000,0.0324,0.013523,0.002678,0.000431,0.012811
93939000,0.0324,0.013523,0.002678,0.000431,0.012105
93940000,0.0324,0.013523,0.002678,0.000431,0.013633
93941000,0.0324,0.013523,0.002678,0.000431,0.011988
93942000,0.0324,0.013523,0.002678,0.000431,0.012340
93943000,0.0324,0.013523,0.002678,0.000431,0.014221
93944000,0.0324,0.013523,0.002678,0.000431,0.013163
93945000,0.0324,0.013523,0.002678,0.000431,0.011400
93946000,0.0324,0.013523,0.002678,0.000431,0.011988
93947000,0.0324,0.013523,0.002678,0.000431,0.013398
93948000,0.0324,0.013523,0.002678,0.000431,0.013516
93949000,0.0324,0.013523,0.002678,0.000431,0.009402
93950000,0.0324,0.013523,0.002678,0.000431,0.010460
93951000,0.0324,0.013523,0.002678,0.000431,0.008462
93952000,0.0324,0.013523,0.002678,0.000431,0.006817
93953000,0.0324,0.013523,0.002678,0.000431,0.009050
93954000,0.0324,0.013523,0.002678,0.000431,0.006934
93955000,0.0324,0.013523,0.002678,0.000431,0.003996
93956000,0.0324,0.013523,0.002678,0.000431,0.005171
93957000,0.0324,0.013523,0.002678,0.000431,0.003408
93958000,0.0324,0.013523,0.002678,0.000431,0.001763
93959000,0.0324,0.013523,0.002678,0.000431,0.001645
93960000,0.0324,0.013523,0.002678,0.000431,0.004231
93961000,0.0324,0.013523,0.002678,0.000431,0.000823
93962000,0.0324,0.013523,0.002678,0.000431,0.001998
93963000,0.0324,0.013523,0.002678,0.000431,0.480808
93964000,0.0324,0.013523,0.002678,0.000431,0.735961
93965000,0.0324,0.013523,0.002678,0.000431,0.148086
93966000,0.0324,0.013523,0.002678,0.000431,0.134805
93967000,0.0324,0.013523,0.002678,0.000431,0.409938
93968000,0.0324,0.013523,0.002678,0.000431,0.401711
93969000,0.0324,0.013523,0.002678,0.000431,0.235879
93970000,0.0324,0.013523,0.002678,0.000431,0.333780
93971000,0.0324,0.013523,0.002678,0.000431,0.146675
93972000,0.0324,0.013523,0.002678,0.000431,0.169006
93973000,0.0324,0.013523,0.002678,0.000431,0.124932
93974000,0.0324,0.013523,0.002678,0.000431,0.496322
93975000,0.0324,0.013523,0.002678,0.000431,0.203089
93976000,0.0324,0.013523,0.002678,0.000431,0.171826
93977000,0.0324,0.013523,0.002678,0.000431,0.154902
93978000,0.0324,0.013523,0.002678,0.000431,0.127048
93979000,0.0324,0.013523,0.002678,0.000431,0.114355
93980000,0.0324,0.013523,0.002678,0.000431,0.100016
93981000,0.0324,0.013523,0.002678,0.000431,0.101074
93982000,0.0324,0.013523,0.002678,0.000431,0.076041
93983000,0.0324,0.013523,0.002678,0.000431,0.072397
93984000,0.0324,0.013523,0.002678,0.000431,0.069812
93985000,0.0324,0.013523,0.002678,0.000431,0.046071
93986000,0.0324,0.013523,0.002678,0.000431,0.042898
93987000,0.0324,0.013523,0.002678,0.000431,0.044308
93988000,0.0324,0.013523,0.002678,0.000431,0.030557
93989000,0.0324,0.013523,0.002678,0.000431,0.028324
93990000,0.0324,0.013523,0.002678,0.000431,0.025504
93991000,0.0324,0.013523,0.002678,0.000431,0.024093
93992000,0.0324,0.013523,0.002678,0.000431,0.019980
93993000,0.0324,0.013523,0.002678,0.000431,0.014573
93994000,0.0324,0.013523,0.002678,0.000431,0.013751
93995000,0.0324,0.013523,0.002678,0.000431,0.012105
93996000,0.0324,0.013523,0.002678,0.000431,0.009637
93997000,0.0324,0.013523,0.002678,0.000431,0.009520
93998000,0.0324,0.013523,0.002678,0.000431,0.007639
93999000,0.0324,0.013523,0.002678,0.000431,0.007052
