Cycle,Area(mm^2),PeakDynamic(W),SubthresholdLeakage(W),GateLeakage(W),RunTimeDynamic(W)
21000000,0.0324,0.013523,0.002678,0.000431,0.016219
21001000,0.0324,0.013523,0.002678,0.000431,0.012928
21002000,0.0324,0.013523,0.002678,0.000431,0.013281
21003000,0.0324,0.013523,0.002678,0.000431,0.012693
21004000,0.0324,0.013523,0.002678,0.000431,0.012105
21005000,0.0324,0.013523,0.002678,0.000431,0.010107
21006000,0.0324,0.013523,0.002678,0.000431,0.010695
21007000,0.0324,0.013523,0.002678,0.000431,0.010225
21008000,0.0324,0.013523,0.002678,0.000431,0.010460
21009000,0.0324,0.013523,0.002678,0.000431,0.009755
21010000,0.0324,0.013523,0.002678,0.000431,0.010813
21011000,0.0324,0.013523,0.002678,0.000431,0.012693
21012000,0.0324,0.013523,0.002678,0.000431,0.009050
21013000,0.0324,0.013523,0.002678,0.000431,0.009755
21014000,0.0324,0.013523,0.002678,0.000431,0.009520
21015000,0.0324,0.013523,0.002678,0.000431,0.009637
21016000,0.0324,0.013523,0.002678,0.000431,0.009402
21017000,0.0324,0.013523,0.002678,0.000431,0.011988
21018000,0.0324,0.013523,0.002678,0.000431,0.009520
21019000,0.0324,0.013523,0.002678,0.000431,0.007874
21020000,0.0324,0.013523,0.002678,0.000431,0.009520
21021000,0.0324,0.013523,0.002678,0.000431,0.009637
21022000,0.0324,0.013523,0.002678,0.000431,0.006347
21023000,0.0324,0.013523,0.002678,0.000431,0.005994
21024000,0.0324,0.013523,0.002678,0.000431,0.007874
21025000,0.0324,0.013523,0.002678,0.000431,0.004231
21026000,0.0324,0.013523,0.002678,0.000431,0.004231
21027000,0.0324,0.013523,0.002678,0.000431,0.004466
21028000,0.0324,0.013523,0.002678,0.000431,0.004349
21029000,0.0324,0.013523,0.002678,0.000431,0.004349
21030000,0.0324,0.013523,0.002678,0.000431,0.006111
21031000,0.0324,0.013523,0.002678,0.000431,0.005406
21032000,0.0324,0.013523,0.002678,0.000431,0.002703
21033000,0.0324,0.013523,0.002678,0.000431,0.002468
21034000,0.0324,0.013523,0.002678,0.000431,0.002586
21035000,0.0324,0.013523,0.002678,0.000431,0.003526
21036000,0.0324,0.013523,0.002678,0.000431,0.002821
21037000,0.0324,0.013523,0.002678,0.000431,0.003996
21038000,0.0324,0.013523,0.002678,0.000431,0.001058
21039000,0.0324,0.013523,0.002678,0.000431,0.000823
21040000,0.0324,0.013523,0.002678,0.000431,0.000823
21041000,0.0324,0.013523,0.002678,0.000431,0.070869
21042000,0.0324,0.013523,0.002678,0.000431,0.526291
21043000,0.0324,0.013523,0.002678,0.000431,0.586936
21044000,0.0324,0.013523,0.002678,0.000431,0.133042
21045000,0.0324,0.013523,0.002678,0.000431,0.132572
21046000,0.0324,0.013523,0.002678,0.000431,0.537926
21047000,0.0324,0.013523,0.002678,0.000431,0.232823
21048000,0.0324,0.013523,0.002678,0.000431,0.241050
21049000,0.0324,0.013523,0.002678,0.000431,0.308394
21050000,0.0324,0.013523,0.002678,0.000431,0.143149
21051000,0.0324,0.013523,0.002678,0.000431,0.149613
21052000,0.0324,0.013523,0.002678,0.000431,0.155020
21053000,0.0324,0.013523,0.002678,0.000431,0.165597
21054000,0.0324,0.013523,0.002678,0.000431,0.475166
21055000,0.0324,0.013523,0.002678,0.000431,0.155842
21056000,0.0324,0.013523,0.002678,0.000431,0.121407
21057000,0.0324,0.013523,0.002678,0.000431,0.092965
21058000,0.0324,0.013523,0.002678,0.000431,0.089674
21059000,0.0324,0.013523,0.002678,0.000431,0.064405
21060000,0.0324,0.013523,0.002678,0.000431,0.048657
21061000,0.0324,0.013523,0.002678,0.000431,0.050772
21062000,0.0324,0.013523,0.002678,0.000431,0.035846
21063000,0.0324,0.013523,0.002678,0.000431,0.034671
21064000,0.0324,0.013523,0.002678,0.000431,0.034436
21065000,0.0324,0.013523,0.002678,0.000431,0.026679
21066000,0.0324,0.013523,0.002678,0.000431,0.019745
21067000,0.0324,0.013523,0.002678,0.000431,0.025739
21068000,0.0324,0.013523,0.002678,0.000431,0.016924
21069000,0.0324,0.013523,0.002678,0.000431,0.016924
21070000,0.0324,0.013523,0.002678,0.000431,0.015044
21071000,0.0324,0.013523,0.002678,0.000431,0.020097
21072000,0.0324,0.013523,0.002678,0.000431,0.012105
21073000,0.0324,0.013523,0.002678,0.000431,0.014573
21074000,0.0324,0.013523,0.002678,0.000431,0.012811
21075000,0.0324,0.013523,0.002678,0.000431,0.009755
21076000,0.0324,0.013523,0.002678,0.000431,0.011048
21077000,0.0324,0.013523,0.002678,0.000431,0.008815
21078000,0.0324,0.013523,0.002678,0.000431,0.009285
21079000,0.0324,0.013523,0.002678,0.000431,0.007404
21080000,0.0324,0.013523,0.002678,0.000431,0.012693
21081000,0.0324,0.013523,0.002678,0.000431,0.005289
21082000,0.0324,0.013523,0.002678,0.000431,0.006464
21083000,0.0324,0.013523,0.002678,0.000431,0.004466
21084000,0.0324,0.013523,0.002678,0.000431,0.004231
21085000,0.0324,0.013523,0.002678,0.000431,0.007757
21086000,0.0324,0.013523,0.002678,0.000431,0.003526
21087000,0.0324,0.013523,0.002678,0.000431,0.003056
21088000,0.0324,0.013523,0.002678,0.000431,0.003526
21089000,0.0324,0.013523,0.002678,0.000431,0.004466
21090000,0.0324,0.013523,0.002678,0.000431,0.003996
21091000,0.0324,0.013523,0.002678,0.000431,0.002468
21092000,0.0324,0.013523,0.002678,0.000431,0.005289
21093000,0.0324,0.013523,0.002678,0.000431,0.001763
21094000,0.0324,0.013523,0.002678,0.000431,0.001645
21095000,0.0324,0.013523,0.002678,0.000431,0.001763
21096000,0.0324,0.013523,0.002678,0.000431,0.001763
21097000,0.0324,0.013523,0.002678,0.000431,0.003878
21098000,0.0324,0.013523,0.002678,0.000431,0.000940
21099000,0.0324,0.013523,0.002678,0.000431,0.000823
21100000,0.0324,0.013523,0.002678,0.000431,0.000823
21101000,0.0324,0.013523,0.002678,0.000431,0.000823
21102000,0.0324,0.013523,0.002678,0.000431,0.000823
21103000,0.0324,0.013523,0.002678,0.000431,0.000823
21104000,0.0324,0.013523,0.002678,0.000431,0.000823
21105000,0.0324,0.013523,0.002678,0.000431,0.000823
21106000,0.0324,0.013523,0.002678,0.000431,0.000940
21107000,0.0324,0.013523,0.002678,0.000431,0.000823
21108000,0.0324,0.013523,0.002678,0.000431,0.000823
21109000,0.0324,0.013523,0.002678,0.000431,0.000705
21110000,0.0324,0.013523,0.002678,0.000431,0.000940
21111000,0.0324,0.013523,0.002678,0.000431,0.000940
21112000,0.0324,0.013523,0.002678,0.000431,0.000705
21113000,0.0324,0.013523,0.002678,0.000431,0.000940
21114000,0.0324,0.013523,0.002678,0.000431,0.000705
21115000,0.0324,0.013523,0.002678,0.000431,0.000940
21116000,0.0324,0.013523,0.002678,0.000431,0.000705
21117000,0.0324,0.013523,0.002678,0.000431,0.000940
21118000,0.0324,0.013523,0.002678,0.000431,0.000940
21119000,0.0324,0.013523,0.002678,0.000431,0.000940
21120000,0.0324,0.013523,0.002678,0.000431,0.000940
21121000,0.0324,0.013523,0.002678,0.000431,0.118233
21122000,0.0324,0.013523,0.002678,0.000431,0.647815
21123000,0.0324,0.013523,0.002678,0.000431,0.543803
21124000,0.0324,0.013523,0.002678,0.000431,0.134922
21125000,0.0324,0.013523,0.002678,0.000431,0.131161
21126000,0.0324,0.013523,0.002678,0.000431,0.547329
21127000,0.0324,0.013523,0.002678,0.000431,0.251510
21128000,0.0324,0.013523,0.002678,0.000431,0.235879
21129000,0.0324,0.013523,0.002678,0.000431,0.332017
21130000,0.0324,0.013523,0.002678,0.000431,0.144560
21131000,0.0324,0.013523,0.002678,0.000431,0.150789
21132000,0.0324,0.013523,0.002678,0.000431,0.112122
21133000,0.0324,0.013523,0.002678,0.000431,0.435795
21134000,0.0324,0.013523,0.002678,0.000431,0.269375
21135000,0.0324,0.013523,0.002678,0.000431,0.123992
21136000,0.0324,0.013523,0.002678,0.000431,0.096373
21137000,0.0324,0.013523,0.002678,0.000431,0.078861
21138000,0.0324,0.013523,0.002678,0.000431,0.064405
21139000,0.0324,0.013523,0.002678,0.000431,0.055356
21140000,0.0324,0.013523,0.002678,0.000431,0.048069
21141000,0.0324,0.013523,0.002678,0.000431,0.037962
21142000,0.0324,0.013523,0.002678,0.000431,0.029265
21143000,0.0324,0.013523,0.002678,0.000431,0.022918
21144000,0.0324,0.013523,0.002678,0.000431,0.022448
21145000,0.0324,0.013523,0.002678,0.000431,0.019157
21146000,0.0324,0.013523,0.002678,0.000431,0.022095
21147000,0.0324,0.013523,0.002678,0.000431,0.015044
21148000,0.0324,0.013523,0.002678,0.000431,0.012811
21149000,0.0324,0.013523,0.002678,0.000431,0.010107
21150000,0.0324,0.013523,0.002678,0.000431,0.012693
21151000,0.0324,0.013523,0.002678,0.000431,0.013046
21152000,0.0324,0.013523,0.002678,0.000431,0.007052
21153000,0.0324,0.013523,0.002678,0.000431,0.013046
21154000,0.0324,0.013523,0.002678,0.000431,0.007169
21155000,0.0324,0.013523,0.002678,0.000431,0.005524
21156000,0.0324,0.013523,0.002678,0.000431,0.002351
21157000,0.0324,0.013523,0.002678,0.000431,0.002703
21158000,0.0324,0.013523,0.002678,0.000431,0.003878
21159000,0.0324,0.013523,0.002678,0.000431,0.003056
21160000,0.0324,0.013523,0.002678,0.000431,0.001645
21161000,0.0324,0.013523,0.002678,0.000431,0.001645
21162000,0.0324,0.013523,0.002678,0.000431,0.001880
21163000,0.0324,0.013523,0.002678,0.000431,0.001645
21164000,0.0324,0.013523,0.002678,0.000431,0.004584
21165000,0.0324,0.013523,0.002678,0.000431,0.000823
21166000,0.0324,0.013523,0.002678,0.000431,0.000823
21167000,0.0324,0.013523,0.002678,0.000431,0.000940
21168000,0.0324,0.013523,0.002678,0.000431,0.000705
21169000,0.0324,0.013523,0.002678,0.000431,0.000940
21170000,0.0324,0.013523,0.002678,0.000431,0.000823
21171000,0.0324,0.013523,0.002678,0.000431,0.000823
21172000,0.0324,0.013523,0.002678,0.000431,0.000823
21173000,0.0324,0.013523,0.002678,0.000431,0.000823
21174000,0.0324,0.013523,0.002678,0.000431,0.000940
21175000,0.0324,0.013523,0.002678,0.000431,0.000705
21176000,0.0324,0.013523,0.002678,0.000431,0.000823
21177000,0.0324,0.013523,0.002678,0.000431,0.000940
21178000,0.0324,0.013523,0.002678,0.000431,0.000823
21179000,0.0324,0.013523,0.002678,0.000431,0.000823
21180000,0.0324,0.013523,0.002678,0.000431,0.000823
21181000,0.0324,0.013523,0.002678,0.000431,0.000823
21182000,0.0324,0.013523,0.002678,0.000431,0.000823
21183000,0.0324,0.013523,0.002678,0.000431,0.000940
21184000,0.0324,0.013523,0.002678,0.000431,0.000705
21185000,0.0324,0.013523,0.002678,0.000431,0.000940
21186000,0.0324,0.013523,0.002678,0.000431,0.000705
21187000,0.0324,0.013523,0.002678,0.000431,0.000940
21188000,0.0324,0.013523,0.002678,0.000431,0.000823
21189000,0.0324,0.013523,0.002678,0.000431,0.000823
21190000,0.0324,0.013523,0.002678,0.000431,0.000940
21191000,0.0324,0.013523,0.002678,0.000431,0.000705
21192000,0.0324,0.013523,0.002678,0.000431,0.000940
21193000,0.0324,0.013523,0.002678,0.000431,0.000823
21194000,0.0324,0.013523,0.002678,0.000431,0.000823
21195000,0.0324,0.013523,0.002678,0.000431,0.000823
21196000,0.0324,0.013523,0.002678,0.000431,0.000823
21197000,0.0324,0.013523,0.002678,0.000431,0.000940
21198000,0.0324,0.013523,0.002678,0.000431,0.000705
21199000,0.0324,0.013523,0.002678,0.000431,0.000940
21200000,0.0324,0.013523,0.002678,0.000431,0.000823
21201000,0.0324,0.013523,0.002678,0.000431,0.000823
21202000,0.0324,0.013523,0.002678,0.000431,0.000823
21203000,0.0324,0.013523,0.002678,0.000431,0.000823
21204000,0.0324,0.013523,0.002678,0.000431,0.000823
21205000,0.0324,0.013523,0.002678,0.000431,0.000823
21206000,0.0324,0.013523,0.002678,0.000431,0.000940
21207000,0.0324,0.013523,0.002678,0.000431,0.000705
21208000,0.0324,0.013523,0.002678,0.000431,0.000940
21209000,0.0324,0.013523,0.002678,0.000431,0.000705
21210000,0.0324,0.013523,0.002678,0.000431,0.000940
21211000,0.0324,0.013523,0.002678,0.000431,0.000940
21212000,0.0324,0.013523,0.002678,0.000431,0.000705
21213000,0.0324,0.013523,0.002678,0.000431,0.071105
21214000,0.0324,0.013523,0.002678,0.000431,0.612087
21215000,0.0324,0.013523,0.002678,0.000431,0.597513
21216000,0.0324,0.013523,0.002678,0.000431,0.140211
21217000,0.0324,0.013523,0.002678,0.000431,0.133042
21218000,0.0324,0.013523,0.002678,0.000431,0.569659
21219000,0.0324,0.013523,0.002678,0.000431,0.224949
21220000,0.0324,0.013523,0.002678,0.000431,0.250453
21221000,0.0324,0.013523,0.002678,0.000431,0.328609
21222000,0.0324,0.013523,0.002678,0.000431,0.139271
21223000,0.0324,0.013523,0.002678,0.000431,0.154432
21224000,0.0324,0.013523,0.002678,0.000431,0.110947
21225000,0.0324,0.013523,0.002678,0.000431,0.433679
21226000,0.0324,0.013523,0.002678,0.000431,0.245751
21227000,0.0324,0.013523,0.002678,0.000431,0.121054
21228000,0.0324,0.013523,0.002678,0.000431,0.093787
21229000,0.0324,0.013523,0.002678,0.000431,0.074043
21230000,0.0324,0.013523,0.002678,0.000431,0.068519
21231000,0.0324,0.013523,0.002678,0.000431,0.058059
21232000,0.0324,0.013523,0.002678,0.000431,0.045718
21233000,0.0324,0.013523,0.002678,0.000431,0.039842
21234000,0.0324,0.013523,0.002678,0.000431,0.031498
21235000,0.0324,0.013523,0.002678,0.000431,0.031968
21236000,0.0324,0.013523,0.002678,0.000431,0.031615
21237000,0.0324,0.013523,0.002678,0.000431,0.019745
21238000,0.0324,0.013523,0.002678,0.000431,0.018805
21239000,0.0324,0.013523,0.002678,0.000431,0.016454
21240000,0.0324,0.013523,0.002678,0.000431,0.013163
21241000,0.0324,0.013523,0.002678,0.000431,0.009402
21242000,0.0324,0.013523,0.002678,0.000431,0.004466
21243000,0.0324,0.013523,0.002678,0.000431,0.004231
21244000,0.0324,0.013523,0.002678,0.000431,0.004231
21245000,0.0324,0.013523,0.002678,0.000431,0.007874
21246000,0.0324,0.013523,0.002678,0.000431,0.002468
21247000,0.0324,0.013523,0.002678,0.000431,0.005289
21248000,0.0324,0.013523,0.002678,0.000431,0.001645
21249000,0.0324,0.013523,0.002678,0.000431,0.001645
21250000,0.0324,0.013523,0.002678,0.000431,0.001763
21251000,0.0324,0.013523,0.002678,0.000431,0.001528
21252000,0.0324,0.013523,0.002678,0.000431,0.001880
21253000,0.0324,0.013523,0.002678,0.000431,0.001528
21254000,0.0324,0.013523,0.002678,0.000431,0.001763
21255000,0.0324,0.013523,0.002678,0.000431,0.001528
21256000,0.0324,0.013523,0.002678,0.000431,0.001763
21257000,0.0324,0.013523,0.002678,0.000431,0.001763
21258000,0.0324,0.013523,0.002678,0.000431,0.001645
21259000,0.0324,0.013523,0.002678,0.000431,0.001645
21260000,0.0324,0.013523,0.002678,0.000431,0.001645
21261000,0.0324,0.013523,0.002678,0.000431,0.001763
21262000,0.0324,0.013523,0.002678,0.000431,0.001528
21263000,0.0324,0.013523,0.002678,0.000431,0.001645
21264000,0.0324,0.013523,0.002678,0.000431,0.001880
21265000,0.0324,0.013523,0.002678,0.000431,0.001528
21266000,0.0324,0.013523,0.002678,0.000431,0.001763
21267000,0.0324,0.013523,0.002678,0.000431,0.003291
21268000,0.0324,0.013523,0.002678,0.000431,0.000705
21269000,0.0324,0.013523,0.002678,0.000431,0.000940
21270000,0.0324,0.013523,0.002678,0.000431,0.000940
21271000,0.0324,0.013523,0.002678,0.000431,0.000705
21272000,0.0324,0.013523,0.002678,0.000431,0.000940
21273000,0.0324,0.013523,0.002678,0.000431,0.204617
21274000,0.0324,0.013523,0.002678,0.000431,0.588464
21275000,0.0324,0.013523,0.002678,0.000431,0.517594
21276000,0.0324,0.013523,0.002678,0.000431,0.133982
21277000,0.0324,0.013523,0.002678,0.000431,0.133512
21278000,0.0324,0.013523,0.002678,0.000431,0.560609
21279000,0.0324,0.013523,0.002678,0.000431,0.239405
21280000,0.0324,0.013523,0.002678,0.000431,0.268669
21281000,0.0324,0.013523,0.002678,0.000431,0.277484
21282000,0.0324,0.013523,0.002678,0.000431,0.140094
21283000,0.0324,0.013523,0.002678,0.000431,0.159368
21284000,0.0324,0.013523,0.002678,0.000431,0.109654
21285000,0.0324,0.013523,0.002678,0.000431,0.461063
21286000,0.0324,0.013523,0.002678,0.000431,0.191336
21287000,0.0324,0.013523,0.002678,0.000431,0.133982
21288000,0.0324,0.013523,0.002678,0.000431,0.100839
21289000,0.0324,0.013523,0.002678,0.000431,0.079919
21290000,0.0324,0.013523,0.002678,0.000431,0.070047
21291000,0.0324,0.013523,0.002678,0.000431,0.062290
21292000,0.0324,0.013523,0.002678,0.000431,0.055591
21293000,0.0324,0.013523,0.002678,0.000431,0.035729
21294000,0.0324,0.013523,0.002678,0.000431,0.032673
21295000,0.0324,0.013523,0.002678,0.000431,0.026209
21296000,0.0324,0.013523,0.002678,0.000431,0.025621
21297000,0.0324,0.013523,0.002678,0.000431,0.021625
21298000,0.0324,0.013523,0.002678,0.000431,0.018452
21299000,0.0324,0.013523,0.002678,0.000431,0.022565
21300000,0.0324,0.013523,0.002678,0.000431,0.015866
21301000,0.0324,0.013523,0.002678,0.000431,0.016219
21302000,0.0324,0.013523,0.002678,0.000431,0.015396
21303000,0.0324,0.013523,0.002678,0.000431,0.013046
21304000,0.0324,0.013523,0.002678,0.000431,0.012811
21305000,0.0324,0.013523,0.002678,0.000431,0.014691
21306000,0.0324,0.013523,0.002678,0.000431,0.015161
21307000,0.0324,0.013523,0.002678,0.000431,0.012223
21308000,0.0324,0.013523,0.002678,0.000431,0.009285
21309000,0.0324,0.013523,0.002678,0.000431,0.014926
21310000,0.0324,0.013523,0.002678,0.000431,0.006934
21311000,0.0324,0.013523,0.002678,0.000431,0.007052
21312000,0.0324,0.013523,0.002678,0.000431,0.006229
21313000,0.0324,0.013523,0.002678,0.000431,0.009402
21314000,0.0324,0.013523,0.002678,0.000431,0.004819
21315000,0.0324,0.013523,0.002678,0.000431,0.003996
21316000,0.0324,0.013523,0.002678,0.000431,0.003408
21317000,0.0324,0.013523,0.002678,0.000431,0.001645
21318000,0.0324,0.013523,0.002678,0.000431,0.001645
21319000,0.0324,0.013523,0.002678,0.000431,0.001880
21320000,0.0324,0.013523,0.002678,0.000431,0.001645
21321000,0.0324,0.013523,0.002678,0.000431,0.003173
21322000,0.0324,0.013523,0.002678,0.000431,0.000940
21323000,0.0324,0.013523,0.002678,0.000431,0.000940
21324000,0.0324,0.013523,0.002678,0.000431,0.255154
21325000,0.0324,0.013523,0.002678,0.000431,0.712338
21326000,0.0324,0.013523,0.002678,0.000431,0.350704
21327000,0.0324,0.013523,0.002678,0.000431,0.131867
21328000,0.0324,0.013523,0.002678,0.000431,0.133277
21329000,0.0324,0.013523,0.002678,0.000431,0.598924
21330000,0.0324,0.013523,0.002678,0.000431,0.225302
21331000,0.0324,0.013523,0.002678,0.000431,0.277954
21332000,0.0324,0.013523,0.002678,0.000431,0.260207
21333000,0.0324,0.013523,0.002678,0.000431,0.139859
21334000,0.0324,0.013523,0.002678,0.000431,0.188515
21335000,0.0324,0.013523,0.002678,0.000431,0.083563
21336000,0.0324,0.013523,0.002678,0.000431,0.493031
21337000,0.0324,0.013523,0.002678,0.000431,0.168183
21338000,0.0324,0.013523,0.002678,0.000431,0.117881
21339000,0.0324,0.013523,0.002678,0.000431,0.097666
21340000,0.0324,0.013523,0.002678,0.000431,0.083210
21341000,0.0324,0.013523,0.002678,0.000431,0.073103
21342000,0.0324,0.013523,0.002678,0.000431,0.078509
21343000,0.0324,0.013523,0.002678,0.000431,0.058529
21344000,0.0324,0.013523,0.002678,0.000431,0.045954
21345000,0.0324,0.013523,0.002678,0.000431,0.041723
21346000,0.0324,0.013523,0.002678,0.000431,0.035846
21347000,0.0324,0.013523,0.002678,0.000431,0.042545
21348000,0.0324,0.013523,0.002678,0.000431,0.036316
21349000,0.0324,0.013523,0.002678,0.000431,0.026326
21350000,0.0324,0.013523,0.002678,0.000431,0.026914
21351000,0.0324,0.013523,0.002678,0.000431,0.022565
21352000,0.0324,0.013523,0.002678,0.000431,0.017277
21353000,0.0324,0.013523,0.002678,0.000431,0.019862
21354000,0.0324,0.013523,0.002678,0.000431,0.017394
21355000,0.0324,0.013523,0.002678,0.000431,0.015514
21356000,0.0324,0.013523,0.002678,0.000431,0.013046
21357000,0.0324,0.013523,0.002678,0.000431,0.012458
21358000,0.0324,0.013523,0.002678,0.000431,0.013281
21359000,0.0324,0.013523,0.002678,0.000431,0.012811
21360000,0.0324,0.013523,0.002678,0.000431,0.012928
21361000,0.0324,0.013523,0.002678,0.000431,0.011988
21362000,0.0324,0.013523,0.002678,0.000431,0.011870
21363000,0.0324,0.013523,0.002678,0.000431,0.009285
21364000,0.0324,0.013523,0.002678,0.000431,0.010460
21365000,0.0324,0.013523,0.002678,0.000431,0.010107
21366000,0.0324,0.013523,0.002678,0.000431,0.011753
21367000,0.0324,0.013523,0.002678,0.000431,0.008932
21368000,0.0324,0.013523,0.002678,0.000431,0.008109
21369000,0.0324,0.013523,0.002678,0.000431,0.007287
21370000,0.0324,0.013523,0.002678,0.000431,0.006111
21371000,0.0324,0.013523,0.002678,0.000431,0.006229
21372000,0.0324,0.013523,0.002678,0.000431,0.003408
21373000,0.0324,0.013523,0.002678,0.000431,0.005289
21374000,0.0324,0.013523,0.002678,0.000431,0.002468
21375000,0.0324,0.013523,0.002678,0.000431,0.002586
21376000,0.0324,0.013523,0.002678,0.000431,0.002351
21377000,0.0324,0.013523,0.002678,0.000431,0.003526
21378000,0.0324,0.013523,0.002678,0.000431,0.002938
21379000,0.0324,0.013523,0.002678,0.000431,0.001528
21380000,0.0324,0.013523,0.002678,0.000431,0.001763
21381000,0.0324,0.013523,0.002678,0.000431,0.001528
21382000,0.0324,0.013523,0.002678,0.000431,0.003173
21383000,0.0324,0.013523,0.002678,0.000431,0.000940
21384000,0.0324,0.013523,0.002678,0.000431,0.000940
21385000,0.0324,0.013523,0.002678,0.000431,0.000705
21386000,0.0324,0.013523,0.002678,0.000431,0.223304
21387000,0.0324,0.013523,0.002678,0.000431,0.633007
21388000,0.0324,0.013523,0.002678,0.000431,0.454129
21389000,0.0324,0.013523,0.002678,0.000431,0.131632
21390000,0.0324,0.013523,0.002678,0.000431,0.134452
21391000,0.0324,0.013523,0.002678,0.000431,0.583057
21392000,0.0324,0.013523,0.002678,0.000431,0.228122
21393000,0.0324,0.013523,0.002678,0.000431,0.286886
21394000,0.0324,0.013523,0.002678,0.000431,0.249160
21395000,0.0324,0.013523,0.002678,0.000431,0.140681
21396000,0.0324,0.013523,0.002678,0.000431,0.192511
21397000,0.0324,0.013523,0.002678,0.000431,0.083798
21398000,0.0324,0.013523,0.002678,0.000431,0.481395
21399000,0.0324,0.013523,0.002678,0.000431,0.165597
21400000,0.0324,0.013523,0.002678,0.000431,0.112122
21401000,0.0324,0.013523,0.002678,0.000431,0.100487
21402000,0.0324,0.013523,0.002678,0.000431,0.075571
21403000,0.0324,0.013523,0.002678,0.000431,0.055356
21404000,0.0324,0.013523,0.002678,0.000431,0.057001
21405000,0.0324,0.013523,0.002678,0.000431,0.043250
21406000,0.0324,0.013523,0.002678,0.000431,0.050890
21407000,0.0324,0.013523,0.002678,0.000431,0.038314
21408000,0.0324,0.013523,0.002678,0.000431,0.039019
21409000,0.0324,0.013523,0.002678,0.000431,0.027619
21410000,0.0324,0.013523,0.002678,0.000431,0.024916
21411000,0.0324,0.013523,0.002678,0.000431,0.025739
21412000,0.0324,0.013523,0.002678,0.000431,0.020215
21413000,0.0324,0.013523,0.002678,0.000431,0.020567
21414000,0.0324,0.013523,0.002678,0.000431,0.022095
21415000,0.0324,0.013523,0.002678,0.000431,0.016336
21416000,0.0324,0.013523,0.002678,0.000431,0.018569
21417000,0.0324,0.013523,0.002678,0.000431,0.012105
21418000,0.0324,0.013523,0.002678,0.000431,0.011283
21419000,0.0324,0.013523,0.002678,0.000431,0.013986
21420000,0.0324,0.013523,0.002678,0.000431,0.007639
21421000,0.0324,0.013523,0.002678,0.000431,0.009637
21422000,0.0324,0.013523,0.002678,0.000431,0.006582
21423000,0.0324,0.013523,0.002678,0.000431,0.008462
21424000,0.0324,0.013523,0.002678,0.000431,0.003996
21425000,0.0324,0.013523,0.002678,0.000431,0.004701
21426000,0.0324,0.013523,0.002678,0.000431,0.002116
21427000,0.0324,0.013523,0.002678,0.000431,0.001528
21428000,0.0324,0.013523,0.002678,0.000431,0.001880
21429000,0.0324,0.013523,0.002678,0.000431,0.001763
21430000,0.0324,0.013523,0.002678,0.000431,0.001763
21431000,0.0324,0.013523,0.002678,0.000431,0.001645
21432000,0.0324,0.013523,0.002678,0.000431,0.001880
21433000,0.0324,0.013523,0.002678,0.000431,0.001763
21434000,0.0324,0.013523,0.002678,0.000431,0.003173
21435000,0.0324,0.013523,0.002678,0.000431,0.000823
21436000,0.0324,0.013523,0.002678,0.000431,0.000940
21437000,0.0324,0.013523,0.002678,0.000431,0.000823
21438000,0.0324,0.013523,0.002678,0.000431,0.000823
21439000,0.0324,0.013523,0.002678,0.000431,0.000940
21440000,0.0324,0.013523,0.002678,0.000431,0.000940
21441000,0.0324,0.013523,0.002678,0.000431,0.000823
21442000,0.0324,0.013523,0.002678,0.000431,0.000823
21443000,0.0324,0.013523,0.002678,0.000431,0.000940
21444000,0.0324,0.013523,0.002678,0.000431,0.000940
21445000,0.0324,0.013523,0.002678,0.000431,0.000823
21446000,0.0324,0.013523,0.002678,0.000431,0.000823
21447000,0.0324,0.013523,0.002678,0.000431,0.000940
21448000,0.0324,0.013523,0.002678,0.000431,0.000940
21449000,0.0324,0.013523,0.002678,0.000431,0.000823
21450000,0.0324,0.013523,0.002678,0.000431,0.000823
21451000,0.0324,0.013523,0.002678,0.000431,0.000940
21452000,0.0324,0.013523,0.002678,0.000431,0.000823
21453000,0.0324,0.013523,0.002678,0.000431,0.000940
21454000,0.0324,0.013523,0.002678,0.000431,0.000823
21455000,0.0324,0.013523,0.002678,0.000431,0.000940
21456000,0.0324,0.013523,0.002678,0.000431,0.000823
21457000,0.0324,0.013523,0.002678,0.000431,0.000823
21458000,0.0324,0.013523,0.002678,0.000431,0.000940
21459000,0.0324,0.013523,0.002678,0.000431,0.000940
21460000,0.0324,0.013523,0.002678,0.000431,0.000823
21461000,0.0324,0.013523,0.002678,0.000431,0.000823
21462000,0.0324,0.013523,0.002678,0.000431,0.071340
21463000,0.0324,0.013523,0.002678,0.000431,0.580824
21464000,0.0324,0.013523,0.002678,0.000431,0.597513
21465000,0.0324,0.013523,0.002678,0.000431,0.131749
21466000,0.0324,0.013523,0.002678,0.000431,0.133394
21467000,0.0324,0.013523,0.002678,0.000431,0.549209
21468000,0.0324,0.013523,0.002678,0.000431,0.227417
21469000,0.0324,0.013523,0.002678,0.000431,0.244694
21470000,0.0324,0.013523,0.002678,0.000431,0.348941
21471000,0.0324,0.013523,0.002678,0.000431,0.145852
21472000,0.0324,0.013523,0.002678,0.000431,0.137978
21473000,0.0324,0.013523,0.002678,0.000431,0.121289
21474000,0.0324,0.013523,0.002678,0.000431,0.323555
21475000,0.0324,0.013523,0.002678,0.000431,0.367746
21476000,0.0324,0.013523,0.002678,0.000431,0.151376
21477000,0.0324,0.013523,0.002678,0.000431,0.111417
21478000,0.0324,0.013523,0.002678,0.000431,0.096256
21479000,0.0324,0.013523,0.002678,0.000431,0.088146
21480000,0.0324,0.013523,0.002678,0.000431,0.065228
21481000,0.0324,0.013523,0.002678,0.000431,0.058647
21482000,0.0324,0.013523,0.002678,0.000431,0.056414
21483000,0.0324,0.013523,0.002678,0.000431,0.038549
21484000,0.0324,0.013523,0.002678,0.000431,0.034788
21485000,0.0324,0.013523,0.002678,0.000431,0.032203
21486000,0.0324,0.013523,0.002678,0.000431,0.032555
21487000,0.0324,0.013523,0.002678,0.000431,0.030910
21488000,0.0324,0.013523,0.002678,0.000431,0.023388
21489000,0.0324,0.013523,0.002678,0.000431,0.023858
21490000,0.0324,0.013523,0.002678,0.000431,0.022448
21491000,0.0324,0.013523,0.002678,0.000431,0.016924
21492000,0.0324,0.013523,0.002678,0.000431,0.016219
21493000,0.0324,0.013523,0.002678,0.000431,0.013281
21494000,0.0324,0.013523,0.002678,0.000431,0.013633
21495000,0.0324,0.013523,0.002678,0.000431,0.013986
21496000,0.0324,0.013523,0.002678,0.000431,0.013398
21497000,0.0324,0.013523,0.002678,0.000431,0.013046
21498000,0.0324,0.013523,0.002678,0.000431,0.010813
21499000,0.0324,0.013523,0.002678,0.000431,0.008932
21500000,0.0324,0.013523,0.002678,0.000431,0.007757
21501000,0.0324,0.013523,0.002678,0.000431,0.010107
21502000,0.0324,0.013523,0.002678,0.000431,0.008462
21503000,0.0324,0.013523,0.002678,0.000431,0.005054
21504000,0.0324,0.013523,0.002678,0.000431,0.006464
21505000,0.0324,0.013523,0.002678,0.000431,0.006111
21506000,0.0324,0.013523,0.002678,0.000431,0.005289
21507000,0.0324,0.013523,0.002678,0.000431,0.006111
21508000,0.0324,0.013523,0.002678,0.000431,0.005641
21509000,0.0324,0.013523,0.002678,0.000431,0.006111
21510000,0.0324,0.013523,0.002678,0.000431,0.005876
21511000,0.0324,0.013523,0.002678,0.000431,0.007169
21512000,0.0324,0.013523,0.002678,0.000431,0.007992
21513000,0.0324,0.013523,0.002678,0.000431,0.004113
21514000,0.0324,0.013523,0.002678,0.000431,0.002468
21515000,0.0324,0.013523,0.002678,0.000431,0.002586
21516000,0.0324,0.013523,0.002678,0.000431,0.002468
21517000,0.0324,0.013523,0.002678,0.000431,0.002468
21518000,0.0324,0.013523,0.002678,0.000431,0.003996
21519000,0.0324,0.013523,0.002678,0.000431,0.011048
21520000,0.0324,0.013523,0.002678,0.000431,0.580589
21521000,0.0324,0.013523,0.002678,0.000431,0.665210
21522000,0.0324,0.013523,0.002678,0.000431,0.137273
21523000,0.0324,0.013523,0.002678,0.000431,0.132689
21524000,0.0324,0.013523,0.002678,0.000431,0.300285
21525000,0.0324,0.013523,0.002678,0.000431,0.459653
21526000,0.0324,0.013523,0.002678,0.000431,0.272195
21527000,0.0324,0.013523,0.002678,0.000431,0.288297
21528000,0.0324,0.013523,0.002678,0.000431,0.182521
21529000,0.0324,0.013523,0.002678,0.000431,0.139388
21530000,0.0324,0.013523,0.002678,0.000431,0.154785
21531000,0.0324,0.013523,0.002678,0.000431,0.220483
21532000,0.0324,0.013523,0.002678,0.000431,0.423807
21533000,0.0324,0.013523,0.002678,0.000431,0.139506
21534000,0.0324,0.013523,0.002678,0.000431,0.106010
21535000,0.0324,0.013523,0.002678,0.000431,0.095785
21536000,0.0324,0.013523,0.002678,0.000431,0.078509
21537000,0.0324,0.013523,0.002678,0.000431,0.074748
21538000,0.0324,0.013523,0.002678,0.000431,0.059352
21539000,0.0324,0.013523,0.002678,0.000431,0.047951
21540000,0.0324,0.013523,0.002678,0.000431,0.035376
21541000,0.0324,0.013523,0.002678,0.000431,0.030322
21542000,0.0324,0.013523,0.002678,0.000431,0.033025
21543000,0.0324,0.013523,0.002678,0.000431,0.035729
21544000,0.0324,0.013523,0.002678,0.000431,0.023623
21545000,0.0324,0.013523,0.002678,0.000431,0.024798
21546000,0.0324,0.013523,0.002678,0.000431,0.015044
21547000,0.0324,0.013523,0.002678,0.000431,0.012105
21548000,0.0324,0.013523,0.002678,0.000431,0.010578
21549000,0.0324,0.013523,0.002678,0.000431,0.011165
21550000,0.0324,0.013523,0.002678,0.000431,0.009872
21551000,0.0324,0.013523,0.002678,0.000431,0.010225
21552000,0.0324,0.013523,0.002678,0.000431,0.006111
21553000,0.0324,0.013523,0.002678,0.000431,0.005876
21554000,0.0324,0.013523,0.002678,0.000431,0.006111
21555000,0.0324,0.013523,0.002678,0.000431,0.005759
21556000,0.0324,0.013523,0.002678,0.000431,0.008109
21557000,0.0324,0.013523,0.002678,0.000431,0.004936
21558000,0.0324,0.013523,0.002678,0.000431,0.005289
21559000,0.0324,0.013523,0.002678,0.000431,0.005054
21560000,0.0324,0.013523,0.002678,0.000431,0.005171
21561000,0.0324,0.013523,0.002678,0.000431,0.004936
21562000,0.0324,0.013523,0.002678,0.000431,0.005054
21563000,0.0324,0.013523,0.002678,0.000431,0.005289
21564000,0.0324,0.013523,0.002678,0.000431,0.004936
21565000,0.0324,0.013523,0.002678,0.000431,0.005289
21566000,0.0324,0.013523,0.002678,0.000431,0.005171
21567000,0.0324,0.013523,0.002678,0.000431,0.004936
21568000,0.0324,0.013523,0.002678,0.000431,0.005054
21569000,0.0324,0.013523,0.002678,0.000431,0.005406
21570000,0.0324,0.013523,0.002678,0.000431,0.005289
21571000,0.0324,0.013523,0.002678,0.000431,0.005054
21572000,0.0324,0.013523,0.002678,0.000431,0.005289
21573000,0.0324,0.013523,0.002678,0.000431,0.006347
21574000,0.0324,0.013523,0.002678,0.000431,0.004349
21575000,0.0324,0.013523,0.002678,0.000431,0.006111
21576000,0.0324,0.013523,0.002678,0.000431,0.003173
21577000,0.0324,0.013523,0.002678,0.000431,0.005054
21578000,0.0324,0.013523,0.002678,0.000431,0.002821
21579000,0.0324,0.013523,0.002678,0.000431,0.002468
21580000,0.0324,0.013523,0.002678,0.000431,0.002468
21581000,0.0324,0.013523,0.002678,0.000431,0.002586
21582000,0.0324,0.013523,0.002678,0.000431,0.002703
21583000,0.0324,0.013523,0.002678,0.000431,0.002586
21584000,0.0324,0.013523,0.002678,0.000431,0.002351
21585000,0.0324,0.013523,0.002678,0.000431,0.002586
21586000,0.0324,0.013523,0.002678,0.000431,0.002703
21587000,0.0324,0.013523,0.002678,0.000431,0.002586
21588000,0.0324,0.013523,0.002678,0.000431,0.002351
21589000,0.0324,0.013523,0.002678,0.000431,0.005171
21590000,0.0324,0.013523,0.002678,0.000431,0.001645
21591000,0.0324,0.013523,0.002678,0.000431,0.001880
21592000,0.0324,0.013523,0.002678,0.000431,0.001645
21593000,0.0324,0.013523,0.002678,0.000431,0.001763
21594000,0.0324,0.013523,0.002678,0.000431,0.001763
21595000,0.0324,0.013523,0.002678,0.000431,0.001645
21596000,0.0324,0.013523,0.002678,0.000431,0.001763
21597000,0.0324,0.013523,0.002678,0.000431,0.001880
21598000,0.0324,0.013523,0.002678,0.000431,0.001528
21599000,0.0324,0.013523,0.002678,0.000431,0.001763
21600000,0.0324,0.013523,0.002678,0.000431,0.001763
21601000,0.0324,0.013523,0.002678,0.000431,0.001763
21602000,0.0324,0.013523,0.002678,0.000431,0.001763
21603000,0.0324,0.013523,0.002678,0.000431,0.001645
21604000,0.0324,0.013523,0.002678,0.000431,0.001763
21605000,0.0324,0.013523,0.002678,0.000431,0.001880
21606000,0.0324,0.013523,0.002678,0.000431,0.001528
21607000,0.0324,0.013523,0.002678,0.000431,0.001763
21608000,0.0324,0.013523,0.002678,0.000431,0.001763
21609000,0.0324,0.013523,0.002678,0.000431,0.001645
21610000,0.0324,0.013523,0.002678,0.000431,0.001880
21611000,0.0324,0.013523,0.002678,0.000431,0.001645
21612000,0.0324,0.013523,0.002678,0.000431,0.001763
21613000,0.0324,0.013523,0.002678,0.000431,0.001763
21614000,0.0324,0.013523,0.002678,0.000431,0.001528
21615000,0.0324,0.013523,0.002678,0.000431,0.001880
21616000,0.0324,0.013523,0.002678,0.000431,0.001763
21617000,0.0324,0.013523,0.002678,0.000431,0.001645
21618000,0.0324,0.013523,0.002678,0.000431,0.001763
21619000,0.0324,0.013523,0.002678,0.000431,0.001763
21620000,0.0324,0.013523,0.002678,0.000431,0.001763
21621000,0.0324,0.013523,0.002678,0.000431,0.001645
21622000,0.0324,0.013523,0.002678,0.000431,0.001645
21623000,0.0324,0.013523,0.002678,0.000431,0.001880
21624000,0.0324,0.013523,0.002678,0.000431,0.001763
21625000,0.0324,0.013523,0.002678,0.000431,0.001528
21626000,0.0324,0.013523,0.002678,0.000431,0.001880
21627000,0.0324,0.013523,0.002678,0.000431,0.001763
21628000,0.0324,0.013523,0.002678,0.000431,0.001645
21629000,0.0324,0.013523,0.002678,0.000431,0.001880
21630000,0.0324,0.013523,0.002678,0.000431,0.002351
21631000,0.0324,0.013523,0.002678,0.000431,0.001880
21632000,0.0324,0.013523,0.002678,0.000431,0.000940
21633000,0.0324,0.013523,0.002678,0.000431,0.000940
21634000,0.0324,0.013523,0.002678,0.000431,0.000705
21635000,0.0324,0.013523,0.002678,0.000431,0.000940
21636000,0.0324,0.013523,0.002678,0.000431,0.221071
21637000,0.0324,0.013523,0.002678,0.000431,0.621372
21638000,0.0324,0.013523,0.002678,0.000431,0.469173
21639000,0.0324,0.013523,0.002678,0.000431,0.132572
21640000,0.0324,0.013523,0.002678,0.000431,0.133982
21641000,0.0324,0.013523,0.002678,0.000431,0.566956
21642000,0.0324,0.013523,0.002678,0.000431,0.241403
21643000,0.0324,0.013523,0.002678,0.000431,0.279482
21644000,0.0324,0.013523,0.002678,0.000431,0.269845
21645000,0.0324,0.013523,0.002678,0.000431,0.138448
21646000,0.0324,0.013523,0.002678,0.000431,0.151611
21647000,0.0324,0.013523,0.002678,0.000431,0.106128
21648000,0.0324,0.013523,0.002678,0.000431,0.451661
21649000,0.0324,0.013523,0.002678,0.000431,0.270667
21650000,0.0324,0.013523,0.002678,0.000431,0.143854
21651000,0.0324,0.013523,0.002678,0.000431,0.105658
21652000,0.0324,0.013523,0.002678,0.000431,0.087794
21653000,0.0324,0.013523,0.002678,0.000431,0.079802
21654000,0.0324,0.013523,0.002678,0.000431,0.068166
21655000,0.0324,0.013523,0.002678,0.000431,0.060880
21656000,0.0324,0.013523,0.002678,0.000431,0.048539
21657000,0.0324,0.013523,0.002678,0.000431,0.048539
21658000,0.0324,0.013523,0.002678,0.000431,0.046306
21659000,0.0324,0.013523,0.002678,0.000431,0.028677
21660000,0.0324,0.013523,0.002678,0.000431,0.027854
21661000,0.0324,0.013523,0.002678,0.000431,0.025269
21662000,0.0324,0.013523,0.002678,0.000431,0.028089
21663000,0.0324,0.013523,0.002678,0.000431,0.022683
21664000,0.0324,0.013523,0.002678,0.000431,0.016336
21665000,0.0324,0.013523,0.002678,0.000431,0.018805
21666000,0.0324,0.013523,0.002678,0.000431,0.012576
21667000,0.0324,0.013523,0.002678,0.000431,0.015984
21668000,0.0324,0.013523,0.002678,0.000431,0.013986
21669000,0.0324,0.013523,0.002678,0.000431,0.008932
21670000,0.0324,0.013523,0.002678,0.000431,0.006464
21671000,0.0324,0.013523,0.002678,0.000431,0.007992
21672000,0.0324,0.013523,0.002678,0.000431,0.009755
21673000,0.0324,0.013523,0.002678,0.000431,0.003761
21674000,0.0324,0.013523,0.002678,0.000431,0.005171
21675000,0.0324,0.013523,0.002678,0.000431,0.006111
21676000,0.0324,0.013523,0.002678,0.000431,0.338951
21677000,0.0324,0.013523,0.002678,0.000431,0.741368
21678000,0.0324,0.013523,0.002678,0.000431,0.298992
21679000,0.0324,0.013523,0.002678,0.000431,0.131632
21680000,0.0324,0.013523,0.002678,0.000431,0.137743
21681000,0.0324,0.013523,0.002678,0.000431,0.603155
21682000,0.0324,0.013523,0.002678,0.000431,0.223891
21683000,0.0324,0.013523,0.002678,0.000431,0.310274
21684000,0.0324,0.013523,0.002678,0.000431,0.261618
21685000,0.0324,0.013523,0.002678,0.000431,0.147263
21686000,0.0324,0.013523,0.002678,0.000431,0.151376
21687000,0.0324,0.013523,0.002678,0.000431,0.154902
21688000,0.0324,0.013523,0.002678,0.000431,0.519945
21689000,0.0324,0.013523,0.002678,0.000431,0.174999
21690000,0.0324,0.013523,0.002678,0.000431,0.129399
21691000,0.0324,0.013523,0.002678,0.000431,0.103425
21692000,0.0324,0.013523,0.002678,0.000431,0.083445
21693000,0.0324,0.013523,0.002678,0.000431,0.080037
21694000,0.0324,0.013523,0.002678,0.000431,0.065698
21695000,0.0324,0.013523,0.002678,0.000431,0.058529
21696000,0.0324,0.013523,0.002678,0.000431,0.041723
21697000,0.0324,0.013523,0.002678,0.000431,0.036904
21698000,0.0324,0.013523,0.002678,0.000431,0.029617
21699000,0.0324,0.013523,0.002678,0.000431,0.023153
21700000,0.0324,0.013523,0.002678,0.000431,0.016101
21701000,0.0324,0.013523,0.002678,0.000431,0.016219
21702000,0.0324,0.013523,0.002678,0.000431,0.014221
21703000,0.0324,0.013523,0.002678,0.000431,0.012811
21704000,0.0324,0.013523,0.002678,0.000431,0.009167
21705000,0.0324,0.013523,0.002678,0.000431,0.012811
21706000,0.0324,0.013523,0.002678,0.000431,0.009755
21707000,0.0324,0.013523,0.002678,0.000431,0.007052
21708000,0.0324,0.013523,0.002678,0.000431,0.006347
21709000,0.0324,0.013523,0.002678,0.000431,0.006464
21710000,0.0324,0.013523,0.002678,0.000431,0.006699
21711000,0.0324,0.013523,0.002678,0.000431,0.007404
21712000,0.0324,0.013523,0.002678,0.000431,0.008462
21713000,0.0324,0.013523,0.002678,0.000431,0.005406
21714000,0.0324,0.013523,0.002678,0.000431,0.004584
21715000,0.0324,0.013523,0.002678,0.000431,0.004936
21716000,0.0324,0.013523,0.002678,0.000431,0.005054
21717000,0.0324,0.013523,0.002678,0.000431,0.004466
21718000,0.0324,0.013523,0.002678,0.000431,0.004936
21719000,0.0324,0.013523,0.002678,0.000431,0.005289
21720000,0.0324,0.013523,0.002678,0.000431,0.004584
21721000,0.0324,0.013523,0.002678,0.000431,0.004936
21722000,0.0324,0.013523,0.002678,0.000431,0.004936
21723000,0.0324,0.013523,0.002678,0.000431,0.004819
21724000,0.0324,0.013523,0.002678,0.000431,0.005054
21725000,0.0324,0.013523,0.002678,0.000431,0.004936
21726000,0.0324,0.013523,0.002678,0.000431,0.004584
21727000,0.0324,0.013523,0.002678,0.000431,0.005171
21728000,0.0324,0.013523,0.002678,0.000431,0.004819
21729000,0.0324,0.013523,0.002678,0.000431,0.004936
21730000,0.0324,0.013523,0.002678,0.000431,0.004819
21731000,0.0324,0.013523,0.002678,0.000431,0.004701
21732000,0.0324,0.013523,0.002678,0.000431,0.005289
21733000,0.0324,0.013523,0.002678,0.000431,0.006464
21734000,0.0324,0.013523,0.002678,0.000431,0.003996
21735000,0.0324,0.013523,0.002678,0.000431,0.004584
21736000,0.0324,0.013523,0.002678,0.000431,0.003878
21737000,0.0324,0.013523,0.002678,0.000431,0.004466
21738000,0.0324,0.013523,0.002678,0.000431,0.004231
21739000,0.0324,0.013523,0.002678,0.000431,0.004349
21740000,0.0324,0.013523,0.002678,0.000431,0.003996
21741000,0.0324,0.013523,0.002678,0.000431,0.004349
21742000,0.0324,0.013523,0.002678,0.000431,0.004113
21743000,0.0324,0.013523,0.002678,0.000431,0.003291
21744000,0.0324,0.013523,0.002678,0.000431,0.003291
21745000,0.0324,0.013523,0.002678,0.000431,0.003526
21746000,0.0324,0.013523,0.002678,0.000431,0.003526
21747000,0.0324,0.013523,0.002678,0.000431,0.003291
21748000,0.0324,0.013523,0.002678,0.000431,0.003408
21749000,0.0324,0.013523,0.002678,0.000431,0.003408
21750000,0.0324,0.013523,0.002678,0.000431,0.003643
21751000,0.0324,0.013523,0.002678,0.000431,0.003291
21752000,0.0324,0.013523,0.002678,0.000431,0.003408
21753000,0.0324,0.013523,0.002678,0.000431,0.003526
21754000,0.0324,0.013523,0.002678,0.000431,0.003408
21755000,0.0324,0.013523,0.002678,0.000431,0.003408
21756000,0.0324,0.013523,0.002678,0.000431,0.003408
21757000,0.0324,0.013523,0.002678,0.000431,0.003643
21758000,0.0324,0.013523,0.002678,0.000431,0.003173
21759000,0.0324,0.013523,0.002678,0.000431,0.003408
21760000,0.0324,0.013523,0.002678,0.000431,0.003526
21761000,0.0324,0.013523,0.002678,0.000431,0.003526
21762000,0.0324,0.013523,0.002678,0.000431,0.003408
21763000,0.0324,0.013523,0.002678,0.000431,0.003291
21764000,0.0324,0.013523,0.002678,0.000431,0.003526
21765000,0.0324,0.013523,0.002678,0.000431,0.003526
21766000,0.0324,0.013523,0.002678,0.000431,0.003408
21767000,0.0324,0.013523,0.002678,0.000431,0.003291
21768000,0.0324,0.013523,0.002678,0.000431,0.003526
21769000,0.0324,0.013523,0.002678,0.000431,0.003526
21770000,0.0324,0.013523,0.002678,0.000431,0.003291
21771000,0.0324,0.013523,0.002678,0.000431,0.003643
21772000,0.0324,0.013523,0.002678,0.000431,0.003526
21773000,0.0324,0.013523,0.002678,0.000431,0.003408
21774000,0.0324,0.013523,0.002678,0.000431,0.003173
21775000,0.0324,0.013523,0.002678,0.000431,0.003643
21776000,0.0324,0.013523,0.002678,0.000431,0.003291
21777000,0.0324,0.013523,0.002678,0.000431,0.003408
21778000,0.0324,0.013523,0.002678,0.000431,0.003526
21779000,0.0324,0.013523,0.002678,0.000431,0.003408
21780000,0.0324,0.013523,0.002678,0.000431,0.003643
21781000,0.0324,0.013523,0.002678,0.000431,0.003056
21782000,0.0324,0.013523,0.002678,0.000431,0.003643
21783000,0.0324,0.013523,0.002678,0.000431,0.003643
21784000,0.0324,0.013523,0.002678,0.000431,0.003291
21785000,0.0324,0.013523,0.002678,0.000431,0.003643
21786000,0.0324,0.013523,0.002678,0.000431,0.003291
21787000,0.0324,0.013523,0.002678,0.000431,0.003408
21788000,0.0324,0.013523,0.002678,0.000431,0.003408
21789000,0.0324,0.013523,0.002678,0.000431,0.003526
21790000,0.0324,0.013523,0.002678,0.000431,0.003408
21791000,0.0324,0.013523,0.002678,0.000431,0.004584
21792000,0.0324,0.013523,0.002678,0.000431,0.003761
21793000,0.0324,0.013523,0.002678,0.000431,0.002703
21794000,0.0324,0.013523,0.002678,0.000431,0.002703
21795000,0.0324,0.013523,0.002678,0.000431,0.002351
21796000,0.0324,0.013523,0.002678,0.000431,0.002586
21797000,0.0324,0.013523,0.002678,0.000431,0.007052
21798000,0.0324,0.013523,0.002678,0.000431,0.000823
21799000,0.0324,0.013523,0.002678,0.000431,0.000940
21800000,0.0324,0.013523,0.002678,0.000431,0.000940
21801000,0.0324,0.013523,0.002678,0.000431,0.009050
21802000,0.0324,0.013523,0.002678,0.000431,0.586466
21803000,0.0324,0.013523,0.002678,0.000431,0.705992
21804000,0.0324,0.013523,0.002678,0.000431,0.141857
21805000,0.0324,0.013523,0.002678,0.000431,0.131632
21806000,0.0324,0.013523,0.002678,0.000431,0.313448
21807000,0.0324,0.013523,0.002678,0.000431,0.457772
21808000,0.0324,0.013523,0.002678,0.000431,0.230003
21809000,0.0324,0.013523,0.002678,0.000431,0.330959
21810000,0.0324,0.013523,0.002678,0.000431,0.167478
21811000,0.0324,0.013523,0.002678,0.000431,0.145265
21812000,0.0324,0.013523,0.002678,0.000431,0.135628
21813000,0.0324,0.013523,0.002678,0.000431,0.264556
21814000,0.0324,0.013523,0.002678,0.000431,0.413699
21815000,0.0324,0.013523,0.002678,0.000431,0.144677
21816000,0.0324,0.013523,0.002678,0.000431,0.102837
21817000,0.0324,0.013523,0.002678,0.000431,0.087088
21818000,0.0324,0.013523,0.002678,0.000431,0.079684
21819000,0.0324,0.013523,0.002678,0.000431,0.065698
21820000,0.0324,0.013523,0.002678,0.000431,0.051595
21821000,0.0324,0.013523,0.002678,0.000431,0.035846
21822000,0.0324,0.013523,0.002678,0.000431,0.035846
21823000,0.0324,0.013523,0.002678,0.000431,0.031850
21824000,0.0324,0.013523,0.002678,0.000431,0.037374
21825000,0.0324,0.013523,0.002678,0.000431,0.032673
21826000,0.0324,0.013523,0.002678,0.000431,0.026796
21827000,0.0324,0.013523,0.002678,0.000431,0.025621
21828000,0.0324,0.013523,0.002678,0.000431,0.017864
21829000,0.0324,0.013523,0.002678,0.000431,0.014926
21830000,0.0324,0.013523,0.002678,0.000431,0.020450
21831000,0.0324,0.013523,0.002678,0.000431,0.018452
21832000,0.0324,0.013523,0.002678,0.000431,0.007992
21833000,0.0324,0.013523,0.002678,0.000431,0.008932
21834000,0.0324,0.013523,0.002678,0.000431,0.008462
21835000,0.0324,0.013523,0.002678,0.000431,0.012928
21836000,0.0324,0.013523,0.002678,0.000431,0.008345
21837000,0.0324,0.013523,0.002678,0.000431,0.005994
21838000,0.0324,0.013523,0.002678,0.000431,0.004819
21839000,0.0324,0.013523,0.002678,0.000431,0.005759
21840000,0.0324,0.013523,0.002678,0.000431,0.006111
21841000,0.0324,0.013523,0.002678,0.000431,0.004466
21842000,0.0324,0.013523,0.002678,0.000431,0.005171
21843000,0.0324,0.013523,0.002678,0.000431,0.005171
21844000,0.0324,0.013523,0.002678,0.000431,0.004936
21845000,0.0324,0.013523,0.002678,0.000431,0.004466
21846000,0.0324,0.013523,0.002678,0.000431,0.005054
21847000,0.0324,0.013523,0.002678,0.000431,0.004819
21848000,0.0324,0.013523,0.002678,0.000431,0.004819
21849000,0.0324,0.013523,0.002678,0.000431,0.005524
21850000,0.0324,0.013523,0.002678,0.000431,0.005641
21851000,0.0324,0.013523,0.002678,0.000431,0.005641
21852000,0.0324,0.013523,0.002678,0.000431,0.004584
21853000,0.0324,0.013523,0.002678,0.000431,0.004113
21854000,0.0324,0.013523,0.002678,0.000431,0.004231
21855000,0.0324,0.013523,0.002678,0.000431,0.004113
21856000,0.0324,0.013523,0.002678,0.000431,0.004349
21857000,0.0324,0.013523,0.002678,0.000431,0.005641
21858000,0.0324,0.013523,0.002678,0.000431,0.004701
21859000,0.0324,0.013523,0.002678,0.000431,0.003408
21860000,0.0324,0.013523,0.002678,0.000431,0.003291
21861000,0.0324,0.013523,0.002678,0.000431,0.003408
21862000,0.0324,0.013523,0.002678,0.000431,0.003643
21863000,0.0324,0.013523,0.002678,0.000431,0.002351
21864000,0.0324,0.013523,0.002678,0.000431,0.001763
21865000,0.0324,0.013523,0.002678,0.000431,0.001645
21866000,0.0324,0.013523,0.002678,0.000431,0.001763
21867000,0.0324,0.013523,0.002678,0.000431,0.001880
21868000,0.0324,0.013523,0.002678,0.000431,0.004349
21869000,0.0324,0.013523,0.002678,0.000431,0.000940
21870000,0.0324,0.013523,0.002678,0.000431,0.000940
21871000,0.0324,0.013523,0.002678,0.000431,0.000940
21872000,0.0324,0.013523,0.002678,0.000431,0.000823
21873000,0.0324,0.013523,0.002678,0.000431,0.015631
21874000,0.0324,0.013523,0.002678,0.000431,0.619374
21875000,0.0324,0.013523,0.002678,0.000431,0.633829
21876000,0.0324,0.013523,0.002678,0.000431,0.134922
21877000,0.0324,0.013523,0.002678,0.000431,0.130691
21878000,0.0324,0.013523,0.002678,0.000431,0.359636
21879000,0.0324,0.013523,0.002678,0.000431,0.412994
21880000,0.0324,0.013523,0.002678,0.000431,0.260090
21881000,0.0324,0.013523,0.002678,0.000431,0.279600
21882000,0.0324,0.013523,0.002678,0.000431,0.182521
21883000,0.0324,0.013523,0.002678,0.000431,0.139506
21884000,0.0324,0.013523,0.002678,0.000431,0.159838
21885000,0.0324,0.013523,0.002678,0.000431,0.175235
21886000,0.0324,0.013523,0.002678,0.000431,0.471993
21887000,0.0324,0.013523,0.002678,0.000431,0.150554
21888000,0.0324,0.013523,0.002678,0.000431,0.123287
21889000,0.0324,0.013523,0.002678,0.000431,0.107186
21890000,0.0324,0.013523,0.002678,0.000431,0.083210
21891000,0.0324,0.013523,0.002678,0.000431,0.064993
21892000,0.0324,0.013523,0.002678,0.000431,0.050537
21893000,0.0324,0.013523,0.002678,0.000431,0.042780
21894000,0.0324,0.013523,0.002678,0.000431,0.046659
21895000,0.0324,0.013523,0.002678,0.000431,0.039254
21896000,0.0324,0.013523,0.002678,0.000431,0.028794
21897000,0.0324,0.013523,0.002678,0.000431,0.034906
21898000,0.0324,0.013523,0.002678,0.000431,0.031027
21899000,0.0324,0.013523,0.002678,0.000431,0.023388
21900000,0.0324,0.013523,0.002678,0.000431,0.021390
21901000,0.0324,0.013523,0.002678,0.000431,0.019627
21902000,0.0324,0.013523,0.002678,0.000431,0.020920
21903000,0.0324,0.013523,0.002678,0.000431,0.020450
21904000,0.0324,0.013523,0.002678,0.000431,0.014691
21905000,0.0324,0.013523,0.002678,0.000431,0.013516
21906000,0.0324,0.013523,0.002678,0.000431,0.011165
21907000,0.0324,0.013523,0.002678,0.000431,0.010695
21908000,0.0324,0.013523,0.002678,0.000431,0.011400
21909000,0.0324,0.013523,0.002678,0.000431,0.010460
21910000,0.0324,0.013523,0.002678,0.000431,0.011165
21911000,0.0324,0.013523,0.002678,0.000431,0.010813
21912000,0.0324,0.013523,0.002678,0.000431,0.009872
21913000,0.0324,0.013523,0.002678,0.000431,0.012223
21914000,0.0324,0.013523,0.002678,0.000431,0.009285
21915000,0.0324,0.013523,0.002678,0.000431,0.009402
21916000,0.0324,0.013523,0.002678,0.000431,0.009990
21917000,0.0324,0.013523,0.002678,0.000431,0.008697
21918000,0.0324,0.013523,0.002678,0.000431,0.010342
21919000,0.0324,0.013523,0.002678,0.000431,0.007874
21920000,0.0324,0.013523,0.002678,0.000431,0.007992
21921000,0.0324,0.013523,0.002678,0.000431,0.007757
21922000,0.0324,0.013523,0.002678,0.000431,0.007992
21923000,0.0324,0.013523,0.002678,0.000431,0.007522
21924000,0.0324,0.013523,0.002678,0.000431,0.007992
21925000,0.0324,0.013523,0.002678,0.000431,0.007992
21926000,0.0324,0.013523,0.002678,0.000431,0.007639
21927000,0.0324,0.013523,0.002678,0.000431,0.007522
21928000,0.0324,0.013523,0.002678,0.000431,0.010107
21929000,0.0324,0.013523,0.002678,0.000431,0.007404
21930000,0.0324,0.013523,0.002678,0.000431,0.006699
21931000,0.0324,0.013523,0.002678,0.000431,0.007874
21932000,0.0324,0.013523,0.002678,0.000431,0.006817
21933000,0.0324,0.013523,0.002678,0.000431,0.006347
21934000,0.0324,0.013523,0.002678,0.000431,0.008815
21935000,0.0324,0.013523,0.002678,0.000431,0.003996
21936000,0.0324,0.013523,0.002678,0.000431,0.004466
21937000,0.0324,0.013523,0.002678,0.000431,0.004231
21938000,0.0324,0.013523,0.002678,0.000431,0.005406
21939000,0.0324,0.013523,0.002678,0.000431,0.003173
21940000,0.0324,0.013523,0.002678,0.000431,0.003643
21941000,0.0324,0.013523,0.002678,0.000431,0.003526
21942000,0.0324,0.013523,0.002678,0.000431,0.003173
21943000,0.0324,0.013523,0.002678,0.000431,0.003408
21944000,0.0324,0.013523,0.002678,0.000431,0.003526
21945000,0.0324,0.013523,0.002678,0.000431,0.006582
21946000,0.0324,0.013523,0.002678,0.000431,0.002351
21947000,0.0324,0.013523,0.002678,0.000431,0.002703
21948000,0.0324,0.013523,0.002678,0.000431,0.002586
21949000,0.0324,0.013523,0.002678,0.000431,0.002703
21950000,0.0324,0.013523,0.002678,0.000431,0.004936
21951000,0.0324,0.013523,0.002678,0.000431,0.001880
21952000,0.0324,0.013523,0.002678,0.000431,0.001763
21953000,0.0324,0.013523,0.002678,0.000431,0.001880
21954000,0.0324,0.013523,0.002678,0.000431,0.001528
21955000,0.0324,0.013523,0.002678,0.000431,0.001880
21956000,0.0324,0.013523,0.002678,0.000431,0.001763
21957000,0.0324,0.013523,0.002678,0.000431,0.001763
21958000,0.0324,0.013523,0.002678,0.000431,0.001763
21959000,0.0324,0.013523,0.002678,0.000431,0.001763
21960000,0.0324,0.013523,0.002678,0.000431,0.001763
21961000,0.0324,0.013523,0.002678,0.000431,0.001645
21962000,0.0324,0.013523,0.002678,0.000431,0.001880
21963000,0.0324,0.013523,0.002678,0.000431,0.001763
21964000,0.0324,0.013523,0.002678,0.000431,0.001763
21965000,0.0324,0.013523,0.002678,0.000431,0.001645
21966000,0.0324,0.013523,0.002678,0.000431,0.001763
21967000,0.0324,0.013523,0.002678,0.000431,0.001763
21968000,0.0324,0.013523,0.002678,0.000431,0.001880
21969000,0.0324,0.013523,0.002678,0.000431,0.001528
21970000,0.0324,0.013523,0.002678,0.000431,0.001880
21971000,0.0324,0.013523,0.002678,0.000431,0.001763
21972000,0.0324,0.013523,0.002678,0.000431,0.001763
21973000,0.0324,0.013523,0.002678,0.000431,0.001645
21974000,0.0324,0.013523,0.002678,0.000431,0.001880
21975000,0.0324,0.013523,0.002678,0.000431,0.001763
21976000,0.0324,0.013523,0.002678,0.000431,0.001645
21977000,0.0324,0.013523,0.002678,0.000431,0.001763
21978000,0.0324,0.013523,0.002678,0.000431,0.001880
21979000,0.0324,0.013523,0.002678,0.000431,0.001645
21980000,0.0324,0.013523,0.002678,0.000431,0.001763
21981000,0.0324,0.013523,0.002678,0.000431,0.001763
21982000,0.0324,0.013523,0.002678,0.000431,0.001880
21983000,0.0324,0.013523,0.002678,0.000431,0.001528
21984000,0.0324,0.013523,0.002678,0.000431,0.001880
21985000,0.0324,0.013523,0.002678,0.000431,0.001763
21986000,0.0324,0.013523,0.002678,0.000431,0.001763
21987000,0.0324,0.013523,0.002678,0.000431,0.001645
21988000,0.0324,0.013523,0.002678,0.000431,0.001763
21989000,0.0324,0.013523,0.002678,0.000431,0.001880
21990000,0.0324,0.013523,0.002678,0.000431,0.001763
21991000,0.0324,0.013523,0.002678,0.000431,0.001763
21992000,0.0324,0.013523,0.002678,0.000431,0.001645
21993000,0.0324,0.013523,0.002678,0.000431,0.001763
21994000,0.0324,0.013523,0.002678,0.000431,0.001880
21995000,0.0324,0.013523,0.002678,0.000431,0.001645
21996000,0.0324,0.013523,0.002678,0.000431,0.001763
21997000,0.0324,0.013523,0.002678,0.000431,0.003056
21998000,0.0324,0.013523,0.002678,0.000431,0.088029
21999000,0.0324,0.013523,0.002678,0.000431,0.666150
