Cycle,Area(mm^2),PeakDynamic(W),SubthresholdLeakage(W),GateLeakage(W),RunTimeDynamic(W)
63000000,0.0324,0.013523,0.002678,0.000431,0.171474
63001000,0.0324,0.013523,0.002678,0.000431,0.107656
63002000,0.0324,0.013523,0.002678,0.000431,0.509955
63003000,0.0324,0.013523,0.002678,0.000431,0.279012
63004000,0.0324,0.013523,0.002678,0.000431,0.187575
63005000,0.0324,0.013523,0.002678,0.000431,0.163834
63006000,0.0324,0.013523,0.002678,0.000431,0.143502
63007000,0.0324,0.013523,0.002678,0.000431,0.123522
63008000,0.0324,0.013523,0.002678,0.000431,0.095315
63009000,0.0324,0.013523,0.002678,0.000431,0.085796
63010000,0.0324,0.013523,0.002678,0.000431,0.062290
63011000,0.0324,0.013523,0.002678,0.000431,0.054651
63012000,0.0324,0.013523,0.002678,0.000431,0.038902
63013000,0.0324,0.013523,0.002678,0.000431,0.035258
63014000,0.0324,0.013523,0.002678,0.000431,0.030322
63015000,0.0324,0.013523,0.002678,0.000431,0.022800
63016000,0.0324,0.013523,0.002678,0.000431,0.027619
63017000,0.0324,0.013523,0.002678,0.000431,0.019745
63018000,0.0324,0.013523,0.002678,0.000431,0.010578
63019000,0.0324,0.013523,0.002678,0.000431,0.010460
63020000,0.0324,0.013523,0.002678,0.000431,0.008697
63021000,0.0324,0.013523,0.002678,0.000431,0.006934
63022000,0.0324,0.013523,0.002678,0.000431,0.002351
63023000,0.0324,0.013523,0.002678,0.000431,0.002703
63024000,0.0324,0.013523,0.002678,0.000431,0.005876
63025000,0.0324,0.013523,0.002678,0.000431,0.001645
63026000,0.0324,0.013523,0.002678,0.000431,0.001763
63027000,0.0324,0.013523,0.002678,0.000431,0.003056
63028000,0.0324,0.013523,0.002678,0.000431,0.002351
63029000,0.0324,0.013523,0.002678,0.000431,0.001880
63030000,0.0324,0.013523,0.002678,0.000431,0.488917
63031000,0.0324,0.013523,0.002678,0.000431,0.739252
63032000,0.0324,0.013523,0.002678,0.000431,0.183226
63033000,0.0324,0.013523,0.002678,0.000431,0.137743
63034000,0.0324,0.013523,0.002678,0.000431,0.513833
63035000,0.0324,0.013523,0.002678,0.000431,0.277131
63036000,0.0324,0.013523,0.002678,0.000431,0.312860
63037000,0.0324,0.013523,0.002678,0.000431,0.181346
63038000,0.0324,0.013523,0.002678,0.000431,0.184167
63039000,0.0324,0.013523,0.002678,0.000431,0.099546
63040000,0.0324,0.013523,0.002678,0.000431,0.562607
63041000,0.0324,0.013523,0.002678,0.000431,0.290060
63042000,0.0324,0.013523,0.002678,0.000431,0.217897
63043000,0.0324,0.013523,0.002678,0.000431,0.185695
63044000,0.0324,0.013523,0.002678,0.000431,0.151964
63045000,0.0324,0.013523,0.002678,0.000431,0.129399
63046000,0.0324,0.013523,0.002678,0.000431,0.108831
63047000,0.0324,0.013523,0.002678,0.000431,0.095785
63048000,0.0324,0.013523,0.002678,0.000431,0.087676
63049000,0.0324,0.013523,0.002678,0.000431,0.058294
63050000,0.0324,0.013523,0.002678,0.000431,0.042780
63051000,0.0324,0.013523,0.002678,0.000431,0.038784
63052000,0.0324,0.013523,0.002678,0.000431,0.018217
63053000,0.0324,0.013523,0.002678,0.000431,0.022565
63054000,0.0324,0.013523,0.002678,0.000431,0.020097
63055000,0.0324,0.013523,0.002678,0.000431,0.019040
63056000,0.0324,0.013523,0.002678,0.000431,0.009637
63057000,0.0324,0.013523,0.002678,0.000431,0.008580
63058000,0.0324,0.013523,0.002678,0.000431,0.008109
63059000,0.0324,0.013523,0.002678,0.000431,0.008932
63060000,0.0324,0.013523,0.002678,0.000431,0.015514
63061000,0.0324,0.013523,0.002678,0.000431,0.003408
63062000,0.0324,0.013523,0.002678,0.000431,0.003996
63063000,0.0324,0.013523,0.002678,0.000431,0.000940
63064000,0.0324,0.013523,0.002678,0.000431,0.000823
63065000,0.0324,0.013523,0.002678,0.000431,0.000940
63066000,0.0324,0.013523,0.002678,0.000431,0.000940
63067000,0.0324,0.013523,0.002678,0.000431,0.002233
63068000,0.0324,0.013523,0.002678,0.000431,0.562020
63069000,0.0324,0.013523,0.002678,0.000431,0.762993
63070000,0.0324,0.013523,0.002678,0.000431,0.171474
63071000,0.0324,0.013523,0.002678,0.000431,0.141151
63072000,0.0324,0.013523,0.002678,0.000431,0.554028
63073000,0.0324,0.013523,0.002678,0.000431,0.265144
63074000,0.0324,0.013523,0.002678,0.000431,0.344123
63075000,0.0324,0.013523,0.002678,0.000431,0.175587
63076000,0.0324,0.013523,0.002678,0.000431,0.164657
63077000,0.0324,0.013523,0.002678,0.000431,0.161249
63078000,0.0324,0.013523,0.002678,0.000431,0.540747
63079000,0.0324,0.013523,0.002678,0.000431,0.204264
63080000,0.0324,0.013523,0.002678,0.000431,0.172296
63081000,0.0324,0.013523,0.002678,0.000431,0.151259
63082000,0.0324,0.013523,0.002678,0.000431,0.108596
63083000,0.0324,0.013523,0.002678,0.000431,0.097666
63084000,0.0324,0.013523,0.002678,0.000431,0.069577
63085000,0.0324,0.013523,0.002678,0.000431,0.057236
63086000,0.0324,0.013523,0.002678,0.000431,0.046189
63087000,0.0324,0.013523,0.002678,0.000431,0.042428
63088000,0.0324,0.013523,0.002678,0.000431,0.023623
63089000,0.0324,0.013523,0.002678,0.000431,0.021155
63090000,0.0324,0.013523,0.002678,0.000431,0.009402
63091000,0.0324,0.013523,0.002678,0.000431,0.008345
63092000,0.0324,0.013523,0.002678,0.000431,0.007992
63093000,0.0324,0.013523,0.002678,0.000431,0.004701
63094000,0.0324,0.013523,0.002678,0.000431,0.002351
63095000,0.0324,0.013523,0.002678,0.000431,0.000940
63096000,0.0324,0.013523,0.002678,0.000431,0.000705
63097000,0.0324,0.013523,0.002678,0.000431,0.000940
63098000,0.0324,0.013523,0.002678,0.000431,0.000940
63099000,0.0324,0.013523,0.002678,0.000431,0.160073
63100000,0.0324,0.013523,0.002678,0.000431,0.759232
63101000,0.0324,0.013523,0.002678,0.000431,0.493736
63102000,0.0324,0.013523,0.002678,0.000431,0.135392
63103000,0.0324,0.013523,0.002678,0.000431,0.388313
63104000,0.0324,0.013523,0.002678,0.000431,0.382084
63105000,0.0324,0.013523,0.002678,0.000431,0.269845
63106000,0.0324,0.013523,0.002678,0.000431,0.266554
63107000,0.0324,0.013523,0.002678,0.000431,0.158663
63108000,0.0324,0.013523,0.002678,0.000431,0.116705
63109000,0.0324,0.013523,0.002678,0.000431,0.472698
63110000,0.0324,0.013523,0.002678,0.000431,0.320029
63111000,0.0324,0.013523,0.002678,0.000431,0.213666
63112000,0.0324,0.013523,0.002678,0.000431,0.175352
63113000,0.0324,0.013523,0.002678,0.000431,0.144325
63114000,0.0324,0.013523,0.002678,0.000431,0.134100
63115000,0.0324,0.013523,0.002678,0.000431,0.120231
63116000,0.0324,0.013523,0.002678,0.000431,0.098136
63117000,0.0324,0.013523,0.002678,0.000431,0.055121
63118000,0.0324,0.013523,0.002678,0.000431,0.046189
63119000,0.0324,0.013523,0.002678,0.000431,0.036904
63120000,0.0324,0.013523,0.002678,0.000431,0.030440
63121000,0.0324,0.013523,0.002678,0.000431,0.024563
63122000,0.0324,0.013523,0.002678,0.000431,0.019392
63123000,0.0324,0.013523,0.002678,0.000431,0.014103
63124000,0.0324,0.013523,0.002678,0.000431,0.021273
63125000,0.0324,0.013523,0.002678,0.000431,0.011635
63126000,0.0324,0.013523,0.002678,0.000431,0.008109
63127000,0.0324,0.013523,0.002678,0.000431,0.010460
63128000,0.0324,0.013523,0.002678,0.000431,0.012928
63129000,0.0324,0.013523,0.002678,0.000431,0.007404
63130000,0.0324,0.013523,0.002678,0.000431,0.005994
63131000,0.0324,0.013523,0.002678,0.000431,0.004584
63132000,0.0324,0.013523,0.002678,0.000431,0.005759
63133000,0.0324,0.013523,0.002678,0.000431,0.005406
63134000,0.0324,0.013523,0.002678,0.000431,0.006111
63135000,0.0324,0.013523,0.002678,0.000431,0.004231
63136000,0.0324,0.013523,0.002678,0.000431,0.005994
63137000,0.0324,0.013523,0.002678,0.000431,0.003173
63138000,0.0324,0.013523,0.002678,0.000431,0.002468
63139000,0.0324,0.013523,0.002678,0.000431,0.004349
63140000,0.0324,0.013523,0.002678,0.000431,0.001763
63141000,0.0324,0.013523,0.002678,0.000431,0.003056
63142000,0.0324,0.013523,0.002678,0.000431,0.017277
63143000,0.0324,0.013523,0.002678,0.000431,0.770515
63144000,0.0324,0.013523,0.002678,0.000431,0.572245
63145000,0.0324,0.013523,0.002678,0.000431,0.136803
63146000,0.0324,0.013523,0.002678,0.000431,0.138448
63147000,0.0324,0.013523,0.002678,0.000431,0.552030
63148000,0.0324,0.013523,0.002678,0.000431,0.296994
63149000,0.0324,0.013523,0.002678,0.000431,0.314740
63150000,0.0324,0.013523,0.002678,0.000431,0.145265
63151000,0.0324,0.013523,0.002678,0.000431,0.145382
63152000,0.0324,0.013523,0.002678,0.000431,0.237407
63153000,0.0324,0.013523,0.002678,0.000431,0.526879
63154000,0.0324,0.013523,0.002678,0.000431,0.233176
63155000,0.0324,0.013523,0.002678,0.000431,0.199563
63156000,0.0324,0.013523,0.002678,0.000431,0.165245
63157000,0.0324,0.013523,0.002678,0.000431,0.137626
63158000,0.0324,0.013523,0.002678,0.000431,0.102485
63159000,0.0324,0.013523,0.002678,0.000431,0.099899
63160000,0.0324,0.013523,0.002678,0.000431,0.065933
63161000,0.0324,0.013523,0.002678,0.000431,0.060645
63162000,0.0324,0.013523,0.002678,0.000431,0.044308
63163000,0.0324,0.013523,0.002678,0.000431,0.027502
63164000,0.0324,0.013523,0.002678,0.000431,0.020685
63165000,0.0324,0.013523,0.002678,0.000431,0.016336
63166000,0.0324,0.013523,0.002678,0.000431,0.008580
63167000,0.0324,0.013523,0.002678,0.000431,0.009637
63168000,0.0324,0.013523,0.002678,0.000431,0.005994
63169000,0.0324,0.013523,0.002678,0.000431,0.001645
63170000,0.0324,0.013523,0.002678,0.000431,0.003878
63171000,0.0324,0.013523,0.002678,0.000431,0.000940
63172000,0.0324,0.013523,0.002678,0.000431,0.000823
63173000,0.0324,0.013523,0.002678,0.000431,0.000823
63174000,0.0324,0.013523,0.002678,0.000431,0.000940
63175000,0.0324,0.013523,0.002678,0.000431,0.000705
63176000,0.0324,0.013523,0.002678,0.000431,0.000940
63177000,0.0324,0.013523,0.002678,0.000431,0.000823
63178000,0.0324,0.013523,0.002678,0.000431,0.000823
63179000,0.0324,0.013523,0.002678,0.000431,0.000823
63180000,0.0324,0.013523,0.002678,0.000431,0.000823
63181000,0.0324,0.013523,0.002678,0.000431,0.000823
63182000,0.0324,0.013523,0.002678,0.000431,0.000823
63183000,0.0324,0.013523,0.002678,0.000431,0.000940
63184000,0.0324,0.013523,0.002678,0.000431,0.000705
63185000,0.0324,0.013523,0.002678,0.000431,0.000823
63186000,0.0324,0.013523,0.002678,0.000431,0.000940
63187000,0.0324,0.013523,0.002678,0.000431,0.000823
63188000,0.0324,0.013523,0.002678,0.000431,0.000823
63189000,0.0324,0.013523,0.002678,0.000431,0.000823
63190000,0.0324,0.013523,0.002678,0.000431,0.000823
63191000,0.0324,0.013523,0.002678,0.000431,0.000823
63192000,0.0324,0.013523,0.002678,0.000431,0.000940
63193000,0.0324,0.013523,0.002678,0.000431,0.000705
63194000,0.0324,0.013523,0.002678,0.000431,0.000940
63195000,0.0324,0.013523,0.002678,0.000431,0.234116
63196000,0.0324,0.013523,0.002678,0.000431,0.746774
63197000,0.0324,0.013523,0.002678,0.000431,0.475637
63198000,0.0324,0.013523,0.002678,0.000431,0.136803
63199000,0.0324,0.013523,0.002678,0.000431,0.523000
63200000,0.0324,0.013523,0.002678,0.000431,0.287709
63201000,0.0324,0.013523,0.002678,0.000431,0.343770
63202000,0.0324,0.013523,0.002678,0.000431,0.206967
63203000,0.0324,0.013523,0.002678,0.000431,0.153022
63204000,0.0324,0.013523,0.002678,0.000431,0.186282
63205000,0.0324,0.013523,0.002678,0.000431,0.547681
63206000,0.0324,0.013523,0.002678,0.000431,0.209200
63207000,0.0324,0.013523,0.002678,0.000431,0.178408
63208000,0.0324,0.013523,0.002678,0.000431,0.144795
63209000,0.0324,0.013523,0.002678,0.000431,0.122229
63210000,0.0324,0.013523,0.002678,0.000431,0.112004
63211000,0.0324,0.013523,0.002678,0.000431,0.080037
63212000,0.0324,0.013523,0.002678,0.000431,0.057824
63213000,0.0324,0.013523,0.002678,0.000431,0.057941
63214000,0.0324,0.013523,0.002678,0.000431,0.044426
63215000,0.0324,0.013523,0.002678,0.000431,0.033496
63216000,0.0324,0.013523,0.002678,0.000431,0.031262
63217000,0.0324,0.013523,0.002678,0.000431,0.027267
63218000,0.0324,0.013523,0.002678,0.000431,0.030792
63219000,0.0324,0.013523,0.002678,0.000431,0.013163
63220000,0.0324,0.013523,0.002678,0.000431,0.017159
63221000,0.0324,0.013523,0.002678,0.000431,0.009755
63222000,0.0324,0.013523,0.002678,0.000431,0.003291
63223000,0.0324,0.013523,0.002678,0.000431,0.011753
63224000,0.0324,0.013523,0.002678,0.000431,0.001880
63225000,0.0324,0.013523,0.002678,0.000431,0.001880
63226000,0.0324,0.013523,0.002678,0.000431,0.004701
63227000,0.0324,0.013523,0.002678,0.000431,0.001058
63228000,0.0324,0.013523,0.002678,0.000431,0.000823
63229000,0.0324,0.013523,0.002678,0.000431,0.000823
63230000,0.0324,0.013523,0.002678,0.000431,0.000705
63231000,0.0324,0.013523,0.002678,0.000431,0.000940
63232000,0.0324,0.013523,0.002678,0.000431,0.000940
63233000,0.0324,0.013523,0.002678,0.000431,0.000705
63234000,0.0324,0.013523,0.002678,0.000431,0.000940
63235000,0.0324,0.013523,0.002678,0.000431,0.000705
63236000,0.0324,0.013523,0.002678,0.000431,0.000940
63237000,0.0324,0.013523,0.002678,0.000431,0.000823
63238000,0.0324,0.013523,0.002678,0.000431,0.000823
63239000,0.0324,0.013523,0.002678,0.000431,0.000940
63240000,0.0324,0.013523,0.002678,0.000431,0.000705
63241000,0.0324,0.013523,0.002678,0.000431,0.000940
63242000,0.0324,0.013523,0.002678,0.000431,0.000823
63243000,0.0324,0.013523,0.002678,0.000431,0.000823
63244000,0.0324,0.013523,0.002678,0.000431,0.000823
63245000,0.0324,0.013523,0.002678,0.000431,0.000823
63246000,0.0324,0.013523,0.002678,0.000431,0.000823
63247000,0.0324,0.013523,0.002678,0.000431,0.000823
63248000,0.0324,0.013523,0.002678,0.000431,0.000940
63249000,0.0324,0.013523,0.002678,0.000431,0.000705
63250000,0.0324,0.013523,0.002678,0.000431,0.000705
63251000,0.0324,0.013523,0.002678,0.000431,0.000940
63252000,0.0324,0.013523,0.002678,0.000431,0.000823
63253000,0.0324,0.013523,0.002678,0.000431,0.000823
63254000,0.0324,0.013523,0.002678,0.000431,0.000823
63255000,0.0324,0.013523,0.002678,0.000431,0.000823
63256000,0.0324,0.013523,0.002678,0.000431,0.000823
63257000,0.0324,0.013523,0.002678,0.000431,0.000823
63258000,0.0324,0.013523,0.002678,0.000431,0.000940
63259000,0.0324,0.013523,0.002678,0.000431,0.000705
63260000,0.0324,0.013523,0.002678,0.000431,0.000940
63261000,0.0324,0.013523,0.002678,0.000431,0.000823
63262000,0.0324,0.013523,0.002678,0.000431,0.000823
63263000,0.0324,0.013523,0.002678,0.000431,0.000705
63264000,0.0324,0.013523,0.002678,0.000431,0.000940
63265000,0.0324,0.013523,0.002678,0.000431,0.072632
63266000,0.0324,0.013523,0.002678,0.000431,0.750300
63267000,0.0324,0.013523,0.002678,0.000431,0.557084
63268000,0.0324,0.013523,0.002678,0.000431,0.137390
63269000,0.0324,0.013523,0.002678,0.000431,0.164304
63270000,0.0324,0.013523,0.002678,0.000431,0.526409
63271000,0.0324,0.013523,0.002678,0.000431,0.266436
63272000,0.0324,0.013523,0.002678,0.000431,0.305573
63273000,0.0324,0.013523,0.002678,0.000431,0.155607
63274000,0.0324,0.013523,0.002678,0.000431,0.157840
63275000,0.0324,0.013523,0.002678,0.000431,0.199563
63276000,0.0324,0.013523,0.002678,0.000431,0.549914
63277000,0.0324,0.013523,0.002678,0.000431,0.260207
63278000,0.0324,0.013523,0.002678,0.000431,0.207320
63279000,0.0324,0.013523,0.002678,0.000431,0.181111
63280000,0.0324,0.013523,0.002678,0.000431,0.143619
63281000,0.0324,0.013523,0.002678,0.000431,0.128811
63282000,0.0324,0.013523,0.002678,0.000431,0.091672
63283000,0.0324,0.013523,0.002678,0.000431,0.069929
63284000,0.0324,0.013523,0.002678,0.000431,0.060762
63285000,0.0324,0.013523,0.002678,0.000431,0.043838
63286000,0.0324,0.013523,0.002678,0.000431,0.037139
63287000,0.0324,0.013523,0.002678,0.000431,0.031145
63288000,0.0324,0.013523,0.002678,0.000431,0.027384
63289000,0.0324,0.013523,0.002678,0.000431,0.015749
63290000,0.0324,0.013523,0.002678,0.000431,0.013633
63291000,0.0324,0.013523,0.002678,0.000431,0.009990
63292000,0.0324,0.013523,0.002678,0.000431,0.005876
63293000,0.0324,0.013523,0.002678,0.000431,0.004584
63294000,0.0324,0.013523,0.002678,0.000431,0.005171
63295000,0.0324,0.013523,0.002678,0.000431,0.520650
63296000,0.0324,0.013523,0.002678,0.000431,0.773923
63297000,0.0324,0.013523,0.002678,0.000431,0.221423
63298000,0.0324,0.013523,0.002678,0.000431,0.135392
63299000,0.0324,0.013523,0.002678,0.000431,0.519475
63300000,0.0324,0.013523,0.002678,0.000431,0.247984
63301000,0.0324,0.013523,0.002678,0.000431,0.286299
63302000,0.0324,0.013523,0.002678,0.000431,0.214489
63303000,0.0324,0.013523,0.002678,0.000431,0.165010
63304000,0.0324,0.013523,0.002678,0.000431,0.120114
63305000,0.0324,0.013523,0.002678,0.000431,0.491150
63306000,0.0324,0.013523,0.002678,0.000431,0.339069
63307000,0.0324,0.013523,0.002678,0.000431,0.222716
63308000,0.0324,0.013523,0.002678,0.000431,0.181464
63309000,0.0324,0.013523,0.002678,0.000431,0.159603
63310000,0.0324,0.013523,0.002678,0.000431,0.130339
63311000,0.0324,0.013523,0.002678,0.000431,0.102955
63312000,0.0324,0.013523,0.002678,0.000431,0.078391
63313000,0.0324,0.013523,0.002678,0.000431,0.062878
63314000,0.0324,0.013523,0.002678,0.000431,0.062878
63315000,0.0324,0.013523,0.002678,0.000431,0.034318
63316000,0.0324,0.013523,0.002678,0.000431,0.026914
63317000,0.0324,0.013523,0.002678,0.000431,0.029500
63318000,0.0324,0.013523,0.002678,0.000431,0.020802
63319000,0.0324,0.013523,0.002678,0.000431,0.022565
63320000,0.0324,0.013523,0.002678,0.000431,0.013398
63321000,0.0324,0.013523,0.002678,0.000431,0.015396
63322000,0.0324,0.013523,0.002678,0.000431,0.015866
63323000,0.0324,0.013523,0.002678,0.000431,0.015866
63324000,0.0324,0.013523,0.002678,0.000431,0.009167
63325000,0.0324,0.013523,0.002678,0.000431,0.007169
63326000,0.0324,0.013523,0.002678,0.000431,0.003408
63327000,0.0324,0.013523,0.002678,0.000431,0.003056
63328000,0.0324,0.013523,0.002678,0.000431,0.003643
63329000,0.0324,0.013523,0.002678,0.000431,0.002938
63330000,0.0324,0.013523,0.002678,0.000431,0.003291
63331000,0.0324,0.013523,0.002678,0.000431,0.002938
63332000,0.0324,0.013523,0.002678,0.000431,0.002938
63333000,0.0324,0.013523,0.002678,0.000431,0.003173
63334000,0.0324,0.013523,0.002678,0.000431,0.003291
63335000,0.0324,0.013523,0.002678,0.000431,0.003291
63336000,0.0324,0.013523,0.002678,0.000431,0.003056
63337000,0.0324,0.013523,0.002678,0.000431,0.003291
63338000,0.0324,0.013523,0.002678,0.000431,0.003408
63339000,0.0324,0.013523,0.002678,0.000431,0.003408
63340000,0.0324,0.013523,0.002678,0.000431,0.003173
63341000,0.0324,0.013523,0.002678,0.000431,0.009167
63342000,0.0324,0.013523,0.002678,0.000431,0.001763
63343000,0.0324,0.013523,0.002678,0.000431,0.001645
63344000,0.0324,0.013523,0.002678,0.000431,0.001763
63345000,0.0324,0.013523,0.002678,0.000431,0.001645
63346000,0.0324,0.013523,0.002678,0.000431,0.001763
63347000,0.0324,0.013523,0.002678,0.000431,0.073338
63348000,0.0324,0.013523,0.002678,0.000431,0.787909
63349000,0.0324,0.013523,0.002678,0.000431,0.558964
63350000,0.0324,0.013523,0.002678,0.000431,0.135863
63351000,0.0324,0.013523,0.002678,0.000431,0.180641
63352000,0.0324,0.013523,0.002678,0.000431,0.522648
63353000,0.0324,0.013523,0.002678,0.000431,0.267847
63354000,0.0324,0.013523,0.002678,0.000431,0.302635
63355000,0.0324,0.013523,0.002678,0.000431,0.156900
63356000,0.0324,0.013523,0.002678,0.000431,0.145617
63357000,0.0324,0.013523,0.002678,0.000431,0.240933
63358000,0.0324,0.013523,0.002678,0.000431,0.522178
63359000,0.0324,0.013523,0.002678,0.000431,0.219543
63360000,0.0324,0.013523,0.002678,0.000431,0.188868
63361000,0.0324,0.013523,0.002678,0.000431,0.174412
63362000,0.0324,0.013523,0.002678,0.000431,0.148438
63363000,0.0324,0.013523,0.002678,0.000431,0.109771
63364000,0.0324,0.013523,0.002678,0.000431,0.097666
63365000,0.0324,0.013523,0.002678,0.000431,0.066756
63366000,0.0324,0.013523,0.002678,0.000431,0.064053
63367000,0.0324,0.013523,0.002678,0.000431,0.047716
63368000,0.0324,0.013523,0.002678,0.000431,0.047716
63369000,0.0324,0.013523,0.002678,0.000431,0.025621
63370000,0.0324,0.013523,0.002678,0.000431,0.021155
63371000,0.0324,0.013523,0.002678,0.000431,0.022683
63372000,0.0324,0.013523,0.002678,0.000431,0.008227
63373000,0.0324,0.013523,0.002678,0.000431,0.006229
63374000,0.0324,0.013523,0.002678,0.000431,0.009402
63375000,0.0324,0.013523,0.002678,0.000431,0.009167
63376000,0.0324,0.013523,0.002678,0.000431,0.005641
63377000,0.0324,0.013523,0.002678,0.000431,0.001998
63378000,0.0324,0.013523,0.002678,0.000431,0.001528
63379000,0.0324,0.013523,0.002678,0.000431,0.004466
63380000,0.0324,0.013523,0.002678,0.000431,0.000823
63381000,0.0324,0.013523,0.002678,0.000431,0.000823
63382000,0.0324,0.013523,0.002678,0.000431,0.000940
63383000,0.0324,0.013523,0.002678,0.000431,0.000705
63384000,0.0324,0.013523,0.002678,0.000431,0.000940
63385000,0.0324,0.013523,0.002678,0.000431,0.015866
63386000,0.0324,0.013523,0.002678,0.000431,0.783678
63387000,0.0324,0.013523,0.002678,0.000431,0.586466
63388000,0.0324,0.013523,0.002678,0.000431,0.139741
63389000,0.0324,0.013523,0.002678,0.000431,0.135745
63390000,0.0324,0.013523,0.002678,0.000431,0.556849
63391000,0.0324,0.013523,0.002678,0.000431,0.252803
63392000,0.0324,0.013523,0.002678,0.000431,0.337423
63393000,0.0324,0.013523,0.002678,0.000431,0.165950
63394000,0.0324,0.013523,0.002678,0.000431,0.189926
63395000,0.0324,0.013523,0.002678,0.000431,0.085090
63396000,0.0324,0.013523,0.002678,0.000431,0.561902
63397000,0.0324,0.013523,0.002678,0.000431,0.287474
63398000,0.0324,0.013523,0.002678,0.000431,0.198623
63399000,0.0324,0.013523,0.002678,0.000431,0.175940
63400000,0.0324,0.013523,0.002678,0.000431,0.141151
63401000,0.0324,0.013523,0.002678,0.000431,0.122464
63402000,0.0324,0.013523,0.002678,0.000431,0.098724
63403000,0.0324,0.013523,0.002678,0.000431,0.094845
63404000,0.0324,0.013523,0.002678,0.000431,0.074395
63405000,0.0324,0.013523,0.002678,0.000431,0.056178
63406000,0.0324,0.013523,0.002678,0.000431,0.038079
63407000,0.0324,0.013523,0.002678,0.000431,0.031733
63408000,0.0324,0.013523,0.002678,0.000431,0.032085
63409000,0.0324,0.013523,0.002678,0.000431,0.025386
63410000,0.0324,0.013523,0.002678,0.000431,0.015044
63411000,0.0324,0.013523,0.002678,0.000431,0.008227
63412000,0.0324,0.013523,0.002678,0.000431,0.004701
63413000,0.0324,0.013523,0.002678,0.000431,0.007522
63414000,0.0324,0.013523,0.002678,0.000431,0.004113
63415000,0.0324,0.013523,0.002678,0.000431,0.008227
63416000,0.0324,0.013523,0.002678,0.000431,0.002821
63417000,0.0324,0.013523,0.002678,0.000431,0.001763
63418000,0.0324,0.013523,0.002678,0.000431,0.002233
63419000,0.0324,0.013523,0.002678,0.000431,0.003761
63420000,0.0324,0.013523,0.002678,0.000431,0.001763
63421000,0.0324,0.013523,0.002678,0.000431,0.000940
63422000,0.0324,0.013523,0.002678,0.000431,0.001410
63423000,0.0324,0.013523,0.002678,0.000431,0.001410
63424000,0.0324,0.013523,0.002678,0.000431,0.001058
63425000,0.0324,0.013523,0.002678,0.000431,0.001293
63426000,0.0324,0.013523,0.002678,0.000431,0.000823
63427000,0.0324,0.013523,0.002678,0.000431,0.071105
63428000,0.0324,0.013523,0.002678,0.000431,0.775098
63429000,0.0324,0.013523,0.002678,0.000431,0.545448
63430000,0.0324,0.013523,0.002678,0.000431,0.155960
63431000,0.0324,0.013523,0.002678,0.000431,0.188750
63432000,0.0324,0.013523,0.002678,0.000431,0.565898
63433000,0.0324,0.013523,0.002678,0.000431,0.288179
63434000,0.0324,0.013523,0.002678,0.000431,0.304633
63435000,0.0324,0.013523,0.002678,0.000431,0.156548
63436000,0.0324,0.013523,0.002678,0.000431,0.100134
63437000,0.0324,0.013523,0.002678,0.000431,0.426392
63438000,0.0324,0.013523,0.002678,0.000431,0.360341
63439000,0.0324,0.013523,0.002678,0.000431,0.184402
63440000,0.0324,0.013523,0.002678,0.000431,0.169241
63441000,0.0324,0.013523,0.002678,0.000431,0.147145
63442000,0.0324,0.013523,0.002678,0.000431,0.122112
63443000,0.0324,0.013523,0.002678,0.000431,0.107186
63444000,0.0324,0.013523,0.002678,0.000431,0.091554
63445000,0.0324,0.013523,0.002678,0.000431,0.068284
63446000,0.0324,0.013523,0.002678,0.000431,0.060409
63447000,0.0324,0.013523,0.002678,0.000431,0.042075
63448000,0.0324,0.013523,0.002678,0.000431,0.038432
63449000,0.0324,0.013523,0.002678,0.000431,0.028324
63450000,0.0324,0.013523,0.002678,0.000431,0.026091
63451000,0.0324,0.013523,0.002678,0.000431,0.020215
63452000,0.0324,0.013523,0.002678,0.000431,0.014573
63453000,0.0324,0.013523,0.002678,0.000431,0.014926
63454000,0.0324,0.013523,0.002678,0.000431,0.010460
63455000,0.0324,0.013523,0.002678,0.000431,0.008462
63456000,0.0324,0.013523,0.002678,0.000431,0.009990
63457000,0.0324,0.013523,0.002678,0.000431,0.006582
63458000,0.0324,0.013523,0.002678,0.000431,0.005524
63459000,0.0324,0.013523,0.002678,0.000431,0.004819
63460000,0.0324,0.013523,0.002678,0.000431,0.001763
63461000,0.0324,0.013523,0.002678,0.000431,0.001763
63462000,0.0324,0.013523,0.002678,0.000431,0.003878
63463000,0.0324,0.013523,0.002678,0.000431,0.000823
63464000,0.0324,0.013523,0.002678,0.000431,0.000823
63465000,0.0324,0.013523,0.002678,0.000431,0.000823
63466000,0.0324,0.013523,0.002678,0.000431,0.000940
63467000,0.0324,0.013523,0.002678,0.000431,0.000705
63468000,0.0324,0.013523,0.002678,0.000431,0.000940
63469000,0.0324,0.013523,0.002678,0.000431,0.000705
63470000,0.0324,0.013523,0.002678,0.000431,0.000940
63471000,0.0324,0.013523,0.002678,0.000431,0.000823
63472000,0.0324,0.013523,0.002678,0.000431,0.001058
63473000,0.0324,0.013523,0.002678,0.000431,0.148673
63474000,0.0324,0.013523,0.002678,0.000431,0.755706
63475000,0.0324,0.013523,0.002678,0.000431,0.490915
63476000,0.0324,0.013523,0.002678,0.000431,0.136333
63477000,0.0324,0.013523,0.002678,0.000431,0.372094
63478000,0.0324,0.013523,0.002678,0.000431,0.321557
63479000,0.0324,0.013523,0.002678,0.000431,0.269375
63480000,0.0324,0.013523,0.002678,0.000431,0.270080
63481000,0.0324,0.013523,0.002678,0.000431,0.151846
63482000,0.0324,0.013523,0.002678,0.000431,0.139506
63483000,0.0324,0.013523,0.002678,0.000431,0.286886
63484000,0.0324,0.013523,0.002678,0.000431,0.506546
63485000,0.0324,0.013523,0.002678,0.000431,0.216839
63486000,0.0324,0.013523,0.002678,0.000431,0.201561
63487000,0.0324,0.013523,0.002678,0.000431,0.172649
63488000,0.0324,0.013523,0.002678,0.000431,0.151259
63489000,0.0324,0.013523,0.002678,0.000431,0.112474
63490000,0.0324,0.013523,0.002678,0.000431,0.077334
63491000,0.0324,0.013523,0.002678,0.000431,0.078979
63492000,0.0324,0.013523,0.002678,0.000431,0.056884
63493000,0.0324,0.013523,0.002678,0.000431,0.037256
63494000,0.0324,0.013523,0.002678,0.000431,0.033966
63495000,0.0324,0.013523,0.002678,0.000431,0.025856
63496000,0.0324,0.013523,0.002678,0.000431,0.017512
63497000,0.0324,0.013523,0.002678,0.000431,0.011400
63498000,0.0324,0.013523,0.002678,0.000431,0.008580
63499000,0.0324,0.013523,0.002678,0.000431,0.005524
63500000,0.0324,0.013523,0.002678,0.000431,0.005641
63501000,0.0324,0.013523,0.002678,0.000431,0.005876
63502000,0.0324,0.013523,0.002678,0.000431,0.013046
63503000,0.0324,0.013523,0.002678,0.000431,0.003878
63504000,0.0324,0.013523,0.002678,0.000431,0.006111
63505000,0.0324,0.013523,0.002678,0.000431,0.470818
63506000,0.0324,0.013523,0.002678,0.000431,0.787791
63507000,0.0324,0.013523,0.002678,0.000431,0.232941
63508000,0.0324,0.013523,0.002678,0.000431,0.137861
63509000,0.0324,0.013523,0.002678,0.000431,0.466939
63510000,0.0324,0.013523,0.002678,0.000431,0.242813
63511000,0.0324,0.013523,0.002678,0.000431,0.309099
63512000,0.0324,0.013523,0.002678,0.000431,0.173237
63513000,0.0324,0.013523,0.002678,0.000431,0.192864
63514000,0.0324,0.013523,0.002678,0.000431,0.095668
63515000,0.0324,0.013523,0.002678,0.000431,0.530640
63516000,0.0324,0.013523,0.002678,0.000431,0.220365
63517000,0.0324,0.013523,0.002678,0.000431,0.175117
63518000,0.0324,0.013523,0.002678,0.000431,0.161014
63519000,0.0324,0.013523,0.002678,0.000431,0.142092
63520000,0.0324,0.013523,0.002678,0.000431,0.107656
63521000,0.0324,0.013523,0.002678,0.000431,0.105775
63522000,0.0324,0.013523,0.002678,0.000431,0.081212
63523000,0.0324,0.013523,0.002678,0.000431,0.069224
63524000,0.0324,0.013523,0.002678,0.000431,0.055121
63525000,0.0324,0.013523,0.002678,0.000431,0.038314
63526000,0.0324,0.013523,0.002678,0.000431,0.032203
63527000,0.0324,0.013523,0.002678,0.000431,0.021978
63528000,0.0324,0.013523,0.002678,0.000431,0.019392
63529000,0.0324,0.013523,0.002678,0.000431,0.018922
63530000,0.0324,0.013523,0.002678,0.000431,0.009872
63531000,0.0324,0.013523,0.002678,0.000431,0.011400
63532000,0.0324,0.013523,0.002678,0.000431,0.008227
63533000,0.0324,0.013523,0.002678,0.000431,0.009402
63534000,0.0324,0.013523,0.002678,0.000431,0.008697
63535000,0.0324,0.013523,0.002678,0.000431,0.011518
63536000,0.0324,0.013523,0.002678,0.000431,0.005406
63537000,0.0324,0.013523,0.002678,0.000431,0.009167
63538000,0.0324,0.013523,0.002678,0.000431,0.006347
63539000,0.0324,0.013523,0.002678,0.000431,0.004701
63540000,0.0324,0.013523,0.002678,0.000431,0.002468
63541000,0.0324,0.013523,0.002678,0.000431,0.004584
63542000,0.0324,0.013523,0.002678,0.000431,0.003996
63543000,0.0324,0.013523,0.002678,0.000431,0.000940
63544000,0.0324,0.013523,0.002678,0.000431,0.000705
63545000,0.0324,0.013523,0.002678,0.000431,0.000823
63546000,0.0324,0.013523,0.002678,0.000431,0.000940
63547000,0.0324,0.013523,0.002678,0.000431,0.000705
63548000,0.0324,0.013523,0.002678,0.000431,0.000940
63549000,0.0324,0.013523,0.002678,0.000431,0.000705
63550000,0.0324,0.013523,0.002678,0.000431,0.000940
63551000,0.0324,0.013523,0.002678,0.000431,0.000823
63552000,0.0324,0.013523,0.002678,0.000431,0.000940
63553000,0.0324,0.013523,0.002678,0.000431,0.000823
63554000,0.0324,0.013523,0.002678,0.000431,0.000940
63555000,0.0324,0.013523,0.002678,0.000431,0.014809
63556000,0.0324,0.013523,0.002678,0.000431,0.704581
63557000,0.0324,0.013523,0.002678,0.000431,0.569542
63558000,0.0324,0.013523,0.002678,0.000431,0.145970
63559000,0.0324,0.013523,0.002678,0.000431,0.150906
63560000,0.0324,0.013523,0.002678,0.000431,0.584585
63561000,0.0324,0.013523,0.002678,0.000431,0.265261
63562000,0.0324,0.013523,0.002678,0.000431,0.279835
63563000,0.0324,0.013523,0.002678,0.000431,0.150554
63564000,0.0324,0.013523,0.002678,0.000431,0.173589
63565000,0.0324,0.013523,0.002678,0.000431,0.155607
63566000,0.0324,0.013523,0.002678,0.000431,0.544861
63567000,0.0324,0.013523,0.002678,0.000431,0.241168
63568000,0.0324,0.013523,0.002678,0.000431,0.209435
63569000,0.0324,0.013523,0.002678,0.000431,0.174999
63570000,0.0324,0.013523,0.002678,0.000431,0.143854
63571000,0.0324,0.013523,0.002678,0.000431,0.125050
63572000,0.0324,0.013523,0.002678,0.000431,0.084150
63573000,0.0324,0.013523,0.002678,0.000431,0.065346
63574000,0.0324,0.013523,0.002678,0.000431,0.046776
63575000,0.0324,0.013523,0.002678,0.000431,0.039489
63576000,0.0324,0.013523,0.002678,0.000431,0.031262
63577000,0.0324,0.013523,0.002678,0.000431,0.029852
63578000,0.0324,0.013523,0.002678,0.000431,0.015514
63579000,0.0324,0.013523,0.002678,0.000431,0.012811
63580000,0.0324,0.013523,0.002678,0.000431,0.011048
63581000,0.0324,0.013523,0.002678,0.000431,0.010813
63582000,0.0324,0.013523,0.002678,0.000431,0.006699
63583000,0.0324,0.013523,0.002678,0.000431,0.009637
63584000,0.0324,0.013523,0.002678,0.000431,0.005406
63585000,0.0324,0.013523,0.002678,0.000431,0.006347
63586000,0.0324,0.013523,0.002678,0.000431,0.008815
63587000,0.0324,0.013523,0.002678,0.000431,0.006582
63588000,0.0324,0.013523,0.002678,0.000431,0.005289
63589000,0.0324,0.013523,0.002678,0.000431,0.003408
63590000,0.0324,0.013523,0.002678,0.000431,0.003291
63591000,0.0324,0.013523,0.002678,0.000431,0.003643
63592000,0.0324,0.013523,0.002678,0.000431,0.003173
63593000,0.0324,0.013523,0.002678,0.000431,0.003408
63594000,0.0324,0.013523,0.002678,0.000431,0.003526
63595000,0.0324,0.013523,0.002678,0.000431,0.009167
63596000,0.0324,0.013523,0.002678,0.000431,0.001763
63597000,0.0324,0.013523,0.002678,0.000431,0.001763
63598000,0.0324,0.013523,0.002678,0.000431,0.001645
63599000,0.0324,0.013523,0.002678,0.000431,0.001645
63600000,0.0324,0.013523,0.002678,0.000431,0.001645
63601000,0.0324,0.013523,0.002678,0.000431,0.001528
63602000,0.0324,0.013523,0.002678,0.000431,0.001763
63603000,0.0324,0.013523,0.002678,0.000431,0.003643
63604000,0.0324,0.013523,0.002678,0.000431,0.000823
63605000,0.0324,0.013523,0.002678,0.000431,0.080272
63606000,0.0324,0.013523,0.002678,0.000431,0.806126
63607000,0.0324,0.013523,0.002678,0.000431,0.533460
63608000,0.0324,0.013523,0.002678,0.000431,0.135863
63609000,0.0324,0.013523,0.002678,0.000431,0.351762
63610000,0.0324,0.013523,0.002678,0.000431,0.380556
63611000,0.0324,0.013523,0.002678,0.000431,0.337423
63612000,0.0324,0.013523,0.002678,0.000431,0.265144
63613000,0.0324,0.013523,0.002678,0.000431,0.180523
63614000,0.0324,0.013523,0.002678,0.000431,0.084620
63615000,0.0324,0.013523,0.002678,0.000431,0.578121
63616000,0.0324,0.013523,0.002678,0.000431,0.284418
63617000,0.0324,0.013523,0.002678,0.000431,0.209905
63618000,0.0324,0.013523,0.002678,0.000431,0.185224
63619000,0.0324,0.013523,0.002678,0.000431,0.159838
63620000,0.0324,0.013523,0.002678,0.000431,0.138566
63621000,0.0324,0.013523,0.002678,0.000431,0.109184
63622000,0.0324,0.013523,0.002678,0.000431,0.073925
63623000,0.0324,0.013523,0.002678,0.000431,0.062407
63624000,0.0324,0.013523,0.002678,0.000431,0.048187
63625000,0.0324,0.013523,0.002678,0.000431,0.043603
63626000,0.0324,0.013523,0.002678,0.000431,0.029735
63627000,0.0324,0.013523,0.002678,0.000431,0.017864
63628000,0.0324,0.013523,0.002678,0.000431,0.015514
63629000,0.0324,0.013523,0.002678,0.000431,0.011165
63630000,0.0324,0.013523,0.002678,0.000431,0.013398
63631000,0.0324,0.013523,0.002678,0.000431,0.008697
63632000,0.0324,0.013523,0.002678,0.000431,0.008345
63633000,0.0324,0.013523,0.002678,0.000431,0.012576
63634000,0.0324,0.013523,0.002678,0.000431,0.005406
63635000,0.0324,0.013523,0.002678,0.000431,0.006464
63636000,0.0324,0.013523,0.002678,0.000431,0.004584
63637000,0.0324,0.013523,0.002678,0.000431,0.003996
63638000,0.0324,0.013523,0.002678,0.000431,0.002468
63639000,0.0324,0.013523,0.002678,0.000431,0.002586
63640000,0.0324,0.013523,0.002678,0.000431,0.002703
63641000,0.0324,0.013523,0.002678,0.000431,0.002351
63642000,0.0324,0.013523,0.002678,0.000431,0.002586
63643000,0.0324,0.013523,0.002678,0.000431,0.002468
63644000,0.0324,0.013523,0.002678,0.000431,0.002703
63645000,0.0324,0.013523,0.002678,0.000431,0.002586
63646000,0.0324,0.013523,0.002678,0.000431,0.002468
63647000,0.0324,0.013523,0.002678,0.000431,0.003526
63648000,0.0324,0.013523,0.002678,0.000431,0.003056
63649000,0.0324,0.013523,0.002678,0.000431,0.001763
63650000,0.0324,0.013523,0.002678,0.000431,0.001645
63651000,0.0324,0.013523,0.002678,0.000431,0.001763
63652000,0.0324,0.013523,0.002678,0.000431,0.001528
63653000,0.0324,0.013523,0.002678,0.000431,0.001645
63654000,0.0324,0.013523,0.002678,0.000431,0.001645
63655000,0.0324,0.013523,0.002678,0.000431,0.001880
63656000,0.0324,0.013523,0.002678,0.000431,0.001645
63657000,0.0324,0.013523,0.002678,0.000431,0.001645
63658000,0.0324,0.013523,0.002678,0.000431,0.001763
63659000,0.0324,0.013523,0.002678,0.000431,0.001528
63660000,0.0324,0.013523,0.002678,0.000431,0.001763
63661000,0.0324,0.013523,0.002678,0.000431,0.001645
63662000,0.0324,0.013523,0.002678,0.000431,0.001645
63663000,0.0324,0.013523,0.002678,0.000431,0.001645
63664000,0.0324,0.013523,0.002678,0.000431,0.001763
63665000,0.0324,0.013523,0.002678,0.000431,0.001645
63666000,0.0324,0.013523,0.002678,0.000431,0.001528
63667000,0.0324,0.013523,0.002678,0.000431,0.001763
63668000,0.0324,0.013523,0.002678,0.000431,0.001528
63669000,0.0324,0.013523,0.002678,0.000431,0.001763
63670000,0.0324,0.013523,0.002678,0.000431,0.001645
63671000,0.0324,0.013523,0.002678,0.000431,0.001645
63672000,0.0324,0.013523,0.002678,0.000431,0.001763
63673000,0.0324,0.013523,0.002678,0.000431,0.001528
63674000,0.0324,0.013523,0.002678,0.000431,0.001763
63675000,0.0324,0.013523,0.002678,0.000431,0.001528
63676000,0.0324,0.013523,0.002678,0.000431,0.001763
63677000,0.0324,0.013523,0.002678,0.000431,0.001645
63678000,0.0324,0.013523,0.002678,0.000431,0.003291
63679000,0.0324,0.013523,0.002678,0.000431,0.000823
63680000,0.0324,0.013523,0.002678,0.000431,0.000823
63681000,0.0324,0.013523,0.002678,0.000431,0.000940
63682000,0.0324,0.013523,0.002678,0.000431,0.000940
63683000,0.0324,0.013523,0.002678,0.000431,0.000823
63684000,0.0324,0.013523,0.002678,0.000431,0.000823
63685000,0.0324,0.013523,0.002678,0.000431,0.000940
63686000,0.0324,0.013523,0.002678,0.000431,0.000940
63687000,0.0324,0.013523,0.002678,0.000431,0.000705
63688000,0.0324,0.013523,0.002678,0.000431,0.000940
63689000,0.0324,0.013523,0.002678,0.000431,0.000940
63690000,0.0324,0.013523,0.002678,0.000431,0.000705
63691000,0.0324,0.013523,0.002678,0.000431,0.000940
63692000,0.0324,0.013523,0.002678,0.000431,0.000705
63693000,0.0324,0.013523,0.002678,0.000431,0.000940
63694000,0.0324,0.013523,0.002678,0.000431,0.000823
63695000,0.0324,0.013523,0.002678,0.000431,0.000823
63696000,0.0324,0.013523,0.002678,0.000431,0.000940
63697000,0.0324,0.013523,0.002678,0.000431,0.000705
63698000,0.0324,0.013523,0.002678,0.000431,0.000940
63699000,0.0324,0.013523,0.002678,0.000431,0.000823
63700000,0.0324,0.013523,0.002678,0.000431,0.000823
63701000,0.0324,0.013523,0.002678,0.000431,0.000823
63702000,0.0324,0.013523,0.002678,0.000431,0.000823
63703000,0.0324,0.013523,0.002678,0.000431,0.000940
63704000,0.0324,0.013523,0.002678,0.000431,0.000705
63705000,0.0324,0.013523,0.002678,0.000431,0.000940
63706000,0.0324,0.013523,0.002678,0.000431,0.000823
63707000,0.0324,0.013523,0.002678,0.000431,0.000823
63708000,0.0324,0.013523,0.002678,0.000431,0.000823
63709000,0.0324,0.013523,0.002678,0.000431,0.000823
63710000,0.0324,0.013523,0.002678,0.000431,0.000940
63711000,0.0324,0.013523,0.002678,0.000431,0.000940
63712000,0.0324,0.013523,0.002678,0.000431,0.000705
63713000,0.0324,0.013523,0.002678,0.000431,0.001058
63714000,0.0324,0.013523,0.002678,0.000431,0.000823
63715000,0.0324,0.013523,0.002678,0.000431,0.000940
63716000,0.0324,0.013523,0.002678,0.000431,0.000823
63717000,0.0324,0.013523,0.002678,0.000431,0.000823
63718000,0.0324,0.013523,0.002678,0.000431,0.000940
63719000,0.0324,0.013523,0.002678,0.000431,0.000940
63720000,0.0324,0.013523,0.002678,0.000431,0.000705
63721000,0.0324,0.013523,0.002678,0.000431,0.000940
63722000,0.0324,0.013523,0.002678,0.000431,0.000705
63723000,0.0324,0.013523,0.002678,0.000431,0.000940
63724000,0.0324,0.013523,0.002678,0.000431,0.000823
63725000,0.0324,0.013523,0.002678,0.000431,0.000823
63726000,0.0324,0.013523,0.002678,0.000431,0.000823
63727000,0.0324,0.013523,0.002678,0.000431,0.000823
63728000,0.0324,0.013523,0.002678,0.000431,0.000940
63729000,0.0324,0.013523,0.002678,0.000431,0.000705
63730000,0.0324,0.013523,0.002678,0.000431,0.000940
63731000,0.0324,0.013523,0.002678,0.000431,0.000940
63732000,0.0324,0.013523,0.002678,0.000431,0.000940
63733000,0.0324,0.013523,0.002678,0.000431,0.000705
63734000,0.0324,0.013523,0.002678,0.000431,0.000940
63735000,0.0324,0.013523,0.002678,0.000431,0.000940
63736000,0.0324,0.013523,0.002678,0.000431,0.000823
63737000,0.0324,0.013523,0.002678,0.000431,0.000940
63738000,0.0324,0.013523,0.002678,0.000431,0.000823
63739000,0.0324,0.013523,0.002678,0.000431,0.000940
63740000,0.0324,0.013523,0.002678,0.000431,0.174999
63741000,0.0324,0.013523,0.002678,0.000431,0.804833
63742000,0.0324,0.013523,0.002678,0.000431,0.480690
63743000,0.0324,0.013523,0.002678,0.000431,0.137743
63744000,0.0324,0.013523,0.002678,0.000431,0.530287
63745000,0.0324,0.013523,0.002678,0.000431,0.280070
63746000,0.0324,0.013523,0.002678,0.000431,0.335543
63747000,0.0324,0.013523,0.002678,0.000431,0.166772
63748000,0.0324,0.013523,0.002678,0.000431,0.140446
63749000,0.0324,0.013523,0.002678,0.000431,0.242343
63750000,0.0324,0.013523,0.002678,0.000431,0.534048
63751000,0.0324,0.013523,0.002678,0.000431,0.238230
63752000,0.0324,0.013523,0.002678,0.000431,0.213784
63753000,0.0324,0.013523,0.002678,0.000431,0.167595
63754000,0.0324,0.013523,0.002678,0.000431,0.138801
63755000,0.0324,0.013523,0.002678,0.000431,0.118586
63756000,0.0324,0.013523,0.002678,0.000431,0.102132
63757000,0.0324,0.013523,0.002678,0.000431,0.077216
63758000,0.0324,0.013523,0.002678,0.000431,0.058176
63759000,0.0324,0.013523,0.002678,0.000431,0.044426
63760000,0.0324,0.013523,0.002678,0.000431,0.032320
63761000,0.0324,0.013523,0.002678,0.000431,0.028912
63762000,0.0324,0.013523,0.002678,0.000431,0.027149
63763000,0.0324,0.013523,0.002678,0.000431,0.021508
63764000,0.0324,0.013523,0.002678,0.000431,0.027972
63765000,0.0324,0.013523,0.002678,0.000431,0.015044
63766000,0.0324,0.013523,0.002678,0.000431,0.018805
63767000,0.0324,0.013523,0.002678,0.000431,0.016571
63768000,0.0324,0.013523,0.002678,0.000431,0.012458
63769000,0.0324,0.013523,0.002678,0.000431,0.010578
63770000,0.0324,0.013523,0.002678,0.000431,0.011165
63771000,0.0324,0.013523,0.002678,0.000431,0.008345
63772000,0.0324,0.013523,0.002678,0.000431,0.008345
63773000,0.0324,0.013523,0.002678,0.000431,0.007757
63774000,0.0324,0.013523,0.002678,0.000431,0.008697
63775000,0.0324,0.013523,0.002678,0.000431,0.006347
63776000,0.0324,0.013523,0.002678,0.000431,0.008345
63777000,0.0324,0.013523,0.002678,0.000431,0.005876
63778000,0.0324,0.013523,0.002678,0.000431,0.004936
63779000,0.0324,0.013523,0.002678,0.000431,0.005054
63780000,0.0324,0.013523,0.002678,0.000431,0.005641
63781000,0.0324,0.013523,0.002678,0.000431,0.004466
63782000,0.0324,0.013523,0.002678,0.000431,0.006111
63783000,0.0324,0.013523,0.002678,0.000431,0.004819
63784000,0.0324,0.013523,0.002678,0.000431,0.005289
63785000,0.0324,0.013523,0.002678,0.000431,0.005289
63786000,0.0324,0.013523,0.002678,0.000431,0.004584
63787000,0.0324,0.013523,0.002678,0.000431,0.007169
63788000,0.0324,0.013523,0.002678,0.000431,0.004466
63789000,0.0324,0.013523,0.002678,0.000431,0.003996
63790000,0.0324,0.013523,0.002678,0.000431,0.005054
63791000,0.0324,0.013523,0.002678,0.000431,0.004231
63792000,0.0324,0.013523,0.002678,0.000431,0.004584
63793000,0.0324,0.013523,0.002678,0.000431,0.004466
63794000,0.0324,0.013523,0.002678,0.000431,0.003878
63795000,0.0324,0.013523,0.002678,0.000431,0.005054
63796000,0.0324,0.013523,0.002678,0.000431,0.003996
63797000,0.0324,0.013523,0.002678,0.000431,0.004701
63798000,0.0324,0.013523,0.002678,0.000431,0.007404
63799000,0.0324,0.013523,0.002678,0.000431,0.002351
63800000,0.0324,0.013523,0.002678,0.000431,0.003173
63801000,0.0324,0.013523,0.002678,0.000431,0.003996
63802000,0.0324,0.013523,0.002678,0.000431,0.002351
63803000,0.0324,0.013523,0.002678,0.000431,0.004466
63804000,0.0324,0.013523,0.002678,0.000431,0.003643
63805000,0.0324,0.013523,0.002678,0.000431,0.003173
63806000,0.0324,0.013523,0.002678,0.000431,0.004113
63807000,0.0324,0.013523,0.002678,0.000431,0.002586
63808000,0.0324,0.013523,0.002678,0.000431,0.003526
63809000,0.0324,0.013523,0.002678,0.000431,0.003643
63810000,0.0324,0.013523,0.002678,0.000431,0.003173
63811000,0.0324,0.013523,0.002678,0.000431,0.003408
63812000,0.0324,0.013523,0.002678,0.000431,0.003173
63813000,0.0324,0.013523,0.002678,0.000431,0.002938
63814000,0.0324,0.013523,0.002678,0.000431,0.004231
63815000,0.0324,0.013523,0.002678,0.000431,0.002703
63816000,0.0324,0.013523,0.002678,0.000431,0.003878
63817000,0.0324,0.013523,0.002678,0.000431,0.002586
63818000,0.0324,0.013523,0.002678,0.000431,0.003526
63819000,0.0324,0.013523,0.002678,0.000431,0.004231
63820000,0.0324,0.013523,0.002678,0.000431,0.002233
63821000,0.0324,0.013523,0.002678,0.000431,0.004349
63822000,0.0324,0.013523,0.002678,0.000431,0.002586
63823000,0.0324,0.013523,0.002678,0.000431,0.003526
63824000,0.0324,0.013523,0.002678,0.000431,0.003643
63825000,0.0324,0.013523,0.002678,0.000431,0.002821
63826000,0.0324,0.013523,0.002678,0.000431,0.003761
63827000,0.0324,0.013523,0.002678,0.000431,0.003173
63828000,0.0324,0.013523,0.002678,0.000431,0.002938
63829000,0.0324,0.013523,0.002678,0.000431,0.003878
63830000,0.0324,0.013523,0.002678,0.000431,0.003173
63831000,0.0324,0.013523,0.002678,0.000431,0.002468
63832000,0.0324,0.013523,0.002678,0.000431,0.003291
63833000,0.0324,0.013523,0.002678,0.000431,0.003408
63834000,0.0324,0.013523,0.002678,0.000431,0.002938
63835000,0.0324,0.013523,0.002678,0.000431,0.001763
63836000,0.0324,0.013523,0.002678,0.000431,0.003526
63837000,0.0324,0.013523,0.002678,0.000431,0.001645
63838000,0.0324,0.013523,0.002678,0.000431,0.001645
63839000,0.0324,0.013523,0.002678,0.000431,0.001528
63840000,0.0324,0.013523,0.002678,0.000431,0.000823
63841000,0.0324,0.013523,0.002678,0.000431,0.073925
63842000,0.0324,0.013523,0.002678,0.000431,0.848789
63843000,0.0324,0.013523,0.002678,0.000431,0.512070
63844000,0.0324,0.013523,0.002678,0.000431,0.140094
63845000,0.0324,0.013523,0.002678,0.000431,0.364925
63846000,0.0324,0.013523,0.002678,0.000431,0.355170
63847000,0.0324,0.013523,0.002678,0.000431,0.271843
63848000,0.0324,0.013523,0.002678,0.000431,0.261265
63849000,0.0324,0.013523,0.002678,0.000431,0.163599
63850000,0.0324,0.013523,0.002678,0.000431,0.109419
63851000,0.0324,0.013523,0.002678,0.000431,0.483864
63852000,0.0324,0.013523,0.002678,0.000431,0.321557
63853000,0.0324,0.013523,0.002678,0.000431,0.219543
63854000,0.0324,0.013523,0.002678,0.000431,0.177232
63855000,0.0324,0.013523,0.002678,0.000431,0.151964
63856000,0.0324,0.013523,0.002678,0.000431,0.138918
63857000,0.0324,0.013523,0.002678,0.000431,0.104953
63858000,0.0324,0.013523,0.002678,0.000431,0.085208
63859000,0.0324,0.013523,0.002678,0.000431,0.068989
63860000,0.0324,0.013523,0.002678,0.000431,0.068989
63861000,0.0324,0.013523,0.002678,0.000431,0.050655
63862000,0.0324,0.013523,0.002678,0.000431,0.027619
63863000,0.0324,0.013523,0.002678,0.000431,0.025856
63864000,0.0324,0.013523,0.002678,0.000431,0.027149
63865000,0.0324,0.013523,0.002678,0.000431,0.011753
63866000,0.0324,0.013523,0.002678,0.000431,0.011753
63867000,0.0324,0.013523,0.002678,0.000431,0.008109
63868000,0.0324,0.013523,0.002678,0.000431,0.007639
63869000,0.0324,0.013523,0.002678,0.000431,0.007639
63870000,0.0324,0.013523,0.002678,0.000431,0.010813
63871000,0.0324,0.013523,0.002678,0.000431,0.006464
63872000,0.0324,0.013523,0.002678,0.000431,0.008815
63873000,0.0324,0.013523,0.002678,0.000431,0.008345
63874000,0.0324,0.013523,0.002678,0.000431,0.004584
63875000,0.0324,0.013523,0.002678,0.000431,0.008462
63876000,0.0324,0.013523,0.002678,0.000431,0.003291
63877000,0.0324,0.013523,0.002678,0.000431,0.002468
63878000,0.0324,0.013523,0.002678,0.000431,0.003173
63879000,0.0324,0.013523,0.002678,0.000431,0.002821
63880000,0.0324,0.013523,0.002678,0.000431,0.001998
63881000,0.0324,0.013523,0.002678,0.000431,0.002351
63882000,0.0324,0.013523,0.002678,0.000431,0.001880
63883000,0.0324,0.013523,0.002678,0.000431,0.002468
63884000,0.0324,0.013523,0.002678,0.000431,0.001763
63885000,0.0324,0.013523,0.002678,0.000431,0.002351
63886000,0.0324,0.013523,0.002678,0.000431,0.001763
63887000,0.0324,0.013523,0.002678,0.000431,0.002468
63888000,0.0324,0.013523,0.002678,0.000431,0.001880
63889000,0.0324,0.013523,0.002678,0.000431,0.002351
63890000,0.0324,0.013523,0.002678,0.000431,0.002116
63891000,0.0324,0.013523,0.002678,0.000431,0.001880
63892000,0.0324,0.013523,0.002678,0.000431,0.002351
63893000,0.0324,0.013523,0.002678,0.000431,0.002821
63894000,0.0324,0.013523,0.002678,0.000431,0.003291
63895000,0.0324,0.013523,0.002678,0.000431,0.000823
63896000,0.0324,0.013523,0.002678,0.000431,0.072397
63897000,0.0324,0.013523,0.002678,0.000431,0.789554
63898000,0.0324,0.013523,0.002678,0.000431,0.542393
63899000,0.0324,0.013523,0.002678,0.000431,0.142797
63900000,0.0324,0.013523,0.002678,0.000431,0.221893
63901000,0.0324,0.013523,0.002678,0.000431,0.601157
63902000,0.0324,0.013523,0.002678,0.000431,0.241873
63903000,0.0324,0.013523,0.002678,0.000431,0.276896
63904000,0.0324,0.013523,0.002678,0.000431,0.153844
63905000,0.0324,0.013523,0.002678,0.000431,0.146793
63906000,0.0324,0.013523,0.002678,0.000431,0.237054
63907000,0.0324,0.013523,0.002678,0.000431,0.514538
63908000,0.0324,0.013523,0.002678,0.000431,0.206144
63909000,0.0324,0.013523,0.002678,0.000431,0.187222
63910000,0.0324,0.013523,0.002678,0.000431,0.160426
63911000,0.0324,0.013523,0.002678,0.000431,0.121054
63912000,0.0324,0.013523,0.002678,0.000431,0.095785
63913000,0.0324,0.013523,0.002678,0.000431,0.102132
63914000,0.0324,0.013523,0.002678,0.000431,0.057354
63915000,0.0324,0.013523,0.002678,0.000431,0.039960
63916000,0.0324,0.013523,0.002678,0.000431,0.049597
63917000,0.0324,0.013523,0.002678,0.000431,0.026561
63918000,0.0324,0.013523,0.002678,0.000431,0.023976
63919000,0.0324,0.013523,0.002678,0.000431,0.019745
63920000,0.0324,0.013523,0.002678,0.000431,0.019040
63921000,0.0324,0.013523,0.002678,0.000431,0.025621
63922000,0.0324,0.013523,0.002678,0.000431,0.013163
63923000,0.0324,0.013523,0.002678,0.000431,0.017277
63924000,0.0324,0.013523,0.002678,0.000431,0.009402
63925000,0.0324,0.013523,0.002678,0.000431,0.007169
63926000,0.0324,0.013523,0.002678,0.000431,0.007757
63927000,0.0324,0.013523,0.002678,0.000431,0.009520
63928000,0.0324,0.013523,0.002678,0.000431,0.008462
63929000,0.0324,0.013523,0.002678,0.000431,0.008462
63930000,0.0324,0.013523,0.002678,0.000431,0.005171
63931000,0.0324,0.013523,0.002678,0.000431,0.006111
63932000,0.0324,0.013523,0.002678,0.000431,0.002351
63933000,0.0324,0.013523,0.002678,0.000431,0.002468
63934000,0.0324,0.013523,0.002678,0.000431,0.001998
63935000,0.0324,0.013523,0.002678,0.000431,0.002116
63936000,0.0324,0.013523,0.002678,0.000431,0.003878
63937000,0.0324,0.013523,0.002678,0.000431,0.000940
63938000,0.0324,0.013523,0.002678,0.000431,0.000823
63939000,0.0324,0.013523,0.002678,0.000431,0.000823
63940000,0.0324,0.013523,0.002678,0.000431,0.000823
63941000,0.0324,0.013523,0.002678,0.000431,0.000940
63942000,0.0324,0.013523,0.002678,0.000431,0.000823
63943000,0.0324,0.013523,0.002678,0.000431,0.000823
63944000,0.0324,0.013523,0.002678,0.000431,0.000705
63945000,0.0324,0.013523,0.002678,0.000431,0.000940
63946000,0.0324,0.013523,0.002678,0.000431,0.000940
63947000,0.0324,0.013523,0.002678,0.000431,0.000705
63948000,0.0324,0.013523,0.002678,0.000431,0.000940
63949000,0.0324,0.013523,0.002678,0.000431,0.000705
63950000,0.0324,0.013523,0.002678,0.000431,0.000940
63951000,0.0324,0.013523,0.002678,0.000431,0.000823
63952000,0.0324,0.013523,0.002678,0.000431,0.000823
63953000,0.0324,0.013523,0.002678,0.000431,0.000940
63954000,0.0324,0.013523,0.002678,0.000431,0.000705
63955000,0.0324,0.013523,0.002678,0.000431,0.000940
63956000,0.0324,0.013523,0.002678,0.000431,0.000823
63957000,0.0324,0.013523,0.002678,0.000431,0.000823
63958000,0.0324,0.013523,0.002678,0.000431,0.000823
63959000,0.0324,0.013523,0.002678,0.000431,0.000823
63960000,0.0324,0.013523,0.002678,0.000431,0.000823
63961000,0.0324,0.013523,0.002678,0.000431,0.000823
63962000,0.0324,0.013523,0.002678,0.000431,0.000940
63963000,0.0324,0.013523,0.002678,0.000431,0.000705
63964000,0.0324,0.013523,0.002678,0.000431,0.000940
63965000,0.0324,0.013523,0.002678,0.000431,0.000823
63966000,0.0324,0.013523,0.002678,0.000431,0.000823
63967000,0.0324,0.013523,0.002678,0.000431,0.000705
63968000,0.0324,0.013523,0.002678,0.000431,0.000940
63969000,0.0324,0.013523,0.002678,0.000431,0.000940
63970000,0.0324,0.013523,0.002678,0.000431,0.000705
63971000,0.0324,0.013523,0.002678,0.000431,0.000940
63972000,0.0324,0.013523,0.002678,0.000431,0.000705
63973000,0.0324,0.013523,0.002678,0.000431,0.000940
63974000,0.0324,0.013523,0.002678,0.000431,0.000823
63975000,0.0324,0.013523,0.002678,0.000431,0.000823
63976000,0.0324,0.013523,0.002678,0.000431,0.000940
63977000,0.0324,0.013523,0.002678,0.000431,0.000705
63978000,0.0324,0.013523,0.002678,0.000431,0.000823
63979000,0.0324,0.013523,0.002678,0.000431,0.000823
63980000,0.0324,0.013523,0.002678,0.000431,0.001880
63981000,0.0324,0.013523,0.002678,0.000431,0.391721
63982000,0.0324,0.013523,0.002678,0.000431,0.801542
63983000,0.0324,0.013523,0.002678,0.000431,0.237995
63984000,0.0324,0.013523,0.002678,0.000431,0.146440
63985000,0.0324,0.013523,0.002678,0.000431,0.527937
63986000,0.0324,0.013523,0.002678,0.000431,0.245751
63987000,0.0324,0.013523,0.002678,0.000431,0.312742
63988000,0.0324,0.013523,0.002678,0.000431,0.169593
63989000,0.0324,0.013523,0.002678,0.000431,0.189338
63990000,0.0324,0.013523,0.002678,0.000431,0.090262
63991000,0.0324,0.013523,0.002678,0.000431,0.548974
63992000,0.0324,0.013523,0.002678,0.000431,0.213314
63993000,0.0324,0.013523,0.002678,0.000431,0.191453
63994000,0.0324,0.013523,0.002678,0.000431,0.166185
63995000,0.0324,0.013523,0.002678,0.000431,0.143032
63996000,0.0324,0.013523,0.002678,0.000431,0.124815
63997000,0.0324,0.013523,0.002678,0.000431,0.097783
63998000,0.0324,0.013523,0.002678,0.000431,0.092377
63999000,0.0324,0.013523,0.002678,0.000431,0.067814
