Cycle,Area(mm^2),PeakDynamic(W),SubthresholdLeakage(W),GateLeakage(W),RunTimeDynamic(W)
1000000,0.0324,0.013523,0.002678,0.000431,0.263263
1001000,0.0324,0.013523,0.002678,0.000431,0.284418
1002000,0.0324,0.013523,0.002678,0.000431,0.140094
1003000,0.0324,0.013523,0.002678,0.000431,0.161249
1004000,0.0324,0.013523,0.002678,0.000431,0.116353
1005000,0.0324,0.013523,0.002678,0.000431,0.476577
1006000,0.0324,0.013523,0.002678,0.000431,0.118233
1007000,0.0324,0.013523,0.002678,0.000431,0.040665
1008000,0.0324,0.013523,0.002678,0.000431,0.023153
1009000,0.0324,0.013523,0.002678,0.000431,0.015514
1010000,0.0324,0.013523,0.002678,0.000431,0.017982
1011000,0.0324,0.013523,0.002678,0.000431,0.010342
1012000,0.0324,0.013523,0.002678,0.000431,0.009990
1013000,0.0324,0.013523,0.002678,0.000431,0.005994
1014000,0.0324,0.013523,0.002678,0.000431,0.005641
1015000,0.0324,0.013523,0.002678,0.000431,0.003408
1016000,0.0324,0.013523,0.002678,0.000431,0.003408
1017000,0.0324,0.013523,0.002678,0.000431,0.003173
1018000,0.0324,0.013523,0.002678,0.000431,0.003291
1019000,0.0324,0.013523,0.002678,0.000431,0.003408
1020000,0.0324,0.013523,0.002678,0.000431,0.004349
1021000,0.0324,0.013523,0.002678,0.000431,0.001645
1022000,0.0324,0.013523,0.002678,0.000431,0.001645
1023000,0.0324,0.013523,0.002678,0.000431,0.001880
1024000,0.0324,0.013523,0.002678,0.000431,0.001410
1025000,0.0324,0.013523,0.002678,0.000431,0.001645
1026000,0.0324,0.013523,0.002678,0.000431,0.001763
1027000,0.0324,0.013523,0.002678,0.000431,0.001763
1028000,0.0324,0.013523,0.002678,0.000431,0.001410
1029000,0.0324,0.013523,0.002678,0.000431,0.071457
1030000,0.0324,0.013523,0.002678,0.000431,0.519122
1031000,0.0324,0.013523,0.002678,0.000431,0.560727
1032000,0.0324,0.013523,0.002678,0.000431,0.133982
1033000,0.0324,0.013523,0.002678,0.000431,0.132572
1034000,0.0324,0.013523,0.002678,0.000431,0.581529
1035000,0.0324,0.013523,0.002678,0.000431,0.278659
1036000,0.0324,0.013523,0.002678,0.000431,0.289472
1037000,0.0324,0.013523,0.002678,0.000431,0.258209
1038000,0.0324,0.013523,0.002678,0.000431,0.140799
1039000,0.0324,0.013523,0.002678,0.000431,0.135275
1040000,0.0324,0.013523,0.002678,0.000431,0.245399
1041000,0.0324,0.013523,0.002678,0.000431,0.392309
1042000,0.0324,0.013523,0.002678,0.000431,0.046306
1043000,0.0324,0.013523,0.002678,0.000431,0.036786
1044000,0.0324,0.013523,0.002678,0.000431,0.025034
1045000,0.0324,0.013523,0.002678,0.000431,0.020450
1046000,0.0324,0.013523,0.002678,0.000431,0.026091
1047000,0.0324,0.013523,0.002678,0.000431,0.015866
1048000,0.0324,0.013523,0.002678,0.000431,0.009755
1049000,0.0324,0.013523,0.002678,0.000431,0.008815
1050000,0.0324,0.013523,0.002678,0.000431,0.006347
1051000,0.0324,0.013523,0.002678,0.000431,0.007287
1052000,0.0324,0.013523,0.002678,0.000431,0.007874
1053000,0.0324,0.013523,0.002678,0.000431,0.000823
1054000,0.0324,0.013523,0.002678,0.000431,0.000940
1055000,0.0324,0.013523,0.002678,0.000431,0.000940
1056000,0.0324,0.013523,0.002678,0.000431,0.000705
1057000,0.0324,0.013523,0.002678,0.000431,0.000940
1058000,0.0324,0.013523,0.002678,0.000431,0.000940
1059000,0.0324,0.013523,0.002678,0.000431,0.000940
1060000,0.0324,0.013523,0.002678,0.000431,0.000705
1061000,0.0324,0.013523,0.002678,0.000431,0.000940
1062000,0.0324,0.013523,0.002678,0.000431,0.000940
1063000,0.0324,0.013523,0.002678,0.000431,0.000823
1064000,0.0324,0.013523,0.002678,0.000431,0.000823
1065000,0.0324,0.013523,0.002678,0.000431,0.000940
1066000,0.0324,0.013523,0.002678,0.000431,0.000940
1067000,0.0324,0.013523,0.002678,0.000431,0.000823
1068000,0.0324,0.013523,0.002678,0.000431,0.000823
1069000,0.0324,0.013523,0.002678,0.000431,0.000940
1070000,0.0324,0.013523,0.002678,0.000431,0.000823
1071000,0.0324,0.013523,0.002678,0.000431,0.013633
1072000,0.0324,0.013523,0.002678,0.000431,0.557789
1073000,0.0324,0.013523,0.002678,0.000431,0.569659
1074000,0.0324,0.013523,0.002678,0.000431,0.133042
1075000,0.0324,0.013523,0.002678,0.000431,0.135863
1076000,0.0324,0.013523,0.002678,0.000431,0.552265
1077000,0.0324,0.013523,0.002678,0.000431,0.254449
1078000,0.0324,0.013523,0.002678,0.000431,0.290295
1079000,0.0324,0.013523,0.002678,0.000431,0.239052
1080000,0.0324,0.013523,0.002678,0.000431,0.145970
1081000,0.0324,0.013523,0.002678,0.000431,0.179701
1082000,0.0324,0.013523,0.002678,0.000431,0.095315
1083000,0.0324,0.013523,0.002678,0.000431,0.511835
1084000,0.0324,0.013523,0.002678,0.000431,0.061467
1085000,0.0324,0.013523,0.002678,0.000431,0.025504
1086000,0.0324,0.013523,0.002678,0.000431,0.016924
1087000,0.0324,0.013523,0.002678,0.000431,0.012693
1088000,0.0324,0.013523,0.002678,0.000431,0.011870
1089000,0.0324,0.013523,0.002678,0.000431,0.010930
1090000,0.0324,0.013523,0.002678,0.000431,0.009990
1091000,0.0324,0.013523,0.002678,0.000431,0.012458
1092000,0.0324,0.013523,0.002678,0.000431,0.010813
1093000,0.0324,0.013523,0.002678,0.000431,0.005641
1094000,0.0324,0.013523,0.002678,0.000431,0.005759
1095000,0.0324,0.013523,0.002678,0.000431,0.006111
1096000,0.0324,0.013523,0.002678,0.000431,0.007757
1097000,0.0324,0.013523,0.002678,0.000431,0.004936
1098000,0.0324,0.013523,0.002678,0.000431,0.006347
1099000,0.0324,0.013523,0.002678,0.000431,0.010578
1100000,0.0324,0.013523,0.002678,0.000431,0.475519
1101000,0.0324,0.013523,0.002678,0.000431,0.623369
1102000,0.0324,0.013523,0.002678,0.000431,0.133982
1103000,0.0324,0.013523,0.002678,0.000431,0.133865
1104000,0.0324,0.013523,0.002678,0.000431,0.474226
1105000,0.0324,0.013523,0.002678,0.000431,0.274193
1106000,0.0324,0.013523,0.002678,0.000431,0.276191
1107000,0.0324,0.013523,0.002678,0.000431,0.279482
1108000,0.0324,0.013523,0.002678,0.000431,0.147263
1109000,0.0324,0.013523,0.002678,0.000431,0.150789
1110000,0.0324,0.013523,0.002678,0.000431,0.113650
1111000,0.0324,0.013523,0.002678,0.000431,0.394895
1112000,0.0324,0.013523,0.002678,0.000431,0.215194
1113000,0.0324,0.013523,0.002678,0.000431,0.014926
1114000,0.0324,0.013523,0.002678,0.000431,0.007169
1115000,0.0324,0.013523,0.002678,0.000431,0.007522
1116000,0.0324,0.013523,0.002678,0.000431,0.007169
1117000,0.0324,0.013523,0.002678,0.000431,0.006582
1118000,0.0324,0.013523,0.002678,0.000431,0.000823
1119000,0.0324,0.013523,0.002678,0.000431,0.000940
1120000,0.0324,0.013523,0.002678,0.000431,0.000823
1121000,0.0324,0.013523,0.002678,0.000431,0.000940
1122000,0.0324,0.013523,0.002678,0.000431,0.000823
1123000,0.0324,0.013523,0.002678,0.000431,0.000940
1124000,0.0324,0.013523,0.002678,0.000431,0.047599
1125000,0.0324,0.013523,0.002678,0.000431,0.470935
1126000,0.0324,0.013523,0.002678,0.000431,0.584820
1127000,0.0324,0.013523,0.002678,0.000431,0.132454
1128000,0.0324,0.013523,0.002678,0.000431,0.134922
1129000,0.0324,0.013523,0.002678,0.000431,0.576358
1130000,0.0324,0.013523,0.002678,0.000431,0.228357
1131000,0.0324,0.013523,0.002678,0.000431,0.326493
1132000,0.0324,0.013523,0.002678,0.000431,0.310039
1133000,0.0324,0.013523,0.002678,0.000431,0.140916
1134000,0.0324,0.013523,0.002678,0.000431,0.152669
1135000,0.0324,0.013523,0.002678,0.000431,0.149848
1136000,0.0324,0.013523,0.002678,0.000431,0.459888
1137000,0.0324,0.013523,0.002678,0.000431,0.019392
1138000,0.0324,0.013523,0.002678,0.000431,0.012458
1139000,0.0324,0.013523,0.002678,0.000431,0.006111
1140000,0.0324,0.013523,0.002678,0.000431,0.004349
1141000,0.0324,0.013523,0.002678,0.000431,0.005289
1142000,0.0324,0.013523,0.002678,0.000431,0.003761
1143000,0.0324,0.013523,0.002678,0.000431,0.003643
1144000,0.0324,0.013523,0.002678,0.000431,0.000940
1145000,0.0324,0.013523,0.002678,0.000431,0.179348
1146000,0.0324,0.013523,0.002678,0.000431,0.440613
1147000,0.0324,0.013523,0.002678,0.000431,0.513833
1148000,0.0324,0.013523,0.002678,0.000431,0.133042
1149000,0.0324,0.013523,0.002678,0.000431,0.133982
1150000,0.0324,0.013523,0.002678,0.000431,0.587876
1151000,0.0324,0.013523,0.002678,0.000431,0.244811
1152000,0.0324,0.013523,0.002678,0.000431,0.288884
1153000,0.0324,0.013523,0.002678,0.000431,0.249630
1154000,0.0324,0.013523,0.002678,0.000431,0.151729
1155000,0.0324,0.013523,0.002678,0.000431,0.154432
1156000,0.0324,0.013523,0.002678,0.000431,0.168300
1157000,0.0324,0.013523,0.002678,0.000431,0.475401
1158000,0.0324,0.013523,0.002678,0.000431,0.050537
1159000,0.0324,0.013523,0.002678,0.000431,0.033025
1160000,0.0324,0.013523,0.002678,0.000431,0.030205
1161000,0.0324,0.013523,0.002678,0.000431,0.025151
1162000,0.0324,0.013523,0.002678,0.000431,0.017629
1163000,0.0324,0.013523,0.002678,0.000431,0.018452
1164000,0.0324,0.013523,0.002678,0.000431,0.009285
1165000,0.0324,0.013523,0.002678,0.000431,0.006699
1166000,0.0324,0.013523,0.002678,0.000431,0.009167
1167000,0.0324,0.013523,0.002678,0.000431,0.005524
1168000,0.0324,0.013523,0.002678,0.000431,0.006347
1169000,0.0324,0.013523,0.002678,0.000431,0.006464
1170000,0.0324,0.013523,0.002678,0.000431,0.003526
1171000,0.0324,0.013523,0.002678,0.000431,0.003291
1172000,0.0324,0.013523,0.002678,0.000431,0.003408
1173000,0.0324,0.013523,0.002678,0.000431,0.004584
1174000,0.0324,0.013523,0.002678,0.000431,0.002468
1175000,0.0324,0.013523,0.002678,0.000431,0.002351
1176000,0.0324,0.013523,0.002678,0.000431,0.002703
1177000,0.0324,0.013523,0.002678,0.000431,0.002468
1178000,0.0324,0.013523,0.002678,0.000431,0.002586
1179000,0.0324,0.013523,0.002678,0.000431,0.002351
1180000,0.0324,0.013523,0.002678,0.000431,0.002703
1181000,0.0324,0.013523,0.002678,0.000431,0.002468
1182000,0.0324,0.013523,0.002678,0.000431,0.002468
1183000,0.0324,0.013523,0.002678,0.000431,0.002703
1184000,0.0324,0.013523,0.002678,0.000431,0.002351
1185000,0.0324,0.013523,0.002678,0.000431,0.002586
1186000,0.0324,0.013523,0.002678,0.000431,0.002468
1187000,0.0324,0.013523,0.002678,0.000431,0.002703
1188000,0.0324,0.013523,0.002678,0.000431,0.002351
1189000,0.0324,0.013523,0.002678,0.000431,0.002586
1190000,0.0324,0.013523,0.002678,0.000431,0.002586
1191000,0.0324,0.013523,0.002678,0.000431,0.002468
1192000,0.0324,0.013523,0.002678,0.000431,0.002468
1193000,0.0324,0.013523,0.002678,0.000431,0.002586
1194000,0.0324,0.013523,0.002678,0.000431,0.003291
1195000,0.0324,0.013523,0.002678,0.000431,0.001998
1196000,0.0324,0.013523,0.002678,0.000431,0.000823
1197000,0.0324,0.013523,0.002678,0.000431,0.000940
1198000,0.0324,0.013523,0.002678,0.000431,0.000823
1199000,0.0324,0.013523,0.002678,0.000431,0.000940
1200000,0.0324,0.013523,0.002678,0.000431,0.000823
1201000,0.0324,0.013523,0.002678,0.000431,0.000940
1202000,0.0324,0.013523,0.002678,0.000431,0.000823
1203000,0.0324,0.013523,0.002678,0.000431,0.000823
1204000,0.0324,0.013523,0.002678,0.000431,0.000940
1205000,0.0324,0.013523,0.002678,0.000431,0.000940
1206000,0.0324,0.013523,0.002678,0.000431,0.000940
1207000,0.0324,0.013523,0.002678,0.000431,0.000705
1208000,0.0324,0.013523,0.002678,0.000431,0.000940
1209000,0.0324,0.013523,0.002678,0.000431,0.000940
1210000,0.0324,0.013523,0.002678,0.000431,0.000823
1211000,0.0324,0.013523,0.002678,0.000431,0.000823
1212000,0.0324,0.013523,0.002678,0.000431,0.000940
1213000,0.0324,0.013523,0.002678,0.000431,0.000823
1214000,0.0324,0.013523,0.002678,0.000431,0.000940
1215000,0.0324,0.013523,0.002678,0.000431,0.000823
1216000,0.0324,0.013523,0.002678,0.000431,0.000940
1217000,0.0324,0.013523,0.002678,0.000431,0.000823
1218000,0.0324,0.013523,0.002678,0.000431,0.000823
1219000,0.0324,0.013523,0.002678,0.000431,0.000940
1220000,0.0324,0.013523,0.002678,0.000431,0.000940
1221000,0.0324,0.013523,0.002678,0.000431,0.000823
1222000,0.0324,0.013523,0.002678,0.000431,0.000823
1223000,0.0324,0.013523,0.002678,0.000431,0.000940
1224000,0.0324,0.013523,0.002678,0.000431,0.000940
1225000,0.0324,0.013523,0.002678,0.000431,0.000705
1226000,0.0324,0.013523,0.002678,0.000431,0.000940
1227000,0.0324,0.013523,0.002678,0.000431,0.000940
1228000,0.0324,0.013523,0.002678,0.000431,0.000940
1229000,0.0324,0.013523,0.002678,0.000431,0.000823
1230000,0.0324,0.013523,0.002678,0.000431,0.000823
1231000,0.0324,0.013523,0.002678,0.000431,0.000940
1232000,0.0324,0.013523,0.002678,0.000431,0.000823
1233000,0.0324,0.013523,0.002678,0.000431,0.000940
1234000,0.0324,0.013523,0.002678,0.000431,0.000823
1235000,0.0324,0.013523,0.002678,0.000431,0.000940
1236000,0.0324,0.013523,0.002678,0.000431,0.000823
1237000,0.0324,0.013523,0.002678,0.000431,0.000823
1238000,0.0324,0.013523,0.002678,0.000431,0.000940
1239000,0.0324,0.013523,0.002678,0.000431,0.000940
1240000,0.0324,0.013523,0.002678,0.000431,0.000823
1241000,0.0324,0.013523,0.002678,0.000431,0.000823
1242000,0.0324,0.013523,0.002678,0.000431,0.000940
1243000,0.0324,0.013523,0.002678,0.000431,0.000940
1244000,0.0324,0.013523,0.002678,0.000431,0.000705
1245000,0.0324,0.013523,0.002678,0.000431,0.000940
1246000,0.0324,0.013523,0.002678,0.000431,0.000940
1247000,0.0324,0.013523,0.002678,0.000431,0.000940
1248000,0.0324,0.013523,0.002678,0.000431,0.000705
1249000,0.0324,0.013523,0.002678,0.000431,0.000940
1250000,0.0324,0.013523,0.002678,0.000431,0.000940
1251000,0.0324,0.013523,0.002678,0.000431,0.000823
1252000,0.0324,0.013523,0.002678,0.000431,0.000823
1253000,0.0324,0.013523,0.002678,0.000431,0.000940
1254000,0.0324,0.013523,0.002678,0.000431,0.000940
1255000,0.0324,0.013523,0.002678,0.000431,0.000823
1256000,0.0324,0.013523,0.002678,0.000431,0.013633
1257000,0.0324,0.013523,0.002678,0.000431,0.580942
1258000,0.0324,0.013523,0.002678,0.000431,0.561197
1259000,0.0324,0.013523,0.002678,0.000431,0.134922
1260000,0.0324,0.013523,0.002678,0.000431,0.134922
1261000,0.0324,0.013523,0.002678,0.000431,0.537456
1262000,0.0324,0.013523,0.002678,0.000431,0.240815
1263000,0.0324,0.013523,0.002678,0.000431,0.275604
1264000,0.0324,0.013523,0.002678,0.000431,0.281362
1265000,0.0324,0.013523,0.002678,0.000431,0.152317
1266000,0.0324,0.013523,0.002678,0.000431,0.161484
1267000,0.0324,0.013523,0.002678,0.000431,0.171944
1268000,0.0324,0.013523,0.002678,0.000431,0.434972
1269000,0.0324,0.013523,0.002678,0.000431,0.033848
1270000,0.0324,0.013523,0.002678,0.000431,0.023388
1271000,0.0324,0.013523,0.002678,0.000431,0.011870
1272000,0.0324,0.013523,0.002678,0.000431,0.013163
1273000,0.0324,0.013523,0.002678,0.000431,0.007287
1274000,0.0324,0.013523,0.002678,0.000431,0.006699
1275000,0.0324,0.013523,0.002678,0.000431,0.005994
1276000,0.0324,0.013523,0.002678,0.000431,0.003056
1277000,0.0324,0.013523,0.002678,0.000431,0.000940
1278000,0.0324,0.013523,0.002678,0.000431,0.000823
1279000,0.0324,0.013523,0.002678,0.000431,0.000940
1280000,0.0324,0.013523,0.002678,0.000431,0.000823
1281000,0.0324,0.013523,0.002678,0.000431,0.000940
1282000,0.0324,0.013523,0.002678,0.000431,0.195684
1283000,0.0324,0.013523,0.002678,0.000431,0.458830
1284000,0.0324,0.013523,0.002678,0.000431,0.497144
1285000,0.0324,0.013523,0.002678,0.000431,0.133512
1286000,0.0324,0.013523,0.002678,0.000431,0.133042
1287000,0.0324,0.013523,0.002678,0.000431,0.608914
1288000,0.0324,0.013523,0.002678,0.000431,0.256564
1289000,0.0324,0.013523,0.002678,0.000431,0.256211
1290000,0.0324,0.013523,0.002678,0.000431,0.241873
1291000,0.0324,0.013523,0.002678,0.000431,0.152787
1292000,0.0324,0.013523,0.002678,0.000431,0.163599
1293000,0.0324,0.013523,0.002678,0.000431,0.164422
1294000,0.0324,0.013523,0.002678,0.000431,0.460005
1295000,0.0324,0.013523,0.002678,0.000431,0.053710
1296000,0.0324,0.013523,0.002678,0.000431,0.047246
1297000,0.0324,0.013523,0.002678,0.000431,0.033260
1298000,0.0324,0.013523,0.002678,0.000431,0.023153
1299000,0.0324,0.013523,0.002678,0.000431,0.017982
1300000,0.0324,0.013523,0.002678,0.000431,0.015514
1301000,0.0324,0.013523,0.002678,0.000431,0.009755
1302000,0.0324,0.013523,0.002678,0.000431,0.008697
1303000,0.0324,0.013523,0.002678,0.000431,0.007757
1304000,0.0324,0.013523,0.002678,0.000431,0.002586
1305000,0.0324,0.013523,0.002678,0.000431,0.002233
1306000,0.0324,0.013523,0.002678,0.000431,0.002586
1307000,0.0324,0.013523,0.002678,0.000431,0.002938
1308000,0.0324,0.013523,0.002678,0.000431,0.081330
1309000,0.0324,0.013523,0.002678,0.000431,0.600099
1310000,0.0324,0.013523,0.002678,0.000431,0.496674
1311000,0.0324,0.013523,0.002678,0.000431,0.135745
1312000,0.0324,0.013523,0.002678,0.000431,0.133982
1313000,0.0324,0.013523,0.002678,0.000431,0.558964
1314000,0.0324,0.013523,0.002678,0.000431,0.233646
1315000,0.0324,0.013523,0.002678,0.000431,0.273371
1316000,0.0324,0.013523,0.002678,0.000431,0.224949
1317000,0.0324,0.013523,0.002678,0.000431,0.142092
1318000,0.0324,0.013523,0.002678,0.000431,0.192394
1319000,0.0324,0.013523,0.002678,0.000431,0.108479
1320000,0.0324,0.013523,0.002678,0.000431,0.501728
1321000,0.0324,0.013523,0.002678,0.000431,0.078274
1322000,0.0324,0.013523,0.002678,0.000431,0.034906
1323000,0.0324,0.013523,0.002678,0.000431,0.029735
1324000,0.0324,0.013523,0.002678,0.000431,0.026679
1325000,0.0324,0.013523,0.002678,0.000431,0.025504
1326000,0.0324,0.013523,0.002678,0.000431,0.020685
1327000,0.0324,0.013523,0.002678,0.000431,0.019275
1328000,0.0324,0.013523,0.002678,0.000431,0.019392
1329000,0.0324,0.013523,0.002678,0.000431,0.008227
1330000,0.0324,0.013523,0.002678,0.000431,0.007169
1331000,0.0324,0.013523,0.002678,0.000431,0.007404
1332000,0.0324,0.013523,0.002678,0.000431,0.005524
1333000,0.0324,0.013523,0.002678,0.000431,0.005406
1334000,0.0324,0.013523,0.002678,0.000431,0.005524
1335000,0.0324,0.013523,0.002678,0.000431,0.002821
1336000,0.0324,0.013523,0.002678,0.000431,0.002468
1337000,0.0324,0.013523,0.002678,0.000431,0.003996
1338000,0.0324,0.013523,0.002678,0.000431,0.001763
1339000,0.0324,0.013523,0.002678,0.000431,0.001645
1340000,0.0324,0.013523,0.002678,0.000431,0.001880
1341000,0.0324,0.013523,0.002678,0.000431,0.001763
1342000,0.0324,0.013523,0.002678,0.000431,0.001763
1343000,0.0324,0.013523,0.002678,0.000431,0.001645
1344000,0.0324,0.013523,0.002678,0.000431,0.003526
1345000,0.0324,0.013523,0.002678,0.000431,0.001058
1346000,0.0324,0.013523,0.002678,0.000431,0.000823
1347000,0.0324,0.013523,0.002678,0.000431,0.000823
1348000,0.0324,0.013523,0.002678,0.000431,0.000940
1349000,0.0324,0.013523,0.002678,0.000431,0.000940
1350000,0.0324,0.013523,0.002678,0.000431,0.000823
1351000,0.0324,0.013523,0.002678,0.000431,0.000823
1352000,0.0324,0.013523,0.002678,0.000431,0.000940
1353000,0.0324,0.013523,0.002678,0.000431,0.000823
1354000,0.0324,0.013523,0.002678,0.000431,0.000823
1355000,0.0324,0.013523,0.002678,0.000431,0.000940
1356000,0.0324,0.013523,0.002678,0.000431,0.000940
1357000,0.0324,0.013523,0.002678,0.000431,0.000940
1358000,0.0324,0.013523,0.002678,0.000431,0.000705
1359000,0.0324,0.013523,0.002678,0.000431,0.000940
1360000,0.0324,0.013523,0.002678,0.000431,0.000940
1361000,0.0324,0.013523,0.002678,0.000431,0.000823
1362000,0.0324,0.013523,0.002678,0.000431,0.000823
1363000,0.0324,0.013523,0.002678,0.000431,0.014103
1364000,0.0324,0.013523,0.002678,0.000431,0.544743
1365000,0.0324,0.013523,0.002678,0.000431,0.577181
1366000,0.0324,0.013523,0.002678,0.000431,0.134452
1367000,0.0324,0.013523,0.002678,0.000431,0.134452
1368000,0.0324,0.013523,0.002678,0.000431,0.518887
1369000,0.0324,0.013523,0.002678,0.000431,0.286416
1370000,0.0324,0.013523,0.002678,0.000431,0.239170
1371000,0.0324,0.013523,0.002678,0.000431,0.316268
1372000,0.0324,0.013523,0.002678,0.000431,0.144442
1373000,0.0324,0.013523,0.002678,0.000431,0.184049
1374000,0.0324,0.013523,0.002678,0.000431,0.089909
1375000,0.0324,0.013523,0.002678,0.000431,0.517242
1376000,0.0324,0.013523,0.002678,0.000431,0.094493
1377000,0.0324,0.013523,0.002678,0.000431,0.049832
1378000,0.0324,0.013523,0.002678,0.000431,0.038549
1379000,0.0324,0.013523,0.002678,0.000431,0.028559
1380000,0.0324,0.013523,0.002678,0.000431,0.024328
1381000,0.0324,0.013523,0.002678,0.000431,0.018334
1382000,0.0324,0.013523,0.002678,0.000431,0.019392
1383000,0.0324,0.013523,0.002678,0.000431,0.009402
1384000,0.0324,0.013523,0.002678,0.000431,0.007757
1385000,0.0324,0.013523,0.002678,0.000431,0.011988
1386000,0.0324,0.013523,0.002678,0.000431,0.005171
1387000,0.0324,0.013523,0.002678,0.000431,0.005289
1388000,0.0324,0.013523,0.002678,0.000431,0.004936
1389000,0.0324,0.013523,0.002678,0.000431,0.005171
1390000,0.0324,0.013523,0.002678,0.000431,0.005406
1391000,0.0324,0.013523,0.002678,0.000431,0.006464
1392000,0.0324,0.013523,0.002678,0.000431,0.008345
1393000,0.0324,0.013523,0.002678,0.000431,0.003291
1394000,0.0324,0.013523,0.002678,0.000431,0.003056
1395000,0.0324,0.013523,0.002678,0.000431,0.001763
1396000,0.0324,0.013523,0.002678,0.000431,0.001763
1397000,0.0324,0.013523,0.002678,0.000431,0.015279
1398000,0.0324,0.013523,0.002678,0.000431,0.580354
1399000,0.0324,0.013523,0.002678,0.000431,0.568601
1400000,0.0324,0.013523,0.002678,0.000431,0.133277
1401000,0.0324,0.013523,0.002678,0.000431,0.134452
1402000,0.0324,0.013523,0.002678,0.000431,0.527819
1403000,0.0324,0.013523,0.002678,0.000431,0.239170
1404000,0.0324,0.013523,0.002678,0.000431,0.266789
1405000,0.0324,0.013523,0.002678,0.000431,0.291705
1406000,0.0324,0.013523,0.002678,0.000431,0.146793
1407000,0.0324,0.013523,0.002678,0.000431,0.178055
1408000,0.0324,0.013523,0.002678,0.000431,0.099546
1409000,0.0324,0.013523,0.002678,0.000431,0.507252
1410000,0.0324,0.013523,0.002678,0.000431,0.073690
1411000,0.0324,0.013523,0.002678,0.000431,0.038784
1412000,0.0324,0.013523,0.002678,0.000431,0.023271
1413000,0.0324,0.013523,0.002678,0.000431,0.013046
1414000,0.0324,0.013523,0.002678,0.000431,0.010342
1415000,0.0324,0.013523,0.002678,0.000431,0.006347
1416000,0.0324,0.013523,0.002678,0.000431,0.008697
1417000,0.0324,0.013523,0.002678,0.000431,0.006464
1418000,0.0324,0.013523,0.002678,0.000431,0.005524
1419000,0.0324,0.013523,0.002678,0.000431,0.003643
1420000,0.0324,0.013523,0.002678,0.000431,0.163834
1421000,0.0324,0.013523,0.002678,0.000431,0.523823
1422000,0.0324,0.013523,0.002678,0.000431,0.507604
1423000,0.0324,0.013523,0.002678,0.000431,0.134922
1424000,0.0324,0.013523,0.002678,0.000431,0.134452
1425000,0.0324,0.013523,0.002678,0.000431,0.579179
1426000,0.0324,0.013523,0.002678,0.000431,0.235879
1427000,0.0324,0.013523,0.002678,0.000431,0.327904
1428000,0.0324,0.013523,0.002678,0.000431,0.227417
1429000,0.0324,0.013523,0.002678,0.000431,0.148908
1430000,0.0324,0.013523,0.002678,0.000431,0.118939
1431000,0.0324,0.013523,0.002678,0.000431,0.329784
1432000,0.0324,0.013523,0.002678,0.000431,0.330489
1433000,0.0324,0.013523,0.002678,0.000431,0.061585
1434000,0.0324,0.013523,0.002678,0.000431,0.061115
1435000,0.0324,0.013523,0.002678,0.000431,0.052300
1436000,0.0324,0.013523,0.002678,0.000431,0.036316
1437000,0.0324,0.013523,0.002678,0.000431,0.031145
1438000,0.0324,0.013523,0.002678,0.000431,0.017982
1439000,0.0324,0.013523,0.002678,0.000431,0.023858
1440000,0.0324,0.013523,0.002678,0.000431,0.011870
1441000,0.0324,0.013523,0.002678,0.000431,0.010460
1442000,0.0324,0.013523,0.002678,0.000431,0.009872
1443000,0.0324,0.013523,0.002678,0.000431,0.011048
1444000,0.0324,0.013523,0.002678,0.000431,0.010107
1445000,0.0324,0.013523,0.002678,0.000431,0.008580
1446000,0.0324,0.013523,0.002678,0.000431,0.011753
1447000,0.0324,0.013523,0.002678,0.000431,0.009167
1448000,0.0324,0.013523,0.002678,0.000431,0.004819
1449000,0.0324,0.013523,0.002678,0.000431,0.004113
1450000,0.0324,0.013523,0.002678,0.000431,0.004936
1451000,0.0324,0.013523,0.002678,0.000431,0.007052
1452000,0.0324,0.013523,0.002678,0.000431,0.005524
1453000,0.0324,0.013523,0.002678,0.000431,0.003056
1454000,0.0324,0.013523,0.002678,0.000431,0.002821
1455000,0.0324,0.013523,0.002678,0.000431,0.003056
1456000,0.0324,0.013523,0.002678,0.000431,0.003056
1457000,0.0324,0.013523,0.002678,0.000431,0.003056
1458000,0.0324,0.013523,0.002678,0.000431,0.003056
1459000,0.0324,0.013523,0.002678,0.000431,0.002821
1460000,0.0324,0.013523,0.002678,0.000431,0.003056
1461000,0.0324,0.013523,0.002678,0.000431,0.003056
1462000,0.0324,0.013523,0.002678,0.000431,0.003408
1463000,0.0324,0.013523,0.002678,0.000431,0.001998
1464000,0.0324,0.013523,0.002678,0.000431,0.001528
1465000,0.0324,0.013523,0.002678,0.000431,0.001763
1466000,0.0324,0.013523,0.002678,0.000431,0.001645
1467000,0.0324,0.013523,0.002678,0.000431,0.001645
1468000,0.0324,0.013523,0.002678,0.000431,0.001528
1469000,0.0324,0.013523,0.002678,0.000431,0.001763
1470000,0.0324,0.013523,0.002678,0.000431,0.001410
1471000,0.0324,0.013523,0.002678,0.000431,0.001763
1472000,0.0324,0.013523,0.002678,0.000431,0.001528
1473000,0.0324,0.013523,0.002678,0.000431,0.001645
1474000,0.0324,0.013523,0.002678,0.000431,0.001645
1475000,0.0324,0.013523,0.002678,0.000431,0.001880
1476000,0.0324,0.013523,0.002678,0.000431,0.001293
1477000,0.0324,0.013523,0.002678,0.000431,0.001763
1478000,0.0324,0.013523,0.002678,0.000431,0.001880
1479000,0.0324,0.013523,0.002678,0.000431,0.001645
1480000,0.0324,0.013523,0.002678,0.000431,0.001410
1481000,0.0324,0.013523,0.002678,0.000431,0.001645
1482000,0.0324,0.013523,0.002678,0.000431,0.001880
1483000,0.0324,0.013523,0.002678,0.000431,0.001410
1484000,0.0324,0.013523,0.002678,0.000431,0.001645
1485000,0.0324,0.013523,0.002678,0.000431,0.001880
1486000,0.0324,0.013523,0.002678,0.000431,0.001645
1487000,0.0324,0.013523,0.002678,0.000431,0.001410
1488000,0.0324,0.013523,0.002678,0.000431,0.001763
1489000,0.0324,0.013523,0.002678,0.000431,0.001763
1490000,0.0324,0.013523,0.002678,0.000431,0.001645
1491000,0.0324,0.013523,0.002678,0.000431,0.001410
1492000,0.0324,0.013523,0.002678,0.000431,0.001880
1493000,0.0324,0.013523,0.002678,0.000431,0.001645
1494000,0.0324,0.013523,0.002678,0.000431,0.001645
1495000,0.0324,0.013523,0.002678,0.000431,0.001645
1496000,0.0324,0.013523,0.002678,0.000431,0.001645
1497000,0.0324,0.013523,0.002678,0.000431,0.001645
1498000,0.0324,0.013523,0.002678,0.000431,0.001645
1499000,0.0324,0.013523,0.002678,0.000431,0.001645
1500000,0.0324,0.013523,0.002678,0.000431,0.001763
1501000,0.0324,0.013523,0.002678,0.000431,0.001528
1502000,0.0324,0.013523,0.002678,0.000431,0.073338
1503000,0.0324,0.013523,0.002678,0.000431,0.616553
1504000,0.0324,0.013523,0.002678,0.000431,0.519710
1505000,0.0324,0.013523,0.002678,0.000431,0.134452
1506000,0.0324,0.013523,0.002678,0.000431,0.134452
1507000,0.0324,0.013523,0.002678,0.000431,0.561667
1508000,0.0324,0.013523,0.002678,0.000431,0.220365
1509000,0.0324,0.013523,0.002678,0.000431,0.309099
1510000,0.0324,0.013523,0.002678,0.000431,0.248807
1511000,0.0324,0.013523,0.002678,0.000431,0.143854
1512000,0.0324,0.013523,0.002678,0.000431,0.136685
1513000,0.0324,0.013523,0.002678,0.000431,0.256917
1514000,0.0324,0.013523,0.002678,0.000431,0.391016
1515000,0.0324,0.013523,0.002678,0.000431,0.075688
1516000,0.0324,0.013523,0.002678,0.000431,0.055708
1517000,0.0324,0.013523,0.002678,0.000431,0.047364
1518000,0.0324,0.013523,0.002678,0.000431,0.036551
1519000,0.0324,0.013523,0.002678,0.000431,0.023623
1520000,0.0324,0.013523,0.002678,0.000431,0.024681
1521000,0.0324,0.013523,0.002678,0.000431,0.013398
1522000,0.0324,0.013523,0.002678,0.000431,0.011870
1523000,0.0324,0.013523,0.002678,0.000431,0.007874
1524000,0.0324,0.013523,0.002678,0.000431,0.006464
1525000,0.0324,0.013523,0.002678,0.000431,0.002468
1526000,0.0324,0.013523,0.002678,0.000431,0.002586
1527000,0.0324,0.013523,0.002678,0.000431,0.002821
1528000,0.0324,0.013523,0.002678,0.000431,0.002586
1529000,0.0324,0.013523,0.002678,0.000431,0.003878
1530000,0.0324,0.013523,0.002678,0.000431,0.001763
1531000,0.0324,0.013523,0.002678,0.000431,0.001880
1532000,0.0324,0.013523,0.002678,0.000431,0.001880
1533000,0.0324,0.013523,0.002678,0.000431,0.001410
1534000,0.0324,0.013523,0.002678,0.000431,0.001880
1535000,0.0324,0.013523,0.002678,0.000431,0.003291
1536000,0.0324,0.013523,0.002678,0.000431,0.000940
1537000,0.0324,0.013523,0.002678,0.000431,0.014456
1538000,0.0324,0.013523,0.002678,0.000431,0.589286
1539000,0.0324,0.013523,0.002678,0.000431,0.570482
1540000,0.0324,0.013523,0.002678,0.000431,0.132102
1541000,0.0324,0.013523,0.002678,0.000431,0.134922
1542000,0.0324,0.013523,0.002678,0.000431,0.527819
1543000,0.0324,0.013523,0.002678,0.000431,0.234704
1544000,0.0324,0.013523,0.002678,0.000431,0.276309
1545000,0.0324,0.013523,0.002678,0.000431,0.273606
1546000,0.0324,0.013523,0.002678,0.000431,0.141034
1547000,0.0324,0.013523,0.002678,0.000431,0.190513
1548000,0.0324,0.013523,0.002678,0.000431,0.090614
1549000,0.0324,0.013523,0.002678,0.000431,0.508897
1550000,0.0324,0.013523,0.002678,0.000431,0.083445
1551000,0.0324,0.013523,0.002678,0.000431,0.042545
1552000,0.0324,0.013523,0.002678,0.000431,0.031850
1553000,0.0324,0.013523,0.002678,0.000431,0.026209
1554000,0.0324,0.013523,0.002678,0.000431,0.016689
1555000,0.0324,0.013523,0.002678,0.000431,0.015279
1556000,0.0324,0.013523,0.002678,0.000431,0.009050
1557000,0.0324,0.013523,0.002678,0.000431,0.006934
1558000,0.0324,0.013523,0.002678,0.000431,0.004584
1559000,0.0324,0.013523,0.002678,0.000431,0.005994
1560000,0.0324,0.013523,0.002678,0.000431,0.004466
1561000,0.0324,0.013523,0.002678,0.000431,0.002468
1562000,0.0324,0.013523,0.002678,0.000431,0.002821
1563000,0.0324,0.013523,0.002678,0.000431,0.003643
1564000,0.0324,0.013523,0.002678,0.000431,0.001410
1565000,0.0324,0.013523,0.002678,0.000431,0.001763
1566000,0.0324,0.013523,0.002678,0.000431,0.001763
1567000,0.0324,0.013523,0.002678,0.000431,0.001645
1568000,0.0324,0.013523,0.002678,0.000431,0.001410
1569000,0.0324,0.013523,0.002678,0.000431,0.001880
1570000,0.0324,0.013523,0.002678,0.000431,0.001645
1571000,0.0324,0.013523,0.002678,0.000431,0.020920
1572000,0.0324,0.013523,0.002678,0.000431,0.551677
1573000,0.0324,0.013523,0.002678,0.000431,0.578121
1574000,0.0324,0.013523,0.002678,0.000431,0.131397
1575000,0.0324,0.013523,0.002678,0.000431,0.134217
1576000,0.0324,0.013523,0.002678,0.000431,0.534166
1577000,0.0324,0.013523,0.002678,0.000431,0.232588
1578000,0.0324,0.013523,0.002678,0.000431,0.233528
1579000,0.0324,0.013523,0.002678,0.000431,0.301460
1580000,0.0324,0.013523,0.002678,0.000431,0.159133
1581000,0.0324,0.013523,0.002678,0.000431,0.148673
1582000,0.0324,0.013523,0.002678,0.000431,0.115648
1583000,0.0324,0.013523,0.002678,0.000431,0.439320
1584000,0.0324,0.013523,0.002678,0.000431,0.223304
1585000,0.0324,0.013523,0.002678,0.000431,0.080977
1586000,0.0324,0.013523,0.002678,0.000431,0.048774
1587000,0.0324,0.013523,0.002678,0.000431,0.040547
1588000,0.0324,0.013523,0.002678,0.000431,0.026326
1589000,0.0324,0.013523,0.002678,0.000431,0.021508
1590000,0.0324,0.013523,0.002678,0.000431,0.021038
1591000,0.0324,0.013523,0.002678,0.000431,0.013281
1592000,0.0324,0.013523,0.002678,0.000431,0.012223
1593000,0.0324,0.013523,0.002678,0.000431,0.007169
1594000,0.0324,0.013523,0.002678,0.000431,0.005876
1595000,0.0324,0.013523,0.002678,0.000431,0.003996
1596000,0.0324,0.013523,0.002678,0.000431,0.005171
1597000,0.0324,0.013523,0.002678,0.000431,0.003291
1598000,0.0324,0.013523,0.002678,0.000431,0.002821
1599000,0.0324,0.013523,0.002678,0.000431,0.002586
1600000,0.0324,0.013523,0.002678,0.000431,0.002586
1601000,0.0324,0.013523,0.002678,0.000431,0.002586
1602000,0.0324,0.013523,0.002678,0.000431,0.004584
1603000,0.0324,0.013523,0.002678,0.000431,0.001645
1604000,0.0324,0.013523,0.002678,0.000431,0.001645
1605000,0.0324,0.013523,0.002678,0.000431,0.001880
1606000,0.0324,0.013523,0.002678,0.000431,0.001880
1607000,0.0324,0.013523,0.002678,0.000431,0.001528
1608000,0.0324,0.013523,0.002678,0.000431,0.003526
1609000,0.0324,0.013523,0.002678,0.000431,0.000940
1610000,0.0324,0.013523,0.002678,0.000431,0.000940
1611000,0.0324,0.013523,0.002678,0.000431,0.000823
1612000,0.0324,0.013523,0.002678,0.000431,0.000823
1613000,0.0324,0.013523,0.002678,0.000431,0.000940
1614000,0.0324,0.013523,0.002678,0.000431,0.000823
1615000,0.0324,0.013523,0.002678,0.000431,0.000940
1616000,0.0324,0.013523,0.002678,0.000431,0.000823
1617000,0.0324,0.013523,0.002678,0.000431,0.000940
1618000,0.0324,0.013523,0.002678,0.000431,0.000940
1619000,0.0324,0.013523,0.002678,0.000431,0.094610
1620000,0.0324,0.013523,0.002678,0.000431,0.638178
1621000,0.0324,0.013523,0.002678,0.000431,0.500082
1622000,0.0324,0.013523,0.002678,0.000431,0.135392
1623000,0.0324,0.013523,0.002678,0.000431,0.134922
1624000,0.0324,0.013523,0.002678,0.000431,0.563078
1625000,0.0324,0.013523,0.002678,0.000431,0.227535
1626000,0.0324,0.013523,0.002678,0.000431,0.302988
1627000,0.0324,0.013523,0.002678,0.000431,0.225654
1628000,0.0324,0.013523,0.002678,0.000431,0.151729
1629000,0.0324,0.013523,0.002678,0.000431,0.140681
1630000,0.0324,0.013523,0.002678,0.000431,0.239757
1631000,0.0324,0.013523,0.002678,0.000431,0.404414
1632000,0.0324,0.013523,0.002678,0.000431,0.085561
1633000,0.0324,0.013523,0.002678,0.000431,0.064288
1634000,0.0324,0.013523,0.002678,0.000431,0.052300
1635000,0.0324,0.013523,0.002678,0.000431,0.041958
1636000,0.0324,0.013523,0.002678,0.000431,0.029852
1637000,0.0324,0.013523,0.002678,0.000431,0.014456
1638000,0.0324,0.013523,0.002678,0.000431,0.014103
1639000,0.0324,0.013523,0.002678,0.000431,0.007169
1640000,0.0324,0.013523,0.002678,0.000431,0.010813
1641000,0.0324,0.013523,0.002678,0.000431,0.007287
1642000,0.0324,0.013523,0.002678,0.000431,0.003408
1643000,0.0324,0.013523,0.002678,0.000431,0.003173
1644000,0.0324,0.013523,0.002678,0.000431,0.003526
1645000,0.0324,0.013523,0.002678,0.000431,0.003526
1646000,0.0324,0.013523,0.002678,0.000431,0.005054
1647000,0.0324,0.013523,0.002678,0.000431,0.002821
1648000,0.0324,0.013523,0.002678,0.000431,0.000940
1649000,0.0324,0.013523,0.002678,0.000431,0.000823
1650000,0.0324,0.013523,0.002678,0.000431,0.003173
1651000,0.0324,0.013523,0.002678,0.000431,0.505724
1652000,0.0324,0.013523,0.002678,0.000431,0.655337
1653000,0.0324,0.013523,0.002678,0.000431,0.135392
1654000,0.0324,0.013523,0.002678,0.000431,0.133512
1655000,0.0324,0.013523,0.002678,0.000431,0.536751
1656000,0.0324,0.013523,0.002678,0.000431,0.278189
1657000,0.0324,0.013523,0.002678,0.000431,0.270902
1658000,0.0324,0.013523,0.002678,0.000431,0.286416
1659000,0.0324,0.013523,0.002678,0.000431,0.148321
1660000,0.0324,0.013523,0.002678,0.000431,0.144795
1661000,0.0324,0.013523,0.002678,0.000431,0.219190
1662000,0.0324,0.013523,0.002678,0.000431,0.410996
1663000,0.0324,0.013523,0.002678,0.000431,0.067226
1664000,0.0324,0.013523,0.002678,0.000431,0.046659
1665000,0.0324,0.013523,0.002678,0.000431,0.038079
1666000,0.0324,0.013523,0.002678,0.000431,0.024563
1667000,0.0324,0.013523,0.002678,0.000431,0.026679
1668000,0.0324,0.013523,0.002678,0.000431,0.015161
1669000,0.0324,0.013523,0.002678,0.000431,0.010225
1670000,0.0324,0.013523,0.002678,0.000431,0.010460
1671000,0.0324,0.013523,0.002678,0.000431,0.008462
1672000,0.0324,0.013523,0.002678,0.000431,0.013516
1673000,0.0324,0.013523,0.002678,0.000431,0.004466
1674000,0.0324,0.013523,0.002678,0.000431,0.005054
1675000,0.0324,0.013523,0.002678,0.000431,0.004231
1676000,0.0324,0.013523,0.002678,0.000431,0.006111
1677000,0.0324,0.013523,0.002678,0.000431,0.003643
1678000,0.0324,0.013523,0.002678,0.000431,0.006111
1679000,0.0324,0.013523,0.002678,0.000431,0.001763
1680000,0.0324,0.013523,0.002678,0.000431,0.001645
1681000,0.0324,0.013523,0.002678,0.000431,0.001645
1682000,0.0324,0.013523,0.002678,0.000431,0.001645
1683000,0.0324,0.013523,0.002678,0.000431,0.001645
1684000,0.0324,0.013523,0.002678,0.000431,0.001880
1685000,0.0324,0.013523,0.002678,0.000431,0.001410
1686000,0.0324,0.013523,0.002678,0.000431,0.001645
1687000,0.0324,0.013523,0.002678,0.000431,0.001763
1688000,0.0324,0.013523,0.002678,0.000431,0.001763
1689000,0.0324,0.013523,0.002678,0.000431,0.017042
1690000,0.0324,0.013523,0.002678,0.000431,0.569542
1691000,0.0324,0.013523,0.002678,0.000431,0.578709
1692000,0.0324,0.013523,0.002678,0.000431,0.132572
1693000,0.0324,0.013523,0.002678,0.000431,0.133512
1694000,0.0324,0.013523,0.002678,0.000431,0.547211
1695000,0.0324,0.013523,0.002678,0.000431,0.234469
1696000,0.0324,0.013523,0.002678,0.000431,0.293350
1697000,0.0324,0.013523,0.002678,0.000431,0.294643
1698000,0.0324,0.013523,0.002678,0.000431,0.140681
1699000,0.0324,0.013523,0.002678,0.000431,0.168418
1700000,0.0324,0.013523,0.002678,0.000431,0.148556
1701000,0.0324,0.013523,0.002678,0.000431,0.470935
1702000,0.0324,0.013523,0.002678,0.000431,0.087088
1703000,0.0324,0.013523,0.002678,0.000431,0.072632
1704000,0.0324,0.013523,0.002678,0.000431,0.050302
1705000,0.0324,0.013523,0.002678,0.000431,0.040782
1706000,0.0324,0.013523,0.002678,0.000431,0.027149
1707000,0.0324,0.013523,0.002678,0.000431,0.025974
1708000,0.0324,0.013523,0.002678,0.000431,0.023036
1709000,0.0324,0.013523,0.002678,0.000431,0.016807
1710000,0.0324,0.013523,0.002678,0.000431,0.010930
1711000,0.0324,0.013523,0.002678,0.000431,0.011165
1712000,0.0324,0.013523,0.002678,0.000431,0.010460
1713000,0.0324,0.013523,0.002678,0.000431,0.006582
1714000,0.0324,0.013523,0.002678,0.000431,0.006817
1715000,0.0324,0.013523,0.002678,0.000431,0.008462
1716000,0.0324,0.013523,0.002678,0.000431,0.007287
1717000,0.0324,0.013523,0.002678,0.000431,0.002938
1718000,0.0324,0.013523,0.002678,0.000431,0.001763
1719000,0.0324,0.013523,0.002678,0.000431,0.001880
1720000,0.0324,0.013523,0.002678,0.000431,0.001763
1721000,0.0324,0.013523,0.002678,0.000431,0.001528
1722000,0.0324,0.013523,0.002678,0.000431,0.001880
1723000,0.0324,0.013523,0.002678,0.000431,0.001763
1724000,0.0324,0.013523,0.002678,0.000431,0.001880
1725000,0.0324,0.013523,0.002678,0.000431,0.001528
1726000,0.0324,0.013523,0.002678,0.000431,0.001880
1727000,0.0324,0.013523,0.002678,0.000431,0.001763
1728000,0.0324,0.013523,0.002678,0.000431,0.002586
1729000,0.0324,0.013523,0.002678,0.000431,0.000940
1730000,0.0324,0.013523,0.002678,0.000431,0.000940
1731000,0.0324,0.013523,0.002678,0.000431,0.000823
1732000,0.0324,0.013523,0.002678,0.000431,0.000823
1733000,0.0324,0.013523,0.002678,0.000431,0.000940
1734000,0.0324,0.013523,0.002678,0.000431,0.000940
1735000,0.0324,0.013523,0.002678,0.000431,0.000823
1736000,0.0324,0.013523,0.002678,0.000431,0.000823
1737000,0.0324,0.013523,0.002678,0.000431,0.000940
1738000,0.0324,0.013523,0.002678,0.000431,0.000940
1739000,0.0324,0.013523,0.002678,0.000431,0.000823
1740000,0.0324,0.013523,0.002678,0.000431,0.000823
1741000,0.0324,0.013523,0.002678,0.000431,0.000940
1742000,0.0324,0.013523,0.002678,0.000431,0.000940
1743000,0.0324,0.013523,0.002678,0.000431,0.144912
1744000,0.0324,0.013523,0.002678,0.000431,0.556966
1745000,0.0324,0.013523,0.002678,0.000431,0.510542
1746000,0.0324,0.013523,0.002678,0.000431,0.134570
1747000,0.0324,0.013523,0.002678,0.000431,0.133982
1748000,0.0324,0.013523,0.002678,0.000431,0.571069
1749000,0.0324,0.013523,0.002678,0.000431,0.224126
1750000,0.0324,0.013523,0.002678,0.000431,0.285593
1751000,0.0324,0.013523,0.002678,0.000431,0.257974
1752000,0.0324,0.013523,0.002678,0.000431,0.147498
1753000,0.0324,0.013523,0.002678,0.000431,0.164304
1754000,0.0324,0.013523,0.002678,0.000431,0.160308
1755000,0.0324,0.013523,0.002678,0.000431,0.456832
1756000,0.0324,0.013523,0.002678,0.000431,0.090144
1757000,0.0324,0.013523,0.002678,0.000431,0.071575
1758000,0.0324,0.013523,0.002678,0.000431,0.058059
1759000,0.0324,0.013523,0.002678,0.000431,0.041135
1760000,0.0324,0.013523,0.002678,0.000431,0.036081
1761000,0.0324,0.013523,0.002678,0.000431,0.022330
1762000,0.0324,0.013523,0.002678,0.000431,0.021390
1763000,0.0324,0.013523,0.002678,0.000431,0.009872
1764000,0.0324,0.013523,0.002678,0.000431,0.011165
1765000,0.0324,0.013523,0.002678,0.000431,0.005054
1766000,0.0324,0.013523,0.002678,0.000431,0.004936
1767000,0.0324,0.013523,0.002678,0.000431,0.004936
1768000,0.0324,0.013523,0.002678,0.000431,0.004819
1769000,0.0324,0.013523,0.002678,0.000431,0.004349
1770000,0.0324,0.013523,0.002678,0.000431,0.004466
1771000,0.0324,0.013523,0.002678,0.000431,0.004466
1772000,0.0324,0.013523,0.002678,0.000431,0.005994
1773000,0.0324,0.013523,0.002678,0.000431,0.003408
1774000,0.0324,0.013523,0.002678,0.000431,0.003408
1775000,0.0324,0.013523,0.002678,0.000431,0.003526
1776000,0.0324,0.013523,0.002678,0.000431,0.003173
1777000,0.0324,0.013523,0.002678,0.000431,0.003408
1778000,0.0324,0.013523,0.002678,0.000431,0.003761
1779000,0.0324,0.013523,0.002678,0.000431,0.003056
1780000,0.0324,0.013523,0.002678,0.000431,0.004819
1781000,0.0324,0.013523,0.002678,0.000431,0.004584
1782000,0.0324,0.013523,0.002678,0.000431,0.390546
1783000,0.0324,0.013523,0.002678,0.000431,0.702936
1784000,0.0324,0.013523,0.002678,0.000431,0.159721
1785000,0.0324,0.013523,0.002678,0.000431,0.133982
1786000,0.0324,0.013523,0.002678,0.000431,0.288414
1787000,0.0324,0.013523,0.002678,0.000431,0.450721
1788000,0.0324,0.013523,0.002678,0.000431,0.237054
1789000,0.0324,0.013523,0.002678,0.000431,0.348118
1790000,0.0324,0.013523,0.002678,0.000431,0.151259
1791000,0.0324,0.013523,0.002678,0.000431,0.152081
1792000,0.0324,0.013523,0.002678,0.000431,0.113532
1793000,0.0324,0.013523,0.002678,0.000431,0.434149
1794000,0.0324,0.013523,0.002678,0.000431,0.232471
1795000,0.0324,0.013523,0.002678,0.000431,0.065346
1796000,0.0324,0.013523,0.002678,0.000431,0.057471
1797000,0.0324,0.013523,0.002678,0.000431,0.040547
1798000,0.0324,0.013523,0.002678,0.000431,0.027502
1799000,0.0324,0.013523,0.002678,0.000431,0.018922
1800000,0.0324,0.013523,0.002678,0.000431,0.024798
1801000,0.0324,0.013523,0.002678,0.000431,0.016571
1802000,0.0324,0.013523,0.002678,0.000431,0.014926
1803000,0.0324,0.013523,0.002678,0.000431,0.011400
1804000,0.0324,0.013523,0.002678,0.000431,0.008815
1805000,0.0324,0.013523,0.002678,0.000431,0.005406
1806000,0.0324,0.013523,0.002678,0.000431,0.004584
1807000,0.0324,0.013523,0.002678,0.000431,0.005054
1808000,0.0324,0.013523,0.002678,0.000431,0.000940
1809000,0.0324,0.013523,0.002678,0.000431,0.000705
1810000,0.0324,0.013523,0.002678,0.000431,0.000940
1811000,0.0324,0.013523,0.002678,0.000431,0.000940
1812000,0.0324,0.013523,0.002678,0.000431,0.000823
1813000,0.0324,0.013523,0.002678,0.000431,0.000823
1814000,0.0324,0.013523,0.002678,0.000431,0.000940
1815000,0.0324,0.013523,0.002678,0.000431,0.000940
1816000,0.0324,0.013523,0.002678,0.000431,0.000823
1817000,0.0324,0.013523,0.002678,0.000431,0.000823
1818000,0.0324,0.013523,0.002678,0.000431,0.000940
1819000,0.0324,0.013523,0.002678,0.000431,0.000823
1820000,0.0324,0.013523,0.002678,0.000431,0.000940
1821000,0.0324,0.013523,0.002678,0.000431,0.000823
1822000,0.0324,0.013523,0.002678,0.000431,0.071105
1823000,0.0324,0.013523,0.002678,0.000431,0.569894
1824000,0.0324,0.013523,0.002678,0.000431,0.570834
1825000,0.0324,0.013523,0.002678,0.000431,0.133512
1826000,0.0324,0.013523,0.002678,0.000431,0.138683
1827000,0.0324,0.013523,0.002678,0.000431,0.620666
1828000,0.0324,0.013523,0.002678,0.000431,0.268434
1829000,0.0324,0.013523,0.002678,0.000431,0.291000
1830000,0.0324,0.013523,0.002678,0.000431,0.196037
1831000,0.0324,0.013523,0.002678,0.000431,0.153139
1832000,0.0324,0.013523,0.002678,0.000431,0.124815
1833000,0.0324,0.013523,0.002678,0.000431,0.441906
1834000,0.0324,0.013523,0.002678,0.000431,0.218485
1835000,0.0324,0.013523,0.002678,0.000431,0.080742
1836000,0.0324,0.013523,0.002678,0.000431,0.061232
1837000,0.0324,0.013523,0.002678,0.000431,0.038902
1838000,0.0324,0.013523,0.002678,0.000431,0.034788
1839000,0.0324,0.013523,0.002678,0.000431,0.033966
1840000,0.0324,0.013523,0.002678,0.000431,0.021978
1841000,0.0324,0.013523,0.002678,0.000431,0.013281
1842000,0.0324,0.013523,0.002678,0.000431,0.014691
1843000,0.0324,0.013523,0.002678,0.000431,0.010225
1844000,0.0324,0.013523,0.002678,0.000431,0.011870
1845000,0.0324,0.013523,0.002678,0.000431,0.007757
1846000,0.0324,0.013523,0.002678,0.000431,0.004349
1847000,0.0324,0.013523,0.002678,0.000431,0.004113
1848000,0.0324,0.013523,0.002678,0.000431,0.005524
1849000,0.0324,0.013523,0.002678,0.000431,0.003056
1850000,0.0324,0.013523,0.002678,0.000431,0.000940
1851000,0.0324,0.013523,0.002678,0.000431,0.000940
1852000,0.0324,0.013523,0.002678,0.000431,0.000823
1853000,0.0324,0.013523,0.002678,0.000431,0.000823
1854000,0.0324,0.013523,0.002678,0.000431,0.000940
1855000,0.0324,0.013523,0.002678,0.000431,0.000940
1856000,0.0324,0.013523,0.002678,0.000431,0.000823
1857000,0.0324,0.013523,0.002678,0.000431,0.000823
1858000,0.0324,0.013523,0.002678,0.000431,0.000940
1859000,0.0324,0.013523,0.002678,0.000431,0.000823
1860000,0.0324,0.013523,0.002678,0.000431,0.000940
1861000,0.0324,0.013523,0.002678,0.000431,0.000823
1862000,0.0324,0.013523,0.002678,0.000431,0.000940
1863000,0.0324,0.013523,0.002678,0.000431,0.000823
1864000,0.0324,0.013523,0.002678,0.000431,0.000823
1865000,0.0324,0.013523,0.002678,0.000431,0.000940
1866000,0.0324,0.013523,0.002678,0.000431,0.000940
1867000,0.0324,0.013523,0.002678,0.000431,0.000823
1868000,0.0324,0.013523,0.002678,0.000431,0.000823
1869000,0.0324,0.013523,0.002678,0.000431,0.001763
1870000,0.0324,0.013523,0.002678,0.000431,0.393367
1871000,0.0324,0.013523,0.002678,0.000431,0.737959
1872000,0.0324,0.013523,0.002678,0.000431,0.145147
1873000,0.0324,0.013523,0.002678,0.000431,0.134452
1874000,0.0324,0.013523,0.002678,0.000431,0.244459
1875000,0.0324,0.013523,0.002678,0.000431,0.485509
1876000,0.0324,0.013523,0.002678,0.000431,0.245869
1877000,0.0324,0.013523,0.002678,0.000431,0.319912
1878000,0.0324,0.013523,0.002678,0.000431,0.163129
1879000,0.0324,0.013523,0.002678,0.000431,0.141621
1880000,0.0324,0.013523,0.002678,0.000431,0.137861
1881000,0.0324,0.013523,0.002678,0.000431,0.321205
1882000,0.0324,0.013523,0.002678,0.000431,0.289119
1883000,0.0324,0.013523,0.002678,0.000431,0.046894
1884000,0.0324,0.013523,0.002678,0.000431,0.037962
1885000,0.0324,0.013523,0.002678,0.000431,0.028794
1886000,0.0324,0.013523,0.002678,0.000431,0.020215
1887000,0.0324,0.013523,0.002678,0.000431,0.013281
1888000,0.0324,0.013523,0.002678,0.000431,0.011635
1889000,0.0324,0.013523,0.002678,0.000431,0.008815
1890000,0.0324,0.013523,0.002678,0.000431,0.006347
1891000,0.0324,0.013523,0.002678,0.000431,0.005876
1892000,0.0324,0.013523,0.002678,0.000431,0.006582
1893000,0.0324,0.013523,0.002678,0.000431,0.007522
1894000,0.0324,0.013523,0.002678,0.000431,0.006464
1895000,0.0324,0.013523,0.002678,0.000431,0.005641
1896000,0.0324,0.013523,0.002678,0.000431,0.004584
1897000,0.0324,0.013523,0.002678,0.000431,0.002351
1898000,0.0324,0.013523,0.002678,0.000431,0.000940
1899000,0.0324,0.013523,0.002678,0.000431,0.000940
1900000,0.0324,0.013523,0.002678,0.000431,0.204852
1901000,0.0324,0.013523,0.002678,0.000431,0.634770
1902000,0.0324,0.013523,0.002678,0.000431,0.334368
1903000,0.0324,0.013523,0.002678,0.000431,0.132102
1904000,0.0324,0.013523,0.002678,0.000431,0.133630
1905000,0.0324,0.013523,0.002678,0.000431,0.592930
1906000,0.0324,0.013523,0.002678,0.000431,0.226242
1907000,0.0324,0.013523,0.002678,0.000431,0.309804
1908000,0.0324,0.013523,0.002678,0.000431,0.251393
1909000,0.0324,0.013523,0.002678,0.000431,0.145617
1910000,0.0324,0.013523,0.002678,0.000431,0.152552
1911000,0.0324,0.013523,0.002678,0.000431,0.171121
1912000,0.0324,0.013523,0.002678,0.000431,0.458125
1913000,0.0324,0.013523,0.002678,0.000431,0.071810
1914000,0.0324,0.013523,0.002678,0.000431,0.049949
1915000,0.0324,0.013523,0.002678,0.000431,0.030087
1916000,0.0324,0.013523,0.002678,0.000431,0.024916
1917000,0.0324,0.013523,0.002678,0.000431,0.025034
1918000,0.0324,0.013523,0.002678,0.000431,0.017277
1919000,0.0324,0.013523,0.002678,0.000431,0.017512
1920000,0.0324,0.013523,0.002678,0.000431,0.009872
1921000,0.0324,0.013523,0.002678,0.000431,0.009167
1922000,0.0324,0.013523,0.002678,0.000431,0.009520
1923000,0.0324,0.013523,0.002678,0.000431,0.006699
1924000,0.0324,0.013523,0.002678,0.000431,0.005759
1925000,0.0324,0.013523,0.002678,0.000431,0.003526
1926000,0.0324,0.013523,0.002678,0.000431,0.004349
1927000,0.0324,0.013523,0.002678,0.000431,0.003761
1928000,0.0324,0.013523,0.002678,0.000431,0.002821
1929000,0.0324,0.013523,0.002678,0.000431,0.002468
1930000,0.0324,0.013523,0.002678,0.000431,0.002351
1931000,0.0324,0.013523,0.002678,0.000431,0.002703
1932000,0.0324,0.013523,0.002678,0.000431,0.002468
1933000,0.0324,0.013523,0.002678,0.000431,0.002586
1934000,0.0324,0.013523,0.002678,0.000431,0.002351
1935000,0.0324,0.013523,0.002678,0.000431,0.002703
1936000,0.0324,0.013523,0.002678,0.000431,0.002468
1937000,0.0324,0.013523,0.002678,0.000431,0.002586
1938000,0.0324,0.013523,0.002678,0.000431,0.002586
1939000,0.0324,0.013523,0.002678,0.000431,0.002468
1940000,0.0324,0.013523,0.002678,0.000431,0.005524
1941000,0.0324,0.013523,0.002678,0.000431,0.000940
1942000,0.0324,0.013523,0.002678,0.000431,0.000940
1943000,0.0324,0.013523,0.002678,0.000431,0.000823
1944000,0.0324,0.013523,0.002678,0.000431,0.000823
1945000,0.0324,0.013523,0.002678,0.000431,0.000940
1946000,0.0324,0.013523,0.002678,0.000431,0.000823
1947000,0.0324,0.013523,0.002678,0.000431,0.013633
1948000,0.0324,0.013523,0.002678,0.000431,0.554968
1949000,0.0324,0.013523,0.002678,0.000431,0.577769
1950000,0.0324,0.013523,0.002678,0.000431,0.134452
1951000,0.0324,0.013523,0.002678,0.000431,0.133982
1952000,0.0324,0.013523,0.002678,0.000431,0.508662
1953000,0.0324,0.013523,0.002678,0.000431,0.242461
1954000,0.0324,0.013523,0.002678,0.000431,0.264791
1955000,0.0324,0.013523,0.002678,0.000431,0.327786
1956000,0.0324,0.013523,0.002678,0.000431,0.144677
1957000,0.0324,0.013523,0.002678,0.000431,0.147145
1958000,0.0324,0.013523,0.002678,0.000431,0.111534
1959000,0.0324,0.013523,0.002678,0.000431,0.424394
1960000,0.0324,0.013523,0.002678,0.000431,0.213784
1961000,0.0324,0.013523,0.002678,0.000431,0.065698
1962000,0.0324,0.013523,0.002678,0.000431,0.039725
1963000,0.0324,0.013523,0.002678,0.000431,0.030440
1964000,0.0324,0.013523,0.002678,0.000431,0.027149
1965000,0.0324,0.013523,0.002678,0.000431,0.015396
1966000,0.0324,0.013523,0.002678,0.000431,0.013281
1967000,0.0324,0.013523,0.002678,0.000431,0.010225
1968000,0.0324,0.013523,0.002678,0.000431,0.005171
1969000,0.0324,0.013523,0.002678,0.000431,0.004701
1970000,0.0324,0.013523,0.002678,0.000431,0.007169
1971000,0.0324,0.013523,0.002678,0.000431,0.004819
1972000,0.0324,0.013523,0.002678,0.000431,0.002233
1973000,0.0324,0.013523,0.002678,0.000431,0.002703
1974000,0.0324,0.013523,0.002678,0.000431,0.000940
1975000,0.0324,0.013523,0.002678,0.000431,0.000823
1976000,0.0324,0.013523,0.002678,0.000431,0.002116
1977000,0.0324,0.013523,0.002678,0.000431,0.407353
1978000,0.0324,0.013523,0.002678,0.000431,0.698823
1979000,0.0324,0.013523,0.002678,0.000431,0.140094
1980000,0.0324,0.013523,0.002678,0.000431,0.134452
1981000,0.0324,0.013523,0.002678,0.000431,0.260795
1982000,0.0324,0.013523,0.002678,0.000431,0.465294
1983000,0.0324,0.013523,0.002678,0.000431,0.235291
1984000,0.0324,0.013523,0.002678,0.000431,0.306396
1985000,0.0324,0.013523,0.002678,0.000431,0.177820
1986000,0.0324,0.013523,0.002678,0.000431,0.142092
1987000,0.0324,0.013523,0.002678,0.000431,0.154902
1988000,0.0324,0.013523,0.002678,0.000431,0.237289
1989000,0.0324,0.013523,0.002678,0.000431,0.441906
1990000,0.0324,0.013523,0.002678,0.000431,0.125403
1991000,0.0324,0.013523,0.002678,0.000431,0.089909
1992000,0.0324,0.013523,0.002678,0.000431,0.079332
1993000,0.0324,0.013523,0.002678,0.000431,0.056531
1994000,0.0324,0.013523,0.002678,0.000431,0.038432
1995000,0.0324,0.013523,0.002678,0.000431,0.028559
1996000,0.0324,0.013523,0.002678,0.000431,0.028559
1997000,0.0324,0.013523,0.002678,0.000431,0.028089
1998000,0.0324,0.013523,0.002678,0.000431,0.016336
1999000,0.0324,0.013523,0.002678,0.000431,0.017042
