Cycle,Area(mm^2),PeakDynamic(W),SubthresholdLeakage(W),GateLeakage(W),RunTimeDynamic(W)
120000000,0.0324,0.013523,0.002678,0.000431,0.004349
120001000,0.0324,0.013523,0.002678,0.000431,0.001763
120002000,0.0324,0.013523,0.002678,0.000431,0.001645
120003000,0.0324,0.013523,0.002678,0.000431,0.001763
120004000,0.0324,0.013523,0.002678,0.000431,0.001645
120005000,0.0324,0.013523,0.002678,0.000431,0.001880
120006000,0.0324,0.013523,0.002678,0.000431,0.003291
120007000,0.0324,0.013523,0.002678,0.000431,0.001058
120008000,0.0324,0.013523,0.002678,0.000431,0.000823
120009000,0.0324,0.013523,0.002678,0.000431,0.000823
120010000,0.0324,0.013523,0.002678,0.000431,0.000940
120011000,0.0324,0.013523,0.002678,0.000431,0.000705
120012000,0.0324,0.013523,0.002678,0.000431,0.000940
120013000,0.0324,0.013523,0.002678,0.000431,0.007287
120014000,0.0324,0.013523,0.002678,0.000431,0.578121
120015000,0.0324,0.013523,0.002678,0.000431,0.660156
120016000,0.0324,0.013523,0.002678,0.000431,0.144442
120017000,0.0324,0.013523,0.002678,0.000431,0.136450
120018000,0.0324,0.013523,0.002678,0.000431,0.504666
120019000,0.0324,0.013523,0.002678,0.000431,0.284536
120020000,0.0324,0.013523,0.002678,0.000431,0.305456
120021000,0.0324,0.013523,0.002678,0.000431,0.318501
120022000,0.0324,0.013523,0.002678,0.000431,0.140094
120023000,0.0324,0.013523,0.002678,0.000431,0.153962
120024000,0.0324,0.013523,0.002678,0.000431,0.182639
120025000,0.0324,0.013523,0.002678,0.000431,0.488212
120026000,0.0324,0.013523,0.002678,0.000431,0.240110
120027000,0.0324,0.013523,0.002678,0.000431,0.199093
120028000,0.0324,0.013523,0.002678,0.000431,0.177820
120029000,0.0324,0.013523,0.002678,0.000431,0.179230
120030000,0.0324,0.013523,0.002678,0.000431,0.154550
120031000,0.0324,0.013523,0.002678,0.000431,0.132807
120032000,0.0324,0.013523,0.002678,0.000431,0.111887
120033000,0.0324,0.013523,0.002678,0.000431,0.105305
120034000,0.0324,0.013523,0.002678,0.000431,0.098841
120035000,0.0324,0.013523,0.002678,0.000431,0.097431
120036000,0.0324,0.013523,0.002678,0.000431,0.086266
120037000,0.0324,0.013523,0.002678,0.000431,0.072280
120038000,0.0324,0.013523,0.002678,0.000431,0.063700
120039000,0.0324,0.013523,0.002678,0.000431,0.054651
120040000,0.0324,0.013523,0.002678,0.000431,0.049127
120041000,0.0324,0.013523,0.002678,0.000431,0.041252
120042000,0.0324,0.013523,0.002678,0.000431,0.042075
120043000,0.0324,0.013523,0.002678,0.000431,0.032555
120044000,0.0324,0.013523,0.002678,0.000431,0.037374
120045000,0.0324,0.013523,0.002678,0.000431,0.035964
120046000,0.0324,0.013523,0.002678,0.000431,0.027267
120047000,0.0324,0.013523,0.002678,0.000431,0.027031
120048000,0.0324,0.013523,0.002678,0.000431,0.022330
120049000,0.0324,0.013523,0.002678,0.000431,0.016807
120050000,0.0324,0.013523,0.002678,0.000431,0.016336
120051000,0.0324,0.013523,0.002678,0.000431,0.019862
120052000,0.0324,0.013523,0.002678,0.000431,0.012458
120053000,0.0324,0.013523,0.002678,0.000431,0.016689
120054000,0.0324,0.013523,0.002678,0.000431,0.010225
120055000,0.0324,0.013523,0.002678,0.000431,0.007874
120056000,0.0324,0.013523,0.002678,0.000431,0.008109
120057000,0.0324,0.013523,0.002678,0.000431,0.007522
120058000,0.0324,0.013523,0.002678,0.000431,0.007757
120059000,0.0324,0.013523,0.002678,0.000431,0.008109
120060000,0.0324,0.013523,0.002678,0.000431,0.007757
120061000,0.0324,0.013523,0.002678,0.000431,0.010225
120062000,0.0324,0.013523,0.002678,0.000431,0.006582
120063000,0.0324,0.013523,0.002678,0.000431,0.007639
120064000,0.0324,0.013523,0.002678,0.000431,0.007639
120065000,0.0324,0.013523,0.002678,0.000431,0.004584
120066000,0.0324,0.013523,0.002678,0.000431,0.003996
120067000,0.0324,0.013523,0.002678,0.000431,0.002351
120068000,0.0324,0.013523,0.002678,0.000431,0.003643
120069000,0.0324,0.013523,0.002678,0.000431,0.002703
120070000,0.0324,0.013523,0.002678,0.000431,0.001763
120071000,0.0324,0.013523,0.002678,0.000431,0.004231
120072000,0.0324,0.013523,0.002678,0.000431,0.000940
120073000,0.0324,0.013523,0.002678,0.000431,0.000823
120074000,0.0324,0.013523,0.002678,0.000431,0.000823
120075000,0.0324,0.013523,0.002678,0.000431,0.000705
120076000,0.0324,0.013523,0.002678,0.000431,0.000940
120077000,0.0324,0.013523,0.002678,0.000431,0.000705
120078000,0.0324,0.013523,0.002678,0.000431,0.000940
120079000,0.0324,0.013523,0.002678,0.000431,0.000705
120080000,0.0324,0.013523,0.002678,0.000431,0.000940
120081000,0.0324,0.013523,0.002678,0.000431,0.004231
120082000,0.0324,0.013523,0.002678,0.000431,0.534048
120083000,0.0324,0.013523,0.002678,0.000431,0.733376
120084000,0.0324,0.013523,0.002678,0.000431,0.167360
120085000,0.0324,0.013523,0.002678,0.000431,0.132572
120086000,0.0324,0.013523,0.002678,0.000431,0.471993
120087000,0.0324,0.013523,0.002678,0.000431,0.349529
120088000,0.0324,0.013523,0.002678,0.000431,0.237289
120089000,0.0324,0.013523,0.002678,0.000431,0.287356
120090000,0.0324,0.013523,0.002678,0.000431,0.142914
120091000,0.0324,0.013523,0.002678,0.000431,0.162189
120092000,0.0324,0.013523,0.002678,0.000431,0.105540
120093000,0.0324,0.013523,0.002678,0.000431,0.481160
120094000,0.0324,0.013523,0.002678,0.000431,0.261265
120095000,0.0324,0.013523,0.002678,0.000431,0.179583
120096000,0.0324,0.013523,0.002678,0.000431,0.150906
120097000,0.0324,0.013523,0.002678,0.000431,0.147028
120098000,0.0324,0.013523,0.002678,0.000431,0.139153
120099000,0.0324,0.013523,0.002678,0.000431,0.117528
120100000,0.0324,0.013523,0.002678,0.000431,0.104130
120101000,0.0324,0.013523,0.002678,0.000431,0.097078
120102000,0.0324,0.013523,0.002678,0.000431,0.092025
120103000,0.0324,0.013523,0.002678,0.000431,0.083680
120104000,0.0324,0.013523,0.002678,0.000431,0.074043
120105000,0.0324,0.013523,0.002678,0.000431,0.067461
120106000,0.0324,0.013523,0.002678,0.000431,0.059587
120107000,0.0324,0.013523,0.002678,0.000431,0.056649
120108000,0.0324,0.013523,0.002678,0.000431,0.052418
120109000,0.0324,0.013523,0.002678,0.000431,0.045601
120110000,0.0324,0.013523,0.002678,0.000431,0.041958
120111000,0.0324,0.013523,0.002678,0.000431,0.049832
120112000,0.0324,0.013523,0.002678,0.000431,0.039725
120113000,0.0324,0.013523,0.002678,0.000431,0.037727
120114000,0.0324,0.013523,0.002678,0.000431,0.031498
120115000,0.0324,0.013523,0.002678,0.000431,0.033143
120116000,0.0324,0.013523,0.002678,0.000431,0.032673
120117000,0.0324,0.013523,0.002678,0.000431,0.030087
120118000,0.0324,0.013523,0.002678,0.000431,0.029147
120119000,0.0324,0.013523,0.002678,0.000431,0.027619
120120000,0.0324,0.013523,0.002678,0.000431,0.027384
120121000,0.0324,0.013523,0.002678,0.000431,0.027502
120122000,0.0324,0.013523,0.002678,0.000431,0.019745
120123000,0.0324,0.013523,0.002678,0.000431,0.022095
120124000,0.0324,0.013523,0.002678,0.000431,0.018805
120125000,0.0324,0.013523,0.002678,0.000431,0.022800
120126000,0.0324,0.013523,0.002678,0.000431,0.017394
120127000,0.0324,0.013523,0.002678,0.000431,0.017747
120128000,0.0324,0.013523,0.002678,0.000431,0.021860
120129000,0.0324,0.013523,0.002678,0.000431,0.018452
120130000,0.0324,0.013523,0.002678,0.000431,0.020332
120131000,0.0324,0.013523,0.002678,0.000431,0.010107
120132000,0.0324,0.013523,0.002678,0.000431,0.010695
120133000,0.0324,0.013523,0.002678,0.000431,0.011165
120134000,0.0324,0.013523,0.002678,0.000431,0.012223
120135000,0.0324,0.013523,0.002678,0.000431,0.012458
120136000,0.0324,0.013523,0.002678,0.000431,0.009050
120137000,0.0324,0.013523,0.002678,0.000431,0.008932
120138000,0.0324,0.013523,0.002678,0.000431,0.004466
120139000,0.0324,0.013523,0.002678,0.000431,0.003996
120140000,0.0324,0.013523,0.002678,0.000431,0.004701
120141000,0.0324,0.013523,0.002678,0.000431,0.005759
120142000,0.0324,0.013523,0.002678,0.000431,0.003173
120143000,0.0324,0.013523,0.002678,0.000431,0.003643
120144000,0.0324,0.013523,0.002678,0.000431,0.003291
120145000,0.0324,0.013523,0.002678,0.000431,0.003643
120146000,0.0324,0.013523,0.002678,0.000431,0.003291
120147000,0.0324,0.013523,0.002678,0.000431,0.003526
120148000,0.0324,0.013523,0.002678,0.000431,0.003643
120149000,0.0324,0.013523,0.002678,0.000431,0.003291
120150000,0.0324,0.013523,0.002678,0.000431,0.003526
120151000,0.0324,0.013523,0.002678,0.000431,0.003291
120152000,0.0324,0.013523,0.002678,0.000431,0.004349
120153000,0.0324,0.013523,0.002678,0.000431,0.002351
120154000,0.0324,0.013523,0.002678,0.000431,0.002468
120155000,0.0324,0.013523,0.002678,0.000431,0.002703
120156000,0.0324,0.013523,0.002678,0.000431,0.001880
120157000,0.0324,0.013523,0.002678,0.000431,0.001763
120158000,0.0324,0.013523,0.002678,0.000431,0.001763
120159000,0.0324,0.013523,0.002678,0.000431,0.001763
120160000,0.0324,0.013523,0.002678,0.000431,0.001763
120161000,0.0324,0.013523,0.002678,0.000431,0.001763
120162000,0.0324,0.013523,0.002678,0.000431,0.001645
120163000,0.0324,0.013523,0.002678,0.000431,0.001645
120164000,0.0324,0.013523,0.002678,0.000431,0.001880
120165000,0.0324,0.013523,0.002678,0.000431,0.003291
120166000,0.0324,0.013523,0.002678,0.000431,0.000940
120167000,0.0324,0.013523,0.002678,0.000431,0.000823
120168000,0.0324,0.013523,0.002678,0.000431,0.067109
120169000,0.0324,0.013523,0.002678,0.000431,0.647698
120170000,0.0324,0.013523,0.002678,0.000431,0.576711
120171000,0.0324,0.013523,0.002678,0.000431,0.157723
120172000,0.0324,0.013523,0.002678,0.000431,0.146205
120173000,0.0324,0.013523,0.002678,0.000431,0.603625
120174000,0.0324,0.013523,0.002678,0.000431,0.239993
120175000,0.0324,0.013523,0.002678,0.000431,0.336366
120176000,0.0324,0.013523,0.002678,0.000431,0.225537
120177000,0.0324,0.013523,0.002678,0.000431,0.159956
120178000,0.0324,0.013523,0.002678,0.000431,0.106128
120179000,0.0324,0.013523,0.002678,0.000431,0.456597
120180000,0.0324,0.013523,0.002678,0.000431,0.360106
120181000,0.0324,0.013523,0.002678,0.000431,0.235762
120182000,0.0324,0.013523,0.002678,0.000431,0.197330
120183000,0.0324,0.013523,0.002678,0.000431,0.190631
120184000,0.0324,0.013523,0.002678,0.000431,0.169123
120185000,0.0324,0.013523,0.002678,0.000431,0.134100
120186000,0.0324,0.013523,0.002678,0.000431,0.122934
120187000,0.0324,0.013523,0.002678,0.000431,0.100369
120188000,0.0324,0.013523,0.002678,0.000431,0.097431
120189000,0.0324,0.013523,0.002678,0.000431,0.088029
120190000,0.0324,0.013523,0.002678,0.000431,0.076276
120191000,0.0324,0.013523,0.002678,0.000431,0.070282
120192000,0.0324,0.013523,0.002678,0.000431,0.061350
120193000,0.0324,0.013523,0.002678,0.000431,0.056414
120194000,0.0324,0.013523,0.002678,0.000431,0.048422
120195000,0.0324,0.013523,0.002678,0.000431,0.036316
120196000,0.0324,0.013523,0.002678,0.000431,0.034201
120197000,0.0324,0.013523,0.002678,0.000431,0.032203
120198000,0.0324,0.013523,0.002678,0.000431,0.027267
120199000,0.0324,0.013523,0.002678,0.000431,0.038079
120200000,0.0324,0.013523,0.002678,0.000431,0.020685
120201000,0.0324,0.013523,0.002678,0.000431,0.026091
120202000,0.0324,0.013523,0.002678,0.000431,0.025974
120203000,0.0324,0.013523,0.002678,0.000431,0.014338
120204000,0.0324,0.013523,0.002678,0.000431,0.015161
120205000,0.0324,0.013523,0.002678,0.000431,0.017394
120206000,0.0324,0.013523,0.002678,0.000431,0.013633
120207000,0.0324,0.013523,0.002678,0.000431,0.011400
120208000,0.0324,0.013523,0.002678,0.000431,0.007992
120209000,0.0324,0.013523,0.002678,0.000431,0.011400
120210000,0.0324,0.013523,0.002678,0.000431,0.003761
120211000,0.0324,0.013523,0.002678,0.000431,0.005406
120212000,0.0324,0.013523,0.002678,0.000431,0.002586
120213000,0.0324,0.013523,0.002678,0.000431,0.002586
120214000,0.0324,0.013523,0.002678,0.000431,0.002938
120215000,0.0324,0.013523,0.002678,0.000431,0.002821
120216000,0.0324,0.013523,0.002678,0.000431,0.002703
120217000,0.0324,0.013523,0.002678,0.000431,0.002821
120218000,0.0324,0.013523,0.002678,0.000431,0.002703
120219000,0.0324,0.013523,0.002678,0.000431,0.002351
120220000,0.0324,0.013523,0.002678,0.000431,0.003056
120221000,0.0324,0.013523,0.002678,0.000431,0.003056
120222000,0.0324,0.013523,0.002678,0.000431,0.005406
120223000,0.0324,0.013523,0.002678,0.000431,0.002233
120224000,0.0324,0.013523,0.002678,0.000431,0.001998
120225000,0.0324,0.013523,0.002678,0.000431,0.001880
120226000,0.0324,0.013523,0.002678,0.000431,0.003173
120227000,0.0324,0.013523,0.002678,0.000431,0.001175
120228000,0.0324,0.013523,0.002678,0.000431,0.000823
120229000,0.0324,0.013523,0.002678,0.000431,0.001175
120230000,0.0324,0.013523,0.002678,0.000431,0.001175
120231000,0.0324,0.013523,0.002678,0.000431,0.000823
120232000,0.0324,0.013523,0.002678,0.000431,0.001410
120233000,0.0324,0.013523,0.002678,0.000431,0.000823
120234000,0.0324,0.013523,0.002678,0.000431,0.001175
120235000,0.0324,0.013523,0.002678,0.000431,0.000940
120236000,0.0324,0.013523,0.002678,0.000431,0.000823
120237000,0.0324,0.013523,0.002678,0.000431,0.001058
120238000,0.0324,0.013523,0.002678,0.000431,0.000940
120239000,0.0324,0.013523,0.002678,0.000431,0.001175
120240000,0.0324,0.013523,0.002678,0.000431,0.000705
120241000,0.0324,0.013523,0.002678,0.000431,0.001175
120242000,0.0324,0.013523,0.002678,0.000431,0.001175
120243000,0.0324,0.013523,0.002678,0.000431,0.001058
120244000,0.0324,0.013523,0.002678,0.000431,0.000940
120245000,0.0324,0.013523,0.002678,0.000431,0.000823
120246000,0.0324,0.013523,0.002678,0.000431,0.001175
120247000,0.0324,0.013523,0.002678,0.000431,0.000940
120248000,0.0324,0.013523,0.002678,0.000431,0.001058
120249000,0.0324,0.013523,0.002678,0.000431,0.000823
120250000,0.0324,0.013523,0.002678,0.000431,0.000940
120251000,0.0324,0.013523,0.002678,0.000431,0.001175
120252000,0.0324,0.013523,0.002678,0.000431,0.141504
120253000,0.0324,0.013523,0.002678,0.000431,0.760407
120254000,0.0324,0.013523,0.002678,0.000431,0.559199
120255000,0.0324,0.013523,0.002678,0.000431,0.137038
120256000,0.0324,0.013523,0.002678,0.000431,0.218955
120257000,0.0324,0.013523,0.002678,0.000431,0.585055
120258000,0.0324,0.013523,0.002678,0.000431,0.242108
120259000,0.0324,0.013523,0.002678,0.000431,0.378323
120260000,0.0324,0.013523,0.002678,0.000431,0.144442
120261000,0.0324,0.013523,0.002678,0.000431,0.160543
120262000,0.0324,0.013523,0.002678,0.000431,0.137155
120263000,0.0324,0.013523,0.002678,0.000431,0.508780
120264000,0.0324,0.013523,0.002678,0.000431,0.243401
120265000,0.0324,0.013523,0.002678,0.000431,0.181111
120266000,0.0324,0.013523,0.002678,0.000431,0.163482
120267000,0.0324,0.013523,0.002678,0.000431,0.135392
120268000,0.0324,0.013523,0.002678,0.000431,0.121642
120269000,0.0324,0.013523,0.002678,0.000431,0.127283
120270000,0.0324,0.013523,0.002678,0.000431,0.103777
120271000,0.0324,0.013523,0.002678,0.000431,0.079449
120272000,0.0324,0.013523,0.002678,0.000431,0.069577
120273000,0.0324,0.013523,0.002678,0.000431,0.064170
120274000,0.0324,0.013523,0.002678,0.000431,0.062643
120275000,0.0324,0.013523,0.002678,0.000431,0.058764
120276000,0.0324,0.013523,0.002678,0.000431,0.045483
120277000,0.0324,0.013523,0.002678,0.000431,0.037374
120278000,0.0324,0.013523,0.002678,0.000431,0.042193
120279000,0.0324,0.013523,0.002678,0.000431,0.028324
120280000,0.0324,0.013523,0.002678,0.000431,0.036199
120281000,0.0324,0.013523,0.002678,0.000431,0.027619
120282000,0.0324,0.013523,0.002678,0.000431,0.029382
120283000,0.0324,0.013523,0.002678,0.000431,0.026444
120284000,0.0324,0.013523,0.002678,0.000431,0.017629
120285000,0.0324,0.013523,0.002678,0.000431,0.016101
120286000,0.0324,0.013523,0.002678,0.000431,0.013751
120287000,0.0324,0.013523,0.002678,0.000431,0.016454
120288000,0.0324,0.013523,0.002678,0.000431,0.014691
120289000,0.0324,0.013523,0.002678,0.000431,0.014103
120290000,0.0324,0.013523,0.002678,0.000431,0.007169
120291000,0.0324,0.013523,0.002678,0.000431,0.011870
120292000,0.0324,0.013523,0.002678,0.000431,0.004231
120293000,0.0324,0.013523,0.002678,0.000431,0.003408
120294000,0.0324,0.013523,0.002678,0.000431,0.003408
120295000,0.0324,0.013523,0.002678,0.000431,0.004819
120296000,0.0324,0.013523,0.002678,0.000431,0.005641
120297000,0.0324,0.013523,0.002678,0.000431,0.001645
120298000,0.0324,0.013523,0.002678,0.000431,0.001645
120299000,0.0324,0.013523,0.002678,0.000431,0.001645
120300000,0.0324,0.013523,0.002678,0.000431,0.001763
120301000,0.0324,0.013523,0.002678,0.000431,0.001528
120302000,0.0324,0.013523,0.002678,0.000431,0.001880
120303000,0.0324,0.013523,0.002678,0.000431,0.002586
120304000,0.0324,0.013523,0.002678,0.000431,0.002233
120305000,0.0324,0.013523,0.002678,0.000431,0.000940
120306000,0.0324,0.013523,0.002678,0.000431,0.000705
120307000,0.0324,0.013523,0.002678,0.000431,0.000940
120308000,0.0324,0.013523,0.002678,0.000431,0.000705
120309000,0.0324,0.013523,0.002678,0.000431,0.000940
120310000,0.0324,0.013523,0.002678,0.000431,0.000823
120311000,0.0324,0.013523,0.002678,0.000431,0.000823
120312000,0.0324,0.013523,0.002678,0.000431,0.000940
120313000,0.0324,0.013523,0.002678,0.000431,0.000705
120314000,0.0324,0.013523,0.002678,0.000431,0.000940
120315000,0.0324,0.013523,0.002678,0.000431,0.000823
120316000,0.0324,0.013523,0.002678,0.000431,0.000823
120317000,0.0324,0.013523,0.002678,0.000431,0.000823
120318000,0.0324,0.013523,0.002678,0.000431,0.000823
120319000,0.0324,0.013523,0.002678,0.000431,0.000940
120320000,0.0324,0.013523,0.002678,0.000431,0.000705
120321000,0.0324,0.013523,0.002678,0.000431,0.000940
120322000,0.0324,0.013523,0.002678,0.000431,0.000705
120323000,0.0324,0.013523,0.002678,0.000431,0.000940
120324000,0.0324,0.013523,0.002678,0.000431,0.000823
120325000,0.0324,0.013523,0.002678,0.000431,0.000823
120326000,0.0324,0.013523,0.002678,0.000431,0.000823
120327000,0.0324,0.013523,0.002678,0.000431,0.000823
120328000,0.0324,0.013523,0.002678,0.000431,0.000940
120329000,0.0324,0.013523,0.002678,0.000431,0.000705
120330000,0.0324,0.013523,0.002678,0.000431,0.245516
120331000,0.0324,0.013523,0.002678,0.000431,0.697177
120332000,0.0324,0.013523,0.002678,0.000431,0.479162
120333000,0.0324,0.013523,0.002678,0.000431,0.145030
120334000,0.0324,0.013523,0.002678,0.000431,0.200621
120335000,0.0324,0.013523,0.002678,0.000431,0.596456
120336000,0.0324,0.013523,0.002678,0.000431,0.274898
120337000,0.0324,0.013523,0.002678,0.000431,0.333075
120338000,0.0324,0.013523,0.002678,0.000431,0.161014
120339000,0.0324,0.013523,0.002678,0.000431,0.163834
120340000,0.0324,0.013523,0.002678,0.000431,0.103425
120341000,0.0324,0.013523,0.002678,0.000431,0.464236
120342000,0.0324,0.013523,0.002678,0.000431,0.275133
120343000,0.0324,0.013523,0.002678,0.000431,0.168300
120344000,0.0324,0.013523,0.002678,0.000431,0.154785
120345000,0.0324,0.013523,0.002678,0.000431,0.131984
120346000,0.0324,0.013523,0.002678,0.000431,0.106598
120347000,0.0324,0.013523,0.002678,0.000431,0.100016
120348000,0.0324,0.013523,0.002678,0.000431,0.092260
120349000,0.0324,0.013523,0.002678,0.000431,0.074278
120350000,0.0324,0.013523,0.002678,0.000431,0.066756
120351000,0.0324,0.013523,0.002678,0.000431,0.066051
120352000,0.0324,0.013523,0.002678,0.000431,0.061585
120353000,0.0324,0.013523,0.002678,0.000431,0.047011
120354000,0.0324,0.013523,0.002678,0.000431,0.045013
120355000,0.0324,0.013523,0.002678,0.000431,0.044543
120356000,0.0324,0.013523,0.002678,0.000431,0.038667
120357000,0.0324,0.013523,0.002678,0.000431,0.039842
120358000,0.0324,0.013523,0.002678,0.000431,0.032320
120359000,0.0324,0.013523,0.002678,0.000431,0.026326
120360000,0.0324,0.013523,0.002678,0.000431,0.026914
120361000,0.0324,0.013523,0.002678,0.000431,0.029265
120362000,0.0324,0.013523,0.002678,0.000431,0.021743
120363000,0.0324,0.013523,0.002678,0.000431,0.023741
120364000,0.0324,0.013523,0.002678,0.000431,0.025269
120365000,0.0324,0.013523,0.002678,0.000431,0.023036
120366000,0.0324,0.013523,0.002678,0.000431,0.019510
120367000,0.0324,0.013523,0.002678,0.000431,0.019157
120368000,0.0324,0.013523,0.002678,0.000431,0.013163
120369000,0.0324,0.013523,0.002678,0.000431,0.013281
120370000,0.0324,0.013523,0.002678,0.000431,0.016219
120371000,0.0324,0.013523,0.002678,0.000431,0.014103
120372000,0.0324,0.013523,0.002678,0.000431,0.010695
120373000,0.0324,0.013523,0.002678,0.000431,0.014103
120374000,0.0324,0.013523,0.002678,0.000431,0.009637
120375000,0.0324,0.013523,0.002678,0.000431,0.009637
120376000,0.0324,0.013523,0.002678,0.000431,0.007404
120377000,0.0324,0.013523,0.002678,0.000431,0.010695
120378000,0.0324,0.013523,0.002678,0.000431,0.006111
120379000,0.0324,0.013523,0.002678,0.000431,0.006817
120380000,0.0324,0.013523,0.002678,0.000431,0.006817
120381000,0.0324,0.013523,0.002678,0.000431,0.006229
120382000,0.0324,0.013523,0.002678,0.000431,0.011518
120383000,0.0324,0.013523,0.002678,0.000431,0.007169
120384000,0.0324,0.013523,0.002678,0.000431,0.004349
120385000,0.0324,0.013523,0.002678,0.000431,0.003878
120386000,0.0324,0.013523,0.002678,0.000431,0.003878
120387000,0.0324,0.013523,0.002678,0.000431,0.003996
120388000,0.0324,0.013523,0.002678,0.000431,0.004113
120389000,0.0324,0.013523,0.002678,0.000431,0.003291
120390000,0.0324,0.013523,0.002678,0.000431,0.009990
120391000,0.0324,0.013523,0.002678,0.000431,0.002586
120392000,0.0324,0.013523,0.002678,0.000431,0.002233
120393000,0.0324,0.013523,0.002678,0.000431,0.002703
120394000,0.0324,0.013523,0.002678,0.000431,0.002233
120395000,0.0324,0.013523,0.002678,0.000431,0.002468
120396000,0.0324,0.013523,0.002678,0.000431,0.002233
120397000,0.0324,0.013523,0.002678,0.000431,0.002586
120398000,0.0324,0.013523,0.002678,0.000431,0.002703
120399000,0.0324,0.013523,0.002678,0.000431,0.001880
120400000,0.0324,0.013523,0.002678,0.000431,0.002821
120401000,0.0324,0.013523,0.002678,0.000431,0.002233
120402000,0.0324,0.013523,0.002678,0.000431,0.002468
120403000,0.0324,0.013523,0.002678,0.000431,0.002586
120404000,0.0324,0.013523,0.002678,0.000431,0.004231
120405000,0.0324,0.013523,0.002678,0.000431,0.000940
120406000,0.0324,0.013523,0.002678,0.000431,0.000823
120407000,0.0324,0.013523,0.002678,0.000431,0.000823
120408000,0.0324,0.013523,0.002678,0.000431,0.000940
120409000,0.0324,0.013523,0.002678,0.000431,0.000705
120410000,0.0324,0.013523,0.002678,0.000431,0.000705
120411000,0.0324,0.013523,0.002678,0.000431,0.000823
120412000,0.0324,0.013523,0.002678,0.000431,0.000940
120413000,0.0324,0.013523,0.002678,0.000431,0.000823
120414000,0.0324,0.013523,0.002678,0.000431,0.000823
120415000,0.0324,0.013523,0.002678,0.000431,0.000823
120416000,0.0324,0.013523,0.002678,0.000431,0.000823
120417000,0.0324,0.013523,0.002678,0.000431,0.000823
120418000,0.0324,0.013523,0.002678,0.000431,0.000940
120419000,0.0324,0.013523,0.002678,0.000431,0.000705
120420000,0.0324,0.013523,0.002678,0.000431,0.000823
120421000,0.0324,0.013523,0.002678,0.000431,0.000940
120422000,0.0324,0.013523,0.002678,0.000431,0.072867
120423000,0.0324,0.013523,0.002678,0.000431,0.663564
120424000,0.0324,0.013523,0.002678,0.000431,0.588816
120425000,0.0324,0.013523,0.002678,0.000431,0.142209
120426000,0.0324,0.013523,0.002678,0.000431,0.138096
120427000,0.0324,0.013523,0.002678,0.000431,0.626778
120428000,0.0324,0.013523,0.002678,0.000431,0.254331
120429000,0.0324,0.013523,0.002678,0.000431,0.269257
120430000,0.0324,0.013523,0.002678,0.000431,0.242343
120431000,0.0324,0.013523,0.002678,0.000431,0.146793
120432000,0.0324,0.013523,0.002678,0.000431,0.164069
120433000,0.0324,0.013523,0.002678,0.000431,0.161484
120434000,0.0324,0.013523,0.002678,0.000431,0.499965
120435000,0.0324,0.013523,0.002678,0.000431,0.195919
120436000,0.0324,0.013523,0.002678,0.000431,0.155960
120437000,0.0324,0.013523,0.002678,0.000431,0.151376
120438000,0.0324,0.013523,0.002678,0.000431,0.137743
120439000,0.0324,0.013523,0.002678,0.000431,0.127753
120440000,0.0324,0.013523,0.002678,0.000431,0.110124
120441000,0.0324,0.013523,0.002678,0.000431,0.095433
120442000,0.0324,0.013523,0.002678,0.000431,0.090732
120443000,0.0324,0.013523,0.002678,0.000431,0.088029
120444000,0.0324,0.013523,0.002678,0.000431,0.068401
120445000,0.0324,0.013523,0.002678,0.000431,0.072280
120446000,0.0324,0.013523,0.002678,0.000431,0.053123
120447000,0.0324,0.013523,0.002678,0.000431,0.054533
120448000,0.0324,0.013523,0.002678,0.000431,0.042075
120449000,0.0324,0.013523,0.002678,0.000431,0.040782
120450000,0.0324,0.013523,0.002678,0.000431,0.036669
120451000,0.0324,0.013523,0.002678,0.000431,0.035729
120452000,0.0324,0.013523,0.002678,0.000431,0.028207
120453000,0.0324,0.013523,0.002678,0.000431,0.023623
120454000,0.0324,0.013523,0.002678,0.000431,0.022095
120455000,0.0324,0.013523,0.002678,0.000431,0.014338
120456000,0.0324,0.013523,0.002678,0.000431,0.013986
120457000,0.0324,0.013523,0.002678,0.000431,0.012811
120458000,0.0324,0.013523,0.002678,0.000431,0.011165
120459000,0.0324,0.013523,0.002678,0.000431,0.013633
120460000,0.0324,0.013523,0.002678,0.000431,0.006817
120461000,0.0324,0.013523,0.002678,0.000431,0.007169
120462000,0.0324,0.013523,0.002678,0.000431,0.004819
120463000,0.0324,0.013523,0.002678,0.000431,0.005171
120464000,0.0324,0.013523,0.002678,0.000431,0.004466
120465000,0.0324,0.013523,0.002678,0.000431,0.007052
120466000,0.0324,0.013523,0.002678,0.000431,0.005171
120467000,0.0324,0.013523,0.002678,0.000431,0.002351
120468000,0.0324,0.013523,0.002678,0.000431,0.002468
120469000,0.0324,0.013523,0.002678,0.000431,0.002351
120470000,0.0324,0.013523,0.002678,0.000431,0.002468
120471000,0.0324,0.013523,0.002678,0.000431,0.002586
120472000,0.0324,0.013523,0.002678,0.000431,0.001998
120473000,0.0324,0.013523,0.002678,0.000431,0.002468
120474000,0.0324,0.013523,0.002678,0.000431,0.002351
120475000,0.0324,0.013523,0.002678,0.000431,0.002468
120476000,0.0324,0.013523,0.002678,0.000431,0.002586
120477000,0.0324,0.013523,0.002678,0.000431,0.002233
120478000,0.0324,0.013523,0.002678,0.000431,0.004349
120479000,0.0324,0.013523,0.002678,0.000431,0.001175
120480000,0.0324,0.013523,0.002678,0.000431,0.001880
120481000,0.0324,0.013523,0.002678,0.000431,0.001410
120482000,0.0324,0.013523,0.002678,0.000431,0.001645
120483000,0.0324,0.013523,0.002678,0.000431,0.001880
120484000,0.0324,0.013523,0.002678,0.000431,0.001175
120485000,0.0324,0.013523,0.002678,0.000431,0.001880
120486000,0.0324,0.013523,0.002678,0.000431,0.001410
120487000,0.0324,0.013523,0.002678,0.000431,0.001645
120488000,0.0324,0.013523,0.002678,0.000431,0.001645
120489000,0.0324,0.013523,0.002678,0.000431,0.001410
120490000,0.0324,0.013523,0.002678,0.000431,0.210611
120491000,0.0324,0.013523,0.002678,0.000431,0.618316
120492000,0.0324,0.013523,0.002678,0.000431,0.528524
120493000,0.0324,0.013523,0.002678,0.000431,0.145382
120494000,0.0324,0.013523,0.002678,0.000431,0.165245
120495000,0.0324,0.013523,0.002678,0.000431,0.683661
120496000,0.0324,0.013523,0.002678,0.000431,0.258915
120497000,0.0324,0.013523,0.002678,0.000431,0.281598
120498000,0.0324,0.013523,0.002678,0.000431,0.188750
120499000,0.0324,0.013523,0.002678,0.000431,0.148203
120500000,0.0324,0.013523,0.002678,0.000431,0.114472
120501000,0.0324,0.013523,0.002678,0.000431,0.424747
120502000,0.0324,0.013523,0.002678,0.000431,0.320147
120503000,0.0324,0.013523,0.002678,0.000431,0.185459
120504000,0.0324,0.013523,0.002678,0.000431,0.149848
120505000,0.0324,0.013523,0.002678,0.000431,0.133747
120506000,0.0324,0.013523,0.002678,0.000431,0.121759
120507000,0.0324,0.013523,0.002678,0.000431,0.107303
120508000,0.0324,0.013523,0.002678,0.000431,0.101309
120509000,0.0324,0.013523,0.002678,0.000431,0.092142
120510000,0.0324,0.013523,0.002678,0.000431,0.082035
120511000,0.0324,0.013523,0.002678,0.000431,0.071340
120512000,0.0324,0.013523,0.002678,0.000431,0.066874
120513000,0.0324,0.013523,0.002678,0.000431,0.066756
120514000,0.0324,0.013523,0.002678,0.000431,0.057706
120515000,0.0324,0.013523,0.002678,0.000431,0.052300
120516000,0.0324,0.013523,0.002678,0.000431,0.053005
120517000,0.0324,0.013523,0.002678,0.000431,0.049244
120518000,0.0324,0.013523,0.002678,0.000431,0.040312
120519000,0.0324,0.013523,0.002678,0.000431,0.043368
120520000,0.0324,0.013523,0.002678,0.000431,0.042545
120521000,0.0324,0.013523,0.002678,0.000431,0.027149
120522000,0.0324,0.013523,0.002678,0.000431,0.026914
120523000,0.0324,0.013523,0.002678,0.000431,0.029265
120524000,0.0324,0.013523,0.002678,0.000431,0.026091
120525000,0.0324,0.013523,0.002678,0.000431,0.036434
120526000,0.0324,0.013523,0.002678,0.000431,0.021508
120527000,0.0324,0.013523,0.002678,0.000431,0.026796
120528000,0.0324,0.013523,0.002678,0.000431,0.020332
120529000,0.0324,0.013523,0.002678,0.000431,0.019862
120530000,0.0324,0.013523,0.002678,0.000431,0.024681
120531000,0.0324,0.013523,0.002678,0.000431,0.019157
120532000,0.0324,0.013523,0.002678,0.000431,0.017042
120533000,0.0324,0.013523,0.002678,0.000431,0.014338
120534000,0.0324,0.013523,0.002678,0.000431,0.014221
120535000,0.0324,0.013523,0.002678,0.000431,0.012811
120536000,0.0324,0.013523,0.002678,0.000431,0.014691
120537000,0.0324,0.013523,0.002678,0.000431,0.014573
120538000,0.0324,0.013523,0.002678,0.000431,0.021155
120539000,0.0324,0.013523,0.002678,0.000431,0.009402
120540000,0.0324,0.013523,0.002678,0.000431,0.009990
120541000,0.0324,0.013523,0.002678,0.000431,0.013516
120542000,0.0324,0.013523,0.002678,0.000431,0.006817
120543000,0.0324,0.013523,0.002678,0.000431,0.003878
120544000,0.0324,0.013523,0.002678,0.000431,0.005054
120545000,0.0324,0.013523,0.002678,0.000431,0.001645
120546000,0.0324,0.013523,0.002678,0.000431,0.001763
120547000,0.0324,0.013523,0.002678,0.000431,0.004113
120548000,0.0324,0.013523,0.002678,0.000431,0.000940
120549000,0.0324,0.013523,0.002678,0.000431,0.000823
120550000,0.0324,0.013523,0.002678,0.000431,0.000823
120551000,0.0324,0.013523,0.002678,0.000431,0.000823
120552000,0.0324,0.013523,0.002678,0.000431,0.000823
120553000,0.0324,0.013523,0.002678,0.000431,0.000705
120554000,0.0324,0.013523,0.002678,0.000431,0.001058
120555000,0.0324,0.013523,0.002678,0.000431,0.000823
120556000,0.0324,0.013523,0.002678,0.000431,0.000940
120557000,0.0324,0.013523,0.002678,0.000431,0.000823
120558000,0.0324,0.013523,0.002678,0.000431,0.000823
120559000,0.0324,0.013523,0.002678,0.000431,0.000940
120560000,0.0324,0.013523,0.002678,0.000431,0.000823
120561000,0.0324,0.013523,0.002678,0.000431,0.000823
120562000,0.0324,0.013523,0.002678,0.000431,0.000823
120563000,0.0324,0.013523,0.002678,0.000431,0.000823
120564000,0.0324,0.013523,0.002678,0.000431,0.000940
120565000,0.0324,0.013523,0.002678,0.000431,0.000705
120566000,0.0324,0.013523,0.002678,0.000431,0.000823
120567000,0.0324,0.013523,0.002678,0.000431,0.000940
120568000,0.0324,0.013523,0.002678,0.000431,0.000823
120569000,0.0324,0.013523,0.002678,0.000431,0.000940
120570000,0.0324,0.013523,0.002678,0.000431,0.000823
120571000,0.0324,0.013523,0.002678,0.000431,0.000823
120572000,0.0324,0.013523,0.002678,0.000431,0.000940
120573000,0.0324,0.013523,0.002678,0.000431,0.000940
120574000,0.0324,0.013523,0.002678,0.000431,0.000705
120575000,0.0324,0.013523,0.002678,0.000431,0.000823
120576000,0.0324,0.013523,0.002678,0.000431,0.250688
120577000,0.0324,0.013523,0.002678,0.000431,0.712456
120578000,0.0324,0.013523,0.002678,0.000431,0.429448
120579000,0.0324,0.013523,0.002678,0.000431,0.132102
120580000,0.0324,0.013523,0.002678,0.000431,0.212021
120581000,0.0324,0.013523,0.002678,0.000431,0.618316
120582000,0.0324,0.013523,0.002678,0.000431,0.265261
120583000,0.0324,0.013523,0.002678,0.000431,0.334720
120584000,0.0324,0.013523,0.002678,0.000431,0.139741
120585000,0.0324,0.013523,0.002678,0.000431,0.163482
120586000,0.0324,0.013523,0.002678,0.000431,0.103542
120587000,0.0324,0.013523,0.002678,0.000431,0.491973
120588000,0.0324,0.013523,0.002678,0.000431,0.240345
120589000,0.0324,0.013523,0.002678,0.000431,0.167948
120590000,0.0324,0.013523,0.002678,0.000431,0.148908
120591000,0.0324,0.013523,0.002678,0.000431,0.132924
120592000,0.0324,0.013523,0.002678,0.000431,0.115765
120593000,0.0324,0.013523,0.002678,0.000431,0.097666
120594000,0.0324,0.013523,0.002678,0.000431,0.092965
120595000,0.0324,0.013523,0.002678,0.000431,0.088499
120596000,0.0324,0.013523,0.002678,0.000431,0.083563
120597000,0.0324,0.013523,0.002678,0.000431,0.077451
120598000,0.0324,0.013523,0.002678,0.000431,0.072397
120599000,0.0324,0.013523,0.002678,0.000431,0.067579
120600000,0.0324,0.013523,0.002678,0.000431,0.065111
120601000,0.0324,0.013523,0.002678,0.000431,0.043250
120602000,0.0324,0.013523,0.002678,0.000431,0.051830
120603000,0.0324,0.013523,0.002678,0.000431,0.042428
120604000,0.0324,0.013523,0.002678,0.000431,0.034436
120605000,0.0324,0.013523,0.002678,0.000431,0.025151
120606000,0.0324,0.013523,0.002678,0.000431,0.029735
120607000,0.0324,0.013523,0.002678,0.000431,0.027972
120608000,0.0324,0.013523,0.002678,0.000431,0.021390
120609000,0.0324,0.013523,0.002678,0.000431,0.021155
120610000,0.0324,0.013523,0.002678,0.000431,0.018334
120611000,0.0324,0.013523,0.002678,0.000431,0.020097
120612000,0.0324,0.013523,0.002678,0.000431,0.014221
120613000,0.0324,0.013523,0.002678,0.000431,0.015279
120614000,0.0324,0.013523,0.002678,0.000431,0.012223
120615000,0.0324,0.013523,0.002678,0.000431,0.012928
120616000,0.0324,0.013523,0.002678,0.000431,0.014103
120617000,0.0324,0.013523,0.002678,0.000431,0.015396
120618000,0.0324,0.013523,0.002678,0.000431,0.011753
120619000,0.0324,0.013523,0.002678,0.000431,0.006934
120620000,0.0324,0.013523,0.002678,0.000431,0.006582
120621000,0.0324,0.013523,0.002678,0.000431,0.006582
120622000,0.0324,0.013523,0.002678,0.000431,0.008697
120623000,0.0324,0.013523,0.002678,0.000431,0.011518
120624000,0.0324,0.013523,0.002678,0.000431,0.003996
120625000,0.0324,0.013523,0.002678,0.000431,0.006464
120626000,0.0324,0.013523,0.002678,0.000431,0.003643
120627000,0.0324,0.013523,0.002678,0.000431,0.003056
120628000,0.0324,0.013523,0.002678,0.000431,0.003173
120629000,0.0324,0.013523,0.002678,0.000431,0.003291
120630000,0.0324,0.013523,0.002678,0.000431,0.003291
120631000,0.0324,0.013523,0.002678,0.000431,0.003173
120632000,0.0324,0.013523,0.002678,0.000431,0.005054
120633000,0.0324,0.013523,0.002678,0.000431,0.002116
120634000,0.0324,0.013523,0.002678,0.000431,0.002468
120635000,0.0324,0.013523,0.002678,0.000431,0.002233
120636000,0.0324,0.013523,0.002678,0.000431,0.002233
120637000,0.0324,0.013523,0.002678,0.000431,0.002586
120638000,0.0324,0.013523,0.002678,0.000431,0.001998
120639000,0.0324,0.013523,0.002678,0.000431,0.002468
120640000,0.0324,0.013523,0.002678,0.000431,0.002468
120641000,0.0324,0.013523,0.002678,0.000431,0.001645
120642000,0.0324,0.013523,0.002678,0.000431,0.003291
120643000,0.0324,0.013523,0.002678,0.000431,0.002703
120644000,0.0324,0.013523,0.002678,0.000431,0.000823
120645000,0.0324,0.013523,0.002678,0.000431,0.000823
120646000,0.0324,0.013523,0.002678,0.000431,0.000940
120647000,0.0324,0.013523,0.002678,0.000431,0.000823
120648000,0.0324,0.013523,0.002678,0.000431,0.000823
120649000,0.0324,0.013523,0.002678,0.000431,0.000705
120650000,0.0324,0.013523,0.002678,0.000431,0.000940
120651000,0.0324,0.013523,0.002678,0.000431,0.000705
120652000,0.0324,0.013523,0.002678,0.000431,0.001880
120653000,0.0324,0.013523,0.002678,0.000431,0.476694
120654000,0.0324,0.013523,0.002678,0.000431,0.706462
120655000,0.0324,0.013523,0.002678,0.000431,0.200503
120656000,0.0324,0.013523,0.002678,0.000431,0.137390
120657000,0.0324,0.013523,0.002678,0.000431,0.232706
120658000,0.0324,0.013523,0.002678,0.000431,0.535341
120659000,0.0324,0.013523,0.002678,0.000431,0.276779
120660000,0.0324,0.013523,0.002678,0.000431,0.340832
120661000,0.0324,0.013523,0.002678,0.000431,0.165010
120662000,0.0324,0.013523,0.002678,0.000431,0.148673
120663000,0.0324,0.013523,0.002678,0.000431,0.112592
120664000,0.0324,0.013523,0.002678,0.000431,0.460123
120665000,0.0324,0.013523,0.002678,0.000431,0.332135
120666000,0.0324,0.013523,0.002678,0.000431,0.219778
120667000,0.0324,0.013523,0.002678,0.000431,0.195802
120668000,0.0324,0.013523,0.002678,0.000431,0.166420
120669000,0.0324,0.013523,0.002678,0.000431,0.146675
120670000,0.0324,0.013523,0.002678,0.000431,0.127518
120671000,0.0324,0.013523,0.002678,0.000431,0.110712
120672000,0.0324,0.013523,0.002678,0.000431,0.091319
120673000,0.0324,0.013523,0.002678,0.000431,0.084503
120674000,0.0324,0.013523,0.002678,0.000431,0.062760
120675000,0.0324,0.013523,0.002678,0.000431,0.061467
120676000,0.0324,0.013523,0.002678,0.000431,0.052888
120677000,0.0324,0.013523,0.002678,0.000431,0.045954
120678000,0.0324,0.013523,0.002678,0.000431,0.035846
120679000,0.0324,0.013523,0.002678,0.000431,0.033025
120680000,0.0324,0.013523,0.002678,0.000431,0.026796
120681000,0.0324,0.013523,0.002678,0.000431,0.024093
120682000,0.0324,0.013523,0.002678,0.000431,0.029382
120683000,0.0324,0.013523,0.002678,0.000431,0.021625
120684000,0.0324,0.013523,0.002678,0.000431,0.022565
120685000,0.0324,0.013523,0.002678,0.000431,0.022800
120686000,0.0324,0.013523,0.002678,0.000431,0.012928
120687000,0.0324,0.013523,0.002678,0.000431,0.010225
120688000,0.0324,0.013523,0.002678,0.000431,0.013281
120689000,0.0324,0.013523,0.002678,0.000431,0.008815
120690000,0.0324,0.013523,0.002678,0.000431,0.011165
120691000,0.0324,0.013523,0.002678,0.000431,0.009755
120692000,0.0324,0.013523,0.002678,0.000431,0.007757
120693000,0.0324,0.013523,0.002678,0.000431,0.004936
120694000,0.0324,0.013523,0.002678,0.000431,0.008462
120695000,0.0324,0.013523,0.002678,0.000431,0.004231
120696000,0.0324,0.013523,0.002678,0.000431,0.004113
120697000,0.0324,0.013523,0.002678,0.000431,0.007287
120698000,0.0324,0.013523,0.002678,0.000431,0.003408
120699000,0.0324,0.013523,0.002678,0.000431,0.002703
120700000,0.0324,0.013523,0.002678,0.000431,0.004349
120701000,0.0324,0.013523,0.002678,0.000431,0.001880
120702000,0.0324,0.013523,0.002678,0.000431,0.001763
120703000,0.0324,0.013523,0.002678,0.000431,0.001763
120704000,0.0324,0.013523,0.002678,0.000431,0.004936
120705000,0.0324,0.013523,0.002678,0.000431,0.000823
120706000,0.0324,0.013523,0.002678,0.000431,0.000940
120707000,0.0324,0.013523,0.002678,0.000431,0.000823
120708000,0.0324,0.013523,0.002678,0.000431,0.000823
120709000,0.0324,0.013523,0.002678,0.000431,0.000705
120710000,0.0324,0.013523,0.002678,0.000431,0.000705
120711000,0.0324,0.013523,0.002678,0.000431,0.000940
120712000,0.0324,0.013523,0.002678,0.000431,0.000823
120713000,0.0324,0.013523,0.002678,0.000431,0.000823
120714000,0.0324,0.013523,0.002678,0.000431,0.000823
120715000,0.0324,0.013523,0.002678,0.000431,0.000823
120716000,0.0324,0.013523,0.002678,0.000431,0.000823
120717000,0.0324,0.013523,0.002678,0.000431,0.000823
120718000,0.0324,0.013523,0.002678,0.000431,0.000940
120719000,0.0324,0.013523,0.002678,0.000431,0.000823
120720000,0.0324,0.013523,0.002678,0.000431,0.000823
120721000,0.0324,0.013523,0.002678,0.000431,0.000705
120722000,0.0324,0.013523,0.002678,0.000431,0.000940
120723000,0.0324,0.013523,0.002678,0.000431,0.000940
120724000,0.0324,0.013523,0.002678,0.000431,0.000705
120725000,0.0324,0.013523,0.002678,0.000431,0.000940
120726000,0.0324,0.013523,0.002678,0.000431,0.000705
120727000,0.0324,0.013523,0.002678,0.000431,0.000940
120728000,0.0324,0.013523,0.002678,0.000431,0.000940
120729000,0.0324,0.013523,0.002678,0.000431,0.001880
120730000,0.0324,0.013523,0.002678,0.000431,0.517829
120731000,0.0324,0.013523,0.002678,0.000431,0.725501
120732000,0.0324,0.013523,0.002678,0.000431,0.224361
120733000,0.0324,0.013523,0.002678,0.000431,0.146910
120734000,0.0324,0.013523,0.002678,0.000431,0.438850
120735000,0.0324,0.013523,0.002678,0.000431,0.431211
120736000,0.0324,0.013523,0.002678,0.000431,0.248455
120737000,0.0324,0.013523,0.002678,0.000431,0.294526
120738000,0.0324,0.013523,0.002678,0.000431,0.153374
120739000,0.0324,0.013523,0.002678,0.000431,0.158546
120740000,0.0324,0.013523,0.002678,0.000431,0.195214
120741000,0.0324,0.013523,0.002678,0.000431,0.494676
120742000,0.0324,0.013523,0.002678,0.000431,0.229650
120743000,0.0324,0.013523,0.002678,0.000431,0.198035
120744000,0.0324,0.013523,0.002678,0.000431,0.172649
120745000,0.0324,0.013523,0.002678,0.000431,0.150671
120746000,0.0324,0.013523,0.002678,0.000431,0.140211
120747000,0.0324,0.013523,0.002678,0.000431,0.122582
120748000,0.0324,0.013523,0.002678,0.000431,0.113767
120749000,0.0324,0.013523,0.002678,0.000431,0.098724
120750000,0.0324,0.013523,0.002678,0.000431,0.100134
120751000,0.0324,0.013523,0.002678,0.000431,0.082622
120752000,0.0324,0.013523,0.002678,0.000431,0.069812
120753000,0.0324,0.013523,0.002678,0.000431,0.067109
120754000,0.0324,0.013523,0.002678,0.000431,0.064405
120755000,0.0324,0.013523,0.002678,0.000431,0.057706
120756000,0.0324,0.013523,0.002678,0.000431,0.040665
120757000,0.0324,0.013523,0.002678,0.000431,0.046659
120758000,0.0324,0.013523,0.002678,0.000431,0.036786
120759000,0.0324,0.013523,0.002678,0.000431,0.030557
120760000,0.0324,0.013523,0.002678,0.000431,0.033260
120761000,0.0324,0.013523,0.002678,0.000431,0.032555
120762000,0.0324,0.013523,0.002678,0.000431,0.025974
120763000,0.0324,0.013523,0.002678,0.000431,0.025621
120764000,0.0324,0.013523,0.002678,0.000431,0.019510
120765000,0.0324,0.013523,0.002678,0.000431,0.012340
120766000,0.0324,0.013523,0.002678,0.000431,0.017277
120767000,0.0324,0.013523,0.002678,0.000431,0.008462
120768000,0.0324,0.013523,0.002678,0.000431,0.008345
120769000,0.0324,0.013523,0.002678,0.000431,0.008345
120770000,0.0324,0.013523,0.002678,0.000431,0.008109
120771000,0.0324,0.013523,0.002678,0.000431,0.008815
120772000,0.0324,0.013523,0.002678,0.000431,0.008697
120773000,0.0324,0.013523,0.002678,0.000431,0.011283
120774000,0.0324,0.013523,0.002678,0.000431,0.006934
120775000,0.0324,0.013523,0.002678,0.000431,0.008462
120776000,0.0324,0.013523,0.002678,0.000431,0.009637
120777000,0.0324,0.013523,0.002678,0.000431,0.008109
120778000,0.0324,0.013523,0.002678,0.000431,0.004349
120779000,0.0324,0.013523,0.002678,0.000431,0.003996
120780000,0.0324,0.013523,0.002678,0.000431,0.006111
120781000,0.0324,0.013523,0.002678,0.000431,0.004584
120782000,0.0324,0.013523,0.002678,0.000431,0.002586
120783000,0.0324,0.013523,0.002678,0.000431,0.002821
120784000,0.0324,0.013523,0.002678,0.000431,0.002468
120785000,0.0324,0.013523,0.002678,0.000431,0.002233
120786000,0.0324,0.013523,0.002678,0.000431,0.001880
120787000,0.0324,0.013523,0.002678,0.000431,0.002821
120788000,0.0324,0.013523,0.002678,0.000431,0.000823
120789000,0.0324,0.013523,0.002678,0.000431,0.000940
120790000,0.0324,0.013523,0.002678,0.000431,0.136215
120791000,0.0324,0.013523,0.002678,0.000431,0.694592
120792000,0.0324,0.013523,0.002678,0.000431,0.544273
120793000,0.0324,0.013523,0.002678,0.000431,0.158546
120794000,0.0324,0.013523,0.002678,0.000431,0.157135
120795000,0.0324,0.013523,0.002678,0.000431,0.625838
120796000,0.0324,0.013523,0.002678,0.000431,0.250923
120797000,0.0324,0.013523,0.002678,0.000431,0.350116
120798000,0.0324,0.013523,0.002678,0.000431,0.200856
120799000,0.0324,0.013523,0.002678,0.000431,0.156077
120800000,0.0324,0.013523,0.002678,0.000431,0.111887
120801000,0.0324,0.013523,0.002678,0.000431,0.457537
120802000,0.0324,0.013523,0.002678,0.000431,0.268787
120803000,0.0324,0.013523,0.002678,0.000431,0.167243
120804000,0.0324,0.013523,0.002678,0.000431,0.135863
120805000,0.0324,0.013523,0.002678,0.000431,0.123757
120806000,0.0324,0.013523,0.002678,0.000431,0.103777
120807000,0.0324,0.013523,0.002678,0.000431,0.093082
120808000,0.0324,0.013523,0.002678,0.000431,0.082152
120809000,0.0324,0.013523,0.002678,0.000431,0.082975
120810000,0.0324,0.013523,0.002678,0.000431,0.061820
120811000,0.0324,0.013523,0.002678,0.000431,0.056766
120812000,0.0324,0.013523,0.002678,0.000431,0.050772
120813000,0.0324,0.013523,0.002678,0.000431,0.048422
120814000,0.0324,0.013523,0.002678,0.000431,0.033260
120815000,0.0324,0.013523,0.002678,0.000431,0.028794
120816000,0.0324,0.013523,0.002678,0.000431,0.029029
120817000,0.0324,0.013523,0.002678,0.000431,0.028442
120818000,0.0324,0.013523,0.002678,0.000431,0.022448
120819000,0.0324,0.013523,0.002678,0.000431,0.016219
120820000,0.0324,0.013523,0.002678,0.000431,0.018452
120821000,0.0324,0.013523,0.002678,0.000431,0.015866
120822000,0.0324,0.013523,0.002678,0.000431,0.015279
120823000,0.0324,0.013523,0.002678,0.000431,0.013868
120824000,0.0324,0.013523,0.002678,0.000431,0.009990
120825000,0.0324,0.013523,0.002678,0.000431,0.009050
120826000,0.0324,0.013523,0.002678,0.000431,0.011400
120827000,0.0324,0.013523,0.002678,0.000431,0.007874
120828000,0.0324,0.013523,0.002678,0.000431,0.006582
120829000,0.0324,0.013523,0.002678,0.000431,0.009167
120830000,0.0324,0.013523,0.002678,0.000431,0.003878
120831000,0.0324,0.013523,0.002678,0.000431,0.004349
120832000,0.0324,0.013523,0.002678,0.000431,0.004349
120833000,0.0324,0.013523,0.002678,0.000431,0.003526
120834000,0.0324,0.013523,0.002678,0.000431,0.005759
120835000,0.0324,0.013523,0.002678,0.000431,0.002703
120836000,0.0324,0.013523,0.002678,0.000431,0.003878
120837000,0.0324,0.013523,0.002678,0.000431,0.001645
120838000,0.0324,0.013523,0.002678,0.000431,0.001763
120839000,0.0324,0.013523,0.002678,0.000431,0.001645
120840000,0.0324,0.013523,0.002678,0.000431,0.004231
120841000,0.0324,0.013523,0.002678,0.000431,0.072045
120842000,0.0324,0.013523,0.002678,0.000431,0.687305
120843000,0.0324,0.013523,0.002678,0.000431,0.562725
120844000,0.0324,0.013523,0.002678,0.000431,0.149496
120845000,0.0324,0.013523,0.002678,0.000431,0.132219
120846000,0.0324,0.013523,0.002678,0.000431,0.601862
120847000,0.0324,0.013523,0.002678,0.000431,0.254801
120848000,0.0324,0.013523,0.002678,0.000431,0.296876
120849000,0.0324,0.013523,0.002678,0.000431,0.255389
120850000,0.0324,0.013523,0.002678,0.000431,0.141269
120851000,0.0324,0.013523,0.002678,0.000431,0.145500
120852000,0.0324,0.013523,0.002678,0.000431,0.241991
120853000,0.0324,0.013523,0.002678,0.000431,0.493618
120854000,0.0324,0.013523,0.002678,0.000431,0.188750
120855000,0.0324,0.013523,0.002678,0.000431,0.176997
120856000,0.0324,0.013523,0.002678,0.000431,0.142914
120857000,0.0324,0.013523,0.002678,0.000431,0.117411
120858000,0.0324,0.013523,0.002678,0.000431,0.108596
120859000,0.0324,0.013523,0.002678,0.000431,0.096021
120860000,0.0324,0.013523,0.002678,0.000431,0.090497
120861000,0.0324,0.013523,0.002678,0.000431,0.073925
120862000,0.0324,0.013523,0.002678,0.000431,0.076981
120863000,0.0324,0.013523,0.002678,0.000431,0.058059
120864000,0.0324,0.013523,0.002678,0.000431,0.064641
120865000,0.0324,0.013523,0.002678,0.000431,0.043485
120866000,0.0324,0.013523,0.002678,0.000431,0.043720
120867000,0.0324,0.013523,0.002678,0.000431,0.045013
120868000,0.0324,0.013523,0.002678,0.000431,0.027619
120869000,0.0324,0.013523,0.002678,0.000431,0.030205
120870000,0.0324,0.013523,0.002678,0.000431,0.021155
120871000,0.0324,0.013523,0.002678,0.000431,0.027737
120872000,0.0324,0.013523,0.002678,0.000431,0.024328
120873000,0.0324,0.013523,0.002678,0.000431,0.017512
120874000,0.0324,0.013523,0.002678,0.000431,0.017629
120875000,0.0324,0.013523,0.002678,0.000431,0.020215
120876000,0.0324,0.013523,0.002678,0.000431,0.016219
120877000,0.0324,0.013523,0.002678,0.000431,0.012458
120878000,0.0324,0.013523,0.002678,0.000431,0.011635
120879000,0.0324,0.013523,0.002678,0.000431,0.014338
120880000,0.0324,0.013523,0.002678,0.000431,0.011988
120881000,0.0324,0.013523,0.002678,0.000431,0.009285
120882000,0.0324,0.013523,0.002678,0.000431,0.011283
120883000,0.0324,0.013523,0.002678,0.000431,0.007287
120884000,0.0324,0.013523,0.002678,0.000431,0.009520
120885000,0.0324,0.013523,0.002678,0.000431,0.006111
120886000,0.0324,0.013523,0.002678,0.000431,0.004936
120887000,0.0324,0.013523,0.002678,0.000431,0.005524
120888000,0.0324,0.013523,0.002678,0.000431,0.009167
120889000,0.0324,0.013523,0.002678,0.000431,0.002821
120890000,0.0324,0.013523,0.002678,0.000431,0.005524
120891000,0.0324,0.013523,0.002678,0.000431,0.001763
120892000,0.0324,0.013523,0.002678,0.000431,0.001645
120893000,0.0324,0.013523,0.002678,0.000431,0.001645
120894000,0.0324,0.013523,0.002678,0.000431,0.001645
120895000,0.0324,0.013523,0.002678,0.000431,0.001763
120896000,0.0324,0.013523,0.002678,0.000431,0.001645
120897000,0.0324,0.013523,0.002678,0.000431,0.001763
120898000,0.0324,0.013523,0.002678,0.000431,0.001528
120899000,0.0324,0.013523,0.002678,0.000431,0.001880
120900000,0.0324,0.013523,0.002678,0.000431,0.001763
120901000,0.0324,0.013523,0.002678,0.000431,0.001528
120902000,0.0324,0.013523,0.002678,0.000431,0.001763
120903000,0.0324,0.013523,0.002678,0.000431,0.001528
120904000,0.0324,0.013523,0.002678,0.000431,0.001645
120905000,0.0324,0.013523,0.002678,0.000431,0.001645
120906000,0.0324,0.013523,0.002678,0.000431,0.001410
120907000,0.0324,0.013523,0.002678,0.000431,0.001645
120908000,0.0324,0.013523,0.002678,0.000431,0.001645
120909000,0.0324,0.013523,0.002678,0.000431,0.001645
120910000,0.0324,0.013523,0.002678,0.000431,0.001410
120911000,0.0324,0.013523,0.002678,0.000431,0.001645
120912000,0.0324,0.013523,0.002678,0.000431,0.001645
120913000,0.0324,0.013523,0.002678,0.000431,0.001645
120914000,0.0324,0.013523,0.002678,0.000431,0.001410
120915000,0.0324,0.013523,0.002678,0.000431,0.001645
120916000,0.0324,0.013523,0.002678,0.000431,0.001410
120917000,0.0324,0.013523,0.002678,0.000431,0.001645
120918000,0.0324,0.013523,0.002678,0.000431,0.001880
120919000,0.0324,0.013523,0.002678,0.000431,0.001175
120920000,0.0324,0.013523,0.002678,0.000431,0.001880
120921000,0.0324,0.013523,0.002678,0.000431,0.001293
120922000,0.0324,0.013523,0.002678,0.000431,0.001763
120923000,0.0324,0.013523,0.002678,0.000431,0.001880
120924000,0.0324,0.013523,0.002678,0.000431,0.001175
120925000,0.0324,0.013523,0.002678,0.000431,0.001880
120926000,0.0324,0.013523,0.002678,0.000431,0.001293
120927000,0.0324,0.013523,0.002678,0.000431,0.001763
120928000,0.0324,0.013523,0.002678,0.000431,0.001645
120929000,0.0324,0.013523,0.002678,0.000431,0.001410
120930000,0.0324,0.013523,0.002678,0.000431,0.001645
120931000,0.0324,0.013523,0.002678,0.000431,0.001528
120932000,0.0324,0.013523,0.002678,0.000431,0.001293
120933000,0.0324,0.013523,0.002678,0.000431,0.001645
120934000,0.0324,0.013523,0.002678,0.000431,0.001410
120935000,0.0324,0.013523,0.002678,0.000431,0.001645
120936000,0.0324,0.013523,0.002678,0.000431,0.001880
120937000,0.0324,0.013523,0.002678,0.000431,0.001175
120938000,0.0324,0.013523,0.002678,0.000431,0.001880
120939000,0.0324,0.013523,0.002678,0.000431,0.001293
120940000,0.0324,0.013523,0.002678,0.000431,0.001763
120941000,0.0324,0.013523,0.002678,0.000431,0.001880
120942000,0.0324,0.013523,0.002678,0.000431,0.001175
120943000,0.0324,0.013523,0.002678,0.000431,0.001880
120944000,0.0324,0.013523,0.002678,0.000431,0.001293
120945000,0.0324,0.013523,0.002678,0.000431,0.001763
120946000,0.0324,0.013523,0.002678,0.000431,0.001645
120947000,0.0324,0.013523,0.002678,0.000431,0.001410
120948000,0.0324,0.013523,0.002678,0.000431,0.001880
120949000,0.0324,0.013523,0.002678,0.000431,0.001293
120950000,0.0324,0.013523,0.002678,0.000431,0.001763
120951000,0.0324,0.013523,0.002678,0.000431,0.001645
120952000,0.0324,0.013523,0.002678,0.000431,0.001410
120953000,0.0324,0.013523,0.002678,0.000431,0.001645
120954000,0.0324,0.013523,0.002678,0.000431,0.001528
120955000,0.0324,0.013523,0.002678,0.000431,0.001528
120956000,0.0324,0.013523,0.002678,0.000431,0.016689
120957000,0.0324,0.013523,0.002678,0.000431,0.751005
120958000,0.0324,0.013523,0.002678,0.000431,0.551442
120959000,0.0324,0.013523,0.002678,0.000431,0.178878
120960000,0.0324,0.013523,0.002678,0.000431,0.150671
120961000,0.0324,0.013523,0.002678,0.000431,0.561785
120962000,0.0324,0.013523,0.002678,0.000431,0.252686
120963000,0.0324,0.013523,0.002678,0.000431,0.288414
120964000,0.0324,0.013523,0.002678,0.000431,0.251393
120965000,0.0324,0.013523,0.002678,0.000431,0.151024
120966000,0.0324,0.013523,0.002678,0.000431,0.128106
120967000,0.0324,0.013523,0.002678,0.000431,0.322615
120968000,0.0324,0.013523,0.002678,0.000431,0.426040
120969000,0.0324,0.013523,0.002678,0.000431,0.208495
120970000,0.0324,0.013523,0.002678,0.000431,0.183109
120971000,0.0324,0.013523,0.002678,0.000431,0.167830
120972000,0.0324,0.013523,0.002678,0.000431,0.163012
120973000,0.0324,0.013523,0.002678,0.000431,0.158663
120974000,0.0324,0.013523,0.002678,0.000431,0.131984
120975000,0.0324,0.013523,0.002678,0.000431,0.124697
120976000,0.0324,0.013523,0.002678,0.000431,0.106010
120977000,0.0324,0.013523,0.002678,0.000431,0.099781
120978000,0.0324,0.013523,0.002678,0.000431,0.083445
120979000,0.0324,0.013523,0.002678,0.000431,0.079332
120980000,0.0324,0.013523,0.002678,0.000431,0.080037
120981000,0.0324,0.013523,0.002678,0.000431,0.071340
120982000,0.0324,0.013523,0.002678,0.000431,0.058647
120983000,0.0324,0.013523,0.002678,0.000431,0.055826
120984000,0.0324,0.013523,0.002678,0.000431,0.043485
120985000,0.0324,0.013523,0.002678,0.000431,0.038432
120986000,0.0324,0.013523,0.002678,0.000431,0.030910
120987000,0.0324,0.013523,0.002678,0.000431,0.027854
120988000,0.0324,0.013523,0.002678,0.000431,0.025621
120989000,0.0324,0.013523,0.002678,0.000431,0.022330
120990000,0.0324,0.013523,0.002678,0.000431,0.021860
120991000,0.0324,0.013523,0.002678,0.000431,0.021625
120992000,0.0324,0.013523,0.002678,0.000431,0.016101
120993000,0.0324,0.013523,0.002678,0.000431,0.013986
120994000,0.0324,0.013523,0.002678,0.000431,0.010930
120995000,0.0324,0.013523,0.002678,0.000431,0.012811
120996000,0.0324,0.013523,0.002678,0.000431,0.011988
120997000,0.0324,0.013523,0.002678,0.000431,0.009285
120998000,0.0324,0.013523,0.002678,0.000431,0.008109
120999000,0.0324,0.013523,0.002678,0.000431,0.010107
