Cycle,Area(mm^2),PeakDynamic(W),SubthresholdLeakage(W),GateLeakage(W),RunTimeDynamic(W)
26000000,0.0324,0.013523,0.002678,0.000431,0.004231
26001000,0.0324,0.013523,0.002678,0.000431,0.004349
26002000,0.0324,0.013523,0.002678,0.000431,0.004231
26003000,0.0324,0.013523,0.002678,0.000431,0.004231
26004000,0.0324,0.013523,0.002678,0.000431,0.004466
26005000,0.0324,0.013523,0.002678,0.000431,0.004113
26006000,0.0324,0.013523,0.002678,0.000431,0.008932
26007000,0.0324,0.013523,0.002678,0.000431,0.002351
26008000,0.0324,0.013523,0.002678,0.000431,0.002586
26009000,0.0324,0.013523,0.002678,0.000431,0.002351
26010000,0.0324,0.013523,0.002678,0.000431,0.002586
26011000,0.0324,0.013523,0.002678,0.000431,0.002468
26012000,0.0324,0.013523,0.002678,0.000431,0.002468
26013000,0.0324,0.013523,0.002678,0.000431,0.002586
26014000,0.0324,0.013523,0.002678,0.000431,0.002233
26015000,0.0324,0.013523,0.002678,0.000431,0.005876
26016000,0.0324,0.013523,0.002678,0.000431,0.001645
26017000,0.0324,0.013523,0.002678,0.000431,0.001410
26018000,0.0324,0.013523,0.002678,0.000431,0.001410
26019000,0.0324,0.013523,0.002678,0.000431,0.073808
26020000,0.0324,0.013523,0.002678,0.000431,0.584233
26021000,0.0324,0.013523,0.002678,0.000431,0.581059
26022000,0.0324,0.013523,0.002678,0.000431,0.143972
26023000,0.0324,0.013523,0.002678,0.000431,0.136685
26024000,0.0324,0.013523,0.002678,0.000431,0.572362
26025000,0.0324,0.013523,0.002678,0.000431,0.243283
26026000,0.0324,0.013523,0.002678,0.000431,0.254096
26027000,0.0324,0.013523,0.002678,0.000431,0.294761
26028000,0.0324,0.013523,0.002678,0.000431,0.145735
26029000,0.0324,0.013523,0.002678,0.000431,0.168770
26030000,0.0324,0.013523,0.002678,0.000431,0.104247
26031000,0.0324,0.013523,0.002678,0.000431,0.467645
26032000,0.0324,0.013523,0.002678,0.000431,0.156548
26033000,0.0324,0.013523,0.002678,0.000431,0.103425
26034000,0.0324,0.013523,0.002678,0.000431,0.086501
26035000,0.0324,0.013523,0.002678,0.000431,0.076746
26036000,0.0324,0.013523,0.002678,0.000431,0.070634
26037000,0.0324,0.013523,0.002678,0.000431,0.055121
26038000,0.0324,0.013523,0.002678,0.000431,0.051595
26039000,0.0324,0.013523,0.002678,0.000431,0.044778
26040000,0.0324,0.013523,0.002678,0.000431,0.032555
26041000,0.0324,0.013523,0.002678,0.000431,0.030087
26042000,0.0324,0.013523,0.002678,0.000431,0.030792
26043000,0.0324,0.013523,0.002678,0.000431,0.025034
26044000,0.0324,0.013523,0.002678,0.000431,0.023036
26045000,0.0324,0.013523,0.002678,0.000431,0.017629
26046000,0.0324,0.013523,0.002678,0.000431,0.016219
26047000,0.0324,0.013523,0.002678,0.000431,0.011635
26048000,0.0324,0.013523,0.002678,0.000431,0.010342
26049000,0.0324,0.013523,0.002678,0.000431,0.009872
26050000,0.0324,0.013523,0.002678,0.000431,0.007404
26051000,0.0324,0.013523,0.002678,0.000431,0.004819
26052000,0.0324,0.013523,0.002678,0.000431,0.003056
26053000,0.0324,0.013523,0.002678,0.000431,0.005171
26054000,0.0324,0.013523,0.002678,0.000431,0.002468
26055000,0.0324,0.013523,0.002678,0.000431,0.002586
26056000,0.0324,0.013523,0.002678,0.000431,0.002468
26057000,0.0324,0.013523,0.002678,0.000431,0.002586
26058000,0.0324,0.013523,0.002678,0.000431,0.004349
26059000,0.0324,0.013523,0.002678,0.000431,0.001528
26060000,0.0324,0.013523,0.002678,0.000431,0.001763
26061000,0.0324,0.013523,0.002678,0.000431,0.001410
26062000,0.0324,0.013523,0.002678,0.000431,0.001880
26063000,0.0324,0.013523,0.002678,0.000431,0.001763
26064000,0.0324,0.013523,0.002678,0.000431,0.001528
26065000,0.0324,0.013523,0.002678,0.000431,0.001763
26066000,0.0324,0.013523,0.002678,0.000431,0.001528
26067000,0.0324,0.013523,0.002678,0.000431,0.001880
26068000,0.0324,0.013523,0.002678,0.000431,0.001410
26069000,0.0324,0.013523,0.002678,0.000431,0.001880
26070000,0.0324,0.013523,0.002678,0.000431,0.001528
26071000,0.0324,0.013523,0.002678,0.000431,0.004231
26072000,0.0324,0.013523,0.002678,0.000431,0.000940
26073000,0.0324,0.013523,0.002678,0.000431,0.000705
26074000,0.0324,0.013523,0.002678,0.000431,0.000940
26075000,0.0324,0.013523,0.002678,0.000431,0.000705
26076000,0.0324,0.013523,0.002678,0.000431,0.000940
26077000,0.0324,0.013523,0.002678,0.000431,0.000823
26078000,0.0324,0.013523,0.002678,0.000431,0.000823
26079000,0.0324,0.013523,0.002678,0.000431,0.000823
26080000,0.0324,0.013523,0.002678,0.000431,0.000823
26081000,0.0324,0.013523,0.002678,0.000431,0.070164
26082000,0.0324,0.013523,0.002678,0.000431,0.531933
26083000,0.0324,0.013523,0.002678,0.000431,0.604212
26084000,0.0324,0.013523,0.002678,0.000431,0.132337
26085000,0.0324,0.013523,0.002678,0.000431,0.133747
26086000,0.0324,0.013523,0.002678,0.000431,0.576711
26087000,0.0324,0.013523,0.002678,0.000431,0.267612
26088000,0.0324,0.013523,0.002678,0.000431,0.226007
26089000,0.0324,0.013523,0.002678,0.000431,0.295231
26090000,0.0324,0.013523,0.002678,0.000431,0.150554
26091000,0.0324,0.013523,0.002678,0.000431,0.144795
26092000,0.0324,0.013523,0.002678,0.000431,0.119644
26093000,0.0324,0.013523,0.002678,0.000431,0.406412
26094000,0.0324,0.013523,0.002678,0.000431,0.238582
26095000,0.0324,0.013523,0.002678,0.000431,0.129751
26096000,0.0324,0.013523,0.002678,0.000431,0.107421
26097000,0.0324,0.013523,0.002678,0.000431,0.092847
26098000,0.0324,0.013523,0.002678,0.000431,0.071692
26099000,0.0324,0.013523,0.002678,0.000431,0.064876
26100000,0.0324,0.013523,0.002678,0.000431,0.060997
26101000,0.0324,0.013523,0.002678,0.000431,0.041017
26102000,0.0324,0.013523,0.002678,0.000431,0.042428
26103000,0.0324,0.013523,0.002678,0.000431,0.030205
26104000,0.0324,0.013523,0.002678,0.000431,0.024798
26105000,0.0324,0.013523,0.002678,0.000431,0.024916
26106000,0.0324,0.013523,0.002678,0.000431,0.023271
26107000,0.0324,0.013523,0.002678,0.000431,0.016689
26108000,0.0324,0.013523,0.002678,0.000431,0.011988
26109000,0.0324,0.013523,0.002678,0.000431,0.012693
26110000,0.0324,0.013523,0.002678,0.000431,0.011048
26111000,0.0324,0.013523,0.002678,0.000431,0.013046
26112000,0.0324,0.013523,0.002678,0.000431,0.007874
26113000,0.0324,0.013523,0.002678,0.000431,0.007757
26114000,0.0324,0.013523,0.002678,0.000431,0.009990
26115000,0.0324,0.013523,0.002678,0.000431,0.007874
26116000,0.0324,0.013523,0.002678,0.000431,0.006229
26117000,0.0324,0.013523,0.002678,0.000431,0.007169
26118000,0.0324,0.013523,0.002678,0.000431,0.004936
26119000,0.0324,0.013523,0.002678,0.000431,0.006934
26120000,0.0324,0.013523,0.002678,0.000431,0.002468
26121000,0.0324,0.013523,0.002678,0.000431,0.002586
26122000,0.0324,0.013523,0.002678,0.000431,0.004113
26123000,0.0324,0.013523,0.002678,0.000431,0.001528
26124000,0.0324,0.013523,0.002678,0.000431,0.001880
26125000,0.0324,0.013523,0.002678,0.000431,0.002938
26126000,0.0324,0.013523,0.002678,0.000431,0.000940
26127000,0.0324,0.013523,0.002678,0.000431,0.000823
26128000,0.0324,0.013523,0.002678,0.000431,0.229062
26129000,0.0324,0.013523,0.002678,0.000431,0.681899
26130000,0.0324,0.013523,0.002678,0.000431,0.364925
26131000,0.0324,0.013523,0.002678,0.000431,0.131161
26132000,0.0324,0.013523,0.002678,0.000431,0.134922
26133000,0.0324,0.013523,0.002678,0.000431,0.570952
26134000,0.0324,0.013523,0.002678,0.000431,0.230355
26135000,0.0324,0.013523,0.002678,0.000431,0.280187
26136000,0.0324,0.013523,0.002678,0.000431,0.231883
26137000,0.0324,0.013523,0.002678,0.000431,0.146323
26138000,0.0324,0.013523,0.002678,0.000431,0.161719
26139000,0.0324,0.013523,0.002678,0.000431,0.112945
26140000,0.0324,0.013523,0.002678,0.000431,0.449075
26141000,0.0324,0.013523,0.002678,0.000431,0.169828
26142000,0.0324,0.013523,0.002678,0.000431,0.109301
26143000,0.0324,0.013523,0.002678,0.000431,0.093200
26144000,0.0324,0.013523,0.002678,0.000431,0.088734
26145000,0.0324,0.013523,0.002678,0.000431,0.078509
26146000,0.0324,0.013523,0.002678,0.000431,0.067226
26147000,0.0324,0.013523,0.002678,0.000431,0.049244
26148000,0.0324,0.013523,0.002678,0.000431,0.044661
26149000,0.0324,0.013523,0.002678,0.000431,0.041017
26150000,0.0324,0.013523,0.002678,0.000431,0.026679
26151000,0.0324,0.013523,0.002678,0.000431,0.023388
26152000,0.0324,0.013523,0.002678,0.000431,0.015514
26153000,0.0324,0.013523,0.002678,0.000431,0.015044
26154000,0.0324,0.013523,0.002678,0.000431,0.019745
26155000,0.0324,0.013523,0.002678,0.000431,0.012576
26156000,0.0324,0.013523,0.002678,0.000431,0.009520
26157000,0.0324,0.013523,0.002678,0.000431,0.009167
26158000,0.0324,0.013523,0.002678,0.000431,0.006464
26159000,0.0324,0.013523,0.002678,0.000431,0.005054
26160000,0.0324,0.013523,0.002678,0.000431,0.004701
26161000,0.0324,0.013523,0.002678,0.000431,0.003408
26162000,0.0324,0.013523,0.002678,0.000431,0.005171
26163000,0.0324,0.013523,0.002678,0.000431,0.003408
26164000,0.0324,0.013523,0.002678,0.000431,0.002821
26165000,0.0324,0.013523,0.002678,0.000431,0.001763
26166000,0.0324,0.013523,0.002678,0.000431,0.001763
26167000,0.0324,0.013523,0.002678,0.000431,0.003291
26168000,0.0324,0.013523,0.002678,0.000431,0.000823
26169000,0.0324,0.013523,0.002678,0.000431,0.000823
26170000,0.0324,0.013523,0.002678,0.000431,0.000940
26171000,0.0324,0.013523,0.002678,0.000431,0.000940
26172000,0.0324,0.013523,0.002678,0.000431,0.000823
26173000,0.0324,0.013523,0.002678,0.000431,0.000823
26174000,0.0324,0.013523,0.002678,0.000431,0.000940
26175000,0.0324,0.013523,0.002678,0.000431,0.000823
26176000,0.0324,0.013523,0.002678,0.000431,0.001058
26177000,0.0324,0.013523,0.002678,0.000431,0.251275
26178000,0.0324,0.013523,0.002678,0.000431,0.636180
26179000,0.0324,0.013523,0.002678,0.000431,0.367746
26180000,0.0324,0.013523,0.002678,0.000431,0.137155
26181000,0.0324,0.013523,0.002678,0.000431,0.151964
26182000,0.0324,0.013523,0.002678,0.000431,0.629834
26183000,0.0324,0.013523,0.002678,0.000431,0.264086
26184000,0.0324,0.013523,0.002678,0.000431,0.298404
26185000,0.0324,0.013523,0.002678,0.000431,0.215429
26186000,0.0324,0.013523,0.002678,0.000431,0.144677
26187000,0.0324,0.013523,0.002678,0.000431,0.130221
26188000,0.0324,0.013523,0.002678,0.000431,0.258209
26189000,0.0324,0.013523,0.002678,0.000431,0.377148
26190000,0.0324,0.013523,0.002678,0.000431,0.118116
26191000,0.0324,0.013523,0.002678,0.000431,0.103660
26192000,0.0324,0.013523,0.002678,0.000431,0.081212
26193000,0.0324,0.013523,0.002678,0.000431,0.057354
26194000,0.0324,0.013523,0.002678,0.000431,0.054063
26195000,0.0324,0.013523,0.002678,0.000431,0.054886
26196000,0.0324,0.013523,0.002678,0.000431,0.044661
26197000,0.0324,0.013523,0.002678,0.000431,0.035023
26198000,0.0324,0.013523,0.002678,0.000431,0.027854
26199000,0.0324,0.013523,0.002678,0.000431,0.026209
26200000,0.0324,0.013523,0.002678,0.000431,0.021625
26201000,0.0324,0.013523,0.002678,0.000431,0.023036
26202000,0.0324,0.013523,0.002678,0.000431,0.015749
26203000,0.0324,0.013523,0.002678,0.000431,0.010695
26204000,0.0324,0.013523,0.002678,0.000431,0.012928
26205000,0.0324,0.013523,0.002678,0.000431,0.011518
26206000,0.0324,0.013523,0.002678,0.000431,0.009755
26207000,0.0324,0.013523,0.002678,0.000431,0.010578
26208000,0.0324,0.013523,0.002678,0.000431,0.008462
26209000,0.0324,0.013523,0.002678,0.000431,0.011870
26210000,0.0324,0.013523,0.002678,0.000431,0.005289
26211000,0.0324,0.013523,0.002678,0.000431,0.000940
26212000,0.0324,0.013523,0.002678,0.000431,0.000940
26213000,0.0324,0.013523,0.002678,0.000431,0.000940
26214000,0.0324,0.013523,0.002678,0.000431,0.000705
26215000,0.0324,0.013523,0.002678,0.000431,0.000940
26216000,0.0324,0.013523,0.002678,0.000431,0.215899
26217000,0.0324,0.013523,0.002678,0.000431,0.579296
26218000,0.0324,0.013523,0.002678,0.000431,0.465059
26219000,0.0324,0.013523,0.002678,0.000431,0.133042
26220000,0.0324,0.013523,0.002678,0.000431,0.134217
26221000,0.0324,0.013523,0.002678,0.000431,0.603860
26222000,0.0324,0.013523,0.002678,0.000431,0.255154
26223000,0.0324,0.013523,0.002678,0.000431,0.282303
26224000,0.0324,0.013523,0.002678,0.000431,0.226829
26225000,0.0324,0.013523,0.002678,0.000431,0.146558
26226000,0.0324,0.013523,0.002678,0.000431,0.167948
26227000,0.0324,0.013523,0.002678,0.000431,0.142092
26228000,0.0324,0.013523,0.002678,0.000431,0.468232
26229000,0.0324,0.013523,0.002678,0.000431,0.159486
26230000,0.0324,0.013523,0.002678,0.000431,0.133982
26231000,0.0324,0.013523,0.002678,0.000431,0.101662
26232000,0.0324,0.013523,0.002678,0.000431,0.079567
26233000,0.0324,0.013523,0.002678,0.000431,0.068872
26234000,0.0324,0.013523,0.002678,0.000431,0.052653
26235000,0.0324,0.013523,0.002678,0.000431,0.043720
26236000,0.0324,0.013523,0.002678,0.000431,0.042663
26237000,0.0324,0.013523,0.002678,0.000431,0.035023
26238000,0.0324,0.013523,0.002678,0.000431,0.027502
26239000,0.0324,0.013523,0.002678,0.000431,0.026561
26240000,0.0324,0.013523,0.002678,0.000431,0.024211
26241000,0.0324,0.013523,0.002678,0.000431,0.022095
26242000,0.0324,0.013523,0.002678,0.000431,0.006229
26243000,0.0324,0.013523,0.002678,0.000431,0.008815
26244000,0.0324,0.013523,0.002678,0.000431,0.005054
26245000,0.0324,0.013523,0.002678,0.000431,0.005054
26246000,0.0324,0.013523,0.002678,0.000431,0.005406
26247000,0.0324,0.013523,0.002678,0.000431,0.008227
26248000,0.0324,0.013523,0.002678,0.000431,0.005994
26249000,0.0324,0.013523,0.002678,0.000431,0.002703
26250000,0.0324,0.013523,0.002678,0.000431,0.002586
26251000,0.0324,0.013523,0.002678,0.000431,0.003878
26252000,0.0324,0.013523,0.002678,0.000431,0.001763
26253000,0.0324,0.013523,0.002678,0.000431,0.001645
26254000,0.0324,0.013523,0.002678,0.000431,0.001763
26255000,0.0324,0.013523,0.002678,0.000431,0.001645
26256000,0.0324,0.013523,0.002678,0.000431,0.001645
26257000,0.0324,0.013523,0.002678,0.000431,0.001763
26258000,0.0324,0.013523,0.002678,0.000431,0.001645
26259000,0.0324,0.013523,0.002678,0.000431,0.001645
26260000,0.0324,0.013523,0.002678,0.000431,0.001645
26261000,0.0324,0.013523,0.002678,0.000431,0.001763
26262000,0.0324,0.013523,0.002678,0.000431,0.001763
26263000,0.0324,0.013523,0.002678,0.000431,0.001645
26264000,0.0324,0.013523,0.002678,0.000431,0.001645
26265000,0.0324,0.013523,0.002678,0.000431,0.001645
26266000,0.0324,0.013523,0.002678,0.000431,0.001645
26267000,0.0324,0.013523,0.002678,0.000431,0.001880
26268000,0.0324,0.013523,0.002678,0.000431,0.001528
26269000,0.0324,0.013523,0.002678,0.000431,0.001763
26270000,0.0324,0.013523,0.002678,0.000431,0.001645
26271000,0.0324,0.013523,0.002678,0.000431,0.001763
26272000,0.0324,0.013523,0.002678,0.000431,0.001645
26273000,0.0324,0.013523,0.002678,0.000431,0.001763
26274000,0.0324,0.013523,0.002678,0.000431,0.001645
26275000,0.0324,0.013523,0.002678,0.000431,0.001645
26276000,0.0324,0.013523,0.002678,0.000431,0.001763
26277000,0.0324,0.013523,0.002678,0.000431,0.001528
26278000,0.0324,0.013523,0.002678,0.000431,0.001880
26279000,0.0324,0.013523,0.002678,0.000431,0.001645
26280000,0.0324,0.013523,0.002678,0.000431,0.001645
26281000,0.0324,0.013523,0.002678,0.000431,0.001410
26282000,0.0324,0.013523,0.002678,0.000431,0.001645
26283000,0.0324,0.013523,0.002678,0.000431,0.001645
26284000,0.0324,0.013523,0.002678,0.000431,0.001410
26285000,0.0324,0.013523,0.002678,0.000431,0.001880
26286000,0.0324,0.013523,0.002678,0.000431,0.001175
26287000,0.0324,0.013523,0.002678,0.000431,0.001645
26288000,0.0324,0.013523,0.002678,0.000431,0.015161
26289000,0.0324,0.013523,0.002678,0.000431,0.607738
26290000,0.0324,0.013523,0.002678,0.000431,0.601979
26291000,0.0324,0.013523,0.002678,0.000431,0.142679
26292000,0.0324,0.013523,0.002678,0.000431,0.133042
26293000,0.0324,0.013523,0.002678,0.000431,0.529229
26294000,0.0324,0.013523,0.002678,0.000431,0.325083
26295000,0.0324,0.013523,0.002678,0.000431,0.247162
26296000,0.0324,0.013523,0.002678,0.000431,0.311802
26297000,0.0324,0.013523,0.002678,0.000431,0.146910
26298000,0.0324,0.013523,0.002678,0.000431,0.181111
26299000,0.0324,0.013523,0.002678,0.000431,0.085325
26300000,0.0324,0.013523,0.002678,0.000431,0.475401
26301000,0.0324,0.013523,0.002678,0.000431,0.159721
26302000,0.0324,0.013523,0.002678,0.000431,0.115648
26303000,0.0324,0.013523,0.002678,0.000431,0.105893
26304000,0.0324,0.013523,0.002678,0.000431,0.092260
26305000,0.0324,0.013523,0.002678,0.000431,0.083092
26306000,0.0324,0.013523,0.002678,0.000431,0.072632
26307000,0.0324,0.013523,0.002678,0.000431,0.060409
26308000,0.0324,0.013523,0.002678,0.000431,0.059352
26309000,0.0324,0.013523,0.002678,0.000431,0.050185
26310000,0.0324,0.013523,0.002678,0.000431,0.039137
26311000,0.0324,0.013523,0.002678,0.000431,0.041487
26312000,0.0324,0.013523,0.002678,0.000431,0.030910
26313000,0.0324,0.013523,0.002678,0.000431,0.032438
26314000,0.0324,0.013523,0.002678,0.000431,0.030792
26315000,0.0324,0.013523,0.002678,0.000431,0.026914
26316000,0.0324,0.013523,0.002678,0.000431,0.022330
26317000,0.0324,0.013523,0.002678,0.000431,0.020450
26318000,0.0324,0.013523,0.002678,0.000431,0.013516
26319000,0.0324,0.013523,0.002678,0.000431,0.011165
26320000,0.0324,0.013523,0.002678,0.000431,0.016571
26321000,0.0324,0.013523,0.002678,0.000431,0.009872
26322000,0.0324,0.013523,0.002678,0.000431,0.011870
26323000,0.0324,0.013523,0.002678,0.000431,0.009402
26324000,0.0324,0.013523,0.002678,0.000431,0.010460
26325000,0.0324,0.013523,0.002678,0.000431,0.007287
26326000,0.0324,0.013523,0.002678,0.000431,0.005524
26327000,0.0324,0.013523,0.002678,0.000431,0.006699
26328000,0.0324,0.013523,0.002678,0.000431,0.004584
26329000,0.0324,0.013523,0.002678,0.000431,0.004113
26330000,0.0324,0.013523,0.002678,0.000431,0.004466
26331000,0.0324,0.013523,0.002678,0.000431,0.004113
26332000,0.0324,0.013523,0.002678,0.000431,0.003526
26333000,0.0324,0.013523,0.002678,0.000431,0.003643
26334000,0.0324,0.013523,0.002678,0.000431,0.003761
26335000,0.0324,0.013523,0.002678,0.000431,0.007639
26336000,0.0324,0.013523,0.002678,0.000431,0.001998
26337000,0.0324,0.013523,0.002678,0.000431,0.001880
26338000,0.0324,0.013523,0.002678,0.000431,0.003996
26339000,0.0324,0.013523,0.002678,0.000431,0.001175
26340000,0.0324,0.013523,0.002678,0.000431,0.001293
26341000,0.0324,0.013523,0.002678,0.000431,0.000705
26342000,0.0324,0.013523,0.002678,0.000431,0.001293
26343000,0.0324,0.013523,0.002678,0.000431,0.001058
26344000,0.0324,0.013523,0.002678,0.000431,0.001293
26345000,0.0324,0.013523,0.002678,0.000431,0.001410
26346000,0.0324,0.013523,0.002678,0.000431,0.000940
26347000,0.0324,0.013523,0.002678,0.000431,0.000940
26348000,0.0324,0.013523,0.002678,0.000431,0.001528
26349000,0.0324,0.013523,0.002678,0.000431,0.058176
26350000,0.0324,0.013523,0.002678,0.000431,0.545918
26351000,0.0324,0.013523,0.002678,0.000431,0.600099
26352000,0.0324,0.013523,0.002678,0.000431,0.133394
26353000,0.0324,0.013523,0.002678,0.000431,0.132337
26354000,0.0324,0.013523,0.002678,0.000431,0.562137
26355000,0.0324,0.013523,0.002678,0.000431,0.234116
26356000,0.0324,0.013523,0.002678,0.000431,0.271960
26357000,0.0324,0.013523,0.002678,0.000431,0.306631
26358000,0.0324,0.013523,0.002678,0.000431,0.139859
26359000,0.0324,0.013523,0.002678,0.000431,0.160896
26360000,0.0324,0.013523,0.002678,0.000431,0.102367
26361000,0.0324,0.013523,0.002678,0.000431,0.457302
26362000,0.0324,0.013523,0.002678,0.000431,0.211081
26363000,0.0324,0.013523,0.002678,0.000431,0.127401
26364000,0.0324,0.013523,0.002678,0.000431,0.117293
26365000,0.0324,0.013523,0.002678,0.000431,0.100604
26366000,0.0324,0.013523,0.002678,0.000431,0.077334
26367000,0.0324,0.013523,0.002678,0.000431,0.061585
26368000,0.0324,0.013523,0.002678,0.000431,0.063935
26369000,0.0324,0.013523,0.002678,0.000431,0.047246
26370000,0.0324,0.013523,0.002678,0.000431,0.041252
26371000,0.0324,0.013523,0.002678,0.000431,0.035023
26372000,0.0324,0.013523,0.002678,0.000431,0.036786
26373000,0.0324,0.013523,0.002678,0.000431,0.027384
26374000,0.0324,0.013523,0.002678,0.000431,0.021978
26375000,0.0324,0.013523,0.002678,0.000431,0.025974
26376000,0.0324,0.013523,0.002678,0.000431,0.022448
26377000,0.0324,0.013523,0.002678,0.000431,0.017394
26378000,0.0324,0.013523,0.002678,0.000431,0.017277
26379000,0.0324,0.013523,0.002678,0.000431,0.014691
26380000,0.0324,0.013523,0.002678,0.000431,0.012811
26381000,0.0324,0.013523,0.002678,0.000431,0.011988
26382000,0.0324,0.013523,0.002678,0.000431,0.009520
26383000,0.0324,0.013523,0.002678,0.000431,0.011988
26384000,0.0324,0.013523,0.002678,0.000431,0.011870
26385000,0.0324,0.013523,0.002678,0.000431,0.006111
26386000,0.0324,0.013523,0.002678,0.000431,0.007992
26387000,0.0324,0.013523,0.002678,0.000431,0.005641
26388000,0.0324,0.013523,0.002678,0.000431,0.007169
26389000,0.0324,0.013523,0.002678,0.000431,0.003761
26390000,0.0324,0.013523,0.002678,0.000431,0.006817
26391000,0.0324,0.013523,0.002678,0.000431,0.000940
26392000,0.0324,0.013523,0.002678,0.000431,0.000940
26393000,0.0324,0.013523,0.002678,0.000431,0.000705
26394000,0.0324,0.013523,0.002678,0.000431,0.000940
26395000,0.0324,0.013523,0.002678,0.000431,0.000823
26396000,0.0324,0.013523,0.002678,0.000431,0.000705
26397000,0.0324,0.013523,0.002678,0.000431,0.000940
26398000,0.0324,0.013523,0.002678,0.000431,0.000823
26399000,0.0324,0.013523,0.002678,0.000431,0.000823
26400000,0.0324,0.013523,0.002678,0.000431,0.000823
26401000,0.0324,0.013523,0.002678,0.000431,0.000705
26402000,0.0324,0.013523,0.002678,0.000431,0.000940
26403000,0.0324,0.013523,0.002678,0.000431,0.000823
26404000,0.0324,0.013523,0.002678,0.000431,0.000823
26405000,0.0324,0.013523,0.002678,0.000431,0.000823
26406000,0.0324,0.013523,0.002678,0.000431,0.000823
26407000,0.0324,0.013523,0.002678,0.000431,0.000823
26408000,0.0324,0.013523,0.002678,0.000431,0.000823
26409000,0.0324,0.013523,0.002678,0.000431,0.000940
26410000,0.0324,0.013523,0.002678,0.000431,0.000823
26411000,0.0324,0.013523,0.002678,0.000431,0.001410
26412000,0.0324,0.013523,0.002678,0.000431,0.427332
26413000,0.0324,0.013523,0.002678,0.000431,0.709870
26414000,0.0324,0.013523,0.002678,0.000431,0.178408
26415000,0.0324,0.013523,0.002678,0.000431,0.133982
26416000,0.0324,0.013523,0.002678,0.000431,0.151964
26417000,0.0324,0.013523,0.002678,0.000431,0.586936
26418000,0.0324,0.013523,0.002678,0.000431,0.269257
26419000,0.0324,0.013523,0.002678,0.000431,0.245986
26420000,0.0324,0.013523,0.002678,0.000431,0.224831
26421000,0.0324,0.013523,0.002678,0.000431,0.140094
26422000,0.0324,0.013523,0.002678,0.000431,0.172649
26423000,0.0324,0.013523,0.002678,0.000431,0.138801
26424000,0.0324,0.013523,0.002678,0.000431,0.456715
26425000,0.0324,0.013523,0.002678,0.000431,0.127518
26426000,0.0324,0.013523,0.002678,0.000431,0.089792
26427000,0.0324,0.013523,0.002678,0.000431,0.087558
26428000,0.0324,0.013523,0.002678,0.000431,0.073808
26429000,0.0324,0.013523,0.002678,0.000431,0.064758
26430000,0.0324,0.013523,0.002678,0.000431,0.051360
26431000,0.0324,0.013523,0.002678,0.000431,0.044778
26432000,0.0324,0.013523,0.002678,0.000431,0.038197
26433000,0.0324,0.013523,0.002678,0.000431,0.028442
26434000,0.0324,0.013523,0.002678,0.000431,0.029265
26435000,0.0324,0.013523,0.002678,0.000431,0.023506
26436000,0.0324,0.013523,0.002678,0.000431,0.020802
26437000,0.0324,0.013523,0.002678,0.000431,0.021508
26438000,0.0324,0.013523,0.002678,0.000431,0.018334
26439000,0.0324,0.013523,0.002678,0.000431,0.018805
26440000,0.0324,0.013523,0.002678,0.000431,0.015161
26441000,0.0324,0.013523,0.002678,0.000431,0.012458
26442000,0.0324,0.013523,0.002678,0.000431,0.012223
26443000,0.0324,0.013523,0.002678,0.000431,0.012928
26444000,0.0324,0.013523,0.002678,0.000431,0.012928
26445000,0.0324,0.013523,0.002678,0.000431,0.009520
26446000,0.0324,0.013523,0.002678,0.000431,0.009050
26447000,0.0324,0.013523,0.002678,0.000431,0.009520
26448000,0.0324,0.013523,0.002678,0.000431,0.004113
26449000,0.0324,0.013523,0.002678,0.000431,0.005876
26450000,0.0324,0.013523,0.002678,0.000431,0.002233
26451000,0.0324,0.013523,0.002678,0.000431,0.001880
26452000,0.0324,0.013523,0.002678,0.000431,0.001763
26453000,0.0324,0.013523,0.002678,0.000431,0.001763
26454000,0.0324,0.013523,0.002678,0.000431,0.004113
26455000,0.0324,0.013523,0.002678,0.000431,0.001058
26456000,0.0324,0.013523,0.002678,0.000431,0.000823
26457000,0.0324,0.013523,0.002678,0.000431,0.000940
26458000,0.0324,0.013523,0.002678,0.000431,0.000823
26459000,0.0324,0.013523,0.002678,0.000431,0.000940
26460000,0.0324,0.013523,0.002678,0.000431,0.000823
26461000,0.0324,0.013523,0.002678,0.000431,0.000823
26462000,0.0324,0.013523,0.002678,0.000431,0.000940
26463000,0.0324,0.013523,0.002678,0.000431,0.000940
26464000,0.0324,0.013523,0.002678,0.000431,0.000823
26465000,0.0324,0.013523,0.002678,0.000431,0.000823
26466000,0.0324,0.013523,0.002678,0.000431,0.071340
26467000,0.0324,0.013523,0.002678,0.000431,0.551090
26468000,0.0324,0.013523,0.002678,0.000431,0.599511
26469000,0.0324,0.013523,0.002678,0.000431,0.132572
26470000,0.0324,0.013523,0.002678,0.000431,0.133512
26471000,0.0324,0.013523,0.002678,0.000431,0.621607
26472000,0.0324,0.013523,0.002678,0.000431,0.245869
26473000,0.0324,0.013523,0.002678,0.000431,0.217780
26474000,0.0324,0.013523,0.002678,0.000431,0.259737
26475000,0.0324,0.013523,0.002678,0.000431,0.140094
26476000,0.0324,0.013523,0.002678,0.000431,0.158898
26477000,0.0324,0.013523,0.002678,0.000431,0.107773
26478000,0.0324,0.013523,0.002678,0.000431,0.414874
26479000,0.0324,0.013523,0.002678,0.000431,0.247867
26480000,0.0324,0.013523,0.002678,0.000431,0.128341
26481000,0.0324,0.013523,0.002678,0.000431,0.120349
26482000,0.0324,0.013523,0.002678,0.000431,0.115765
26483000,0.0324,0.013523,0.002678,0.000431,0.096961
26484000,0.0324,0.013523,0.002678,0.000431,0.070047
26485000,0.0324,0.013523,0.002678,0.000431,0.070987
26486000,0.0324,0.013523,0.002678,0.000431,0.059704
26487000,0.0324,0.013523,0.002678,0.000431,0.053240
26488000,0.0324,0.013523,0.002678,0.000431,0.039725
26489000,0.0324,0.013523,0.002678,0.000431,0.036904
26490000,0.0324,0.013523,0.002678,0.000431,0.035258
26491000,0.0324,0.013523,0.002678,0.000431,0.027854
26492000,0.0324,0.013523,0.002678,0.000431,0.019157
26493000,0.0324,0.013523,0.002678,0.000431,0.019980
26494000,0.0324,0.013523,0.002678,0.000431,0.023036
26495000,0.0324,0.013523,0.002678,0.000431,0.017629
26496000,0.0324,0.013523,0.002678,0.000431,0.013163
26497000,0.0324,0.013523,0.002678,0.000431,0.011165
26498000,0.0324,0.013523,0.002678,0.000431,0.014456
26499000,0.0324,0.013523,0.002678,0.000431,0.009167
26500000,0.0324,0.013523,0.002678,0.000431,0.013633
26501000,0.0324,0.013523,0.002678,0.000431,0.009755
26502000,0.0324,0.013523,0.002678,0.000431,0.008580
26503000,0.0324,0.013523,0.002678,0.000431,0.007757
26504000,0.0324,0.013523,0.002678,0.000431,0.007639
26505000,0.0324,0.013523,0.002678,0.000431,0.005641
26506000,0.0324,0.013523,0.002678,0.000431,0.003526
26507000,0.0324,0.013523,0.002678,0.000431,0.003643
26508000,0.0324,0.013523,0.002678,0.000431,0.003526
26509000,0.0324,0.013523,0.002678,0.000431,0.003291
26510000,0.0324,0.013523,0.002678,0.000431,0.005171
26511000,0.0324,0.013523,0.002678,0.000431,0.002468
26512000,0.0324,0.013523,0.002678,0.000431,0.003526
26513000,0.0324,0.013523,0.002678,0.000431,0.001763
26514000,0.0324,0.013523,0.002678,0.000431,0.001763
26515000,0.0324,0.013523,0.002678,0.000431,0.001763
26516000,0.0324,0.013523,0.002678,0.000431,0.001528
26517000,0.0324,0.013523,0.002678,0.000431,0.001880
26518000,0.0324,0.013523,0.002678,0.000431,0.001763
26519000,0.0324,0.013523,0.002678,0.000431,0.001645
26520000,0.0324,0.013523,0.002678,0.000431,0.001528
26521000,0.0324,0.013523,0.002678,0.000431,0.001880
26522000,0.0324,0.013523,0.002678,0.000431,0.003761
26523000,0.0324,0.013523,0.002678,0.000431,0.000823
26524000,0.0324,0.013523,0.002678,0.000431,0.000940
26525000,0.0324,0.013523,0.002678,0.000431,0.000705
26526000,0.0324,0.013523,0.002678,0.000431,0.000940
26527000,0.0324,0.013523,0.002678,0.000431,0.000823
26528000,0.0324,0.013523,0.002678,0.000431,0.000823
26529000,0.0324,0.013523,0.002678,0.000431,0.000940
26530000,0.0324,0.013523,0.002678,0.000431,0.000705
26531000,0.0324,0.013523,0.002678,0.000431,0.000940
26532000,0.0324,0.013523,0.002678,0.000431,0.000823
26533000,0.0324,0.013523,0.002678,0.000431,0.000823
26534000,0.0324,0.013523,0.002678,0.000431,0.000823
26535000,0.0324,0.013523,0.002678,0.000431,0.000823
26536000,0.0324,0.013523,0.002678,0.000431,0.000940
26537000,0.0324,0.013523,0.002678,0.000431,0.000705
26538000,0.0324,0.013523,0.002678,0.000431,0.000940
26539000,0.0324,0.013523,0.002678,0.000431,0.000705
26540000,0.0324,0.013523,0.002678,0.000431,0.000940
26541000,0.0324,0.013523,0.002678,0.000431,0.000823
26542000,0.0324,0.013523,0.002678,0.000431,0.000823
26543000,0.0324,0.013523,0.002678,0.000431,0.000705
26544000,0.0324,0.013523,0.002678,0.000431,0.000940
26545000,0.0324,0.013523,0.002678,0.000431,0.000940
26546000,0.0324,0.013523,0.002678,0.000431,0.000705
26547000,0.0324,0.013523,0.002678,0.000431,0.000940
26548000,0.0324,0.013523,0.002678,0.000431,0.000705
26549000,0.0324,0.013523,0.002678,0.000431,0.000940
26550000,0.0324,0.013523,0.002678,0.000431,0.000823
26551000,0.0324,0.013523,0.002678,0.000431,0.000823
26552000,0.0324,0.013523,0.002678,0.000431,0.000940
26553000,0.0324,0.013523,0.002678,0.000431,0.000705
26554000,0.0324,0.013523,0.002678,0.000431,0.000940
26555000,0.0324,0.013523,0.002678,0.000431,0.000823
26556000,0.0324,0.013523,0.002678,0.000431,0.000823
26557000,0.0324,0.013523,0.002678,0.000431,0.000823
26558000,0.0324,0.013523,0.002678,0.000431,0.000823
26559000,0.0324,0.013523,0.002678,0.000431,0.000823
26560000,0.0324,0.013523,0.002678,0.000431,0.000823
26561000,0.0324,0.013523,0.002678,0.000431,0.000940
26562000,0.0324,0.013523,0.002678,0.000431,0.000705
26563000,0.0324,0.013523,0.002678,0.000431,0.000823
26564000,0.0324,0.013523,0.002678,0.000431,0.000940
26565000,0.0324,0.013523,0.002678,0.000431,0.000823
26566000,0.0324,0.013523,0.002678,0.000431,0.000823
26567000,0.0324,0.013523,0.002678,0.000431,0.000823
26568000,0.0324,0.013523,0.002678,0.000431,0.000823
26569000,0.0324,0.013523,0.002678,0.000431,0.000823
26570000,0.0324,0.013523,0.002678,0.000431,0.000940
26571000,0.0324,0.013523,0.002678,0.000431,0.000823
26572000,0.0324,0.013523,0.002678,0.000431,0.000823
26573000,0.0324,0.013523,0.002678,0.000431,0.000705
26574000,0.0324,0.013523,0.002678,0.000431,0.000940
26575000,0.0324,0.013523,0.002678,0.000431,0.000940
26576000,0.0324,0.013523,0.002678,0.000431,0.000705
26577000,0.0324,0.013523,0.002678,0.000431,0.000940
26578000,0.0324,0.013523,0.002678,0.000431,0.000705
26579000,0.0324,0.013523,0.002678,0.000431,0.000940
26580000,0.0324,0.013523,0.002678,0.000431,0.000823
26581000,0.0324,0.013523,0.002678,0.000431,0.000823
26582000,0.0324,0.013523,0.002678,0.000431,0.000823
26583000,0.0324,0.013523,0.002678,0.000431,0.000823
26584000,0.0324,0.013523,0.002678,0.000431,0.000940
26585000,0.0324,0.013523,0.002678,0.000431,0.000823
26586000,0.0324,0.013523,0.002678,0.000431,0.000823
26587000,0.0324,0.013523,0.002678,0.000431,0.000823
26588000,0.0324,0.013523,0.002678,0.000431,0.000823
26589000,0.0324,0.013523,0.002678,0.000431,0.000823
26590000,0.0324,0.013523,0.002678,0.000431,0.000823
26591000,0.0324,0.013523,0.002678,0.000431,0.000823
26592000,0.0324,0.013523,0.002678,0.000431,0.000823
26593000,0.0324,0.013523,0.002678,0.000431,0.000940
26594000,0.0324,0.013523,0.002678,0.000431,0.000705
26595000,0.0324,0.013523,0.002678,0.000431,0.000940
26596000,0.0324,0.013523,0.002678,0.000431,0.000705
26597000,0.0324,0.013523,0.002678,0.000431,0.000940
26598000,0.0324,0.013523,0.002678,0.000431,0.000940
26599000,0.0324,0.013523,0.002678,0.000431,0.000823
26600000,0.0324,0.013523,0.002678,0.000431,0.000823
26601000,0.0324,0.013523,0.002678,0.000431,0.000705
26602000,0.0324,0.013523,0.002678,0.000431,0.000940
26603000,0.0324,0.013523,0.002678,0.000431,0.000940
26604000,0.0324,0.013523,0.002678,0.000431,0.000705
26605000,0.0324,0.013523,0.002678,0.000431,0.000940
26606000,0.0324,0.013523,0.002678,0.000431,0.000705
26607000,0.0324,0.013523,0.002678,0.000431,0.000940
26608000,0.0324,0.013523,0.002678,0.000431,0.000823
26609000,0.0324,0.013523,0.002678,0.000431,0.000823
26610000,0.0324,0.013523,0.002678,0.000431,0.000940
26611000,0.0324,0.013523,0.002678,0.000431,0.000705
26612000,0.0324,0.013523,0.002678,0.000431,0.000940
26613000,0.0324,0.013523,0.002678,0.000431,0.000823
26614000,0.0324,0.013523,0.002678,0.000431,0.000823
26615000,0.0324,0.013523,0.002678,0.000431,0.000823
26616000,0.0324,0.013523,0.002678,0.000431,0.000823
26617000,0.0324,0.013523,0.002678,0.000431,0.000823
26618000,0.0324,0.013523,0.002678,0.000431,0.000823
26619000,0.0324,0.013523,0.002678,0.000431,0.000940
26620000,0.0324,0.013523,0.002678,0.000431,0.000705
26621000,0.0324,0.013523,0.002678,0.000431,0.000823
26622000,0.0324,0.013523,0.002678,0.000431,0.000940
26623000,0.0324,0.013523,0.002678,0.000431,0.000823
26624000,0.0324,0.013523,0.002678,0.000431,0.000823
26625000,0.0324,0.013523,0.002678,0.000431,0.000823
26626000,0.0324,0.013523,0.002678,0.000431,0.000705
26627000,0.0324,0.013523,0.002678,0.000431,0.000940
26628000,0.0324,0.013523,0.002678,0.000431,0.000940
26629000,0.0324,0.013523,0.002678,0.000431,0.000705
26630000,0.0324,0.013523,0.002678,0.000431,0.000940
26631000,0.0324,0.013523,0.002678,0.000431,0.000705
26632000,0.0324,0.013523,0.002678,0.000431,0.000940
26633000,0.0324,0.013523,0.002678,0.000431,0.000940
26634000,0.0324,0.013523,0.002678,0.000431,0.000705
26635000,0.0324,0.013523,0.002678,0.000431,0.000940
26636000,0.0324,0.013523,0.002678,0.000431,0.000705
26637000,0.0324,0.013523,0.002678,0.000431,0.000940
26638000,0.0324,0.013523,0.002678,0.000431,0.000823
26639000,0.0324,0.013523,0.002678,0.000431,0.000823
26640000,0.0324,0.013523,0.002678,0.000431,0.000823
26641000,0.0324,0.013523,0.002678,0.000431,0.000823
26642000,0.0324,0.013523,0.002678,0.000431,0.000940
26643000,0.0324,0.013523,0.002678,0.000431,0.000705
26644000,0.0324,0.013523,0.002678,0.000431,0.000940
26645000,0.0324,0.013523,0.002678,0.000431,0.000823
26646000,0.0324,0.013523,0.002678,0.000431,0.000823
26647000,0.0324,0.013523,0.002678,0.000431,0.000823
26648000,0.0324,0.013523,0.002678,0.000431,0.000823
26649000,0.0324,0.013523,0.002678,0.000431,0.000823
26650000,0.0324,0.013523,0.002678,0.000431,0.000823
26651000,0.0324,0.013523,0.002678,0.000431,0.000940
26652000,0.0324,0.013523,0.002678,0.000431,0.000705
26653000,0.0324,0.013523,0.002678,0.000431,0.000940
26654000,0.0324,0.013523,0.002678,0.000431,0.000705
26655000,0.0324,0.013523,0.002678,0.000431,0.000940
26656000,0.0324,0.013523,0.002678,0.000431,0.000940
26657000,0.0324,0.013523,0.002678,0.000431,0.000705
26658000,0.0324,0.013523,0.002678,0.000431,0.000940
26659000,0.0324,0.013523,0.002678,0.000431,0.000705
26660000,0.0324,0.013523,0.002678,0.000431,0.000940
26661000,0.0324,0.013523,0.002678,0.000431,0.000823
26662000,0.0324,0.013523,0.002678,0.000431,0.000823
26663000,0.0324,0.013523,0.002678,0.000431,0.000940
26664000,0.0324,0.013523,0.002678,0.000431,0.000705
26665000,0.0324,0.013523,0.002678,0.000431,0.000940
26666000,0.0324,0.013523,0.002678,0.000431,0.000705
26667000,0.0324,0.013523,0.002678,0.000431,0.000940
26668000,0.0324,0.013523,0.002678,0.000431,0.000823
26669000,0.0324,0.013523,0.002678,0.000431,0.000823
26670000,0.0324,0.013523,0.002678,0.000431,0.000823
26671000,0.0324,0.013523,0.002678,0.000431,0.000823
26672000,0.0324,0.013523,0.002678,0.000431,0.000940
26673000,0.0324,0.013523,0.002678,0.000431,0.000705
26674000,0.0324,0.013523,0.002678,0.000431,0.000940
26675000,0.0324,0.013523,0.002678,0.000431,0.000823
26676000,0.0324,0.013523,0.002678,0.000431,0.000823
26677000,0.0324,0.013523,0.002678,0.000431,0.000823
26678000,0.0324,0.013523,0.002678,0.000431,0.000823
26679000,0.0324,0.013523,0.002678,0.000431,0.000823
26680000,0.0324,0.013523,0.002678,0.000431,0.000823
26681000,0.0324,0.013523,0.002678,0.000431,0.000940
26682000,0.0324,0.013523,0.002678,0.000431,0.000705
26683000,0.0324,0.013523,0.002678,0.000431,0.000940
26684000,0.0324,0.013523,0.002678,0.000431,0.000705
26685000,0.0324,0.013523,0.002678,0.000431,0.000940
26686000,0.0324,0.013523,0.002678,0.000431,0.000940
26687000,0.0324,0.013523,0.002678,0.000431,0.000705
26688000,0.0324,0.013523,0.002678,0.000431,0.000940
26689000,0.0324,0.013523,0.002678,0.000431,0.000705
26690000,0.0324,0.013523,0.002678,0.000431,0.000940
26691000,0.0324,0.013523,0.002678,0.000431,0.000823
26692000,0.0324,0.013523,0.002678,0.000431,0.000823
26693000,0.0324,0.013523,0.002678,0.000431,0.000823
26694000,0.0324,0.013523,0.002678,0.000431,0.000823
26695000,0.0324,0.013523,0.002678,0.000431,0.001998
26696000,0.0324,0.013523,0.002678,0.000431,0.335425
26697000,0.0324,0.013523,0.002678,0.000431,0.703054
26698000,0.0324,0.013523,0.002678,0.000431,0.269022
26699000,0.0324,0.013523,0.002678,0.000431,0.133512
26700000,0.0324,0.013523,0.002678,0.000431,0.135628
26701000,0.0324,0.013523,0.002678,0.000431,0.583880
26702000,0.0324,0.013523,0.002678,0.000431,0.251510
26703000,0.0324,0.013523,0.002678,0.000431,0.268669
26704000,0.0324,0.013523,0.002678,0.000431,0.231766
26705000,0.0324,0.013523,0.002678,0.000431,0.151376
26706000,0.0324,0.013523,0.002678,0.000431,0.167595
26707000,0.0324,0.013523,0.002678,0.000431,0.141151
26708000,0.0324,0.013523,0.002678,0.000431,0.474226
26709000,0.0324,0.013523,0.002678,0.000431,0.150789
26710000,0.0324,0.013523,0.002678,0.000431,0.138213
26711000,0.0324,0.013523,0.002678,0.000431,0.107891
26712000,0.0324,0.013523,0.002678,0.000431,0.098489
26713000,0.0324,0.013523,0.002678,0.000431,0.078391
26714000,0.0324,0.013523,0.002678,0.000431,0.067579
26715000,0.0324,0.013523,0.002678,0.000431,0.047481
26716000,0.0324,0.013523,0.002678,0.000431,0.041958
26717000,0.0324,0.013523,0.002678,0.000431,0.038784
26718000,0.0324,0.013523,0.002678,0.000431,0.030205
26719000,0.0324,0.013523,0.002678,0.000431,0.026091
26720000,0.0324,0.013523,0.002678,0.000431,0.025739
26721000,0.0324,0.013523,0.002678,0.000431,0.018922
26722000,0.0324,0.013523,0.002678,0.000431,0.024563
26723000,0.0324,0.013523,0.002678,0.000431,0.021978
26724000,0.0324,0.013523,0.002678,0.000431,0.019157
26725000,0.0324,0.013523,0.002678,0.000431,0.011518
26726000,0.0324,0.013523,0.002678,0.000431,0.008580
26727000,0.0324,0.013523,0.002678,0.000431,0.007639
26728000,0.0324,0.013523,0.002678,0.000431,0.008580
26729000,0.0324,0.013523,0.002678,0.000431,0.005759
26730000,0.0324,0.013523,0.002678,0.000431,0.006464
26731000,0.0324,0.013523,0.002678,0.000431,0.003643
26732000,0.0324,0.013523,0.002678,0.000431,0.003291
26733000,0.0324,0.013523,0.002678,0.000431,0.004701
26734000,0.0324,0.013523,0.002678,0.000431,0.002586
26735000,0.0324,0.013523,0.002678,0.000431,0.002703
26736000,0.0324,0.013523,0.002678,0.000431,0.004349
26737000,0.0324,0.013523,0.002678,0.000431,0.001763
26738000,0.0324,0.013523,0.002678,0.000431,0.001763
26739000,0.0324,0.013523,0.002678,0.000431,0.001645
26740000,0.0324,0.013523,0.002678,0.000431,0.001763
26741000,0.0324,0.013523,0.002678,0.000431,0.001763
26742000,0.0324,0.013523,0.002678,0.000431,0.001763
26743000,0.0324,0.013523,0.002678,0.000431,0.001880
26744000,0.0324,0.013523,0.002678,0.000431,0.001880
26745000,0.0324,0.013523,0.002678,0.000431,0.001763
26746000,0.0324,0.013523,0.002678,0.000431,0.001528
26747000,0.0324,0.013523,0.002678,0.000431,0.001880
26748000,0.0324,0.013523,0.002678,0.000431,0.001880
26749000,0.0324,0.013523,0.002678,0.000431,0.004349
26750000,0.0324,0.013523,0.002678,0.000431,0.000823
26751000,0.0324,0.013523,0.002678,0.000431,0.000823
26752000,0.0324,0.013523,0.002678,0.000431,0.000940
26753000,0.0324,0.013523,0.002678,0.000431,0.006464
26754000,0.0324,0.013523,0.002678,0.000431,0.542040
26755000,0.0324,0.013523,0.002678,0.000431,0.662271
26756000,0.0324,0.013523,0.002678,0.000431,0.133982
26757000,0.0324,0.013523,0.002678,0.000431,0.132572
26758000,0.0324,0.013523,0.002678,0.000431,0.414522
26759000,0.0324,0.013523,0.002678,0.000431,0.369274
26760000,0.0324,0.013523,0.002678,0.000431,0.304280
26761000,0.0324,0.013523,0.002678,0.000431,0.274428
26762000,0.0324,0.013523,0.002678,0.000431,0.140799
26763000,0.0324,0.013523,0.002678,0.000431,0.145265
26764000,0.0324,0.013523,0.002678,0.000431,0.121289
26765000,0.0324,0.013523,0.002678,0.000431,0.347413
26766000,0.0324,0.013523,0.002678,0.000431,0.310157
26767000,0.0324,0.013523,0.002678,0.000431,0.141857
26768000,0.0324,0.013523,0.002678,0.000431,0.115178
26769000,0.0324,0.013523,0.002678,0.000431,0.100369
26770000,0.0324,0.013523,0.002678,0.000431,0.080037
26771000,0.0324,0.013523,0.002678,0.000431,0.080272
26772000,0.0324,0.013523,0.002678,0.000431,0.063230
26773000,0.0324,0.013523,0.002678,0.000431,0.054768
26774000,0.0324,0.013523,0.002678,0.000431,0.041135
26775000,0.0324,0.013523,0.002678,0.000431,0.043015
26776000,0.0324,0.013523,0.002678,0.000431,0.034906
26777000,0.0324,0.013523,0.002678,0.000431,0.028442
26778000,0.0324,0.013523,0.002678,0.000431,0.030792
26779000,0.0324,0.013523,0.002678,0.000431,0.019627
26780000,0.0324,0.013523,0.002678,0.000431,0.018099
26781000,0.0324,0.013523,0.002678,0.000431,0.019275
26782000,0.0324,0.013523,0.002678,0.000431,0.016219
26783000,0.0324,0.013523,0.002678,0.000431,0.013163
26784000,0.0324,0.013523,0.002678,0.000431,0.015279
26785000,0.0324,0.013523,0.002678,0.000431,0.009050
26786000,0.0324,0.013523,0.002678,0.000431,0.009050
26787000,0.0324,0.013523,0.002678,0.000431,0.011518
26788000,0.0324,0.013523,0.002678,0.000431,0.009402
26789000,0.0324,0.013523,0.002678,0.000431,0.007874
26790000,0.0324,0.013523,0.002678,0.000431,0.009872
26791000,0.0324,0.013523,0.002678,0.000431,0.006699
26792000,0.0324,0.013523,0.002678,0.000431,0.007052
26793000,0.0324,0.013523,0.002678,0.000431,0.007169
26794000,0.0324,0.013523,0.002678,0.000431,0.006817
26795000,0.0324,0.013523,0.002678,0.000431,0.006582
26796000,0.0324,0.013523,0.002678,0.000431,0.007992
26797000,0.0324,0.013523,0.002678,0.000431,0.006347
26798000,0.0324,0.013523,0.002678,0.000431,0.003408
26799000,0.0324,0.013523,0.002678,0.000431,0.003526
26800000,0.0324,0.013523,0.002678,0.000431,0.003173
26801000,0.0324,0.013523,0.002678,0.000431,0.003408
26802000,0.0324,0.013523,0.002678,0.000431,0.003526
26803000,0.0324,0.013523,0.002678,0.000431,0.003291
26804000,0.0324,0.013523,0.002678,0.000431,0.003526
26805000,0.0324,0.013523,0.002678,0.000431,0.005054
26806000,0.0324,0.013523,0.002678,0.000431,0.002586
26807000,0.0324,0.013523,0.002678,0.000431,0.001763
26808000,0.0324,0.013523,0.002678,0.000431,0.001880
26809000,0.0324,0.013523,0.002678,0.000431,0.003643
26810000,0.0324,0.013523,0.002678,0.000431,0.000940
26811000,0.0324,0.013523,0.002678,0.000431,0.000940
26812000,0.0324,0.013523,0.002678,0.000431,0.000705
26813000,0.0324,0.013523,0.002678,0.000431,0.000940
26814000,0.0324,0.013523,0.002678,0.000431,0.000823
26815000,0.0324,0.013523,0.002678,0.000431,0.000823
26816000,0.0324,0.013523,0.002678,0.000431,0.000940
26817000,0.0324,0.013523,0.002678,0.000431,0.000823
26818000,0.0324,0.013523,0.002678,0.000431,0.014103
26819000,0.0324,0.013523,0.002678,0.000431,0.603860
26820000,0.0324,0.013523,0.002678,0.000431,0.598924
26821000,0.0324,0.013523,0.002678,0.000431,0.132572
26822000,0.0324,0.013523,0.002678,0.000431,0.133982
26823000,0.0324,0.013523,0.002678,0.000431,0.462473
26824000,0.0324,0.013523,0.002678,0.000431,0.297934
26825000,0.0324,0.013523,0.002678,0.000431,0.265731
26826000,0.0324,0.013523,0.002678,0.000431,0.288767
26827000,0.0324,0.013523,0.002678,0.000431,0.137626
26828000,0.0324,0.013523,0.002678,0.000431,0.148556
26829000,0.0324,0.013523,0.002678,0.000431,0.154197
26830000,0.0324,0.013523,0.002678,0.000431,0.206144
26831000,0.0324,0.013523,0.002678,0.000431,0.427097
26832000,0.0324,0.013523,0.002678,0.000431,0.129986
26833000,0.0324,0.013523,0.002678,0.000431,0.111769
26834000,0.0324,0.013523,0.002678,0.000431,0.091554
26835000,0.0324,0.013523,0.002678,0.000431,0.089556
26836000,0.0324,0.013523,0.002678,0.000431,0.068519
26837000,0.0324,0.013523,0.002678,0.000431,0.063465
26838000,0.0324,0.013523,0.002678,0.000431,0.047599
26839000,0.0324,0.013523,0.002678,0.000431,0.042545
26840000,0.0324,0.013523,0.002678,0.000431,0.034671
26841000,0.0324,0.013523,0.002678,0.000431,0.027031
26842000,0.0324,0.013523,0.002678,0.000431,0.023153
26843000,0.0324,0.013523,0.002678,0.000431,0.019157
26844000,0.0324,0.013523,0.002678,0.000431,0.016336
26845000,0.0324,0.013523,0.002678,0.000431,0.011870
26846000,0.0324,0.013523,0.002678,0.000431,0.008227
26847000,0.0324,0.013523,0.002678,0.000431,0.008462
26848000,0.0324,0.013523,0.002678,0.000431,0.010813
26849000,0.0324,0.013523,0.002678,0.000431,0.007404
26850000,0.0324,0.013523,0.002678,0.000431,0.009990
26851000,0.0324,0.013523,0.002678,0.000431,0.006582
26852000,0.0324,0.013523,0.002678,0.000431,0.006817
26853000,0.0324,0.013523,0.002678,0.000431,0.006229
26854000,0.0324,0.013523,0.002678,0.000431,0.009520
26855000,0.0324,0.013523,0.002678,0.000431,0.007287
26856000,0.0324,0.013523,0.002678,0.000431,0.006111
26857000,0.0324,0.013523,0.002678,0.000431,0.004936
26858000,0.0324,0.013523,0.002678,0.000431,0.003878
26859000,0.0324,0.013523,0.002678,0.000431,0.002233
26860000,0.0324,0.013523,0.002678,0.000431,0.002703
26861000,0.0324,0.013523,0.002678,0.000431,0.002116
26862000,0.0324,0.013523,0.002678,0.000431,0.004231
26863000,0.0324,0.013523,0.002678,0.000431,0.431211
26864000,0.0324,0.013523,0.002678,0.000431,0.695884
26865000,0.0324,0.013523,0.002678,0.000431,0.183344
26866000,0.0324,0.013523,0.002678,0.000431,0.134922
26867000,0.0324,0.013523,0.002678,0.000431,0.217310
26868000,0.0324,0.013523,0.002678,0.000431,0.613967
26869000,0.0324,0.013523,0.002678,0.000431,0.266789
26870000,0.0324,0.013523,0.002678,0.000431,0.326376
26871000,0.0324,0.013523,0.002678,0.000431,0.145735
26872000,0.0324,0.013523,0.002678,0.000431,0.153609
26873000,0.0324,0.013523,0.002678,0.000431,0.100722
26874000,0.0324,0.013523,0.002678,0.000431,0.442846
26875000,0.0324,0.013523,0.002678,0.000431,0.173589
26876000,0.0324,0.013523,0.002678,0.000431,0.098136
26877000,0.0324,0.013523,0.002678,0.000431,0.081212
26878000,0.0324,0.013523,0.002678,0.000431,0.068049
26879000,0.0324,0.013523,0.002678,0.000431,0.051007
26880000,0.0324,0.013523,0.002678,0.000431,0.047481
26881000,0.0324,0.013523,0.002678,0.000431,0.042428
26882000,0.0324,0.013523,0.002678,0.000431,0.033613
26883000,0.0324,0.013523,0.002678,0.000431,0.037139
26884000,0.0324,0.013523,0.002678,0.000431,0.029617
26885000,0.0324,0.013523,0.002678,0.000431,0.032438
26886000,0.0324,0.013523,0.002678,0.000431,0.030322
26887000,0.0324,0.013523,0.002678,0.000431,0.022800
26888000,0.0324,0.013523,0.002678,0.000431,0.020567
26889000,0.0324,0.013523,0.002678,0.000431,0.022213
26890000,0.0324,0.013523,0.002678,0.000431,0.019040
26891000,0.0324,0.013523,0.002678,0.000431,0.019510
26892000,0.0324,0.013523,0.002678,0.000431,0.018569
26893000,0.0324,0.013523,0.002678,0.000431,0.016571
26894000,0.0324,0.013523,0.002678,0.000431,0.013398
26895000,0.0324,0.013523,0.002678,0.000431,0.013751
26896000,0.0324,0.013523,0.002678,0.000431,0.012340
26897000,0.0324,0.013523,0.002678,0.000431,0.010578
26898000,0.0324,0.013523,0.002678,0.000431,0.009520
26899000,0.0324,0.013523,0.002678,0.000431,0.009872
26900000,0.0324,0.013523,0.002678,0.000431,0.012576
26901000,0.0324,0.013523,0.002678,0.000431,0.008109
26902000,0.0324,0.013523,0.002678,0.000431,0.006464
26903000,0.0324,0.013523,0.002678,0.000431,0.006817
26904000,0.0324,0.013523,0.002678,0.000431,0.007992
26905000,0.0324,0.013523,0.002678,0.000431,0.006229
26906000,0.0324,0.013523,0.002678,0.000431,0.006464
26907000,0.0324,0.013523,0.002678,0.000431,0.005406
26908000,0.0324,0.013523,0.002678,0.000431,0.005876
26909000,0.0324,0.013523,0.002678,0.000431,0.006111
26910000,0.0324,0.013523,0.002678,0.000431,0.005876
26911000,0.0324,0.013523,0.002678,0.000431,0.011635
26912000,0.0324,0.013523,0.002678,0.000431,0.006464
26913000,0.0324,0.013523,0.002678,0.000431,0.003173
26914000,0.0324,0.013523,0.002678,0.000431,0.003878
26915000,0.0324,0.013523,0.002678,0.000431,0.000940
26916000,0.0324,0.013523,0.002678,0.000431,0.000823
26917000,0.0324,0.013523,0.002678,0.000431,0.000823
26918000,0.0324,0.013523,0.002678,0.000431,0.000823
26919000,0.0324,0.013523,0.002678,0.000431,0.000823
26920000,0.0324,0.013523,0.002678,0.000431,0.000940
26921000,0.0324,0.013523,0.002678,0.000431,0.000705
26922000,0.0324,0.013523,0.002678,0.000431,0.000940
26923000,0.0324,0.013523,0.002678,0.000431,0.000823
26924000,0.0324,0.013523,0.002678,0.000431,0.000823
26925000,0.0324,0.013523,0.002678,0.000431,0.000823
26926000,0.0324,0.013523,0.002678,0.000431,0.000823
26927000,0.0324,0.013523,0.002678,0.000431,0.000823
26928000,0.0324,0.013523,0.002678,0.000431,0.000823
26929000,0.0324,0.013523,0.002678,0.000431,0.000940
26930000,0.0324,0.013523,0.002678,0.000431,0.000705
26931000,0.0324,0.013523,0.002678,0.000431,0.000940
26932000,0.0324,0.013523,0.002678,0.000431,0.000705
26933000,0.0324,0.013523,0.002678,0.000431,0.000940
26934000,0.0324,0.013523,0.002678,0.000431,0.000940
26935000,0.0324,0.013523,0.002678,0.000431,0.000705
26936000,0.0324,0.013523,0.002678,0.000431,0.000940
26937000,0.0324,0.013523,0.002678,0.000431,0.000705
26938000,0.0324,0.013523,0.002678,0.000431,0.000940
26939000,0.0324,0.013523,0.002678,0.000431,0.000823
26940000,0.0324,0.013523,0.002678,0.000431,0.000940
26941000,0.0324,0.013523,0.002678,0.000431,0.013633
26942000,0.0324,0.013523,0.002678,0.000431,0.548974
26943000,0.0324,0.013523,0.002678,0.000431,0.593165
26944000,0.0324,0.013523,0.002678,0.000431,0.133982
26945000,0.0324,0.013523,0.002678,0.000431,0.132572
26946000,0.0324,0.013523,0.002678,0.000431,0.406648
26947000,0.0324,0.013523,0.002678,0.000431,0.345650
26948000,0.0324,0.013523,0.002678,0.000431,0.236819
26949000,0.0324,0.013523,0.002678,0.000431,0.284418
26950000,0.0324,0.013523,0.002678,0.000431,0.185459
26951000,0.0324,0.013523,0.002678,0.000431,0.146440
26952000,0.0324,0.013523,0.002678,0.000431,0.173119
26953000,0.0324,0.013523,0.002678,0.000431,0.121759
26954000,0.0324,0.013523,0.002678,0.000431,0.463766
26955000,0.0324,0.013523,0.002678,0.000431,0.138096
26956000,0.0324,0.013523,0.002678,0.000431,0.110594
26957000,0.0324,0.013523,0.002678,0.000431,0.100369
26958000,0.0324,0.013523,0.002678,0.000431,0.080507
26959000,0.0324,0.013523,0.002678,0.000431,0.077334
26960000,0.0324,0.013523,0.002678,0.000431,0.058059
26961000,0.0324,0.013523,0.002678,0.000431,0.054298
26962000,0.0324,0.013523,0.002678,0.000431,0.051947
26963000,0.0324,0.013523,0.002678,0.000431,0.040900
26964000,0.0324,0.013523,0.002678,0.000431,0.033260
26965000,0.0324,0.013523,0.002678,0.000431,0.029852
26966000,0.0324,0.013523,0.002678,0.000431,0.031968
26967000,0.0324,0.013523,0.002678,0.000431,0.023741
26968000,0.0324,0.013523,0.002678,0.000431,0.023271
26969000,0.0324,0.013523,0.002678,0.000431,0.021978
26970000,0.0324,0.013523,0.002678,0.000431,0.015984
26971000,0.0324,0.013523,0.002678,0.000431,0.010460
26972000,0.0324,0.013523,0.002678,0.000431,0.010813
26973000,0.0324,0.013523,0.002678,0.000431,0.012693
26974000,0.0324,0.013523,0.002678,0.000431,0.010342
26975000,0.0324,0.013523,0.002678,0.000431,0.011518
26976000,0.0324,0.013523,0.002678,0.000431,0.010342
26977000,0.0324,0.013523,0.002678,0.000431,0.010813
26978000,0.0324,0.013523,0.002678,0.000431,0.008580
26979000,0.0324,0.013523,0.002678,0.000431,0.007639
26980000,0.0324,0.013523,0.002678,0.000431,0.007052
26981000,0.0324,0.013523,0.002678,0.000431,0.005759
26982000,0.0324,0.013523,0.002678,0.000431,0.005759
26983000,0.0324,0.013523,0.002678,0.000431,0.009285
26984000,0.0324,0.013523,0.002678,0.000431,0.005994
26985000,0.0324,0.013523,0.002678,0.000431,0.003408
26986000,0.0324,0.013523,0.002678,0.000431,0.003291
26987000,0.0324,0.013523,0.002678,0.000431,0.004466
26988000,0.0324,0.013523,0.002678,0.000431,0.002586
26989000,0.0324,0.013523,0.002678,0.000431,0.002233
26990000,0.0324,0.013523,0.002678,0.000431,0.002586
26991000,0.0324,0.013523,0.002678,0.000431,0.002586
26992000,0.0324,0.013523,0.002678,0.000431,0.001880
26993000,0.0324,0.013523,0.002678,0.000431,0.001763
26994000,0.0324,0.013523,0.002678,0.000431,0.003526
26995000,0.0324,0.013523,0.002678,0.000431,0.001058
26996000,0.0324,0.013523,0.002678,0.000431,0.116118
26997000,0.0324,0.013523,0.002678,0.000431,0.582352
26998000,0.0324,0.013523,0.002678,0.000431,0.547211
26999000,0.0324,0.013523,0.002678,0.000431,0.138566
