Cycle,Area(mm^2),PeakDynamic(W),SubthresholdLeakage(W),GateLeakage(W),RunTimeDynamic(W)
102000000,0.0324,0.013523,0.002678,0.000431,0.009755
102001000,0.0324,0.013523,0.002678,0.000431,0.010578
102002000,0.0324,0.013523,0.002678,0.000431,0.007404
102003000,0.0324,0.013523,0.002678,0.000431,0.009990
102004000,0.0324,0.013523,0.002678,0.000431,0.009050
102005000,0.0324,0.013523,0.002678,0.000431,0.005289
102006000,0.0324,0.013523,0.002678,0.000431,0.006229
102007000,0.0324,0.013523,0.002678,0.000431,0.005759
102008000,0.0324,0.013523,0.002678,0.000431,0.004231
102009000,0.0324,0.013523,0.002678,0.000431,0.006111
102010000,0.0324,0.013523,0.002678,0.000431,0.004466
102011000,0.0324,0.013523,0.002678,0.000431,0.004231
102012000,0.0324,0.013523,0.002678,0.000431,0.002586
102013000,0.0324,0.013523,0.002678,0.000431,0.002351
102014000,0.0324,0.013523,0.002678,0.000431,0.002703
102015000,0.0324,0.013523,0.002678,0.000431,0.002468
102016000,0.0324,0.013523,0.002678,0.000431,0.002586
102017000,0.0324,0.013523,0.002678,0.000431,0.002586
102018000,0.0324,0.013523,0.002678,0.000431,0.002586
102019000,0.0324,0.013523,0.002678,0.000431,0.002703
102020000,0.0324,0.013523,0.002678,0.000431,0.004819
102021000,0.0324,0.013523,0.002678,0.000431,0.002116
102022000,0.0324,0.013523,0.002678,0.000431,0.000823
102023000,0.0324,0.013523,0.002678,0.000431,0.000823
102024000,0.0324,0.013523,0.002678,0.000431,0.000823
102025000,0.0324,0.013523,0.002678,0.000431,0.000823
102026000,0.0324,0.013523,0.002678,0.000431,0.000940
102027000,0.0324,0.013523,0.002678,0.000431,0.000705
102028000,0.0324,0.013523,0.002678,0.000431,0.000940
102029000,0.0324,0.013523,0.002678,0.000431,0.000823
102030000,0.0324,0.013523,0.002678,0.000431,0.000823
102031000,0.0324,0.013523,0.002678,0.000431,0.000940
102032000,0.0324,0.013523,0.002678,0.000431,0.000823
102033000,0.0324,0.013523,0.002678,0.000431,0.000940
102034000,0.0324,0.013523,0.002678,0.000431,0.000823
102035000,0.0324,0.013523,0.002678,0.000431,0.000940
102036000,0.0324,0.013523,0.002678,0.000431,0.000823
102037000,0.0324,0.013523,0.002678,0.000431,0.000823
102038000,0.0324,0.013523,0.002678,0.000431,0.000940
102039000,0.0324,0.013523,0.002678,0.000431,0.000940
102040000,0.0324,0.013523,0.002678,0.000431,0.000705
102041000,0.0324,0.013523,0.002678,0.000431,0.000823
102042000,0.0324,0.013523,0.002678,0.000431,0.000823
102043000,0.0324,0.013523,0.002678,0.000431,0.000940
102044000,0.0324,0.013523,0.002678,0.000431,0.073220
102045000,0.0324,0.013523,0.002678,0.000431,0.612557
102046000,0.0324,0.013523,0.002678,0.000431,0.572127
102047000,0.0324,0.013523,0.002678,0.000431,0.136568
102048000,0.0324,0.013523,0.002678,0.000431,0.133042
102049000,0.0324,0.013523,0.002678,0.000431,0.643467
102050000,0.0324,0.013523,0.002678,0.000431,0.241755
102051000,0.0324,0.013523,0.002678,0.000431,0.229062
102052000,0.0324,0.013523,0.002678,0.000431,0.284066
102053000,0.0324,0.013523,0.002678,0.000431,0.143972
102054000,0.0324,0.013523,0.002678,0.000431,0.179348
102055000,0.0324,0.013523,0.002678,0.000431,0.095668
102056000,0.0324,0.013523,0.002678,0.000431,0.482218
102057000,0.0324,0.013523,0.002678,0.000431,0.180641
102058000,0.0324,0.013523,0.002678,0.000431,0.143972
102059000,0.0324,0.013523,0.002678,0.000431,0.126695
102060000,0.0324,0.013523,0.002678,0.000431,0.100604
102061000,0.0324,0.013523,0.002678,0.000431,0.096491
102062000,0.0324,0.013523,0.002678,0.000431,0.082740
102063000,0.0324,0.013523,0.002678,0.000431,0.073220
102064000,0.0324,0.013523,0.002678,0.000431,0.069694
102065000,0.0324,0.013523,0.002678,0.000431,0.066403
102066000,0.0324,0.013523,0.002678,0.000431,0.055943
102067000,0.0324,0.013523,0.002678,0.000431,0.048539
102068000,0.0324,0.013523,0.002678,0.000431,0.046071
102069000,0.0324,0.013523,0.002678,0.000431,0.047011
102070000,0.0324,0.013523,0.002678,0.000431,0.036786
102071000,0.0324,0.013523,0.002678,0.000431,0.038432
102072000,0.0324,0.013523,0.002678,0.000431,0.037256
102073000,0.0324,0.013523,0.002678,0.000431,0.034553
102074000,0.0324,0.013523,0.002678,0.000431,0.031145
102075000,0.0324,0.013523,0.002678,0.000431,0.022683
102076000,0.0324,0.013523,0.002678,0.000431,0.024211
102077000,0.0324,0.013523,0.002678,0.000431,0.023036
102078000,0.0324,0.013523,0.002678,0.000431,0.015279
102079000,0.0324,0.013523,0.002678,0.000431,0.019627
102080000,0.0324,0.013523,0.002678,0.000431,0.012693
102081000,0.0324,0.013523,0.002678,0.000431,0.015279
102082000,0.0324,0.013523,0.002678,0.000431,0.013751
102083000,0.0324,0.013523,0.002678,0.000431,0.007992
102084000,0.0324,0.013523,0.002678,0.000431,0.008462
102085000,0.0324,0.013523,0.002678,0.000431,0.008932
102086000,0.0324,0.013523,0.002678,0.000431,0.007052
102087000,0.0324,0.013523,0.002678,0.000431,0.007169
102088000,0.0324,0.013523,0.002678,0.000431,0.007874
102089000,0.0324,0.013523,0.002678,0.000431,0.006699
102090000,0.0324,0.013523,0.002678,0.000431,0.004231
102091000,0.0324,0.013523,0.002678,0.000431,0.005641
102092000,0.0324,0.013523,0.002678,0.000431,0.003643
102093000,0.0324,0.013523,0.002678,0.000431,0.003291
102094000,0.0324,0.013523,0.002678,0.000431,0.003408
102095000,0.0324,0.013523,0.002678,0.000431,0.003408
102096000,0.0324,0.013523,0.002678,0.000431,0.004466
102097000,0.0324,0.013523,0.002678,0.000431,0.002821
102098000,0.0324,0.013523,0.002678,0.000431,0.002586
102099000,0.0324,0.013523,0.002678,0.000431,0.002586
102100000,0.0324,0.013523,0.002678,0.000431,0.002586
102101000,0.0324,0.013523,0.002678,0.000431,0.002703
102102000,0.0324,0.013523,0.002678,0.000431,0.002821
102103000,0.0324,0.013523,0.002678,0.000431,0.002468
102104000,0.0324,0.013523,0.002678,0.000431,0.002703
102105000,0.0324,0.013523,0.002678,0.000431,0.003173
102106000,0.0324,0.013523,0.002678,0.000431,0.002586
102107000,0.0324,0.013523,0.002678,0.000431,0.001645
102108000,0.0324,0.013523,0.002678,0.000431,0.001880
102109000,0.0324,0.013523,0.002678,0.000431,0.001645
102110000,0.0324,0.013523,0.002678,0.000431,0.001645
102111000,0.0324,0.013523,0.002678,0.000431,0.001763
102112000,0.0324,0.013523,0.002678,0.000431,0.001645
102113000,0.0324,0.013523,0.002678,0.000431,0.001880
102114000,0.0324,0.013523,0.002678,0.000431,0.002586
102115000,0.0324,0.013523,0.002678,0.000431,0.001880
102116000,0.0324,0.013523,0.002678,0.000431,0.000940
102117000,0.0324,0.013523,0.002678,0.000431,0.000940
102118000,0.0324,0.013523,0.002678,0.000431,0.000940
102119000,0.0324,0.013523,0.002678,0.000431,0.099899
102120000,0.0324,0.013523,0.002678,0.000431,0.613380
102121000,0.0324,0.013523,0.002678,0.000431,0.562372
102122000,0.0324,0.013523,0.002678,0.000431,0.133982
102123000,0.0324,0.013523,0.002678,0.000431,0.133512
102124000,0.0324,0.013523,0.002678,0.000431,0.573067
102125000,0.0324,0.013523,0.002678,0.000431,0.234116
102126000,0.0324,0.013523,0.002678,0.000431,0.274781
102127000,0.0324,0.013523,0.002678,0.000431,0.243753
102128000,0.0324,0.013523,0.002678,0.000431,0.148791
102129000,0.0324,0.013523,0.002678,0.000431,0.173589
102130000,0.0324,0.013523,0.002678,0.000431,0.108008
102131000,0.0324,0.013523,0.002678,0.000431,0.478810
102132000,0.0324,0.013523,0.002678,0.000431,0.194509
102133000,0.0324,0.013523,0.002678,0.000431,0.136685
102134000,0.0324,0.013523,0.002678,0.000431,0.119174
102135000,0.0324,0.013523,0.002678,0.000431,0.100134
102136000,0.0324,0.013523,0.002678,0.000431,0.098371
102137000,0.0324,0.013523,0.002678,0.000431,0.081682
102138000,0.0324,0.013523,0.002678,0.000431,0.081682
102139000,0.0324,0.013523,0.002678,0.000431,0.074513
102140000,0.0324,0.013523,0.002678,0.000431,0.063113
102141000,0.0324,0.013523,0.002678,0.000431,0.050067
102142000,0.0324,0.013523,0.002678,0.000431,0.042545
102143000,0.0324,0.013523,0.002678,0.000431,0.044191
102144000,0.0324,0.013523,0.002678,0.000431,0.039842
102145000,0.0324,0.013523,0.002678,0.000431,0.034553
102146000,0.0324,0.013523,0.002678,0.000431,0.030792
102147000,0.0324,0.013523,0.002678,0.000431,0.026796
102148000,0.0324,0.013523,0.002678,0.000431,0.022213
102149000,0.0324,0.013523,0.002678,0.000431,0.019627
102150000,0.0324,0.013523,0.002678,0.000431,0.023623
102151000,0.0324,0.013523,0.002678,0.000431,0.010107
102152000,0.0324,0.013523,0.002678,0.000431,0.010813
102153000,0.0324,0.013523,0.002678,0.000431,0.009520
102154000,0.0324,0.013523,0.002678,0.000431,0.008932
102155000,0.0324,0.013523,0.002678,0.000431,0.007522
102156000,0.0324,0.013523,0.002678,0.000431,0.006817
102157000,0.0324,0.013523,0.002678,0.000431,0.008815
102158000,0.0324,0.013523,0.002678,0.000431,0.007992
102159000,0.0324,0.013523,0.002678,0.000431,0.007639
102160000,0.0324,0.013523,0.002678,0.000431,0.005171
102161000,0.0324,0.013523,0.002678,0.000431,0.005406
102162000,0.0324,0.013523,0.002678,0.000431,0.005994
102163000,0.0324,0.013523,0.002678,0.000431,0.000940
102164000,0.0324,0.013523,0.002678,0.000431,0.000940
102165000,0.0324,0.013523,0.002678,0.000431,0.000940
102166000,0.0324,0.013523,0.002678,0.000431,0.003291
102167000,0.0324,0.013523,0.002678,0.000431,0.524528
102168000,0.0324,0.013523,0.002678,0.000431,0.679901
102169000,0.0324,0.013523,0.002678,0.000431,0.142327
102170000,0.0324,0.013523,0.002678,0.000431,0.133747
102171000,0.0324,0.013523,0.002678,0.000431,0.423337
102172000,0.0324,0.013523,0.002678,0.000431,0.365160
102173000,0.0324,0.013523,0.002678,0.000431,0.256799
102174000,0.0324,0.013523,0.002678,0.000431,0.351879
102175000,0.0324,0.013523,0.002678,0.000431,0.146088
102176000,0.0324,0.013523,0.002678,0.000431,0.178408
102177000,0.0324,0.013523,0.002678,0.000431,0.085443
102178000,0.0324,0.013523,0.002678,0.000431,0.487624
102179000,0.0324,0.013523,0.002678,0.000431,0.186400
102180000,0.0324,0.013523,0.002678,0.000431,0.143149
102181000,0.0324,0.013523,0.002678,0.000431,0.125638
102182000,0.0324,0.013523,0.002678,0.000431,0.116823
102183000,0.0324,0.013523,0.002678,0.000431,0.106128
102184000,0.0324,0.013523,0.002678,0.000431,0.083092
102185000,0.0324,0.013523,0.002678,0.000431,0.091554
102186000,0.0324,0.013523,0.002678,0.000431,0.079449
102187000,0.0324,0.013523,0.002678,0.000431,0.065463
102188000,0.0324,0.013523,0.002678,0.000431,0.067344
102189000,0.0324,0.013523,0.002678,0.000431,0.064876
102190000,0.0324,0.013523,0.002678,0.000431,0.050772
102191000,0.0324,0.013523,0.002678,0.000431,0.055708
102192000,0.0324,0.013523,0.002678,0.000431,0.046659
102193000,0.0324,0.013523,0.002678,0.000431,0.041252
102194000,0.0324,0.013523,0.002678,0.000431,0.042193
102195000,0.0324,0.013523,0.002678,0.000431,0.042310
102196000,0.0324,0.013523,0.002678,0.000431,0.043133
102197000,0.0324,0.013523,0.002678,0.000431,0.036551
102198000,0.0324,0.013523,0.002678,0.000431,0.033848
102199000,0.0324,0.013523,0.002678,0.000431,0.034671
102200000,0.0324,0.013523,0.002678,0.000431,0.037256
102201000,0.0324,0.013523,0.002678,0.000431,0.031850
102202000,0.0324,0.013523,0.002678,0.000431,0.027031
102203000,0.0324,0.013523,0.002678,0.000431,0.021625
102204000,0.0324,0.013523,0.002678,0.000431,0.022330
102205000,0.0324,0.013523,0.002678,0.000431,0.019980
102206000,0.0324,0.013523,0.002678,0.000431,0.020567
102207000,0.0324,0.013523,0.002678,0.000431,0.019275
102208000,0.0324,0.013523,0.002678,0.000431,0.020450
102209000,0.0324,0.013523,0.002678,0.000431,0.018569
102210000,0.0324,0.013523,0.002678,0.000431,0.023388
102211000,0.0324,0.013523,0.002678,0.000431,0.019157
102212000,0.0324,0.013523,0.002678,0.000431,0.017159
102213000,0.0324,0.013523,0.002678,0.000431,0.017277
102214000,0.0324,0.013523,0.002678,0.000431,0.015866
102215000,0.0324,0.013523,0.002678,0.000431,0.013868
102216000,0.0324,0.013523,0.002678,0.000431,0.013633
102217000,0.0324,0.013523,0.002678,0.000431,0.016807
102218000,0.0324,0.013523,0.002678,0.000431,0.014691
102219000,0.0324,0.013523,0.002678,0.000431,0.008697
102220000,0.0324,0.013523,0.002678,0.000431,0.013281
102221000,0.0324,0.013523,0.002678,0.000431,0.007522
102222000,0.0324,0.013523,0.002678,0.000431,0.008227
102223000,0.0324,0.013523,0.002678,0.000431,0.007874
102224000,0.0324,0.013523,0.002678,0.000431,0.009990
102225000,0.0324,0.013523,0.002678,0.000431,0.006111
102226000,0.0324,0.013523,0.002678,0.000431,0.000940
102227000,0.0324,0.013523,0.002678,0.000431,0.000705
102228000,0.0324,0.013523,0.002678,0.000431,0.000940
102229000,0.0324,0.013523,0.002678,0.000431,0.000823
102230000,0.0324,0.013523,0.002678,0.000431,0.000823
102231000,0.0324,0.013523,0.002678,0.000431,0.000823
102232000,0.0324,0.013523,0.002678,0.000431,0.000823
102233000,0.0324,0.013523,0.002678,0.000431,0.000940
102234000,0.0324,0.013523,0.002678,0.000431,0.000940
102235000,0.0324,0.013523,0.002678,0.000431,0.000705
102236000,0.0324,0.013523,0.002678,0.000431,0.000940
102237000,0.0324,0.013523,0.002678,0.000431,0.000940
102238000,0.0324,0.013523,0.002678,0.000431,0.000940
102239000,0.0324,0.013523,0.002678,0.000431,0.000705
102240000,0.0324,0.013523,0.002678,0.000431,0.000940
102241000,0.0324,0.013523,0.002678,0.000431,0.000940
102242000,0.0324,0.013523,0.002678,0.000431,0.000705
102243000,0.0324,0.013523,0.002678,0.000431,0.000940
102244000,0.0324,0.013523,0.002678,0.000431,0.000940
102245000,0.0324,0.013523,0.002678,0.000431,0.000823
102246000,0.0324,0.013523,0.002678,0.000431,0.000823
102247000,0.0324,0.013523,0.002678,0.000431,0.000940
102248000,0.0324,0.013523,0.002678,0.000431,0.000940
102249000,0.0324,0.013523,0.002678,0.000431,0.000940
102250000,0.0324,0.013523,0.002678,0.000431,0.000705
102251000,0.0324,0.013523,0.002678,0.000431,0.000940
102252000,0.0324,0.013523,0.002678,0.000431,0.000940
102253000,0.0324,0.013523,0.002678,0.000431,0.000823
102254000,0.0324,0.013523,0.002678,0.000431,0.000823
102255000,0.0324,0.013523,0.002678,0.000431,0.000940
102256000,0.0324,0.013523,0.002678,0.000431,0.000823
102257000,0.0324,0.013523,0.002678,0.000431,0.000940
102258000,0.0324,0.013523,0.002678,0.000431,0.000823
102259000,0.0324,0.013523,0.002678,0.000431,0.000940
102260000,0.0324,0.013523,0.002678,0.000431,0.000823
102261000,0.0324,0.013523,0.002678,0.000431,0.000823
102262000,0.0324,0.013523,0.002678,0.000431,0.000940
102263000,0.0324,0.013523,0.002678,0.000431,0.000940
102264000,0.0324,0.013523,0.002678,0.000431,0.000823
102265000,0.0324,0.013523,0.002678,0.000431,0.000823
102266000,0.0324,0.013523,0.002678,0.000431,0.000940
102267000,0.0324,0.013523,0.002678,0.000431,0.000940
102268000,0.0324,0.013523,0.002678,0.000431,0.000705
102269000,0.0324,0.013523,0.002678,0.000431,0.000940
102270000,0.0324,0.013523,0.002678,0.000431,0.000940
102271000,0.0324,0.013523,0.002678,0.000431,0.000940
102272000,0.0324,0.013523,0.002678,0.000431,0.000823
102273000,0.0324,0.013523,0.002678,0.000431,0.000823
102274000,0.0324,0.013523,0.002678,0.000431,0.000940
102275000,0.0324,0.013523,0.002678,0.000431,0.000823
102276000,0.0324,0.013523,0.002678,0.000431,0.000940
102277000,0.0324,0.013523,0.002678,0.000431,0.000823
102278000,0.0324,0.013523,0.002678,0.000431,0.000940
102279000,0.0324,0.013523,0.002678,0.000431,0.002586
102280000,0.0324,0.013523,0.002678,0.000431,0.505136
102281000,0.0324,0.013523,0.002678,0.000431,0.665210
102282000,0.0324,0.013523,0.002678,0.000431,0.169358
102283000,0.0324,0.013523,0.002678,0.000431,0.133042
102284000,0.0324,0.013523,0.002678,0.000431,0.258797
102285000,0.0324,0.013523,0.002678,0.000431,0.589521
102286000,0.0324,0.013523,0.002678,0.000431,0.232471
102287000,0.0324,0.013523,0.002678,0.000431,0.338834
102288000,0.0324,0.013523,0.002678,0.000431,0.152199
102289000,0.0324,0.013523,0.002678,0.000431,0.149143
102290000,0.0324,0.013523,0.002678,0.000431,0.107068
102291000,0.0324,0.013523,0.002678,0.000431,0.424747
102292000,0.0324,0.013523,0.002678,0.000431,0.257622
102293000,0.0324,0.013523,0.002678,0.000431,0.153844
102294000,0.0324,0.013523,0.002678,0.000431,0.125755
102295000,0.0324,0.013523,0.002678,0.000431,0.113885
102296000,0.0324,0.013523,0.002678,0.000431,0.109184
102297000,0.0324,0.013523,0.002678,0.000431,0.097196
102298000,0.0324,0.013523,0.002678,0.000431,0.077686
102299000,0.0324,0.013523,0.002678,0.000431,0.079214
102300000,0.0324,0.013523,0.002678,0.000431,0.074278
102301000,0.0324,0.013523,0.002678,0.000431,0.062172
102302000,0.0324,0.013523,0.002678,0.000431,0.067814
102303000,0.0324,0.013523,0.002678,0.000431,0.054416
102304000,0.0324,0.013523,0.002678,0.000431,0.048892
102305000,0.0324,0.013523,0.002678,0.000431,0.045013
102306000,0.0324,0.013523,0.002678,0.000431,0.049009
102307000,0.0324,0.013523,0.002678,0.000431,0.040077
102308000,0.0324,0.013523,0.002678,0.000431,0.035376
102309000,0.0324,0.013523,0.002678,0.000431,0.033025
102310000,0.0324,0.013523,0.002678,0.000431,0.033613
102311000,0.0324,0.013523,0.002678,0.000431,0.027619
102312000,0.0324,0.013523,0.002678,0.000431,0.029147
102313000,0.0324,0.013523,0.002678,0.000431,0.022448
102314000,0.0324,0.013523,0.002678,0.000431,0.018217
102315000,0.0324,0.013523,0.002678,0.000431,0.016101
102316000,0.0324,0.013523,0.002678,0.000431,0.014338
102317000,0.0324,0.013523,0.002678,0.000431,0.012340
102318000,0.0324,0.013523,0.002678,0.000431,0.012576
102319000,0.0324,0.013523,0.002678,0.000431,0.010107
102320000,0.0324,0.013523,0.002678,0.000431,0.012340
102321000,0.0324,0.013523,0.002678,0.000431,0.008697
102322000,0.0324,0.013523,0.002678,0.000431,0.009520
102323000,0.0324,0.013523,0.002678,0.000431,0.008697
102324000,0.0324,0.013523,0.002678,0.000431,0.005641
102325000,0.0324,0.013523,0.002678,0.000431,0.005524
102326000,0.0324,0.013523,0.002678,0.000431,0.005994
102327000,0.0324,0.013523,0.002678,0.000431,0.005759
102328000,0.0324,0.013523,0.002678,0.000431,0.005289
102329000,0.0324,0.013523,0.002678,0.000431,0.005759
102330000,0.0324,0.013523,0.002678,0.000431,0.004466
102331000,0.0324,0.013523,0.002678,0.000431,0.007874
102332000,0.0324,0.013523,0.002678,0.000431,0.003408
102333000,0.0324,0.013523,0.002678,0.000431,0.003526
102334000,0.0324,0.013523,0.002678,0.000431,0.003526
102335000,0.0324,0.013523,0.002678,0.000431,0.003291
102336000,0.0324,0.013523,0.002678,0.000431,0.003526
102337000,0.0324,0.013523,0.002678,0.000431,0.003526
102338000,0.0324,0.013523,0.002678,0.000431,0.005171
102339000,0.0324,0.013523,0.002678,0.000431,0.002821
102340000,0.0324,0.013523,0.002678,0.000431,0.002351
102341000,0.0324,0.013523,0.002678,0.000431,0.002703
102342000,0.0324,0.013523,0.002678,0.000431,0.002468
102343000,0.0324,0.013523,0.002678,0.000431,0.002468
102344000,0.0324,0.013523,0.002678,0.000431,0.002821
102345000,0.0324,0.013523,0.002678,0.000431,0.002586
102346000,0.0324,0.013523,0.002678,0.000431,0.002468
102347000,0.0324,0.013523,0.002678,0.000431,0.002468
102348000,0.0324,0.013523,0.002678,0.000431,0.002586
102349000,0.0324,0.013523,0.002678,0.000431,0.002821
102350000,0.0324,0.013523,0.002678,0.000431,0.002468
102351000,0.0324,0.013523,0.002678,0.000431,0.004231
102352000,0.0324,0.013523,0.002678,0.000431,0.001645
102353000,0.0324,0.013523,0.002678,0.000431,0.001880
102354000,0.0324,0.013523,0.002678,0.000431,0.001880
102355000,0.0324,0.013523,0.002678,0.000431,0.001175
102356000,0.0324,0.013523,0.002678,0.000431,0.000823
102357000,0.0324,0.013523,0.002678,0.000431,0.000940
102358000,0.0324,0.013523,0.002678,0.000431,0.000823
102359000,0.0324,0.013523,0.002678,0.000431,0.001880
102360000,0.0324,0.013523,0.002678,0.000431,0.428273
102361000,0.0324,0.013523,0.002678,0.000431,0.707872
102362000,0.0324,0.013523,0.002678,0.000431,0.166772
102363000,0.0324,0.013523,0.002678,0.000431,0.134335
102364000,0.0324,0.013523,0.002678,0.000431,0.140211
102365000,0.0324,0.013523,0.002678,0.000431,0.574478
102366000,0.0324,0.013523,0.002678,0.000431,0.247044
102367000,0.0324,0.013523,0.002678,0.000431,0.292880
102368000,0.0324,0.013523,0.002678,0.000431,0.216369
102369000,0.0324,0.013523,0.002678,0.000431,0.140329
102370000,0.0324,0.013523,0.002678,0.000431,0.172296
102371000,0.0324,0.013523,0.002678,0.000431,0.140211
102372000,0.0324,0.013523,0.002678,0.000431,0.517829
102373000,0.0324,0.013523,0.002678,0.000431,0.207202
102374000,0.0324,0.013523,0.002678,0.000431,0.174529
102375000,0.0324,0.013523,0.002678,0.000431,0.149261
102376000,0.0324,0.013523,0.002678,0.000431,0.141034
102377000,0.0324,0.013523,0.002678,0.000431,0.120584
102378000,0.0324,0.013523,0.002678,0.000431,0.106833
102379000,0.0324,0.013523,0.002678,0.000431,0.113297
102380000,0.0324,0.013523,0.002678,0.000431,0.090614
102381000,0.0324,0.013523,0.002678,0.000431,0.078039
102382000,0.0324,0.013523,0.002678,0.000431,0.071575
102383000,0.0324,0.013523,0.002678,0.000431,0.057941
102384000,0.0324,0.013523,0.002678,0.000431,0.048892
102385000,0.0324,0.013523,0.002678,0.000431,0.050185
102386000,0.0324,0.013523,0.002678,0.000431,0.038549
102387000,0.0324,0.013523,0.002678,0.000431,0.039842
102388000,0.0324,0.013523,0.002678,0.000431,0.026209
102389000,0.0324,0.013523,0.002678,0.000431,0.021860
102390000,0.0324,0.013523,0.002678,0.000431,0.019862
102391000,0.0324,0.013523,0.002678,0.000431,0.022330
102392000,0.0324,0.013523,0.002678,0.000431,0.017982
102393000,0.0324,0.013523,0.002678,0.000431,0.016807
102394000,0.0324,0.013523,0.002678,0.000431,0.014573
102395000,0.0324,0.013523,0.002678,0.000431,0.015749
102396000,0.0324,0.013523,0.002678,0.000431,0.011048
102397000,0.0324,0.013523,0.002678,0.000431,0.010695
102398000,0.0324,0.013523,0.002678,0.000431,0.005406
102399000,0.0324,0.013523,0.002678,0.000431,0.004231
102400000,0.0324,0.013523,0.002678,0.000431,0.005524
102401000,0.0324,0.013523,0.002678,0.000431,0.004819
102402000,0.0324,0.013523,0.002678,0.000431,0.005171
102403000,0.0324,0.013523,0.002678,0.000431,0.005054
102404000,0.0324,0.013523,0.002678,0.000431,0.005171
102405000,0.0324,0.013523,0.002678,0.000431,0.009402
102406000,0.0324,0.013523,0.002678,0.000431,0.007404
102407000,0.0324,0.013523,0.002678,0.000431,0.535811
102408000,0.0324,0.013523,0.002678,0.000431,0.712338
102409000,0.0324,0.013523,0.002678,0.000431,0.154785
102410000,0.0324,0.013523,0.002678,0.000431,0.139388
102411000,0.0324,0.013523,0.002678,0.000431,0.521237
102412000,0.0324,0.013523,0.002678,0.000431,0.308982
102413000,0.0324,0.013523,0.002678,0.000431,0.318501
102414000,0.0324,0.013523,0.002678,0.000431,0.302753
102415000,0.0324,0.013523,0.002678,0.000431,0.142209
102416000,0.0324,0.013523,0.002678,0.000431,0.119409
102417000,0.0324,0.013523,0.002678,0.000431,0.309334
102418000,0.0324,0.013523,0.002678,0.000431,0.340362
102419000,0.0324,0.013523,0.002678,0.000431,0.133630
102420000,0.0324,0.013523,0.002678,0.000431,0.118351
102421000,0.0324,0.013523,0.002678,0.000431,0.110947
102422000,0.0324,0.013523,0.002678,0.000431,0.107303
102423000,0.0324,0.013523,0.002678,0.000431,0.098254
102424000,0.0324,0.013523,0.002678,0.000431,0.092025
102425000,0.0324,0.013523,0.002678,0.000431,0.086266
102426000,0.0324,0.013523,0.002678,0.000431,0.071575
102427000,0.0324,0.013523,0.002678,0.000431,0.057824
102428000,0.0324,0.013523,0.002678,0.000431,0.052770
102429000,0.0324,0.013523,0.002678,0.000431,0.052888
102430000,0.0324,0.013523,0.002678,0.000431,0.040547
102431000,0.0324,0.013523,0.002678,0.000431,0.033496
102432000,0.0324,0.013523,0.002678,0.000431,0.033848
102433000,0.0324,0.013523,0.002678,0.000431,0.026209
102434000,0.0324,0.013523,0.002678,0.000431,0.026561
102435000,0.0324,0.013523,0.002678,0.000431,0.017277
102436000,0.0324,0.013523,0.002678,0.000431,0.017277
102437000,0.0324,0.013523,0.002678,0.000431,0.018217
102438000,0.0324,0.013523,0.002678,0.000431,0.015749
102439000,0.0324,0.013523,0.002678,0.000431,0.015396
102440000,0.0324,0.013523,0.002678,0.000431,0.019980
102441000,0.0324,0.013523,0.002678,0.000431,0.013751
102442000,0.0324,0.013523,0.002678,0.000431,0.016336
102443000,0.0324,0.013523,0.002678,0.000431,0.009402
102444000,0.0324,0.013523,0.002678,0.000431,0.012223
102445000,0.0324,0.013523,0.002678,0.000431,0.010107
102446000,0.0324,0.013523,0.002678,0.000431,0.008580
102447000,0.0324,0.013523,0.002678,0.000431,0.006699
102448000,0.0324,0.013523,0.002678,0.000431,0.007169
102449000,0.0324,0.013523,0.002678,0.000431,0.005524
102450000,0.0324,0.013523,0.002678,0.000431,0.007992
102451000,0.0324,0.013523,0.002678,0.000431,0.004466
102452000,0.0324,0.013523,0.002678,0.000431,0.005406
102453000,0.0324,0.013523,0.002678,0.000431,0.004936
102454000,0.0324,0.013523,0.002678,0.000431,0.009402
102455000,0.0324,0.013523,0.002678,0.000431,0.003643
102456000,0.0324,0.013523,0.002678,0.000431,0.003878
102457000,0.0324,0.013523,0.002678,0.000431,0.003643
102458000,0.0324,0.013523,0.002678,0.000431,0.002351
102459000,0.0324,0.013523,0.002678,0.000431,0.002468
102460000,0.0324,0.013523,0.002678,0.000431,0.002116
102461000,0.0324,0.013523,0.002678,0.000431,0.002821
102462000,0.0324,0.013523,0.002678,0.000431,0.002116
102463000,0.0324,0.013523,0.002678,0.000431,0.002351
102464000,0.0324,0.013523,0.002678,0.000431,0.002351
102465000,0.0324,0.013523,0.002678,0.000431,0.002586
102466000,0.0324,0.013523,0.002678,0.000431,0.002351
102467000,0.0324,0.013523,0.002678,0.000431,0.002351
102468000,0.0324,0.013523,0.002678,0.000431,0.002821
102469000,0.0324,0.013523,0.002678,0.000431,0.004701
102470000,0.0324,0.013523,0.002678,0.000431,0.003056
102471000,0.0324,0.013523,0.002678,0.000431,0.319207
102472000,0.0324,0.013523,0.002678,0.000431,0.660861
102473000,0.0324,0.013523,0.002678,0.000431,0.302753
102474000,0.0324,0.013523,0.002678,0.000431,0.131161
102475000,0.0324,0.013523,0.002678,0.000431,0.163364
102476000,0.0324,0.013523,0.002678,0.000431,0.634652
102477000,0.0324,0.013523,0.002678,0.000431,0.240933
102478000,0.0324,0.013523,0.002678,0.000431,0.282890
102479000,0.0324,0.013523,0.002678,0.000431,0.202031
102480000,0.0324,0.013523,0.002678,0.000431,0.151376
102481000,0.0324,0.013523,0.002678,0.000431,0.138918
102482000,0.0324,0.013523,0.002678,0.000431,0.238465
102483000,0.0324,0.013523,0.002678,0.000431,0.460005
102484000,0.0324,0.013523,0.002678,0.000431,0.186517
102485000,0.0324,0.013523,0.002678,0.000431,0.164304
102486000,0.0324,0.013523,0.002678,0.000431,0.153962
102487000,0.0324,0.013523,0.002678,0.000431,0.117763
102488000,0.0324,0.013523,0.002678,0.000431,0.110124
102489000,0.0324,0.013523,0.002678,0.000431,0.097313
102490000,0.0324,0.013523,0.002678,0.000431,0.082505
102491000,0.0324,0.013523,0.002678,0.000431,0.074630
102492000,0.0324,0.013523,0.002678,0.000431,0.068754
102493000,0.0324,0.013523,0.002678,0.000431,0.068754
102494000,0.0324,0.013523,0.002678,0.000431,0.047364
102495000,0.0324,0.013523,0.002678,0.000431,0.039019
102496000,0.0324,0.013523,0.002678,0.000431,0.042898
102497000,0.0324,0.013523,0.002678,0.000431,0.029029
102498000,0.0324,0.013523,0.002678,0.000431,0.029617
102499000,0.0324,0.013523,0.002678,0.000431,0.027502
102500000,0.0324,0.013523,0.002678,0.000431,0.036669
102501000,0.0324,0.013523,0.002678,0.000431,0.024563
102502000,0.0324,0.013523,0.002678,0.000431,0.023623
102503000,0.0324,0.013523,0.002678,0.000431,0.024211
102504000,0.0324,0.013523,0.002678,0.000431,0.018687
102505000,0.0324,0.013523,0.002678,0.000431,0.014103
102506000,0.0324,0.013523,0.002678,0.000431,0.013398
102507000,0.0324,0.013523,0.002678,0.000431,0.012811
102508000,0.0324,0.013523,0.002678,0.000431,0.017864
102509000,0.0324,0.013523,0.002678,0.000431,0.006111
102510000,0.0324,0.013523,0.002678,0.000431,0.005641
102511000,0.0324,0.013523,0.002678,0.000431,0.008697
102512000,0.0324,0.013523,0.002678,0.000431,0.004231
102513000,0.0324,0.013523,0.002678,0.000431,0.005289
102514000,0.0324,0.013523,0.002678,0.000431,0.003996
102515000,0.0324,0.013523,0.002678,0.000431,0.002703
102516000,0.0324,0.013523,0.002678,0.000431,0.004231
102517000,0.0324,0.013523,0.002678,0.000431,0.001763
102518000,0.0324,0.013523,0.002678,0.000431,0.001645
102519000,0.0324,0.013523,0.002678,0.000431,0.001645
102520000,0.0324,0.013523,0.002678,0.000431,0.001645
102521000,0.0324,0.013523,0.002678,0.000431,0.001645
102522000,0.0324,0.013523,0.002678,0.000431,0.001645
102523000,0.0324,0.013523,0.002678,0.000431,0.001763
102524000,0.0324,0.013523,0.002678,0.000431,0.001528
102525000,0.0324,0.013523,0.002678,0.000431,0.001645
102526000,0.0324,0.013523,0.002678,0.000431,0.001763
102527000,0.0324,0.013523,0.002678,0.000431,0.001528
102528000,0.0324,0.013523,0.002678,0.000431,0.001645
102529000,0.0324,0.013523,0.002678,0.000431,0.001645
102530000,0.0324,0.013523,0.002678,0.000431,0.001880
102531000,0.0324,0.013523,0.002678,0.000431,0.001410
102532000,0.0324,0.013523,0.002678,0.000431,0.001645
102533000,0.0324,0.013523,0.002678,0.000431,0.001880
102534000,0.0324,0.013523,0.002678,0.000431,0.001645
102535000,0.0324,0.013523,0.002678,0.000431,0.001410
102536000,0.0324,0.013523,0.002678,0.000431,0.001645
102537000,0.0324,0.013523,0.002678,0.000431,0.001880
102538000,0.0324,0.013523,0.002678,0.000431,0.001645
102539000,0.0324,0.013523,0.002678,0.000431,0.001410
102540000,0.0324,0.013523,0.002678,0.000431,0.001880
102541000,0.0324,0.013523,0.002678,0.000431,0.001645
102542000,0.0324,0.013523,0.002678,0.000431,0.001645
102543000,0.0324,0.013523,0.002678,0.000431,0.001528
102544000,0.0324,0.013523,0.002678,0.000431,0.001763
102545000,0.0324,0.013523,0.002678,0.000431,0.001645
102546000,0.0324,0.013523,0.002678,0.000431,0.001410
102547000,0.0324,0.013523,0.002678,0.000431,0.001880
102548000,0.0324,0.013523,0.002678,0.000431,0.001645
102549000,0.0324,0.013523,0.002678,0.000431,0.001645
102550000,0.0324,0.013523,0.002678,0.000431,0.002703
102551000,0.0324,0.013523,0.002678,0.000431,0.454246
102552000,0.0324,0.013523,0.002678,0.000431,0.709400
102553000,0.0324,0.013523,0.002678,0.000431,0.220600
102554000,0.0324,0.013523,0.002678,0.000431,0.134922
102555000,0.0324,0.013523,0.002678,0.000431,0.201561
102556000,0.0324,0.013523,0.002678,0.000431,0.569424
102557000,0.0324,0.013523,0.002678,0.000431,0.274546
102558000,0.0324,0.013523,0.002678,0.000431,0.319089
102559000,0.0324,0.013523,0.002678,0.000431,0.176997
102560000,0.0324,0.013523,0.002678,0.000431,0.150906
102561000,0.0324,0.013523,0.002678,0.000431,0.101427
102562000,0.0324,0.013523,0.002678,0.000431,0.414874
102563000,0.0324,0.013523,0.002678,0.000431,0.331429
102564000,0.0324,0.013523,0.002678,0.000431,0.193216
102565000,0.0324,0.013523,0.002678,0.000431,0.160543
102566000,0.0324,0.013523,0.002678,0.000431,0.156312
102567000,0.0324,0.013523,0.002678,0.000431,0.132337
102568000,0.0324,0.013523,0.002678,0.000431,0.114825
102569000,0.0324,0.013523,0.002678,0.000431,0.104718
102570000,0.0324,0.013523,0.002678,0.000431,0.098136
102571000,0.0324,0.013523,0.002678,0.000431,0.082035
102572000,0.0324,0.013523,0.002678,0.000431,0.075101
102573000,0.0324,0.013523,0.002678,0.000431,0.081682
102574000,0.0324,0.013523,0.002678,0.000431,0.069224
102575000,0.0324,0.013523,0.002678,0.000431,0.067579
102576000,0.0324,0.013523,0.002678,0.000431,0.050537
102577000,0.0324,0.013523,0.002678,0.000431,0.043838
102578000,0.0324,0.013523,0.002678,0.000431,0.043838
102579000,0.0324,0.013523,0.002678,0.000431,0.043368
102580000,0.0324,0.013523,0.002678,0.000431,0.041370
102581000,0.0324,0.013523,0.002678,0.000431,0.031145
102582000,0.0324,0.013523,0.002678,0.000431,0.030087
102583000,0.0324,0.013523,0.002678,0.000431,0.028324
102584000,0.0324,0.013523,0.002678,0.000431,0.032320
102585000,0.0324,0.013523,0.002678,0.000431,0.030087
102586000,0.0324,0.013523,0.002678,0.000431,0.026561
102587000,0.0324,0.013523,0.002678,0.000431,0.026914
102588000,0.0324,0.013523,0.002678,0.000431,0.025034
102589000,0.0324,0.013523,0.002678,0.000431,0.021743
102590000,0.0324,0.013523,0.002678,0.000431,0.020215
102591000,0.0324,0.013523,0.002678,0.000431,0.018569
102592000,0.0324,0.013523,0.002678,0.000431,0.020097
102593000,0.0324,0.013523,0.002678,0.000431,0.022330
102594000,0.0324,0.013523,0.002678,0.000431,0.024681
102595000,0.0324,0.013523,0.002678,0.000431,0.016807
102596000,0.0324,0.013523,0.002678,0.000431,0.015866
102597000,0.0324,0.013523,0.002678,0.000431,0.014456
102598000,0.0324,0.013523,0.002678,0.000431,0.012223
102599000,0.0324,0.013523,0.002678,0.000431,0.012105
102600000,0.0324,0.013523,0.002678,0.000431,0.011635
102601000,0.0324,0.013523,0.002678,0.000431,0.014103
102602000,0.0324,0.013523,0.002678,0.000431,0.011048
102603000,0.0324,0.013523,0.002678,0.000431,0.010578
102604000,0.0324,0.013523,0.002678,0.000431,0.011048
102605000,0.0324,0.013523,0.002678,0.000431,0.013751
102606000,0.0324,0.013523,0.002678,0.000431,0.008345
102607000,0.0324,0.013523,0.002678,0.000431,0.007992
102608000,0.0324,0.013523,0.002678,0.000431,0.007287
102609000,0.0324,0.013523,0.002678,0.000431,0.009167
102610000,0.0324,0.013523,0.002678,0.000431,0.010342
102611000,0.0324,0.013523,0.002678,0.000431,0.006229
102612000,0.0324,0.013523,0.002678,0.000431,0.007052
102613000,0.0324,0.013523,0.002678,0.000431,0.005994
102614000,0.0324,0.013523,0.002678,0.000431,0.005054
102615000,0.0324,0.013523,0.002678,0.000431,0.005054
102616000,0.0324,0.013523,0.002678,0.000431,0.005289
102617000,0.0324,0.013523,0.002678,0.000431,0.006699
102618000,0.0324,0.013523,0.002678,0.000431,0.009872
102619000,0.0324,0.013523,0.002678,0.000431,0.003761
102620000,0.0324,0.013523,0.002678,0.000431,0.003291
102621000,0.0324,0.013523,0.002678,0.000431,0.003291
102622000,0.0324,0.013523,0.002678,0.000431,0.003408
102623000,0.0324,0.013523,0.002678,0.000431,0.003761
102624000,0.0324,0.013523,0.002678,0.000431,0.003526
102625000,0.0324,0.013523,0.002678,0.000431,0.003526
102626000,0.0324,0.013523,0.002678,0.000431,0.003173
102627000,0.0324,0.013523,0.002678,0.000431,0.003408
102628000,0.0324,0.013523,0.002678,0.000431,0.003643
102629000,0.0324,0.013523,0.002678,0.000431,0.003526
102630000,0.0324,0.013523,0.002678,0.000431,0.003526
102631000,0.0324,0.013523,0.002678,0.000431,0.003526
102632000,0.0324,0.013523,0.002678,0.000431,0.003291
102633000,0.0324,0.013523,0.002678,0.000431,0.004936
102634000,0.0324,0.013523,0.002678,0.000431,0.006111
102635000,0.0324,0.013523,0.002678,0.000431,0.001645
102636000,0.0324,0.013523,0.002678,0.000431,0.001645
102637000,0.0324,0.013523,0.002678,0.000431,0.001763
102638000,0.0324,0.013523,0.002678,0.000431,0.001528
102639000,0.0324,0.013523,0.002678,0.000431,0.001763
102640000,0.0324,0.013523,0.002678,0.000431,0.001645
102641000,0.0324,0.013523,0.002678,0.000431,0.001645
102642000,0.0324,0.013523,0.002678,0.000431,0.001763
102643000,0.0324,0.013523,0.002678,0.000431,0.001645
102644000,0.0324,0.013523,0.002678,0.000431,0.001528
102645000,0.0324,0.013523,0.002678,0.000431,0.001645
102646000,0.0324,0.013523,0.002678,0.000431,0.001880
102647000,0.0324,0.013523,0.002678,0.000431,0.001645
102648000,0.0324,0.013523,0.002678,0.000431,0.001645
102649000,0.0324,0.013523,0.002678,0.000431,0.001645
102650000,0.0324,0.013523,0.002678,0.000431,0.001645
102651000,0.0324,0.013523,0.002678,0.000431,0.001763
102652000,0.0324,0.013523,0.002678,0.000431,0.001645
102653000,0.0324,0.013523,0.002678,0.000431,0.001763
102654000,0.0324,0.013523,0.002678,0.000431,0.001528
102655000,0.0324,0.013523,0.002678,0.000431,0.001763
102656000,0.0324,0.013523,0.002678,0.000431,0.001763
102657000,0.0324,0.013523,0.002678,0.000431,0.001528
102658000,0.0324,0.013523,0.002678,0.000431,0.001763
102659000,0.0324,0.013523,0.002678,0.000431,0.001763
102660000,0.0324,0.013523,0.002678,0.000431,0.001763
102661000,0.0324,0.013523,0.002678,0.000431,0.001645
102662000,0.0324,0.013523,0.002678,0.000431,0.001645
102663000,0.0324,0.013523,0.002678,0.000431,0.001763
102664000,0.0324,0.013523,0.002678,0.000431,0.001645
102665000,0.0324,0.013523,0.002678,0.000431,0.001763
102666000,0.0324,0.013523,0.002678,0.000431,0.001763
102667000,0.0324,0.013523,0.002678,0.000431,0.001410
102668000,0.0324,0.013523,0.002678,0.000431,0.001880
102669000,0.0324,0.013523,0.002678,0.000431,0.001763
102670000,0.0324,0.013523,0.002678,0.000431,0.001528
102671000,0.0324,0.013523,0.002678,0.000431,0.001645
102672000,0.0324,0.013523,0.002678,0.000431,0.001645
102673000,0.0324,0.013523,0.002678,0.000431,0.001763
102674000,0.0324,0.013523,0.002678,0.000431,0.003173
102675000,0.0324,0.013523,0.002678,0.000431,0.001058
102676000,0.0324,0.013523,0.002678,0.000431,0.000705
102677000,0.0324,0.013523,0.002678,0.000431,0.000940
102678000,0.0324,0.013523,0.002678,0.000431,0.000823
102679000,0.0324,0.013523,0.002678,0.000431,0.000823
102680000,0.0324,0.013523,0.002678,0.000431,0.000940
102681000,0.0324,0.013523,0.002678,0.000431,0.000705
102682000,0.0324,0.013523,0.002678,0.000431,0.000940
102683000,0.0324,0.013523,0.002678,0.000431,0.000823
102684000,0.0324,0.013523,0.002678,0.000431,0.000823
102685000,0.0324,0.013523,0.002678,0.000431,0.000823
102686000,0.0324,0.013523,0.002678,0.000431,0.000823
102687000,0.0324,0.013523,0.002678,0.000431,0.000823
102688000,0.0324,0.013523,0.002678,0.000431,0.000823
102689000,0.0324,0.013523,0.002678,0.000431,0.000940
102690000,0.0324,0.013523,0.002678,0.000431,0.000705
102691000,0.0324,0.013523,0.002678,0.000431,0.000823
102692000,0.0324,0.013523,0.002678,0.000431,0.000940
102693000,0.0324,0.013523,0.002678,0.000431,0.000823
102694000,0.0324,0.013523,0.002678,0.000431,0.000823
102695000,0.0324,0.013523,0.002678,0.000431,0.000823
102696000,0.0324,0.013523,0.002678,0.000431,0.000823
102697000,0.0324,0.013523,0.002678,0.000431,0.000823
102698000,0.0324,0.013523,0.002678,0.000431,0.000940
102699000,0.0324,0.013523,0.002678,0.000431,0.000823
102700000,0.0324,0.013523,0.002678,0.000431,0.000823
102701000,0.0324,0.013523,0.002678,0.000431,0.000705
102702000,0.0324,0.013523,0.002678,0.000431,0.000940
102703000,0.0324,0.013523,0.002678,0.000431,0.000940
102704000,0.0324,0.013523,0.002678,0.000431,0.000705
102705000,0.0324,0.013523,0.002678,0.000431,0.000940
102706000,0.0324,0.013523,0.002678,0.000431,0.000705
102707000,0.0324,0.013523,0.002678,0.000431,0.000940
102708000,0.0324,0.013523,0.002678,0.000431,0.000823
102709000,0.0324,0.013523,0.002678,0.000431,0.000823
102710000,0.0324,0.013523,0.002678,0.000431,0.000823
102711000,0.0324,0.013523,0.002678,0.000431,0.000823
102712000,0.0324,0.013523,0.002678,0.000431,0.000940
102713000,0.0324,0.013523,0.002678,0.000431,0.000823
102714000,0.0324,0.013523,0.002678,0.000431,0.000823
102715000,0.0324,0.013523,0.002678,0.000431,0.000823
102716000,0.0324,0.013523,0.002678,0.000431,0.000823
102717000,0.0324,0.013523,0.002678,0.000431,0.000823
102718000,0.0324,0.013523,0.002678,0.000431,0.000823
102719000,0.0324,0.013523,0.002678,0.000431,0.000940
102720000,0.0324,0.013523,0.002678,0.000431,0.000705
102721000,0.0324,0.013523,0.002678,0.000431,0.000940
102722000,0.0324,0.013523,0.002678,0.000431,0.000823
102723000,0.0324,0.013523,0.002678,0.000431,0.000823
102724000,0.0324,0.013523,0.002678,0.000431,0.000705
102725000,0.0324,0.013523,0.002678,0.000431,0.000940
102726000,0.0324,0.013523,0.002678,0.000431,0.000940
102727000,0.0324,0.013523,0.002678,0.000431,0.000705
102728000,0.0324,0.013523,0.002678,0.000431,0.004466
102729000,0.0324,0.013523,0.002678,0.000431,0.496439
102730000,0.0324,0.013523,0.002678,0.000431,0.737724
102731000,0.0324,0.013523,0.002678,0.000431,0.173001
102732000,0.0324,0.013523,0.002678,0.000431,0.134452
102733000,0.0324,0.013523,0.002678,0.000431,0.226007
102734000,0.0324,0.013523,0.002678,0.000431,0.511835
102735000,0.0324,0.013523,0.002678,0.000431,0.247162
102736000,0.0324,0.013523,0.002678,0.000431,0.323203
102737000,0.0324,0.013523,0.002678,0.000431,0.182404
102738000,0.0324,0.013523,0.002678,0.000431,0.140681
102739000,0.0324,0.013523,0.002678,0.000431,0.149143
102740000,0.0324,0.013523,0.002678,0.000431,0.241873
102741000,0.0324,0.013523,0.002678,0.000431,0.469643
102742000,0.0324,0.013523,0.002678,0.000431,0.208730
102743000,0.0324,0.013523,0.002678,0.000431,0.191924
102744000,0.0324,0.013523,0.002678,0.000431,0.174294
102745000,0.0324,0.013523,0.002678,0.000431,0.153727
102746000,0.0324,0.013523,0.002678,0.000431,0.140681
102747000,0.0324,0.013523,0.002678,0.000431,0.130926
102748000,0.0324,0.013523,0.002678,0.000431,0.110594
102749000,0.0324,0.013523,0.002678,0.000431,0.095550
102750000,0.0324,0.013523,0.002678,0.000431,0.097313
102751000,0.0324,0.013523,0.002678,0.000431,0.078274
102752000,0.0324,0.013523,0.002678,0.000431,0.064523
102753000,0.0324,0.013523,0.002678,0.000431,0.069342
102754000,0.0324,0.013523,0.002678,0.000431,0.069577
102755000,0.0324,0.013523,0.002678,0.000431,0.056296
102756000,0.0324,0.013523,0.002678,0.000431,0.051712
102757000,0.0324,0.013523,0.002678,0.000431,0.041252
102758000,0.0324,0.013523,0.002678,0.000431,0.040665
102759000,0.0324,0.013523,0.002678,0.000431,0.021860
102760000,0.0324,0.013523,0.002678,0.000431,0.026326
102761000,0.0324,0.013523,0.002678,0.000431,0.023506
102762000,0.0324,0.013523,0.002678,0.000431,0.021390
102763000,0.0324,0.013523,0.002678,0.000431,0.022213
102764000,0.0324,0.013523,0.002678,0.000431,0.016571
102765000,0.0324,0.013523,0.002678,0.000431,0.012693
102766000,0.0324,0.013523,0.002678,0.000431,0.015279
102767000,0.0324,0.013523,0.002678,0.000431,0.014691
102768000,0.0324,0.013523,0.002678,0.000431,0.011518
102769000,0.0324,0.013523,0.002678,0.000431,0.009520
102770000,0.0324,0.013523,0.002678,0.000431,0.010578
102771000,0.0324,0.013523,0.002678,0.000431,0.008227
102772000,0.0324,0.013523,0.002678,0.000431,0.006347
102773000,0.0324,0.013523,0.002678,0.000431,0.008580
102774000,0.0324,0.013523,0.002678,0.000431,0.006699
102775000,0.0324,0.013523,0.002678,0.000431,0.004231
102776000,0.0324,0.013523,0.002678,0.000431,0.003878
102777000,0.0324,0.013523,0.002678,0.000431,0.006111
102778000,0.0324,0.013523,0.002678,0.000431,0.003408
102779000,0.0324,0.013523,0.002678,0.000431,0.003291
102780000,0.0324,0.013523,0.002678,0.000431,0.003173
102781000,0.0324,0.013523,0.002678,0.000431,0.003408
102782000,0.0324,0.013523,0.002678,0.000431,0.002586
102783000,0.0324,0.013523,0.002678,0.000431,0.001763
102784000,0.0324,0.013523,0.002678,0.000431,0.001763
102785000,0.0324,0.013523,0.002678,0.000431,0.003056
102786000,0.0324,0.013523,0.002678,0.000431,0.000823
102787000,0.0324,0.013523,0.002678,0.000431,0.000823
102788000,0.0324,0.013523,0.002678,0.000431,0.000940
102789000,0.0324,0.013523,0.002678,0.000431,0.000705
102790000,0.0324,0.013523,0.002678,0.000431,0.000940
102791000,0.0324,0.013523,0.002678,0.000431,0.000823
102792000,0.0324,0.013523,0.002678,0.000431,0.000823
102793000,0.0324,0.013523,0.002678,0.000431,0.000823
102794000,0.0324,0.013523,0.002678,0.000431,0.000823
102795000,0.0324,0.013523,0.002678,0.000431,0.000823
102796000,0.0324,0.013523,0.002678,0.000431,0.000823
102797000,0.0324,0.013523,0.002678,0.000431,0.000823
102798000,0.0324,0.013523,0.002678,0.000431,0.000940
102799000,0.0324,0.013523,0.002678,0.000431,0.250570
102800000,0.0324,0.013523,0.002678,0.000431,0.674729
102801000,0.0324,0.013523,0.002678,0.000431,0.471993
102802000,0.0324,0.013523,0.002678,0.000431,0.135628
102803000,0.0324,0.013523,0.002678,0.000431,0.210963
102804000,0.0324,0.013523,0.002678,0.000431,0.616905
102805000,0.0324,0.013523,0.002678,0.000431,0.279364
102806000,0.0324,0.013523,0.002678,0.000431,0.323203
102807000,0.0324,0.013523,0.002678,0.000431,0.155842
102808000,0.0324,0.013523,0.002678,0.000431,0.167360
102809000,0.0324,0.013523,0.002678,0.000431,0.099781
102810000,0.0324,0.013523,0.002678,0.000431,0.474931
102811000,0.0324,0.013523,0.002678,0.000431,0.223539
102812000,0.0324,0.013523,0.002678,0.000431,0.154079
102813000,0.0324,0.013523,0.002678,0.000431,0.144207
102814000,0.0324,0.013523,0.002678,0.000431,0.123170
102815000,0.0324,0.013523,0.002678,0.000431,0.101544
102816000,0.0324,0.013523,0.002678,0.000431,0.095315
102817000,0.0324,0.013523,0.002678,0.000431,0.078039
102818000,0.0324,0.013523,0.002678,0.000431,0.068284
102819000,0.0324,0.013523,0.002678,0.000431,0.064288
102820000,0.0324,0.013523,0.002678,0.000431,0.058882
102821000,0.0324,0.013523,0.002678,0.000431,0.049479
102822000,0.0324,0.013523,0.002678,0.000431,0.047599
102823000,0.0324,0.013523,0.002678,0.000431,0.042780
102824000,0.0324,0.013523,0.002678,0.000431,0.046776
102825000,0.0324,0.013523,0.002678,0.000431,0.028912
102826000,0.0324,0.013523,0.002678,0.000431,0.026444
102827000,0.0324,0.013523,0.002678,0.000431,0.029382
102828000,0.0324,0.013523,0.002678,0.000431,0.023506
102829000,0.0324,0.013523,0.002678,0.000431,0.025739
102830000,0.0324,0.013523,0.002678,0.000431,0.020567
102831000,0.0324,0.013523,0.002678,0.000431,0.009872
102832000,0.0324,0.013523,0.002678,0.000431,0.011283
102833000,0.0324,0.013523,0.002678,0.000431,0.010342
102834000,0.0324,0.013523,0.002678,0.000431,0.007757
102835000,0.0324,0.013523,0.002678,0.000431,0.011165
102836000,0.0324,0.013523,0.002678,0.000431,0.005641
102837000,0.0324,0.013523,0.002678,0.000431,0.008227
102838000,0.0324,0.013523,0.002678,0.000431,0.004936
102839000,0.0324,0.013523,0.002678,0.000431,0.005406
102840000,0.0324,0.013523,0.002678,0.000431,0.003526
102841000,0.0324,0.013523,0.002678,0.000431,0.003761
102842000,0.0324,0.013523,0.002678,0.000431,0.002938
102843000,0.0324,0.013523,0.002678,0.000431,0.003526
102844000,0.0324,0.013523,0.002678,0.000431,0.002351
102845000,0.0324,0.013523,0.002678,0.000431,0.003173
102846000,0.0324,0.013523,0.002678,0.000431,0.002821
102847000,0.0324,0.013523,0.002678,0.000431,0.002703
102848000,0.0324,0.013523,0.002678,0.000431,0.003173
102849000,0.0324,0.013523,0.002678,0.000431,0.002821
102850000,0.0324,0.013523,0.002678,0.000431,0.002703
102851000,0.0324,0.013523,0.002678,0.000431,0.004113
102852000,0.0324,0.013523,0.002678,0.000431,0.014103
102853000,0.0324,0.013523,0.002678,0.000431,0.569659
102854000,0.0324,0.013523,0.002678,0.000431,0.639001
102855000,0.0324,0.013523,0.002678,0.000431,0.147263
102856000,0.0324,0.013523,0.002678,0.000431,0.133042
102857000,0.0324,0.013523,0.002678,0.000431,0.394660
102858000,0.0324,0.013523,0.002678,0.000431,0.373975
102859000,0.0324,0.013523,0.002678,0.000431,0.228592
102860000,0.0324,0.013523,0.002678,0.000431,0.347413
102861000,0.0324,0.013523,0.002678,0.000431,0.159838
102862000,0.0324,0.013523,0.002678,0.000431,0.151259
102863000,0.0324,0.013523,0.002678,0.000431,0.120466
102864000,0.0324,0.013523,0.002678,0.000431,0.312860
102865000,0.0324,0.013523,0.002678,0.000431,0.379028
102866000,0.0324,0.013523,0.002678,0.000431,0.172766
102867000,0.0324,0.013523,0.002678,0.000431,0.142797
102868000,0.0324,0.013523,0.002678,0.000431,0.129986
102869000,0.0324,0.013523,0.002678,0.000431,0.113767
102870000,0.0324,0.013523,0.002678,0.000431,0.103660
102871000,0.0324,0.013523,0.002678,0.000431,0.109301
102872000,0.0324,0.013523,0.002678,0.000431,0.083915
102873000,0.0324,0.013523,0.002678,0.000431,0.075923
102874000,0.0324,0.013523,0.002678,0.000431,0.075806
102875000,0.0324,0.013523,0.002678,0.000431,0.072750
102876000,0.0324,0.013523,0.002678,0.000431,0.066991
102877000,0.0324,0.013523,0.002678,0.000431,0.059117
102878000,0.0324,0.013523,0.002678,0.000431,0.052183
102879000,0.0324,0.013523,0.002678,0.000431,0.060174
102880000,0.0324,0.013523,0.002678,0.000431,0.049362
102881000,0.0324,0.013523,0.002678,0.000431,0.044073
102882000,0.0324,0.013523,0.002678,0.000431,0.045248
102883000,0.0324,0.013523,0.002678,0.000431,0.039137
102884000,0.0324,0.013523,0.002678,0.000431,0.037374
102885000,0.0324,0.013523,0.002678,0.000431,0.032673
102886000,0.0324,0.013523,0.002678,0.000431,0.030087
102887000,0.0324,0.013523,0.002678,0.000431,0.027031
102888000,0.0324,0.013523,0.002678,0.000431,0.027384
102889000,0.0324,0.013523,0.002678,0.000431,0.022213
102890000,0.0324,0.013523,0.002678,0.000431,0.018805
102891000,0.0324,0.013523,0.002678,0.000431,0.016454
102892000,0.0324,0.013523,0.002678,0.000431,0.017747
102893000,0.0324,0.013523,0.002678,0.000431,0.018217
102894000,0.0324,0.013523,0.002678,0.000431,0.014573
102895000,0.0324,0.013523,0.002678,0.000431,0.016924
102896000,0.0324,0.013523,0.002678,0.000431,0.010460
102897000,0.0324,0.013523,0.002678,0.000431,0.007874
102898000,0.0324,0.013523,0.002678,0.000431,0.006229
102899000,0.0324,0.013523,0.002678,0.000431,0.006934
102900000,0.0324,0.013523,0.002678,0.000431,0.006111
102901000,0.0324,0.013523,0.002678,0.000431,0.006699
102902000,0.0324,0.013523,0.002678,0.000431,0.007169
102903000,0.0324,0.013523,0.002678,0.000431,0.005171
102904000,0.0324,0.013523,0.002678,0.000431,0.005054
102905000,0.0324,0.013523,0.002678,0.000431,0.005171
102906000,0.0324,0.013523,0.002678,0.000431,0.004936
102907000,0.0324,0.013523,0.002678,0.000431,0.006464
102908000,0.0324,0.013523,0.002678,0.000431,0.003996
102909000,0.0324,0.013523,0.002678,0.000431,0.004113
102910000,0.0324,0.013523,0.002678,0.000431,0.003996
102911000,0.0324,0.013523,0.002678,0.000431,0.004231
102912000,0.0324,0.013523,0.002678,0.000431,0.004349
102913000,0.0324,0.013523,0.002678,0.000431,0.003878
102914000,0.0324,0.013523,0.002678,0.000431,0.005641
102915000,0.0324,0.013523,0.002678,0.000431,0.006582
102916000,0.0324,0.013523,0.002678,0.000431,0.002116
102917000,0.0324,0.013523,0.002678,0.000431,0.002468
102918000,0.0324,0.013523,0.002678,0.000431,0.002351
102919000,0.0324,0.013523,0.002678,0.000431,0.002233
102920000,0.0324,0.013523,0.002678,0.000431,0.002351
102921000,0.0324,0.013523,0.002678,0.000431,0.002468
102922000,0.0324,0.013523,0.002678,0.000431,0.002116
102923000,0.0324,0.013523,0.002678,0.000431,0.002351
102924000,0.0324,0.013523,0.002678,0.000431,0.002233
102925000,0.0324,0.013523,0.002678,0.000431,0.002468
102926000,0.0324,0.013523,0.002678,0.000431,0.002468
102927000,0.0324,0.013523,0.002678,0.000431,0.001528
102928000,0.0324,0.013523,0.002678,0.000431,0.001763
102929000,0.0324,0.013523,0.002678,0.000431,0.001763
102930000,0.0324,0.013523,0.002678,0.000431,0.001880
102931000,0.0324,0.013523,0.002678,0.000431,0.002351
102932000,0.0324,0.013523,0.002678,0.000431,0.015396
102933000,0.0324,0.013523,0.002678,0.000431,0.631479
102934000,0.0324,0.013523,0.002678,0.000431,0.589404
102935000,0.0324,0.013523,0.002678,0.000431,0.140916
102936000,0.0324,0.013523,0.002678,0.000431,0.142914
102937000,0.0324,0.013523,0.002678,0.000431,0.542628
102938000,0.0324,0.013523,0.002678,0.000431,0.293820
102939000,0.0324,0.013523,0.002678,0.000431,0.294173
102940000,0.0324,0.013523,0.002678,0.000431,0.290882
102941000,0.0324,0.013523,0.002678,0.000431,0.148908
102942000,0.0324,0.013523,0.002678,0.000431,0.158663
102943000,0.0324,0.013523,0.002678,0.000431,0.157723
102944000,0.0324,0.013523,0.002678,0.000431,0.460710
102945000,0.0324,0.013523,0.002678,0.000431,0.150436
102946000,0.0324,0.013523,0.002678,0.000431,0.116705
102947000,0.0324,0.013523,0.002678,0.000431,0.104012
102948000,0.0324,0.013523,0.002678,0.000431,0.100369
102949000,0.0324,0.013523,0.002678,0.000431,0.091084
102950000,0.0324,0.013523,0.002678,0.000431,0.078626
102951000,0.0324,0.013523,0.002678,0.000431,0.079567
102952000,0.0324,0.013523,0.002678,0.000431,0.067579
102953000,0.0324,0.013523,0.002678,0.000431,0.055356
102954000,0.0324,0.013523,0.002678,0.000431,0.051830
102955000,0.0324,0.013523,0.002678,0.000431,0.053593
102956000,0.0324,0.013523,0.002678,0.000431,0.047246
102957000,0.0324,0.013523,0.002678,0.000431,0.038079
102958000,0.0324,0.013523,0.002678,0.000431,0.038549
102959000,0.0324,0.013523,0.002678,0.000431,0.037256
102960000,0.0324,0.013523,0.002678,0.000431,0.032555
102961000,0.0324,0.013523,0.002678,0.000431,0.031262
102962000,0.0324,0.013523,0.002678,0.000431,0.031262
102963000,0.0324,0.013523,0.002678,0.000431,0.025504
102964000,0.0324,0.013523,0.002678,0.000431,0.021860
102965000,0.0324,0.013523,0.002678,0.000431,0.021390
102966000,0.0324,0.013523,0.002678,0.000431,0.017512
102967000,0.0324,0.013523,0.002678,0.000431,0.009167
102968000,0.0324,0.013523,0.002678,0.000431,0.009520
102969000,0.0324,0.013523,0.002678,0.000431,0.009637
102970000,0.0324,0.013523,0.002678,0.000431,0.012223
102971000,0.0324,0.013523,0.002678,0.000431,0.008697
102972000,0.0324,0.013523,0.002678,0.000431,0.008462
102973000,0.0324,0.013523,0.002678,0.000431,0.008932
102974000,0.0324,0.013523,0.002678,0.000431,0.009637
102975000,0.0324,0.013523,0.002678,0.000431,0.008815
102976000,0.0324,0.013523,0.002678,0.000431,0.005994
102977000,0.0324,0.013523,0.002678,0.000431,0.005994
102978000,0.0324,0.013523,0.002678,0.000431,0.008462
102979000,0.0324,0.013523,0.002678,0.000431,0.008580
102980000,0.0324,0.013523,0.002678,0.000431,0.008462
102981000,0.0324,0.013523,0.002678,0.000431,0.002468
102982000,0.0324,0.013523,0.002678,0.000431,0.002703
102983000,0.0324,0.013523,0.002678,0.000431,0.002586
102984000,0.0324,0.013523,0.002678,0.000431,0.003996
102985000,0.0324,0.013523,0.002678,0.000431,0.005876
102986000,0.0324,0.013523,0.002678,0.000431,0.001645
102987000,0.0324,0.013523,0.002678,0.000431,0.416755
102988000,0.0324,0.013523,0.002678,0.000431,0.719390
102989000,0.0324,0.013523,0.002678,0.000431,0.168535
102990000,0.0324,0.013523,0.002678,0.000431,0.133042
102991000,0.0324,0.013523,0.002678,0.000431,0.157958
102992000,0.0324,0.013523,0.002678,0.000431,0.607268
102993000,0.0324,0.013523,0.002678,0.000431,0.281127
102994000,0.0324,0.013523,0.002678,0.000431,0.277131
102995000,0.0324,0.013523,0.002678,0.000431,0.208142
102996000,0.0324,0.013523,0.002678,0.000431,0.148791
102997000,0.0324,0.013523,0.002678,0.000431,0.143384
102998000,0.0324,0.013523,0.002678,0.000431,0.230355
102999000,0.0324,0.013523,0.002678,0.000431,0.408645
