Cycle,Area(mm^2),PeakDynamic(W),SubthresholdLeakage(W),GateLeakage(W),RunTimeDynamic(W)
41000000,0.0324,0.013523,0.002678,0.000431,0.035729
41001000,0.0324,0.013523,0.002678,0.000431,0.018569
41002000,0.0324,0.013523,0.002678,0.000431,0.020920
41003000,0.0324,0.013523,0.002678,0.000431,0.011870
41004000,0.0324,0.013523,0.002678,0.000431,0.008580
41005000,0.0324,0.013523,0.002678,0.000431,0.005876
41006000,0.0324,0.013523,0.002678,0.000431,0.223891
41007000,0.0324,0.013523,0.002678,0.000431,0.698117
41008000,0.0324,0.013523,0.002678,0.000431,0.460946
41009000,0.0324,0.013523,0.002678,0.000431,0.136803
41010000,0.0324,0.013523,0.002678,0.000431,0.402416
41011000,0.0324,0.013523,0.002678,0.000431,0.348001
41012000,0.0324,0.013523,0.002678,0.000431,0.301107
41013000,0.0324,0.013523,0.002678,0.000431,0.229180
41014000,0.0324,0.013523,0.002678,0.000431,0.151259
41015000,0.0324,0.013523,0.002678,0.000431,0.120819
41016000,0.0324,0.013523,0.002678,0.000431,0.370096
41017000,0.0324,0.013523,0.002678,0.000431,0.387490
41018000,0.0324,0.013523,0.002678,0.000431,0.173472
41019000,0.0324,0.013523,0.002678,0.000431,0.142679
41020000,0.0324,0.013523,0.002678,0.000431,0.127518
41021000,0.0324,0.013523,0.002678,0.000431,0.121289
41022000,0.0324,0.013523,0.002678,0.000431,0.068049
41023000,0.0324,0.013523,0.002678,0.000431,0.058176
41024000,0.0324,0.013523,0.002678,0.000431,0.043015
41025000,0.0324,0.013523,0.002678,0.000431,0.030792
41026000,0.0324,0.013523,0.002678,0.000431,0.032203
41027000,0.0324,0.013523,0.002678,0.000431,0.023506
41028000,0.0324,0.013523,0.002678,0.000431,0.012928
41029000,0.0324,0.013523,0.002678,0.000431,0.009755
41030000,0.0324,0.013523,0.002678,0.000431,0.007874
41031000,0.0324,0.013523,0.002678,0.000431,0.008932
41032000,0.0324,0.013523,0.002678,0.000431,0.005524
41033000,0.0324,0.013523,0.002678,0.000431,0.005289
41034000,0.0324,0.013523,0.002678,0.000431,0.002351
41035000,0.0324,0.013523,0.002678,0.000431,0.002586
41036000,0.0324,0.013523,0.002678,0.000431,0.002586
41037000,0.0324,0.013523,0.002678,0.000431,0.004113
41038000,0.0324,0.013523,0.002678,0.000431,0.001763
41039000,0.0324,0.013523,0.002678,0.000431,0.001645
41040000,0.0324,0.013523,0.002678,0.000431,0.001528
41041000,0.0324,0.013523,0.002678,0.000431,0.004349
41042000,0.0324,0.013523,0.002678,0.000431,0.000940
41043000,0.0324,0.013523,0.002678,0.000431,0.000823
41044000,0.0324,0.013523,0.002678,0.000431,0.000823
41045000,0.0324,0.013523,0.002678,0.000431,0.000940
41046000,0.0324,0.013523,0.002678,0.000431,0.000823
41047000,0.0324,0.013523,0.002678,0.000431,0.000940
41048000,0.0324,0.013523,0.002678,0.000431,0.000823
41049000,0.0324,0.013523,0.002678,0.000431,0.000940
41050000,0.0324,0.013523,0.002678,0.000431,0.000940
41051000,0.0324,0.013523,0.002678,0.000431,0.000940
41052000,0.0324,0.013523,0.002678,0.000431,0.000705
41053000,0.0324,0.013523,0.002678,0.000431,0.000940
41054000,0.0324,0.013523,0.002678,0.000431,0.210728
41055000,0.0324,0.013523,0.002678,0.000431,0.667090
41056000,0.0324,0.013523,0.002678,0.000431,0.482453
41057000,0.0324,0.013523,0.002678,0.000431,0.133512
41058000,0.0324,0.013523,0.002678,0.000431,0.238347
41059000,0.0324,0.013523,0.002678,0.000431,0.476929
41060000,0.0324,0.013523,0.002678,0.000431,0.273253
41061000,0.0324,0.013523,0.002678,0.000431,0.305221
41062000,0.0324,0.013523,0.002678,0.000431,0.144677
41063000,0.0324,0.013523,0.002678,0.000431,0.154667
41064000,0.0324,0.013523,0.002678,0.000431,0.226947
41065000,0.0324,0.013523,0.002678,0.000431,0.498672
41066000,0.0324,0.013523,0.002678,0.000431,0.192041
41067000,0.0324,0.013523,0.002678,0.000431,0.157958
41068000,0.0324,0.013523,0.002678,0.000431,0.125755
41069000,0.0324,0.013523,0.002678,0.000431,0.088616
41070000,0.0324,0.013523,0.002678,0.000431,0.090027
41071000,0.0324,0.013523,0.002678,0.000431,0.072397
41072000,0.0324,0.013523,0.002678,0.000431,0.034906
41073000,0.0324,0.013523,0.002678,0.000431,0.040665
41074000,0.0324,0.013523,0.002678,0.000431,0.027972
41075000,0.0324,0.013523,0.002678,0.000431,0.016807
41076000,0.0324,0.013523,0.002678,0.000431,0.016219
41077000,0.0324,0.013523,0.002678,0.000431,0.011870
41078000,0.0324,0.013523,0.002678,0.000431,0.013281
41079000,0.0324,0.013523,0.002678,0.000431,0.009285
41080000,0.0324,0.013523,0.002678,0.000431,0.007757
41081000,0.0324,0.013523,0.002678,0.000431,0.002938
41082000,0.0324,0.013523,0.002678,0.000431,0.002703
41083000,0.0324,0.013523,0.002678,0.000431,0.004936
41084000,0.0324,0.013523,0.002678,0.000431,0.005994
41085000,0.0324,0.013523,0.002678,0.000431,0.557436
41086000,0.0324,0.013523,0.002678,0.000431,0.728792
41087000,0.0324,0.013523,0.002678,0.000431,0.149496
41088000,0.0324,0.013523,0.002678,0.000431,0.136920
41089000,0.0324,0.013523,0.002678,0.000431,0.563078
41090000,0.0324,0.013523,0.002678,0.000431,0.250100
41091000,0.0324,0.013523,0.002678,0.000431,0.342712
41092000,0.0324,0.013523,0.002678,0.000431,0.151259
41093000,0.0324,0.013523,0.002678,0.000431,0.159721
41094000,0.0324,0.013523,0.002678,0.000431,0.170181
41095000,0.0324,0.013523,0.002678,0.000431,0.541217
41096000,0.0324,0.013523,0.002678,0.000431,0.183697
41097000,0.0324,0.013523,0.002678,0.000431,0.159016
41098000,0.0324,0.013523,0.002678,0.000431,0.113062
41099000,0.0324,0.013523,0.002678,0.000431,0.092730
41100000,0.0324,0.013523,0.002678,0.000431,0.073220
41101000,0.0324,0.013523,0.002678,0.000431,0.067461
41102000,0.0324,0.013523,0.002678,0.000431,0.032320
41103000,0.0324,0.013523,0.002678,0.000431,0.031380
41104000,0.0324,0.013523,0.002678,0.000431,0.030322
41105000,0.0324,0.013523,0.002678,0.000431,0.014456
41106000,0.0324,0.013523,0.002678,0.000431,0.014338
41107000,0.0324,0.013523,0.002678,0.000431,0.011048
41108000,0.0324,0.013523,0.002678,0.000431,0.009520
41109000,0.0324,0.013523,0.002678,0.000431,0.010460
41110000,0.0324,0.013523,0.002678,0.000431,0.006229
41111000,0.0324,0.013523,0.002678,0.000431,0.004936
41112000,0.0324,0.013523,0.002678,0.000431,0.008345
41113000,0.0324,0.013523,0.002678,0.000431,0.002703
41114000,0.0324,0.013523,0.002678,0.000431,0.003761
41115000,0.0324,0.013523,0.002678,0.000431,0.003291
41116000,0.0324,0.013523,0.002678,0.000431,0.005406
41117000,0.0324,0.013523,0.002678,0.000431,0.002233
41118000,0.0324,0.013523,0.002678,0.000431,0.002351
41119000,0.0324,0.013523,0.002678,0.000431,0.004701
41120000,0.0324,0.013523,0.002678,0.000431,0.000823
41121000,0.0324,0.013523,0.002678,0.000431,0.001528
41122000,0.0324,0.013523,0.002678,0.000431,0.000823
41123000,0.0324,0.013523,0.002678,0.000431,0.001058
41124000,0.0324,0.013523,0.002678,0.000431,0.001410
41125000,0.0324,0.013523,0.002678,0.000431,0.000940
41126000,0.0324,0.013523,0.002678,0.000431,0.001058
41127000,0.0324,0.013523,0.002678,0.000431,0.001528
41128000,0.0324,0.013523,0.002678,0.000431,0.000940
41129000,0.0324,0.013523,0.002678,0.000431,0.001528
41130000,0.0324,0.013523,0.002678,0.000431,0.000823
41131000,0.0324,0.013523,0.002678,0.000431,0.001293
41132000,0.0324,0.013523,0.002678,0.000431,0.001528
41133000,0.0324,0.013523,0.002678,0.000431,0.001528
41134000,0.0324,0.013523,0.002678,0.000431,0.001645
41135000,0.0324,0.013523,0.002678,0.000431,0.001410
41136000,0.0324,0.013523,0.002678,0.000431,0.000705
41137000,0.0324,0.013523,0.002678,0.000431,0.072515
41138000,0.0324,0.013523,0.002678,0.000431,0.745951
41139000,0.0324,0.013523,0.002678,0.000431,0.530875
41140000,0.0324,0.013523,0.002678,0.000431,0.136098
41141000,0.0324,0.013523,0.002678,0.000431,0.220600
41142000,0.0324,0.013523,0.002678,0.000431,0.469878
41143000,0.0324,0.013523,0.002678,0.000431,0.271020
41144000,0.0324,0.013523,0.002678,0.000431,0.322850
41145000,0.0324,0.013523,0.002678,0.000431,0.157723
41146000,0.0324,0.013523,0.002678,0.000431,0.123640
41147000,0.0324,0.013523,0.002678,0.000431,0.305691
41148000,0.0324,0.013523,0.002678,0.000431,0.440848
41149000,0.0324,0.013523,0.002678,0.000431,0.188633
41150000,0.0324,0.013523,0.002678,0.000431,0.157723
41151000,0.0324,0.013523,0.002678,0.000431,0.127518
41152000,0.0324,0.013523,0.002678,0.000431,0.101662
41153000,0.0324,0.013523,0.002678,0.000431,0.090732
41154000,0.0324,0.013523,0.002678,0.000431,0.067814
41155000,0.0324,0.013523,0.002678,0.000431,0.061232
41156000,0.0324,0.013523,0.002678,0.000431,0.039842
41157000,0.0324,0.013523,0.002678,0.000431,0.039489
41158000,0.0324,0.013523,0.002678,0.000431,0.027854
41159000,0.0324,0.013523,0.002678,0.000431,0.026209
41160000,0.0324,0.013523,0.002678,0.000431,0.009637
41161000,0.0324,0.013523,0.002678,0.000431,0.003643
41162000,0.0324,0.013523,0.002678,0.000431,0.004584
41163000,0.0324,0.013523,0.002678,0.000431,0.001763
41164000,0.0324,0.013523,0.002678,0.000431,0.001528
41165000,0.0324,0.013523,0.002678,0.000431,0.003526
41166000,0.0324,0.013523,0.002678,0.000431,0.000823
41167000,0.0324,0.013523,0.002678,0.000431,0.000823
41168000,0.0324,0.013523,0.002678,0.000431,0.000823
41169000,0.0324,0.013523,0.002678,0.000431,0.000823
41170000,0.0324,0.013523,0.002678,0.000431,0.003408
41171000,0.0324,0.013523,0.002678,0.000431,0.549797
41172000,0.0324,0.013523,0.002678,0.000431,0.727382
41173000,0.0324,0.013523,0.002678,0.000431,0.147850
41174000,0.0324,0.013523,0.002678,0.000431,0.136803
41175000,0.0324,0.013523,0.002678,0.000431,0.544508
41176000,0.0324,0.013523,0.002678,0.000431,0.253861
41177000,0.0324,0.013523,0.002678,0.000431,0.306043
41178000,0.0324,0.013523,0.002678,0.000431,0.151964
41179000,0.0324,0.013523,0.002678,0.000431,0.183932
41180000,0.0324,0.013523,0.002678,0.000431,0.105070
41181000,0.0324,0.013523,0.002678,0.000431,0.550620
41182000,0.0324,0.013523,0.002678,0.000431,0.252921
41183000,0.0324,0.013523,0.002678,0.000431,0.196037
41184000,0.0324,0.013523,0.002678,0.000431,0.143502
41185000,0.0324,0.013523,0.002678,0.000431,0.123287
41186000,0.0324,0.013523,0.002678,0.000431,0.085796
41187000,0.0324,0.013523,0.002678,0.000431,0.074865
41188000,0.0324,0.013523,0.002678,0.000431,0.050302
41189000,0.0324,0.013523,0.002678,0.000431,0.024328
41190000,0.0324,0.013523,0.002678,0.000431,0.022565
41191000,0.0324,0.013523,0.002678,0.000431,0.010107
41192000,0.0324,0.013523,0.002678,0.000431,0.021978
41193000,0.0324,0.013523,0.002678,0.000431,0.004584
41194000,0.0324,0.013523,0.002678,0.000431,0.006111
41195000,0.0324,0.013523,0.002678,0.000431,0.015161
41196000,0.0324,0.013523,0.002678,0.000431,0.768282
41197000,0.0324,0.013523,0.002678,0.000431,0.560492
41198000,0.0324,0.013523,0.002678,0.000431,0.136333
41199000,0.0324,0.013523,0.002678,0.000431,0.148438
41200000,0.0324,0.013523,0.002678,0.000431,0.572832
41201000,0.0324,0.013523,0.002678,0.000431,0.269022
41202000,0.0324,0.013523,0.002678,0.000431,0.265849
41203000,0.0324,0.013523,0.002678,0.000431,0.153609
41204000,0.0324,0.013523,0.002678,0.000431,0.165362
41205000,0.0324,0.013523,0.002678,0.000431,0.176997
41206000,0.0324,0.013523,0.002678,0.000431,0.525586
41207000,0.0324,0.013523,0.002678,0.000431,0.194157
41208000,0.0324,0.013523,0.002678,0.000431,0.166537
41209000,0.0324,0.013523,0.002678,0.000431,0.129281
41210000,0.0324,0.013523,0.002678,0.000431,0.108596
41211000,0.0324,0.013523,0.002678,0.000431,0.080154
41212000,0.0324,0.013523,0.002678,0.000431,0.065581
41213000,0.0324,0.013523,0.002678,0.000431,0.071810
41214000,0.0324,0.013523,0.002678,0.000431,0.062995
41215000,0.0324,0.013523,0.002678,0.000431,0.034553
41216000,0.0324,0.013523,0.002678,0.000431,0.030322
41217000,0.0324,0.013523,0.002678,0.000431,0.027502
41218000,0.0324,0.013523,0.002678,0.000431,0.013986
41219000,0.0324,0.013523,0.002678,0.000431,0.011283
41220000,0.0324,0.013523,0.002678,0.000431,0.007639
41221000,0.0324,0.013523,0.002678,0.000431,0.006934
41222000,0.0324,0.013523,0.002678,0.000431,0.008815
41223000,0.0324,0.013523,0.002678,0.000431,0.001645
41224000,0.0324,0.013523,0.002678,0.000431,0.001645
41225000,0.0324,0.013523,0.002678,0.000431,0.001645
41226000,0.0324,0.013523,0.002678,0.000431,0.001763
41227000,0.0324,0.013523,0.002678,0.000431,0.004113
41228000,0.0324,0.013523,0.002678,0.000431,0.000705
41229000,0.0324,0.013523,0.002678,0.000431,0.000940
41230000,0.0324,0.013523,0.002678,0.000431,0.000705
41231000,0.0324,0.013523,0.002678,0.000431,0.000940
41232000,0.0324,0.013523,0.002678,0.000431,0.000823
41233000,0.0324,0.013523,0.002678,0.000431,0.000823
41234000,0.0324,0.013523,0.002678,0.000431,0.000940
41235000,0.0324,0.013523,0.002678,0.000431,0.013516
41236000,0.0324,0.013523,0.002678,0.000431,0.681663
41237000,0.0324,0.013523,0.002678,0.000431,0.621724
41238000,0.0324,0.013523,0.002678,0.000431,0.139976
41239000,0.0324,0.013523,0.002678,0.000431,0.137273
41240000,0.0324,0.013523,0.002678,0.000431,0.585643
41241000,0.0324,0.013523,0.002678,0.000431,0.233881
41242000,0.0324,0.013523,0.002678,0.000431,0.357991
41243000,0.0324,0.013523,0.002678,0.000431,0.148791
41244000,0.0324,0.013523,0.002678,0.000431,0.159251
41245000,0.0324,0.013523,0.002678,0.000431,0.175117
41246000,0.0324,0.013523,0.002678,0.000431,0.545448
41247000,0.0324,0.013523,0.002678,0.000431,0.247749
41248000,0.0324,0.013523,0.002678,0.000431,0.214959
41249000,0.0324,0.013523,0.002678,0.000431,0.167830
41250000,0.0324,0.013523,0.002678,0.000431,0.143972
41251000,0.0324,0.013523,0.002678,0.000431,0.120701
41252000,0.0324,0.013523,0.002678,0.000431,0.103190
41253000,0.0324,0.013523,0.002678,0.000431,0.079449
41254000,0.0324,0.013523,0.002678,0.000431,0.053710
41255000,0.0324,0.013523,0.002678,0.000431,0.053240
41256000,0.0324,0.013523,0.002678,0.000431,0.034553
41257000,0.0324,0.013523,0.002678,0.000431,0.026444
41258000,0.0324,0.013523,0.002678,0.000431,0.021978
41259000,0.0324,0.013523,0.002678,0.000431,0.016571
41260000,0.0324,0.013523,0.002678,0.000431,0.008815
41261000,0.0324,0.013523,0.002678,0.000431,0.010578
41262000,0.0324,0.013523,0.002678,0.000431,0.004936
41263000,0.0324,0.013523,0.002678,0.000431,0.005876
41264000,0.0324,0.013523,0.002678,0.000431,0.002586
41265000,0.0324,0.013523,0.002678,0.000431,0.002351
41266000,0.0324,0.013523,0.002678,0.000431,0.006229
41267000,0.0324,0.013523,0.002678,0.000431,0.005054
41268000,0.0324,0.013523,0.002678,0.000431,0.000705
41269000,0.0324,0.013523,0.002678,0.000431,0.000940
41270000,0.0324,0.013523,0.002678,0.000431,0.000705
41271000,0.0324,0.013523,0.002678,0.000431,0.000940
41272000,0.0324,0.013523,0.002678,0.000431,0.000823
41273000,0.0324,0.013523,0.002678,0.000431,0.000823
41274000,0.0324,0.013523,0.002678,0.000431,0.000823
41275000,0.0324,0.013523,0.002678,0.000431,0.000823
41276000,0.0324,0.013523,0.002678,0.000431,0.000705
41277000,0.0324,0.013523,0.002678,0.000431,0.001058
41278000,0.0324,0.013523,0.002678,0.000431,0.000823
41279000,0.0324,0.013523,0.002678,0.000431,0.013868
41280000,0.0324,0.013523,0.002678,0.000431,0.773923
41281000,0.0324,0.013523,0.002678,0.000431,0.568131
41282000,0.0324,0.013523,0.002678,0.000431,0.136920
41283000,0.0324,0.013523,0.002678,0.000431,0.136568
41284000,0.0324,0.013523,0.002678,0.000431,0.540395
41285000,0.0324,0.013523,0.002678,0.000431,0.268434
41286000,0.0324,0.013523,0.002678,0.000431,0.347883
41287000,0.0324,0.013523,0.002678,0.000431,0.149966
41288000,0.0324,0.013523,0.002678,0.000431,0.125403
41289000,0.0324,0.013523,0.002678,0.000431,0.322497
41290000,0.0324,0.013523,0.002678,0.000431,0.449310
41291000,0.0324,0.013523,0.002678,0.000431,0.190513
41292000,0.0324,0.013523,0.002678,0.000431,0.164304
41293000,0.0324,0.013523,0.002678,0.000431,0.132807
41294000,0.0324,0.013523,0.002678,0.000431,0.109536
41295000,0.0324,0.013523,0.002678,0.000431,0.092965
41296000,0.0324,0.013523,0.002678,0.000431,0.070517
41297000,0.0324,0.013523,0.002678,0.000431,0.053005
41298000,0.0324,0.013523,0.002678,0.000431,0.040665
41299000,0.0324,0.013523,0.002678,0.000431,0.028207
41300000,0.0324,0.013523,0.002678,0.000431,0.021508
41301000,0.0324,0.013523,0.002678,0.000431,0.025269
41302000,0.0324,0.013523,0.002678,0.000431,0.008815
41303000,0.0324,0.013523,0.002678,0.000431,0.013046
41304000,0.0324,0.013523,0.002678,0.000431,0.004819
41305000,0.0324,0.013523,0.002678,0.000431,0.003408
41306000,0.0324,0.013523,0.002678,0.000431,0.005289
41307000,0.0324,0.013523,0.002678,0.000431,0.002586
41308000,0.0324,0.013523,0.002678,0.000431,0.002468
41309000,0.0324,0.013523,0.002678,0.000431,0.002468
41310000,0.0324,0.013523,0.002678,0.000431,0.002468
41311000,0.0324,0.013523,0.002678,0.000431,0.002586
41312000,0.0324,0.013523,0.002678,0.000431,0.002586
41313000,0.0324,0.013523,0.002678,0.000431,0.002351
41314000,0.0324,0.013523,0.002678,0.000431,0.002703
41315000,0.0324,0.013523,0.002678,0.000431,0.003761
41316000,0.0324,0.013523,0.002678,0.000431,0.002938
41317000,0.0324,0.013523,0.002678,0.000431,0.001880
41318000,0.0324,0.013523,0.002678,0.000431,0.001528
41319000,0.0324,0.013523,0.002678,0.000431,0.001763
41320000,0.0324,0.013523,0.002678,0.000431,0.003173
41321000,0.0324,0.013523,0.002678,0.000431,0.000940
41322000,0.0324,0.013523,0.002678,0.000431,0.277014
41323000,0.0324,0.013523,0.002678,0.000431,0.815763
41324000,0.0324,0.013523,0.002678,0.000431,0.323438
41325000,0.0324,0.013523,0.002678,0.000431,0.136803
41326000,0.0324,0.013523,0.002678,0.000431,0.512423
41327000,0.0324,0.013523,0.002678,0.000431,0.267142
41328000,0.0324,0.013523,0.002678,0.000431,0.295113
41329000,0.0324,0.013523,0.002678,0.000431,0.225066
41330000,0.0324,0.013523,0.002678,0.000431,0.175235
41331000,0.0324,0.013523,0.002678,0.000431,0.099429
41332000,0.0324,0.013523,0.002678,0.000431,0.551677
41333000,0.0324,0.013523,0.002678,0.000431,0.279129
41334000,0.0324,0.013523,0.002678,0.000431,0.216839
41335000,0.0324,0.013523,0.002678,0.000431,0.184284
41336000,0.0324,0.013523,0.002678,0.000431,0.156783
41337000,0.0324,0.013523,0.002678,0.000431,0.134805
41338000,0.0324,0.013523,0.002678,0.000431,0.107773
41339000,0.0324,0.013523,0.002678,0.000431,0.079449
41340000,0.0324,0.013523,0.002678,0.000431,0.070282
41341000,0.0324,0.013523,0.002678,0.000431,0.061585
41342000,0.0324,0.013523,0.002678,0.000431,0.042545
41343000,0.0324,0.013523,0.002678,0.000431,0.028442
41344000,0.0324,0.013523,0.002678,0.000431,0.016454
41345000,0.0324,0.013523,0.002678,0.000431,0.009872
41346000,0.0324,0.013523,0.002678,0.000431,0.003408
41347000,0.0324,0.013523,0.002678,0.000431,0.003526
41348000,0.0324,0.013523,0.002678,0.000431,0.005289
41349000,0.0324,0.013523,0.002678,0.000431,0.002468
41350000,0.0324,0.013523,0.002678,0.000431,0.002586
41351000,0.0324,0.013523,0.002678,0.000431,0.002821
41352000,0.0324,0.013523,0.002678,0.000431,0.005054
41353000,0.0324,0.013523,0.002678,0.000431,0.001998
41354000,0.0324,0.013523,0.002678,0.000431,0.001763
41355000,0.0324,0.013523,0.002678,0.000431,0.001763
41356000,0.0324,0.013523,0.002678,0.000431,0.001528
41357000,0.0324,0.013523,0.002678,0.000431,0.004936
41358000,0.0324,0.013523,0.002678,0.000431,0.000940
41359000,0.0324,0.013523,0.002678,0.000431,0.001528
41360000,0.0324,0.013523,0.002678,0.000431,0.565898
41361000,0.0324,0.013523,0.002678,0.000431,0.765579
41362000,0.0324,0.013523,0.002678,0.000431,0.143384
41363000,0.0324,0.013523,0.002678,0.000431,0.136803
41364000,0.0324,0.013523,0.002678,0.000431,0.580472
41365000,0.0324,0.013523,0.002678,0.000431,0.289824
41366000,0.0324,0.013523,0.002678,0.000431,0.302753
41367000,0.0324,0.013523,0.002678,0.000431,0.153374
41368000,0.0324,0.013523,0.002678,0.000431,0.129163
41369000,0.0324,0.013523,0.002678,0.000431,0.276074
41370000,0.0324,0.013523,0.002678,0.000431,0.486802
41371000,0.0324,0.013523,0.002678,0.000431,0.211551
41372000,0.0324,0.013523,0.002678,0.000431,0.189338
41373000,0.0324,0.013523,0.002678,0.000431,0.163834
41374000,0.0324,0.013523,0.002678,0.000431,0.132572
41375000,0.0324,0.013523,0.002678,0.000431,0.103895
41376000,0.0324,0.013523,0.002678,0.000431,0.094610
41377000,0.0324,0.013523,0.002678,0.000431,0.065463
41378000,0.0324,0.013523,0.002678,0.000431,0.055943
41379000,0.0324,0.013523,0.002678,0.000431,0.041723
41380000,0.0324,0.013523,0.002678,0.000431,0.046541
41381000,0.0324,0.013523,0.002678,0.000431,0.018569
41382000,0.0324,0.013523,0.002678,0.000431,0.026914
41383000,0.0324,0.013523,0.002678,0.000431,0.017394
41384000,0.0324,0.013523,0.002678,0.000431,0.005289
41385000,0.0324,0.013523,0.002678,0.000431,0.005994
41386000,0.0324,0.013523,0.002678,0.000431,0.002233
41387000,0.0324,0.013523,0.002678,0.000431,0.000940
41388000,0.0324,0.013523,0.002678,0.000431,0.266554
41389000,0.0324,0.013523,0.002678,0.000431,0.752415
41390000,0.0324,0.013523,0.002678,0.000431,0.414522
41391000,0.0324,0.013523,0.002678,0.000431,0.135863
41392000,0.0324,0.013523,0.002678,0.000431,0.501963
41393000,0.0324,0.013523,0.002678,0.000431,0.277484
41394000,0.0324,0.013523,0.002678,0.000431,0.305103
41395000,0.0324,0.013523,0.002678,0.000431,0.230120
41396000,0.0324,0.013523,0.002678,0.000431,0.181228
41397000,0.0324,0.013523,0.002678,0.000431,0.094493
41398000,0.0324,0.013523,0.002678,0.000431,0.568954
41399000,0.0324,0.013523,0.002678,0.000431,0.259620
41400000,0.0324,0.013523,0.002678,0.000431,0.195919
41401000,0.0324,0.013523,0.002678,0.000431,0.166185
41402000,0.0324,0.013523,0.002678,0.000431,0.141269
41403000,0.0324,0.013523,0.002678,0.000431,0.108479
41404000,0.0324,0.013523,0.002678,0.000431,0.089321
41405000,0.0324,0.013523,0.002678,0.000431,0.079802
41406000,0.0324,0.013523,0.002678,0.000431,0.070869
41407000,0.0324,0.013523,0.002678,0.000431,0.063465
41408000,0.0324,0.013523,0.002678,0.000431,0.058294
41409000,0.0324,0.013523,0.002678,0.000431,0.040547
41410000,0.0324,0.013523,0.002678,0.000431,0.036669
41411000,0.0324,0.013523,0.002678,0.000431,0.026796
41412000,0.0324,0.013523,0.002678,0.000431,0.022213
41413000,0.0324,0.013523,0.002678,0.000431,0.017629
41414000,0.0324,0.013523,0.002678,0.000431,0.018334
41415000,0.0324,0.013523,0.002678,0.000431,0.013986
41416000,0.0324,0.013523,0.002678,0.000431,0.011165
41417000,0.0324,0.013523,0.002678,0.000431,0.013046
41418000,0.0324,0.013523,0.002678,0.000431,0.013751
41419000,0.0324,0.013523,0.002678,0.000431,0.011283
41420000,0.0324,0.013523,0.002678,0.000431,0.012223
41421000,0.0324,0.013523,0.002678,0.000431,0.010107
41422000,0.0324,0.013523,0.002678,0.000431,0.008815
41423000,0.0324,0.013523,0.002678,0.000431,0.002703
41424000,0.0324,0.013523,0.002678,0.000431,0.005994
41425000,0.0324,0.013523,0.002678,0.000431,0.001880
41426000,0.0324,0.013523,0.002678,0.000431,0.002821
41427000,0.0324,0.013523,0.002678,0.000431,0.002821
41428000,0.0324,0.013523,0.002678,0.000431,0.658393
41429000,0.0324,0.013523,0.002678,0.000431,0.678490
41430000,0.0324,0.013523,0.002678,0.000431,0.138331
41431000,0.0324,0.013523,0.002678,0.000431,0.152669
41432000,0.0324,0.013523,0.002678,0.000431,0.594928
41433000,0.0324,0.013523,0.002678,0.000431,0.243989
41434000,0.0324,0.013523,0.002678,0.000431,0.275251
41435000,0.0324,0.013523,0.002678,0.000431,0.158428
41436000,0.0324,0.013523,0.002678,0.000431,0.151376
41437000,0.0324,0.013523,0.002678,0.000431,0.235056
41438000,0.0324,0.013523,0.002678,0.000431,0.535693
41439000,0.0324,0.013523,0.002678,0.000431,0.209435
41440000,0.0324,0.013523,0.002678,0.000431,0.180876
41441000,0.0324,0.013523,0.002678,0.000431,0.149026
41442000,0.0324,0.013523,0.002678,0.000431,0.127871
41443000,0.0324,0.013523,0.002678,0.000431,0.094963
41444000,0.0324,0.013523,0.002678,0.000431,0.086383
41445000,0.0324,0.013523,0.002678,0.000431,0.078626
41446000,0.0324,0.013523,0.002678,0.000431,0.053593
41447000,0.0324,0.013523,0.002678,0.000431,0.037139
41448000,0.0324,0.013523,0.002678,0.000431,0.033966
41449000,0.0324,0.013523,0.002678,0.000431,0.030557
41450000,0.0324,0.013523,0.002678,0.000431,0.026091
41451000,0.0324,0.013523,0.002678,0.000431,0.022095
41452000,0.0324,0.013523,0.002678,0.000431,0.016924
41453000,0.0324,0.013523,0.002678,0.000431,0.027854
41454000,0.0324,0.013523,0.002678,0.000431,0.016219
41455000,0.0324,0.013523,0.002678,0.000431,0.014221
41456000,0.0324,0.013523,0.002678,0.000431,0.013516
41457000,0.0324,0.013523,0.002678,0.000431,0.014573
41458000,0.0324,0.013523,0.002678,0.000431,0.012223
41459000,0.0324,0.013523,0.002678,0.000431,0.009050
41460000,0.0324,0.013523,0.002678,0.000431,0.011048
41461000,0.0324,0.013523,0.002678,0.000431,0.009285
41462000,0.0324,0.013523,0.002678,0.000431,0.012928
41463000,0.0324,0.013523,0.002678,0.000431,0.009285
41464000,0.0324,0.013523,0.002678,0.000431,0.011518
41465000,0.0324,0.013523,0.002678,0.000431,0.004819
41466000,0.0324,0.013523,0.002678,0.000431,0.006464
41467000,0.0324,0.013523,0.002678,0.000431,0.004466
41468000,0.0324,0.013523,0.002678,0.000431,0.003526
41469000,0.0324,0.013523,0.002678,0.000431,0.003996
41470000,0.0324,0.013523,0.002678,0.000431,0.005054
41471000,0.0324,0.013523,0.002678,0.000431,0.003173
41472000,0.0324,0.013523,0.002678,0.000431,0.004349
41473000,0.0324,0.013523,0.002678,0.000431,0.001880
41474000,0.0324,0.013523,0.002678,0.000431,0.002233
41475000,0.0324,0.013523,0.002678,0.000431,0.001645
41476000,0.0324,0.013523,0.002678,0.000431,0.002351
41477000,0.0324,0.013523,0.002678,0.000431,0.001645
41478000,0.0324,0.013523,0.002678,0.000431,0.001998
41479000,0.0324,0.013523,0.002678,0.000431,0.001998
41480000,0.0324,0.013523,0.002678,0.000431,0.001763
41481000,0.0324,0.013523,0.002678,0.000431,0.001880
41482000,0.0324,0.013523,0.002678,0.000431,0.001058
41483000,0.0324,0.013523,0.002678,0.000431,0.001175
41484000,0.0324,0.013523,0.002678,0.000431,0.014456
41485000,0.0324,0.013523,0.002678,0.000431,0.761348
41486000,0.0324,0.013523,0.002678,0.000431,0.594693
41487000,0.0324,0.013523,0.002678,0.000431,0.136333
41488000,0.0324,0.013523,0.002678,0.000431,0.139153
41489000,0.0324,0.013523,0.002678,0.000431,0.529817
41490000,0.0324,0.013523,0.002678,0.000431,0.243753
41491000,0.0324,0.013523,0.002678,0.000431,0.360929
41492000,0.0324,0.013523,0.002678,0.000431,0.155960
41493000,0.0324,0.013523,0.002678,0.000431,0.185107
41494000,0.0324,0.013523,0.002678,0.000431,0.100604
41495000,0.0324,0.013523,0.002678,0.000431,0.576476
41496000,0.0324,0.013523,0.002678,0.000431,0.248455
41497000,0.0324,0.013523,0.002678,0.000431,0.186635
41498000,0.0324,0.013523,0.002678,0.000431,0.157253
41499000,0.0324,0.013523,0.002678,0.000431,0.146088
41500000,0.0324,0.013523,0.002678,0.000431,0.119526
41501000,0.0324,0.013523,0.002678,0.000431,0.091319
41502000,0.0324,0.013523,0.002678,0.000431,0.071222
41503000,0.0324,0.013523,0.002678,0.000431,0.054886
41504000,0.0324,0.013523,0.002678,0.000431,0.041017
41505000,0.0324,0.013523,0.002678,0.000431,0.038667
41506000,0.0324,0.013523,0.002678,0.000431,0.031380
41507000,0.0324,0.013523,0.002678,0.000431,0.023623
41508000,0.0324,0.013523,0.002678,0.000431,0.018217
41509000,0.0324,0.013523,0.002678,0.000431,0.017159
41510000,0.0324,0.013523,0.002678,0.000431,0.009990
41511000,0.0324,0.013523,0.002678,0.000431,0.010460
41512000,0.0324,0.013523,0.002678,0.000431,0.007169
41513000,0.0324,0.013523,0.002678,0.000431,0.002703
41514000,0.0324,0.013523,0.002678,0.000431,0.004819
41515000,0.0324,0.013523,0.002678,0.000431,0.000823
41516000,0.0324,0.013523,0.002678,0.000431,0.000823
41517000,0.0324,0.013523,0.002678,0.000431,0.000940
41518000,0.0324,0.013523,0.002678,0.000431,0.000705
41519000,0.0324,0.013523,0.002678,0.000431,0.000940
41520000,0.0324,0.013523,0.002678,0.000431,0.000823
41521000,0.0324,0.013523,0.002678,0.000431,0.000823
41522000,0.0324,0.013523,0.002678,0.000431,0.000940
41523000,0.0324,0.013523,0.002678,0.000431,0.000823
41524000,0.0324,0.013523,0.002678,0.000431,0.025034
41525000,0.0324,0.013523,0.002678,0.000431,0.790024
41526000,0.0324,0.013523,0.002678,0.000431,0.551677
41527000,0.0324,0.013523,0.002678,0.000431,0.135863
41528000,0.0324,0.013523,0.002678,0.000431,0.138213
41529000,0.0324,0.013523,0.002678,0.000431,0.537339
41530000,0.0324,0.013523,0.002678,0.000431,0.245046
41531000,0.0324,0.013523,0.002678,0.000431,0.337188
41532000,0.0324,0.013523,0.002678,0.000431,0.156430
41533000,0.0324,0.013523,0.002678,0.000431,0.160308
41534000,0.0324,0.013523,0.002678,0.000431,0.190043
41535000,0.0324,0.013523,0.002678,0.000431,0.537104
41536000,0.0324,0.013523,0.002678,0.000431,0.213549
41537000,0.0324,0.013523,0.002678,0.000431,0.185695
41538000,0.0324,0.013523,0.002678,0.000431,0.145852
41539000,0.0324,0.013523,0.002678,0.000431,0.123052
41540000,0.0324,0.013523,0.002678,0.000431,0.107538
41541000,0.0324,0.013523,0.002678,0.000431,0.086148
41542000,0.0324,0.013523,0.002678,0.000431,0.062878
41543000,0.0324,0.013523,0.002678,0.000431,0.047599
41544000,0.0324,0.013523,0.002678,0.000431,0.030322
41545000,0.0324,0.013523,0.002678,0.000431,0.022330
41546000,0.0324,0.013523,0.002678,0.000431,0.023623
41547000,0.0324,0.013523,0.002678,0.000431,0.021508
41548000,0.0324,0.013523,0.002678,0.000431,0.008227
41549000,0.0324,0.013523,0.002678,0.000431,0.011518
41550000,0.0324,0.013523,0.002678,0.000431,0.005524
41551000,0.0324,0.013523,0.002678,0.000431,0.001763
41552000,0.0324,0.013523,0.002678,0.000431,0.001293
41553000,0.0324,0.013523,0.002678,0.000431,0.000940
41554000,0.0324,0.013523,0.002678,0.000431,0.000823
41555000,0.0324,0.013523,0.002678,0.000431,0.000823
41556000,0.0324,0.013523,0.002678,0.000431,0.000940
41557000,0.0324,0.013523,0.002678,0.000431,0.121524
41558000,0.0324,0.013523,0.002678,0.000431,0.794491
41559000,0.0324,0.013523,0.002678,0.000431,0.489740
41560000,0.0324,0.013523,0.002678,0.000431,0.137155
41561000,0.0324,0.013523,0.002678,0.000431,0.272078
41562000,0.0324,0.013523,0.002678,0.000431,0.437792
41563000,0.0324,0.013523,0.002678,0.000431,0.284888
41564000,0.0324,0.013523,0.002678,0.000431,0.313213
41565000,0.0324,0.013523,0.002678,0.000431,0.150554
41566000,0.0324,0.013523,0.002678,0.000431,0.112239
41567000,0.0324,0.013523,0.002678,0.000431,0.382202
41568000,0.0324,0.013523,0.002678,0.000431,0.425452
41569000,0.0324,0.013523,0.002678,0.000431,0.169006
41570000,0.0324,0.013523,0.002678,0.000431,0.149143
41571000,0.0324,0.013523,0.002678,0.000431,0.123522
41572000,0.0324,0.013523,0.002678,0.000431,0.097901
41573000,0.0324,0.013523,0.002678,0.000431,0.092495
41574000,0.0324,0.013523,0.002678,0.000431,0.077686
41575000,0.0324,0.013523,0.002678,0.000431,0.047129
41576000,0.0324,0.013523,0.002678,0.000431,0.042193
41577000,0.0324,0.013523,0.002678,0.000431,0.031380
41578000,0.0324,0.013523,0.002678,0.000431,0.026679
41579000,0.0324,0.013523,0.002678,0.000431,0.018452
41580000,0.0324,0.013523,0.002678,0.000431,0.011518
41581000,0.0324,0.013523,0.002678,0.000431,0.011870
41582000,0.0324,0.013523,0.002678,0.000431,0.012576
41583000,0.0324,0.013523,0.002678,0.000431,0.012340
41584000,0.0324,0.013523,0.002678,0.000431,0.008345
41585000,0.0324,0.013523,0.002678,0.000431,0.011283
41586000,0.0324,0.013523,0.002678,0.000431,0.010460
41587000,0.0324,0.013523,0.002678,0.000431,0.007169
41588000,0.0324,0.013523,0.002678,0.000431,0.006464
41589000,0.0324,0.013523,0.002678,0.000431,0.006934
41590000,0.0324,0.013523,0.002678,0.000431,0.007287
41591000,0.0324,0.013523,0.002678,0.000431,0.005641
41592000,0.0324,0.013523,0.002678,0.000431,0.004701
41593000,0.0324,0.013523,0.002678,0.000431,0.005524
41594000,0.0324,0.013523,0.002678,0.000431,0.006817
41595000,0.0324,0.013523,0.002678,0.000431,0.005054
41596000,0.0324,0.013523,0.002678,0.000431,0.004349
41597000,0.0324,0.013523,0.002678,0.000431,0.006464
41598000,0.0324,0.013523,0.002678,0.000431,0.001058
41599000,0.0324,0.013523,0.002678,0.000431,0.000823
41600000,0.0324,0.013523,0.002678,0.000431,0.015044
41601000,0.0324,0.013523,0.002678,0.000431,0.788497
41602000,0.0324,0.013523,0.002678,0.000431,0.554851
41603000,0.0324,0.013523,0.002678,0.000431,0.137743
41604000,0.0324,0.013523,0.002678,0.000431,0.157840
41605000,0.0324,0.013523,0.002678,0.000431,0.561315
41606000,0.0324,0.013523,0.002678,0.000431,0.237172
41607000,0.0324,0.013523,0.002678,0.000431,0.329667
41608000,0.0324,0.013523,0.002678,0.000431,0.163599
41609000,0.0324,0.013523,0.002678,0.000431,0.117763
41610000,0.0324,0.013523,0.002678,0.000431,0.343652
41611000,0.0324,0.013523,0.002678,0.000431,0.425805
41612000,0.0324,0.013523,0.002678,0.000431,0.182639
41613000,0.0324,0.013523,0.002678,0.000431,0.172061
41614000,0.0324,0.013523,0.002678,0.000431,0.131279
41615000,0.0324,0.013523,0.002678,0.000431,0.125990
41616000,0.0324,0.013523,0.002678,0.000431,0.096843
41617000,0.0324,0.013523,0.002678,0.000431,0.062760
41618000,0.0324,0.013523,0.002678,0.000431,0.057119
41619000,0.0324,0.013523,0.002678,0.000431,0.055591
41620000,0.0324,0.013523,0.002678,0.000431,0.040782
41621000,0.0324,0.013523,0.002678,0.000431,0.037139
41622000,0.0324,0.013523,0.002678,0.000431,0.031262
41623000,0.0324,0.013523,0.002678,0.000431,0.020332
41624000,0.0324,0.013523,0.002678,0.000431,0.025386
41625000,0.0324,0.013523,0.002678,0.000431,0.015279
41626000,0.0324,0.013523,0.002678,0.000431,0.004936
41627000,0.0324,0.013523,0.002678,0.000431,0.002351
41628000,0.0324,0.013523,0.002678,0.000431,0.002351
41629000,0.0324,0.013523,0.002678,0.000431,0.002351
41630000,0.0324,0.013523,0.002678,0.000431,0.002586
41631000,0.0324,0.013523,0.002678,0.000431,0.002351
41632000,0.0324,0.013523,0.002678,0.000431,0.002351
41633000,0.0324,0.013523,0.002678,0.000431,0.002351
41634000,0.0324,0.013523,0.002678,0.000431,0.002821
41635000,0.0324,0.013523,0.002678,0.000431,0.002351
41636000,0.0324,0.013523,0.002678,0.000431,0.004231
41637000,0.0324,0.013523,0.002678,0.000431,0.001528
41638000,0.0324,0.013523,0.002678,0.000431,0.001645
41639000,0.0324,0.013523,0.002678,0.000431,0.001880
41640000,0.0324,0.013523,0.002678,0.000431,0.001175
41641000,0.0324,0.013523,0.002678,0.000431,0.001880
41642000,0.0324,0.013523,0.002678,0.000431,0.001293
41643000,0.0324,0.013523,0.002678,0.000431,0.001763
41644000,0.0324,0.013523,0.002678,0.000431,0.001645
41645000,0.0324,0.013523,0.002678,0.000431,0.001410
41646000,0.0324,0.013523,0.002678,0.000431,0.001880
41647000,0.0324,0.013523,0.002678,0.000431,0.001293
41648000,0.0324,0.013523,0.002678,0.000431,0.001763
41649000,0.0324,0.013523,0.002678,0.000431,0.001645
41650000,0.0324,0.013523,0.002678,0.000431,0.001410
41651000,0.0324,0.013523,0.002678,0.000431,0.001645
41652000,0.0324,0.013523,0.002678,0.000431,0.001528
41653000,0.0324,0.013523,0.002678,0.000431,0.001528
41654000,0.0324,0.013523,0.002678,0.000431,0.001645
41655000,0.0324,0.013523,0.002678,0.000431,0.001645
41656000,0.0324,0.013523,0.002678,0.000431,0.001175
41657000,0.0324,0.013523,0.002678,0.000431,0.001880
41658000,0.0324,0.013523,0.002678,0.000431,0.001410
41659000,0.0324,0.013523,0.002678,0.000431,0.001645
41660000,0.0324,0.013523,0.002678,0.000431,0.001645
41661000,0.0324,0.013523,0.002678,0.000431,0.001410
41662000,0.0324,0.013523,0.002678,0.000431,0.001880
41663000,0.0324,0.013523,0.002678,0.000431,0.001410
41664000,0.0324,0.013523,0.002678,0.000431,0.001410
41665000,0.0324,0.013523,0.002678,0.000431,0.208025
41666000,0.0324,0.013523,0.002678,0.000431,0.716687
41667000,0.0324,0.013523,0.002678,0.000431,0.464354
41668000,0.0324,0.013523,0.002678,0.000431,0.136803
41669000,0.0324,0.013523,0.002678,0.000431,0.402534
41670000,0.0324,0.013523,0.002678,0.000431,0.285241
41671000,0.0324,0.013523,0.002678,0.000431,0.284653
41672000,0.0324,0.013523,0.002678,0.000431,0.286534
41673000,0.0324,0.013523,0.002678,0.000431,0.162071
41674000,0.0324,0.013523,0.002678,0.000431,0.102367
41675000,0.0324,0.013523,0.002678,0.000431,0.431328
41676000,0.0324,0.013523,0.002678,0.000431,0.358578
41677000,0.0324,0.013523,0.002678,0.000431,0.189573
41678000,0.0324,0.013523,0.002678,0.000431,0.165127
41679000,0.0324,0.013523,0.002678,0.000431,0.137861
41680000,0.0324,0.013523,0.002678,0.000431,0.116823
41681000,0.0324,0.013523,0.002678,0.000431,0.096373
41682000,0.0324,0.013523,0.002678,0.000431,0.083563
41683000,0.0324,0.013523,0.002678,0.000431,0.063465
41684000,0.0324,0.013523,0.002678,0.000431,0.047834
41685000,0.0324,0.013523,0.002678,0.000431,0.038314
41686000,0.0324,0.013523,0.002678,0.000431,0.026091
41687000,0.0324,0.013523,0.002678,0.000431,0.018687
41688000,0.0324,0.013523,0.002678,0.000431,0.020450
41689000,0.0324,0.013523,0.002678,0.000431,0.011400
41690000,0.0324,0.013523,0.002678,0.000431,0.018569
41691000,0.0324,0.013523,0.002678,0.000431,0.011518
41692000,0.0324,0.013523,0.002678,0.000431,0.010930
41693000,0.0324,0.013523,0.002678,0.000431,0.007757
41694000,0.0324,0.013523,0.002678,0.000431,0.002703
41695000,0.0324,0.013523,0.002678,0.000431,0.002468
41696000,0.0324,0.013523,0.002678,0.000431,0.002821
41697000,0.0324,0.013523,0.002678,0.000431,0.002703
41698000,0.0324,0.013523,0.002678,0.000431,0.002586
41699000,0.0324,0.013523,0.002678,0.000431,0.002703
41700000,0.0324,0.013523,0.002678,0.000431,0.002586
41701000,0.0324,0.013523,0.002678,0.000431,0.004584
41702000,0.0324,0.013523,0.002678,0.000431,0.001645
41703000,0.0324,0.013523,0.002678,0.000431,0.001880
41704000,0.0324,0.013523,0.002678,0.000431,0.001763
41705000,0.0324,0.013523,0.002678,0.000431,0.001645
41706000,0.0324,0.013523,0.002678,0.000431,0.001880
41707000,0.0324,0.013523,0.002678,0.000431,0.001763
41708000,0.0324,0.013523,0.002678,0.000431,0.001880
41709000,0.0324,0.013523,0.002678,0.000431,0.001645
41710000,0.0324,0.013523,0.002678,0.000431,0.001998
41711000,0.0324,0.013523,0.002678,0.000431,0.001763
41712000,0.0324,0.013523,0.002678,0.000431,0.001880
41713000,0.0324,0.013523,0.002678,0.000431,0.001998
41714000,0.0324,0.013523,0.002678,0.000431,0.003878
41715000,0.0324,0.013523,0.002678,0.000431,0.071810
41716000,0.0324,0.013523,0.002678,0.000431,0.753121
41717000,0.0324,0.013523,0.002678,0.000431,0.533695
41718000,0.0324,0.013523,0.002678,0.000431,0.137390
41719000,0.0324,0.013523,0.002678,0.000431,0.310509
41720000,0.0324,0.013523,0.002678,0.000431,0.442141
41721000,0.0324,0.013523,0.002678,0.000431,0.263146
41722000,0.0324,0.013523,0.002678,0.000431,0.265731
41723000,0.0324,0.013523,0.002678,0.000431,0.158310
41724000,0.0324,0.013523,0.002678,0.000431,0.115178
41725000,0.0324,0.013523,0.002678,0.000431,0.452954
41726000,0.0324,0.013523,0.002678,0.000431,0.314505
41727000,0.0324,0.013523,0.002678,0.000431,0.183697
41728000,0.0324,0.013523,0.002678,0.000431,0.157840
41729000,0.0324,0.013523,0.002678,0.000431,0.130339
41730000,0.0324,0.013523,0.002678,0.000431,0.120936
41731000,0.0324,0.013523,0.002678,0.000431,0.094963
41732000,0.0324,0.013523,0.002678,0.000431,0.082622
41733000,0.0324,0.013523,0.002678,0.000431,0.057589
41734000,0.0324,0.013523,0.002678,0.000431,0.038197
41735000,0.0324,0.013523,0.002678,0.000431,0.045954
41736000,0.0324,0.013523,0.002678,0.000431,0.031850
41737000,0.0324,0.013523,0.002678,0.000431,0.026326
41738000,0.0324,0.013523,0.002678,0.000431,0.023388
41739000,0.0324,0.013523,0.002678,0.000431,0.014691
41740000,0.0324,0.013523,0.002678,0.000431,0.007052
41741000,0.0324,0.013523,0.002678,0.000431,0.006699
41742000,0.0324,0.013523,0.002678,0.000431,0.005759
41743000,0.0324,0.013523,0.002678,0.000431,0.001998
41744000,0.0324,0.013523,0.002678,0.000431,0.001528
41745000,0.0324,0.013523,0.002678,0.000431,0.001763
41746000,0.0324,0.013523,0.002678,0.000431,0.003056
41747000,0.0324,0.013523,0.002678,0.000431,0.002468
41748000,0.0324,0.013523,0.002678,0.000431,0.000940
41749000,0.0324,0.013523,0.002678,0.000431,0.000823
41750000,0.0324,0.013523,0.002678,0.000431,0.000940
41751000,0.0324,0.013523,0.002678,0.000431,0.000940
41752000,0.0324,0.013523,0.002678,0.000431,0.000940
41753000,0.0324,0.013523,0.002678,0.000431,0.019745
41754000,0.0324,0.013523,0.002678,0.000431,0.735609
41755000,0.0324,0.013523,0.002678,0.000431,0.557436
41756000,0.0324,0.013523,0.002678,0.000431,0.135392
41757000,0.0324,0.013523,0.002678,0.000431,0.135745
41758000,0.0324,0.013523,0.002678,0.000431,0.545213
41759000,0.0324,0.013523,0.002678,0.000431,0.262675
41760000,0.0324,0.013523,0.002678,0.000431,0.309452
41761000,0.0324,0.013523,0.002678,0.000431,0.164422
41762000,0.0324,0.013523,0.002678,0.000431,0.169123
41763000,0.0324,0.013523,0.002678,0.000431,0.111299
41764000,0.0324,0.013523,0.002678,0.000431,0.514421
41765000,0.0324,0.013523,0.002678,0.000431,0.255976
41766000,0.0324,0.013523,0.002678,0.000431,0.163247
41767000,0.0324,0.013523,0.002678,0.000431,0.129046
41768000,0.0324,0.013523,0.002678,0.000431,0.107068
41769000,0.0324,0.013523,0.002678,0.000431,0.082505
41770000,0.0324,0.013523,0.002678,0.000431,0.073338
41771000,0.0324,0.013523,0.002678,0.000431,0.054768
41772000,0.0324,0.013523,0.002678,0.000431,0.041252
41773000,0.0324,0.013523,0.002678,0.000431,0.034906
41774000,0.0324,0.013523,0.002678,0.000431,0.029029
41775000,0.0324,0.013523,0.002678,0.000431,0.020685
41776000,0.0324,0.013523,0.002678,0.000431,0.011988
41777000,0.0324,0.013523,0.002678,0.000431,0.007404
41778000,0.0324,0.013523,0.002678,0.000431,0.008345
41779000,0.0324,0.013523,0.002678,0.000431,0.010460
41780000,0.0324,0.013523,0.002678,0.000431,0.004113
41781000,0.0324,0.013523,0.002678,0.000431,0.003761
41782000,0.0324,0.013523,0.002678,0.000431,0.003996
41783000,0.0324,0.013523,0.002678,0.000431,0.006817
41784000,0.0324,0.013523,0.002678,0.000431,0.000940
41785000,0.0324,0.013523,0.002678,0.000431,0.000940
41786000,0.0324,0.013523,0.002678,0.000431,0.277837
41787000,0.0324,0.013523,0.002678,0.000431,0.808711
41788000,0.0324,0.013523,0.002678,0.000431,0.307806
41789000,0.0324,0.013523,0.002678,0.000431,0.137743
41790000,0.0324,0.013523,0.002678,0.000431,0.527819
41791000,0.0324,0.013523,0.002678,0.000431,0.299344
41792000,0.0324,0.013523,0.002678,0.000431,0.267494
41793000,0.0324,0.013523,0.002678,0.000431,0.210375
41794000,0.0324,0.013523,0.002678,0.000431,0.172649
41795000,0.0324,0.013523,0.002678,0.000431,0.105893
41796000,0.0324,0.013523,0.002678,0.000431,0.539454
41797000,0.0324,0.013523,0.002678,0.000431,0.275486
41798000,0.0324,0.013523,0.002678,0.000431,0.196390
41799000,0.0324,0.013523,0.002678,0.000431,0.164539
41800000,0.0324,0.013523,0.002678,0.000431,0.127518
41801000,0.0324,0.013523,0.002678,0.000431,0.095550
41802000,0.0324,0.013523,0.002678,0.000431,0.073925
41803000,0.0324,0.013523,0.002678,0.000431,0.063465
41804000,0.0324,0.013523,0.002678,0.000431,0.041958
41805000,0.0324,0.013523,0.002678,0.000431,0.049244
41806000,0.0324,0.013523,0.002678,0.000431,0.043250
41807000,0.0324,0.013523,0.002678,0.000431,0.024563
41808000,0.0324,0.013523,0.002678,0.000431,0.020097
41809000,0.0324,0.013523,0.002678,0.000431,0.008580
41810000,0.0324,0.013523,0.002678,0.000431,0.009872
41811000,0.0324,0.013523,0.002678,0.000431,0.011870
41812000,0.0324,0.013523,0.002678,0.000431,0.007522
41813000,0.0324,0.013523,0.002678,0.000431,0.005406
41814000,0.0324,0.013523,0.002678,0.000431,0.009637
41815000,0.0324,0.013523,0.002678,0.000431,0.002821
41816000,0.0324,0.013523,0.002678,0.000431,0.255506
41817000,0.0324,0.013523,0.002678,0.000431,0.726089
41818000,0.0324,0.013523,0.002678,0.000431,0.442729
41819000,0.0324,0.013523,0.002678,0.000431,0.135863
41820000,0.0324,0.013523,0.002678,0.000431,0.388431
41821000,0.0324,0.013523,0.002678,0.000431,0.318501
41822000,0.0324,0.013523,0.002678,0.000431,0.262675
41823000,0.0324,0.013523,0.002678,0.000431,0.278189
41824000,0.0324,0.013523,0.002678,0.000431,0.145735
41825000,0.0324,0.013523,0.002678,0.000431,0.163364
41826000,0.0324,0.013523,0.002678,0.000431,0.205674
41827000,0.0324,0.013523,0.002678,0.000431,0.553440
41828000,0.0324,0.013523,0.002678,0.000431,0.237407
41829000,0.0324,0.013523,0.002678,0.000431,0.196037
41830000,0.0324,0.013523,0.002678,0.000431,0.160543
41831000,0.0324,0.013523,0.002678,0.000431,0.134570
41832000,0.0324,0.013523,0.002678,0.000431,0.111299
41833000,0.0324,0.013523,0.002678,0.000431,0.087558
41834000,0.0324,0.013523,0.002678,0.000431,0.064876
41835000,0.0324,0.013523,0.002678,0.000431,0.048304
41836000,0.0324,0.013523,0.002678,0.000431,0.044661
41837000,0.0324,0.013523,0.002678,0.000431,0.040077
41838000,0.0324,0.013523,0.002678,0.000431,0.029029
41839000,0.0324,0.013523,0.002678,0.000431,0.025386
41840000,0.0324,0.013523,0.002678,0.000431,0.010342
41841000,0.0324,0.013523,0.002678,0.000431,0.012105
41842000,0.0324,0.013523,0.002678,0.000431,0.009167
41843000,0.0324,0.013523,0.002678,0.000431,0.005289
41844000,0.0324,0.013523,0.002678,0.000431,0.005994
41845000,0.0324,0.013523,0.002678,0.000431,0.008109
41846000,0.0324,0.013523,0.002678,0.000431,0.009637
41847000,0.0324,0.013523,0.002678,0.000431,0.003173
41848000,0.0324,0.013523,0.002678,0.000431,0.006347
41849000,0.0324,0.013523,0.002678,0.000431,0.058294
41850000,0.0324,0.013523,0.002678,0.000431,0.810122
41851000,0.0324,0.013523,0.002678,0.000431,0.531933
41852000,0.0324,0.013523,0.002678,0.000431,0.146558
41853000,0.0324,0.013523,0.002678,0.000431,0.296641
41854000,0.0324,0.013523,0.002678,0.000431,0.459653
41855000,0.0324,0.013523,0.002678,0.000431,0.244929
41856000,0.0324,0.013523,0.002678,0.000431,0.263968
41857000,0.0324,0.013523,0.002678,0.000431,0.172061
41858000,0.0324,0.013523,0.002678,0.000431,0.118703
41859000,0.0324,0.013523,0.002678,0.000431,0.478575
41860000,0.0324,0.013523,0.002678,0.000431,0.319912
41861000,0.0324,0.013523,0.002678,0.000431,0.197330
41862000,0.0324,0.013523,0.002678,0.000431,0.154667
41863000,0.0324,0.013523,0.002678,0.000431,0.151494
41864000,0.0324,0.013523,0.002678,0.000431,0.102485
41865000,0.0324,0.013523,0.002678,0.000431,0.084268
41866000,0.0324,0.013523,0.002678,0.000431,0.064758
41867000,0.0324,0.013523,0.002678,0.000431,0.061350
41868000,0.0324,0.013523,0.002678,0.000431,0.052183
41869000,0.0324,0.013523,0.002678,0.000431,0.036786
41870000,0.0324,0.013523,0.002678,0.000431,0.032790
41871000,0.0324,0.013523,0.002678,0.000431,0.021508
41872000,0.0324,0.013523,0.002678,0.000431,0.017512
41873000,0.0324,0.013523,0.002678,0.000431,0.016689
41874000,0.0324,0.013523,0.002678,0.000431,0.019510
41875000,0.0324,0.013523,0.002678,0.000431,0.005406
41876000,0.0324,0.013523,0.002678,0.000431,0.006229
41877000,0.0324,0.013523,0.002678,0.000431,0.007757
41878000,0.0324,0.013523,0.002678,0.000431,0.007757
41879000,0.0324,0.013523,0.002678,0.000431,0.002116
41880000,0.0324,0.013523,0.002678,0.000431,0.002586
41881000,0.0324,0.013523,0.002678,0.000431,0.002586
41882000,0.0324,0.013523,0.002678,0.000431,0.004466
41883000,0.0324,0.013523,0.002678,0.000431,0.000940
41884000,0.0324,0.013523,0.002678,0.000431,0.000940
41885000,0.0324,0.013523,0.002678,0.000431,0.000823
41886000,0.0324,0.013523,0.002678,0.000431,0.014338
41887000,0.0324,0.013523,0.002678,0.000431,0.762053
41888000,0.0324,0.013523,0.002678,0.000431,0.568131
41889000,0.0324,0.013523,0.002678,0.000431,0.136215
41890000,0.0324,0.013523,0.002678,0.000431,0.135040
41891000,0.0324,0.013523,0.002678,0.000431,0.516419
41892000,0.0324,0.013523,0.002678,0.000431,0.227770
41893000,0.0324,0.013523,0.002678,0.000431,0.295583
41894000,0.0324,0.013523,0.002678,0.000431,0.190866
41895000,0.0324,0.013523,0.002678,0.000431,0.156077
41896000,0.0324,0.013523,0.002678,0.000431,0.120936
41897000,0.0324,0.013523,0.002678,0.000431,0.415227
41898000,0.0324,0.013523,0.002678,0.000431,0.422749
41899000,0.0324,0.013523,0.002678,0.000431,0.202854
41900000,0.0324,0.013523,0.002678,0.000431,0.183344
41901000,0.0324,0.013523,0.002678,0.000431,0.156195
41902000,0.0324,0.013523,0.002678,0.000431,0.141974
41903000,0.0324,0.013523,0.002678,0.000431,0.121524
41904000,0.0324,0.013523,0.002678,0.000431,0.083327
41905000,0.0324,0.013523,0.002678,0.000431,0.067931
41906000,0.0324,0.013523,0.002678,0.000431,0.046189
41907000,0.0324,0.013523,0.002678,0.000431,0.040782
41908000,0.0324,0.013523,0.002678,0.000431,0.033731
41909000,0.0324,0.013523,0.002678,0.000431,0.032438
41910000,0.0324,0.013523,0.002678,0.000431,0.027149
41911000,0.0324,0.013523,0.002678,0.000431,0.031850
41912000,0.0324,0.013523,0.002678,0.000431,0.025151
41913000,0.0324,0.013523,0.002678,0.000431,0.019275
41914000,0.0324,0.013523,0.002678,0.000431,0.016336
41915000,0.0324,0.013523,0.002678,0.000431,0.010342
41916000,0.0324,0.013523,0.002678,0.000431,0.004701
41917000,0.0324,0.013523,0.002678,0.000431,0.004113
41918000,0.0324,0.013523,0.002678,0.000431,0.010225
41919000,0.0324,0.013523,0.002678,0.000431,0.247044
41920000,0.0324,0.013523,0.002678,0.000431,0.772278
41921000,0.0324,0.013523,0.002678,0.000431,0.438733
41922000,0.0324,0.013523,0.002678,0.000431,0.136685
41923000,0.0324,0.013523,0.002678,0.000431,0.507604
41924000,0.0324,0.013523,0.002678,0.000431,0.271608
41925000,0.0324,0.013523,0.002678,0.000431,0.298874
41926000,0.0324,0.013523,0.002678,0.000431,0.208965
41927000,0.0324,0.013523,0.002678,0.000431,0.182286
41928000,0.0324,0.013523,0.002678,0.000431,0.091672
41929000,0.0324,0.013523,0.002678,0.000431,0.533931
41930000,0.0324,0.013523,0.002678,0.000431,0.219543
41931000,0.0324,0.013523,0.002678,0.000431,0.165480
41932000,0.0324,0.013523,0.002678,0.000431,0.141151
41933000,0.0324,0.013523,0.002678,0.000431,0.128693
41934000,0.0324,0.013523,0.002678,0.000431,0.120701
41935000,0.0324,0.013523,0.002678,0.000431,0.084620
41936000,0.0324,0.013523,0.002678,0.000431,0.077921
41937000,0.0324,0.013523,0.002678,0.000431,0.060174
41938000,0.0324,0.013523,0.002678,0.000431,0.050537
41939000,0.0324,0.013523,0.002678,0.000431,0.038079
41940000,0.0324,0.013523,0.002678,0.000431,0.031498
41941000,0.0324,0.013523,0.002678,0.000431,0.030557
41942000,0.0324,0.013523,0.002678,0.000431,0.014809
41943000,0.0324,0.013523,0.002678,0.000431,0.006699
41944000,0.0324,0.013523,0.002678,0.000431,0.007052
41945000,0.0324,0.013523,0.002678,0.000431,0.008932
41946000,0.0324,0.013523,0.002678,0.000431,0.003408
41947000,0.0324,0.013523,0.002678,0.000431,0.005054
41948000,0.0324,0.013523,0.002678,0.000431,0.001998
41949000,0.0324,0.013523,0.002678,0.000431,0.003996
41950000,0.0324,0.013523,0.002678,0.000431,0.071927
41951000,0.0324,0.013523,0.002678,0.000431,0.701408
41952000,0.0324,0.013523,0.002678,0.000431,0.540865
41953000,0.0324,0.013523,0.002678,0.000431,0.135392
41954000,0.0324,0.013523,0.002678,0.000431,0.147498
41955000,0.0324,0.013523,0.002678,0.000431,0.597043
41956000,0.0324,0.013523,0.002678,0.000431,0.240228
41957000,0.0324,0.013523,0.002678,0.000431,0.319089
41958000,0.0324,0.013523,0.002678,0.000431,0.148908
41959000,0.0324,0.013523,0.002678,0.000431,0.163012
41960000,0.0324,0.013523,0.002678,0.000431,0.105893
41961000,0.0324,0.013523,0.002678,0.000431,0.524646
41962000,0.0324,0.013523,0.002678,0.000431,0.302047
41963000,0.0324,0.013523,0.002678,0.000431,0.227064
41964000,0.0324,0.013523,0.002678,0.000431,0.176175
41965000,0.0324,0.013523,0.002678,0.000431,0.143032
41966000,0.0324,0.013523,0.002678,0.000431,0.127401
41967000,0.0324,0.013523,0.002678,0.000431,0.093317
41968000,0.0324,0.013523,0.002678,0.000431,0.072397
41969000,0.0324,0.013523,0.002678,0.000431,0.053710
41970000,0.0324,0.013523,0.002678,0.000431,0.052770
41971000,0.0324,0.013523,0.002678,0.000431,0.044661
41972000,0.0324,0.013523,0.002678,0.000431,0.028912
41973000,0.0324,0.013523,0.002678,0.000431,0.023153
41974000,0.0324,0.013523,0.002678,0.000431,0.019627
41975000,0.0324,0.013523,0.002678,0.000431,0.022095
41976000,0.0324,0.013523,0.002678,0.000431,0.018922
41977000,0.0324,0.013523,0.002678,0.000431,0.014103
41978000,0.0324,0.013523,0.002678,0.000431,0.019157
41979000,0.0324,0.013523,0.002678,0.000431,0.008815
41980000,0.0324,0.013523,0.002678,0.000431,0.008462
41981000,0.0324,0.013523,0.002678,0.000431,0.010225
41982000,0.0324,0.013523,0.002678,0.000431,0.008462
41983000,0.0324,0.013523,0.002678,0.000431,0.006699
41984000,0.0324,0.013523,0.002678,0.000431,0.008815
41985000,0.0324,0.013523,0.002678,0.000431,0.005171
41986000,0.0324,0.013523,0.002678,0.000431,0.006111
41987000,0.0324,0.013523,0.002678,0.000431,0.005759
41988000,0.0324,0.013523,0.002678,0.000431,0.005994
41989000,0.0324,0.013523,0.002678,0.000431,0.005289
41990000,0.0324,0.013523,0.002678,0.000431,0.005641
41991000,0.0324,0.013523,0.002678,0.000431,0.006111
41992000,0.0324,0.013523,0.002678,0.000431,0.005641
41993000,0.0324,0.013523,0.002678,0.000431,0.005171
41994000,0.0324,0.013523,0.002678,0.000431,0.009990
41995000,0.0324,0.013523,0.002678,0.000431,0.005171
41996000,0.0324,0.013523,0.002678,0.000431,0.011283
41997000,0.0324,0.013523,0.002678,0.000431,0.002938
41998000,0.0324,0.013523,0.002678,0.000431,0.008345
41999000,0.0324,0.013523,0.002678,0.000431,0.001175
