Cycle,Area(mm^2),PeakDynamic(W),SubthresholdLeakage(W),GateLeakage(W),RunTimeDynamic(W)
87000000,0.0324,0.013523,0.002678,0.000431,0.175235
87001000,0.0324,0.013523,0.002678,0.000431,0.157018
87002000,0.0324,0.013523,0.002678,0.000431,0.131514
87003000,0.0324,0.013523,0.002678,0.000431,0.124227
87004000,0.0324,0.013523,0.002678,0.000431,0.106363
87005000,0.0324,0.013523,0.002678,0.000431,0.094493
87006000,0.0324,0.013523,0.002678,0.000431,0.086853
87007000,0.0324,0.013523,0.002678,0.000431,0.071575
87008000,0.0324,0.013523,0.002678,0.000431,0.057119
87009000,0.0324,0.013523,0.002678,0.000431,0.046776
87010000,0.0324,0.013523,0.002678,0.000431,0.051125
87011000,0.0324,0.013523,0.002678,0.000431,0.041017
87012000,0.0324,0.013523,0.002678,0.000431,0.033966
87013000,0.0324,0.013523,0.002678,0.000431,0.021978
87014000,0.0324,0.013523,0.002678,0.000431,0.024446
87015000,0.0324,0.013523,0.002678,0.000431,0.022683
87016000,0.0324,0.013523,0.002678,0.000431,0.025386
87017000,0.0324,0.013523,0.002678,0.000431,0.022448
87018000,0.0324,0.013523,0.002678,0.000431,0.021625
87019000,0.0324,0.013523,0.002678,0.000431,0.014926
87020000,0.0324,0.013523,0.002678,0.000431,0.007052
87021000,0.0324,0.013523,0.002678,0.000431,0.008815
87022000,0.0324,0.013523,0.002678,0.000431,0.011518
87023000,0.0324,0.013523,0.002678,0.000431,0.004584
87024000,0.0324,0.013523,0.002678,0.000431,0.004113
87025000,0.0324,0.013523,0.002678,0.000431,0.006229
87026000,0.0324,0.013523,0.002678,0.000431,0.002821
87027000,0.0324,0.013523,0.002678,0.000431,0.002586
87028000,0.0324,0.013523,0.002678,0.000431,0.003056
87029000,0.0324,0.013523,0.002678,0.000431,0.002821
87030000,0.0324,0.013523,0.002678,0.000431,0.002703
87031000,0.0324,0.013523,0.002678,0.000431,0.003056
87032000,0.0324,0.013523,0.002678,0.000431,0.005054
87033000,0.0324,0.013523,0.002678,0.000431,0.001645
87034000,0.0324,0.013523,0.002678,0.000431,0.003173
87035000,0.0324,0.013523,0.002678,0.000431,0.000705
87036000,0.0324,0.013523,0.002678,0.000431,0.000940
87037000,0.0324,0.013523,0.002678,0.000431,0.000823
87038000,0.0324,0.013523,0.002678,0.000431,0.000823
87039000,0.0324,0.013523,0.002678,0.000431,0.000823
87040000,0.0324,0.013523,0.002678,0.000431,0.000823
87041000,0.0324,0.013523,0.002678,0.000431,0.000823
87042000,0.0324,0.013523,0.002678,0.000431,0.000823
87043000,0.0324,0.013523,0.002678,0.000431,0.000823
87044000,0.0324,0.013523,0.002678,0.000431,0.000823
87045000,0.0324,0.013523,0.002678,0.000431,0.000940
87046000,0.0324,0.013523,0.002678,0.000431,0.000823
87047000,0.0324,0.013523,0.002678,0.000431,0.000823
87048000,0.0324,0.013523,0.002678,0.000431,0.000705
87049000,0.0324,0.013523,0.002678,0.000431,0.000940
87050000,0.0324,0.013523,0.002678,0.000431,0.000940
87051000,0.0324,0.013523,0.002678,0.000431,0.000705
87052000,0.0324,0.013523,0.002678,0.000431,0.000940
87053000,0.0324,0.013523,0.002678,0.000431,0.000705
87054000,0.0324,0.013523,0.002678,0.000431,0.000940
87055000,0.0324,0.013523,0.002678,0.000431,0.000823
87056000,0.0324,0.013523,0.002678,0.000431,0.000823
87057000,0.0324,0.013523,0.002678,0.000431,0.000940
87058000,0.0324,0.013523,0.002678,0.000431,0.000705
87059000,0.0324,0.013523,0.002678,0.000431,0.000940
87060000,0.0324,0.013523,0.002678,0.000431,0.000823
87061000,0.0324,0.013523,0.002678,0.000431,0.000823
87062000,0.0324,0.013523,0.002678,0.000431,0.002821
87063000,0.0324,0.013523,0.002678,0.000431,0.465999
87064000,0.0324,0.013523,0.002678,0.000431,0.715041
87065000,0.0324,0.013523,0.002678,0.000431,0.178173
87066000,0.0324,0.013523,0.002678,0.000431,0.145735
87067000,0.0324,0.013523,0.002678,0.000431,0.349529
87068000,0.0324,0.013523,0.002678,0.000431,0.493971
87069000,0.0324,0.013523,0.002678,0.000431,0.313918
87070000,0.0324,0.013523,0.002678,0.000431,0.317796
87071000,0.0324,0.013523,0.002678,0.000431,0.149143
87072000,0.0324,0.013523,0.002678,0.000431,0.148556
87073000,0.0324,0.013523,0.002678,0.000431,0.163952
87074000,0.0324,0.013523,0.002678,0.000431,0.484451
87075000,0.0324,0.013523,0.002678,0.000431,0.172884
87076000,0.0324,0.013523,0.002678,0.000431,0.146675
87077000,0.0324,0.013523,0.002678,0.000431,0.128576
87078000,0.0324,0.013523,0.002678,0.000431,0.114590
87079000,0.0324,0.013523,0.002678,0.000431,0.099076
87080000,0.0324,0.013523,0.002678,0.000431,0.087676
87081000,0.0324,0.013523,0.002678,0.000431,0.080859
87082000,0.0324,0.013523,0.002678,0.000431,0.068284
87083000,0.0324,0.013523,0.002678,0.000431,0.070047
87084000,0.0324,0.013523,0.002678,0.000431,0.050067
87085000,0.0324,0.013523,0.002678,0.000431,0.037374
87086000,0.0324,0.013523,0.002678,0.000431,0.034553
87087000,0.0324,0.013523,0.002678,0.000431,0.029265
87088000,0.0324,0.013523,0.002678,0.000431,0.029500
87089000,0.0324,0.013523,0.002678,0.000431,0.020332
87090000,0.0324,0.013523,0.002678,0.000431,0.019157
87091000,0.0324,0.013523,0.002678,0.000431,0.017159
87092000,0.0324,0.013523,0.002678,0.000431,0.017629
87093000,0.0324,0.013523,0.002678,0.000431,0.016807
87094000,0.0324,0.013523,0.002678,0.000431,0.017394
87095000,0.0324,0.013523,0.002678,0.000431,0.008580
87096000,0.0324,0.013523,0.002678,0.000431,0.009285
87097000,0.0324,0.013523,0.002678,0.000431,0.008697
87098000,0.0324,0.013523,0.002678,0.000431,0.006934
87099000,0.0324,0.013523,0.002678,0.000431,0.008227
87100000,0.0324,0.013523,0.002678,0.000431,0.004466
87101000,0.0324,0.013523,0.002678,0.000431,0.004113
87102000,0.0324,0.013523,0.002678,0.000431,0.003761
87103000,0.0324,0.013523,0.002678,0.000431,0.005524
87104000,0.0324,0.013523,0.002678,0.000431,0.005054
87105000,0.0324,0.013523,0.002678,0.000431,0.001998
87106000,0.0324,0.013523,0.002678,0.000431,0.003291
87107000,0.0324,0.013523,0.002678,0.000431,0.000823
87108000,0.0324,0.013523,0.002678,0.000431,0.000940
87109000,0.0324,0.013523,0.002678,0.000431,0.000705
87110000,0.0324,0.013523,0.002678,0.000431,0.000940
87111000,0.0324,0.013523,0.002678,0.000431,0.000823
87112000,0.0324,0.013523,0.002678,0.000431,0.000823
87113000,0.0324,0.013523,0.002678,0.000431,0.000823
87114000,0.0324,0.013523,0.002678,0.000431,0.000823
87115000,0.0324,0.013523,0.002678,0.000431,0.000940
87116000,0.0324,0.013523,0.002678,0.000431,0.000705
87117000,0.0324,0.013523,0.002678,0.000431,0.000940
87118000,0.0324,0.013523,0.002678,0.000431,0.000823
87119000,0.0324,0.013523,0.002678,0.000431,0.000823
87120000,0.0324,0.013523,0.002678,0.000431,0.000823
87121000,0.0324,0.013523,0.002678,0.000431,0.000823
87122000,0.0324,0.013523,0.002678,0.000431,0.000823
87123000,0.0324,0.013523,0.002678,0.000431,0.000823
87124000,0.0324,0.013523,0.002678,0.000431,0.000823
87125000,0.0324,0.013523,0.002678,0.000431,0.000823
87126000,0.0324,0.013523,0.002678,0.000431,0.000940
87127000,0.0324,0.013523,0.002678,0.000431,0.000823
87128000,0.0324,0.013523,0.002678,0.000431,0.000823
87129000,0.0324,0.013523,0.002678,0.000431,0.000705
87130000,0.0324,0.013523,0.002678,0.000431,0.000940
87131000,0.0324,0.013523,0.002678,0.000431,0.000940
87132000,0.0324,0.013523,0.002678,0.000431,0.000705
87133000,0.0324,0.013523,0.002678,0.000431,0.000940
87134000,0.0324,0.013523,0.002678,0.000431,0.000705
87135000,0.0324,0.013523,0.002678,0.000431,0.000940
87136000,0.0324,0.013523,0.002678,0.000431,0.000823
87137000,0.0324,0.013523,0.002678,0.000431,0.000823
87138000,0.0324,0.013523,0.002678,0.000431,0.000940
87139000,0.0324,0.013523,0.002678,0.000431,0.000705
87140000,0.0324,0.013523,0.002678,0.000431,0.000940
87141000,0.0324,0.013523,0.002678,0.000431,0.000823
87142000,0.0324,0.013523,0.002678,0.000431,0.000823
87143000,0.0324,0.013523,0.002678,0.000431,0.000823
87144000,0.0324,0.013523,0.002678,0.000431,0.000823
87145000,0.0324,0.013523,0.002678,0.000431,0.000823
87146000,0.0324,0.013523,0.002678,0.000431,0.000823
87147000,0.0324,0.013523,0.002678,0.000431,0.000940
87148000,0.0324,0.013523,0.002678,0.000431,0.000705
87149000,0.0324,0.013523,0.002678,0.000431,0.000940
87150000,0.0324,0.013523,0.002678,0.000431,0.000823
87151000,0.0324,0.013523,0.002678,0.000431,0.000823
87152000,0.0324,0.013523,0.002678,0.000431,0.000705
87153000,0.0324,0.013523,0.002678,0.000431,0.000940
87154000,0.0324,0.013523,0.002678,0.000431,0.000940
87155000,0.0324,0.013523,0.002678,0.000431,0.000705
87156000,0.0324,0.013523,0.002678,0.000431,0.000940
87157000,0.0324,0.013523,0.002678,0.000431,0.000705
87158000,0.0324,0.013523,0.002678,0.000431,0.000940
87159000,0.0324,0.013523,0.002678,0.000431,0.000823
87160000,0.0324,0.013523,0.002678,0.000431,0.000823
87161000,0.0324,0.013523,0.002678,0.000431,0.000940
87162000,0.0324,0.013523,0.002678,0.000431,0.000705
87163000,0.0324,0.013523,0.002678,0.000431,0.000940
87164000,0.0324,0.013523,0.002678,0.000431,0.000823
87165000,0.0324,0.013523,0.002678,0.000431,0.000823
87166000,0.0324,0.013523,0.002678,0.000431,0.181934
87167000,0.0324,0.013523,0.002678,0.000431,0.585643
87168000,0.0324,0.013523,0.002678,0.000431,0.537104
87169000,0.0324,0.013523,0.002678,0.000431,0.139036
87170000,0.0324,0.013523,0.002678,0.000431,0.140329
87171000,0.0324,0.013523,0.002678,0.000431,0.650048
87172000,0.0324,0.013523,0.002678,0.000431,0.234586
87173000,0.0324,0.013523,0.002678,0.000431,0.269492
87174000,0.0324,0.013523,0.002678,0.000431,0.227300
87175000,0.0324,0.013523,0.002678,0.000431,0.147733
87176000,0.0324,0.013523,0.002678,0.000431,0.150554
87177000,0.0324,0.013523,0.002678,0.000431,0.191101
87178000,0.0324,0.013523,0.002678,0.000431,0.507369
87179000,0.0324,0.013523,0.002678,0.000431,0.218015
87180000,0.0324,0.013523,0.002678,0.000431,0.191688
87181000,0.0324,0.013523,0.002678,0.000431,0.171121
87182000,0.0324,0.013523,0.002678,0.000431,0.136685
87183000,0.0324,0.013523,0.002678,0.000431,0.117176
87184000,0.0324,0.013523,0.002678,0.000431,0.101074
87185000,0.0324,0.013523,0.002678,0.000431,0.080272
87186000,0.0324,0.013523,0.002678,0.000431,0.076511
87187000,0.0324,0.013523,0.002678,0.000431,0.077334
87188000,0.0324,0.013523,0.002678,0.000431,0.055003
87189000,0.0324,0.013523,0.002678,0.000431,0.043838
87190000,0.0324,0.013523,0.002678,0.000431,0.041135
87191000,0.0324,0.013523,0.002678,0.000431,0.045601
87192000,0.0324,0.013523,0.002678,0.000431,0.034318
87193000,0.0324,0.013523,0.002678,0.000431,0.037374
87194000,0.0324,0.013523,0.002678,0.000431,0.029852
87195000,0.0324,0.013523,0.002678,0.000431,0.026561
87196000,0.0324,0.013523,0.002678,0.000431,0.023623
87197000,0.0324,0.013523,0.002678,0.000431,0.029382
87198000,0.0324,0.013523,0.002678,0.000431,0.016571
87199000,0.0324,0.013523,0.002678,0.000431,0.010342
87200000,0.0324,0.013523,0.002678,0.000431,0.011753
87201000,0.0324,0.013523,0.002678,0.000431,0.007757
87202000,0.0324,0.013523,0.002678,0.000431,0.009872
87203000,0.0324,0.013523,0.002678,0.000431,0.009637
87204000,0.0324,0.013523,0.002678,0.000431,0.009755
87205000,0.0324,0.013523,0.002678,0.000431,0.010107
87206000,0.0324,0.013523,0.002678,0.000431,0.007052
87207000,0.0324,0.013523,0.002678,0.000431,0.003408
87208000,0.0324,0.013523,0.002678,0.000431,0.001763
87209000,0.0324,0.013523,0.002678,0.000431,0.001763
87210000,0.0324,0.013523,0.002678,0.000431,0.001763
87211000,0.0324,0.013523,0.002678,0.000431,0.001645
87212000,0.0324,0.013523,0.002678,0.000431,0.001763
87213000,0.0324,0.013523,0.002678,0.000431,0.001763
87214000,0.0324,0.013523,0.002678,0.000431,0.002586
87215000,0.0324,0.013523,0.002678,0.000431,0.001763
87216000,0.0324,0.013523,0.002678,0.000431,0.000940
87217000,0.0324,0.013523,0.002678,0.000431,0.000940
87218000,0.0324,0.013523,0.002678,0.000431,0.000823
87219000,0.0324,0.013523,0.002678,0.000431,0.000940
87220000,0.0324,0.013523,0.002678,0.000431,0.000823
87221000,0.0324,0.013523,0.002678,0.000431,0.000940
87222000,0.0324,0.013523,0.002678,0.000431,0.000823
87223000,0.0324,0.013523,0.002678,0.000431,0.000823
87224000,0.0324,0.013523,0.002678,0.000431,0.000940
87225000,0.0324,0.013523,0.002678,0.000431,0.000940
87226000,0.0324,0.013523,0.002678,0.000431,0.000823
87227000,0.0324,0.013523,0.002678,0.000431,0.004349
87228000,0.0324,0.013523,0.002678,0.000431,0.550737
87229000,0.0324,0.013523,0.002678,0.000431,0.728557
87230000,0.0324,0.013523,0.002678,0.000431,0.171591
87231000,0.0324,0.013523,0.002678,0.000431,0.135628
87232000,0.0324,0.013523,0.002678,0.000431,0.549092
87233000,0.0324,0.013523,0.002678,0.000431,0.308629
87234000,0.0324,0.013523,0.002678,0.000431,0.290765
87235000,0.0324,0.013523,0.002678,0.000431,0.279482
87236000,0.0324,0.013523,0.002678,0.000431,0.149966
87237000,0.0324,0.013523,0.002678,0.000431,0.112592
87238000,0.0324,0.013523,0.002678,0.000431,0.370449
87239000,0.0324,0.013523,0.002678,0.000431,0.378206
87240000,0.0324,0.013523,0.002678,0.000431,0.204264
87241000,0.0324,0.013523,0.002678,0.000431,0.158898
87242000,0.0324,0.013523,0.002678,0.000431,0.135392
87243000,0.0324,0.013523,0.002678,0.000431,0.127401
87244000,0.0324,0.013523,0.002678,0.000431,0.104247
87245000,0.0324,0.013523,0.002678,0.000431,0.089674
87246000,0.0324,0.013523,0.002678,0.000431,0.072515
87247000,0.0324,0.013523,0.002678,0.000431,0.066051
87248000,0.0324,0.013523,0.002678,0.000431,0.055238
87249000,0.0324,0.013523,0.002678,0.000431,0.047129
87250000,0.0324,0.013523,0.002678,0.000431,0.040077
87251000,0.0324,0.013523,0.002678,0.000431,0.034201
87252000,0.0324,0.013523,0.002678,0.000431,0.032673
87253000,0.0324,0.013523,0.002678,0.000431,0.025974
87254000,0.0324,0.013523,0.002678,0.000431,0.021860
87255000,0.0324,0.013523,0.002678,0.000431,0.025974
87256000,0.0324,0.013523,0.002678,0.000431,0.021508
87257000,0.0324,0.013523,0.002678,0.000431,0.017277
87258000,0.0324,0.013523,0.002678,0.000431,0.016219
87259000,0.0324,0.013523,0.002678,0.000431,0.013633
87260000,0.0324,0.013523,0.002678,0.000431,0.018922
87261000,0.0324,0.013523,0.002678,0.000431,0.012576
87262000,0.0324,0.013523,0.002678,0.000431,0.016924
87263000,0.0324,0.013523,0.002678,0.000431,0.005994
87264000,0.0324,0.013523,0.002678,0.000431,0.007757
87265000,0.0324,0.013523,0.002678,0.000431,0.007169
87266000,0.0324,0.013523,0.002678,0.000431,0.003761
87267000,0.0324,0.013523,0.002678,0.000431,0.007639
87268000,0.0324,0.013523,0.002678,0.000431,0.002703
87269000,0.0324,0.013523,0.002678,0.000431,0.002351
87270000,0.0324,0.013523,0.002678,0.000431,0.002586
87271000,0.0324,0.013523,0.002678,0.000431,0.002468
87272000,0.0324,0.013523,0.002678,0.000431,0.002468
87273000,0.0324,0.013523,0.002678,0.000431,0.002586
87274000,0.0324,0.013523,0.002678,0.000431,0.002468
87275000,0.0324,0.013523,0.002678,0.000431,0.002586
87276000,0.0324,0.013523,0.002678,0.000431,0.002468
87277000,0.0324,0.013523,0.002678,0.000431,0.002468
87278000,0.0324,0.013523,0.002678,0.000431,0.006347
87279000,0.0324,0.013523,0.002678,0.000431,0.001528
87280000,0.0324,0.013523,0.002678,0.000431,0.001763
87281000,0.0324,0.013523,0.002678,0.000431,0.001763
87282000,0.0324,0.013523,0.002678,0.000431,0.001528
87283000,0.0324,0.013523,0.002678,0.000431,0.001763
87284000,0.0324,0.013523,0.002678,0.000431,0.001645
87285000,0.0324,0.013523,0.002678,0.000431,0.001763
87286000,0.0324,0.013523,0.002678,0.000431,0.001528
87287000,0.0324,0.013523,0.002678,0.000431,0.001763
87288000,0.0324,0.013523,0.002678,0.000431,0.001645
87289000,0.0324,0.013523,0.002678,0.000431,0.001645
87290000,0.0324,0.013523,0.002678,0.000431,0.001763
87291000,0.0324,0.013523,0.002678,0.000431,0.001528
87292000,0.0324,0.013523,0.002678,0.000431,0.001763
87293000,0.0324,0.013523,0.002678,0.000431,0.001763
87294000,0.0324,0.013523,0.002678,0.000431,0.001645
87295000,0.0324,0.013523,0.002678,0.000431,0.001645
87296000,0.0324,0.013523,0.002678,0.000431,0.001528
87297000,0.0324,0.013523,0.002678,0.000431,0.001763
87298000,0.0324,0.013523,0.002678,0.000431,0.001763
87299000,0.0324,0.013523,0.002678,0.000431,0.001645
87300000,0.0324,0.013523,0.002678,0.000431,0.001763
87301000,0.0324,0.013523,0.002678,0.000431,0.001528
87302000,0.0324,0.013523,0.002678,0.000431,0.001645
87303000,0.0324,0.013523,0.002678,0.000431,0.001763
87304000,0.0324,0.013523,0.002678,0.000431,0.001763
87305000,0.0324,0.013523,0.002678,0.000431,0.001645
87306000,0.0324,0.013523,0.002678,0.000431,0.001645
87307000,0.0324,0.013523,0.002678,0.000431,0.003408
87308000,0.0324,0.013523,0.002678,0.000431,0.009872
87309000,0.0324,0.013523,0.002678,0.000431,0.606210
87310000,0.0324,0.013523,0.002678,0.000431,0.637825
87311000,0.0324,0.013523,0.002678,0.000431,0.176880
87312000,0.0324,0.013523,0.002678,0.000431,0.144560
87313000,0.0324,0.013523,0.002678,0.000431,0.537809
87314000,0.0324,0.013523,0.002678,0.000431,0.332957
87315000,0.0324,0.013523,0.002678,0.000431,0.298874
87316000,0.0324,0.013523,0.002678,0.000431,0.271490
87317000,0.0324,0.013523,0.002678,0.000431,0.144442
87318000,0.0324,0.013523,0.002678,0.000431,0.137155
87319000,0.0324,0.013523,0.002678,0.000431,0.235644
87320000,0.0324,0.013523,0.002678,0.000431,0.451778
87321000,0.0324,0.013523,0.002678,0.000431,0.179348
87322000,0.0324,0.013523,0.002678,0.000431,0.151964
87323000,0.0324,0.013523,0.002678,0.000431,0.132337
87324000,0.0324,0.013523,0.002678,0.000431,0.113180
87325000,0.0324,0.013523,0.002678,0.000431,0.104365
87326000,0.0324,0.013523,0.002678,0.000431,0.082505
87327000,0.0324,0.013523,0.002678,0.000431,0.082270
87328000,0.0324,0.013523,0.002678,0.000431,0.064641
87329000,0.0324,0.013523,0.002678,0.000431,0.052653
87330000,0.0324,0.013523,0.002678,0.000431,0.051712
87331000,0.0324,0.013523,0.002678,0.000431,0.044191
87332000,0.0324,0.013523,0.002678,0.000431,0.033496
87333000,0.0324,0.013523,0.002678,0.000431,0.033613
87334000,0.0324,0.013523,0.002678,0.000431,0.027149
87335000,0.0324,0.013523,0.002678,0.000431,0.021860
87336000,0.0324,0.013523,0.002678,0.000431,0.021743
87337000,0.0324,0.013523,0.002678,0.000431,0.020332
87338000,0.0324,0.013523,0.002678,0.000431,0.016807
87339000,0.0324,0.013523,0.002678,0.000431,0.019862
87340000,0.0324,0.013523,0.002678,0.000431,0.016101
87341000,0.0324,0.013523,0.002678,0.000431,0.016807
87342000,0.0324,0.013523,0.002678,0.000431,0.013046
87343000,0.0324,0.013523,0.002678,0.000431,0.009050
87344000,0.0324,0.013523,0.002678,0.000431,0.009285
87345000,0.0324,0.013523,0.002678,0.000431,0.010107
87346000,0.0324,0.013523,0.002678,0.000431,0.010460
87347000,0.0324,0.013523,0.002678,0.000431,0.010695
87348000,0.0324,0.013523,0.002678,0.000431,0.007522
87349000,0.0324,0.013523,0.002678,0.000431,0.005876
87350000,0.0324,0.013523,0.002678,0.000431,0.005524
87351000,0.0324,0.013523,0.002678,0.000431,0.009050
87352000,0.0324,0.013523,0.002678,0.000431,0.006229
87353000,0.0324,0.013523,0.002678,0.000431,0.004231
87354000,0.0324,0.013523,0.002678,0.000431,0.003643
87355000,0.0324,0.013523,0.002678,0.000431,0.003878
87356000,0.0324,0.013523,0.002678,0.000431,0.005876
87357000,0.0324,0.013523,0.002678,0.000431,0.002821
87358000,0.0324,0.013523,0.002678,0.000431,0.002586
87359000,0.0324,0.013523,0.002678,0.000431,0.002703
87360000,0.0324,0.013523,0.002678,0.000431,0.002351
87361000,0.0324,0.013523,0.002678,0.000431,0.004231
87362000,0.0324,0.013523,0.002678,0.000431,0.001763
87363000,0.0324,0.013523,0.002678,0.000431,0.003408
87364000,0.0324,0.013523,0.002678,0.000431,0.000940
87365000,0.0324,0.013523,0.002678,0.000431,0.000823
87366000,0.0324,0.013523,0.002678,0.000431,0.000823
87367000,0.0324,0.013523,0.002678,0.000431,0.013986
87368000,0.0324,0.013523,0.002678,0.000431,0.668853
87369000,0.0324,0.013523,0.002678,0.000431,0.601509
87370000,0.0324,0.013523,0.002678,0.000431,0.143384
87371000,0.0324,0.013523,0.002678,0.000431,0.137626
87372000,0.0324,0.013523,0.002678,0.000431,0.595750
87373000,0.0324,0.013523,0.002678,0.000431,0.259972
87374000,0.0324,0.013523,0.002678,0.000431,0.283831
87375000,0.0324,0.013523,0.002678,0.000431,0.295936
87376000,0.0324,0.013523,0.002678,0.000431,0.138918
87377000,0.0324,0.013523,0.002678,0.000431,0.157958
87378000,0.0324,0.013523,0.002678,0.000431,0.148438
87379000,0.0324,0.013523,0.002678,0.000431,0.525586
87380000,0.0324,0.013523,0.002678,0.000431,0.268552
87381000,0.0324,0.013523,0.002678,0.000431,0.218132
87382000,0.0324,0.013523,0.002678,0.000431,0.192511
87383000,0.0324,0.013523,0.002678,0.000431,0.165480
87384000,0.0324,0.013523,0.002678,0.000431,0.132102
87385000,0.0324,0.013523,0.002678,0.000431,0.120936
87386000,0.0324,0.013523,0.002678,0.000431,0.083092
87387000,0.0324,0.013523,0.002678,0.000431,0.084973
87388000,0.0324,0.013523,0.002678,0.000431,0.073925
87389000,0.0324,0.013523,0.002678,0.000431,0.059939
87390000,0.0324,0.013523,0.002678,0.000431,0.057706
87391000,0.0324,0.013523,0.002678,0.000431,0.037374
87392000,0.0324,0.013523,0.002678,0.000431,0.037374
87393000,0.0324,0.013523,0.002678,0.000431,0.033848
87394000,0.0324,0.013523,0.002678,0.000431,0.026679
87395000,0.0324,0.013523,0.002678,0.000431,0.025621
87396000,0.0324,0.013523,0.002678,0.000431,0.031733
87397000,0.0324,0.013523,0.002678,0.000431,0.017629
87398000,0.0324,0.013523,0.002678,0.000431,0.020332
87399000,0.0324,0.013523,0.002678,0.000431,0.016101
87400000,0.0324,0.013523,0.002678,0.000431,0.009872
87401000,0.0324,0.013523,0.002678,0.000431,0.010695
87402000,0.0324,0.013523,0.002678,0.000431,0.009872
87403000,0.0324,0.013523,0.002678,0.000431,0.011988
87404000,0.0324,0.013523,0.002678,0.000431,0.008697
87405000,0.0324,0.013523,0.002678,0.000431,0.009167
87406000,0.0324,0.013523,0.002678,0.000431,0.011400
87407000,0.0324,0.013523,0.002678,0.000431,0.007169
87408000,0.0324,0.013523,0.002678,0.000431,0.007874
87409000,0.0324,0.013523,0.002678,0.000431,0.009520
87410000,0.0324,0.013523,0.002678,0.000431,0.006934
87411000,0.0324,0.013523,0.002678,0.000431,0.006229
87412000,0.0324,0.013523,0.002678,0.000431,0.006699
87413000,0.0324,0.013523,0.002678,0.000431,0.004231
87414000,0.0324,0.013523,0.002678,0.000431,0.004584
87415000,0.0324,0.013523,0.002678,0.000431,0.021978
87416000,0.0324,0.013523,0.002678,0.000431,0.730438
87417000,0.0324,0.013523,0.002678,0.000431,0.593282
87418000,0.0324,0.013523,0.002678,0.000431,0.152904
87419000,0.0324,0.013523,0.002678,0.000431,0.142444
87420000,0.0324,0.013523,0.002678,0.000431,0.571540
87421000,0.0324,0.013523,0.002678,0.000431,0.268552
87422000,0.0324,0.013523,0.002678,0.000431,0.256799
87423000,0.0324,0.013523,0.002678,0.000431,0.253038
87424000,0.0324,0.013523,0.002678,0.000431,0.140916
87425000,0.0324,0.013523,0.002678,0.000431,0.179348
87426000,0.0324,0.013523,0.002678,0.000431,0.120584
87427000,0.0324,0.013523,0.002678,0.000431,0.523235
87428000,0.0324,0.013523,0.002678,0.000431,0.272430
87429000,0.0324,0.013523,0.002678,0.000431,0.193804
87430000,0.0324,0.013523,0.002678,0.000431,0.172531
87431000,0.0324,0.013523,0.002678,0.000431,0.146323
87432000,0.0324,0.013523,0.002678,0.000431,0.104953
87433000,0.0324,0.013523,0.002678,0.000431,0.089674
87434000,0.0324,0.013523,0.002678,0.000431,0.081094
87435000,0.0324,0.013523,0.002678,0.000431,0.066168
87436000,0.0324,0.013523,0.002678,0.000431,0.060292
87437000,0.0324,0.013523,0.002678,0.000431,0.051125
87438000,0.0324,0.013523,0.002678,0.000431,0.043368
87439000,0.0324,0.013523,0.002678,0.000431,0.034906
87440000,0.0324,0.013523,0.002678,0.000431,0.020685
87441000,0.0324,0.013523,0.002678,0.000431,0.016336
87442000,0.0324,0.013523,0.002678,0.000431,0.023036
87443000,0.0324,0.013523,0.002678,0.000431,0.010695
87444000,0.0324,0.013523,0.002678,0.000431,0.012576
87445000,0.0324,0.013523,0.002678,0.000431,0.010930
87446000,0.0324,0.013523,0.002678,0.000431,0.009167
87447000,0.0324,0.013523,0.002678,0.000431,0.005406
87448000,0.0324,0.013523,0.002678,0.000431,0.004231
87449000,0.0324,0.013523,0.002678,0.000431,0.004349
87450000,0.0324,0.013523,0.002678,0.000431,0.007639
87451000,0.0324,0.013523,0.002678,0.000431,0.004584
87452000,0.0324,0.013523,0.002678,0.000431,0.002586
87453000,0.0324,0.013523,0.002678,0.000431,0.004349
87454000,0.0324,0.013523,0.002678,0.000431,0.001763
87455000,0.0324,0.013523,0.002678,0.000431,0.001645
87456000,0.0324,0.013523,0.002678,0.000431,0.004701
87457000,0.0324,0.013523,0.002678,0.000431,0.000940
87458000,0.0324,0.013523,0.002678,0.000431,0.000823
87459000,0.0324,0.013523,0.002678,0.000431,0.013868
87460000,0.0324,0.013523,0.002678,0.000431,0.720683
87461000,0.0324,0.013523,0.002678,0.000431,0.578709
87462000,0.0324,0.013523,0.002678,0.000431,0.159368
87463000,0.0324,0.013523,0.002678,0.000431,0.148673
87464000,0.0324,0.013523,0.002678,0.000431,0.589874
87465000,0.0324,0.013523,0.002678,0.000431,0.243401
87466000,0.0324,0.013523,0.002678,0.000431,0.314270
87467000,0.0324,0.013523,0.002678,0.000431,0.296171
87468000,0.0324,0.013523,0.002678,0.000431,0.152552
87469000,0.0324,0.013523,0.002678,0.000431,0.105893
87470000,0.0324,0.013523,0.002678,0.000431,0.338834
87471000,0.0324,0.013523,0.002678,0.000431,0.384787
87472000,0.0324,0.013523,0.002678,0.000431,0.154079
87473000,0.0324,0.013523,0.002678,0.000431,0.132454
87474000,0.0324,0.013523,0.002678,0.000431,0.111887
87475000,0.0324,0.013523,0.002678,0.000431,0.091437
87476000,0.0324,0.013523,0.002678,0.000431,0.073808
87477000,0.0324,0.013523,0.002678,0.000431,0.071340
87478000,0.0324,0.013523,0.002678,0.000431,0.069107
87479000,0.0324,0.013523,0.002678,0.000431,0.064876
87480000,0.0324,0.013523,0.002678,0.000431,0.043838
87481000,0.0324,0.013523,0.002678,0.000431,0.041605
87482000,0.0324,0.013523,0.002678,0.000431,0.045248
87483000,0.0324,0.013523,0.002678,0.000431,0.036081
87484000,0.0324,0.013523,0.002678,0.000431,0.029852
87485000,0.0324,0.013523,0.002678,0.000431,0.028912
87486000,0.0324,0.013523,0.002678,0.000431,0.026561
87487000,0.0324,0.013523,0.002678,0.000431,0.017159
87488000,0.0324,0.013523,0.002678,0.000431,0.019980
87489000,0.0324,0.013523,0.002678,0.000431,0.011400
87490000,0.0324,0.013523,0.002678,0.000431,0.017629
87491000,0.0324,0.013523,0.002678,0.000431,0.010107
87492000,0.0324,0.013523,0.002678,0.000431,0.011400
87493000,0.0324,0.013523,0.002678,0.000431,0.010107
87494000,0.0324,0.013523,0.002678,0.000431,0.008227
87495000,0.0324,0.013523,0.002678,0.000431,0.006934
87496000,0.0324,0.013523,0.002678,0.000431,0.007404
87497000,0.0324,0.013523,0.002678,0.000431,0.007522
87498000,0.0324,0.013523,0.002678,0.000431,0.008932
87499000,0.0324,0.013523,0.002678,0.000431,0.006934
87500000,0.0324,0.013523,0.002678,0.000431,0.007874
87501000,0.0324,0.013523,0.002678,0.000431,0.006229
87502000,0.0324,0.013523,0.002678,0.000431,0.005524
87503000,0.0324,0.013523,0.002678,0.000431,0.005054
87504000,0.0324,0.013523,0.002678,0.000431,0.006699
87505000,0.0324,0.013523,0.002678,0.000431,0.005759
87506000,0.0324,0.013523,0.002678,0.000431,0.003291
87507000,0.0324,0.013523,0.002678,0.000431,0.003291
87508000,0.0324,0.013523,0.002678,0.000431,0.003291
87509000,0.0324,0.013523,0.002678,0.000431,0.003643
87510000,0.0324,0.013523,0.002678,0.000431,0.003056
87511000,0.0324,0.013523,0.002678,0.000431,0.004936
87512000,0.0324,0.013523,0.002678,0.000431,0.002233
87513000,0.0324,0.013523,0.002678,0.000431,0.002703
87514000,0.0324,0.013523,0.002678,0.000431,0.002586
87515000,0.0324,0.013523,0.002678,0.000431,0.002233
87516000,0.0324,0.013523,0.002678,0.000431,0.002468
87517000,0.0324,0.013523,0.002678,0.000431,0.002351
87518000,0.0324,0.013523,0.002678,0.000431,0.000940
87519000,0.0324,0.013523,0.002678,0.000431,0.000823
87520000,0.0324,0.013523,0.002678,0.000431,0.000940
87521000,0.0324,0.013523,0.002678,0.000431,0.000823
87522000,0.0324,0.013523,0.002678,0.000431,0.073103
87523000,0.0324,0.013523,0.002678,0.000431,0.658628
87524000,0.0324,0.013523,0.002678,0.000431,0.564018
87525000,0.0324,0.013523,0.002678,0.000431,0.144442
87526000,0.0324,0.013523,0.002678,0.000431,0.141269
87527000,0.0324,0.013523,0.002678,0.000431,0.599981
87528000,0.0324,0.013523,0.002678,0.000431,0.270315
87529000,0.0324,0.013523,0.002678,0.000431,0.265026
87530000,0.0324,0.013523,0.002678,0.000431,0.247397
87531000,0.0324,0.013523,0.002678,0.000431,0.141386
87532000,0.0324,0.013523,0.002678,0.000431,0.166655
87533000,0.0324,0.013523,0.002678,0.000431,0.147733
87534000,0.0324,0.013523,0.002678,0.000431,0.554145
87535000,0.0324,0.013523,0.002678,0.000431,0.274663
87536000,0.0324,0.013523,0.002678,0.000431,0.197095
87537000,0.0324,0.013523,0.002678,0.000431,0.173589
87538000,0.0324,0.013523,0.002678,0.000431,0.161366
87539000,0.0324,0.013523,0.002678,0.000431,0.123757
87540000,0.0324,0.013523,0.002678,0.000431,0.112827
87541000,0.0324,0.013523,0.002678,0.000431,0.101662
87542000,0.0324,0.013523,0.002678,0.000431,0.078509
87543000,0.0324,0.013523,0.002678,0.000431,0.072867
87544000,0.0324,0.013523,0.002678,0.000431,0.058176
87545000,0.0324,0.013523,0.002678,0.000431,0.045013
87546000,0.0324,0.013523,0.002678,0.000431,0.039489
87547000,0.0324,0.013523,0.002678,0.000431,0.018217
87548000,0.0324,0.013523,0.002678,0.000431,0.017864
87549000,0.0324,0.013523,0.002678,0.000431,0.017277
87550000,0.0324,0.013523,0.002678,0.000431,0.010460
87551000,0.0324,0.013523,0.002678,0.000431,0.003056
87552000,0.0324,0.013523,0.002678,0.000431,0.003761
87553000,0.0324,0.013523,0.002678,0.000431,0.003408
87554000,0.0324,0.013523,0.002678,0.000431,0.006582
87555000,0.0324,0.013523,0.002678,0.000431,0.002351
87556000,0.0324,0.013523,0.002678,0.000431,0.002586
87557000,0.0324,0.013523,0.002678,0.000431,0.002351
87558000,0.0324,0.013523,0.002678,0.000431,0.002586
87559000,0.0324,0.013523,0.002678,0.000431,0.002468
87560000,0.0324,0.013523,0.002678,0.000431,0.002468
87561000,0.0324,0.013523,0.002678,0.000431,0.003526
87562000,0.0324,0.013523,0.002678,0.000431,0.001763
87563000,0.0324,0.013523,0.002678,0.000431,0.002821
87564000,0.0324,0.013523,0.002678,0.000431,0.002233
87565000,0.0324,0.013523,0.002678,0.000431,0.000940
87566000,0.0324,0.013523,0.002678,0.000431,0.000705
87567000,0.0324,0.013523,0.002678,0.000431,0.003526
87568000,0.0324,0.013523,0.002678,0.000431,0.425099
87569000,0.0324,0.013523,0.002678,0.000431,0.770162
87570000,0.0324,0.013523,0.002678,0.000431,0.284418
87571000,0.0324,0.013523,0.002678,0.000431,0.138801
87572000,0.0324,0.013523,0.002678,0.000431,0.289354
87573000,0.0324,0.013523,0.002678,0.000431,0.534988
87574000,0.0324,0.013523,0.002678,0.000431,0.251158
87575000,0.0324,0.013523,0.002678,0.000431,0.334133
87576000,0.0324,0.013523,0.002678,0.000431,0.153727
87577000,0.0324,0.013523,0.002678,0.000431,0.136920
87578000,0.0324,0.013523,0.002678,0.000431,0.243636
87579000,0.0324,0.013523,0.002678,0.000431,0.447900
87580000,0.0324,0.013523,0.002678,0.000431,0.151846
87581000,0.0324,0.013523,0.002678,0.000431,0.115530
87582000,0.0324,0.013523,0.002678,0.000431,0.095080
87583000,0.0324,0.013523,0.002678,0.000431,0.089086
87584000,0.0324,0.013523,0.002678,0.000431,0.078861
87585000,0.0324,0.013523,0.002678,0.000431,0.071222
87586000,0.0324,0.013523,0.002678,0.000431,0.050067
87587000,0.0324,0.013523,0.002678,0.000431,0.043485
87588000,0.0324,0.013523,0.002678,0.000431,0.027031
87589000,0.0324,0.013523,0.002678,0.000431,0.029617
87590000,0.0324,0.013523,0.002678,0.000431,0.017864
87591000,0.0324,0.013523,0.002678,0.000431,0.027384
87592000,0.0324,0.013523,0.002678,0.000431,0.012458
87593000,0.0324,0.013523,0.002678,0.000431,0.009637
87594000,0.0324,0.013523,0.002678,0.000431,0.009990
87595000,0.0324,0.013523,0.002678,0.000431,0.015279
87596000,0.0324,0.013523,0.002678,0.000431,0.007874
87597000,0.0324,0.013523,0.002678,0.000431,0.007169
87598000,0.0324,0.013523,0.002678,0.000431,0.010695
87599000,0.0324,0.013523,0.002678,0.000431,0.010695
87600000,0.0324,0.013523,0.002678,0.000431,0.004819
87601000,0.0324,0.013523,0.002678,0.000431,0.002586
87602000,0.0324,0.013523,0.002678,0.000431,0.004466
87603000,0.0324,0.013523,0.002678,0.000431,0.001645
87604000,0.0324,0.013523,0.002678,0.000431,0.007052
87605000,0.0324,0.013523,0.002678,0.000431,0.550149
87606000,0.0324,0.013523,0.002678,0.000431,0.676727
87607000,0.0324,0.013523,0.002678,0.000431,0.144560
87608000,0.0324,0.013523,0.002678,0.000431,0.134922
87609000,0.0324,0.013523,0.002678,0.000431,0.551677
87610000,0.0324,0.013523,0.002678,0.000431,0.242931
87611000,0.0324,0.013523,0.002678,0.000431,0.368921
87612000,0.0324,0.013523,0.002678,0.000431,0.260795
87613000,0.0324,0.013523,0.002678,0.000431,0.148321
87614000,0.0324,0.013523,0.002678,0.000431,0.117528
87615000,0.0324,0.013523,0.002678,0.000431,0.444492
87616000,0.0324,0.013523,0.002678,0.000431,0.290412
87617000,0.0324,0.013523,0.002678,0.000431,0.173237
87618000,0.0324,0.013523,0.002678,0.000431,0.153727
87619000,0.0324,0.013523,0.002678,0.000431,0.129046
87620000,0.0324,0.013523,0.002678,0.000431,0.112827
87621000,0.0324,0.013523,0.002678,0.000431,0.093317
87622000,0.0324,0.013523,0.002678,0.000431,0.074160
87623000,0.0324,0.013523,0.002678,0.000431,0.077451
87624000,0.0324,0.013523,0.002678,0.000431,0.064288
87625000,0.0324,0.013523,0.002678,0.000431,0.045248
87626000,0.0324,0.013523,0.002678,0.000431,0.033613
87627000,0.0324,0.013523,0.002678,0.000431,0.028677
87628000,0.0324,0.013523,0.002678,0.000431,0.021155
87629000,0.0324,0.013523,0.002678,0.000431,0.018569
87630000,0.0324,0.013523,0.002678,0.000431,0.028677
87631000,0.0324,0.013523,0.002678,0.000431,0.015749
87632000,0.0324,0.013523,0.002678,0.000431,0.015161
87633000,0.0324,0.013523,0.002678,0.000431,0.016219
87634000,0.0324,0.013523,0.002678,0.000431,0.011635
87635000,0.0324,0.013523,0.002678,0.000431,0.014103
87636000,0.0324,0.013523,0.002678,0.000431,0.011048
87637000,0.0324,0.013523,0.002678,0.000431,0.012223
87638000,0.0324,0.013523,0.002678,0.000431,0.012576
87639000,0.0324,0.013523,0.002678,0.000431,0.009167
87640000,0.0324,0.013523,0.002678,0.000431,0.007639
87641000,0.0324,0.013523,0.002678,0.000431,0.010460
87642000,0.0324,0.013523,0.002678,0.000431,0.008580
87643000,0.0324,0.013523,0.002678,0.000431,0.007522
87644000,0.0324,0.013523,0.002678,0.000431,0.009167
87645000,0.0324,0.013523,0.002678,0.000431,0.004231
87646000,0.0324,0.013523,0.002678,0.000431,0.005406
87647000,0.0324,0.013523,0.002678,0.000431,0.005054
87648000,0.0324,0.013523,0.002678,0.000431,0.005994
87649000,0.0324,0.013523,0.002678,0.000431,0.004231
87650000,0.0324,0.013523,0.002678,0.000431,0.003878
87651000,0.0324,0.013523,0.002678,0.000431,0.004231
87652000,0.0324,0.013523,0.002678,0.000431,0.004113
87653000,0.0324,0.013523,0.002678,0.000431,0.003996
87654000,0.0324,0.013523,0.002678,0.000431,0.004113
87655000,0.0324,0.013523,0.002678,0.000431,0.003996
87656000,0.0324,0.013523,0.002678,0.000431,0.009050
87657000,0.0324,0.013523,0.002678,0.000431,0.002468
87658000,0.0324,0.013523,0.002678,0.000431,0.001880
87659000,0.0324,0.013523,0.002678,0.000431,0.002586
87660000,0.0324,0.013523,0.002678,0.000431,0.001880
87661000,0.0324,0.013523,0.002678,0.000431,0.002468
87662000,0.0324,0.013523,0.002678,0.000431,0.002468
87663000,0.0324,0.013523,0.002678,0.000431,0.001998
87664000,0.0324,0.013523,0.002678,0.000431,0.001998
87665000,0.0324,0.013523,0.002678,0.000431,0.002821
87666000,0.0324,0.013523,0.002678,0.000431,0.001645
87667000,0.0324,0.013523,0.002678,0.000431,0.002351
87668000,0.0324,0.013523,0.002678,0.000431,0.002468
87669000,0.0324,0.013523,0.002678,0.000431,0.001763
87670000,0.0324,0.013523,0.002678,0.000431,0.002586
87671000,0.0324,0.013523,0.002678,0.000431,0.001880
87672000,0.0324,0.013523,0.002678,0.000431,0.002233
87673000,0.0324,0.013523,0.002678,0.000431,0.001880
87674000,0.0324,0.013523,0.002678,0.000431,0.001645
87675000,0.0324,0.013523,0.002678,0.000431,0.001645
87676000,0.0324,0.013523,0.002678,0.000431,0.001645
87677000,0.0324,0.013523,0.002678,0.000431,0.001645
87678000,0.0324,0.013523,0.002678,0.000431,0.001880
87679000,0.0324,0.013523,0.002678,0.000431,0.001645
87680000,0.0324,0.013523,0.002678,0.000431,0.001645
87681000,0.0324,0.013523,0.002678,0.000431,0.001880
87682000,0.0324,0.013523,0.002678,0.000431,0.001410
87683000,0.0324,0.013523,0.002678,0.000431,0.001880
87684000,0.0324,0.013523,0.002678,0.000431,0.001645
87685000,0.0324,0.013523,0.002678,0.000431,0.001645
87686000,0.0324,0.013523,0.002678,0.000431,0.070282
87687000,0.0324,0.013523,0.002678,0.000431,0.657453
87688000,0.0324,0.013523,0.002678,0.000431,0.580472
87689000,0.0324,0.013523,0.002678,0.000431,0.140446
87690000,0.0324,0.013523,0.002678,0.000431,0.161719
87691000,0.0324,0.013523,0.002678,0.000431,0.646052
87692000,0.0324,0.013523,0.002678,0.000431,0.254919
87693000,0.0324,0.013523,0.002678,0.000431,0.357638
87694000,0.0324,0.013523,0.002678,0.000431,0.153374
87695000,0.0324,0.013523,0.002678,0.000431,0.166185
87696000,0.0324,0.013523,0.002678,0.000431,0.154432
87697000,0.0324,0.013523,0.002678,0.000431,0.464119
87698000,0.0324,0.013523,0.002678,0.000431,0.164187
87699000,0.0324,0.013523,0.002678,0.000431,0.137978
87700000,0.0324,0.013523,0.002678,0.000431,0.114120
87701000,0.0324,0.013523,0.002678,0.000431,0.100016
87702000,0.0324,0.013523,0.002678,0.000431,0.084855
87703000,0.0324,0.013523,0.002678,0.000431,0.071222
87704000,0.0324,0.013523,0.002678,0.000431,0.067579
87705000,0.0324,0.013523,0.002678,0.000431,0.049832
87706000,0.0324,0.013523,0.002678,0.000431,0.049714
87707000,0.0324,0.013523,0.002678,0.000431,0.032908
87708000,0.0324,0.013523,0.002678,0.000431,0.026679
87709000,0.0324,0.013523,0.002678,0.000431,0.014456
87710000,0.0324,0.013523,0.002678,0.000431,0.015396
87711000,0.0324,0.013523,0.002678,0.000431,0.015396
87712000,0.0324,0.013523,0.002678,0.000431,0.015279
87713000,0.0324,0.013523,0.002678,0.000431,0.017277
87714000,0.0324,0.013523,0.002678,0.000431,0.016219
87715000,0.0324,0.013523,0.002678,0.000431,0.013046
87716000,0.0324,0.013523,0.002678,0.000431,0.013751
87717000,0.0324,0.013523,0.002678,0.000431,0.011988
87718000,0.0324,0.013523,0.002678,0.000431,0.009755
87719000,0.0324,0.013523,0.002678,0.000431,0.007757
87720000,0.0324,0.013523,0.002678,0.000431,0.011635
87721000,0.0324,0.013523,0.002678,0.000431,0.005641
87722000,0.0324,0.013523,0.002678,0.000431,0.004819
87723000,0.0324,0.013523,0.002678,0.000431,0.006111
87724000,0.0324,0.013523,0.002678,0.000431,0.005524
87725000,0.0324,0.013523,0.002678,0.000431,0.002351
87726000,0.0324,0.013523,0.002678,0.000431,0.006464
87727000,0.0324,0.013523,0.002678,0.000431,0.001763
87728000,0.0324,0.013523,0.002678,0.000431,0.001410
87729000,0.0324,0.013523,0.002678,0.000431,0.002351
87730000,0.0324,0.013523,0.002678,0.000431,0.385375
87731000,0.0324,0.013523,0.002678,0.000431,0.699528
87732000,0.0324,0.013523,0.002678,0.000431,0.226594
87733000,0.0324,0.013523,0.002678,0.000431,0.134452
87734000,0.0324,0.013523,0.002678,0.000431,0.213549
87735000,0.0324,0.013523,0.002678,0.000431,0.523235
87736000,0.0324,0.013523,0.002678,0.000431,0.240698
87737000,0.0324,0.013523,0.002678,0.000431,0.364102
87738000,0.0324,0.013523,0.002678,0.000431,0.179583
87739000,0.0324,0.013523,0.002678,0.000431,0.153844
87740000,0.0324,0.013523,0.002678,0.000431,0.105540
87741000,0.0324,0.013523,0.002678,0.000431,0.434619
87742000,0.0324,0.013523,0.002678,0.000431,0.263968
87743000,0.0324,0.013523,0.002678,0.000431,0.135275
87744000,0.0324,0.013523,0.002678,0.000431,0.131397
87745000,0.0324,0.013523,0.002678,0.000431,0.112004
87746000,0.0324,0.013523,0.002678,0.000431,0.093317
87747000,0.0324,0.013523,0.002678,0.000431,0.083327
87748000,0.0324,0.013523,0.002678,0.000431,0.076628
87749000,0.0324,0.013523,0.002678,0.000431,0.071575
87750000,0.0324,0.013523,0.002678,0.000431,0.052300
87751000,0.0324,0.013523,0.002678,0.000431,0.050655
87752000,0.0324,0.013523,0.002678,0.000431,0.046776
87753000,0.0324,0.013523,0.002678,0.000431,0.027384
87754000,0.0324,0.013523,0.002678,0.000431,0.027149
87755000,0.0324,0.013523,0.002678,0.000431,0.025151
87756000,0.0324,0.013523,0.002678,0.000431,0.020802
87757000,0.0324,0.013523,0.002678,0.000431,0.018687
87758000,0.0324,0.013523,0.002678,0.000431,0.011165
87759000,0.0324,0.013523,0.002678,0.000431,0.012458
87760000,0.0324,0.013523,0.002678,0.000431,0.009990
87761000,0.0324,0.013523,0.002678,0.000431,0.007874
87762000,0.0324,0.013523,0.002678,0.000431,0.008580
87763000,0.0324,0.013523,0.002678,0.000431,0.002468
87764000,0.0324,0.013523,0.002678,0.000431,0.002586
87765000,0.0324,0.013523,0.002678,0.000431,0.002703
87766000,0.0324,0.013523,0.002678,0.000431,0.002351
87767000,0.0324,0.013523,0.002678,0.000431,0.002586
87768000,0.0324,0.013523,0.002678,0.000431,0.002586
87769000,0.0324,0.013523,0.002678,0.000431,0.002586
87770000,0.0324,0.013523,0.002678,0.000431,0.002586
87771000,0.0324,0.013523,0.002678,0.000431,0.003526
87772000,0.0324,0.013523,0.002678,0.000431,0.003056
87773000,0.0324,0.013523,0.002678,0.000431,0.004466
87774000,0.0324,0.013523,0.002678,0.000431,0.000823
87775000,0.0324,0.013523,0.002678,0.000431,0.000940
87776000,0.0324,0.013523,0.002678,0.000431,0.000940
87777000,0.0324,0.013523,0.002678,0.000431,0.000705
87778000,0.0324,0.013523,0.002678,0.000431,0.000940
87779000,0.0324,0.013523,0.002678,0.000431,0.000705
87780000,0.0324,0.013523,0.002678,0.000431,0.000940
87781000,0.0324,0.013523,0.002678,0.000431,0.032790
87782000,0.0324,0.013523,0.002678,0.000431,0.622899
87783000,0.0324,0.013523,0.002678,0.000431,0.590579
87784000,0.0324,0.013523,0.002678,0.000431,0.133982
87785000,0.0324,0.013523,0.002678,0.000431,0.134922
87786000,0.0324,0.013523,0.002678,0.000431,0.575065
87787000,0.0324,0.013523,0.002678,0.000431,0.273723
87788000,0.0324,0.013523,0.002678,0.000431,0.272900
87789000,0.0324,0.013523,0.002678,0.000431,0.278542
87790000,0.0324,0.013523,0.002678,0.000431,0.149613
87791000,0.0324,0.013523,0.002678,0.000431,0.129281
87792000,0.0324,0.013523,0.002678,0.000431,0.247749
87793000,0.0324,0.013523,0.002678,0.000431,0.474814
87794000,0.0324,0.013523,0.002678,0.000431,0.130221
87795000,0.0324,0.013523,0.002678,0.000431,0.108361
87796000,0.0324,0.013523,0.002678,0.000431,0.084150
87797000,0.0324,0.013523,0.002678,0.000431,0.068401
87798000,0.0324,0.013523,0.002678,0.000431,0.059234
87799000,0.0324,0.013523,0.002678,0.000431,0.045248
87800000,0.0324,0.013523,0.002678,0.000431,0.036081
87801000,0.0324,0.013523,0.002678,0.000431,0.027031
87802000,0.0324,0.013523,0.002678,0.000431,0.027031
87803000,0.0324,0.013523,0.002678,0.000431,0.038314
87804000,0.0324,0.013523,0.002678,0.000431,0.016101
87805000,0.0324,0.013523,0.002678,0.000431,0.017864
87806000,0.0324,0.013523,0.002678,0.000431,0.016101
87807000,0.0324,0.013523,0.002678,0.000431,0.008109
87808000,0.0324,0.013523,0.002678,0.000431,0.009520
87809000,0.0324,0.013523,0.002678,0.000431,0.003526
87810000,0.0324,0.013523,0.002678,0.000431,0.003643
87811000,0.0324,0.013523,0.002678,0.000431,0.005641
87812000,0.0324,0.013523,0.002678,0.000431,0.002351
87813000,0.0324,0.013523,0.002678,0.000431,0.004349
87814000,0.0324,0.013523,0.002678,0.000431,0.001293
87815000,0.0324,0.013523,0.002678,0.000431,0.001293
87816000,0.0324,0.013523,0.002678,0.000431,0.000940
87817000,0.0324,0.013523,0.002678,0.000431,0.000940
87818000,0.0324,0.013523,0.002678,0.000431,0.001293
87819000,0.0324,0.013523,0.002678,0.000431,0.000940
87820000,0.0324,0.013523,0.002678,0.000431,0.001293
87821000,0.0324,0.013523,0.002678,0.000431,0.000823
87822000,0.0324,0.013523,0.002678,0.000431,0.001175
87823000,0.0324,0.013523,0.002678,0.000431,0.001175
87824000,0.0324,0.013523,0.002678,0.000431,0.000705
87825000,0.0324,0.013523,0.002678,0.000431,0.001410
87826000,0.0324,0.013523,0.002678,0.000431,0.000940
87827000,0.0324,0.013523,0.002678,0.000431,0.171474
87828000,0.0324,0.013523,0.002678,0.000431,0.673672
87829000,0.0324,0.013523,0.002678,0.000431,0.469408
87830000,0.0324,0.013523,0.002678,0.000431,0.136803
87831000,0.0324,0.013523,0.002678,0.000431,0.357991
87832000,0.0324,0.013523,0.002678,0.000431,0.360341
87833000,0.0324,0.013523,0.002678,0.000431,0.289824
87834000,0.0324,0.013523,0.002678,0.000431,0.299932
87835000,0.0324,0.013523,0.002678,0.000431,0.152199
87836000,0.0324,0.013523,0.002678,0.000431,0.114120
87837000,0.0324,0.013523,0.002678,0.000431,0.447195
87838000,0.0324,0.013523,0.002678,0.000431,0.301577
87839000,0.0324,0.013523,0.002678,0.000431,0.178878
87840000,0.0324,0.013523,0.002678,0.000431,0.142562
87841000,0.0324,0.013523,0.002678,0.000431,0.124697
87842000,0.0324,0.013523,0.002678,0.000431,0.116000
87843000,0.0324,0.013523,0.002678,0.000431,0.090144
87844000,0.0324,0.013523,0.002678,0.000431,0.068989
87845000,0.0324,0.013523,0.002678,0.000431,0.073690
87846000,0.0324,0.013523,0.002678,0.000431,0.053358
87847000,0.0324,0.013523,0.002678,0.000431,0.037727
87848000,0.0324,0.013523,0.002678,0.000431,0.042663
87849000,0.0324,0.013523,0.002678,0.000431,0.023858
87850000,0.0324,0.013523,0.002678,0.000431,0.025269
87851000,0.0324,0.013523,0.002678,0.000431,0.015514
87852000,0.0324,0.013523,0.002678,0.000431,0.011400
87853000,0.0324,0.013523,0.002678,0.000431,0.012811
87854000,0.0324,0.013523,0.002678,0.000431,0.013398
87855000,0.0324,0.013523,0.002678,0.000431,0.008932
87856000,0.0324,0.013523,0.002678,0.000431,0.006582
87857000,0.0324,0.013523,0.002678,0.000431,0.006111
87858000,0.0324,0.013523,0.002678,0.000431,0.011518
87859000,0.0324,0.013523,0.002678,0.000431,0.005054
87860000,0.0324,0.013523,0.002678,0.000431,0.004584
87861000,0.0324,0.013523,0.002678,0.000431,0.002116
87862000,0.0324,0.013523,0.002678,0.000431,0.002351
87863000,0.0324,0.013523,0.002678,0.000431,0.001998
87864000,0.0324,0.013523,0.002678,0.000431,0.002233
87865000,0.0324,0.013523,0.002678,0.000431,0.002233
87866000,0.0324,0.013523,0.002678,0.000431,0.001763
87867000,0.0324,0.013523,0.002678,0.000431,0.003056
87868000,0.0324,0.013523,0.002678,0.000431,0.000823
87869000,0.0324,0.013523,0.002678,0.000431,0.000823
87870000,0.0324,0.013523,0.002678,0.000431,0.000705
87871000,0.0324,0.013523,0.002678,0.000431,0.014456
87872000,0.0324,0.013523,0.002678,0.000431,0.710693
87873000,0.0324,0.013523,0.002678,0.000431,0.582470
87874000,0.0324,0.013523,0.002678,0.000431,0.134922
87875000,0.0324,0.013523,0.002678,0.000431,0.134452
87876000,0.0324,0.013523,0.002678,0.000431,0.608208
87877000,0.0324,0.013523,0.002678,0.000431,0.241873
87878000,0.0324,0.013523,0.002678,0.000431,0.281715
87879000,0.0324,0.013523,0.002678,0.000431,0.241520
87880000,0.0324,0.013523,0.002678,0.000431,0.152081
87881000,0.0324,0.013523,0.002678,0.000431,0.116823
87882000,0.0324,0.013523,0.002678,0.000431,0.349529
87883000,0.0324,0.013523,0.002678,0.000431,0.349059
87884000,0.0324,0.013523,0.002678,0.000431,0.155020
87885000,0.0324,0.013523,0.002678,0.000431,0.118939
87886000,0.0324,0.013523,0.002678,0.000431,0.116941
87887000,0.0324,0.013523,0.002678,0.000431,0.091672
87888000,0.0324,0.013523,0.002678,0.000431,0.081682
87889000,0.0324,0.013523,0.002678,0.000431,0.063700
87890000,0.0324,0.013523,0.002678,0.000431,0.050772
87891000,0.0324,0.013523,0.002678,0.000431,0.045248
87892000,0.0324,0.013523,0.002678,0.000431,0.035258
87893000,0.0324,0.013523,0.002678,0.000431,0.036081
87894000,0.0324,0.013523,0.002678,0.000431,0.023741
87895000,0.0324,0.013523,0.002678,0.000431,0.024563
87896000,0.0324,0.013523,0.002678,0.000431,0.023623
87897000,0.0324,0.013523,0.002678,0.000431,0.023036
87898000,0.0324,0.013523,0.002678,0.000431,0.017982
87899000,0.0324,0.013523,0.002678,0.000431,0.018452
87900000,0.0324,0.013523,0.002678,0.000431,0.009755
87901000,0.0324,0.013523,0.002678,0.000431,0.009402
87902000,0.0324,0.013523,0.002678,0.000431,0.009520
87903000,0.0324,0.013523,0.002678,0.000431,0.009637
87904000,0.0324,0.013523,0.002678,0.000431,0.010813
87905000,0.0324,0.013523,0.002678,0.000431,0.014926
87906000,0.0324,0.013523,0.002678,0.000431,0.005171
87907000,0.0324,0.013523,0.002678,0.000431,0.005524
87908000,0.0324,0.013523,0.002678,0.000431,0.004936
87909000,0.0324,0.013523,0.002678,0.000431,0.005054
87910000,0.0324,0.013523,0.002678,0.000431,0.005994
87911000,0.0324,0.013523,0.002678,0.000431,0.005876
87912000,0.0324,0.013523,0.002678,0.000431,0.003996
87913000,0.0324,0.013523,0.002678,0.000431,0.006229
87914000,0.0324,0.013523,0.002678,0.000431,0.003173
87915000,0.0324,0.013523,0.002678,0.000431,0.003526
87916000,0.0324,0.013523,0.002678,0.000431,0.003643
87917000,0.0324,0.013523,0.002678,0.000431,0.003173
87918000,0.0324,0.013523,0.002678,0.000431,0.003526
87919000,0.0324,0.013523,0.002678,0.000431,0.003173
87920000,0.0324,0.013523,0.002678,0.000431,0.003761
87921000,0.0324,0.013523,0.002678,0.000431,0.005524
87922000,0.0324,0.013523,0.002678,0.000431,0.002468
87923000,0.0324,0.013523,0.002678,0.000431,0.002586
87924000,0.0324,0.013523,0.002678,0.000431,0.002586
87925000,0.0324,0.013523,0.002678,0.000431,0.002468
87926000,0.0324,0.013523,0.002678,0.000431,0.002468
87927000,0.0324,0.013523,0.002678,0.000431,0.002586
87928000,0.0324,0.013523,0.002678,0.000431,0.002351
87929000,0.0324,0.013523,0.002678,0.000431,0.002703
87930000,0.0324,0.013523,0.002678,0.000431,0.002351
87931000,0.0324,0.013523,0.002678,0.000431,0.004113
87932000,0.0324,0.013523,0.002678,0.000431,0.001880
87933000,0.0324,0.013523,0.002678,0.000431,0.001528
87934000,0.0324,0.013523,0.002678,0.000431,0.001763
87935000,0.0324,0.013523,0.002678,0.000431,0.001528
87936000,0.0324,0.013523,0.002678,0.000431,0.001763
87937000,0.0324,0.013523,0.002678,0.000431,0.001880
87938000,0.0324,0.013523,0.002678,0.000431,0.001528
87939000,0.0324,0.013523,0.002678,0.000431,0.001763
87940000,0.0324,0.013523,0.002678,0.000431,0.001763
87941000,0.0324,0.013523,0.002678,0.000431,0.001645
87942000,0.0324,0.013523,0.002678,0.000431,0.003526
87943000,0.0324,0.013523,0.002678,0.000431,0.000940
87944000,0.0324,0.013523,0.002678,0.000431,0.000940
87945000,0.0324,0.013523,0.002678,0.000431,0.000705
87946000,0.0324,0.013523,0.002678,0.000431,0.000940
87947000,0.0324,0.013523,0.002678,0.000431,0.000940
87948000,0.0324,0.013523,0.002678,0.000431,0.000940
87949000,0.0324,0.013523,0.002678,0.000431,0.000705
87950000,0.0324,0.013523,0.002678,0.000431,0.000940
87951000,0.0324,0.013523,0.002678,0.000431,0.000940
87952000,0.0324,0.013523,0.002678,0.000431,0.000940
87953000,0.0324,0.013523,0.002678,0.000431,0.000705
87954000,0.0324,0.013523,0.002678,0.000431,0.000940
87955000,0.0324,0.013523,0.002678,0.000431,0.000940
87956000,0.0324,0.013523,0.002678,0.000431,0.000823
87957000,0.0324,0.013523,0.002678,0.000431,0.000823
87958000,0.0324,0.013523,0.002678,0.000431,0.000940
87959000,0.0324,0.013523,0.002678,0.000431,0.000940
87960000,0.0324,0.013523,0.002678,0.000431,0.000823
87961000,0.0324,0.013523,0.002678,0.000431,0.000823
87962000,0.0324,0.013523,0.002678,0.000431,0.000940
87963000,0.0324,0.013523,0.002678,0.000431,0.000823
87964000,0.0324,0.013523,0.002678,0.000431,0.000940
87965000,0.0324,0.013523,0.002678,0.000431,0.014103
87966000,0.0324,0.013523,0.002678,0.000431,0.644642
87967000,0.0324,0.013523,0.002678,0.000431,0.567426
87968000,0.0324,0.013523,0.002678,0.000431,0.154432
87969000,0.0324,0.013523,0.002678,0.000431,0.141386
87970000,0.0324,0.013523,0.002678,0.000431,0.571775
87971000,0.0324,0.013523,0.002678,0.000431,0.250100
87972000,0.0324,0.013523,0.002678,0.000431,0.304163
87973000,0.0324,0.013523,0.002678,0.000431,0.303693
87974000,0.0324,0.013523,0.002678,0.000431,0.147028
87975000,0.0324,0.013523,0.002678,0.000431,0.137861
87976000,0.0324,0.013523,0.002678,0.000431,0.240463
87977000,0.0324,0.013523,0.002678,0.000431,0.469173
87978000,0.0324,0.013523,0.002678,0.000431,0.181346
87979000,0.0324,0.013523,0.002678,0.000431,0.155842
87980000,0.0324,0.013523,0.002678,0.000431,0.134570
87981000,0.0324,0.013523,0.002678,0.000431,0.114943
87982000,0.0324,0.013523,0.002678,0.000431,0.101192
87983000,0.0324,0.013523,0.002678,0.000431,0.100487
87984000,0.0324,0.013523,0.002678,0.000431,0.057589
87985000,0.0324,0.013523,0.002678,0.000431,0.055591
87986000,0.0324,0.013523,0.002678,0.000431,0.050185
87987000,0.0324,0.013523,0.002678,0.000431,0.035494
87988000,0.0324,0.013523,0.002678,0.000431,0.031262
87989000,0.0324,0.013523,0.002678,0.000431,0.026796
87990000,0.0324,0.013523,0.002678,0.000431,0.019862
87991000,0.0324,0.013523,0.002678,0.000431,0.021038
87992000,0.0324,0.013523,0.002678,0.000431,0.019040
87993000,0.0324,0.013523,0.002678,0.000431,0.019040
87994000,0.0324,0.013523,0.002678,0.000431,0.012693
87995000,0.0324,0.013523,0.002678,0.000431,0.008815
87996000,0.0324,0.013523,0.002678,0.000431,0.007992
87997000,0.0324,0.013523,0.002678,0.000431,0.007639
87998000,0.0324,0.013523,0.002678,0.000431,0.007404
87999000,0.0324,0.013523,0.002678,0.000431,0.007522
