Cycle,Area(mm^2),PeakDynamic(W),SubthresholdLeakage(W),GateLeakage(W),RunTimeDynamic(W)
76000000,0.0324,0.013523,0.002678,0.000431,0.066991
76001000,0.0324,0.013523,0.002678,0.000431,0.055943
76002000,0.0324,0.013523,0.002678,0.000431,0.039960
76003000,0.0324,0.013523,0.002678,0.000431,0.030557
76004000,0.0324,0.013523,0.002678,0.000431,0.016807
76005000,0.0324,0.013523,0.002678,0.000431,0.008932
76006000,0.0324,0.013523,0.002678,0.000431,0.005876
76007000,0.0324,0.013523,0.002678,0.000431,0.005406
76008000,0.0324,0.013523,0.002678,0.000431,0.006934
76009000,0.0324,0.013523,0.002678,0.000431,0.005054
76010000,0.0324,0.013523,0.002678,0.000431,0.007522
76011000,0.0324,0.013523,0.002678,0.000431,0.003291
76012000,0.0324,0.013523,0.002678,0.000431,0.005054
76013000,0.0324,0.013523,0.002678,0.000431,0.005994
76014000,0.0324,0.013523,0.002678,0.000431,0.629834
76015000,0.0324,0.013523,0.002678,0.000431,0.659921
76016000,0.0324,0.013523,0.002678,0.000431,0.146440
76017000,0.0324,0.013523,0.002678,0.000431,0.146088
76018000,0.0324,0.013523,0.002678,0.000431,0.564018
76019000,0.0324,0.013523,0.002678,0.000431,0.265731
76020000,0.0324,0.013523,0.002678,0.000431,0.278189
76021000,0.0324,0.013523,0.002678,0.000431,0.157135
76022000,0.0324,0.013523,0.002678,0.000431,0.147028
76023000,0.0324,0.013523,0.002678,0.000431,0.240933
76024000,0.0324,0.013523,0.002678,0.000431,0.509720
76025000,0.0324,0.013523,0.002678,0.000431,0.168770
76026000,0.0324,0.013523,0.002678,0.000431,0.159368
76027000,0.0324,0.013523,0.002678,0.000431,0.137155
76028000,0.0324,0.013523,0.002678,0.000431,0.102955
76029000,0.0324,0.013523,0.002678,0.000431,0.084150
76030000,0.0324,0.013523,0.002678,0.000431,0.079214
76031000,0.0324,0.013523,0.002678,0.000431,0.063348
76032000,0.0324,0.013523,0.002678,0.000431,0.056649
76033000,0.0324,0.013523,0.002678,0.000431,0.043133
76034000,0.0324,0.013523,0.002678,0.000431,0.043603
76035000,0.0324,0.013523,0.002678,0.000431,0.033613
76036000,0.0324,0.013523,0.002678,0.000431,0.022565
76037000,0.0324,0.013523,0.002678,0.000431,0.021390
76038000,0.0324,0.013523,0.002678,0.000431,0.014338
76039000,0.0324,0.013523,0.002678,0.000431,0.013398
76040000,0.0324,0.013523,0.002678,0.000431,0.009755
76041000,0.0324,0.013523,0.002678,0.000431,0.008815
76042000,0.0324,0.013523,0.002678,0.000431,0.010695
76043000,0.0324,0.013523,0.002678,0.000431,0.012576
76044000,0.0324,0.013523,0.002678,0.000431,0.008109
76045000,0.0324,0.013523,0.002678,0.000431,0.004584
76046000,0.0324,0.013523,0.002678,0.000431,0.004113
76047000,0.0324,0.013523,0.002678,0.000431,0.004113
76048000,0.0324,0.013523,0.002678,0.000431,0.004701
76049000,0.0324,0.013523,0.002678,0.000431,0.004231
76050000,0.0324,0.013523,0.002678,0.000431,0.004584
76051000,0.0324,0.013523,0.002678,0.000431,0.003996
76052000,0.0324,0.013523,0.002678,0.000431,0.004466
76053000,0.0324,0.013523,0.002678,0.000431,0.004584
76054000,0.0324,0.013523,0.002678,0.000431,0.004819
76055000,0.0324,0.013523,0.002678,0.000431,0.003878
76056000,0.0324,0.013523,0.002678,0.000431,0.004819
76057000,0.0324,0.013523,0.002678,0.000431,0.004113
76058000,0.0324,0.013523,0.002678,0.000431,0.007757
76059000,0.0324,0.013523,0.002678,0.000431,0.002233
76060000,0.0324,0.013523,0.002678,0.000431,0.001645
76061000,0.0324,0.013523,0.002678,0.000431,0.001763
76062000,0.0324,0.013523,0.002678,0.000431,0.001763
76063000,0.0324,0.013523,0.002678,0.000431,0.001528
76064000,0.0324,0.013523,0.002678,0.000431,0.001880
76065000,0.0324,0.013523,0.002678,0.000431,0.001528
76066000,0.0324,0.013523,0.002678,0.000431,0.002703
76067000,0.0324,0.013523,0.002678,0.000431,0.000823
76068000,0.0324,0.013523,0.002678,0.000431,0.000940
76069000,0.0324,0.013523,0.002678,0.000431,0.207437
76070000,0.0324,0.013523,0.002678,0.000431,0.724444
76071000,0.0324,0.013523,0.002678,0.000431,0.459535
76072000,0.0324,0.013523,0.002678,0.000431,0.137038
76073000,0.0324,0.013523,0.002678,0.000431,0.469878
76074000,0.0324,0.013523,0.002678,0.000431,0.245164
76075000,0.0324,0.013523,0.002678,0.000431,0.314270
76076000,0.0324,0.013523,0.002678,0.000431,0.209553
76077000,0.0324,0.013523,0.002678,0.000431,0.193686
76078000,0.0324,0.013523,0.002678,0.000431,0.088499
76079000,0.0324,0.013523,0.002678,0.000431,0.574243
76080000,0.0324,0.013523,0.002678,0.000431,0.262440
76081000,0.0324,0.013523,0.002678,0.000431,0.207320
76082000,0.0324,0.013523,0.002678,0.000431,0.179818
76083000,0.0324,0.013523,0.002678,0.000431,0.158781
76084000,0.0324,0.013523,0.002678,0.000431,0.098606
76085000,0.0324,0.013523,0.002678,0.000431,0.073338
76086000,0.0324,0.013523,0.002678,0.000431,0.057001
76087000,0.0324,0.013523,0.002678,0.000431,0.051242
76088000,0.0324,0.013523,0.002678,0.000431,0.037962
76089000,0.0324,0.013523,0.002678,0.000431,0.023036
76090000,0.0324,0.013523,0.002678,0.000431,0.019627
76091000,0.0324,0.013523,0.002678,0.000431,0.015749
76092000,0.0324,0.013523,0.002678,0.000431,0.013281
76093000,0.0324,0.013523,0.002678,0.000431,0.012811
76094000,0.0324,0.013523,0.002678,0.000431,0.013281
76095000,0.0324,0.013523,0.002678,0.000431,0.014809
76096000,0.0324,0.013523,0.002678,0.000431,0.008932
76097000,0.0324,0.013523,0.002678,0.000431,0.006817
76098000,0.0324,0.013523,0.002678,0.000431,0.011870
76099000,0.0324,0.013523,0.002678,0.000431,0.007757
76100000,0.0324,0.013523,0.002678,0.000431,0.005289
76101000,0.0324,0.013523,0.002678,0.000431,0.006347
76102000,0.0324,0.013523,0.002678,0.000431,0.005289
76103000,0.0324,0.013523,0.002678,0.000431,0.005994
76104000,0.0324,0.013523,0.002678,0.000431,0.006111
76105000,0.0324,0.013523,0.002678,0.000431,0.005641
76106000,0.0324,0.013523,0.002678,0.000431,0.005994
76107000,0.0324,0.013523,0.002678,0.000431,0.006111
76108000,0.0324,0.013523,0.002678,0.000431,0.004936
76109000,0.0324,0.013523,0.002678,0.000431,0.008697
76110000,0.0324,0.013523,0.002678,0.000431,0.004701
76111000,0.0324,0.013523,0.002678,0.000431,0.001880
76112000,0.0324,0.013523,0.002678,0.000431,0.004113
76113000,0.0324,0.013523,0.002678,0.000431,0.001998
76114000,0.0324,0.013523,0.002678,0.000431,0.575418
76115000,0.0324,0.013523,0.002678,0.000431,0.764756
76116000,0.0324,0.013523,0.002678,0.000431,0.150201
76117000,0.0324,0.013523,0.002678,0.000431,0.138683
76118000,0.0324,0.013523,0.002678,0.000431,0.492678
76119000,0.0324,0.013523,0.002678,0.000431,0.255859
76120000,0.0324,0.013523,0.002678,0.000431,0.308511
76121000,0.0324,0.013523,0.002678,0.000431,0.152552
76122000,0.0324,0.013523,0.002678,0.000431,0.137626
76123000,0.0324,0.013523,0.002678,0.000431,0.312390
76124000,0.0324,0.013523,0.002678,0.000431,0.490680
76125000,0.0324,0.013523,0.002678,0.000431,0.213314
76126000,0.0324,0.013523,0.002678,0.000431,0.195214
76127000,0.0324,0.013523,0.002678,0.000431,0.163482
76128000,0.0324,0.013523,0.002678,0.000431,0.129281
76129000,0.0324,0.013523,0.002678,0.000431,0.120584
76130000,0.0324,0.013523,0.002678,0.000431,0.096726
76131000,0.0324,0.013523,0.002678,0.000431,0.071457
76132000,0.0324,0.013523,0.002678,0.000431,0.060880
76133000,0.0324,0.013523,0.002678,0.000431,0.054063
76134000,0.0324,0.013523,0.002678,0.000431,0.058764
76135000,0.0324,0.013523,0.002678,0.000431,0.037962
76136000,0.0324,0.013523,0.002678,0.000431,0.024563
76137000,0.0324,0.013523,0.002678,0.000431,0.020802
76138000,0.0324,0.013523,0.002678,0.000431,0.021978
76139000,0.0324,0.013523,0.002678,0.000431,0.022213
76140000,0.0324,0.013523,0.002678,0.000431,0.010813
76141000,0.0324,0.013523,0.002678,0.000431,0.005289
76142000,0.0324,0.013523,0.002678,0.000431,0.004936
76143000,0.0324,0.013523,0.002678,0.000431,0.002351
76144000,0.0324,0.013523,0.002678,0.000431,0.000940
76145000,0.0324,0.013523,0.002678,0.000431,0.000940
76146000,0.0324,0.013523,0.002678,0.000431,0.105658
76147000,0.0324,0.013523,0.002678,0.000431,0.867946
76148000,0.0324,0.013523,0.002678,0.000431,0.493853
76149000,0.0324,0.013523,0.002678,0.000431,0.136803
76150000,0.0324,0.013523,0.002678,0.000431,0.501610
76151000,0.0324,0.013523,0.002678,0.000431,0.275956
76152000,0.0324,0.013523,0.002678,0.000431,0.349881
76153000,0.0324,0.013523,0.002678,0.000431,0.157135
76154000,0.0324,0.013523,0.002678,0.000431,0.133630
76155000,0.0324,0.013523,0.002678,0.000431,0.254566
76156000,0.0324,0.013523,0.002678,0.000431,0.508662
76157000,0.0324,0.013523,0.002678,0.000431,0.200386
76158000,0.0324,0.013523,0.002678,0.000431,0.170181
76159000,0.0324,0.013523,0.002678,0.000431,0.158075
76160000,0.0324,0.013523,0.002678,0.000431,0.140211
76161000,0.0324,0.013523,0.002678,0.000431,0.099664
76162000,0.0324,0.013523,0.002678,0.000431,0.072750
76163000,0.0324,0.013523,0.002678,0.000431,0.049479
76164000,0.0324,0.013523,0.002678,0.000431,0.041370
76165000,0.0324,0.013523,0.002678,0.000431,0.043485
76166000,0.0324,0.013523,0.002678,0.000431,0.049362
76167000,0.0324,0.013523,0.002678,0.000431,0.030087
76168000,0.0324,0.013523,0.002678,0.000431,0.030205
76169000,0.0324,0.013523,0.002678,0.000431,0.024916
76170000,0.0324,0.013523,0.002678,0.000431,0.015044
76171000,0.0324,0.013523,0.002678,0.000431,0.010107
76172000,0.0324,0.013523,0.002678,0.000431,0.009050
76173000,0.0324,0.013523,0.002678,0.000431,0.012458
76174000,0.0324,0.013523,0.002678,0.000431,0.004584
76175000,0.0324,0.013523,0.002678,0.000431,0.005876
76176000,0.0324,0.013523,0.002678,0.000431,0.006817
76177000,0.0324,0.013523,0.002678,0.000431,0.003878
76178000,0.0324,0.013523,0.002678,0.000431,0.004349
76179000,0.0324,0.013523,0.002678,0.000431,0.003996
76180000,0.0324,0.013523,0.002678,0.000431,0.003056
76181000,0.0324,0.013523,0.002678,0.000431,0.007052
76182000,0.0324,0.013523,0.002678,0.000431,0.001998
76183000,0.0324,0.013523,0.002678,0.000431,0.000940
76184000,0.0324,0.013523,0.002678,0.000431,0.000823
76185000,0.0324,0.013523,0.002678,0.000431,0.000823
76186000,0.0324,0.013523,0.002678,0.000431,0.000823
76187000,0.0324,0.013523,0.002678,0.000431,0.000823
76188000,0.0324,0.013523,0.002678,0.000431,0.000940
76189000,0.0324,0.013523,0.002678,0.000431,0.000705
76190000,0.0324,0.013523,0.002678,0.000431,0.000940
76191000,0.0324,0.013523,0.002678,0.000431,0.000823
76192000,0.0324,0.013523,0.002678,0.000431,0.000823
76193000,0.0324,0.013523,0.002678,0.000431,0.000823
76194000,0.0324,0.013523,0.002678,0.000431,0.000823
76195000,0.0324,0.013523,0.002678,0.000431,0.000823
76196000,0.0324,0.013523,0.002678,0.000431,0.000823
76197000,0.0324,0.013523,0.002678,0.000431,0.000940
76198000,0.0324,0.013523,0.002678,0.000431,0.000705
76199000,0.0324,0.013523,0.002678,0.000431,0.000940
76200000,0.0324,0.013523,0.002678,0.000431,0.001880
76201000,0.0324,0.013523,0.002678,0.000431,0.581177
76202000,0.0324,0.013523,0.002678,0.000431,0.736079
76203000,0.0324,0.013523,0.002678,0.000431,0.151846
76204000,0.0324,0.013523,0.002678,0.000431,0.139623
76205000,0.0324,0.013523,0.002678,0.000431,0.534518
76206000,0.0324,0.013523,0.002678,0.000431,0.290412
76207000,0.0324,0.013523,0.002678,0.000431,0.285006
76208000,0.0324,0.013523,0.002678,0.000431,0.158898
76209000,0.0324,0.013523,0.002678,0.000431,0.113650
76210000,0.0324,0.013523,0.002678,0.000431,0.385610
76211000,0.0324,0.013523,0.002678,0.000431,0.360694
76212000,0.0324,0.013523,0.002678,0.000431,0.164069
76213000,0.0324,0.013523,0.002678,0.000431,0.128458
76214000,0.0324,0.013523,0.002678,0.000431,0.110006
76215000,0.0324,0.013523,0.002678,0.000431,0.098019
76216000,0.0324,0.013523,0.002678,0.000431,0.079214
76217000,0.0324,0.013523,0.002678,0.000431,0.053593
76218000,0.0324,0.013523,0.002678,0.000431,0.039960
76219000,0.0324,0.013523,0.002678,0.000431,0.031262
76220000,0.0324,0.013523,0.002678,0.000431,0.033378
76221000,0.0324,0.013523,0.002678,0.000431,0.019510
76222000,0.0324,0.013523,0.002678,0.000431,0.014221
76223000,0.0324,0.013523,0.002678,0.000431,0.017512
76224000,0.0324,0.013523,0.002678,0.000431,0.008932
76225000,0.0324,0.013523,0.002678,0.000431,0.008109
76226000,0.0324,0.013523,0.002678,0.000431,0.009637
76227000,0.0324,0.013523,0.002678,0.000431,0.010107
76228000,0.0324,0.013523,0.002678,0.000431,0.011870
76229000,0.0324,0.013523,0.002678,0.000431,0.005641
76230000,0.0324,0.013523,0.002678,0.000431,0.004466
76231000,0.0324,0.013523,0.002678,0.000431,0.004701
76232000,0.0324,0.013523,0.002678,0.000431,0.004819
76233000,0.0324,0.013523,0.002678,0.000431,0.003996
76234000,0.0324,0.013523,0.002678,0.000431,0.004584
76235000,0.0324,0.013523,0.002678,0.000431,0.007639
76236000,0.0324,0.013523,0.002678,0.000431,0.003408
76237000,0.0324,0.013523,0.002678,0.000431,0.004349
76238000,0.0324,0.013523,0.002678,0.000431,0.004113
76239000,0.0324,0.013523,0.002678,0.000431,0.003056
76240000,0.0324,0.013523,0.002678,0.000431,0.005406
76241000,0.0324,0.013523,0.002678,0.000431,0.002351
76242000,0.0324,0.013523,0.002678,0.000431,0.001763
76243000,0.0324,0.013523,0.002678,0.000431,0.002351
76244000,0.0324,0.013523,0.002678,0.000431,0.002351
76245000,0.0324,0.013523,0.002678,0.000431,0.002351
76246000,0.0324,0.013523,0.002678,0.000431,0.001998
76247000,0.0324,0.013523,0.002678,0.000431,0.003526
76248000,0.0324,0.013523,0.002678,0.000431,0.001058
76249000,0.0324,0.013523,0.002678,0.000431,0.001293
76250000,0.0324,0.013523,0.002678,0.000431,0.000940
76251000,0.0324,0.013523,0.002678,0.000431,0.001528
76252000,0.0324,0.013523,0.002678,0.000431,0.000823
76253000,0.0324,0.013523,0.002678,0.000431,0.002703
76254000,0.0324,0.013523,0.002678,0.000431,0.426862
76255000,0.0324,0.013523,0.002678,0.000431,0.769575
76256000,0.0324,0.013523,0.002678,0.000431,0.195449
76257000,0.0324,0.013523,0.002678,0.000431,0.136803
76258000,0.0324,0.013523,0.002678,0.000431,0.489387
76259000,0.0324,0.013523,0.002678,0.000431,0.247749
76260000,0.0324,0.013523,0.002678,0.000431,0.308864
76261000,0.0324,0.013523,0.002678,0.000431,0.208730
76262000,0.0324,0.013523,0.002678,0.000431,0.176762
76263000,0.0324,0.013523,0.002678,0.000431,0.104130
76264000,0.0324,0.013523,0.002678,0.000431,0.560609
76265000,0.0324,0.013523,0.002678,0.000431,0.239993
76266000,0.0324,0.013523,0.002678,0.000431,0.172414
76267000,0.0324,0.013523,0.002678,0.000431,0.166185
76268000,0.0324,0.013523,0.002678,0.000431,0.138448
76269000,0.0324,0.013523,0.002678,0.000431,0.104718
76270000,0.0324,0.013523,0.002678,0.000431,0.085090
76271000,0.0324,0.013523,0.002678,0.000431,0.060645
76272000,0.0324,0.013523,0.002678,0.000431,0.057824
76273000,0.0324,0.013523,0.002678,0.000431,0.050185
76274000,0.0324,0.013523,0.002678,0.000431,0.045131
76275000,0.0324,0.013523,0.002678,0.000431,0.033613
76276000,0.0324,0.013523,0.002678,0.000431,0.017747
76277000,0.0324,0.013523,0.002678,0.000431,0.016807
76278000,0.0324,0.013523,0.002678,0.000431,0.013633
76279000,0.0324,0.013523,0.002678,0.000431,0.004231
76280000,0.0324,0.013523,0.002678,0.000431,0.003643
76281000,0.0324,0.013523,0.002678,0.000431,0.001880
76282000,0.0324,0.013523,0.002678,0.000431,0.003526
76283000,0.0324,0.013523,0.002678,0.000431,0.000940
76284000,0.0324,0.013523,0.002678,0.000431,0.072750
76285000,0.0324,0.013523,0.002678,0.000431,0.829749
76286000,0.0324,0.013523,0.002678,0.000431,0.513833
76287000,0.0324,0.013523,0.002678,0.000431,0.136685
76288000,0.0324,0.013523,0.002678,0.000431,0.451073
76289000,0.0324,0.013523,0.002678,0.000431,0.328374
76290000,0.0324,0.013523,0.002678,0.000431,0.314035
76291000,0.0324,0.013523,0.002678,0.000431,0.197212
76292000,0.0324,0.013523,0.002678,0.000431,0.175470
76293000,0.0324,0.013523,0.002678,0.000431,0.123405
76294000,0.0324,0.013523,0.002678,0.000431,0.549092
76295000,0.0324,0.013523,0.002678,0.000431,0.233764
76296000,0.0324,0.013523,0.002678,0.000431,0.193922
76297000,0.0324,0.013523,0.002678,0.000431,0.168300
76298000,0.0324,0.013523,0.002678,0.000431,0.161131
76299000,0.0324,0.013523,0.002678,0.000431,0.112710
76300000,0.0324,0.013523,0.002678,0.000431,0.087441
76301000,0.0324,0.013523,0.002678,0.000431,0.067344
76302000,0.0324,0.013523,0.002678,0.000431,0.059469
76303000,0.0324,0.013523,0.002678,0.000431,0.052183
76304000,0.0324,0.013523,0.002678,0.000431,0.058764
76305000,0.0324,0.013523,0.002678,0.000431,0.035258
76306000,0.0324,0.013523,0.002678,0.000431,0.018099
76307000,0.0324,0.013523,0.002678,0.000431,0.011870
76308000,0.0324,0.013523,0.002678,0.000431,0.021038
76309000,0.0324,0.013523,0.002678,0.000431,0.015631
76310000,0.0324,0.013523,0.002678,0.000431,0.007639
76311000,0.0324,0.013523,0.002678,0.000431,0.001645
76312000,0.0324,0.013523,0.002678,0.000431,0.001410
76313000,0.0324,0.013523,0.002678,0.000431,0.001645
76314000,0.0324,0.013523,0.002678,0.000431,0.003643
76315000,0.0324,0.013523,0.002678,0.000431,0.455892
76316000,0.0324,0.013523,0.002678,0.000431,0.776861
76317000,0.0324,0.013523,0.002678,0.000431,0.226477
76318000,0.0324,0.013523,0.002678,0.000431,0.142679
76319000,0.0324,0.013523,0.002678,0.000431,0.531697
76320000,0.0324,0.013523,0.002678,0.000431,0.253861
76321000,0.0324,0.013523,0.002678,0.000431,0.277131
76322000,0.0324,0.013523,0.002678,0.000431,0.159133
76323000,0.0324,0.013523,0.002678,0.000431,0.167948
76324000,0.0324,0.013523,0.002678,0.000431,0.182874
76325000,0.0324,0.013523,0.002678,0.000431,0.552382
76326000,0.0324,0.013523,0.002678,0.000431,0.198035
76327000,0.0324,0.013523,0.002678,0.000431,0.178290
76328000,0.0324,0.013523,0.002678,0.000431,0.134217
76329000,0.0324,0.013523,0.002678,0.000431,0.132219
76330000,0.0324,0.013523,0.002678,0.000431,0.110359
76331000,0.0324,0.013523,0.002678,0.000431,0.099899
76332000,0.0324,0.013523,0.002678,0.000431,0.062525
76333000,0.0324,0.013523,0.002678,0.000431,0.048539
76334000,0.0324,0.013523,0.002678,0.000431,0.040782
76335000,0.0324,0.013523,0.002678,0.000431,0.041252
76336000,0.0324,0.013523,0.002678,0.000431,0.031850
76337000,0.0324,0.013523,0.002678,0.000431,0.023506
76338000,0.0324,0.013523,0.002678,0.000431,0.019980
76339000,0.0324,0.013523,0.002678,0.000431,0.021978
76340000,0.0324,0.013523,0.002678,0.000431,0.009755
76341000,0.0324,0.013523,0.002678,0.000431,0.013868
76342000,0.0324,0.013523,0.002678,0.000431,0.012811
76343000,0.0324,0.013523,0.002678,0.000431,0.012811
76344000,0.0324,0.013523,0.002678,0.000431,0.006582
76345000,0.0324,0.013523,0.002678,0.000431,0.006817
76346000,0.0324,0.013523,0.002678,0.000431,0.004349
76347000,0.0324,0.013523,0.002678,0.000431,0.003291
76348000,0.0324,0.013523,0.002678,0.000431,0.003761
76349000,0.0324,0.013523,0.002678,0.000431,0.003878
76350000,0.0324,0.013523,0.002678,0.000431,0.003878
76351000,0.0324,0.013523,0.002678,0.000431,0.003643
76352000,0.0324,0.013523,0.002678,0.000431,0.003643
76353000,0.0324,0.013523,0.002678,0.000431,0.003761
76354000,0.0324,0.013523,0.002678,0.000431,0.004113
76355000,0.0324,0.013523,0.002678,0.000431,0.003173
76356000,0.0324,0.013523,0.002678,0.000431,0.004231
76357000,0.0324,0.013523,0.002678,0.000431,0.003878
76358000,0.0324,0.013523,0.002678,0.000431,0.005759
76359000,0.0324,0.013523,0.002678,0.000431,0.251863
76360000,0.0324,0.013523,0.002678,0.000431,0.743601
76361000,0.0324,0.013523,0.002678,0.000431,0.432151
76362000,0.0324,0.013523,0.002678,0.000431,0.139623
76363000,0.0324,0.013523,0.002678,0.000431,0.522295
76364000,0.0324,0.013523,0.002678,0.000431,0.251393
76365000,0.0324,0.013523,0.002678,0.000431,0.326846
76366000,0.0324,0.013523,0.002678,0.000431,0.162189
76367000,0.0324,0.013523,0.002678,0.000431,0.116353
76368000,0.0324,0.013523,0.002678,0.000431,0.389018
76369000,0.0324,0.013523,0.002678,0.000431,0.441788
76370000,0.0324,0.013523,0.002678,0.000431,0.215194
76371000,0.0324,0.013523,0.002678,0.000431,0.195097
76372000,0.0324,0.013523,0.002678,0.000431,0.169358
76373000,0.0324,0.013523,0.002678,0.000431,0.134100
76374000,0.0324,0.013523,0.002678,0.000431,0.082035
76375000,0.0324,0.013523,0.002678,0.000431,0.071105
76376000,0.0324,0.013523,0.002678,0.000431,0.051125
76377000,0.0324,0.013523,0.002678,0.000431,0.023741
76378000,0.0324,0.013523,0.002678,0.000431,0.037491
76379000,0.0324,0.013523,0.002678,0.000431,0.020567
76380000,0.0324,0.013523,0.002678,0.000431,0.009050
76381000,0.0324,0.013523,0.002678,0.000431,0.003761
76382000,0.0324,0.013523,0.002678,0.000431,0.004349
76383000,0.0324,0.013523,0.002678,0.000431,0.006111
76384000,0.0324,0.013523,0.002678,0.000431,0.002233
76385000,0.0324,0.013523,0.002678,0.000431,0.001645
76386000,0.0324,0.013523,0.002678,0.000431,0.001763
76387000,0.0324,0.013523,0.002678,0.000431,0.001763
76388000,0.0324,0.013523,0.002678,0.000431,0.001763
76389000,0.0324,0.013523,0.002678,0.000431,0.002938
76390000,0.0324,0.013523,0.002678,0.000431,0.002233
76391000,0.0324,0.013523,0.002678,0.000431,0.000823
76392000,0.0324,0.013523,0.002678,0.000431,0.000940
76393000,0.0324,0.013523,0.002678,0.000431,0.000940
76394000,0.0324,0.013523,0.002678,0.000431,0.000823
76395000,0.0324,0.013523,0.002678,0.000431,0.000823
76396000,0.0324,0.013523,0.002678,0.000431,0.008932
76397000,0.0324,0.013523,0.002678,0.000431,0.738900
76398000,0.0324,0.013523,0.002678,0.000431,0.657218
76399000,0.0324,0.013523,0.002678,0.000431,0.137508
76400000,0.0324,0.013523,0.002678,0.000431,0.139623
76401000,0.0324,0.013523,0.002678,0.000431,0.510777
76402000,0.0324,0.013523,0.002678,0.000431,0.255976
76403000,0.0324,0.013523,0.002678,0.000431,0.287239
76404000,0.0324,0.013523,0.002678,0.000431,0.153257
76405000,0.0324,0.013523,0.002678,0.000431,0.151141
76406000,0.0324,0.013523,0.002678,0.000431,0.241050
76407000,0.0324,0.013523,0.002678,0.000431,0.545448
76408000,0.0324,0.013523,0.002678,0.000431,0.250218
76409000,0.0324,0.013523,0.002678,0.000431,0.212373
76410000,0.0324,0.013523,0.002678,0.000431,0.180876
76411000,0.0324,0.013523,0.002678,0.000431,0.146440
76412000,0.0324,0.013523,0.002678,0.000431,0.104600
76413000,0.0324,0.013523,0.002678,0.000431,0.087558
76414000,0.0324,0.013523,0.002678,0.000431,0.068401
76415000,0.0324,0.013523,0.002678,0.000431,0.045366
76416000,0.0324,0.013523,0.002678,0.000431,0.034788
76417000,0.0324,0.013523,0.002678,0.000431,0.033378
76418000,0.0324,0.013523,0.002678,0.000431,0.019862
76419000,0.0324,0.013523,0.002678,0.000431,0.021155
76420000,0.0324,0.013523,0.002678,0.000431,0.018805
76421000,0.0324,0.013523,0.002678,0.000431,0.015631
76422000,0.0324,0.013523,0.002678,0.000431,0.010225
76423000,0.0324,0.013523,0.002678,0.000431,0.020450
76424000,0.0324,0.013523,0.002678,0.000431,0.009755
76425000,0.0324,0.013523,0.002678,0.000431,0.008815
76426000,0.0324,0.013523,0.002678,0.000431,0.008345
76427000,0.0324,0.013523,0.002678,0.000431,0.005289
76428000,0.0324,0.013523,0.002678,0.000431,0.006817
76429000,0.0324,0.013523,0.002678,0.000431,0.006464
76430000,0.0324,0.013523,0.002678,0.000431,0.005524
76431000,0.0324,0.013523,0.002678,0.000431,0.006464
76432000,0.0324,0.013523,0.002678,0.000431,0.006111
76433000,0.0324,0.013523,0.002678,0.000431,0.005759
76434000,0.0324,0.013523,0.002678,0.000431,0.007169
76435000,0.0324,0.013523,0.002678,0.000431,0.005524
76436000,0.0324,0.013523,0.002678,0.000431,0.006817
76437000,0.0324,0.013523,0.002678,0.000431,0.005054
76438000,0.0324,0.013523,0.002678,0.000431,0.006699
76439000,0.0324,0.013523,0.002678,0.000431,0.006347
76440000,0.0324,0.013523,0.002678,0.000431,0.005524
76441000,0.0324,0.013523,0.002678,0.000431,0.007522
76442000,0.0324,0.013523,0.002678,0.000431,0.004819
76443000,0.0324,0.013523,0.002678,0.000431,0.005171
76444000,0.0324,0.013523,0.002678,0.000431,0.004819
76445000,0.0324,0.013523,0.002678,0.000431,0.006817
76446000,0.0324,0.013523,0.002678,0.000431,0.003761
76447000,0.0324,0.013523,0.002678,0.000431,0.005759
76448000,0.0324,0.013523,0.002678,0.000431,0.003291
76449000,0.0324,0.013523,0.002678,0.000431,0.554145
76450000,0.0324,0.013523,0.002678,0.000431,0.783560
76451000,0.0324,0.013523,0.002678,0.000431,0.198858
76452000,0.0324,0.013523,0.002678,0.000431,0.140329
76453000,0.0324,0.013523,0.002678,0.000431,0.536869
76454000,0.0324,0.013523,0.002678,0.000431,0.259972
76455000,0.0324,0.013523,0.002678,0.000431,0.295466
76456000,0.0324,0.013523,0.002678,0.000431,0.164539
76457000,0.0324,0.013523,0.002678,0.000431,0.126108
76458000,0.0324,0.013523,0.002678,0.000431,0.314035
76459000,0.0324,0.013523,0.002678,0.000431,0.495146
76460000,0.0324,0.013523,0.002678,0.000431,0.213314
76461000,0.0324,0.013523,0.002678,0.000431,0.200033
76462000,0.0324,0.013523,0.002678,0.000431,0.157958
76463000,0.0324,0.013523,0.002678,0.000431,0.130221
76464000,0.0324,0.013523,0.002678,0.000431,0.109419
76465000,0.0324,0.013523,0.002678,0.000431,0.092612
76466000,0.0324,0.013523,0.002678,0.000431,0.069812
76467000,0.0324,0.013523,0.002678,0.000431,0.056649
76468000,0.0324,0.013523,0.002678,0.000431,0.046659
76469000,0.0324,0.013523,0.002678,0.000431,0.038902
76470000,0.0324,0.013523,0.002678,0.000431,0.034671
76471000,0.0324,0.013523,0.002678,0.000431,0.023271
76472000,0.0324,0.013523,0.002678,0.000431,0.014809
76473000,0.0324,0.013523,0.002678,0.000431,0.012693
76474000,0.0324,0.013523,0.002678,0.000431,0.016924
76475000,0.0324,0.013523,0.002678,0.000431,0.008932
76476000,0.0324,0.013523,0.002678,0.000431,0.000823
76477000,0.0324,0.013523,0.002678,0.000431,0.069694
76478000,0.0324,0.013523,0.002678,0.000431,0.830219
76479000,0.0324,0.013523,0.002678,0.000431,0.524411
76480000,0.0324,0.013523,0.002678,0.000431,0.142327
76481000,0.0324,0.013523,0.002678,0.000431,0.441318
76482000,0.0324,0.013523,0.002678,0.000431,0.323555
76483000,0.0324,0.013523,0.002678,0.000431,0.298404
76484000,0.0324,0.013523,0.002678,0.000431,0.179113
76485000,0.0324,0.013523,0.002678,0.000431,0.150671
76486000,0.0324,0.013523,0.002678,0.000431,0.224479
76487000,0.0324,0.013523,0.002678,0.000431,0.549562
76488000,0.0324,0.013523,0.002678,0.000431,0.175940
76489000,0.0324,0.013523,0.002678,0.000431,0.156430
76490000,0.0324,0.013523,0.002678,0.000431,0.133042
76491000,0.0324,0.013523,0.002678,0.000431,0.093905
76492000,0.0324,0.013523,0.002678,0.000431,0.081917
76493000,0.0324,0.013523,0.002678,0.000431,0.057471
76494000,0.0324,0.013523,0.002678,0.000431,0.045366
76495000,0.0324,0.013523,0.002678,0.000431,0.039137
76496000,0.0324,0.013523,0.002678,0.000431,0.025269
76497000,0.0324,0.013523,0.002678,0.000431,0.034436
76498000,0.0324,0.013523,0.002678,0.000431,0.009167
76499000,0.0324,0.013523,0.002678,0.000431,0.008932
76500000,0.0324,0.013523,0.002678,0.000431,0.002821
76501000,0.0324,0.013523,0.002678,0.000431,0.005524
76502000,0.0324,0.013523,0.002678,0.000431,0.002468
76503000,0.0324,0.013523,0.002678,0.000431,0.001998
76504000,0.0324,0.013523,0.002678,0.000431,0.002821
76505000,0.0324,0.013523,0.002678,0.000431,0.001998
76506000,0.0324,0.013523,0.002678,0.000431,0.002468
76507000,0.0324,0.013523,0.002678,0.000431,0.002116
76508000,0.0324,0.013523,0.002678,0.000431,0.002351
76509000,0.0324,0.013523,0.002678,0.000431,0.001880
76510000,0.0324,0.013523,0.002678,0.000431,0.002586
76511000,0.0324,0.013523,0.002678,0.000431,0.001880
76512000,0.0324,0.013523,0.002678,0.000431,0.001880
76513000,0.0324,0.013523,0.002678,0.000431,0.003526
76514000,0.0324,0.013523,0.002678,0.000431,0.594105
76515000,0.0324,0.013523,0.002678,0.000431,0.724444
76516000,0.0324,0.013523,0.002678,0.000431,0.167948
76517000,0.0324,0.013523,0.002678,0.000431,0.145970
76518000,0.0324,0.013523,0.002678,0.000431,0.519357
76519000,0.0324,0.013523,0.002678,0.000431,0.284183
76520000,0.0324,0.013523,0.002678,0.000431,0.274546
76521000,0.0324,0.013523,0.002678,0.000431,0.174647
76522000,0.0324,0.013523,0.002678,0.000431,0.109889
76523000,0.0324,0.013523,0.002678,0.000431,0.516654
76524000,0.0324,0.013523,0.002678,0.000431,0.287239
76525000,0.0324,0.013523,0.002678,0.000431,0.196507
76526000,0.0324,0.013523,0.002678,0.000431,0.160073
76527000,0.0324,0.013523,0.002678,0.000431,0.147263
76528000,0.0324,0.013523,0.002678,0.000431,0.110476
76529000,0.0324,0.013523,0.002678,0.000431,0.107891
76530000,0.0324,0.013523,0.002678,0.000431,0.073338
76531000,0.0324,0.013523,0.002678,0.000431,0.059704
76532000,0.0324,0.013523,0.002678,0.000431,0.056884
76533000,0.0324,0.013523,0.002678,0.000431,0.038784
76534000,0.0324,0.013523,0.002678,0.000431,0.021508
76535000,0.0324,0.013523,0.002678,0.000431,0.012105
76536000,0.0324,0.013523,0.002678,0.000431,0.016336
76537000,0.0324,0.013523,0.002678,0.000431,0.003643
76538000,0.0324,0.013523,0.002678,0.000431,0.004466
76539000,0.0324,0.013523,0.002678,0.000431,0.011400
76540000,0.0324,0.013523,0.002678,0.000431,0.595515
76541000,0.0324,0.013523,0.002678,0.000431,0.706579
76542000,0.0324,0.013523,0.002678,0.000431,0.150436
76543000,0.0324,0.013523,0.002678,0.000431,0.140916
76544000,0.0324,0.013523,0.002678,0.000431,0.508192
76545000,0.0324,0.013523,0.002678,0.000431,0.243871
76546000,0.0324,0.013523,0.002678,0.000431,0.297934
76547000,0.0324,0.013523,0.002678,0.000431,0.155255
76548000,0.0324,0.013523,0.002678,0.000431,0.163717
76549000,0.0324,0.013523,0.002678,0.000431,0.214254
76550000,0.0324,0.013523,0.002678,0.000431,0.506076
76551000,0.0324,0.013523,0.002678,0.000431,0.204734
76552000,0.0324,0.013523,0.002678,0.000431,0.176057
76553000,0.0324,0.013523,0.002678,0.000431,0.163012
76554000,0.0324,0.013523,0.002678,0.000431,0.117176
76555000,0.0324,0.013523,0.002678,0.000431,0.091319
76556000,0.0324,0.013523,0.002678,0.000431,0.091084
76557000,0.0324,0.013523,0.002678,0.000431,0.068401
76558000,0.0324,0.013523,0.002678,0.000431,0.050655
76559000,0.0324,0.013523,0.002678,0.000431,0.045601
76560000,0.0324,0.013523,0.002678,0.000431,0.035494
76561000,0.0324,0.013523,0.002678,0.000431,0.023506
76562000,0.0324,0.013523,0.002678,0.000431,0.019862
76563000,0.0324,0.013523,0.002678,0.000431,0.017394
76564000,0.0324,0.013523,0.002678,0.000431,0.017159
76565000,0.0324,0.013523,0.002678,0.000431,0.014691
76566000,0.0324,0.013523,0.002678,0.000431,0.012223
76567000,0.0324,0.013523,0.002678,0.000431,0.009402
76568000,0.0324,0.013523,0.002678,0.000431,0.005289
76569000,0.0324,0.013523,0.002678,0.000431,0.006934
76570000,0.0324,0.013523,0.002678,0.000431,0.004466
76571000,0.0324,0.013523,0.002678,0.000431,0.002233
76572000,0.0324,0.013523,0.002678,0.000431,0.001763
76573000,0.0324,0.013523,0.002678,0.000431,0.001763
76574000,0.0324,0.013523,0.002678,0.000431,0.004584
76575000,0.0324,0.013523,0.002678,0.000431,0.000823
76576000,0.0324,0.013523,0.002678,0.000431,0.000823
76577000,0.0324,0.013523,0.002678,0.000431,0.000705
76578000,0.0324,0.013523,0.002678,0.000431,0.000940
76579000,0.0324,0.013523,0.002678,0.000431,0.000940
76580000,0.0324,0.013523,0.002678,0.000431,0.000705
76581000,0.0324,0.013523,0.002678,0.000431,0.000940
76582000,0.0324,0.013523,0.002678,0.000431,0.000705
76583000,0.0324,0.013523,0.002678,0.000431,0.000940
76584000,0.0324,0.013523,0.002678,0.000431,0.000823
76585000,0.0324,0.013523,0.002678,0.000431,0.000823
76586000,0.0324,0.013523,0.002678,0.000431,0.000940
76587000,0.0324,0.013523,0.002678,0.000431,0.000705
76588000,0.0324,0.013523,0.002678,0.000431,0.000940
76589000,0.0324,0.013523,0.002678,0.000431,0.000823
76590000,0.0324,0.013523,0.002678,0.000431,0.000823
76591000,0.0324,0.013523,0.002678,0.000431,0.000823
76592000,0.0324,0.013523,0.002678,0.000431,0.000823
76593000,0.0324,0.013523,0.002678,0.000431,0.000823
76594000,0.0324,0.013523,0.002678,0.000431,0.000823
76595000,0.0324,0.013523,0.002678,0.000431,0.000940
76596000,0.0324,0.013523,0.002678,0.000431,0.000823
76597000,0.0324,0.013523,0.002678,0.000431,0.000823
76598000,0.0324,0.013523,0.002678,0.000431,0.000823
76599000,0.0324,0.013523,0.002678,0.000431,0.000823
76600000,0.0324,0.013523,0.002678,0.000431,0.000705
76601000,0.0324,0.013523,0.002678,0.000431,0.000940
76602000,0.0324,0.013523,0.002678,0.000431,0.000940
76603000,0.0324,0.013523,0.002678,0.000431,0.000705
76604000,0.0324,0.013523,0.002678,0.000431,0.000940
76605000,0.0324,0.013523,0.002678,0.000431,0.000705
76606000,0.0324,0.013523,0.002678,0.000431,0.000940
76607000,0.0324,0.013523,0.002678,0.000431,0.000823
76608000,0.0324,0.013523,0.002678,0.000431,0.000823
76609000,0.0324,0.013523,0.002678,0.000431,0.000940
76610000,0.0324,0.013523,0.002678,0.000431,0.000705
76611000,0.0324,0.013523,0.002678,0.000431,0.000940
76612000,0.0324,0.013523,0.002678,0.000431,0.000823
76613000,0.0324,0.013523,0.002678,0.000431,0.000823
76614000,0.0324,0.013523,0.002678,0.000431,0.000823
76615000,0.0324,0.013523,0.002678,0.000431,0.000823
76616000,0.0324,0.013523,0.002678,0.000431,0.000940
76617000,0.0324,0.013523,0.002678,0.000431,0.000705
76618000,0.0324,0.013523,0.002678,0.000431,0.000940
76619000,0.0324,0.013523,0.002678,0.000431,0.000705
76620000,0.0324,0.013523,0.002678,0.000431,0.000823
76621000,0.0324,0.013523,0.002678,0.000431,0.000940
76622000,0.0324,0.013523,0.002678,0.000431,0.000823
76623000,0.0324,0.013523,0.002678,0.000431,0.245046
76624000,0.0324,0.013523,0.002678,0.000431,0.713161
76625000,0.0324,0.013523,0.002678,0.000431,0.462003
76626000,0.0324,0.013523,0.002678,0.000431,0.137743
76627000,0.0324,0.013523,0.002678,0.000431,0.487624
76628000,0.0324,0.013523,0.002678,0.000431,0.280657
76629000,0.0324,0.013523,0.002678,0.000431,0.298287
76630000,0.0324,0.013523,0.002678,0.000431,0.186047
76631000,0.0324,0.013523,0.002678,0.000431,0.191688
76632000,0.0324,0.013523,0.002678,0.000431,0.087206
76633000,0.0324,0.013523,0.002678,0.000431,0.547564
76634000,0.0324,0.013523,0.002678,0.000431,0.248337
76635000,0.0324,0.013523,0.002678,0.000431,0.188398
76636000,0.0324,0.013523,0.002678,0.000431,0.169828
76637000,0.0324,0.013523,0.002678,0.000431,0.142562
76638000,0.0324,0.013523,0.002678,0.000431,0.108596
76639000,0.0324,0.013523,0.002678,0.000431,0.091907
76640000,0.0324,0.013523,0.002678,0.000431,0.067226
76641000,0.0324,0.013523,0.002678,0.000431,0.044661
76642000,0.0324,0.013523,0.002678,0.000431,0.041958
76643000,0.0324,0.013523,0.002678,0.000431,0.038079
76644000,0.0324,0.013523,0.002678,0.000431,0.023036
76645000,0.0324,0.013523,0.002678,0.000431,0.024093
76646000,0.0324,0.013523,0.002678,0.000431,0.020567
76647000,0.0324,0.013523,0.002678,0.000431,0.009285
76648000,0.0324,0.013523,0.002678,0.000431,0.011165
76649000,0.0324,0.013523,0.002678,0.000431,0.005994
76650000,0.0324,0.013523,0.002678,0.000431,0.000823
76651000,0.0324,0.013523,0.002678,0.000431,0.000940
76652000,0.0324,0.013523,0.002678,0.000431,0.000823
76653000,0.0324,0.013523,0.002678,0.000431,0.000823
76654000,0.0324,0.013523,0.002678,0.000431,0.000823
76655000,0.0324,0.013523,0.002678,0.000431,0.013868
76656000,0.0324,0.013523,0.002678,0.000431,0.713866
76657000,0.0324,0.013523,0.002678,0.000431,0.589404
76658000,0.0324,0.013523,0.002678,0.000431,0.145030
76659000,0.0324,0.013523,0.002678,0.000431,0.140211
76660000,0.0324,0.013523,0.002678,0.000431,0.551207
76661000,0.0324,0.013523,0.002678,0.000431,0.294173
76662000,0.0324,0.013523,0.002678,0.000431,0.286886
76663000,0.0324,0.013523,0.002678,0.000431,0.147498
76664000,0.0324,0.013523,0.002678,0.000431,0.155137
76665000,0.0324,0.013523,0.002678,0.000431,0.221071
76666000,0.0324,0.013523,0.002678,0.000431,0.487977
76667000,0.0324,0.013523,0.002678,0.000431,0.148908
76668000,0.0324,0.013523,0.002678,0.000431,0.135275
76669000,0.0324,0.013523,0.002678,0.000431,0.100487
76670000,0.0324,0.013523,0.002678,0.000431,0.092142
76671000,0.0324,0.013523,0.002678,0.000431,0.068166
76672000,0.0324,0.013523,0.002678,0.000431,0.056766
76673000,0.0324,0.013523,0.002678,0.000431,0.037609
76674000,0.0324,0.013523,0.002678,0.000431,0.040195
76675000,0.0324,0.013523,0.002678,0.000431,0.030205
76676000,0.0324,0.013523,0.002678,0.000431,0.018922
76677000,0.0324,0.013523,0.002678,0.000431,0.013868
76678000,0.0324,0.013523,0.002678,0.000431,0.017512
76679000,0.0324,0.013523,0.002678,0.000431,0.011753
76680000,0.0324,0.013523,0.002678,0.000431,0.007052
76681000,0.0324,0.013523,0.002678,0.000431,0.006817
76682000,0.0324,0.013523,0.002678,0.000431,0.006229
76683000,0.0324,0.013523,0.002678,0.000431,0.004584
76684000,0.0324,0.013523,0.002678,0.000431,0.005876
76685000,0.0324,0.013523,0.002678,0.000431,0.003408
76686000,0.0324,0.013523,0.002678,0.000431,0.004584
76687000,0.0324,0.013523,0.002678,0.000431,0.007874
76688000,0.0324,0.013523,0.002678,0.000431,0.016219
76689000,0.0324,0.013523,0.002678,0.000431,0.727499
76690000,0.0324,0.013523,0.002678,0.000431,0.536516
76691000,0.0324,0.013523,0.002678,0.000431,0.142562
76692000,0.0324,0.013523,0.002678,0.000431,0.140446
76693000,0.0324,0.013523,0.002678,0.000431,0.532638
76694000,0.0324,0.013523,0.002678,0.000431,0.242108
76695000,0.0324,0.013523,0.002678,0.000431,0.330607
76696000,0.0324,0.013523,0.002678,0.000431,0.154079
76697000,0.0324,0.013523,0.002678,0.000431,0.166890
76698000,0.0324,0.013523,0.002678,0.000431,0.156548
76699000,0.0324,0.013523,0.002678,0.000431,0.572245
76700000,0.0324,0.013523,0.002678,0.000431,0.238582
76701000,0.0324,0.013523,0.002678,0.000431,0.204617
76702000,0.0324,0.013523,0.002678,0.000431,0.172061
76703000,0.0324,0.013523,0.002678,0.000431,0.150201
76704000,0.0324,0.013523,0.002678,0.000431,0.130574
76705000,0.0324,0.013523,0.002678,0.000431,0.106481
76706000,0.0324,0.013523,0.002678,0.000431,0.078979
76707000,0.0324,0.013523,0.002678,0.000431,0.059587
76708000,0.0324,0.013523,0.002678,0.000431,0.037139
76709000,0.0324,0.013523,0.002678,0.000431,0.041840
76710000,0.0324,0.013523,0.002678,0.000431,0.027384
76711000,0.0324,0.013523,0.002678,0.000431,0.030087
76712000,0.0324,0.013523,0.002678,0.000431,0.023741
76713000,0.0324,0.013523,0.002678,0.000431,0.018334
76714000,0.0324,0.013523,0.002678,0.000431,0.019745
76715000,0.0324,0.013523,0.002678,0.000431,0.014691
76716000,0.0324,0.013523,0.002678,0.000431,0.008109
76717000,0.0324,0.013523,0.002678,0.000431,0.009872
76718000,0.0324,0.013523,0.002678,0.000431,0.008462
76719000,0.0324,0.013523,0.002678,0.000431,0.007639
76720000,0.0324,0.013523,0.002678,0.000431,0.003996
76721000,0.0324,0.013523,0.002678,0.000431,0.004819
76722000,0.0324,0.013523,0.002678,0.000431,0.003526
76723000,0.0324,0.013523,0.002678,0.000431,0.004113
76724000,0.0324,0.013523,0.002678,0.000431,0.004231
76725000,0.0324,0.013523,0.002678,0.000431,0.006582
76726000,0.0324,0.013523,0.002678,0.000431,0.006582
76727000,0.0324,0.013523,0.002678,0.000431,0.002233
76728000,0.0324,0.013523,0.002678,0.000431,0.001998
76729000,0.0324,0.013523,0.002678,0.000431,0.002468
76730000,0.0324,0.013523,0.002678,0.000431,0.002116
76731000,0.0324,0.013523,0.002678,0.000431,0.001645
76732000,0.0324,0.013523,0.002678,0.000431,0.002468
76733000,0.0324,0.013523,0.002678,0.000431,0.002468
76734000,0.0324,0.013523,0.002678,0.000431,0.002351
76735000,0.0324,0.013523,0.002678,0.000431,0.002586
76736000,0.0324,0.013523,0.002678,0.000431,0.001410
76737000,0.0324,0.013523,0.002678,0.000431,0.002821
76738000,0.0324,0.013523,0.002678,0.000431,0.003878
76739000,0.0324,0.013523,0.002678,0.000431,0.001058
76740000,0.0324,0.013523,0.002678,0.000431,0.003291
76741000,0.0324,0.013523,0.002678,0.000431,0.633007
76742000,0.0324,0.013523,0.002678,0.000431,0.723033
76743000,0.0324,0.013523,0.002678,0.000431,0.156077
76744000,0.0324,0.013523,0.002678,0.000431,0.140329
76745000,0.0324,0.013523,0.002678,0.000431,0.510307
76746000,0.0324,0.013523,0.002678,0.000431,0.239405
76747000,0.0324,0.013523,0.002678,0.000431,0.323320
76748000,0.0324,0.013523,0.002678,0.000431,0.161366
76749000,0.0324,0.013523,0.002678,0.000431,0.138918
76750000,0.0324,0.013523,0.002678,0.000431,0.252921
76751000,0.0324,0.013523,0.002678,0.000431,0.519004
76752000,0.0324,0.013523,0.002678,0.000431,0.213431
76753000,0.0324,0.013523,0.002678,0.000431,0.190866
76754000,0.0324,0.013523,0.002678,0.000431,0.180406
76755000,0.0324,0.013523,0.002678,0.000431,0.133277
76756000,0.0324,0.013523,0.002678,0.000431,0.116705
76757000,0.0324,0.013523,0.002678,0.000431,0.078744
76758000,0.0324,0.013523,0.002678,0.000431,0.055826
76759000,0.0324,0.013523,0.002678,0.000431,0.049362
76760000,0.0324,0.013523,0.002678,0.000431,0.034553
76761000,0.0324,0.013523,0.002678,0.000431,0.022095
76762000,0.0324,0.013523,0.002678,0.000431,0.026914
76763000,0.0324,0.013523,0.002678,0.000431,0.019510
76764000,0.0324,0.013523,0.002678,0.000431,0.019510
76765000,0.0324,0.013523,0.002678,0.000431,0.017864
76766000,0.0324,0.013523,0.002678,0.000431,0.016924
76767000,0.0324,0.013523,0.002678,0.000431,0.010578
76768000,0.0324,0.013523,0.002678,0.000431,0.005994
76769000,0.0324,0.013523,0.002678,0.000431,0.011400
76770000,0.0324,0.013523,0.002678,0.000431,0.003996
76771000,0.0324,0.013523,0.002678,0.000431,0.004701
76772000,0.0324,0.013523,0.002678,0.000431,0.004466
76773000,0.0324,0.013523,0.002678,0.000431,0.004819
76774000,0.0324,0.013523,0.002678,0.000431,0.003643
76775000,0.0324,0.013523,0.002678,0.000431,0.006347
76776000,0.0324,0.013523,0.002678,0.000431,0.002821
76777000,0.0324,0.013523,0.002678,0.000431,0.006111
76778000,0.0324,0.013523,0.002678,0.000431,0.002938
76779000,0.0324,0.013523,0.002678,0.000431,0.000705
76780000,0.0324,0.013523,0.002678,0.000431,0.000940
76781000,0.0324,0.013523,0.002678,0.000431,0.000705
76782000,0.0324,0.013523,0.002678,0.000431,0.000940
76783000,0.0324,0.013523,0.002678,0.000431,0.056884
76784000,0.0324,0.013523,0.002678,0.000431,0.810004
76785000,0.0324,0.013523,0.002678,0.000431,0.541922
76786000,0.0324,0.013523,0.002678,0.000431,0.137743
76787000,0.0324,0.013523,0.002678,0.000431,0.228475
76788000,0.0324,0.013523,0.002678,0.000431,0.447312
76789000,0.0324,0.013523,0.002678,0.000431,0.270785
76790000,0.0324,0.013523,0.002678,0.000431,0.250923
76791000,0.0324,0.013523,0.002678,0.000431,0.153492
76792000,0.0324,0.013523,0.002678,0.000431,0.136098
76793000,0.0324,0.013523,0.002678,0.000431,0.307689
76794000,0.0324,0.013523,0.002678,0.000431,0.476107
76795000,0.0324,0.013523,0.002678,0.000431,0.211433
76796000,0.0324,0.013523,0.002678,0.000431,0.180641
76797000,0.0324,0.013523,0.002678,0.000431,0.155490
76798000,0.0324,0.013523,0.002678,0.000431,0.118586
76799000,0.0324,0.013523,0.002678,0.000431,0.107773
76800000,0.0324,0.013523,0.002678,0.000431,0.084385
76801000,0.0324,0.013523,0.002678,0.000431,0.074630
76802000,0.0324,0.013523,0.002678,0.000431,0.040782
76803000,0.0324,0.013523,0.002678,0.000431,0.040430
76804000,0.0324,0.013523,0.002678,0.000431,0.030322
76805000,0.0324,0.013523,0.002678,0.000431,0.026091
76806000,0.0324,0.013523,0.002678,0.000431,0.021508
76807000,0.0324,0.013523,0.002678,0.000431,0.018099
76808000,0.0324,0.013523,0.002678,0.000431,0.026209
76809000,0.0324,0.013523,0.002678,0.000431,0.020097
76810000,0.0324,0.013523,0.002678,0.000431,0.013398
76811000,0.0324,0.013523,0.002678,0.000431,0.013633
76812000,0.0324,0.013523,0.002678,0.000431,0.009285
76813000,0.0324,0.013523,0.002678,0.000431,0.009872
76814000,0.0324,0.013523,0.002678,0.000431,0.011283
76815000,0.0324,0.013523,0.002678,0.000431,0.004936
76816000,0.0324,0.013523,0.002678,0.000431,0.008462
76817000,0.0324,0.013523,0.002678,0.000431,0.007052
76818000,0.0324,0.013523,0.002678,0.000431,0.004936
76819000,0.0324,0.013523,0.002678,0.000431,0.006111
76820000,0.0324,0.013523,0.002678,0.000431,0.003291
76821000,0.0324,0.013523,0.002678,0.000431,0.003291
76822000,0.0324,0.013523,0.002678,0.000431,0.002233
76823000,0.0324,0.013523,0.002678,0.000431,0.001763
76824000,0.0324,0.013523,0.002678,0.000431,0.001645
76825000,0.0324,0.013523,0.002678,0.000431,0.001763
76826000,0.0324,0.013523,0.002678,0.000431,0.001763
76827000,0.0324,0.013523,0.002678,0.000431,0.001528
76828000,0.0324,0.013523,0.002678,0.000431,0.001763
76829000,0.0324,0.013523,0.002678,0.000431,0.004466
76830000,0.0324,0.013523,0.002678,0.000431,0.000823
76831000,0.0324,0.013523,0.002678,0.000431,0.000940
76832000,0.0324,0.013523,0.002678,0.000431,0.071457
76833000,0.0324,0.013523,0.002678,0.000431,0.806713
76834000,0.0324,0.013523,0.002678,0.000431,0.530757
76835000,0.0324,0.013523,0.002678,0.000431,0.138213
76836000,0.0324,0.013523,0.002678,0.000431,0.279952
76837000,0.0324,0.013523,0.002678,0.000431,0.386315
76838000,0.0324,0.013523,0.002678,0.000431,0.238112
76839000,0.0324,0.013523,0.002678,0.000431,0.287356
76840000,0.0324,0.013523,0.002678,0.000431,0.145735
76841000,0.0324,0.013523,0.002678,0.000431,0.160073
76842000,0.0324,0.013523,0.002678,0.000431,0.227535
76843000,0.0324,0.013523,0.002678,0.000431,0.520415
76844000,0.0324,0.013523,0.002678,0.000431,0.174059
76845000,0.0324,0.013523,0.002678,0.000431,0.155842
76846000,0.0324,0.013523,0.002678,0.000431,0.119996
76847000,0.0324,0.013523,0.002678,0.000431,0.111534
76848000,0.0324,0.013523,0.002678,0.000431,0.080037
76849000,0.0324,0.013523,0.002678,0.000431,0.062407
76850000,0.0324,0.013523,0.002678,0.000431,0.041017
76851000,0.0324,0.013523,0.002678,0.000431,0.033378
76852000,0.0324,0.013523,0.002678,0.000431,0.020450
76853000,0.0324,0.013523,0.002678,0.000431,0.012693
76854000,0.0324,0.013523,0.002678,0.000431,0.019510
76855000,0.0324,0.013523,0.002678,0.000431,0.005641
76856000,0.0324,0.013523,0.002678,0.000431,0.013398
76857000,0.0324,0.013523,0.002678,0.000431,0.001998
76858000,0.0324,0.013523,0.002678,0.000431,0.001763
76859000,0.0324,0.013523,0.002678,0.000431,0.001645
76860000,0.0324,0.013523,0.002678,0.000431,0.002351
76861000,0.0324,0.013523,0.002678,0.000431,0.002821
76862000,0.0324,0.013523,0.002678,0.000431,0.002703
76863000,0.0324,0.013523,0.002678,0.000431,0.097078
76864000,0.0324,0.013523,0.002678,0.000431,0.801895
76865000,0.0324,0.013523,0.002678,0.000431,0.487742
76866000,0.0324,0.013523,0.002678,0.000431,0.137273
76867000,0.0324,0.013523,0.002678,0.000431,0.418635
76868000,0.0324,0.013523,0.002678,0.000431,0.267494
76869000,0.0324,0.013523,0.002678,0.000431,0.264203
76870000,0.0324,0.013523,0.002678,0.000431,0.242108
76871000,0.0324,0.013523,0.002678,0.000431,0.146675
76872000,0.0324,0.013523,0.002678,0.000431,0.136920
76873000,0.0324,0.013523,0.002678,0.000431,0.343887
76874000,0.0324,0.013523,0.002678,0.000431,0.421926
76875000,0.0324,0.013523,0.002678,0.000431,0.157723
76876000,0.0324,0.013523,0.002678,0.000431,0.145382
76877000,0.0324,0.013523,0.002678,0.000431,0.129986
76878000,0.0324,0.013523,0.002678,0.000431,0.106716
76879000,0.0324,0.013523,0.002678,0.000431,0.101779
76880000,0.0324,0.013523,0.002678,0.000431,0.082152
76881000,0.0324,0.013523,0.002678,0.000431,0.073103
76882000,0.0324,0.013523,0.002678,0.000431,0.044308
76883000,0.0324,0.013523,0.002678,0.000431,0.040312
76884000,0.0324,0.013523,0.002678,0.000431,0.032203
76885000,0.0324,0.013523,0.002678,0.000431,0.032438
76886000,0.0324,0.013523,0.002678,0.000431,0.022800
76887000,0.0324,0.013523,0.002678,0.000431,0.013633
76888000,0.0324,0.013523,0.002678,0.000431,0.008932
76889000,0.0324,0.013523,0.002678,0.000431,0.006464
76890000,0.0324,0.013523,0.002678,0.000431,0.005994
76891000,0.0324,0.013523,0.002678,0.000431,0.006699
76892000,0.0324,0.013523,0.002678,0.000431,0.006347
76893000,0.0324,0.013523,0.002678,0.000431,0.008580
76894000,0.0324,0.013523,0.002678,0.000431,0.007522
76895000,0.0324,0.013523,0.002678,0.000431,0.004349
76896000,0.0324,0.013523,0.002678,0.000431,0.006111
76897000,0.0324,0.013523,0.002678,0.000431,0.003291
76898000,0.0324,0.013523,0.002678,0.000431,0.003291
76899000,0.0324,0.013523,0.002678,0.000431,0.003056
76900000,0.0324,0.013523,0.002678,0.000431,0.003291
76901000,0.0324,0.013523,0.002678,0.000431,0.003291
76902000,0.0324,0.013523,0.002678,0.000431,0.003408
76903000,0.0324,0.013523,0.002678,0.000431,0.003291
76904000,0.0324,0.013523,0.002678,0.000431,0.003056
76905000,0.0324,0.013523,0.002678,0.000431,0.003408
76906000,0.0324,0.013523,0.002678,0.000431,0.003291
76907000,0.0324,0.013523,0.002678,0.000431,0.003056
76908000,0.0324,0.013523,0.002678,0.000431,0.003291
76909000,0.0324,0.013523,0.002678,0.000431,0.003643
76910000,0.0324,0.013523,0.002678,0.000431,0.004466
76911000,0.0324,0.013523,0.002678,0.000431,0.001645
76912000,0.0324,0.013523,0.002678,0.000431,0.001528
76913000,0.0324,0.013523,0.002678,0.000431,0.001880
76914000,0.0324,0.013523,0.002678,0.000431,0.001763
76915000,0.0324,0.013523,0.002678,0.000431,0.001645
76916000,0.0324,0.013523,0.002678,0.000431,0.004584
76917000,0.0324,0.013523,0.002678,0.000431,0.000823
76918000,0.0324,0.013523,0.002678,0.000431,0.001998
76919000,0.0324,0.013523,0.002678,0.000431,0.565781
76920000,0.0324,0.013523,0.002678,0.000431,0.740075
76921000,0.0324,0.013523,0.002678,0.000431,0.145500
76922000,0.0324,0.013523,0.002678,0.000431,0.138683
76923000,0.0324,0.013523,0.002678,0.000431,0.510542
76924000,0.0324,0.013523,0.002678,0.000431,0.261265
76925000,0.0324,0.013523,0.002678,0.000431,0.289824
76926000,0.0324,0.013523,0.002678,0.000431,0.160661
76927000,0.0324,0.013523,0.002678,0.000431,0.155725
76928000,0.0324,0.013523,0.002678,0.000431,0.223304
76929000,0.0324,0.013523,0.002678,0.000431,0.519710
76930000,0.0324,0.013523,0.002678,0.000431,0.228710
76931000,0.0324,0.013523,0.002678,0.000431,0.190396
76932000,0.0324,0.013523,0.002678,0.000431,0.171121
76933000,0.0324,0.013523,0.002678,0.000431,0.134100
76934000,0.0324,0.013523,0.002678,0.000431,0.117528
76935000,0.0324,0.013523,0.002678,0.000431,0.102250
76936000,0.0324,0.013523,0.002678,0.000431,0.046306
76937000,0.0324,0.013523,0.002678,0.000431,0.045718
76938000,0.0324,0.013523,0.002678,0.000431,0.028559
76939000,0.0324,0.013523,0.002678,0.000431,0.018922
76940000,0.0324,0.013523,0.002678,0.000431,0.012340
76941000,0.0324,0.013523,0.002678,0.000431,0.010695
76942000,0.0324,0.013523,0.002678,0.000431,0.016219
76943000,0.0324,0.013523,0.002678,0.000431,0.012340
76944000,0.0324,0.013523,0.002678,0.000431,0.003408
76945000,0.0324,0.013523,0.002678,0.000431,0.003996
76946000,0.0324,0.013523,0.002678,0.000431,0.005406
76947000,0.0324,0.013523,0.002678,0.000431,0.000940
76948000,0.0324,0.013523,0.002678,0.000431,0.000823
76949000,0.0324,0.013523,0.002678,0.000431,0.000940
76950000,0.0324,0.013523,0.002678,0.000431,0.000823
76951000,0.0324,0.013523,0.002678,0.000431,0.000823
76952000,0.0324,0.013523,0.002678,0.000431,0.000940
76953000,0.0324,0.013523,0.002678,0.000431,0.000940
76954000,0.0324,0.013523,0.002678,0.000431,0.000823
76955000,0.0324,0.013523,0.002678,0.000431,0.000823
76956000,0.0324,0.013523,0.002678,0.000431,0.000940
76957000,0.0324,0.013523,0.002678,0.000431,0.000940
76958000,0.0324,0.013523,0.002678,0.000431,0.000705
76959000,0.0324,0.013523,0.002678,0.000431,0.000940
76960000,0.0324,0.013523,0.002678,0.000431,0.000940
76961000,0.0324,0.013523,0.002678,0.000431,0.000940
76962000,0.0324,0.013523,0.002678,0.000431,0.000705
76963000,0.0324,0.013523,0.002678,0.000431,0.000940
76964000,0.0324,0.013523,0.002678,0.000431,0.000705
76965000,0.0324,0.013523,0.002678,0.000431,0.000940
76966000,0.0324,0.013523,0.002678,0.000431,0.000705
76967000,0.0324,0.013523,0.002678,0.000431,0.003056
76968000,0.0324,0.013523,0.002678,0.000431,0.469995
76969000,0.0324,0.013523,0.002678,0.000431,0.823755
76970000,0.0324,0.013523,0.002678,0.000431,0.212608
76971000,0.0324,0.013523,0.002678,0.000431,0.144325
76972000,0.0324,0.013523,0.002678,0.000431,0.510542
76973000,0.0324,0.013523,0.002678,0.000431,0.260913
76974000,0.0324,0.013523,0.002678,0.000431,0.295583
76975000,0.0324,0.013523,0.002678,0.000431,0.152552
76976000,0.0324,0.013523,0.002678,0.000431,0.179466
76977000,0.0324,0.013523,0.002678,0.000431,0.122347
76978000,0.0324,0.013523,0.002678,0.000431,0.584350
76979000,0.0324,0.013523,0.002678,0.000431,0.190043
76980000,0.0324,0.013523,0.002678,0.000431,0.163599
76981000,0.0324,0.013523,0.002678,0.000431,0.135510
76982000,0.0324,0.013523,0.002678,0.000431,0.119996
76983000,0.0324,0.013523,0.002678,0.000431,0.098606
76984000,0.0324,0.013523,0.002678,0.000431,0.079214
76985000,0.0324,0.013523,0.002678,0.000431,0.075923
76986000,0.0324,0.013523,0.002678,0.000431,0.043368
76987000,0.0324,0.013523,0.002678,0.000431,0.037021
76988000,0.0324,0.013523,0.002678,0.000431,0.028207
76989000,0.0324,0.013523,0.002678,0.000431,0.023623
76990000,0.0324,0.013523,0.002678,0.000431,0.030322
76991000,0.0324,0.013523,0.002678,0.000431,0.015514
76992000,0.0324,0.013523,0.002678,0.000431,0.019275
76993000,0.0324,0.013523,0.002678,0.000431,0.012928
76994000,0.0324,0.013523,0.002678,0.000431,0.012693
76995000,0.0324,0.013523,0.002678,0.000431,0.003996
76996000,0.0324,0.013523,0.002678,0.000431,0.004231
76997000,0.0324,0.013523,0.002678,0.000431,0.006347
76998000,0.0324,0.013523,0.002678,0.000431,0.002938
76999000,0.0324,0.013523,0.002678,0.000431,0.003056
