Cycle,Area(mm^2),PeakDynamic(W),SubthresholdLeakage(W),GateLeakage(W),RunTimeDynamic(W)
109000000,0.0324,0.013523,0.002678,0.000431,0.000823
109001000,0.0324,0.013523,0.002678,0.000431,0.000823
109002000,0.0324,0.013523,0.002678,0.000431,0.000940
109003000,0.0324,0.013523,0.002678,0.000431,0.000823
109004000,0.0324,0.013523,0.002678,0.000431,0.000823
109005000,0.0324,0.013523,0.002678,0.000431,0.000705
109006000,0.0324,0.013523,0.002678,0.000431,0.000940
109007000,0.0324,0.013523,0.002678,0.000431,0.000940
109008000,0.0324,0.013523,0.002678,0.000431,0.014103
109009000,0.0324,0.013523,0.002678,0.000431,0.649343
109010000,0.0324,0.013523,0.002678,0.000431,0.627836
109011000,0.0324,0.013523,0.002678,0.000431,0.145382
109012000,0.0324,0.013523,0.002678,0.000431,0.140329
109013000,0.0324,0.013523,0.002678,0.000431,0.532638
109014000,0.0324,0.013523,0.002678,0.000431,0.310627
109015000,0.0324,0.013523,0.002678,0.000431,0.261265
109016000,0.0324,0.013523,0.002678,0.000431,0.323085
109017000,0.0324,0.013523,0.002678,0.000431,0.149026
109018000,0.0324,0.013523,0.002678,0.000431,0.166420
109019000,0.0324,0.013523,0.002678,0.000431,0.127048
109020000,0.0324,0.013523,0.002678,0.000431,0.493971
109021000,0.0324,0.013523,0.002678,0.000431,0.187340
109022000,0.0324,0.013523,0.002678,0.000431,0.156900
109023000,0.0324,0.013523,0.002678,0.000431,0.133630
109024000,0.0324,0.013523,0.002678,0.000431,0.130339
109025000,0.0324,0.013523,0.002678,0.000431,0.108714
109026000,0.0324,0.013523,0.002678,0.000431,0.086736
109027000,0.0324,0.013523,0.002678,0.000431,0.072162
109028000,0.0324,0.013523,0.002678,0.000431,0.078626
109029000,0.0324,0.013523,0.002678,0.000431,0.066521
109030000,0.0324,0.013523,0.002678,0.000431,0.065111
109031000,0.0324,0.013523,0.002678,0.000431,0.051947
109032000,0.0324,0.013523,0.002678,0.000431,0.052888
109033000,0.0324,0.013523,0.002678,0.000431,0.049949
109034000,0.0324,0.013523,0.002678,0.000431,0.043015
109035000,0.0324,0.013523,0.002678,0.000431,0.043720
109036000,0.0324,0.013523,0.002678,0.000431,0.043485
109037000,0.0324,0.013523,0.002678,0.000431,0.032673
109038000,0.0324,0.013523,0.002678,0.000431,0.032673
109039000,0.0324,0.013523,0.002678,0.000431,0.027854
109040000,0.0324,0.013523,0.002678,0.000431,0.027267
109041000,0.0324,0.013523,0.002678,0.000431,0.027031
109042000,0.0324,0.013523,0.002678,0.000431,0.026914
109043000,0.0324,0.013523,0.002678,0.000431,0.028677
109044000,0.0324,0.013523,0.002678,0.000431,0.017864
109045000,0.0324,0.013523,0.002678,0.000431,0.015631
109046000,0.0324,0.013523,0.002678,0.000431,0.019862
109047000,0.0324,0.013523,0.002678,0.000431,0.010225
109048000,0.0324,0.013523,0.002678,0.000431,0.010930
109049000,0.0324,0.013523,0.002678,0.000431,0.011518
109050000,0.0324,0.013523,0.002678,0.000431,0.009050
109051000,0.0324,0.013523,0.002678,0.000431,0.011988
109052000,0.0324,0.013523,0.002678,0.000431,0.008815
109053000,0.0324,0.013523,0.002678,0.000431,0.006111
109054000,0.0324,0.013523,0.002678,0.000431,0.005289
109055000,0.0324,0.013523,0.002678,0.000431,0.005759
109056000,0.0324,0.013523,0.002678,0.000431,0.005876
109057000,0.0324,0.013523,0.002678,0.000431,0.005641
109058000,0.0324,0.013523,0.002678,0.000431,0.005641
109059000,0.0324,0.013523,0.002678,0.000431,0.005876
109060000,0.0324,0.013523,0.002678,0.000431,0.005406
109061000,0.0324,0.013523,0.002678,0.000431,0.005994
109062000,0.0324,0.013523,0.002678,0.000431,0.007639
109063000,0.0324,0.013523,0.002678,0.000431,0.004701
109064000,0.0324,0.013523,0.002678,0.000431,0.004231
109065000,0.0324,0.013523,0.002678,0.000431,0.004113
109066000,0.0324,0.013523,0.002678,0.000431,0.003526
109067000,0.0324,0.013523,0.002678,0.000431,0.004466
109068000,0.0324,0.013523,0.002678,0.000431,0.002703
109069000,0.0324,0.013523,0.002678,0.000431,0.004231
109070000,0.0324,0.013523,0.002678,0.000431,0.003643
109071000,0.0324,0.013523,0.002678,0.000431,0.001880
109072000,0.0324,0.013523,0.002678,0.000431,0.001528
109073000,0.0324,0.013523,0.002678,0.000431,0.001880
109074000,0.0324,0.013523,0.002678,0.000431,0.001763
109075000,0.0324,0.013523,0.002678,0.000431,0.003996
109076000,0.0324,0.013523,0.002678,0.000431,0.000823
109077000,0.0324,0.013523,0.002678,0.000431,0.000823
109078000,0.0324,0.013523,0.002678,0.000431,0.000940
109079000,0.0324,0.013523,0.002678,0.000431,0.000705
109080000,0.0324,0.013523,0.002678,0.000431,0.000940
109081000,0.0324,0.013523,0.002678,0.000431,0.000823
109082000,0.0324,0.013523,0.002678,0.000431,0.000823
109083000,0.0324,0.013523,0.002678,0.000431,0.000823
109084000,0.0324,0.013523,0.002678,0.000431,0.000823
109085000,0.0324,0.013523,0.002678,0.000431,0.000940
109086000,0.0324,0.013523,0.002678,0.000431,0.000705
109087000,0.0324,0.013523,0.002678,0.000431,0.000940
109088000,0.0324,0.013523,0.002678,0.000431,0.000940
109089000,0.0324,0.013523,0.002678,0.000431,0.000823
109090000,0.0324,0.013523,0.002678,0.000431,0.000823
109091000,0.0324,0.013523,0.002678,0.000431,0.014573
109092000,0.0324,0.013523,0.002678,0.000431,0.620901
109093000,0.0324,0.013523,0.002678,0.000431,0.602332
109094000,0.0324,0.013523,0.002678,0.000431,0.141386
109095000,0.0324,0.013523,0.002678,0.000431,0.136803
109096000,0.0324,0.013523,0.002678,0.000431,0.517947
109097000,0.0324,0.013523,0.002678,0.000431,0.295583
109098000,0.0324,0.013523,0.002678,0.000431,0.275369
109099000,0.0324,0.013523,0.002678,0.000431,0.318619
109100000,0.0324,0.013523,0.002678,0.000431,0.140094
109101000,0.0324,0.013523,0.002678,0.000431,0.186047
109102000,0.0324,0.013523,0.002678,0.000431,0.084973
109103000,0.0324,0.013523,0.002678,0.000431,0.514421
109104000,0.0324,0.013523,0.002678,0.000431,0.240933
109105000,0.0324,0.013523,0.002678,0.000431,0.179583
109106000,0.0324,0.013523,0.002678,0.000431,0.158310
109107000,0.0324,0.013523,0.002678,0.000431,0.144090
109108000,0.0324,0.013523,0.002678,0.000431,0.129869
109109000,0.0324,0.013523,0.002678,0.000431,0.101779
109110000,0.0324,0.013523,0.002678,0.000431,0.102250
109111000,0.0324,0.013523,0.002678,0.000431,0.092142
109112000,0.0324,0.013523,0.002678,0.000431,0.070517
109113000,0.0324,0.013523,0.002678,0.000431,0.068284
109114000,0.0324,0.013523,0.002678,0.000431,0.053240
109115000,0.0324,0.013523,0.002678,0.000431,0.052535
109116000,0.0324,0.013523,0.002678,0.000431,0.049244
109117000,0.0324,0.013523,0.002678,0.000431,0.041958
109118000,0.0324,0.013523,0.002678,0.000431,0.031027
109119000,0.0324,0.013523,0.002678,0.000431,0.032203
109120000,0.0324,0.013523,0.002678,0.000431,0.023271
109121000,0.0324,0.013523,0.002678,0.000431,0.023036
109122000,0.0324,0.013523,0.002678,0.000431,0.027031
109123000,0.0324,0.013523,0.002678,0.000431,0.025386
109124000,0.0324,0.013523,0.002678,0.000431,0.023741
109125000,0.0324,0.013523,0.002678,0.000431,0.016807
109126000,0.0324,0.013523,0.002678,0.000431,0.016807
109127000,0.0324,0.013523,0.002678,0.000431,0.019275
109128000,0.0324,0.013523,0.002678,0.000431,0.011988
109129000,0.0324,0.013523,0.002678,0.000431,0.014809
109130000,0.0324,0.013523,0.002678,0.000431,0.009402
109131000,0.0324,0.013523,0.002678,0.000431,0.008580
109132000,0.0324,0.013523,0.002678,0.000431,0.011988
109133000,0.0324,0.013523,0.002678,0.000431,0.007522
109134000,0.0324,0.013523,0.002678,0.000431,0.006817
109135000,0.0324,0.013523,0.002678,0.000431,0.007404
109136000,0.0324,0.013523,0.002678,0.000431,0.007052
109137000,0.0324,0.013523,0.002678,0.000431,0.007052
109138000,0.0324,0.013523,0.002678,0.000431,0.007757
109139000,0.0324,0.013523,0.002678,0.000431,0.006817
109140000,0.0324,0.013523,0.002678,0.000431,0.009167
109141000,0.0324,0.013523,0.002678,0.000431,0.005994
109142000,0.0324,0.013523,0.002678,0.000431,0.007639
109143000,0.0324,0.013523,0.002678,0.000431,0.001645
109144000,0.0324,0.013523,0.002678,0.000431,0.001763
109145000,0.0324,0.013523,0.002678,0.000431,0.001763
109146000,0.0324,0.013523,0.002678,0.000431,0.001880
109147000,0.0324,0.013523,0.002678,0.000431,0.001645
109148000,0.0324,0.013523,0.002678,0.000431,0.001763
109149000,0.0324,0.013523,0.002678,0.000431,0.001763
109150000,0.0324,0.013523,0.002678,0.000431,0.004584
109151000,0.0324,0.013523,0.002678,0.000431,0.000823
109152000,0.0324,0.013523,0.002678,0.000431,0.000823
109153000,0.0324,0.013523,0.002678,0.000431,0.000940
109154000,0.0324,0.013523,0.002678,0.000431,0.000705
109155000,0.0324,0.013523,0.002678,0.000431,0.000940
109156000,0.0324,0.013523,0.002678,0.000431,0.000823
109157000,0.0324,0.013523,0.002678,0.000431,0.250923
109158000,0.0324,0.013523,0.002678,0.000431,0.676492
109159000,0.0324,0.013523,0.002678,0.000431,0.452484
109160000,0.0324,0.013523,0.002678,0.000431,0.137273
109161000,0.0324,0.013523,0.002678,0.000431,0.198035
109162000,0.0324,0.013523,0.002678,0.000431,0.635005
109163000,0.0324,0.013523,0.002678,0.000431,0.242461
109164000,0.0324,0.013523,0.002678,0.000431,0.326141
109165000,0.0324,0.013523,0.002678,0.000431,0.158781
109166000,0.0324,0.013523,0.002678,0.000431,0.159251
109167000,0.0324,0.013523,0.002678,0.000431,0.109419
109168000,0.0324,0.013523,0.002678,0.000431,0.437205
109169000,0.0324,0.013523,0.002678,0.000431,0.262323
109170000,0.0324,0.013523,0.002678,0.000431,0.157723
109171000,0.0324,0.013523,0.002678,0.000431,0.131044
109172000,0.0324,0.013523,0.002678,0.000431,0.116000
109173000,0.0324,0.013523,0.002678,0.000431,0.096138
109174000,0.0324,0.013523,0.002678,0.000431,0.087794
109175000,0.0324,0.013523,0.002678,0.000431,0.075688
109176000,0.0324,0.013523,0.002678,0.000431,0.067931
109177000,0.0324,0.013523,0.002678,0.000431,0.060645
109178000,0.0324,0.013523,0.002678,0.000431,0.046071
109179000,0.0324,0.013523,0.002678,0.000431,0.050067
109180000,0.0324,0.013523,0.002678,0.000431,0.036904
109181000,0.0324,0.013523,0.002678,0.000431,0.036199
109182000,0.0324,0.013523,0.002678,0.000431,0.028912
109183000,0.0324,0.013523,0.002678,0.000431,0.028677
109184000,0.0324,0.013523,0.002678,0.000431,0.030087
109185000,0.0324,0.013523,0.002678,0.000431,0.028559
109186000,0.0324,0.013523,0.002678,0.000431,0.028559
109187000,0.0324,0.013523,0.002678,0.000431,0.028677
109188000,0.0324,0.013523,0.002678,0.000431,0.027502
109189000,0.0324,0.013523,0.002678,0.000431,0.025504
109190000,0.0324,0.013523,0.002678,0.000431,0.021390
109191000,0.0324,0.013523,0.002678,0.000431,0.020215
109192000,0.0324,0.013523,0.002678,0.000431,0.025386
109193000,0.0324,0.013523,0.002678,0.000431,0.016101
109194000,0.0324,0.013523,0.002678,0.000431,0.019275
109195000,0.0324,0.013523,0.002678,0.000431,0.017512
109196000,0.0324,0.013523,0.002678,0.000431,0.018922
109197000,0.0324,0.013523,0.002678,0.000431,0.012340
109198000,0.0324,0.013523,0.002678,0.000431,0.010578
109199000,0.0324,0.013523,0.002678,0.000431,0.011518
109200000,0.0324,0.013523,0.002678,0.000431,0.008580
109201000,0.0324,0.013523,0.002678,0.000431,0.009520
109202000,0.0324,0.013523,0.002678,0.000431,0.008462
109203000,0.0324,0.013523,0.002678,0.000431,0.008932
109204000,0.0324,0.013523,0.002678,0.000431,0.007757
109205000,0.0324,0.013523,0.002678,0.000431,0.007287
109206000,0.0324,0.013523,0.002678,0.000431,0.005641
109207000,0.0324,0.013523,0.002678,0.000431,0.004466
109208000,0.0324,0.013523,0.002678,0.000431,0.005171
109209000,0.0324,0.013523,0.002678,0.000431,0.004819
109210000,0.0324,0.013523,0.002678,0.000431,0.004231
109211000,0.0324,0.013523,0.002678,0.000431,0.004349
109212000,0.0324,0.013523,0.002678,0.000431,0.003996
109213000,0.0324,0.013523,0.002678,0.000431,0.004584
109214000,0.0324,0.013523,0.002678,0.000431,0.003996
109215000,0.0324,0.013523,0.002678,0.000431,0.004349
109216000,0.0324,0.013523,0.002678,0.000431,0.004349
109217000,0.0324,0.013523,0.002678,0.000431,0.003996
109218000,0.0324,0.013523,0.002678,0.000431,0.004466
109219000,0.0324,0.013523,0.002678,0.000431,0.003996
109220000,0.0324,0.013523,0.002678,0.000431,0.004349
109221000,0.0324,0.013523,0.002678,0.000431,0.004113
109222000,0.0324,0.013523,0.002678,0.000431,0.006699
109223000,0.0324,0.013523,0.002678,0.000431,0.003056
109224000,0.0324,0.013523,0.002678,0.000431,0.003408
109225000,0.0324,0.013523,0.002678,0.000431,0.004584
109226000,0.0324,0.013523,0.002678,0.000431,0.005406
109227000,0.0324,0.013523,0.002678,0.000431,0.001645
109228000,0.0324,0.013523,0.002678,0.000431,0.001763
109229000,0.0324,0.013523,0.002678,0.000431,0.017864
109230000,0.0324,0.013523,0.002678,0.000431,0.595750
109231000,0.0324,0.013523,0.002678,0.000431,0.626308
109232000,0.0324,0.013523,0.002678,0.000431,0.152552
109233000,0.0324,0.013523,0.002678,0.000431,0.141034
109234000,0.0324,0.013523,0.002678,0.000431,0.473639
109235000,0.0324,0.013523,0.002678,0.000431,0.381496
109236000,0.0324,0.013523,0.002678,0.000431,0.269962
109237000,0.0324,0.013523,0.002678,0.000431,0.273841
109238000,0.0324,0.013523,0.002678,0.000431,0.145500
109239000,0.0324,0.013523,0.002678,0.000431,0.165715
109240000,0.0324,0.013523,0.002678,0.000431,0.104600
109241000,0.0324,0.013523,0.002678,0.000431,0.471406
109242000,0.0324,0.013523,0.002678,0.000431,0.279835
109243000,0.0324,0.013523,0.002678,0.000431,0.184284
109244000,0.0324,0.013523,0.002678,0.000431,0.158193
109245000,0.0324,0.013523,0.002678,0.000431,0.149496
109246000,0.0324,0.013523,0.002678,0.000431,0.122347
109247000,0.0324,0.013523,0.002678,0.000431,0.112004
109248000,0.0324,0.013523,0.002678,0.000431,0.108596
109249000,0.0324,0.013523,0.002678,0.000431,0.090027
109250000,0.0324,0.013523,0.002678,0.000431,0.092260
109251000,0.0324,0.013523,0.002678,0.000431,0.072632
109252000,0.0324,0.013523,0.002678,0.000431,0.067344
109253000,0.0324,0.013523,0.002678,0.000431,0.058176
109254000,0.0324,0.013523,0.002678,0.000431,0.053945
109255000,0.0324,0.013523,0.002678,0.000431,0.052183
109256000,0.0324,0.013523,0.002678,0.000431,0.043133
109257000,0.0324,0.013523,0.002678,0.000431,0.046189
109258000,0.0324,0.013523,0.002678,0.000431,0.039607
109259000,0.0324,0.013523,0.002678,0.000431,0.038667
109260000,0.0324,0.013523,0.002678,0.000431,0.036551
109261000,0.0324,0.013523,0.002678,0.000431,0.030322
109262000,0.0324,0.013523,0.002678,0.000431,0.023271
109263000,0.0324,0.013523,0.002678,0.000431,0.023623
109264000,0.0324,0.013523,0.002678,0.000431,0.021508
109265000,0.0324,0.013523,0.002678,0.000431,0.016454
109266000,0.0324,0.013523,0.002678,0.000431,0.022095
109267000,0.0324,0.013523,0.002678,0.000431,0.015396
109268000,0.0324,0.013523,0.002678,0.000431,0.012458
109269000,0.0324,0.013523,0.002678,0.000431,0.014573
109270000,0.0324,0.013523,0.002678,0.000431,0.011635
109271000,0.0324,0.013523,0.002678,0.000431,0.009285
109272000,0.0324,0.013523,0.002678,0.000431,0.009402
109273000,0.0324,0.013523,0.002678,0.000431,0.009167
109274000,0.0324,0.013523,0.002678,0.000431,0.012811
109275000,0.0324,0.013523,0.002678,0.000431,0.008580
109276000,0.0324,0.013523,0.002678,0.000431,0.006347
109277000,0.0324,0.013523,0.002678,0.000431,0.007404
109278000,0.0324,0.013523,0.002678,0.000431,0.006582
109279000,0.0324,0.013523,0.002678,0.000431,0.008580
109280000,0.0324,0.013523,0.002678,0.000431,0.006229
109281000,0.0324,0.013523,0.002678,0.000431,0.007287
109282000,0.0324,0.013523,0.002678,0.000431,0.005406
109283000,0.0324,0.013523,0.002678,0.000431,0.005171
109284000,0.0324,0.013523,0.002678,0.000431,0.005171
109285000,0.0324,0.013523,0.002678,0.000431,0.005054
109286000,0.0324,0.013523,0.002678,0.000431,0.005289
109287000,0.0324,0.013523,0.002678,0.000431,0.011165
109288000,0.0324,0.013523,0.002678,0.000431,0.002468
109289000,0.0324,0.013523,0.002678,0.000431,0.002821
109290000,0.0324,0.013523,0.002678,0.000431,0.002116
109291000,0.0324,0.013523,0.002678,0.000431,0.006582
109292000,0.0324,0.013523,0.002678,0.000431,0.001763
109293000,0.0324,0.013523,0.002678,0.000431,0.001645
109294000,0.0324,0.013523,0.002678,0.000431,0.001528
109295000,0.0324,0.013523,0.002678,0.000431,0.001763
109296000,0.0324,0.013523,0.002678,0.000431,0.001763
109297000,0.0324,0.013523,0.002678,0.000431,0.001528
109298000,0.0324,0.013523,0.002678,0.000431,0.001880
109299000,0.0324,0.013523,0.002678,0.000431,0.001410
109300000,0.0324,0.013523,0.002678,0.000431,0.001880
109301000,0.0324,0.013523,0.002678,0.000431,0.001528
109302000,0.0324,0.013523,0.002678,0.000431,0.001763
109303000,0.0324,0.013523,0.002678,0.000431,0.004466
109304000,0.0324,0.013523,0.002678,0.000431,0.000823
109305000,0.0324,0.013523,0.002678,0.000431,0.000940
109306000,0.0324,0.013523,0.002678,0.000431,0.000705
109307000,0.0324,0.013523,0.002678,0.000431,0.000940
109308000,0.0324,0.013523,0.002678,0.000431,0.000705
109309000,0.0324,0.013523,0.002678,0.000431,0.000940
109310000,0.0324,0.013523,0.002678,0.000431,0.000705
109311000,0.0324,0.013523,0.002678,0.000431,0.000940
109312000,0.0324,0.013523,0.002678,0.000431,0.001410
109313000,0.0324,0.013523,0.002678,0.000431,0.478340
109314000,0.0324,0.013523,0.002678,0.000431,0.730438
109315000,0.0324,0.013523,0.002678,0.000431,0.188633
109316000,0.0324,0.013523,0.002678,0.000431,0.142679
109317000,0.0324,0.013523,0.002678,0.000431,0.211551
109318000,0.0324,0.013523,0.002678,0.000431,0.565546
109319000,0.0324,0.013523,0.002678,0.000431,0.245986
109320000,0.0324,0.013523,0.002678,0.000431,0.323438
109321000,0.0324,0.013523,0.002678,0.000431,0.185930
109322000,0.0324,0.013523,0.002678,0.000431,0.139036
109323000,0.0324,0.013523,0.002678,0.000431,0.109889
109324000,0.0324,0.013523,0.002678,0.000431,0.384435
109325000,0.0324,0.013523,0.002678,0.000431,0.373152
109326000,0.0324,0.013523,0.002678,0.000431,0.195919
109327000,0.0324,0.013523,0.002678,0.000431,0.169828
109328000,0.0324,0.013523,0.002678,0.000431,0.154432
109329000,0.0324,0.013523,0.002678,0.000431,0.123522
109330000,0.0324,0.013523,0.002678,0.000431,0.117411
109331000,0.0324,0.013523,0.002678,0.000431,0.102367
109332000,0.0324,0.013523,0.002678,0.000431,0.093787
109333000,0.0324,0.013523,0.002678,0.000431,0.077686
109334000,0.0324,0.013523,0.002678,0.000431,0.081800
109335000,0.0324,0.013523,0.002678,0.000431,0.061232
109336000,0.0324,0.013523,0.002678,0.000431,0.057941
109337000,0.0324,0.013523,0.002678,0.000431,0.048187
109338000,0.0324,0.013523,0.002678,0.000431,0.044896
109339000,0.0324,0.013523,0.002678,0.000431,0.043133
109340000,0.0324,0.013523,0.002678,0.000431,0.033613
109341000,0.0324,0.013523,0.002678,0.000431,0.032790
109342000,0.0324,0.013523,0.002678,0.000431,0.025974
109343000,0.0324,0.013523,0.002678,0.000431,0.028677
109344000,0.0324,0.013523,0.002678,0.000431,0.022330
109345000,0.0324,0.013523,0.002678,0.000431,0.021978
109346000,0.0324,0.013523,0.002678,0.000431,0.014573
109347000,0.0324,0.013523,0.002678,0.000431,0.018569
109348000,0.0324,0.013523,0.002678,0.000431,0.014691
109349000,0.0324,0.013523,0.002678,0.000431,0.012223
109350000,0.0324,0.013523,0.002678,0.000431,0.008815
109351000,0.0324,0.013523,0.002678,0.000431,0.009520
109352000,0.0324,0.013523,0.002678,0.000431,0.012340
109353000,0.0324,0.013523,0.002678,0.000431,0.007639
109354000,0.0324,0.013523,0.002678,0.000431,0.006699
109355000,0.0324,0.013523,0.002678,0.000431,0.002938
109356000,0.0324,0.013523,0.002678,0.000431,0.003173
109357000,0.0324,0.013523,0.002678,0.000431,0.003291
109358000,0.0324,0.013523,0.002678,0.000431,0.003291
109359000,0.0324,0.013523,0.002678,0.000431,0.002586
109360000,0.0324,0.013523,0.002678,0.000431,0.003643
109361000,0.0324,0.013523,0.002678,0.000431,0.003291
109362000,0.0324,0.013523,0.002678,0.000431,0.003526
109363000,0.0324,0.013523,0.002678,0.000431,0.003526
109364000,0.0324,0.013523,0.002678,0.000431,0.002938
109365000,0.0324,0.013523,0.002678,0.000431,0.003643
109366000,0.0324,0.013523,0.002678,0.000431,0.003408
109367000,0.0324,0.013523,0.002678,0.000431,0.003408
109368000,0.0324,0.013523,0.002678,0.000431,0.003291
109369000,0.0324,0.013523,0.002678,0.000431,0.003173
109370000,0.0324,0.013523,0.002678,0.000431,0.006582
109371000,0.0324,0.013523,0.002678,0.000431,0.003408
109372000,0.0324,0.013523,0.002678,0.000431,0.000940
109373000,0.0324,0.013523,0.002678,0.000431,0.000823
109374000,0.0324,0.013523,0.002678,0.000431,0.000823
109375000,0.0324,0.013523,0.002678,0.000431,0.239052
109376000,0.0324,0.013523,0.002678,0.000431,0.671321
109377000,0.0324,0.013523,0.002678,0.000431,0.459535
109378000,0.0324,0.013523,0.002678,0.000431,0.154550
109379000,0.0324,0.013523,0.002678,0.000431,0.174412
109380000,0.0324,0.013523,0.002678,0.000431,0.624192
109381000,0.0324,0.013523,0.002678,0.000431,0.241403
109382000,0.0324,0.013523,0.002678,0.000431,0.347061
109383000,0.0324,0.013523,0.002678,0.000431,0.206379
109384000,0.0324,0.013523,0.002678,0.000431,0.156665
109385000,0.0324,0.013523,0.002678,0.000431,0.111299
109386000,0.0324,0.013523,0.002678,0.000431,0.427568
109387000,0.0324,0.013523,0.002678,0.000431,0.263851
109388000,0.0324,0.013523,0.002678,0.000431,0.149848
109389000,0.0324,0.013523,0.002678,0.000431,0.133865
109390000,0.0324,0.013523,0.002678,0.000431,0.125520
109391000,0.0324,0.013523,0.002678,0.000431,0.104483
109392000,0.0324,0.013523,0.002678,0.000431,0.082035
109393000,0.0324,0.013523,0.002678,0.000431,0.082387
109394000,0.0324,0.013523,0.002678,0.000431,0.063230
109395000,0.0324,0.013523,0.002678,0.000431,0.059939
109396000,0.0324,0.013523,0.002678,0.000431,0.064993
109397000,0.0324,0.013523,0.002678,0.000431,0.055826
109398000,0.0324,0.013523,0.002678,0.000431,0.034788
109399000,0.0324,0.013523,0.002678,0.000431,0.034083
109400000,0.0324,0.013523,0.002678,0.000431,0.031145
109401000,0.0324,0.013523,0.002678,0.000431,0.030910
109402000,0.0324,0.013523,0.002678,0.000431,0.031145
109403000,0.0324,0.013523,0.002678,0.000431,0.026796
109404000,0.0324,0.013523,0.002678,0.000431,0.020215
109405000,0.0324,0.013523,0.002678,0.000431,0.019980
109406000,0.0324,0.013523,0.002678,0.000431,0.026091
109407000,0.0324,0.013523,0.002678,0.000431,0.018452
109408000,0.0324,0.013523,0.002678,0.000431,0.017747
109409000,0.0324,0.013523,0.002678,0.000431,0.017042
109410000,0.0324,0.013523,0.002678,0.000431,0.013986
109411000,0.0324,0.013523,0.002678,0.000431,0.015044
109412000,0.0324,0.013523,0.002678,0.000431,0.016336
109413000,0.0324,0.013523,0.002678,0.000431,0.013163
109414000,0.0324,0.013523,0.002678,0.000431,0.010578
109415000,0.0324,0.013523,0.002678,0.000431,0.011518
109416000,0.0324,0.013523,0.002678,0.000431,0.009872
109417000,0.0324,0.013523,0.002678,0.000431,0.011283
109418000,0.0324,0.013523,0.002678,0.000431,0.004231
109419000,0.0324,0.013523,0.002678,0.000431,0.006229
109420000,0.0324,0.013523,0.002678,0.000431,0.003761
109421000,0.0324,0.013523,0.002678,0.000431,0.003056
109422000,0.0324,0.013523,0.002678,0.000431,0.000823
109423000,0.0324,0.013523,0.002678,0.000431,0.000940
109424000,0.0324,0.013523,0.002678,0.000431,0.000940
109425000,0.0324,0.013523,0.002678,0.000431,0.220248
109426000,0.0324,0.013523,0.002678,0.000431,0.576358
109427000,0.0324,0.013523,0.002678,0.000431,0.515244
109428000,0.0324,0.013523,0.002678,0.000431,0.134452
109429000,0.0324,0.013523,0.002678,0.000431,0.135628
109430000,0.0324,0.013523,0.002678,0.000431,0.583410
109431000,0.0324,0.013523,0.002678,0.000431,0.238230
109432000,0.0324,0.013523,0.002678,0.000431,0.278072
109433000,0.0324,0.013523,0.002678,0.000431,0.272313
109434000,0.0324,0.013523,0.002678,0.000431,0.142327
109435000,0.0324,0.013523,0.002678,0.000431,0.185107
109436000,0.0324,0.013523,0.002678,0.000431,0.096608
109437000,0.0324,0.013523,0.002678,0.000431,0.509015
109438000,0.0324,0.013523,0.002678,0.000431,0.237642
109439000,0.0324,0.013523,0.002678,0.000431,0.167478
109440000,0.0324,0.013523,0.002678,0.000431,0.138096
109441000,0.0324,0.013523,0.002678,0.000431,0.119056
109442000,0.0324,0.013523,0.002678,0.000431,0.117176
109443000,0.0324,0.013523,0.002678,0.000431,0.107186
109444000,0.0324,0.013523,0.002678,0.000431,0.076746
109445000,0.0324,0.013523,0.002678,0.000431,0.072867
109446000,0.0324,0.013523,0.002678,0.000431,0.063348
109447000,0.0324,0.013523,0.002678,0.000431,0.062525
109448000,0.0324,0.013523,0.002678,0.000431,0.063113
109449000,0.0324,0.013523,0.002678,0.000431,0.055473
109450000,0.0324,0.013523,0.002678,0.000431,0.046189
109451000,0.0324,0.013523,0.002678,0.000431,0.040312
109452000,0.0324,0.013523,0.002678,0.000431,0.035023
109453000,0.0324,0.013523,0.002678,0.000431,0.033378
109454000,0.0324,0.013523,0.002678,0.000431,0.029852
109455000,0.0324,0.013523,0.002678,0.000431,0.027031
109456000,0.0324,0.013523,0.002678,0.000431,0.019157
109457000,0.0324,0.013523,0.002678,0.000431,0.018452
109458000,0.0324,0.013523,0.002678,0.000431,0.016571
109459000,0.0324,0.013523,0.002678,0.000431,0.019392
109460000,0.0324,0.013523,0.002678,0.000431,0.015749
109461000,0.0324,0.013523,0.002678,0.000431,0.015631
109462000,0.0324,0.013523,0.002678,0.000431,0.007639
109463000,0.0324,0.013523,0.002678,0.000431,0.008109
109464000,0.0324,0.013523,0.002678,0.000431,0.008932
109465000,0.0324,0.013523,0.002678,0.000431,0.007757
109466000,0.0324,0.013523,0.002678,0.000431,0.006229
109467000,0.0324,0.013523,0.002678,0.000431,0.006111
109468000,0.0324,0.013523,0.002678,0.000431,0.005759
109469000,0.0324,0.013523,0.002678,0.000431,0.006111
109470000,0.0324,0.013523,0.002678,0.000431,0.007287
109471000,0.0324,0.013523,0.002678,0.000431,0.004936
109472000,0.0324,0.013523,0.002678,0.000431,0.004819
109473000,0.0324,0.013523,0.002678,0.000431,0.005054
109474000,0.0324,0.013523,0.002678,0.000431,0.005171
109475000,0.0324,0.013523,0.002678,0.000431,0.004584
109476000,0.0324,0.013523,0.002678,0.000431,0.005171
109477000,0.0324,0.013523,0.002678,0.000431,0.009167
109478000,0.0324,0.013523,0.002678,0.000431,0.003291
109479000,0.0324,0.013523,0.002678,0.000431,0.003173
109480000,0.0324,0.013523,0.002678,0.000431,0.005994
109481000,0.0324,0.013523,0.002678,0.000431,0.001880
109482000,0.0324,0.013523,0.002678,0.000431,0.001645
109483000,0.0324,0.013523,0.002678,0.000431,0.001763
109484000,0.0324,0.013523,0.002678,0.000431,0.003878
109485000,0.0324,0.013523,0.002678,0.000431,0.000940
109486000,0.0324,0.013523,0.002678,0.000431,0.231883
109487000,0.0324,0.013523,0.002678,0.000431,0.625720
109488000,0.0324,0.013523,0.002678,0.000431,0.509367
109489000,0.0324,0.013523,0.002678,0.000431,0.136450
109490000,0.0324,0.013523,0.002678,0.000431,0.192159
109491000,0.0324,0.013523,0.002678,0.000431,0.621489
109492000,0.0324,0.013523,0.002678,0.000431,0.226477
109493000,0.0324,0.013523,0.002678,0.000431,0.281362
109494000,0.0324,0.013523,0.002678,0.000431,0.208025
109495000,0.0324,0.013523,0.002678,0.000431,0.150671
109496000,0.0324,0.013523,0.002678,0.000431,0.137626
109497000,0.0324,0.013523,0.002678,0.000431,0.243989
109498000,0.0324,0.013523,0.002678,0.000431,0.463649
109499000,0.0324,0.013523,0.002678,0.000431,0.182169
109500000,0.0324,0.013523,0.002678,0.000431,0.159956
109501000,0.0324,0.013523,0.002678,0.000431,0.142797
109502000,0.0324,0.013523,0.002678,0.000431,0.123052
109503000,0.0324,0.013523,0.002678,0.000431,0.102132
109504000,0.0324,0.013523,0.002678,0.000431,0.084620
109505000,0.0324,0.013523,0.002678,0.000431,0.076276
109506000,0.0324,0.013523,0.002678,0.000431,0.081682
109507000,0.0324,0.013523,0.002678,0.000431,0.059117
109508000,0.0324,0.013523,0.002678,0.000431,0.057824
109509000,0.0324,0.013523,0.002678,0.000431,0.055003
109510000,0.0324,0.013523,0.002678,0.000431,0.051125
109511000,0.0324,0.013523,0.002678,0.000431,0.049479
109512000,0.0324,0.013523,0.002678,0.000431,0.052770
109513000,0.0324,0.013523,0.002678,0.000431,0.037374
109514000,0.0324,0.013523,0.002678,0.000431,0.037256
109515000,0.0324,0.013523,0.002678,0.000431,0.030322
109516000,0.0324,0.013523,0.002678,0.000431,0.023741
109517000,0.0324,0.013523,0.002678,0.000431,0.021978
109518000,0.0324,0.013523,0.002678,0.000431,0.020450
109519000,0.0324,0.013523,0.002678,0.000431,0.026561
109520000,0.0324,0.013523,0.002678,0.000431,0.019275
109521000,0.0324,0.013523,0.002678,0.000431,0.013163
109522000,0.0324,0.013523,0.002678,0.000431,0.014926
109523000,0.0324,0.013523,0.002678,0.000431,0.006817
109524000,0.0324,0.013523,0.002678,0.000431,0.005289
109525000,0.0324,0.013523,0.002678,0.000431,0.001645
109526000,0.0324,0.013523,0.002678,0.000431,0.002586
109527000,0.0324,0.013523,0.002678,0.000431,0.001880
109528000,0.0324,0.013523,0.002678,0.000431,0.000940
109529000,0.0324,0.013523,0.002678,0.000431,0.000823
109530000,0.0324,0.013523,0.002678,0.000431,0.000823
109531000,0.0324,0.013523,0.002678,0.000431,0.000823
109532000,0.0324,0.013523,0.002678,0.000431,0.000823
109533000,0.0324,0.013523,0.002678,0.000431,0.000940
109534000,0.0324,0.013523,0.002678,0.000431,0.000705
109535000,0.0324,0.013523,0.002678,0.000431,0.000940
109536000,0.0324,0.013523,0.002678,0.000431,0.000823
109537000,0.0324,0.013523,0.002678,0.000431,0.000823
109538000,0.0324,0.013523,0.002678,0.000431,0.000823
109539000,0.0324,0.013523,0.002678,0.000431,0.000823
109540000,0.0324,0.013523,0.002678,0.000431,0.000823
109541000,0.0324,0.013523,0.002678,0.000431,0.000823
109542000,0.0324,0.013523,0.002678,0.000431,0.000823
109543000,0.0324,0.013523,0.002678,0.000431,0.000823
109544000,0.0324,0.013523,0.002678,0.000431,0.000940
109545000,0.0324,0.013523,0.002678,0.000431,0.000705
109546000,0.0324,0.013523,0.002678,0.000431,0.000940
109547000,0.0324,0.013523,0.002678,0.000431,0.000823
109548000,0.0324,0.013523,0.002678,0.000431,0.000823
109549000,0.0324,0.013523,0.002678,0.000431,0.000705
109550000,0.0324,0.013523,0.002678,0.000431,0.000940
109551000,0.0324,0.013523,0.002678,0.000431,0.000823
109552000,0.0324,0.013523,0.002678,0.000431,0.000823
109553000,0.0324,0.013523,0.002678,0.000431,0.000705
109554000,0.0324,0.013523,0.002678,0.000431,0.000940
109555000,0.0324,0.013523,0.002678,0.000431,0.000940
109556000,0.0324,0.013523,0.002678,0.000431,0.000705
109557000,0.0324,0.013523,0.002678,0.000431,0.164892
109558000,0.0324,0.013523,0.002678,0.000431,0.640999
109559000,0.0324,0.013523,0.002678,0.000431,0.546153
109560000,0.0324,0.013523,0.002678,0.000431,0.136920
109561000,0.0324,0.013523,0.002678,0.000431,0.141857
109562000,0.0324,0.013523,0.002678,0.000431,0.599511
109563000,0.0324,0.013523,0.002678,0.000431,0.273958
109564000,0.0324,0.013523,0.002678,0.000431,0.294643
109565000,0.0324,0.013523,0.002678,0.000431,0.232706
109566000,0.0324,0.013523,0.002678,0.000431,0.154667
109567000,0.0324,0.013523,0.002678,0.000431,0.126695
109568000,0.0324,0.013523,0.002678,0.000431,0.277719
109569000,0.0324,0.013523,0.002678,0.000431,0.461181
109570000,0.0324,0.013523,0.002678,0.000431,0.205204
109571000,0.0324,0.013523,0.002678,0.000431,0.193686
109572000,0.0324,0.013523,0.002678,0.000431,0.156430
109573000,0.0324,0.013523,0.002678,0.000431,0.138566
109574000,0.0324,0.013523,0.002678,0.000431,0.130221
109575000,0.0324,0.013523,0.002678,0.000431,0.114943
109576000,0.0324,0.013523,0.002678,0.000431,0.097431
109577000,0.0324,0.013523,0.002678,0.000431,0.102132
109578000,0.0324,0.013523,0.002678,0.000431,0.095198
109579000,0.0324,0.013523,0.002678,0.000431,0.080742
109580000,0.0324,0.013523,0.002678,0.000431,0.070164
109581000,0.0324,0.013523,0.002678,0.000431,0.065111
109582000,0.0324,0.013523,0.002678,0.000431,0.055708
109583000,0.0324,0.013523,0.002678,0.000431,0.057471
109584000,0.0324,0.013523,0.002678,0.000431,0.055238
109585000,0.0324,0.013523,0.002678,0.000431,0.055003
109586000,0.0324,0.013523,0.002678,0.000431,0.045836
109587000,0.0324,0.013523,0.002678,0.000431,0.044896
109588000,0.0324,0.013523,0.002678,0.000431,0.037491
109589000,0.0324,0.013523,0.002678,0.000431,0.029147
109590000,0.0324,0.013523,0.002678,0.000431,0.027267
109591000,0.0324,0.013523,0.002678,0.000431,0.021273
109592000,0.0324,0.013523,0.002678,0.000431,0.027619
109593000,0.0324,0.013523,0.002678,0.000431,0.015984
109594000,0.0324,0.013523,0.002678,0.000431,0.021625
109595000,0.0324,0.013523,0.002678,0.000431,0.014691
109596000,0.0324,0.013523,0.002678,0.000431,0.010813
109597000,0.0324,0.013523,0.002678,0.000431,0.008932
109598000,0.0324,0.013523,0.002678,0.000431,0.010930
109599000,0.0324,0.013523,0.002678,0.000431,0.011635
109600000,0.0324,0.013523,0.002678,0.000431,0.006699
109601000,0.0324,0.013523,0.002678,0.000431,0.006934
109602000,0.0324,0.013523,0.002678,0.000431,0.008462
109603000,0.0324,0.013523,0.002678,0.000431,0.005524
109604000,0.0324,0.013523,0.002678,0.000431,0.008227
109605000,0.0324,0.013523,0.002678,0.000431,0.007757
109606000,0.0324,0.013523,0.002678,0.000431,0.004466
109607000,0.0324,0.013523,0.002678,0.000431,0.005641
109608000,0.0324,0.013523,0.002678,0.000431,0.003526
109609000,0.0324,0.013523,0.002678,0.000431,0.005171
109610000,0.0324,0.013523,0.002678,0.000431,0.003878
109611000,0.0324,0.013523,0.002678,0.000431,0.002703
109612000,0.0324,0.013523,0.002678,0.000431,0.002116
109613000,0.0324,0.013523,0.002678,0.000431,0.002586
109614000,0.0324,0.013523,0.002678,0.000431,0.002468
109615000,0.0324,0.013523,0.002678,0.000431,0.002233
109616000,0.0324,0.013523,0.002678,0.000431,0.004113
109617000,0.0324,0.013523,0.002678,0.000431,0.001528
109618000,0.0324,0.013523,0.002678,0.000431,0.001528
109619000,0.0324,0.013523,0.002678,0.000431,0.001645
109620000,0.0324,0.013523,0.002678,0.000431,0.001645
109621000,0.0324,0.013523,0.002678,0.000431,0.001410
109622000,0.0324,0.013523,0.002678,0.000431,0.001645
109623000,0.0324,0.013523,0.002678,0.000431,0.001645
109624000,0.0324,0.013523,0.002678,0.000431,0.001645
109625000,0.0324,0.013523,0.002678,0.000431,0.001410
109626000,0.0324,0.013523,0.002678,0.000431,0.001645
109627000,0.0324,0.013523,0.002678,0.000431,0.001410
109628000,0.0324,0.013523,0.002678,0.000431,0.001645
109629000,0.0324,0.013523,0.002678,0.000431,0.001880
109630000,0.0324,0.013523,0.002678,0.000431,0.114120
109631000,0.0324,0.013523,0.002678,0.000431,0.688010
109632000,0.0324,0.013523,0.002678,0.000431,0.568366
109633000,0.0324,0.013523,0.002678,0.000431,0.137626
109634000,0.0324,0.013523,0.002678,0.000431,0.151024
109635000,0.0324,0.013523,0.002678,0.000431,0.609501
109636000,0.0324,0.013523,0.002678,0.000431,0.262911
109637000,0.0324,0.013523,0.002678,0.000431,0.323320
109638000,0.0324,0.013523,0.002678,0.000431,0.226594
109639000,0.0324,0.013523,0.002678,0.000431,0.141151
109640000,0.0324,0.013523,0.002678,0.000431,0.119409
109641000,0.0324,0.013523,0.002678,0.000431,0.340244
109642000,0.0324,0.013523,0.002678,0.000431,0.401711
109643000,0.0324,0.013523,0.002678,0.000431,0.209553
109644000,0.0324,0.013523,0.002678,0.000431,0.179466
109645000,0.0324,0.013523,0.002678,0.000431,0.146793
109646000,0.0324,0.013523,0.002678,0.000431,0.131279
109647000,0.0324,0.013523,0.002678,0.000431,0.124462
109648000,0.0324,0.013523,0.002678,0.000431,0.098841
109649000,0.0324,0.013523,0.002678,0.000431,0.099664
109650000,0.0324,0.013523,0.002678,0.000431,0.078979
109651000,0.0324,0.013523,0.002678,0.000431,0.072162
109652000,0.0324,0.013523,0.002678,0.000431,0.072280
109653000,0.0324,0.013523,0.002678,0.000431,0.066521
109654000,0.0324,0.013523,0.002678,0.000431,0.053475
109655000,0.0324,0.013523,0.002678,0.000431,0.047599
109656000,0.0324,0.013523,0.002678,0.000431,0.053123
109657000,0.0324,0.013523,0.002678,0.000431,0.037491
109658000,0.0324,0.013523,0.002678,0.000431,0.037139
109659000,0.0324,0.013523,0.002678,0.000431,0.032790
109660000,0.0324,0.013523,0.002678,0.000431,0.031733
109661000,0.0324,0.013523,0.002678,0.000431,0.039137
109662000,0.0324,0.013523,0.002678,0.000431,0.025269
109663000,0.0324,0.013523,0.002678,0.000431,0.022800
109664000,0.0324,0.013523,0.002678,0.000431,0.023036
109665000,0.0324,0.013523,0.002678,0.000431,0.021978
109666000,0.0324,0.013523,0.002678,0.000431,0.019862
109667000,0.0324,0.013523,0.002678,0.000431,0.013046
109668000,0.0324,0.013523,0.002678,0.000431,0.019040
109669000,0.0324,0.013523,0.002678,0.000431,0.010107
109670000,0.0324,0.013523,0.002678,0.000431,0.012223
109671000,0.0324,0.013523,0.002678,0.000431,0.009285
109672000,0.0324,0.013523,0.002678,0.000431,0.009402
109673000,0.0324,0.013523,0.002678,0.000431,0.009167
109674000,0.0324,0.013523,0.002678,0.000431,0.007639
109675000,0.0324,0.013523,0.002678,0.000431,0.009520
109676000,0.0324,0.013523,0.002678,0.000431,0.008815
109677000,0.0324,0.013523,0.002678,0.000431,0.008462
109678000,0.0324,0.013523,0.002678,0.000431,0.005054
109679000,0.0324,0.013523,0.002678,0.000431,0.004936
109680000,0.0324,0.013523,0.002678,0.000431,0.004819
109681000,0.0324,0.013523,0.002678,0.000431,0.008227
109682000,0.0324,0.013523,0.002678,0.000431,0.004349
109683000,0.0324,0.013523,0.002678,0.000431,0.006347
109684000,0.0324,0.013523,0.002678,0.000431,0.003291
109685000,0.0324,0.013523,0.002678,0.000431,0.005289
109686000,0.0324,0.013523,0.002678,0.000431,0.001763
109687000,0.0324,0.013523,0.002678,0.000431,0.001528
109688000,0.0324,0.013523,0.002678,0.000431,0.001645
109689000,0.0324,0.013523,0.002678,0.000431,0.001880
109690000,0.0324,0.013523,0.002678,0.000431,0.001528
109691000,0.0324,0.013523,0.002678,0.000431,0.006699
109692000,0.0324,0.013523,0.002678,0.000431,0.000940
109693000,0.0324,0.013523,0.002678,0.000431,0.000705
109694000,0.0324,0.013523,0.002678,0.000431,0.000940
109695000,0.0324,0.013523,0.002678,0.000431,0.000940
109696000,0.0324,0.013523,0.002678,0.000431,0.000705
109697000,0.0324,0.013523,0.002678,0.000431,0.000940
109698000,0.0324,0.013523,0.002678,0.000431,0.000705
109699000,0.0324,0.013523,0.002678,0.000431,0.000940
109700000,0.0324,0.013523,0.002678,0.000431,0.000940
109701000,0.0324,0.013523,0.002678,0.000431,0.000705
109702000,0.0324,0.013523,0.002678,0.000431,0.000940
109703000,0.0324,0.013523,0.002678,0.000431,0.000705
109704000,0.0324,0.013523,0.002678,0.000431,0.000940
109705000,0.0324,0.013523,0.002678,0.000431,0.000823
109706000,0.0324,0.013523,0.002678,0.000431,0.000823
109707000,0.0324,0.013523,0.002678,0.000431,0.000823
109708000,0.0324,0.013523,0.002678,0.000431,0.000823
109709000,0.0324,0.013523,0.002678,0.000431,0.000940
109710000,0.0324,0.013523,0.002678,0.000431,0.000705
109711000,0.0324,0.013523,0.002678,0.000431,0.000940
109712000,0.0324,0.013523,0.002678,0.000431,0.000705
109713000,0.0324,0.013523,0.002678,0.000431,0.000940
109714000,0.0324,0.013523,0.002678,0.000431,0.000823
109715000,0.0324,0.013523,0.002678,0.000431,0.001763
109716000,0.0324,0.013523,0.002678,0.000431,0.328726
109717000,0.0324,0.013523,0.002678,0.000431,0.718332
109718000,0.0324,0.013523,0.002678,0.000431,0.358578
109719000,0.0324,0.013523,0.002678,0.000431,0.140329
109720000,0.0324,0.013523,0.002678,0.000431,0.188633
109721000,0.0324,0.013523,0.002678,0.000431,0.626778
109722000,0.0324,0.013523,0.002678,0.000431,0.257857
109723000,0.0324,0.013523,0.002678,0.000431,0.324495
109724000,0.0324,0.013523,0.002678,0.000431,0.165362
109725000,0.0324,0.013523,0.002678,0.000431,0.162659
109726000,0.0324,0.013523,0.002678,0.000431,0.102720
109727000,0.0324,0.013523,0.002678,0.000431,0.455774
109728000,0.0324,0.013523,0.002678,0.000431,0.259502
109729000,0.0324,0.013523,0.002678,0.000431,0.171591
109730000,0.0324,0.013523,0.002678,0.000431,0.145147
109731000,0.0324,0.013523,0.002678,0.000431,0.137508
109732000,0.0324,0.013523,0.002678,0.000431,0.137038
109733000,0.0324,0.013523,0.002678,0.000431,0.104718
109734000,0.0324,0.013523,0.002678,0.000431,0.100252
109735000,0.0324,0.013523,0.002678,0.000431,0.094845
109736000,0.0324,0.013523,0.002678,0.000431,0.073338
109737000,0.0324,0.013523,0.002678,0.000431,0.066991
109738000,0.0324,0.013523,0.002678,0.000431,0.064876
109739000,0.0324,0.013523,0.002678,0.000431,0.053593
109740000,0.0324,0.013523,0.002678,0.000431,0.056296
109741000,0.0324,0.013523,0.002678,0.000431,0.051477
109742000,0.0324,0.013523,0.002678,0.000431,0.049362
109743000,0.0324,0.013523,0.002678,0.000431,0.053240
109744000,0.0324,0.013523,0.002678,0.000431,0.044073
109745000,0.0324,0.013523,0.002678,0.000431,0.035846
109746000,0.0324,0.013523,0.002678,0.000431,0.035141
109747000,0.0324,0.013523,0.002678,0.000431,0.035141
109748000,0.0324,0.013523,0.002678,0.000431,0.031145
109749000,0.0324,0.013523,0.002678,0.000431,0.027267
109750000,0.0324,0.013523,0.002678,0.000431,0.026091
109751000,0.0324,0.013523,0.002678,0.000431,0.026444
109752000,0.0324,0.013523,0.002678,0.000431,0.024798
109753000,0.0324,0.013523,0.002678,0.000431,0.021743
109754000,0.0324,0.013523,0.002678,0.000431,0.025504
109755000,0.0324,0.013523,0.002678,0.000431,0.018569
109756000,0.0324,0.013523,0.002678,0.000431,0.020215
109757000,0.0324,0.013523,0.002678,0.000431,0.014926
109758000,0.0324,0.013523,0.002678,0.000431,0.016219
109759000,0.0324,0.013523,0.002678,0.000431,0.022213
109760000,0.0324,0.013523,0.002678,0.000431,0.013751
109761000,0.0324,0.013523,0.002678,0.000431,0.010695
109762000,0.0324,0.013523,0.002678,0.000431,0.011753
109763000,0.0324,0.013523,0.002678,0.000431,0.008345
109764000,0.0324,0.013523,0.002678,0.000431,0.011988
109765000,0.0324,0.013523,0.002678,0.000431,0.009167
109766000,0.0324,0.013523,0.002678,0.000431,0.006347
109767000,0.0324,0.013523,0.002678,0.000431,0.007639
109768000,0.0324,0.013523,0.002678,0.000431,0.006699
109769000,0.0324,0.013523,0.002678,0.000431,0.004349
109770000,0.0324,0.013523,0.002678,0.000431,0.003056
109771000,0.0324,0.013523,0.002678,0.000431,0.004113
109772000,0.0324,0.013523,0.002678,0.000431,0.003761
109773000,0.0324,0.013523,0.002678,0.000431,0.003408
109774000,0.0324,0.013523,0.002678,0.000431,0.003996
109775000,0.0324,0.013523,0.002678,0.000431,0.003408
109776000,0.0324,0.013523,0.002678,0.000431,0.004231
109777000,0.0324,0.013523,0.002678,0.000431,0.003173
109778000,0.0324,0.013523,0.002678,0.000431,0.003408
109779000,0.0324,0.013523,0.002678,0.000431,0.003643
109780000,0.0324,0.013523,0.002678,0.000431,0.004819
109781000,0.0324,0.013523,0.002678,0.000431,0.000940
109782000,0.0324,0.013523,0.002678,0.000431,0.000823
109783000,0.0324,0.013523,0.002678,0.000431,0.000823
109784000,0.0324,0.013523,0.002678,0.000431,0.222481
109785000,0.0324,0.013523,0.002678,0.000431,0.584115
109786000,0.0324,0.013523,0.002678,0.000431,0.506194
109787000,0.0324,0.013523,0.002678,0.000431,0.134922
109788000,0.0324,0.013523,0.002678,0.000431,0.136920
109789000,0.0324,0.013523,0.002678,0.000431,0.593047
109790000,0.0324,0.013523,0.002678,0.000431,0.232941
109791000,0.0324,0.013523,0.002678,0.000431,0.321440
109792000,0.0324,0.013523,0.002678,0.000431,0.243636
109793000,0.0324,0.013523,0.002678,0.000431,0.149613
109794000,0.0324,0.013523,0.002678,0.000431,0.129399
109795000,0.0324,0.013523,0.002678,0.000431,0.254331
109796000,0.0324,0.013523,0.002678,0.000431,0.415697
109797000,0.0324,0.013523,0.002678,0.000431,0.153962
109798000,0.0324,0.013523,0.002678,0.000431,0.148086
109799000,0.0324,0.013523,0.002678,0.000431,0.114943
109800000,0.0324,0.013523,0.002678,0.000431,0.100957
109801000,0.0324,0.013523,0.002678,0.000431,0.098254
109802000,0.0324,0.013523,0.002678,0.000431,0.090497
109803000,0.0324,0.013523,0.002678,0.000431,0.074630
109804000,0.0324,0.013523,0.002678,0.000431,0.066168
109805000,0.0324,0.013523,0.002678,0.000431,0.056414
109806000,0.0324,0.013523,0.002678,0.000431,0.054651
109807000,0.0324,0.013523,0.002678,0.000431,0.052535
109808000,0.0324,0.013523,0.002678,0.000431,0.042428
109809000,0.0324,0.013523,0.002678,0.000431,0.045013
109810000,0.0324,0.013523,0.002678,0.000431,0.031380
109811000,0.0324,0.013523,0.002678,0.000431,0.032790
109812000,0.0324,0.013523,0.002678,0.000431,0.027854
109813000,0.0324,0.013523,0.002678,0.000431,0.016101
109814000,0.0324,0.013523,0.002678,0.000431,0.015984
109815000,0.0324,0.013523,0.002678,0.000431,0.013868
109816000,0.0324,0.013523,0.002678,0.000431,0.015866
109817000,0.0324,0.013523,0.002678,0.000431,0.011870
109818000,0.0324,0.013523,0.002678,0.000431,0.009402
109819000,0.0324,0.013523,0.002678,0.000431,0.010342
109820000,0.0324,0.013523,0.002678,0.000431,0.009637
109821000,0.0324,0.013523,0.002678,0.000431,0.015984
109822000,0.0324,0.013523,0.002678,0.000431,0.011988
109823000,0.0324,0.013523,0.002678,0.000431,0.004113
109824000,0.0324,0.013523,0.002678,0.000431,0.007169
109825000,0.0324,0.013523,0.002678,0.000431,0.003173
109826000,0.0324,0.013523,0.002678,0.000431,0.003526
109827000,0.0324,0.013523,0.002678,0.000431,0.003056
109828000,0.0324,0.013523,0.002678,0.000431,0.004936
109829000,0.0324,0.013523,0.002678,0.000431,0.002116
109830000,0.0324,0.013523,0.002678,0.000431,0.001880
109831000,0.0324,0.013523,0.002678,0.000431,0.003996
109832000,0.0324,0.013523,0.002678,0.000431,0.000823
109833000,0.0324,0.013523,0.002678,0.000431,0.000823
109834000,0.0324,0.013523,0.002678,0.000431,0.000705
109835000,0.0324,0.013523,0.002678,0.000431,0.000940
109836000,0.0324,0.013523,0.002678,0.000431,0.000940
109837000,0.0324,0.013523,0.002678,0.000431,0.000705
109838000,0.0324,0.013523,0.002678,0.000431,0.000940
109839000,0.0324,0.013523,0.002678,0.000431,0.000705
109840000,0.0324,0.013523,0.002678,0.000431,0.000940
109841000,0.0324,0.013523,0.002678,0.000431,0.000823
109842000,0.0324,0.013523,0.002678,0.000431,0.000823
109843000,0.0324,0.013523,0.002678,0.000431,0.000940
109844000,0.0324,0.013523,0.002678,0.000431,0.000705
109845000,0.0324,0.013523,0.002678,0.000431,0.000940
109846000,0.0324,0.013523,0.002678,0.000431,0.000823
109847000,0.0324,0.013523,0.002678,0.000431,0.000823
109848000,0.0324,0.013523,0.002678,0.000431,0.000823
109849000,0.0324,0.013523,0.002678,0.000431,0.000823
109850000,0.0324,0.013523,0.002678,0.000431,0.000823
109851000,0.0324,0.013523,0.002678,0.000431,0.000823
109852000,0.0324,0.013523,0.002678,0.000431,0.000940
109853000,0.0324,0.013523,0.002678,0.000431,0.000823
109854000,0.0324,0.013523,0.002678,0.000431,0.000823
109855000,0.0324,0.013523,0.002678,0.000431,0.000823
109856000,0.0324,0.013523,0.002678,0.000431,0.000823
109857000,0.0324,0.013523,0.002678,0.000431,0.000705
109858000,0.0324,0.013523,0.002678,0.000431,0.000940
109859000,0.0324,0.013523,0.002678,0.000431,0.000940
109860000,0.0324,0.013523,0.002678,0.000431,0.000705
109861000,0.0324,0.013523,0.002678,0.000431,0.000940
109862000,0.0324,0.013523,0.002678,0.000431,0.000705
109863000,0.0324,0.013523,0.002678,0.000431,0.000940
109864000,0.0324,0.013523,0.002678,0.000431,0.000823
109865000,0.0324,0.013523,0.002678,0.000431,0.000823
109866000,0.0324,0.013523,0.002678,0.000431,0.000940
109867000,0.0324,0.013523,0.002678,0.000431,0.000705
109868000,0.0324,0.013523,0.002678,0.000431,0.000940
109869000,0.0324,0.013523,0.002678,0.000431,0.000823
109870000,0.0324,0.013523,0.002678,0.000431,0.000823
109871000,0.0324,0.013523,0.002678,0.000431,0.000823
109872000,0.0324,0.013523,0.002678,0.000431,0.000823
109873000,0.0324,0.013523,0.002678,0.000431,0.000940
109874000,0.0324,0.013523,0.002678,0.000431,0.000705
109875000,0.0324,0.013523,0.002678,0.000431,0.000940
109876000,0.0324,0.013523,0.002678,0.000431,0.000705
109877000,0.0324,0.013523,0.002678,0.000431,0.000823
109878000,0.0324,0.013523,0.002678,0.000431,0.000940
109879000,0.0324,0.013523,0.002678,0.000431,0.000823
109880000,0.0324,0.013523,0.002678,0.000431,0.000823
109881000,0.0324,0.013523,0.002678,0.000431,0.000823
109882000,0.0324,0.013523,0.002678,0.000431,0.000940
109883000,0.0324,0.013523,0.002678,0.000431,0.000940
109884000,0.0324,0.013523,0.002678,0.000431,0.000940
109885000,0.0324,0.013523,0.002678,0.000431,0.000823
109886000,0.0324,0.013523,0.002678,0.000431,0.000823
109887000,0.0324,0.013523,0.002678,0.000431,0.014103
109888000,0.0324,0.013523,0.002678,0.000431,0.613380
109889000,0.0324,0.013523,0.002678,0.000431,0.596691
109890000,0.0324,0.013523,0.002678,0.000431,0.134922
109891000,0.0324,0.013523,0.002678,0.000431,0.133512
109892000,0.0324,0.013523,0.002678,0.000431,0.503256
109893000,0.0324,0.013523,0.002678,0.000431,0.256094
109894000,0.0324,0.013523,0.002678,0.000431,0.275721
109895000,0.0324,0.013523,0.002678,0.000431,0.305221
109896000,0.0324,0.013523,0.002678,0.000431,0.142679
109897000,0.0324,0.013523,0.002678,0.000431,0.151376
109898000,0.0324,0.013523,0.002678,0.000431,0.109536
109899000,0.0324,0.013523,0.002678,0.000431,0.410643
109900000,0.0324,0.013523,0.002678,0.000431,0.276074
109901000,0.0324,0.013523,0.002678,0.000431,0.164187
109902000,0.0324,0.013523,0.002678,0.000431,0.152787
109903000,0.0324,0.013523,0.002678,0.000431,0.149496
109904000,0.0324,0.013523,0.002678,0.000431,0.127871
109905000,0.0324,0.013523,0.002678,0.000431,0.119996
109906000,0.0324,0.013523,0.002678,0.000431,0.113062
109907000,0.0324,0.013523,0.002678,0.000431,0.104600
109908000,0.0324,0.013523,0.002678,0.000431,0.100252
109909000,0.0324,0.013523,0.002678,0.000431,0.079802
109910000,0.0324,0.013523,0.002678,0.000431,0.086148
109911000,0.0324,0.013523,0.002678,0.000431,0.067109
109912000,0.0324,0.013523,0.002678,0.000431,0.067931
109913000,0.0324,0.013523,0.002678,0.000431,0.066991
109914000,0.0324,0.013523,0.002678,0.000431,0.051595
109915000,0.0324,0.013523,0.002678,0.000431,0.042545
109916000,0.0324,0.013523,0.002678,0.000431,0.036904
109917000,0.0324,0.013523,0.002678,0.000431,0.035494
109918000,0.0324,0.013523,0.002678,0.000431,0.034436
109919000,0.0324,0.013523,0.002678,0.000431,0.030557
109920000,0.0324,0.013523,0.002678,0.000431,0.027149
109921000,0.0324,0.013523,0.002678,0.000431,0.022565
109922000,0.0324,0.013523,0.002678,0.000431,0.028089
109923000,0.0324,0.013523,0.002678,0.000431,0.023741
109924000,0.0324,0.013523,0.002678,0.000431,0.018334
109925000,0.0324,0.013523,0.002678,0.000431,0.017277
109926000,0.0324,0.013523,0.002678,0.000431,0.018569
109927000,0.0324,0.013523,0.002678,0.000431,0.018922
109928000,0.0324,0.013523,0.002678,0.000431,0.015279
109929000,0.0324,0.013523,0.002678,0.000431,0.015631
109930000,0.0324,0.013523,0.002678,0.000431,0.016807
109931000,0.0324,0.013523,0.002678,0.000431,0.013633
109932000,0.0324,0.013523,0.002678,0.000431,0.008815
109933000,0.0324,0.013523,0.002678,0.000431,0.010813
109934000,0.0324,0.013523,0.002678,0.000431,0.009637
109935000,0.0324,0.013523,0.002678,0.000431,0.006817
109936000,0.0324,0.013523,0.002678,0.000431,0.004936
109937000,0.0324,0.013523,0.002678,0.000431,0.006347
109938000,0.0324,0.013523,0.002678,0.000431,0.005641
109939000,0.0324,0.013523,0.002678,0.000431,0.005876
109940000,0.0324,0.013523,0.002678,0.000431,0.001645
109941000,0.0324,0.013523,0.002678,0.000431,0.001763
109942000,0.0324,0.013523,0.002678,0.000431,0.001410
109943000,0.0324,0.013523,0.002678,0.000431,0.001645
109944000,0.0324,0.013523,0.002678,0.000431,0.001645
109945000,0.0324,0.013523,0.002678,0.000431,0.001410
109946000,0.0324,0.013523,0.002678,0.000431,0.001645
109947000,0.0324,0.013523,0.002678,0.000431,0.001645
109948000,0.0324,0.013523,0.002678,0.000431,0.001410
109949000,0.0324,0.013523,0.002678,0.000431,0.001645
109950000,0.0324,0.013523,0.002678,0.000431,0.001645
109951000,0.0324,0.013523,0.002678,0.000431,0.001410
109952000,0.0324,0.013523,0.002678,0.000431,0.001880
109953000,0.0324,0.013523,0.002678,0.000431,0.001410
109954000,0.0324,0.013523,0.002678,0.000431,0.001645
109955000,0.0324,0.013523,0.002678,0.000431,0.001410
109956000,0.0324,0.013523,0.002678,0.000431,0.001645
109957000,0.0324,0.013523,0.002678,0.000431,0.001763
109958000,0.0324,0.013523,0.002678,0.000431,0.001293
109959000,0.0324,0.013523,0.002678,0.000431,0.001880
109960000,0.0324,0.013523,0.002678,0.000431,0.001410
109961000,0.0324,0.013523,0.002678,0.000431,0.001645
109962000,0.0324,0.013523,0.002678,0.000431,0.001645
109963000,0.0324,0.013523,0.002678,0.000431,0.001410
109964000,0.0324,0.013523,0.002678,0.000431,0.002938
109965000,0.0324,0.013523,0.002678,0.000431,0.276074
109966000,0.0324,0.013523,0.002678,0.000431,0.686482
109967000,0.0324,0.013523,0.002678,0.000431,0.315563
109968000,0.0324,0.013523,0.002678,0.000431,0.132572
109969000,0.0324,0.013523,0.002678,0.000431,0.133747
109970000,0.0324,0.013523,0.002678,0.000431,0.590344
109971000,0.0324,0.013523,0.002678,0.000431,0.228357
109972000,0.0324,0.013523,0.002678,0.000431,0.289354
109973000,0.0324,0.013523,0.002678,0.000431,0.234821
109974000,0.0324,0.013523,0.002678,0.000431,0.146793
109975000,0.0324,0.013523,0.002678,0.000431,0.163717
109976000,0.0324,0.013523,0.002678,0.000431,0.160191
109977000,0.0324,0.013523,0.002678,0.000431,0.517947
109978000,0.0324,0.013523,0.002678,0.000431,0.228475
109979000,0.0324,0.013523,0.002678,0.000431,0.178878
109980000,0.0324,0.013523,0.002678,0.000431,0.166185
109981000,0.0324,0.013523,0.002678,0.000431,0.155960
109982000,0.0324,0.013523,0.002678,0.000431,0.132102
109983000,0.0324,0.013523,0.002678,0.000431,0.110124
109984000,0.0324,0.013523,0.002678,0.000431,0.108831
109985000,0.0324,0.013523,0.002678,0.000431,0.096491
109986000,0.0324,0.013523,0.002678,0.000431,0.091790
109987000,0.0324,0.013523,0.002678,0.000431,0.071105
109988000,0.0324,0.013523,0.002678,0.000431,0.073690
109989000,0.0324,0.013523,0.002678,0.000431,0.074043
109990000,0.0324,0.013523,0.002678,0.000431,0.048187
109991000,0.0324,0.013523,0.002678,0.000431,0.048774
109992000,0.0324,0.013523,0.002678,0.000431,0.032320
109993000,0.0324,0.013523,0.002678,0.000431,0.041135
109994000,0.0324,0.013523,0.002678,0.000431,0.031850
109995000,0.0324,0.013523,0.002678,0.000431,0.026444
109996000,0.0324,0.013523,0.002678,0.000431,0.028677
109997000,0.0324,0.013523,0.002678,0.000431,0.018687
109998000,0.0324,0.013523,0.002678,0.000431,0.023506
109999000,0.0324,0.013523,0.002678,0.000431,0.013986
