Cycle,Area(mm^2),PeakDynamic(W),SubthresholdLeakage(W),GateLeakage(W),RunTimeDynamic(W)
94000000,0.0324,0.013523,0.002678,0.000431,0.006817
94001000,0.0324,0.013523,0.002678,0.000431,0.008345
94002000,0.0324,0.013523,0.002678,0.000431,0.001880
94003000,0.0324,0.013523,0.002678,0.000431,0.001528
94004000,0.0324,0.013523,0.002678,0.000431,0.005406
94005000,0.0324,0.013523,0.002678,0.000431,0.481513
94006000,0.0324,0.013523,0.002678,0.000431,0.751358
94007000,0.0324,0.013523,0.002678,0.000431,0.151846
94008000,0.0324,0.013523,0.002678,0.000431,0.134452
94009000,0.0324,0.013523,0.002678,0.000431,0.451073
94010000,0.0324,0.013523,0.002678,0.000431,0.332135
94011000,0.0324,0.013523,0.002678,0.000431,0.302282
94012000,0.0324,0.013523,0.002678,0.000431,0.266671
94013000,0.0324,0.013523,0.002678,0.000431,0.147850
94014000,0.0324,0.013523,0.002678,0.000431,0.184637
94015000,0.0324,0.013523,0.002678,0.000431,0.095668
94016000,0.0324,0.013523,0.002678,0.000431,0.499025
94017000,0.0324,0.013523,0.002678,0.000431,0.210023
94018000,0.0324,0.013523,0.002678,0.000431,0.158428
94019000,0.0324,0.013523,0.002678,0.000431,0.139153
94020000,0.0324,0.013523,0.002678,0.000431,0.108596
94021000,0.0324,0.013523,0.002678,0.000431,0.098959
94022000,0.0324,0.013523,0.002678,0.000431,0.087911
94023000,0.0324,0.013523,0.002678,0.000431,0.068166
94024000,0.0324,0.013523,0.002678,0.000431,0.064053
94025000,0.0324,0.013523,0.002678,0.000431,0.058294
94026000,0.0324,0.013523,0.002678,0.000431,0.052065
94027000,0.0324,0.013523,0.002678,0.000431,0.043838
94028000,0.0324,0.013523,0.002678,0.000431,0.037021
94029000,0.0324,0.013523,0.002678,0.000431,0.026914
94030000,0.0324,0.013523,0.002678,0.000431,0.027502
94031000,0.0324,0.013523,0.002678,0.000431,0.034553
94032000,0.0324,0.013523,0.002678,0.000431,0.019627
94033000,0.0324,0.013523,0.002678,0.000431,0.017512
94034000,0.0324,0.013523,0.002678,0.000431,0.015279
94035000,0.0324,0.013523,0.002678,0.000431,0.009637
94036000,0.0324,0.013523,0.002678,0.000431,0.010225
94037000,0.0324,0.013523,0.002678,0.000431,0.011048
94038000,0.0324,0.013523,0.002678,0.000431,0.010930
94039000,0.0324,0.013523,0.002678,0.000431,0.007169
94040000,0.0324,0.013523,0.002678,0.000431,0.007287
94041000,0.0324,0.013523,0.002678,0.000431,0.008109
94042000,0.0324,0.013523,0.002678,0.000431,0.006934
94043000,0.0324,0.013523,0.002678,0.000431,0.007052
94044000,0.0324,0.013523,0.002678,0.000431,0.007639
94045000,0.0324,0.013523,0.002678,0.000431,0.007287
94046000,0.0324,0.013523,0.002678,0.000431,0.007522
94047000,0.0324,0.013523,0.002678,0.000431,0.008109
94048000,0.0324,0.013523,0.002678,0.000431,0.004584
94049000,0.0324,0.013523,0.002678,0.000431,0.004819
94050000,0.0324,0.013523,0.002678,0.000431,0.005054
94051000,0.0324,0.013523,0.002678,0.000431,0.005289
94052000,0.0324,0.013523,0.002678,0.000431,0.003878
94053000,0.0324,0.013523,0.002678,0.000431,0.003643
94054000,0.0324,0.013523,0.002678,0.000431,0.004231
94055000,0.0324,0.013523,0.002678,0.000431,0.003408
94056000,0.0324,0.013523,0.002678,0.000431,0.003996
94057000,0.0324,0.013523,0.002678,0.000431,0.003878
94058000,0.0324,0.013523,0.002678,0.000431,0.004936
94059000,0.0324,0.013523,0.002678,0.000431,0.002703
94060000,0.0324,0.013523,0.002678,0.000431,0.003996
94061000,0.0324,0.013523,0.002678,0.000431,0.001763
94062000,0.0324,0.013523,0.002678,0.000431,0.001880
94063000,0.0324,0.013523,0.002678,0.000431,0.001763
94064000,0.0324,0.013523,0.002678,0.000431,0.003291
94065000,0.0324,0.013523,0.002678,0.000431,0.002586
94066000,0.0324,0.013523,0.002678,0.000431,0.000940
94067000,0.0324,0.013523,0.002678,0.000431,0.000823
94068000,0.0324,0.013523,0.002678,0.000431,0.072867
94069000,0.0324,0.013523,0.002678,0.000431,0.672849
94070000,0.0324,0.013523,0.002678,0.000431,0.564958
94071000,0.0324,0.013523,0.002678,0.000431,0.132572
94072000,0.0324,0.013523,0.002678,0.000431,0.134922
94073000,0.0324,0.013523,0.002678,0.000431,0.578944
94074000,0.0324,0.013523,0.002678,0.000431,0.237760
94075000,0.0324,0.013523,0.002678,0.000431,0.309452
94076000,0.0324,0.013523,0.002678,0.000431,0.245634
94077000,0.0324,0.013523,0.002678,0.000431,0.157723
94078000,0.0324,0.013523,0.002678,0.000431,0.134570
94079000,0.0324,0.013523,0.002678,0.000431,0.243401
94080000,0.0324,0.013523,0.002678,0.000431,0.464589
94081000,0.0324,0.013523,0.002678,0.000431,0.187222
94082000,0.0324,0.013523,0.002678,0.000431,0.174999
94083000,0.0324,0.013523,0.002678,0.000431,0.147733
94084000,0.0324,0.013523,0.002678,0.000431,0.133982
94085000,0.0324,0.013523,0.002678,0.000431,0.116941
94086000,0.0324,0.013523,0.002678,0.000431,0.098136
94087000,0.0324,0.013523,0.002678,0.000431,0.082270
94088000,0.0324,0.013523,0.002678,0.000431,0.072750
94089000,0.0324,0.013523,0.002678,0.000431,0.075336
94090000,0.0324,0.013523,0.002678,0.000431,0.052535
94091000,0.0324,0.013523,0.002678,0.000431,0.051242
94092000,0.0324,0.013523,0.002678,0.000431,0.046659
94093000,0.0324,0.013523,0.002678,0.000431,0.037609
94094000,0.0324,0.013523,0.002678,0.000431,0.032438
94095000,0.0324,0.013523,0.002678,0.000431,0.027384
94096000,0.0324,0.013523,0.002678,0.000431,0.019157
94097000,0.0324,0.013523,0.002678,0.000431,0.022095
94098000,0.0324,0.013523,0.002678,0.000431,0.012693
94099000,0.0324,0.013523,0.002678,0.000431,0.014926
94100000,0.0324,0.013523,0.002678,0.000431,0.014221
94101000,0.0324,0.013523,0.002678,0.000431,0.020685
94102000,0.0324,0.013523,0.002678,0.000431,0.011165
94103000,0.0324,0.013523,0.002678,0.000431,0.007757
94104000,0.0324,0.013523,0.002678,0.000431,0.006699
94105000,0.0324,0.013523,0.002678,0.000431,0.004701
94106000,0.0324,0.013523,0.002678,0.000431,0.002468
94107000,0.0324,0.013523,0.002678,0.000431,0.006699
94108000,0.0324,0.013523,0.002678,0.000431,0.001058
94109000,0.0324,0.013523,0.002678,0.000431,0.000823
94110000,0.0324,0.013523,0.002678,0.000431,0.000823
94111000,0.0324,0.013523,0.002678,0.000431,0.000823
94112000,0.0324,0.013523,0.002678,0.000431,0.000823
94113000,0.0324,0.013523,0.002678,0.000431,0.000940
94114000,0.0324,0.013523,0.002678,0.000431,0.000705
94115000,0.0324,0.013523,0.002678,0.000431,0.072515
94116000,0.0324,0.013523,0.002678,0.000431,0.668148
94117000,0.0324,0.013523,0.002678,0.000431,0.592107
94118000,0.0324,0.013523,0.002678,0.000431,0.133747
94119000,0.0324,0.013523,0.002678,0.000431,0.133512
94120000,0.0324,0.013523,0.002678,0.000431,0.528524
94121000,0.0324,0.013523,0.002678,0.000431,0.248102
94122000,0.0324,0.013523,0.002678,0.000431,0.268082
94123000,0.0324,0.013523,0.002678,0.000431,0.274898
94124000,0.0324,0.013523,0.002678,0.000431,0.151494
94125000,0.0324,0.013523,0.002678,0.000431,0.175940
94126000,0.0324,0.013523,0.002678,0.000431,0.095198
94127000,0.0324,0.013523,0.002678,0.000431,0.515714
94128000,0.0324,0.013523,0.002678,0.000431,0.240580
94129000,0.0324,0.013523,0.002678,0.000431,0.177703
94130000,0.0324,0.013523,0.002678,0.000431,0.167478
94131000,0.0324,0.013523,0.002678,0.000431,0.150083
94132000,0.0324,0.013523,0.002678,0.000431,0.127636
94133000,0.0324,0.013523,0.002678,0.000431,0.121172
94134000,0.0324,0.013523,0.002678,0.000431,0.077569
94135000,0.0324,0.013523,0.002678,0.000431,0.075571
94136000,0.0324,0.013523,0.002678,0.000431,0.068401
94137000,0.0324,0.013523,0.002678,0.000431,0.057706
94138000,0.0324,0.013523,0.002678,0.000431,0.058647
94139000,0.0324,0.013523,0.002678,0.000431,0.044543
94140000,0.0324,0.013523,0.002678,0.000431,0.045483
94141000,0.0324,0.013523,0.002678,0.000431,0.040077
94142000,0.0324,0.013523,0.002678,0.000431,0.039019
94143000,0.0324,0.013523,0.002678,0.000431,0.034083
94144000,0.0324,0.013523,0.002678,0.000431,0.033731
94145000,0.0324,0.013523,0.002678,0.000431,0.030322
94146000,0.0324,0.013523,0.002678,0.000431,0.029382
94147000,0.0324,0.013523,0.002678,0.000431,0.029147
94148000,0.0324,0.013523,0.002678,0.000431,0.030675
94149000,0.0324,0.013523,0.002678,0.000431,0.019862
94150000,0.0324,0.013523,0.002678,0.000431,0.021273
94151000,0.0324,0.013523,0.002678,0.000431,0.016924
94152000,0.0324,0.013523,0.002678,0.000431,0.017042
94153000,0.0324,0.013523,0.002678,0.000431,0.014926
94154000,0.0324,0.013523,0.002678,0.000431,0.013516
94155000,0.0324,0.013523,0.002678,0.000431,0.015161
94156000,0.0324,0.013523,0.002678,0.000431,0.015396
94157000,0.0324,0.013523,0.002678,0.000431,0.012576
94158000,0.0324,0.013523,0.002678,0.000431,0.013516
94159000,0.0324,0.013523,0.002678,0.000431,0.012105
94160000,0.0324,0.013523,0.002678,0.000431,0.013398
94161000,0.0324,0.013523,0.002678,0.000431,0.012576
94162000,0.0324,0.013523,0.002678,0.000431,0.011870
94163000,0.0324,0.013523,0.002678,0.000431,0.011283
94164000,0.0324,0.013523,0.002678,0.000431,0.009872
94165000,0.0324,0.013523,0.002678,0.000431,0.008580
94166000,0.0324,0.013523,0.002678,0.000431,0.007052
94167000,0.0324,0.013523,0.002678,0.000431,0.006111
94168000,0.0324,0.013523,0.002678,0.000431,0.005759
94169000,0.0324,0.013523,0.002678,0.000431,0.007287
94170000,0.0324,0.013523,0.002678,0.000431,0.007052
94171000,0.0324,0.013523,0.002678,0.000431,0.004231
94172000,0.0324,0.013523,0.002678,0.000431,0.004701
94173000,0.0324,0.013523,0.002678,0.000431,0.003878
94174000,0.0324,0.013523,0.002678,0.000431,0.004466
94175000,0.0324,0.013523,0.002678,0.000431,0.004231
94176000,0.0324,0.013523,0.002678,0.000431,0.006111
94177000,0.0324,0.013523,0.002678,0.000431,0.005876
94178000,0.0324,0.013523,0.002678,0.000431,0.003291
94179000,0.0324,0.013523,0.002678,0.000431,0.003526
94180000,0.0324,0.013523,0.002678,0.000431,0.003291
94181000,0.0324,0.013523,0.002678,0.000431,0.003291
94182000,0.0324,0.013523,0.002678,0.000431,0.003761
94183000,0.0324,0.013523,0.002678,0.000431,0.003291
94184000,0.0324,0.013523,0.002678,0.000431,0.003291
94185000,0.0324,0.013523,0.002678,0.000431,0.003408
94186000,0.0324,0.013523,0.002678,0.000431,0.003173
94187000,0.0324,0.013523,0.002678,0.000431,0.003643
94188000,0.0324,0.013523,0.002678,0.000431,0.003291
94189000,0.0324,0.013523,0.002678,0.000431,0.003291
94190000,0.0324,0.013523,0.002678,0.000431,0.003643
94191000,0.0324,0.013523,0.002678,0.000431,0.002938
94192000,0.0324,0.013523,0.002678,0.000431,0.003761
94193000,0.0324,0.013523,0.002678,0.000431,0.003291
94194000,0.0324,0.013523,0.002678,0.000431,0.003408
94195000,0.0324,0.013523,0.002678,0.000431,0.003526
94196000,0.0324,0.013523,0.002678,0.000431,0.003056
94197000,0.0324,0.013523,0.002678,0.000431,0.003643
94198000,0.0324,0.013523,0.002678,0.000431,0.003408
94199000,0.0324,0.013523,0.002678,0.000431,0.003408
94200000,0.0324,0.013523,0.002678,0.000431,0.003408
94201000,0.0324,0.013523,0.002678,0.000431,0.003526
94202000,0.0324,0.013523,0.002678,0.000431,0.003408
94203000,0.0324,0.013523,0.002678,0.000431,0.003173
94204000,0.0324,0.013523,0.002678,0.000431,0.003291
94205000,0.0324,0.013523,0.002678,0.000431,0.003761
94206000,0.0324,0.013523,0.002678,0.000431,0.003526
94207000,0.0324,0.013523,0.002678,0.000431,0.003056
94208000,0.0324,0.013523,0.002678,0.000431,0.003761
94209000,0.0324,0.013523,0.002678,0.000431,0.003056
94210000,0.0324,0.013523,0.002678,0.000431,0.003761
94211000,0.0324,0.013523,0.002678,0.000431,0.006347
94212000,0.0324,0.013523,0.002678,0.000431,0.002468
94213000,0.0324,0.013523,0.002678,0.000431,0.002821
94214000,0.0324,0.013523,0.002678,0.000431,0.002116
94215000,0.0324,0.013523,0.002678,0.000431,0.002821
94216000,0.0324,0.013523,0.002678,0.000431,0.002468
94217000,0.0324,0.013523,0.002678,0.000431,0.002468
94218000,0.0324,0.013523,0.002678,0.000431,0.002703
94219000,0.0324,0.013523,0.002678,0.000431,0.003291
94220000,0.0324,0.013523,0.002678,0.000431,0.002351
94221000,0.0324,0.013523,0.002678,0.000431,0.001763
94222000,0.0324,0.013523,0.002678,0.000431,0.001763
94223000,0.0324,0.013523,0.002678,0.000431,0.001410
94224000,0.0324,0.013523,0.002678,0.000431,0.001645
94225000,0.0324,0.013523,0.002678,0.000431,0.001880
94226000,0.0324,0.013523,0.002678,0.000431,0.001645
94227000,0.0324,0.013523,0.002678,0.000431,0.001410
94228000,0.0324,0.013523,0.002678,0.000431,0.001880
94229000,0.0324,0.013523,0.002678,0.000431,0.204029
94230000,0.0324,0.013523,0.002678,0.000431,0.628071
94231000,0.0324,0.013523,0.002678,0.000431,0.532990
94232000,0.0324,0.013523,0.002678,0.000431,0.147850
94233000,0.0324,0.013523,0.002678,0.000431,0.171709
94234000,0.0324,0.013523,0.002678,0.000431,0.602097
94235000,0.0324,0.013523,0.002678,0.000431,0.277719
94236000,0.0324,0.013523,0.002678,0.000431,0.327786
94237000,0.0324,0.013523,0.002678,0.000431,0.192041
94238000,0.0324,0.013523,0.002678,0.000431,0.163717
94239000,0.0324,0.013523,0.002678,0.000431,0.116353
94240000,0.0324,0.013523,0.002678,0.000431,0.451896
94241000,0.0324,0.013523,0.002678,0.000431,0.320029
94242000,0.0324,0.013523,0.002678,0.000431,0.208613
94243000,0.0324,0.013523,0.002678,0.000431,0.196742
94244000,0.0324,0.013523,0.002678,0.000431,0.166772
94245000,0.0324,0.013523,0.002678,0.000431,0.151846
94246000,0.0324,0.013523,0.002678,0.000431,0.136685
94247000,0.0324,0.013523,0.002678,0.000431,0.119056
94248000,0.0324,0.013523,0.002678,0.000431,0.101192
94249000,0.0324,0.013523,0.002678,0.000431,0.090262
94250000,0.0324,0.013523,0.002678,0.000431,0.066286
94251000,0.0324,0.013523,0.002678,0.000431,0.063583
94252000,0.0324,0.013523,0.002678,0.000431,0.048069
94253000,0.0324,0.013523,0.002678,0.000431,0.048539
94254000,0.0324,0.013523,0.002678,0.000431,0.031733
94255000,0.0324,0.013523,0.002678,0.000431,0.033613
94256000,0.0324,0.013523,0.002678,0.000431,0.026796
94257000,0.0324,0.013523,0.002678,0.000431,0.020920
94258000,0.0324,0.013523,0.002678,0.000431,0.022918
94259000,0.0324,0.013523,0.002678,0.000431,0.021743
94260000,0.0324,0.013523,0.002678,0.000431,0.011518
94261000,0.0324,0.013523,0.002678,0.000431,0.014809
94262000,0.0324,0.013523,0.002678,0.000431,0.010460
94263000,0.0324,0.013523,0.002678,0.000431,0.010342
94264000,0.0324,0.013523,0.002678,0.000431,0.007992
94265000,0.0324,0.013523,0.002678,0.000431,0.009872
94266000,0.0324,0.013523,0.002678,0.000431,0.007052
94267000,0.0324,0.013523,0.002678,0.000431,0.008227
94268000,0.0324,0.013523,0.002678,0.000431,0.005876
94269000,0.0324,0.013523,0.002678,0.000431,0.005994
94270000,0.0324,0.013523,0.002678,0.000431,0.006111
94271000,0.0324,0.013523,0.002678,0.000431,0.007639
94272000,0.0324,0.013523,0.002678,0.000431,0.004819
94273000,0.0324,0.013523,0.002678,0.000431,0.006347
94274000,0.0324,0.013523,0.002678,0.000431,0.004349
94275000,0.0324,0.013523,0.002678,0.000431,0.004466
94276000,0.0324,0.013523,0.002678,0.000431,0.003996
94277000,0.0324,0.013523,0.002678,0.000431,0.004466
94278000,0.0324,0.013523,0.002678,0.000431,0.004231
94279000,0.0324,0.013523,0.002678,0.000431,0.007639
94280000,0.0324,0.013523,0.002678,0.000431,0.001880
94281000,0.0324,0.013523,0.002678,0.000431,0.001645
94282000,0.0324,0.013523,0.002678,0.000431,0.001880
94283000,0.0324,0.013523,0.002678,0.000431,0.001763
94284000,0.0324,0.013523,0.002678,0.000431,0.001645
94285000,0.0324,0.013523,0.002678,0.000431,0.001645
94286000,0.0324,0.013523,0.002678,0.000431,0.001763
94287000,0.0324,0.013523,0.002678,0.000431,0.001645
94288000,0.0324,0.013523,0.002678,0.000431,0.001763
94289000,0.0324,0.013523,0.002678,0.000431,0.001763
94290000,0.0324,0.013523,0.002678,0.000431,0.001645
94291000,0.0324,0.013523,0.002678,0.000431,0.002703
94292000,0.0324,0.013523,0.002678,0.000431,0.001998
94293000,0.0324,0.013523,0.002678,0.000431,0.000823
94294000,0.0324,0.013523,0.002678,0.000431,0.000705
94295000,0.0324,0.013523,0.002678,0.000431,0.001058
94296000,0.0324,0.013523,0.002678,0.000431,0.000823
94297000,0.0324,0.013523,0.002678,0.000431,0.000940
94298000,0.0324,0.013523,0.002678,0.000431,0.000940
94299000,0.0324,0.013523,0.002678,0.000431,0.000705
94300000,0.0324,0.013523,0.002678,0.000431,0.000940
94301000,0.0324,0.013523,0.002678,0.000431,0.000823
94302000,0.0324,0.013523,0.002678,0.000431,0.057941
94303000,0.0324,0.013523,0.002678,0.000431,0.696825
94304000,0.0324,0.013523,0.002678,0.000431,0.576593
94305000,0.0324,0.013523,0.002678,0.000431,0.150906
94306000,0.0324,0.013523,0.002678,0.000431,0.153844
94307000,0.0324,0.013523,0.002678,0.000431,0.612792
94308000,0.0324,0.013523,0.002678,0.000431,0.298757
94309000,0.0324,0.013523,0.002678,0.000431,0.312037
94310000,0.0324,0.013523,0.002678,0.000431,0.197565
94311000,0.0324,0.013523,0.002678,0.000431,0.176410
94312000,0.0324,0.013523,0.002678,0.000431,0.093435
94313000,0.0324,0.013523,0.002678,0.000431,0.482101
94314000,0.0324,0.013523,0.002678,0.000431,0.219543
94315000,0.0324,0.013523,0.002678,0.000431,0.148556
94316000,0.0324,0.013523,0.002678,0.000431,0.128458
94317000,0.0324,0.013523,0.002678,0.000431,0.124462
94318000,0.0324,0.013523,0.002678,0.000431,0.093552
94319000,0.0324,0.013523,0.002678,0.000431,0.088499
94320000,0.0324,0.013523,0.002678,0.000431,0.072632
94321000,0.0324,0.013523,0.002678,0.000431,0.062643
94322000,0.0324,0.013523,0.002678,0.000431,0.063583
94323000,0.0324,0.013523,0.002678,0.000431,0.050655
94324000,0.0324,0.013523,0.002678,0.000431,0.048069
94325000,0.0324,0.013523,0.002678,0.000431,0.044661
94326000,0.0324,0.013523,0.002678,0.000431,0.039960
94327000,0.0324,0.013523,0.002678,0.000431,0.029500
94328000,0.0324,0.013523,0.002678,0.000431,0.026326
94329000,0.0324,0.013523,0.002678,0.000431,0.021978
94330000,0.0324,0.013523,0.002678,0.000431,0.024211
94331000,0.0324,0.013523,0.002678,0.000431,0.020920
94332000,0.0324,0.013523,0.002678,0.000431,0.021860
94333000,0.0324,0.013523,0.002678,0.000431,0.016336
94334000,0.0324,0.013523,0.002678,0.000431,0.015749
94335000,0.0324,0.013523,0.002678,0.000431,0.016571
94336000,0.0324,0.013523,0.002678,0.000431,0.019980
94337000,0.0324,0.013523,0.002678,0.000431,0.011283
94338000,0.0324,0.013523,0.002678,0.000431,0.011870
94339000,0.0324,0.013523,0.002678,0.000431,0.008109
94340000,0.0324,0.013523,0.002678,0.000431,0.007169
94341000,0.0324,0.013523,0.002678,0.000431,0.008109
94342000,0.0324,0.013523,0.002678,0.000431,0.007992
94343000,0.0324,0.013523,0.002678,0.000431,0.006817
94344000,0.0324,0.013523,0.002678,0.000431,0.008580
94345000,0.0324,0.013523,0.002678,0.000431,0.005524
94346000,0.0324,0.013523,0.002678,0.000431,0.005876
94347000,0.0324,0.013523,0.002678,0.000431,0.007992
94348000,0.0324,0.013523,0.002678,0.000431,0.005406
94349000,0.0324,0.013523,0.002678,0.000431,0.006934
94350000,0.0324,0.013523,0.002678,0.000431,0.004466
94351000,0.0324,0.013523,0.002678,0.000431,0.003878
94352000,0.0324,0.013523,0.002678,0.000431,0.004584
94353000,0.0324,0.013523,0.002678,0.000431,0.003996
94354000,0.0324,0.013523,0.002678,0.000431,0.004231
94355000,0.0324,0.013523,0.002678,0.000431,0.004231
94356000,0.0324,0.013523,0.002678,0.000431,0.004231
94357000,0.0324,0.013523,0.002678,0.000431,0.004231
94358000,0.0324,0.013523,0.002678,0.000431,0.004113
94359000,0.0324,0.013523,0.002678,0.000431,0.004466
94360000,0.0324,0.013523,0.002678,0.000431,0.003878
94361000,0.0324,0.013523,0.002678,0.000431,0.003996
94362000,0.0324,0.013523,0.002678,0.000431,0.003996
94363000,0.0324,0.013523,0.002678,0.000431,0.003761
94364000,0.0324,0.013523,0.002678,0.000431,0.003761
94365000,0.0324,0.013523,0.002678,0.000431,0.003643
94366000,0.0324,0.013523,0.002678,0.000431,0.003878
94367000,0.0324,0.013523,0.002678,0.000431,0.003526
94368000,0.0324,0.013523,0.002678,0.000431,0.003408
94369000,0.0324,0.013523,0.002678,0.000431,0.004231
94370000,0.0324,0.013523,0.002678,0.000431,0.003526
94371000,0.0324,0.013523,0.002678,0.000431,0.002468
94372000,0.0324,0.013523,0.002678,0.000431,0.004113
94373000,0.0324,0.013523,0.002678,0.000431,0.002586
94374000,0.0324,0.013523,0.002678,0.000431,0.000823
94375000,0.0324,0.013523,0.002678,0.000431,0.000940
94376000,0.0324,0.013523,0.002678,0.000431,0.000705
94377000,0.0324,0.013523,0.002678,0.000431,0.000940
94378000,0.0324,0.013523,0.002678,0.000431,0.000823
94379000,0.0324,0.013523,0.002678,0.000431,0.000823
94380000,0.0324,0.013523,0.002678,0.000431,0.000940
94381000,0.0324,0.013523,0.002678,0.000431,0.003056
94382000,0.0324,0.013523,0.002678,0.000431,0.466822
94383000,0.0324,0.013523,0.002678,0.000431,0.745716
94384000,0.0324,0.013523,0.002678,0.000431,0.140094
94385000,0.0324,0.013523,0.002678,0.000431,0.140446
94386000,0.0324,0.013523,0.002678,0.000431,0.252098
94387000,0.0324,0.013523,0.002678,0.000431,0.525469
94388000,0.0324,0.013523,0.002678,0.000431,0.239757
94389000,0.0324,0.013523,0.002678,0.000431,0.365630
94390000,0.0324,0.013523,0.002678,0.000431,0.169123
94391000,0.0324,0.013523,0.002678,0.000431,0.149966
94392000,0.0324,0.013523,0.002678,0.000431,0.104012
94393000,0.0324,0.013523,0.002678,0.000431,0.420281
94394000,0.0324,0.013523,0.002678,0.000431,0.288297
94395000,0.0324,0.013523,0.002678,0.000431,0.167948
94396000,0.0324,0.013523,0.002678,0.000431,0.129399
94397000,0.0324,0.013523,0.002678,0.000431,0.115413
94398000,0.0324,0.013523,0.002678,0.000431,0.096726
94399000,0.0324,0.013523,0.002678,0.000431,0.083327
94400000,0.0324,0.013523,0.002678,0.000431,0.082975
94401000,0.0324,0.013523,0.002678,0.000431,0.067109
94402000,0.0324,0.013523,0.002678,0.000431,0.064876
94403000,0.0324,0.013523,0.002678,0.000431,0.059704
94404000,0.0324,0.013523,0.002678,0.000431,0.048657
94405000,0.0324,0.013523,0.002678,0.000431,0.047951
94406000,0.0324,0.013523,0.002678,0.000431,0.042545
94407000,0.0324,0.013523,0.002678,0.000431,0.036786
94408000,0.0324,0.013523,0.002678,0.000431,0.033143
94409000,0.0324,0.013523,0.002678,0.000431,0.042428
94410000,0.0324,0.013523,0.002678,0.000431,0.037727
94411000,0.0324,0.013523,0.002678,0.000431,0.030792
94412000,0.0324,0.013523,0.002678,0.000431,0.026209
94413000,0.0324,0.013523,0.002678,0.000431,0.019627
94414000,0.0324,0.013523,0.002678,0.000431,0.017629
94415000,0.0324,0.013523,0.002678,0.000431,0.019040
94416000,0.0324,0.013523,0.002678,0.000431,0.014809
94417000,0.0324,0.013523,0.002678,0.000431,0.013986
94418000,0.0324,0.013523,0.002678,0.000431,0.013163
94419000,0.0324,0.013523,0.002678,0.000431,0.015631
94420000,0.0324,0.013523,0.002678,0.000431,0.013516
94421000,0.0324,0.013523,0.002678,0.000431,0.013046
94422000,0.0324,0.013523,0.002678,0.000431,0.012223
94423000,0.0324,0.013523,0.002678,0.000431,0.010813
94424000,0.0324,0.013523,0.002678,0.000431,0.011753
94425000,0.0324,0.013523,0.002678,0.000431,0.006464
94426000,0.0324,0.013523,0.002678,0.000431,0.006111
94427000,0.0324,0.013523,0.002678,0.000431,0.008227
94428000,0.0324,0.013523,0.002678,0.000431,0.007052
94429000,0.0324,0.013523,0.002678,0.000431,0.005524
94430000,0.0324,0.013523,0.002678,0.000431,0.005406
94431000,0.0324,0.013523,0.002678,0.000431,0.002821
94432000,0.0324,0.013523,0.002678,0.000431,0.002468
94433000,0.0324,0.013523,0.002678,0.000431,0.002468
94434000,0.0324,0.013523,0.002678,0.000431,0.002703
94435000,0.0324,0.013523,0.002678,0.000431,0.003291
94436000,0.0324,0.013523,0.002678,0.000431,0.249512
94437000,0.0324,0.013523,0.002678,0.000431,0.657100
94438000,0.0324,0.013523,0.002678,0.000431,0.423689
94439000,0.0324,0.013523,0.002678,0.000431,0.135863
94440000,0.0324,0.013523,0.002678,0.000431,0.182169
94441000,0.0324,0.013523,0.002678,0.000431,0.640411
94442000,0.0324,0.013523,0.002678,0.000431,0.233764
94443000,0.0324,0.013523,0.002678,0.000431,0.315328
94444000,0.0324,0.013523,0.002678,0.000431,0.206379
94445000,0.0324,0.013523,0.002678,0.000431,0.157488
94446000,0.0324,0.013523,0.002678,0.000431,0.104835
94447000,0.0324,0.013523,0.002678,0.000431,0.362574
94448000,0.0324,0.013523,0.002678,0.000431,0.380674
94449000,0.0324,0.013523,0.002678,0.000431,0.203089
94450000,0.0324,0.013523,0.002678,0.000431,0.173119
94451000,0.0324,0.013523,0.002678,0.000431,0.145030
94452000,0.0324,0.013523,0.002678,0.000431,0.129281
94453000,0.0324,0.013523,0.002678,0.000431,0.108243
94454000,0.0324,0.013523,0.002678,0.000431,0.097666
94455000,0.0324,0.013523,0.002678,0.000431,0.071575
94456000,0.0324,0.013523,0.002678,0.000431,0.069224
94457000,0.0324,0.013523,0.002678,0.000431,0.066874
94458000,0.0324,0.013523,0.002678,0.000431,0.057354
94459000,0.0324,0.013523,0.002678,0.000431,0.063583
94460000,0.0324,0.013523,0.002678,0.000431,0.042193
94461000,0.0324,0.013523,0.002678,0.000431,0.031262
94462000,0.0324,0.013523,0.002678,0.000431,0.029382
94463000,0.0324,0.013523,0.002678,0.000431,0.025269
94464000,0.0324,0.013523,0.002678,0.000431,0.019157
94465000,0.0324,0.013523,0.002678,0.000431,0.023271
94466000,0.0324,0.013523,0.002678,0.000431,0.013046
94467000,0.0324,0.013523,0.002678,0.000431,0.019275
94468000,0.0324,0.013523,0.002678,0.000431,0.013046
94469000,0.0324,0.013523,0.002678,0.000431,0.009755
94470000,0.0324,0.013523,0.002678,0.000431,0.006111
94471000,0.0324,0.013523,0.002678,0.000431,0.007169
94472000,0.0324,0.013523,0.002678,0.000431,0.008580
94473000,0.0324,0.013523,0.002678,0.000431,0.004231
94474000,0.0324,0.013523,0.002678,0.000431,0.003996
94475000,0.0324,0.013523,0.002678,0.000431,0.004349
94476000,0.0324,0.013523,0.002678,0.000431,0.004584
94477000,0.0324,0.013523,0.002678,0.000431,0.004466
94478000,0.0324,0.013523,0.002678,0.000431,0.003996
94479000,0.0324,0.013523,0.002678,0.000431,0.004466
94480000,0.0324,0.013523,0.002678,0.000431,0.004349
94481000,0.0324,0.013523,0.002678,0.000431,0.004349
94482000,0.0324,0.013523,0.002678,0.000431,0.004231
94483000,0.0324,0.013523,0.002678,0.000431,0.004466
94484000,0.0324,0.013523,0.002678,0.000431,0.006817
94485000,0.0324,0.013523,0.002678,0.000431,0.003173
94486000,0.0324,0.013523,0.002678,0.000431,0.003526
94487000,0.0324,0.013523,0.002678,0.000431,0.004113
94488000,0.0324,0.013523,0.002678,0.000431,0.003408
94489000,0.0324,0.013523,0.002678,0.000431,0.002468
94490000,0.0324,0.013523,0.002678,0.000431,0.002703
94491000,0.0324,0.013523,0.002678,0.000431,0.002703
94492000,0.0324,0.013523,0.002678,0.000431,0.002351
94493000,0.0324,0.013523,0.002678,0.000431,0.002821
94494000,0.0324,0.013523,0.002678,0.000431,0.002468
94495000,0.0324,0.013523,0.002678,0.000431,0.002703
94496000,0.0324,0.013523,0.002678,0.000431,0.002703
94497000,0.0324,0.013523,0.002678,0.000431,0.004466
94498000,0.0324,0.013523,0.002678,0.000431,0.001645
94499000,0.0324,0.013523,0.002678,0.000431,0.001645
94500000,0.0324,0.013523,0.002678,0.000431,0.001880
94501000,0.0324,0.013523,0.002678,0.000431,0.003056
94502000,0.0324,0.013523,0.002678,0.000431,0.000823
94503000,0.0324,0.013523,0.002678,0.000431,0.000823
94504000,0.0324,0.013523,0.002678,0.000431,0.000823
94505000,0.0324,0.013523,0.002678,0.000431,0.000823
94506000,0.0324,0.013523,0.002678,0.000431,0.000823
94507000,0.0324,0.013523,0.002678,0.000431,0.000823
94508000,0.0324,0.013523,0.002678,0.000431,0.000823
94509000,0.0324,0.013523,0.002678,0.000431,0.000823
94510000,0.0324,0.013523,0.002678,0.000431,0.000823
94511000,0.0324,0.013523,0.002678,0.000431,0.000940
94512000,0.0324,0.013523,0.002678,0.000431,0.000823
94513000,0.0324,0.013523,0.002678,0.000431,0.000823
94514000,0.0324,0.013523,0.002678,0.000431,0.000705
94515000,0.0324,0.013523,0.002678,0.000431,0.000940
94516000,0.0324,0.013523,0.002678,0.000431,0.002233
94517000,0.0324,0.013523,0.002678,0.000431,0.372682
94518000,0.0324,0.013523,0.002678,0.000431,0.664974
94519000,0.0324,0.013523,0.002678,0.000431,0.347883
94520000,0.0324,0.013523,0.002678,0.000431,0.157370
94521000,0.0324,0.013523,0.002678,0.000431,0.290295
94522000,0.0324,0.013523,0.002678,0.000431,0.610794
94523000,0.0324,0.013523,0.002678,0.000431,0.283125
94524000,0.0324,0.013523,0.002678,0.000431,0.288179
94525000,0.0324,0.013523,0.002678,0.000431,0.140681
94526000,0.0324,0.013523,0.002678,0.000431,0.170063
94527000,0.0324,0.013523,0.002678,0.000431,0.114943
94528000,0.0324,0.013523,0.002678,0.000431,0.493853
94529000,0.0324,0.013523,0.002678,0.000431,0.184637
94530000,0.0324,0.013523,0.002678,0.000431,0.144442
94531000,0.0324,0.013523,0.002678,0.000431,0.117881
94532000,0.0324,0.013523,0.002678,0.000431,0.113415
94533000,0.0324,0.013523,0.002678,0.000431,0.097196
94534000,0.0324,0.013523,0.002678,0.000431,0.082505
94535000,0.0324,0.013523,0.002678,0.000431,0.074043
94536000,0.0324,0.013523,0.002678,0.000431,0.067579
94537000,0.0324,0.013523,0.002678,0.000431,0.052653
94538000,0.0324,0.013523,0.002678,0.000431,0.052418
94539000,0.0324,0.013523,0.002678,0.000431,0.043250
94540000,0.0324,0.013523,0.002678,0.000431,0.031968
94541000,0.0324,0.013523,0.002678,0.000431,0.032673
94542000,0.0324,0.013523,0.002678,0.000431,0.032790
94543000,0.0324,0.013523,0.002678,0.000431,0.024916
94544000,0.0324,0.013523,0.002678,0.000431,0.023623
94545000,0.0324,0.013523,0.002678,0.000431,0.022330
94546000,0.0324,0.013523,0.002678,0.000431,0.022683
94547000,0.0324,0.013523,0.002678,0.000431,0.020215
94548000,0.0324,0.013523,0.002678,0.000431,0.019745
94549000,0.0324,0.013523,0.002678,0.000431,0.014221
94550000,0.0324,0.013523,0.002678,0.000431,0.011165
94551000,0.0324,0.013523,0.002678,0.000431,0.012576
94552000,0.0324,0.013523,0.002678,0.000431,0.017394
94553000,0.0324,0.013523,0.002678,0.000431,0.008345
94554000,0.0324,0.013523,0.002678,0.000431,0.004819
94555000,0.0324,0.013523,0.002678,0.000431,0.005171
94556000,0.0324,0.013523,0.002678,0.000431,0.004701
94557000,0.0324,0.013523,0.002678,0.000431,0.005054
94558000,0.0324,0.013523,0.002678,0.000431,0.004936
94559000,0.0324,0.013523,0.002678,0.000431,0.006699
94560000,0.0324,0.013523,0.002678,0.000431,0.004231
94561000,0.0324,0.013523,0.002678,0.000431,0.003996
94562000,0.0324,0.013523,0.002678,0.000431,0.004231
94563000,0.0324,0.013523,0.002678,0.000431,0.005641
94564000,0.0324,0.013523,0.002678,0.000431,0.003173
94565000,0.0324,0.013523,0.002678,0.000431,0.003056
94566000,0.0324,0.013523,0.002678,0.000431,0.003526
94567000,0.0324,0.013523,0.002678,0.000431,0.003526
94568000,0.0324,0.013523,0.002678,0.000431,0.003761
94569000,0.0324,0.013523,0.002678,0.000431,0.004231
94570000,0.0324,0.013523,0.002678,0.000431,0.000823
94571000,0.0324,0.013523,0.002678,0.000431,0.083798
94572000,0.0324,0.013523,0.002678,0.000431,0.650283
94573000,0.0324,0.013523,0.002678,0.000431,0.570599
94574000,0.0324,0.013523,0.002678,0.000431,0.135980
94575000,0.0324,0.013523,0.002678,0.000431,0.134452
94576000,0.0324,0.013523,0.002678,0.000431,0.572950
94577000,0.0324,0.013523,0.002678,0.000431,0.249865
94578000,0.0324,0.013523,0.002678,0.000431,0.267142
94579000,0.0324,0.013523,0.002678,0.000431,0.293585
94580000,0.0324,0.013523,0.002678,0.000431,0.143619
94581000,0.0324,0.013523,0.002678,0.000431,0.178878
94582000,0.0324,0.013523,0.002678,0.000431,0.090967
94583000,0.0324,0.013523,0.002678,0.000431,0.499847
94584000,0.0324,0.013523,0.002678,0.000431,0.247044
94585000,0.0324,0.013523,0.002678,0.000431,0.177938
94586000,0.0324,0.013523,0.002678,0.000431,0.158898
94587000,0.0324,0.013523,0.002678,0.000431,0.138801
94588000,0.0324,0.013523,0.002678,0.000431,0.121642
94589000,0.0324,0.013523,0.002678,0.000431,0.107538
94590000,0.0324,0.013523,0.002678,0.000431,0.096021
94591000,0.0324,0.013523,0.002678,0.000431,0.094493
94592000,0.0324,0.013523,0.002678,0.000431,0.074395
94593000,0.0324,0.013523,0.002678,0.000431,0.065698
94594000,0.0324,0.013523,0.002678,0.000431,0.053828
94595000,0.0324,0.013523,0.002678,0.000431,0.050185
94596000,0.0324,0.013523,0.002678,0.000431,0.042310
94597000,0.0324,0.013523,0.002678,0.000431,0.035023
94598000,0.0324,0.013523,0.002678,0.000431,0.030205
94599000,0.0324,0.013523,0.002678,0.000431,0.022800
94600000,0.0324,0.013523,0.002678,0.000431,0.026209
94601000,0.0324,0.013523,0.002678,0.000431,0.020567
94602000,0.0324,0.013523,0.002678,0.000431,0.018922
94603000,0.0324,0.013523,0.002678,0.000431,0.019745
94604000,0.0324,0.013523,0.002678,0.000431,0.012811
94605000,0.0324,0.013523,0.002678,0.000431,0.014103
94606000,0.0324,0.013523,0.002678,0.000431,0.014221
94607000,0.0324,0.013523,0.002678,0.000431,0.010342
94608000,0.0324,0.013523,0.002678,0.000431,0.007052
94609000,0.0324,0.013523,0.002678,0.000431,0.007639
94610000,0.0324,0.013523,0.002678,0.000431,0.008227
94611000,0.0324,0.013523,0.002678,0.000431,0.008345
94612000,0.0324,0.013523,0.002678,0.000431,0.005406
94613000,0.0324,0.013523,0.002678,0.000431,0.007404
94614000,0.0324,0.013523,0.002678,0.000431,0.010342
94615000,0.0324,0.013523,0.002678,0.000431,0.003643
94616000,0.0324,0.013523,0.002678,0.000431,0.002586
94617000,0.0324,0.013523,0.002678,0.000431,0.002938
94618000,0.0324,0.013523,0.002678,0.000431,0.002821
94619000,0.0324,0.013523,0.002678,0.000431,0.002233
94620000,0.0324,0.013523,0.002678,0.000431,0.003291
94621000,0.0324,0.013523,0.002678,0.000431,0.002938
94622000,0.0324,0.013523,0.002678,0.000431,0.002468
94623000,0.0324,0.013523,0.002678,0.000431,0.002821
94624000,0.0324,0.013523,0.002678,0.000431,0.002821
94625000,0.0324,0.013523,0.002678,0.000431,0.003408
94626000,0.0324,0.013523,0.002678,0.000431,0.004231
94627000,0.0324,0.013523,0.002678,0.000431,0.001998
94628000,0.0324,0.013523,0.002678,0.000431,0.002468
94629000,0.0324,0.013523,0.002678,0.000431,0.001528
94630000,0.0324,0.013523,0.002678,0.000431,0.001645
94631000,0.0324,0.013523,0.002678,0.000431,0.001058
94632000,0.0324,0.013523,0.002678,0.000431,0.000940
94633000,0.0324,0.013523,0.002678,0.000431,0.000940
94634000,0.0324,0.013523,0.002678,0.000431,0.000705
94635000,0.0324,0.013523,0.002678,0.000431,0.000940
94636000,0.0324,0.013523,0.002678,0.000431,0.000705
94637000,0.0324,0.013523,0.002678,0.000431,0.000940
94638000,0.0324,0.013523,0.002678,0.000431,0.000823
94639000,0.0324,0.013523,0.002678,0.000431,0.000823
94640000,0.0324,0.013523,0.002678,0.000431,0.000940
94641000,0.0324,0.013523,0.002678,0.000431,0.000705
94642000,0.0324,0.013523,0.002678,0.000431,0.000940
94643000,0.0324,0.013523,0.002678,0.000431,0.000823
94644000,0.0324,0.013523,0.002678,0.000431,0.000823
94645000,0.0324,0.013523,0.002678,0.000431,0.026914
94646000,0.0324,0.013523,0.002678,0.000431,0.660273
94647000,0.0324,0.013523,0.002678,0.000431,0.582000
94648000,0.0324,0.013523,0.002678,0.000431,0.156195
94649000,0.0324,0.013523,0.002678,0.000431,0.146910
94650000,0.0324,0.013523,0.002678,0.000431,0.591637
94651000,0.0324,0.013523,0.002678,0.000431,0.233764
94652000,0.0324,0.013523,0.002678,0.000431,0.310745
94653000,0.0324,0.013523,0.002678,0.000431,0.277837
94654000,0.0324,0.013523,0.002678,0.000431,0.149613
94655000,0.0324,0.013523,0.002678,0.000431,0.139271
94656000,0.0324,0.013523,0.002678,0.000431,0.235291
94657000,0.0324,0.013523,0.002678,0.000431,0.437322
94658000,0.0324,0.013523,0.002678,0.000431,0.166890
94659000,0.0324,0.013523,0.002678,0.000431,0.155490
94660000,0.0324,0.013523,0.002678,0.000431,0.116235
94661000,0.0324,0.013523,0.002678,0.000431,0.111064
94662000,0.0324,0.013523,0.002678,0.000431,0.095080
94663000,0.0324,0.013523,0.002678,0.000431,0.082975
94664000,0.0324,0.013523,0.002678,0.000431,0.072750
94665000,0.0324,0.013523,0.002678,0.000431,0.068754
94666000,0.0324,0.013523,0.002678,0.000431,0.066521
94667000,0.0324,0.013523,0.002678,0.000431,0.054298
94668000,0.0324,0.013523,0.002678,0.000431,0.048304
94669000,0.0324,0.013523,0.002678,0.000431,0.044426
94670000,0.0324,0.013523,0.002678,0.000431,0.042898
94671000,0.0324,0.013523,0.002678,0.000431,0.041605
94672000,0.0324,0.013523,0.002678,0.000431,0.035258
94673000,0.0324,0.013523,0.002678,0.000431,0.029852
94674000,0.0324,0.013523,0.002678,0.000431,0.029852
94675000,0.0324,0.013523,0.002678,0.000431,0.027384
94676000,0.0324,0.013523,0.002678,0.000431,0.024211
94677000,0.0324,0.013523,0.002678,0.000431,0.029735
94678000,0.0324,0.013523,0.002678,0.000431,0.023741
94679000,0.0324,0.013523,0.002678,0.000431,0.019510
94680000,0.0324,0.013523,0.002678,0.000431,0.014456
94681000,0.0324,0.013523,0.002678,0.000431,0.014456
94682000,0.0324,0.013523,0.002678,0.000431,0.014809
94683000,0.0324,0.013523,0.002678,0.000431,0.013046
94684000,0.0324,0.013523,0.002678,0.000431,0.010695
94685000,0.0324,0.013523,0.002678,0.000431,0.013868
94686000,0.0324,0.013523,0.002678,0.000431,0.013046
94687000,0.0324,0.013523,0.002678,0.000431,0.012458
94688000,0.0324,0.013523,0.002678,0.000431,0.009637
94689000,0.0324,0.013523,0.002678,0.000431,0.004819
94690000,0.0324,0.013523,0.002678,0.000431,0.005171
94691000,0.0324,0.013523,0.002678,0.000431,0.004936
94692000,0.0324,0.013523,0.002678,0.000431,0.006817
94693000,0.0324,0.013523,0.002678,0.000431,0.004113
94694000,0.0324,0.013523,0.002678,0.000431,0.004231
94695000,0.0324,0.013523,0.002678,0.000431,0.006111
94696000,0.0324,0.013523,0.002678,0.000431,0.003291
94697000,0.0324,0.013523,0.002678,0.000431,0.003291
94698000,0.0324,0.013523,0.002678,0.000431,0.003526
94699000,0.0324,0.013523,0.002678,0.000431,0.003291
94700000,0.0324,0.013523,0.002678,0.000431,0.003408
94701000,0.0324,0.013523,0.002678,0.000431,0.005289
94702000,0.0324,0.013523,0.002678,0.000431,0.002468
94703000,0.0324,0.013523,0.002678,0.000431,0.002351
94704000,0.0324,0.013523,0.002678,0.000431,0.002586
94705000,0.0324,0.013523,0.002678,0.000431,0.002586
94706000,0.0324,0.013523,0.002678,0.000431,0.002116
94707000,0.0324,0.013523,0.002678,0.000431,0.002586
94708000,0.0324,0.013523,0.002678,0.000431,0.002351
94709000,0.0324,0.013523,0.002678,0.000431,0.002351
94710000,0.0324,0.013523,0.002678,0.000431,0.002468
94711000,0.0324,0.013523,0.002678,0.000431,0.002233
94712000,0.0324,0.013523,0.002678,0.000431,0.002821
94713000,0.0324,0.013523,0.002678,0.000431,0.002116
94714000,0.0324,0.013523,0.002678,0.000431,0.002586
94715000,0.0324,0.013523,0.002678,0.000431,0.002116
94716000,0.0324,0.013523,0.002678,0.000431,0.004701
94717000,0.0324,0.013523,0.002678,0.000431,0.001763
94718000,0.0324,0.013523,0.002678,0.000431,0.001645
94719000,0.0324,0.013523,0.002678,0.000431,0.001410
94720000,0.0324,0.013523,0.002678,0.000431,0.001645
94721000,0.0324,0.013523,0.002678,0.000431,0.001645
94722000,0.0324,0.013523,0.002678,0.000431,0.001410
94723000,0.0324,0.013523,0.002678,0.000431,0.001880
94724000,0.0324,0.013523,0.002678,0.000431,0.001058
94725000,0.0324,0.013523,0.002678,0.000431,0.001058
94726000,0.0324,0.013523,0.002678,0.000431,0.224479
94727000,0.0324,0.013523,0.002678,0.000431,0.591872
94728000,0.0324,0.013523,0.002678,0.000431,0.479515
94729000,0.0324,0.013523,0.002678,0.000431,0.135863
94730000,0.0324,0.013523,0.002678,0.000431,0.161366
94731000,0.0324,0.013523,0.002678,0.000431,0.594575
94732000,0.0324,0.013523,0.002678,0.000431,0.252098
94733000,0.0324,0.013523,0.002678,0.000431,0.349411
94734000,0.0324,0.013523,0.002678,0.000431,0.247984
94735000,0.0324,0.013523,0.002678,0.000431,0.153139
94736000,0.0324,0.013523,0.002678,0.000431,0.105893
94737000,0.0324,0.013523,0.002678,0.000431,0.348236
94738000,0.0324,0.013523,0.002678,0.000431,0.357873
94739000,0.0324,0.013523,0.002678,0.000431,0.162071
94740000,0.0324,0.013523,0.002678,0.000431,0.147028
94741000,0.0324,0.013523,0.002678,0.000431,0.123992
94742000,0.0324,0.013523,0.002678,0.000431,0.110476
94743000,0.0324,0.013523,0.002678,0.000431,0.090732
94744000,0.0324,0.013523,0.002678,0.000431,0.092260
94745000,0.0324,0.013523,0.002678,0.000431,0.076863
94746000,0.0324,0.013523,0.002678,0.000431,0.067696
94747000,0.0324,0.013523,0.002678,0.000431,0.061467
94748000,0.0324,0.013523,0.002678,0.000431,0.043603
94749000,0.0324,0.013523,0.002678,0.000431,0.045954
94750000,0.0324,0.013523,0.002678,0.000431,0.032908
94751000,0.0324,0.013523,0.002678,0.000431,0.038314
94752000,0.0324,0.013523,0.002678,0.000431,0.032555
94753000,0.0324,0.013523,0.002678,0.000431,0.031498
94754000,0.0324,0.013523,0.002678,0.000431,0.032790
94755000,0.0324,0.013523,0.002678,0.000431,0.029147
94756000,0.0324,0.013523,0.002678,0.000431,0.032203
94757000,0.0324,0.013523,0.002678,0.000431,0.028912
94758000,0.0324,0.013523,0.002678,0.000431,0.022330
94759000,0.0324,0.013523,0.002678,0.000431,0.023858
94760000,0.0324,0.013523,0.002678,0.000431,0.017629
94761000,0.0324,0.013523,0.002678,0.000431,0.016219
94762000,0.0324,0.013523,0.002678,0.000431,0.016336
94763000,0.0324,0.013523,0.002678,0.000431,0.014103
94764000,0.0324,0.013523,0.002678,0.000431,0.014456
94765000,0.0324,0.013523,0.002678,0.000431,0.017042
94766000,0.0324,0.013523,0.002678,0.000431,0.014103
94767000,0.0324,0.013523,0.002678,0.000431,0.014338
94768000,0.0324,0.013523,0.002678,0.000431,0.011518
94769000,0.0324,0.013523,0.002678,0.000431,0.014338
94770000,0.0324,0.013523,0.002678,0.000431,0.012105
94771000,0.0324,0.013523,0.002678,0.000431,0.012105
94772000,0.0324,0.013523,0.002678,0.000431,0.008227
94773000,0.0324,0.013523,0.002678,0.000431,0.011283
94774000,0.0324,0.013523,0.002678,0.000431,0.007169
94775000,0.0324,0.013523,0.002678,0.000431,0.009402
94776000,0.0324,0.013523,0.002678,0.000431,0.008109
94777000,0.0324,0.013523,0.002678,0.000431,0.007874
94778000,0.0324,0.013523,0.002678,0.000431,0.008697
94779000,0.0324,0.013523,0.002678,0.000431,0.007874
94780000,0.0324,0.013523,0.002678,0.000431,0.010930
94781000,0.0324,0.013523,0.002678,0.000431,0.007287
94782000,0.0324,0.013523,0.002678,0.000431,0.007522
94783000,0.0324,0.013523,0.002678,0.000431,0.006111
94784000,0.0324,0.013523,0.002678,0.000431,0.007052
94785000,0.0324,0.013523,0.002678,0.000431,0.006111
94786000,0.0324,0.013523,0.002678,0.000431,0.004466
94787000,0.0324,0.013523,0.002678,0.000431,0.007522
94788000,0.0324,0.013523,0.002678,0.000431,0.006699
94789000,0.0324,0.013523,0.002678,0.000431,0.013868
94790000,0.0324,0.013523,0.002678,0.000431,0.002468
94791000,0.0324,0.013523,0.002678,0.000431,0.003761
94792000,0.0324,0.013523,0.002678,0.000431,0.003761
94793000,0.0324,0.013523,0.002678,0.000431,0.000823
94794000,0.0324,0.013523,0.002678,0.000431,0.000940
94795000,0.0324,0.013523,0.002678,0.000431,0.000705
94796000,0.0324,0.013523,0.002678,0.000431,0.000940
94797000,0.0324,0.013523,0.002678,0.000431,0.000823
94798000,0.0324,0.013523,0.002678,0.000431,0.000823
94799000,0.0324,0.013523,0.002678,0.000431,0.000823
94800000,0.0324,0.013523,0.002678,0.000431,0.000823
94801000,0.0324,0.013523,0.002678,0.000431,0.000705
94802000,0.0324,0.013523,0.002678,0.000431,0.000940
94803000,0.0324,0.013523,0.002678,0.000431,0.000940
94804000,0.0324,0.013523,0.002678,0.000431,0.000705
94805000,0.0324,0.013523,0.002678,0.000431,0.000940
94806000,0.0324,0.013523,0.002678,0.000431,0.000705
94807000,0.0324,0.013523,0.002678,0.000431,0.000940
94808000,0.0324,0.013523,0.002678,0.000431,0.000823
94809000,0.0324,0.013523,0.002678,0.000431,0.000823
94810000,0.0324,0.013523,0.002678,0.000431,0.000823
94811000,0.0324,0.013523,0.002678,0.000431,0.000705
94812000,0.0324,0.013523,0.002678,0.000431,0.000940
94813000,0.0324,0.013523,0.002678,0.000431,0.000823
94814000,0.0324,0.013523,0.002678,0.000431,0.000823
94815000,0.0324,0.013523,0.002678,0.000431,0.000823
94816000,0.0324,0.013523,0.002678,0.000431,0.000940
94817000,0.0324,0.013523,0.002678,0.000431,0.000705
94818000,0.0324,0.013523,0.002678,0.000431,0.000705
94819000,0.0324,0.013523,0.002678,0.000431,0.000940
94820000,0.0324,0.013523,0.002678,0.000431,0.000940
94821000,0.0324,0.013523,0.002678,0.000431,0.000705
94822000,0.0324,0.013523,0.002678,0.000431,0.000940
94823000,0.0324,0.013523,0.002678,0.000431,0.000705
94824000,0.0324,0.013523,0.002678,0.000431,0.000940
94825000,0.0324,0.013523,0.002678,0.000431,0.000823
94826000,0.0324,0.013523,0.002678,0.000431,0.001880
94827000,0.0324,0.013523,0.002678,0.000431,0.454246
94828000,0.0324,0.013523,0.002678,0.000431,0.712926
94829000,0.0324,0.013523,0.002678,0.000431,0.187693
94830000,0.0324,0.013523,0.002678,0.000431,0.137508
94831000,0.0324,0.013523,0.002678,0.000431,0.342947
94832000,0.0324,0.013523,0.002678,0.000431,0.527466
94833000,0.0324,0.013523,0.002678,0.000431,0.233764
94834000,0.0324,0.013523,0.002678,0.000431,0.289589
94835000,0.0324,0.013523,0.002678,0.000431,0.146793
94836000,0.0324,0.013523,0.002678,0.000431,0.176997
94837000,0.0324,0.013523,0.002678,0.000431,0.097196
94838000,0.0324,0.013523,0.002678,0.000431,0.488330
94839000,0.0324,0.013523,0.002678,0.000431,0.182874
94840000,0.0324,0.013523,0.002678,0.000431,0.121877
94841000,0.0324,0.013523,0.002678,0.000431,0.110829
94842000,0.0324,0.013523,0.002678,0.000431,0.102250
94843000,0.0324,0.013523,0.002678,0.000431,0.083210
94844000,0.0324,0.013523,0.002678,0.000431,0.063348
94845000,0.0324,0.013523,0.002678,0.000431,0.056649
94846000,0.0324,0.013523,0.002678,0.000431,0.064170
94847000,0.0324,0.013523,0.002678,0.000431,0.043720
94848000,0.0324,0.013523,0.002678,0.000431,0.029265
94849000,0.0324,0.013523,0.002678,0.000431,0.023976
94850000,0.0324,0.013523,0.002678,0.000431,0.022330
94851000,0.0324,0.013523,0.002678,0.000431,0.021390
94852000,0.0324,0.013523,0.002678,0.000431,0.018922
94853000,0.0324,0.013523,0.002678,0.000431,0.019745
94854000,0.0324,0.013523,0.002678,0.000431,0.013868
94855000,0.0324,0.013523,0.002678,0.000431,0.014573
94856000,0.0324,0.013523,0.002678,0.000431,0.015396
94857000,0.0324,0.013523,0.002678,0.000431,0.017042
94858000,0.0324,0.013523,0.002678,0.000431,0.013868
94859000,0.0324,0.013523,0.002678,0.000431,0.011048
94860000,0.0324,0.013523,0.002678,0.000431,0.011400
94861000,0.0324,0.013523,0.002678,0.000431,0.012811
94862000,0.0324,0.013523,0.002678,0.000431,0.009167
94863000,0.0324,0.013523,0.002678,0.000431,0.005994
94864000,0.0324,0.013523,0.002678,0.000431,0.006934
94865000,0.0324,0.013523,0.002678,0.000431,0.009167
94866000,0.0324,0.013523,0.002678,0.000431,0.003643
94867000,0.0324,0.013523,0.002678,0.000431,0.003526
94868000,0.0324,0.013523,0.002678,0.000431,0.003173
94869000,0.0324,0.013523,0.002678,0.000431,0.004584
94870000,0.0324,0.013523,0.002678,0.000431,0.004113
94871000,0.0324,0.013523,0.002678,0.000431,0.001763
94872000,0.0324,0.013523,0.002678,0.000431,0.001880
94873000,0.0324,0.013523,0.002678,0.000431,0.003878
94874000,0.0324,0.013523,0.002678,0.000431,0.000823
94875000,0.0324,0.013523,0.002678,0.000431,0.240815
94876000,0.0324,0.013523,0.002678,0.000431,0.670381
94877000,0.0324,0.013523,0.002678,0.000431,0.389723
94878000,0.0324,0.013523,0.002678,0.000431,0.140916
94879000,0.0324,0.013523,0.002678,0.000431,0.194744
94880000,0.0324,0.013523,0.002678,0.000431,0.605858
94881000,0.0324,0.013523,0.002678,0.000431,0.280775
94882000,0.0324,0.013523,0.002678,0.000431,0.320499
94883000,0.0324,0.013523,0.002678,0.000431,0.182051
94884000,0.0324,0.013523,0.002678,0.000431,0.154550
94885000,0.0324,0.013523,0.002678,0.000431,0.100957
94886000,0.0324,0.013523,0.002678,0.000431,0.469525
94887000,0.0324,0.013523,0.002678,0.000431,0.240698
94888000,0.0324,0.013523,0.002678,0.000431,0.151846
94889000,0.0324,0.013523,0.002678,0.000431,0.137508
94890000,0.0324,0.013523,0.002678,0.000431,0.114472
94891000,0.0324,0.013523,0.002678,0.000431,0.106951
94892000,0.0324,0.013523,0.002678,0.000431,0.092612
94893000,0.0324,0.013523,0.002678,0.000431,0.080742
94894000,0.0324,0.013523,0.002678,0.000431,0.078391
94895000,0.0324,0.013523,0.002678,0.000431,0.064523
94896000,0.0324,0.013523,0.002678,0.000431,0.064641
94897000,0.0324,0.013523,0.002678,0.000431,0.047011
94898000,0.0324,0.013523,0.002678,0.000431,0.050537
94899000,0.0324,0.013523,0.002678,0.000431,0.039842
94900000,0.0324,0.013523,0.002678,0.000431,0.038784
94901000,0.0324,0.013523,0.002678,0.000431,0.036786
94902000,0.0324,0.013523,0.002678,0.000431,0.034671
94903000,0.0324,0.013523,0.002678,0.000431,0.033025
94904000,0.0324,0.013523,0.002678,0.000431,0.026561
94905000,0.0324,0.013523,0.002678,0.000431,0.031380
94906000,0.0324,0.013523,0.002678,0.000431,0.023271
94907000,0.0324,0.013523,0.002678,0.000431,0.031380
94908000,0.0324,0.013523,0.002678,0.000431,0.017042
94909000,0.0324,0.013523,0.002678,0.000431,0.016689
94910000,0.0324,0.013523,0.002678,0.000431,0.013986
94911000,0.0324,0.013523,0.002678,0.000431,0.017042
94912000,0.0324,0.013523,0.002678,0.000431,0.015161
94913000,0.0324,0.013523,0.002678,0.000431,0.012340
94914000,0.0324,0.013523,0.002678,0.000431,0.011753
94915000,0.0324,0.013523,0.002678,0.000431,0.006699
94916000,0.0324,0.013523,0.002678,0.000431,0.007287
94917000,0.0324,0.013523,0.002678,0.000431,0.009520
94918000,0.0324,0.013523,0.002678,0.000431,0.011283
94919000,0.0324,0.013523,0.002678,0.000431,0.005171
94920000,0.0324,0.013523,0.002678,0.000431,0.004819
94921000,0.0324,0.013523,0.002678,0.000431,0.005289
94922000,0.0324,0.013523,0.002678,0.000431,0.005054
94923000,0.0324,0.013523,0.002678,0.000431,0.004819
94924000,0.0324,0.013523,0.002678,0.000431,0.004819
94925000,0.0324,0.013523,0.002678,0.000431,0.004466
94926000,0.0324,0.013523,0.002678,0.000431,0.004584
94927000,0.0324,0.013523,0.002678,0.000431,0.004231
94928000,0.0324,0.013523,0.002678,0.000431,0.004584
94929000,0.0324,0.013523,0.002678,0.000431,0.004466
94930000,0.0324,0.013523,0.002678,0.000431,0.004231
94931000,0.0324,0.013523,0.002678,0.000431,0.004584
94932000,0.0324,0.013523,0.002678,0.000431,0.004231
94933000,0.0324,0.013523,0.002678,0.000431,0.004584
94934000,0.0324,0.013523,0.002678,0.000431,0.005524
94935000,0.0324,0.013523,0.002678,0.000431,0.003643
94936000,0.0324,0.013523,0.002678,0.000431,0.003526
94937000,0.0324,0.013523,0.002678,0.000431,0.003408
94938000,0.0324,0.013523,0.002678,0.000431,0.003761
94939000,0.0324,0.013523,0.002678,0.000431,0.003173
94940000,0.0324,0.013523,0.002678,0.000431,0.004231
94941000,0.0324,0.013523,0.002678,0.000431,0.003643
94942000,0.0324,0.013523,0.002678,0.000431,0.002703
94943000,0.0324,0.013523,0.002678,0.000431,0.002586
94944000,0.0324,0.013523,0.002678,0.000431,0.002586
94945000,0.0324,0.013523,0.002678,0.000431,0.002703
94946000,0.0324,0.013523,0.002678,0.000431,0.002703
94947000,0.0324,0.013523,0.002678,0.000431,0.002586
94948000,0.0324,0.013523,0.002678,0.000431,0.004113
94949000,0.0324,0.013523,0.002678,0.000431,0.001763
94950000,0.0324,0.013523,0.002678,0.000431,0.001645
94951000,0.0324,0.013523,0.002678,0.000431,0.001998
94952000,0.0324,0.013523,0.002678,0.000431,0.001645
94953000,0.0324,0.013523,0.002678,0.000431,0.001880
94954000,0.0324,0.013523,0.002678,0.000431,0.001763
94955000,0.0324,0.013523,0.002678,0.000431,0.001645
94956000,0.0324,0.013523,0.002678,0.000431,0.001880
94957000,0.0324,0.013523,0.002678,0.000431,0.001645
94958000,0.0324,0.013523,0.002678,0.000431,0.001880
94959000,0.0324,0.013523,0.002678,0.000431,0.001645
94960000,0.0324,0.013523,0.002678,0.000431,0.001645
94961000,0.0324,0.013523,0.002678,0.000431,0.002116
94962000,0.0324,0.013523,0.002678,0.000431,0.001528
94963000,0.0324,0.013523,0.002678,0.000431,0.001880
94964000,0.0324,0.013523,0.002678,0.000431,0.001763
94965000,0.0324,0.013523,0.002678,0.000431,0.003291
94966000,0.0324,0.013523,0.002678,0.000431,0.000940
94967000,0.0324,0.013523,0.002678,0.000431,0.000940
94968000,0.0324,0.013523,0.002678,0.000431,0.000705
94969000,0.0324,0.013523,0.002678,0.000431,0.000940
94970000,0.0324,0.013523,0.002678,0.000431,0.000705
94971000,0.0324,0.013523,0.002678,0.000431,0.224596
94972000,0.0324,0.013523,0.002678,0.000431,0.596691
94973000,0.0324,0.013523,0.002678,0.000431,0.496909
94974000,0.0324,0.013523,0.002678,0.000431,0.137978
94975000,0.0324,0.013523,0.002678,0.000431,0.136803
94976000,0.0324,0.013523,0.002678,0.000431,0.607268
94977000,0.0324,0.013523,0.002678,0.000431,0.239640
94978000,0.0324,0.013523,0.002678,0.000431,0.316151
94979000,0.0324,0.013523,0.002678,0.000431,0.231648
94980000,0.0324,0.013523,0.002678,0.000431,0.151846
94981000,0.0324,0.013523,0.002678,0.000431,0.151846
94982000,0.0324,0.013523,0.002678,0.000431,0.183814
94983000,0.0324,0.013523,0.002678,0.000431,0.471406
94984000,0.0324,0.013523,0.002678,0.000431,0.182756
94985000,0.0324,0.013523,0.002678,0.000431,0.147733
94986000,0.0324,0.013523,0.002678,0.000431,0.136685
94987000,0.0324,0.013523,0.002678,0.000431,0.118586
94988000,0.0324,0.013523,0.002678,0.000431,0.094258
94989000,0.0324,0.013523,0.002678,0.000431,0.084973
94990000,0.0324,0.013523,0.002678,0.000431,0.075571
94991000,0.0324,0.013523,0.002678,0.000431,0.066521
94992000,0.0324,0.013523,0.002678,0.000431,0.070047
94993000,0.0324,0.013523,0.002678,0.000431,0.050302
94994000,0.0324,0.013523,0.002678,0.000431,0.049832
94995000,0.0324,0.013523,0.002678,0.000431,0.037139
94996000,0.0324,0.013523,0.002678,0.000431,0.034083
94997000,0.0324,0.013523,0.002678,0.000431,0.029029
94998000,0.0324,0.013523,0.002678,0.000431,0.029500
94999000,0.0324,0.013523,0.002678,0.000431,0.026444
