Cycle,Area(mm^2),PeakDynamic(W),SubthresholdLeakage(W),GateLeakage(W),RunTimeDynamic(W)
66000000,0.0324,0.013523,0.002678,0.000431,0.008227
66001000,0.0324,0.013523,0.002678,0.000431,0.002351
66002000,0.0324,0.013523,0.002678,0.000431,0.002586
66003000,0.0324,0.013523,0.002678,0.000431,0.002586
66004000,0.0324,0.013523,0.002678,0.000431,0.004231
66005000,0.0324,0.013523,0.002678,0.000431,0.001645
66006000,0.0324,0.013523,0.002678,0.000431,0.002938
66007000,0.0324,0.013523,0.002678,0.000431,0.002233
66008000,0.0324,0.013523,0.002678,0.000431,0.000823
66009000,0.0324,0.013523,0.002678,0.000431,0.000823
66010000,0.0324,0.013523,0.002678,0.000431,0.000823
66011000,0.0324,0.013523,0.002678,0.000431,0.000940
66012000,0.0324,0.013523,0.002678,0.000431,0.000705
66013000,0.0324,0.013523,0.002678,0.000431,0.000940
66014000,0.0324,0.013523,0.002678,0.000431,0.000823
66015000,0.0324,0.013523,0.002678,0.000431,0.000823
66016000,0.0324,0.013523,0.002678,0.000431,0.031027
66017000,0.0324,0.013523,0.002678,0.000431,0.868886
66018000,0.0324,0.013523,0.002678,0.000431,0.570129
66019000,0.0324,0.013523,0.002678,0.000431,0.135863
66020000,0.0324,0.013523,0.002678,0.000431,0.171591
66021000,0.0324,0.013523,0.002678,0.000431,0.524881
66022000,0.0324,0.013523,0.002678,0.000431,0.281480
66023000,0.0324,0.013523,0.002678,0.000431,0.328021
66024000,0.0324,0.013523,0.002678,0.000431,0.157135
66025000,0.0324,0.013523,0.002678,0.000431,0.120584
66026000,0.0324,0.013523,0.002678,0.000431,0.344828
66027000,0.0324,0.013523,0.002678,0.000431,0.472228
66028000,0.0324,0.013523,0.002678,0.000431,0.197447
66029000,0.0324,0.013523,0.002678,0.000431,0.175235
66030000,0.0324,0.013523,0.002678,0.000431,0.158663
66031000,0.0324,0.013523,0.002678,0.000431,0.131161
66032000,0.0324,0.013523,0.002678,0.000431,0.099429
66033000,0.0324,0.013523,0.002678,0.000431,0.082740
66034000,0.0324,0.013523,0.002678,0.000431,0.074160
66035000,0.0324,0.013523,0.002678,0.000431,0.061350
66036000,0.0324,0.013523,0.002678,0.000431,0.048304
66037000,0.0324,0.013523,0.002678,0.000431,0.041252
66038000,0.0324,0.013523,0.002678,0.000431,0.034906
66039000,0.0324,0.013523,0.002678,0.000431,0.033260
66040000,0.0324,0.013523,0.002678,0.000431,0.025739
66041000,0.0324,0.013523,0.002678,0.000431,0.013751
66042000,0.0324,0.013523,0.002678,0.000431,0.013281
66043000,0.0324,0.013523,0.002678,0.000431,0.015866
66044000,0.0324,0.013523,0.002678,0.000431,0.015396
66045000,0.0324,0.013523,0.002678,0.000431,0.017042
66046000,0.0324,0.013523,0.002678,0.000431,0.007757
66047000,0.0324,0.013523,0.002678,0.000431,0.011283
66048000,0.0324,0.013523,0.002678,0.000431,0.006582
66049000,0.0324,0.013523,0.002678,0.000431,0.005054
66050000,0.0324,0.013523,0.002678,0.000431,0.005994
66051000,0.0324,0.013523,0.002678,0.000431,0.005759
66052000,0.0324,0.013523,0.002678,0.000431,0.005289
66053000,0.0324,0.013523,0.002678,0.000431,0.002586
66054000,0.0324,0.013523,0.002678,0.000431,0.002938
66055000,0.0324,0.013523,0.002678,0.000431,0.005054
66056000,0.0324,0.013523,0.002678,0.000431,0.001880
66057000,0.0324,0.013523,0.002678,0.000431,0.001998
66058000,0.0324,0.013523,0.002678,0.000431,0.001998
66059000,0.0324,0.013523,0.002678,0.000431,0.001528
66060000,0.0324,0.013523,0.002678,0.000431,0.002233
66061000,0.0324,0.013523,0.002678,0.000431,0.001645
66062000,0.0324,0.013523,0.002678,0.000431,0.001998
66063000,0.0324,0.013523,0.002678,0.000431,0.003761
66064000,0.0324,0.013523,0.002678,0.000431,0.065111
66065000,0.0324,0.013523,0.002678,0.000431,0.809887
66066000,0.0324,0.013523,0.002678,0.000431,0.556731
66067000,0.0324,0.013523,0.002678,0.000431,0.143854
66068000,0.0324,0.013523,0.002678,0.000431,0.194039
66069000,0.0324,0.013523,0.002678,0.000431,0.574948
66070000,0.0324,0.013523,0.002678,0.000431,0.263498
66071000,0.0324,0.013523,0.002678,0.000431,0.278542
66072000,0.0324,0.013523,0.002678,0.000431,0.163717
66073000,0.0324,0.013523,0.002678,0.000431,0.108714
66074000,0.0324,0.013523,0.002678,0.000431,0.370919
66075000,0.0324,0.013523,0.002678,0.000431,0.458242
66076000,0.0324,0.013523,0.002678,0.000431,0.212961
66077000,0.0324,0.013523,0.002678,0.000431,0.190748
66078000,0.0324,0.013523,0.002678,0.000431,0.145265
66079000,0.0324,0.013523,0.002678,0.000431,0.133630
66080000,0.0324,0.013523,0.002678,0.000431,0.103660
66081000,0.0324,0.013523,0.002678,0.000431,0.105305
66082000,0.0324,0.013523,0.002678,0.000431,0.066051
66083000,0.0324,0.013523,0.002678,0.000431,0.063818
66084000,0.0324,0.013523,0.002678,0.000431,0.041017
66085000,0.0324,0.013523,0.002678,0.000431,0.039607
66086000,0.0324,0.013523,0.002678,0.000431,0.028794
66087000,0.0324,0.013523,0.002678,0.000431,0.030087
66088000,0.0324,0.013523,0.002678,0.000431,0.023153
66089000,0.0324,0.013523,0.002678,0.000431,0.017042
66090000,0.0324,0.013523,0.002678,0.000431,0.012576
66091000,0.0324,0.013523,0.002678,0.000431,0.013398
66092000,0.0324,0.013523,0.002678,0.000431,0.014221
66093000,0.0324,0.013523,0.002678,0.000431,0.014926
66094000,0.0324,0.013523,0.002678,0.000431,0.009520
66095000,0.0324,0.013523,0.002678,0.000431,0.005171
66096000,0.0324,0.013523,0.002678,0.000431,0.008697
66097000,0.0324,0.013523,0.002678,0.000431,0.010578
66098000,0.0324,0.013523,0.002678,0.000431,0.005641
66099000,0.0324,0.013523,0.002678,0.000431,0.001763
66100000,0.0324,0.013523,0.002678,0.000431,0.001998
66101000,0.0324,0.013523,0.002678,0.000431,0.003056
66102000,0.0324,0.013523,0.002678,0.000431,0.001175
66103000,0.0324,0.013523,0.002678,0.000431,0.000940
66104000,0.0324,0.013523,0.002678,0.000431,0.000705
66105000,0.0324,0.013523,0.002678,0.000431,0.000940
66106000,0.0324,0.013523,0.002678,0.000431,0.012576
66107000,0.0324,0.013523,0.002678,0.000431,0.702583
66108000,0.0324,0.013523,0.002678,0.000431,0.669676
66109000,0.0324,0.013523,0.002678,0.000431,0.145265
66110000,0.0324,0.013523,0.002678,0.000431,0.142797
66111000,0.0324,0.013523,0.002678,0.000431,0.553675
66112000,0.0324,0.013523,0.002678,0.000431,0.268082
66113000,0.0324,0.013523,0.002678,0.000431,0.347883
66114000,0.0324,0.013523,0.002678,0.000431,0.195449
66115000,0.0324,0.013523,0.002678,0.000431,0.175235
66116000,0.0324,0.013523,0.002678,0.000431,0.120819
66117000,0.0324,0.013523,0.002678,0.000431,0.556496
66118000,0.0324,0.013523,0.002678,0.000431,0.221423
66119000,0.0324,0.013523,0.002678,0.000431,0.181346
66120000,0.0324,0.013523,0.002678,0.000431,0.157723
66121000,0.0324,0.013523,0.002678,0.000431,0.143267
66122000,0.0324,0.013523,0.002678,0.000431,0.122817
66123000,0.0324,0.013523,0.002678,0.000431,0.100957
66124000,0.0324,0.013523,0.002678,0.000431,0.069812
66125000,0.0324,0.013523,0.002678,0.000431,0.051477
66126000,0.0324,0.013523,0.002678,0.000431,0.038197
66127000,0.0324,0.013523,0.002678,0.000431,0.035023
66128000,0.0324,0.013523,0.002678,0.000431,0.028559
66129000,0.0324,0.013523,0.002678,0.000431,0.033966
66130000,0.0324,0.013523,0.002678,0.000431,0.021743
66131000,0.0324,0.013523,0.002678,0.000431,0.021978
66132000,0.0324,0.013523,0.002678,0.000431,0.014103
66133000,0.0324,0.013523,0.002678,0.000431,0.014456
66134000,0.0324,0.013523,0.002678,0.000431,0.009167
66135000,0.0324,0.013523,0.002678,0.000431,0.008697
66136000,0.0324,0.013523,0.002678,0.000431,0.009520
66137000,0.0324,0.013523,0.002678,0.000431,0.010930
66138000,0.0324,0.013523,0.002678,0.000431,0.009520
66139000,0.0324,0.013523,0.002678,0.000431,0.007874
66140000,0.0324,0.013523,0.002678,0.000431,0.009755
66141000,0.0324,0.013523,0.002678,0.000431,0.006464
66142000,0.0324,0.013523,0.002678,0.000431,0.007052
66143000,0.0324,0.013523,0.002678,0.000431,0.006582
66144000,0.0324,0.013523,0.002678,0.000431,0.007992
66145000,0.0324,0.013523,0.002678,0.000431,0.005994
66146000,0.0324,0.013523,0.002678,0.000431,0.006699
66147000,0.0324,0.013523,0.002678,0.000431,0.006934
66148000,0.0324,0.013523,0.002678,0.000431,0.006347
66149000,0.0324,0.013523,0.002678,0.000431,0.005759
66150000,0.0324,0.013523,0.002678,0.000431,0.006464
66151000,0.0324,0.013523,0.002678,0.000431,0.006582
66152000,0.0324,0.013523,0.002678,0.000431,0.006699
66153000,0.0324,0.013523,0.002678,0.000431,0.002468
66154000,0.0324,0.013523,0.002678,0.000431,0.002821
66155000,0.0324,0.013523,0.002678,0.000431,0.002586
66156000,0.0324,0.013523,0.002678,0.000431,0.005171
66157000,0.0324,0.013523,0.002678,0.000431,0.015279
66158000,0.0324,0.013523,0.002678,0.000431,0.753356
66159000,0.0324,0.013523,0.002678,0.000431,0.569071
66160000,0.0324,0.013523,0.002678,0.000431,0.152434
66161000,0.0324,0.013523,0.002678,0.000431,0.165010
66162000,0.0324,0.013523,0.002678,0.000431,0.599276
66163000,0.0324,0.013523,0.002678,0.000431,0.251745
66164000,0.0324,0.013523,0.002678,0.000431,0.298639
66165000,0.0324,0.013523,0.002678,0.000431,0.149966
66166000,0.0324,0.013523,0.002678,0.000431,0.149496
66167000,0.0324,0.013523,0.002678,0.000431,0.234116
66168000,0.0324,0.013523,0.002678,0.000431,0.539454
66169000,0.0324,0.013523,0.002678,0.000431,0.238112
66170000,0.0324,0.013523,0.002678,0.000431,0.203206
66171000,0.0324,0.013523,0.002678,0.000431,0.176645
66172000,0.0324,0.013523,0.002678,0.000431,0.134805
66173000,0.0324,0.013523,0.002678,0.000431,0.120701
66174000,0.0324,0.013523,0.002678,0.000431,0.090144
66175000,0.0324,0.013523,0.002678,0.000431,0.091084
66176000,0.0324,0.013523,0.002678,0.000431,0.054298
66177000,0.0324,0.013523,0.002678,0.000431,0.043015
66178000,0.0324,0.013523,0.002678,0.000431,0.039960
66179000,0.0324,0.013523,0.002678,0.000431,0.027737
66180000,0.0324,0.013523,0.002678,0.000431,0.035729
66181000,0.0324,0.013523,0.002678,0.000431,0.019745
66182000,0.0324,0.013523,0.002678,0.000431,0.015631
66183000,0.0324,0.013523,0.002678,0.000431,0.018569
66184000,0.0324,0.013523,0.002678,0.000431,0.015396
66185000,0.0324,0.013523,0.002678,0.000431,0.006111
66186000,0.0324,0.013523,0.002678,0.000431,0.008932
66187000,0.0324,0.013523,0.002678,0.000431,0.006111
66188000,0.0324,0.013523,0.002678,0.000431,0.011048
66189000,0.0324,0.013523,0.002678,0.000431,0.002821
66190000,0.0324,0.013523,0.002678,0.000431,0.002351
66191000,0.0324,0.013523,0.002678,0.000431,0.002586
66192000,0.0324,0.013523,0.002678,0.000431,0.002586
66193000,0.0324,0.013523,0.002678,0.000431,0.002468
66194000,0.0324,0.013523,0.002678,0.000431,0.002586
66195000,0.0324,0.013523,0.002678,0.000431,0.002703
66196000,0.0324,0.013523,0.002678,0.000431,0.002233
66197000,0.0324,0.013523,0.002678,0.000431,0.002821
66198000,0.0324,0.013523,0.002678,0.000431,0.002233
66199000,0.0324,0.013523,0.002678,0.000431,0.002703
66200000,0.0324,0.013523,0.002678,0.000431,0.002703
66201000,0.0324,0.013523,0.002678,0.000431,0.002351
66202000,0.0324,0.013523,0.002678,0.000431,0.002703
66203000,0.0324,0.013523,0.002678,0.000431,0.002468
66204000,0.0324,0.013523,0.002678,0.000431,0.002468
66205000,0.0324,0.013523,0.002678,0.000431,0.002586
66206000,0.0324,0.013523,0.002678,0.000431,0.002468
66207000,0.0324,0.013523,0.002678,0.000431,0.002351
66208000,0.0324,0.013523,0.002678,0.000431,0.002586
66209000,0.0324,0.013523,0.002678,0.000431,0.002351
66210000,0.0324,0.013523,0.002678,0.000431,0.005524
66211000,0.0324,0.013523,0.002678,0.000431,0.000940
66212000,0.0324,0.013523,0.002678,0.000431,0.000940
66213000,0.0324,0.013523,0.002678,0.000431,0.000940
66214000,0.0324,0.013523,0.002678,0.000431,0.000823
66215000,0.0324,0.013523,0.002678,0.000431,0.015279
66216000,0.0324,0.013523,0.002678,0.000431,0.821169
66217000,0.0324,0.013523,0.002678,0.000431,0.568014
66218000,0.0324,0.013523,0.002678,0.000431,0.149613
66219000,0.0324,0.013523,0.002678,0.000431,0.148086
66220000,0.0324,0.013523,0.002678,0.000431,0.583762
66221000,0.0324,0.013523,0.002678,0.000431,0.282655
66222000,0.0324,0.013523,0.002678,0.000431,0.305456
66223000,0.0324,0.013523,0.002678,0.000431,0.151259
66224000,0.0324,0.013523,0.002678,0.000431,0.144325
66225000,0.0324,0.013523,0.002678,0.000431,0.234469
66226000,0.0324,0.013523,0.002678,0.000431,0.536399
66227000,0.0324,0.013523,0.002678,0.000431,0.226594
66228000,0.0324,0.013523,0.002678,0.000431,0.192981
66229000,0.0324,0.013523,0.002678,0.000431,0.166185
66230000,0.0324,0.013523,0.002678,0.000431,0.139623
66231000,0.0324,0.013523,0.002678,0.000431,0.125755
66232000,0.0324,0.013523,0.002678,0.000431,0.093317
66233000,0.0324,0.013523,0.002678,0.000431,0.076746
66234000,0.0324,0.013523,0.002678,0.000431,0.059822
66235000,0.0324,0.013523,0.002678,0.000431,0.042663
66236000,0.0324,0.013523,0.002678,0.000431,0.039019
66237000,0.0324,0.013523,0.002678,0.000431,0.029147
66238000,0.0324,0.013523,0.002678,0.000431,0.018569
66239000,0.0324,0.013523,0.002678,0.000431,0.023623
66240000,0.0324,0.013523,0.002678,0.000431,0.017512
66241000,0.0324,0.013523,0.002678,0.000431,0.006582
66242000,0.0324,0.013523,0.002678,0.000431,0.009520
66243000,0.0324,0.013523,0.002678,0.000431,0.005994
66244000,0.0324,0.013523,0.002678,0.000431,0.008932
66245000,0.0324,0.013523,0.002678,0.000431,0.006464
66246000,0.0324,0.013523,0.002678,0.000431,0.003291
66247000,0.0324,0.013523,0.002678,0.000431,0.004231
66248000,0.0324,0.013523,0.002678,0.000431,0.001645
66249000,0.0324,0.013523,0.002678,0.000431,0.001645
66250000,0.0324,0.013523,0.002678,0.000431,0.001880
66251000,0.0324,0.013523,0.002678,0.000431,0.001410
66252000,0.0324,0.013523,0.002678,0.000431,0.003996
66253000,0.0324,0.013523,0.002678,0.000431,0.000823
66254000,0.0324,0.013523,0.002678,0.000431,0.001058
66255000,0.0324,0.013523,0.002678,0.000431,0.000823
66256000,0.0324,0.013523,0.002678,0.000431,0.000940
66257000,0.0324,0.013523,0.002678,0.000431,0.000823
66258000,0.0324,0.013523,0.002678,0.000431,0.000823
66259000,0.0324,0.013523,0.002678,0.000431,0.002468
66260000,0.0324,0.013523,0.002678,0.000431,0.568366
66261000,0.0324,0.013523,0.002678,0.000431,0.770280
66262000,0.0324,0.013523,0.002678,0.000431,0.168418
66263000,0.0324,0.013523,0.002678,0.000431,0.136450
66264000,0.0324,0.013523,0.002678,0.000431,0.570482
66265000,0.0324,0.013523,0.002678,0.000431,0.238582
66266000,0.0324,0.013523,0.002678,0.000431,0.303928
66267000,0.0324,0.013523,0.002678,0.000431,0.170768
66268000,0.0324,0.013523,0.002678,0.000431,0.177232
66269000,0.0324,0.013523,0.002678,0.000431,0.100016
66270000,0.0324,0.013523,0.002678,0.000431,0.538632
66271000,0.0324,0.013523,0.002678,0.000431,0.264791
66272000,0.0324,0.013523,0.002678,0.000431,0.181934
66273000,0.0324,0.013523,0.002678,0.000431,0.165480
66274000,0.0324,0.013523,0.002678,0.000431,0.143737
66275000,0.0324,0.013523,0.002678,0.000431,0.118821
66276000,0.0324,0.013523,0.002678,0.000431,0.104483
66277000,0.0324,0.013523,0.002678,0.000431,0.089792
66278000,0.0324,0.013523,0.002678,0.000431,0.065816
66279000,0.0324,0.013523,0.002678,0.000431,0.056061
66280000,0.0324,0.013523,0.002678,0.000431,0.042075
66281000,0.0324,0.013523,0.002678,0.000431,0.037727
66282000,0.0324,0.013523,0.002678,0.000431,0.028677
66283000,0.0324,0.013523,0.002678,0.000431,0.023271
66284000,0.0324,0.013523,0.002678,0.000431,0.019392
66285000,0.0324,0.013523,0.002678,0.000431,0.011635
66286000,0.0324,0.013523,0.002678,0.000431,0.009050
66287000,0.0324,0.013523,0.002678,0.000431,0.009285
66288000,0.0324,0.013523,0.002678,0.000431,0.009637
66289000,0.0324,0.013523,0.002678,0.000431,0.004113
66290000,0.0324,0.013523,0.002678,0.000431,0.005641
66291000,0.0324,0.013523,0.002678,0.000431,0.003408
66292000,0.0324,0.013523,0.002678,0.000431,0.003291
66293000,0.0324,0.013523,0.002678,0.000431,0.007404
66294000,0.0324,0.013523,0.002678,0.000431,0.002468
66295000,0.0324,0.013523,0.002678,0.000431,0.002938
66296000,0.0324,0.013523,0.002678,0.000431,0.002233
66297000,0.0324,0.013523,0.002678,0.000431,0.002821
66298000,0.0324,0.013523,0.002678,0.000431,0.002586
66299000,0.0324,0.013523,0.002678,0.000431,0.002586
66300000,0.0324,0.013523,0.002678,0.000431,0.002586
66301000,0.0324,0.013523,0.002678,0.000431,0.002586
66302000,0.0324,0.013523,0.002678,0.000431,0.002821
66303000,0.0324,0.013523,0.002678,0.000431,0.002351
66304000,0.0324,0.013523,0.002678,0.000431,0.002821
66305000,0.0324,0.013523,0.002678,0.000431,0.002586
66306000,0.0324,0.013523,0.002678,0.000431,0.002586
66307000,0.0324,0.013523,0.002678,0.000431,0.002468
66308000,0.0324,0.013523,0.002678,0.000431,0.002703
66309000,0.0324,0.013523,0.002678,0.000431,0.002586
66310000,0.0324,0.013523,0.002678,0.000431,0.002468
66311000,0.0324,0.013523,0.002678,0.000431,0.002938
66312000,0.0324,0.013523,0.002678,0.000431,0.002116
66313000,0.0324,0.013523,0.002678,0.000431,0.002938
66314000,0.0324,0.013523,0.002678,0.000431,0.002351
66315000,0.0324,0.013523,0.002678,0.000431,0.002821
66316000,0.0324,0.013523,0.002678,0.000431,0.002351
66317000,0.0324,0.013523,0.002678,0.000431,0.002821
66318000,0.0324,0.013523,0.002678,0.000431,0.002468
66319000,0.0324,0.013523,0.002678,0.000431,0.004231
66320000,0.0324,0.013523,0.002678,0.000431,0.000705
66321000,0.0324,0.013523,0.002678,0.000431,0.071575
66322000,0.0324,0.013523,0.002678,0.000431,0.767224
66323000,0.0324,0.013523,0.002678,0.000431,0.549092
66324000,0.0324,0.013523,0.002678,0.000431,0.142092
66325000,0.0324,0.013523,0.002678,0.000431,0.209318
66326000,0.0324,0.013523,0.002678,0.000431,0.529229
66327000,0.0324,0.013523,0.002678,0.000431,0.299579
66328000,0.0324,0.013523,0.002678,0.000431,0.296876
66329000,0.0324,0.013523,0.002678,0.000431,0.150083
66330000,0.0324,0.013523,0.002678,0.000431,0.145030
66331000,0.0324,0.013523,0.002678,0.000431,0.239405
66332000,0.0324,0.013523,0.002678,0.000431,0.491503
66333000,0.0324,0.013523,0.002678,0.000431,0.166890
66334000,0.0324,0.013523,0.002678,0.000431,0.146793
66335000,0.0324,0.013523,0.002678,0.000431,0.111887
66336000,0.0324,0.013523,0.002678,0.000431,0.095433
66337000,0.0324,0.013523,0.002678,0.000431,0.073103
66338000,0.0324,0.013523,0.002678,0.000431,0.068401
66339000,0.0324,0.013523,0.002678,0.000431,0.050537
66340000,0.0324,0.013523,0.002678,0.000431,0.040900
66341000,0.0324,0.013523,0.002678,0.000431,0.030910
66342000,0.0324,0.013523,0.002678,0.000431,0.023271
66343000,0.0324,0.013523,0.002678,0.000431,0.015631
66344000,0.0324,0.013523,0.002678,0.000431,0.014103
66345000,0.0324,0.013523,0.002678,0.000431,0.009755
66346000,0.0324,0.013523,0.002678,0.000431,0.003996
66347000,0.0324,0.013523,0.002678,0.000431,0.004819
66348000,0.0324,0.013523,0.002678,0.000431,0.003878
66349000,0.0324,0.013523,0.002678,0.000431,0.001763
66350000,0.0324,0.013523,0.002678,0.000431,0.001528
66351000,0.0324,0.013523,0.002678,0.000431,0.001763
66352000,0.0324,0.013523,0.002678,0.000431,0.001763
66353000,0.0324,0.013523,0.002678,0.000431,0.002468
66354000,0.0324,0.013523,0.002678,0.000431,0.001880
66355000,0.0324,0.013523,0.002678,0.000431,0.000940
66356000,0.0324,0.013523,0.002678,0.000431,0.015866
66357000,0.0324,0.013523,0.002678,0.000431,0.743013
66358000,0.0324,0.013523,0.002678,0.000431,0.550737
66359000,0.0324,0.013523,0.002678,0.000431,0.142209
66360000,0.0324,0.013523,0.002678,0.000431,0.141739
66361000,0.0324,0.013523,0.002678,0.000431,0.545331
66362000,0.0324,0.013523,0.002678,0.000431,0.271138
66363000,0.0324,0.013523,0.002678,0.000431,0.345885
66364000,0.0324,0.013523,0.002678,0.000431,0.158546
66365000,0.0324,0.013523,0.002678,0.000431,0.127988
66366000,0.0324,0.013523,0.002678,0.000431,0.291117
66367000,0.0324,0.013523,0.002678,0.000431,0.486332
66368000,0.0324,0.013523,0.002678,0.000431,0.189338
66369000,0.0324,0.013523,0.002678,0.000431,0.163952
66370000,0.0324,0.013523,0.002678,0.000431,0.139506
66371000,0.0324,0.013523,0.002678,0.000431,0.105070
66372000,0.0324,0.013523,0.002678,0.000431,0.088381
66373000,0.0324,0.013523,0.002678,0.000431,0.091672
66374000,0.0324,0.013523,0.002678,0.000431,0.050302
66375000,0.0324,0.013523,0.002678,0.000431,0.026914
66376000,0.0324,0.013523,0.002678,0.000431,0.024681
66377000,0.0324,0.013523,0.002678,0.000431,0.033025
66378000,0.0324,0.013523,0.002678,0.000431,0.013046
66379000,0.0324,0.013523,0.002678,0.000431,0.016807
66380000,0.0324,0.013523,0.002678,0.000431,0.007404
66381000,0.0324,0.013523,0.002678,0.000431,0.006934
66382000,0.0324,0.013523,0.002678,0.000431,0.005524
66383000,0.0324,0.013523,0.002678,0.000431,0.000940
66384000,0.0324,0.013523,0.002678,0.000431,0.000940
66385000,0.0324,0.013523,0.002678,0.000431,0.000823
66386000,0.0324,0.013523,0.002678,0.000431,0.000823
66387000,0.0324,0.013523,0.002678,0.000431,0.000940
66388000,0.0324,0.013523,0.002678,0.000431,0.000823
66389000,0.0324,0.013523,0.002678,0.000431,0.078156
66390000,0.0324,0.013523,0.002678,0.000431,0.800602
66391000,0.0324,0.013523,0.002678,0.000431,0.518887
66392000,0.0324,0.013523,0.002678,0.000431,0.135863
66393000,0.0324,0.013523,0.002678,0.000431,0.273958
66394000,0.0324,0.013523,0.002678,0.000431,0.541687
66395000,0.0324,0.013523,0.002678,0.000431,0.267259
66396000,0.0324,0.013523,0.002678,0.000431,0.244106
66397000,0.0324,0.013523,0.002678,0.000431,0.149496
66398000,0.0324,0.013523,0.002678,0.000431,0.116353
66399000,0.0324,0.013523,0.002678,0.000431,0.464941
66400000,0.0324,0.013523,0.002678,0.000431,0.333898
66401000,0.0324,0.013523,0.002678,0.000431,0.185812
66402000,0.0324,0.013523,0.002678,0.000431,0.163482
66403000,0.0324,0.013523,0.002678,0.000431,0.135980
66404000,0.0324,0.013523,0.002678,0.000431,0.109301
66405000,0.0324,0.013523,0.002678,0.000431,0.098606
66406000,0.0324,0.013523,0.002678,0.000431,0.066874
66407000,0.0324,0.013523,0.002678,0.000431,0.076158
66408000,0.0324,0.013523,0.002678,0.000431,0.040547
66409000,0.0324,0.013523,0.002678,0.000431,0.032555
66410000,0.0324,0.013523,0.002678,0.000431,0.023741
66411000,0.0324,0.013523,0.002678,0.000431,0.018687
66412000,0.0324,0.013523,0.002678,0.000431,0.018452
66413000,0.0324,0.013523,0.002678,0.000431,0.014221
66414000,0.0324,0.013523,0.002678,0.000431,0.013398
66415000,0.0324,0.013523,0.002678,0.000431,0.015984
66416000,0.0324,0.013523,0.002678,0.000431,0.002938
66417000,0.0324,0.013523,0.002678,0.000431,0.002586
66418000,0.0324,0.013523,0.002678,0.000431,0.002351
66419000,0.0324,0.013523,0.002678,0.000431,0.005876
66420000,0.0324,0.013523,0.002678,0.000431,0.001880
66421000,0.0324,0.013523,0.002678,0.000431,0.001645
66422000,0.0324,0.013523,0.002678,0.000431,0.001645
66423000,0.0324,0.013523,0.002678,0.000431,0.001763
66424000,0.0324,0.013523,0.002678,0.000431,0.001645
66425000,0.0324,0.013523,0.002678,0.000431,0.001880
66426000,0.0324,0.013523,0.002678,0.000431,0.003408
66427000,0.0324,0.013523,0.002678,0.000431,0.000823
66428000,0.0324,0.013523,0.002678,0.000431,0.000823
66429000,0.0324,0.013523,0.002678,0.000431,0.000940
66430000,0.0324,0.013523,0.002678,0.000431,0.118468
66431000,0.0324,0.013523,0.002678,0.000431,0.797429
66432000,0.0324,0.013523,0.002678,0.000431,0.517594
66433000,0.0324,0.013523,0.002678,0.000431,0.135392
66434000,0.0324,0.013523,0.002678,0.000431,0.349646
66435000,0.0324,0.013523,0.002678,0.000431,0.492796
66436000,0.0324,0.013523,0.002678,0.000431,0.272665
66437000,0.0324,0.013523,0.002678,0.000431,0.256917
66438000,0.0324,0.013523,0.002678,0.000431,0.166420
66439000,0.0324,0.013523,0.002678,0.000431,0.103895
66440000,0.0324,0.013523,0.002678,0.000431,0.531227
66441000,0.0324,0.013523,0.002678,0.000431,0.249630
66442000,0.0324,0.013523,0.002678,0.000431,0.180406
66443000,0.0324,0.013523,0.002678,0.000431,0.163247
66444000,0.0324,0.013523,0.002678,0.000431,0.153844
66445000,0.0324,0.013523,0.002678,0.000431,0.114237
66446000,0.0324,0.013523,0.002678,0.000431,0.093317
66447000,0.0324,0.013523,0.002678,0.000431,0.072632
66448000,0.0324,0.013523,0.002678,0.000431,0.071340
66449000,0.0324,0.013523,0.002678,0.000431,0.050655
66450000,0.0324,0.013523,0.002678,0.000431,0.040665
66451000,0.0324,0.013523,0.002678,0.000431,0.033848
66452000,0.0324,0.013523,0.002678,0.000431,0.038549
66453000,0.0324,0.013523,0.002678,0.000431,0.025856
66454000,0.0324,0.013523,0.002678,0.000431,0.013751
66455000,0.0324,0.013523,0.002678,0.000431,0.009285
66456000,0.0324,0.013523,0.002678,0.000431,0.010460
66457000,0.0324,0.013523,0.002678,0.000431,0.010930
66458000,0.0324,0.013523,0.002678,0.000431,0.003761
66459000,0.0324,0.013523,0.002678,0.000431,0.005054
66460000,0.0324,0.013523,0.002678,0.000431,0.001645
66461000,0.0324,0.013523,0.002678,0.000431,0.001175
66462000,0.0324,0.013523,0.002678,0.000431,0.001410
66463000,0.0324,0.013523,0.002678,0.000431,0.001645
66464000,0.0324,0.013523,0.002678,0.000431,0.001645
66465000,0.0324,0.013523,0.002678,0.000431,0.001410
66466000,0.0324,0.013523,0.002678,0.000431,0.001645
66467000,0.0324,0.013523,0.002678,0.000431,0.133042
66468000,0.0324,0.013523,0.002678,0.000431,0.746892
66469000,0.0324,0.013523,0.002678,0.000431,0.517477
66470000,0.0324,0.013523,0.002678,0.000431,0.135863
66471000,0.0324,0.013523,0.002678,0.000431,0.226124
66472000,0.0324,0.013523,0.002678,0.000431,0.556613
66473000,0.0324,0.013523,0.002678,0.000431,0.243518
66474000,0.0324,0.013523,0.002678,0.000431,0.311215
66475000,0.0324,0.013523,0.002678,0.000431,0.148791
66476000,0.0324,0.013523,0.002678,0.000431,0.138918
66477000,0.0324,0.013523,0.002678,0.000431,0.265026
66478000,0.0324,0.013523,0.002678,0.000431,0.511365
66479000,0.0324,0.013523,0.002678,0.000431,0.213901
66480000,0.0324,0.013523,0.002678,0.000431,0.199445
66481000,0.0324,0.013523,0.002678,0.000431,0.172414
66482000,0.0324,0.013523,0.002678,0.000431,0.145265
66483000,0.0324,0.013523,0.002678,0.000431,0.122934
66484000,0.0324,0.013523,0.002678,0.000431,0.086618
66485000,0.0324,0.013523,0.002678,0.000431,0.069577
66486000,0.0324,0.013523,0.002678,0.000431,0.050185
66487000,0.0324,0.013523,0.002678,0.000431,0.043368
66488000,0.0324,0.013523,0.002678,0.000431,0.037139
66489000,0.0324,0.013523,0.002678,0.000431,0.026561
66490000,0.0324,0.013523,0.002678,0.000431,0.032790
66491000,0.0324,0.013523,0.002678,0.000431,0.015396
66492000,0.0324,0.013523,0.002678,0.000431,0.020567
66493000,0.0324,0.013523,0.002678,0.000431,0.014691
66494000,0.0324,0.013523,0.002678,0.000431,0.012105
66495000,0.0324,0.013523,0.002678,0.000431,0.012223
66496000,0.0324,0.013523,0.002678,0.000431,0.013398
66497000,0.0324,0.013523,0.002678,0.000431,0.011400
66498000,0.0324,0.013523,0.002678,0.000431,0.012811
66499000,0.0324,0.013523,0.002678,0.000431,0.016336
66500000,0.0324,0.013523,0.002678,0.000431,0.012458
66501000,0.0324,0.013523,0.002678,0.000431,0.015161
66502000,0.0324,0.013523,0.002678,0.000431,0.008109
66503000,0.0324,0.013523,0.002678,0.000431,0.006817
66504000,0.0324,0.013523,0.002678,0.000431,0.005994
66505000,0.0324,0.013523,0.002678,0.000431,0.001528
66506000,0.0324,0.013523,0.002678,0.000431,0.001763
66507000,0.0324,0.013523,0.002678,0.000431,0.001410
66508000,0.0324,0.013523,0.002678,0.000431,0.001880
66509000,0.0324,0.013523,0.002678,0.000431,0.004231
66510000,0.0324,0.013523,0.002678,0.000431,0.000823
66511000,0.0324,0.013523,0.002678,0.000431,0.004466
66512000,0.0324,0.013523,0.002678,0.000431,0.656865
66513000,0.0324,0.013523,0.002678,0.000431,0.684014
66514000,0.0324,0.013523,0.002678,0.000431,0.153962
66515000,0.0324,0.013523,0.002678,0.000431,0.173001
66516000,0.0324,0.013523,0.002678,0.000431,0.569777
66517000,0.0324,0.013523,0.002678,0.000431,0.300755
66518000,0.0324,0.013523,0.002678,0.000431,0.297816
66519000,0.0324,0.013523,0.002678,0.000431,0.152317
66520000,0.0324,0.013523,0.002678,0.000431,0.105775
66521000,0.0324,0.013523,0.002678,0.000431,0.458477
66522000,0.0324,0.013523,0.002678,0.000431,0.371977
66523000,0.0324,0.013523,0.002678,0.000431,0.203794
66524000,0.0324,0.013523,0.002678,0.000431,0.162777
66525000,0.0324,0.013523,0.002678,0.000431,0.155372
66526000,0.0324,0.013523,0.002678,0.000431,0.118939
66527000,0.0324,0.013523,0.002678,0.000431,0.095785
66528000,0.0324,0.013523,0.002678,0.000431,0.085913
66529000,0.0324,0.013523,0.002678,0.000431,0.069224
66530000,0.0324,0.013523,0.002678,0.000431,0.046189
66531000,0.0324,0.013523,0.002678,0.000431,0.046189
66532000,0.0324,0.013523,0.002678,0.000431,0.041487
66533000,0.0324,0.013523,0.002678,0.000431,0.018922
66534000,0.0324,0.013523,0.002678,0.000431,0.023858
66535000,0.0324,0.013523,0.002678,0.000431,0.022565
66536000,0.0324,0.013523,0.002678,0.000431,0.021155
66537000,0.0324,0.013523,0.002678,0.000431,0.014809
66538000,0.0324,0.013523,0.002678,0.000431,0.014809
66539000,0.0324,0.013523,0.002678,0.000431,0.013398
66540000,0.0324,0.013523,0.002678,0.000431,0.010695
66541000,0.0324,0.013523,0.002678,0.000431,0.009755
66542000,0.0324,0.013523,0.002678,0.000431,0.008462
66543000,0.0324,0.013523,0.002678,0.000431,0.006817
66544000,0.0324,0.013523,0.002678,0.000431,0.010225
66545000,0.0324,0.013523,0.002678,0.000431,0.006464
66546000,0.0324,0.013523,0.002678,0.000431,0.006347
66547000,0.0324,0.013523,0.002678,0.000431,0.008580
66548000,0.0324,0.013523,0.002678,0.000431,0.007404
66549000,0.0324,0.013523,0.002678,0.000431,0.004231
66550000,0.0324,0.013523,0.002678,0.000431,0.006817
66551000,0.0324,0.013523,0.002678,0.000431,0.002468
66552000,0.0324,0.013523,0.002678,0.000431,0.006229
66553000,0.0324,0.013523,0.002678,0.000431,0.001645
66554000,0.0324,0.013523,0.002678,0.000431,0.001645
66555000,0.0324,0.013523,0.002678,0.000431,0.001880
66556000,0.0324,0.013523,0.002678,0.000431,0.001645
66557000,0.0324,0.013523,0.002678,0.000431,0.001645
66558000,0.0324,0.013523,0.002678,0.000431,0.001763
66559000,0.0324,0.013523,0.002678,0.000431,0.001763
66560000,0.0324,0.013523,0.002678,0.000431,0.003643
66561000,0.0324,0.013523,0.002678,0.000431,0.225302
66562000,0.0324,0.013523,0.002678,0.000431,0.740192
66563000,0.0324,0.013523,0.002678,0.000431,0.482571
66564000,0.0324,0.013523,0.002678,0.000431,0.135628
66565000,0.0324,0.013523,0.002678,0.000431,0.362809
66566000,0.0324,0.013523,0.002678,0.000431,0.407353
66567000,0.0324,0.013523,0.002678,0.000431,0.239287
66568000,0.0324,0.013523,0.002678,0.000431,0.280305
66569000,0.0324,0.013523,0.002678,0.000431,0.156077
66570000,0.0324,0.013523,0.002678,0.000431,0.135863
66571000,0.0324,0.013523,0.002678,0.000431,0.268787
66572000,0.0324,0.013523,0.002678,0.000431,0.543920
66573000,0.0324,0.013523,0.002678,0.000431,0.229180
66574000,0.0324,0.013523,0.002678,0.000431,0.193686
66575000,0.0324,0.013523,0.002678,0.000431,0.168065
66576000,0.0324,0.013523,0.002678,0.000431,0.145970
66577000,0.0324,0.013523,0.002678,0.000431,0.110124
66578000,0.0324,0.013523,0.002678,0.000431,0.096138
66579000,0.0324,0.013523,0.002678,0.000431,0.076863
66580000,0.0324,0.013523,0.002678,0.000431,0.062290
66581000,0.0324,0.013523,0.002678,0.000431,0.054416
66582000,0.0324,0.013523,0.002678,0.000431,0.037844
66583000,0.0324,0.013523,0.002678,0.000431,0.021978
66584000,0.0324,0.013523,0.002678,0.000431,0.024446
66585000,0.0324,0.013523,0.002678,0.000431,0.021390
66586000,0.0324,0.013523,0.002678,0.000431,0.023623
66587000,0.0324,0.013523,0.002678,0.000431,0.013046
66588000,0.0324,0.013523,0.002678,0.000431,0.012105
66589000,0.0324,0.013523,0.002678,0.000431,0.012928
66590000,0.0324,0.013523,0.002678,0.000431,0.010578
66591000,0.0324,0.013523,0.002678,0.000431,0.006229
66592000,0.0324,0.013523,0.002678,0.000431,0.005641
66593000,0.0324,0.013523,0.002678,0.000431,0.005994
66594000,0.0324,0.013523,0.002678,0.000431,0.005994
66595000,0.0324,0.013523,0.002678,0.000431,0.009285
66596000,0.0324,0.013523,0.002678,0.000431,0.003878
66597000,0.0324,0.013523,0.002678,0.000431,0.008462
66598000,0.0324,0.013523,0.002678,0.000431,0.002468
66599000,0.0324,0.013523,0.002678,0.000431,0.002586
66600000,0.0324,0.013523,0.002678,0.000431,0.006817
66601000,0.0324,0.013523,0.002678,0.000431,0.000823
66602000,0.0324,0.013523,0.002678,0.000431,0.000823
66603000,0.0324,0.013523,0.002678,0.000431,0.000940
66604000,0.0324,0.013523,0.002678,0.000431,0.000940
66605000,0.0324,0.013523,0.002678,0.000431,0.000823
66606000,0.0324,0.013523,0.002678,0.000431,0.000823
66607000,0.0324,0.013523,0.002678,0.000431,0.000940
66608000,0.0324,0.013523,0.002678,0.000431,0.016219
66609000,0.0324,0.013523,0.002678,0.000431,0.746892
66610000,0.0324,0.013523,0.002678,0.000431,0.619844
66611000,0.0324,0.013523,0.002678,0.000431,0.155255
66612000,0.0324,0.013523,0.002678,0.000431,0.195097
66613000,0.0324,0.013523,0.002678,0.000431,0.539337
66614000,0.0324,0.013523,0.002678,0.000431,0.281715
66615000,0.0324,0.013523,0.002678,0.000431,0.287944
66616000,0.0324,0.013523,0.002678,0.000431,0.164422
66617000,0.0324,0.013523,0.002678,0.000431,0.114237
66618000,0.0324,0.013523,0.002678,0.000431,0.494676
66619000,0.0324,0.013523,0.002678,0.000431,0.315916
66620000,0.0324,0.013523,0.002678,0.000431,0.224009
66621000,0.0324,0.013523,0.002678,0.000431,0.188045
66622000,0.0324,0.013523,0.002678,0.000431,0.146910
66623000,0.0324,0.013523,0.002678,0.000431,0.136450
66624000,0.0324,0.013523,0.002678,0.000431,0.103307
66625000,0.0324,0.013523,0.002678,0.000431,0.091554
66626000,0.0324,0.013523,0.002678,0.000431,0.089321
66627000,0.0324,0.013523,0.002678,0.000431,0.065111
66628000,0.0324,0.013523,0.002678,0.000431,0.049714
66629000,0.0324,0.013523,0.002678,0.000431,0.040665
66630000,0.0324,0.013523,0.002678,0.000431,0.039137
66631000,0.0324,0.013523,0.002678,0.000431,0.030792
66632000,0.0324,0.013523,0.002678,0.000431,0.029500
66633000,0.0324,0.013523,0.002678,0.000431,0.029029
66634000,0.0324,0.013523,0.002678,0.000431,0.016807
66635000,0.0324,0.013523,0.002678,0.000431,0.012928
66636000,0.0324,0.013523,0.002678,0.000431,0.011283
66637000,0.0324,0.013523,0.002678,0.000431,0.009167
66638000,0.0324,0.013523,0.002678,0.000431,0.015984
66639000,0.0324,0.013523,0.002678,0.000431,0.005289
66640000,0.0324,0.013523,0.002678,0.000431,0.006934
66641000,0.0324,0.013523,0.002678,0.000431,0.004113
66642000,0.0324,0.013523,0.002678,0.000431,0.004466
66643000,0.0324,0.013523,0.002678,0.000431,0.007639
66644000,0.0324,0.013523,0.002678,0.000431,0.005524
66645000,0.0324,0.013523,0.002678,0.000431,0.002703
66646000,0.0324,0.013523,0.002678,0.000431,0.002468
66647000,0.0324,0.013523,0.002678,0.000431,0.006229
66648000,0.0324,0.013523,0.002678,0.000431,0.235174
66649000,0.0324,0.013523,0.002678,0.000431,0.732671
66650000,0.0324,0.013523,0.002678,0.000431,0.472816
66651000,0.0324,0.013523,0.002678,0.000431,0.139741
66652000,0.0324,0.013523,0.002678,0.000431,0.399713
66653000,0.0324,0.013523,0.002678,0.000431,0.316621
66654000,0.0324,0.013523,0.002678,0.000431,0.274663
66655000,0.0324,0.013523,0.002678,0.000431,0.262558
66656000,0.0324,0.013523,0.002678,0.000431,0.158075
66657000,0.0324,0.013523,0.002678,0.000431,0.131279
66658000,0.0324,0.013523,0.002678,0.000431,0.269610
66659000,0.0324,0.013523,0.002678,0.000431,0.551795
66660000,0.0324,0.013523,0.002678,0.000431,0.248455
66661000,0.0324,0.013523,0.002678,0.000431,0.230708
66662000,0.0324,0.013523,0.002678,0.000431,0.198035
66663000,0.0324,0.013523,0.002678,0.000431,0.156548
66664000,0.0324,0.013523,0.002678,0.000431,0.131161
66665000,0.0324,0.013523,0.002678,0.000431,0.116235
66666000,0.0324,0.013523,0.002678,0.000431,0.084738
66667000,0.0324,0.013523,0.002678,0.000431,0.076511
66668000,0.0324,0.013523,0.002678,0.000431,0.045836
66669000,0.0324,0.013523,0.002678,0.000431,0.046424
66670000,0.0324,0.013523,0.002678,0.000431,0.043133
66671000,0.0324,0.013523,0.002678,0.000431,0.020450
66672000,0.0324,0.013523,0.002678,0.000431,0.011400
66673000,0.0324,0.013523,0.002678,0.000431,0.006229
66674000,0.0324,0.013523,0.002678,0.000431,0.001998
66675000,0.0324,0.013523,0.002678,0.000431,0.001880
66676000,0.0324,0.013523,0.002678,0.000431,0.005054
66677000,0.0324,0.013523,0.002678,0.000431,0.000940
66678000,0.0324,0.013523,0.002678,0.000431,0.001998
66679000,0.0324,0.013523,0.002678,0.000431,0.598571
66680000,0.0324,0.013523,0.002678,0.000431,0.741603
66681000,0.0324,0.013523,0.002678,0.000431,0.196860
66682000,0.0324,0.013523,0.002678,0.000431,0.161601
66683000,0.0324,0.013523,0.002678,0.000431,0.566838
66684000,0.0324,0.013523,0.002678,0.000431,0.266319
66685000,0.0324,0.013523,0.002678,0.000431,0.334955
66686000,0.0324,0.013523,0.002678,0.000431,0.171356
66687000,0.0324,0.013523,0.002678,0.000431,0.108714
66688000,0.0324,0.013523,0.002678,0.000431,0.497144
66689000,0.0324,0.013523,0.002678,0.000431,0.298051
66690000,0.0324,0.013523,0.002678,0.000431,0.202384
66691000,0.0324,0.013523,0.002678,0.000431,0.175117
66692000,0.0324,0.013523,0.002678,0.000431,0.137978
66693000,0.0324,0.013523,0.002678,0.000431,0.115060
66694000,0.0324,0.013523,0.002678,0.000431,0.092495
66695000,0.0324,0.013523,0.002678,0.000431,0.081330
66696000,0.0324,0.013523,0.002678,0.000431,0.067109
66697000,0.0324,0.013523,0.002678,0.000431,0.073808
66698000,0.0324,0.013523,0.002678,0.000431,0.063113
66699000,0.0324,0.013523,0.002678,0.000431,0.037374
66700000,0.0324,0.013523,0.002678,0.000431,0.039842
66701000,0.0324,0.013523,0.002678,0.000431,0.041840
66702000,0.0324,0.013523,0.002678,0.000431,0.027502
66703000,0.0324,0.013523,0.002678,0.000431,0.017747
66704000,0.0324,0.013523,0.002678,0.000431,0.018334
66705000,0.0324,0.013523,0.002678,0.000431,0.013516
66706000,0.0324,0.013523,0.002678,0.000431,0.004701
66707000,0.0324,0.013523,0.002678,0.000431,0.003056
66708000,0.0324,0.013523,0.002678,0.000431,0.007757
66709000,0.0324,0.013523,0.002678,0.000431,0.528877
66710000,0.0324,0.013523,0.002678,0.000431,0.778859
66711000,0.0324,0.013523,0.002678,0.000431,0.152434
66712000,0.0324,0.013523,0.002678,0.000431,0.137273
66713000,0.0324,0.013523,0.002678,0.000431,0.516066
66714000,0.0324,0.013523,0.002678,0.000431,0.235526
66715000,0.0324,0.013523,0.002678,0.000431,0.334015
66716000,0.0324,0.013523,0.002678,0.000431,0.218015
66717000,0.0324,0.013523,0.002678,0.000431,0.173707
66718000,0.0324,0.013523,0.002678,0.000431,0.106598
66719000,0.0324,0.013523,0.002678,0.000431,0.556143
66720000,0.0324,0.013523,0.002678,0.000431,0.265496
66721000,0.0324,0.013523,0.002678,0.000431,0.191688
66722000,0.0324,0.013523,0.002678,0.000431,0.169593
66723000,0.0324,0.013523,0.002678,0.000431,0.128106
66724000,0.0324,0.013523,0.002678,0.000431,0.111299
66725000,0.0324,0.013523,0.002678,0.000431,0.085678
66726000,0.0324,0.013523,0.002678,0.000431,0.065581
66727000,0.0324,0.013523,0.002678,0.000431,0.047011
66728000,0.0324,0.013523,0.002678,0.000431,0.047011
66729000,0.0324,0.013523,0.002678,0.000431,0.031145
66730000,0.0324,0.013523,0.002678,0.000431,0.026561
66731000,0.0324,0.013523,0.002678,0.000431,0.017159
66732000,0.0324,0.013523,0.002678,0.000431,0.007992
66733000,0.0324,0.013523,0.002678,0.000431,0.007052
66734000,0.0324,0.013523,0.002678,0.000431,0.007404
66735000,0.0324,0.013523,0.002678,0.000431,0.011400
66736000,0.0324,0.013523,0.002678,0.000431,0.004819
66737000,0.0324,0.013523,0.002678,0.000431,0.004584
66738000,0.0324,0.013523,0.002678,0.000431,0.004819
66739000,0.0324,0.013523,0.002678,0.000431,0.008345
66740000,0.0324,0.013523,0.002678,0.000431,0.003761
66741000,0.0324,0.013523,0.002678,0.000431,0.003643
66742000,0.0324,0.013523,0.002678,0.000431,0.004936
66743000,0.0324,0.013523,0.002678,0.000431,0.005171
66744000,0.0324,0.013523,0.002678,0.000431,0.000705
66745000,0.0324,0.013523,0.002678,0.000431,0.000940
66746000,0.0324,0.013523,0.002678,0.000431,0.000705
66747000,0.0324,0.013523,0.002678,0.000431,0.270432
66748000,0.0324,0.013523,0.002678,0.000431,0.809417
66749000,0.0324,0.013523,0.002678,0.000431,0.374680
66750000,0.0324,0.013523,0.002678,0.000431,0.140211
66751000,0.0324,0.013523,0.002678,0.000431,0.500200
66752000,0.0324,0.013523,0.002678,0.000431,0.283948
66753000,0.0324,0.013523,0.002678,0.000431,0.281833
66754000,0.0324,0.013523,0.002678,0.000431,0.219778
66755000,0.0324,0.013523,0.002678,0.000431,0.175822
66756000,0.0324,0.013523,0.002678,0.000431,0.103660
66757000,0.0324,0.013523,0.002678,0.000431,0.540160
66758000,0.0324,0.013523,0.002678,0.000431,0.306396
66759000,0.0324,0.013523,0.002678,0.000431,0.212844
66760000,0.0324,0.013523,0.002678,0.000431,0.196272
66761000,0.0324,0.013523,0.002678,0.000431,0.147850
66762000,0.0324,0.013523,0.002678,0.000431,0.122229
66763000,0.0324,0.013523,0.002678,0.000431,0.095550
66764000,0.0324,0.013523,0.002678,0.000431,0.076158
66765000,0.0324,0.013523,0.002678,0.000431,0.071340
66766000,0.0324,0.013523,0.002678,0.000431,0.044191
66767000,0.0324,0.013523,0.002678,0.000431,0.034201
66768000,0.0324,0.013523,0.002678,0.000431,0.037139
66769000,0.0324,0.013523,0.002678,0.000431,0.031262
66770000,0.0324,0.013523,0.002678,0.000431,0.026091
66771000,0.0324,0.013523,0.002678,0.000431,0.010460
66772000,0.0324,0.013523,0.002678,0.000431,0.015866
66773000,0.0324,0.013523,0.002678,0.000431,0.007404
66774000,0.0324,0.013523,0.002678,0.000431,0.007757
66775000,0.0324,0.013523,0.002678,0.000431,0.006111
66776000,0.0324,0.013523,0.002678,0.000431,0.005876
66777000,0.0324,0.013523,0.002678,0.000431,0.004819
66778000,0.0324,0.013523,0.002678,0.000431,0.005054
66779000,0.0324,0.013523,0.002678,0.000431,0.006934
66780000,0.0324,0.013523,0.002678,0.000431,0.004349
66781000,0.0324,0.013523,0.002678,0.000431,0.003643
66782000,0.0324,0.013523,0.002678,0.000431,0.004113
66783000,0.0324,0.013523,0.002678,0.000431,0.004349
66784000,0.0324,0.013523,0.002678,0.000431,0.003643
66785000,0.0324,0.013523,0.002678,0.000431,0.003878
66786000,0.0324,0.013523,0.002678,0.000431,0.004231
66787000,0.0324,0.013523,0.002678,0.000431,0.003996
66788000,0.0324,0.013523,0.002678,0.000431,0.005406
66789000,0.0324,0.013523,0.002678,0.000431,0.003526
66790000,0.0324,0.013523,0.002678,0.000431,0.003173
66791000,0.0324,0.013523,0.002678,0.000431,0.005994
66792000,0.0324,0.013523,0.002678,0.000431,0.001645
66793000,0.0324,0.013523,0.002678,0.000431,0.001763
66794000,0.0324,0.013523,0.002678,0.000431,0.001763
66795000,0.0324,0.013523,0.002678,0.000431,0.001528
66796000,0.0324,0.013523,0.002678,0.000431,0.001645
66797000,0.0324,0.013523,0.002678,0.000431,0.001645
66798000,0.0324,0.013523,0.002678,0.000431,0.001880
66799000,0.0324,0.013523,0.002678,0.000431,0.001528
66800000,0.0324,0.013523,0.002678,0.000431,0.001645
66801000,0.0324,0.013523,0.002678,0.000431,0.001645
66802000,0.0324,0.013523,0.002678,0.000431,0.001763
66803000,0.0324,0.013523,0.002678,0.000431,0.001763
66804000,0.0324,0.013523,0.002678,0.000431,0.001528
66805000,0.0324,0.013523,0.002678,0.000431,0.001763
66806000,0.0324,0.013523,0.002678,0.000431,0.001645
66807000,0.0324,0.013523,0.002678,0.000431,0.001645
66808000,0.0324,0.013523,0.002678,0.000431,0.001763
66809000,0.0324,0.013523,0.002678,0.000431,0.003761
66810000,0.0324,0.013523,0.002678,0.000431,0.000940
66811000,0.0324,0.013523,0.002678,0.000431,0.000823
66812000,0.0324,0.013523,0.002678,0.000431,0.000940
66813000,0.0324,0.013523,0.002678,0.000431,0.000940
66814000,0.0324,0.013523,0.002678,0.000431,0.000823
66815000,0.0324,0.013523,0.002678,0.000431,0.000823
66816000,0.0324,0.013523,0.002678,0.000431,0.000940
66817000,0.0324,0.013523,0.002678,0.000431,0.000705
66818000,0.0324,0.013523,0.002678,0.000431,0.000940
66819000,0.0324,0.013523,0.002678,0.000431,0.000823
66820000,0.0324,0.013523,0.002678,0.000431,0.000823
66821000,0.0324,0.013523,0.002678,0.000431,0.000940
66822000,0.0324,0.013523,0.002678,0.000431,0.000823
66823000,0.0324,0.013523,0.002678,0.000431,0.000823
66824000,0.0324,0.013523,0.002678,0.000431,0.000940
66825000,0.0324,0.013523,0.002678,0.000431,0.000705
66826000,0.0324,0.013523,0.002678,0.000431,0.000940
66827000,0.0324,0.013523,0.002678,0.000431,0.000823
66828000,0.0324,0.013523,0.002678,0.000431,0.000823
66829000,0.0324,0.013523,0.002678,0.000431,0.000940
66830000,0.0324,0.013523,0.002678,0.000431,0.005641
66831000,0.0324,0.013523,0.002678,0.000431,0.619961
66832000,0.0324,0.013523,0.002678,0.000431,0.729732
66833000,0.0324,0.013523,0.002678,0.000431,0.173354
66834000,0.0324,0.013523,0.002678,0.000431,0.138331
66835000,0.0324,0.013523,0.002678,0.000431,0.515008
66836000,0.0324,0.013523,0.002678,0.000431,0.269610
66837000,0.0324,0.013523,0.002678,0.000431,0.271608
66838000,0.0324,0.013523,0.002678,0.000431,0.211316
66839000,0.0324,0.013523,0.002678,0.000431,0.145970
66840000,0.0324,0.013523,0.002678,0.000431,0.122934
66841000,0.0324,0.013523,0.002678,0.000431,0.475284
66842000,0.0324,0.013523,0.002678,0.000431,0.336836
66843000,0.0324,0.013523,0.002678,0.000431,0.221306
66844000,0.0324,0.013523,0.002678,0.000431,0.176762
66845000,0.0324,0.013523,0.002678,0.000431,0.140564
66846000,0.0324,0.013523,0.002678,0.000431,0.133042
66847000,0.0324,0.013523,0.002678,0.000431,0.101897
66848000,0.0324,0.013523,0.002678,0.000431,0.089674
66849000,0.0324,0.013523,0.002678,0.000431,0.090027
66850000,0.0324,0.013523,0.002678,0.000431,0.050772
66851000,0.0324,0.013523,0.002678,0.000431,0.043720
66852000,0.0324,0.013523,0.002678,0.000431,0.026561
66853000,0.0324,0.013523,0.002678,0.000431,0.022800
66854000,0.0324,0.013523,0.002678,0.000431,0.014809
66855000,0.0324,0.013523,0.002678,0.000431,0.011165
66856000,0.0324,0.013523,0.002678,0.000431,0.008462
66857000,0.0324,0.013523,0.002678,0.000431,0.009050
66858000,0.0324,0.013523,0.002678,0.000431,0.011283
66859000,0.0324,0.013523,0.002678,0.000431,0.001880
66860000,0.0324,0.013523,0.002678,0.000431,0.001528
66861000,0.0324,0.013523,0.002678,0.000431,0.001645
66862000,0.0324,0.013523,0.002678,0.000431,0.003996
66863000,0.0324,0.013523,0.002678,0.000431,0.001058
66864000,0.0324,0.013523,0.002678,0.000431,0.000705
66865000,0.0324,0.013523,0.002678,0.000431,0.198740
66866000,0.0324,0.013523,0.002678,0.000431,0.733611
66867000,0.0324,0.013523,0.002678,0.000431,0.495616
66868000,0.0324,0.013523,0.002678,0.000431,0.135392
66869000,0.0324,0.013523,0.002678,0.000431,0.342007
66870000,0.0324,0.013523,0.002678,0.000431,0.440966
66871000,0.0324,0.013523,0.002678,0.000431,0.263381
66872000,0.0324,0.013523,0.002678,0.000431,0.272665
66873000,0.0324,0.013523,0.002678,0.000431,0.157958
66874000,0.0324,0.013523,0.002678,0.000431,0.116000
66875000,0.0324,0.013523,0.002678,0.000431,0.428978
66876000,0.0324,0.013523,0.002678,0.000431,0.396658
66877000,0.0324,0.013523,0.002678,0.000431,0.226947
66878000,0.0324,0.013523,0.002678,0.000431,0.198505
66879000,0.0324,0.013523,0.002678,0.000431,0.182639
66880000,0.0324,0.013523,0.002678,0.000431,0.142444
66881000,0.0324,0.013523,0.002678,0.000431,0.113297
66882000,0.0324,0.013523,0.002678,0.000431,0.094610
66883000,0.0324,0.013523,0.002678,0.000431,0.071810
66884000,0.0324,0.013523,0.002678,0.000431,0.068872
66885000,0.0324,0.013523,0.002678,0.000431,0.036551
66886000,0.0324,0.013523,0.002678,0.000431,0.042663
66887000,0.0324,0.013523,0.002678,0.000431,0.034906
66888000,0.0324,0.013523,0.002678,0.000431,0.021390
66889000,0.0324,0.013523,0.002678,0.000431,0.016807
66890000,0.0324,0.013523,0.002678,0.000431,0.010695
66891000,0.0324,0.013523,0.002678,0.000431,0.010225
66892000,0.0324,0.013523,0.002678,0.000431,0.009520
66893000,0.0324,0.013523,0.002678,0.000431,0.006582
66894000,0.0324,0.013523,0.002678,0.000431,0.005171
66895000,0.0324,0.013523,0.002678,0.000431,0.003643
66896000,0.0324,0.013523,0.002678,0.000431,0.003526
66897000,0.0324,0.013523,0.002678,0.000431,0.002938
66898000,0.0324,0.013523,0.002678,0.000431,0.004113
66899000,0.0324,0.013523,0.002678,0.000431,0.002938
66900000,0.0324,0.013523,0.002678,0.000431,0.003643
66901000,0.0324,0.013523,0.002678,0.000431,0.003291
66902000,0.0324,0.013523,0.002678,0.000431,0.003878
66903000,0.0324,0.013523,0.002678,0.000431,0.002821
66904000,0.0324,0.013523,0.002678,0.000431,0.003878
66905000,0.0324,0.013523,0.002678,0.000431,0.006582
66906000,0.0324,0.013523,0.002678,0.000431,0.003173
66907000,0.0324,0.013523,0.002678,0.000431,0.552618
66908000,0.0324,0.013523,0.002678,0.000431,0.763346
66909000,0.0324,0.013523,0.002678,0.000431,0.175352
66910000,0.0324,0.013523,0.002678,0.000431,0.136920
66911000,0.0324,0.013523,0.002678,0.000431,0.552970
66912000,0.0324,0.013523,0.002678,0.000431,0.243871
66913000,0.0324,0.013523,0.002678,0.000431,0.349646
66914000,0.0324,0.013523,0.002678,0.000431,0.159721
66915000,0.0324,0.013523,0.002678,0.000431,0.163247
66916000,0.0324,0.013523,0.002678,0.000431,0.163599
66917000,0.0324,0.013523,0.002678,0.000431,0.566368
66918000,0.0324,0.013523,0.002678,0.000431,0.248455
66919000,0.0324,0.013523,0.002678,0.000431,0.186987
66920000,0.0324,0.013523,0.002678,0.000431,0.165010
66921000,0.0324,0.013523,0.002678,0.000431,0.117998
66922000,0.0324,0.013523,0.002678,0.000431,0.104718
66923000,0.0324,0.013523,0.002678,0.000431,0.076511
66924000,0.0324,0.013523,0.002678,0.000431,0.074395
66925000,0.0324,0.013523,0.002678,0.000431,0.043720
66926000,0.0324,0.013523,0.002678,0.000431,0.038432
66927000,0.0324,0.013523,0.002678,0.000431,0.028324
66928000,0.0324,0.013523,0.002678,0.000431,0.030910
66929000,0.0324,0.013523,0.002678,0.000431,0.024093
66930000,0.0324,0.013523,0.002678,0.000431,0.018452
66931000,0.0324,0.013523,0.002678,0.000431,0.013751
66932000,0.0324,0.013523,0.002678,0.000431,0.013046
66933000,0.0324,0.013523,0.002678,0.000431,0.013751
66934000,0.0324,0.013523,0.002678,0.000431,0.011753
66935000,0.0324,0.013523,0.002678,0.000431,0.003878
66936000,0.0324,0.013523,0.002678,0.000431,0.001645
66937000,0.0324,0.013523,0.002678,0.000431,0.002116
66938000,0.0324,0.013523,0.002678,0.000431,0.001763
66939000,0.0324,0.013523,0.002678,0.000431,0.002233
66940000,0.0324,0.013523,0.002678,0.000431,0.002938
66941000,0.0324,0.013523,0.002678,0.000431,0.002938
66942000,0.0324,0.013523,0.002678,0.000431,0.001058
66943000,0.0324,0.013523,0.002678,0.000431,0.001645
66944000,0.0324,0.013523,0.002678,0.000431,0.001645
66945000,0.0324,0.013523,0.002678,0.000431,0.000823
66946000,0.0324,0.013523,0.002678,0.000431,0.001058
66947000,0.0324,0.013523,0.002678,0.000431,0.001880
66948000,0.0324,0.013523,0.002678,0.000431,0.001293
66949000,0.0324,0.013523,0.002678,0.000431,0.001763
66950000,0.0324,0.013523,0.002678,0.000431,0.209435
66951000,0.0324,0.013523,0.002678,0.000431,0.760407
66952000,0.0324,0.013523,0.002678,0.000431,0.486449
66953000,0.0324,0.013523,0.002678,0.000431,0.145030
66954000,0.0324,0.013523,0.002678,0.000431,0.453189
66955000,0.0324,0.013523,0.002678,0.000431,0.313918
66956000,0.0324,0.013523,0.002678,0.000431,0.323673
66957000,0.0324,0.013523,0.002678,0.000431,0.219895
66958000,0.0324,0.013523,0.002678,0.000431,0.180758
66959000,0.0324,0.013523,0.002678,0.000431,0.095433
66960000,0.0324,0.013523,0.002678,0.000431,0.566956
66961000,0.0324,0.013523,0.002678,0.000431,0.269845
66962000,0.0324,0.013523,0.002678,0.000431,0.213079
66963000,0.0324,0.013523,0.002678,0.000431,0.171591
66964000,0.0324,0.013523,0.002678,0.000431,0.150671
66965000,0.0324,0.013523,0.002678,0.000431,0.141621
66966000,0.0324,0.013523,0.002678,0.000431,0.122699
66967000,0.0324,0.013523,0.002678,0.000431,0.098019
66968000,0.0324,0.013523,0.002678,0.000431,0.079332
66969000,0.0324,0.013523,0.002678,0.000431,0.053945
66970000,0.0324,0.013523,0.002678,0.000431,0.038902
66971000,0.0324,0.013523,0.002678,0.000431,0.043368
66972000,0.0324,0.013523,0.002678,0.000431,0.034083
66973000,0.0324,0.013523,0.002678,0.000431,0.021743
66974000,0.0324,0.013523,0.002678,0.000431,0.010813
66975000,0.0324,0.013523,0.002678,0.000431,0.013281
66976000,0.0324,0.013523,0.002678,0.000431,0.008815
66977000,0.0324,0.013523,0.002678,0.000431,0.002468
66978000,0.0324,0.013523,0.002678,0.000431,0.002468
66979000,0.0324,0.013523,0.002678,0.000431,0.005759
66980000,0.0324,0.013523,0.002678,0.000431,0.001410
66981000,0.0324,0.013523,0.002678,0.000431,0.001880
66982000,0.0324,0.013523,0.002678,0.000431,0.001645
66983000,0.0324,0.013523,0.002678,0.000431,0.001645
66984000,0.0324,0.013523,0.002678,0.000431,0.001763
66985000,0.0324,0.013523,0.002678,0.000431,0.001763
66986000,0.0324,0.013523,0.002678,0.000431,0.001645
66987000,0.0324,0.013523,0.002678,0.000431,0.003996
66988000,0.0324,0.013523,0.002678,0.000431,0.001058
66989000,0.0324,0.013523,0.002678,0.000431,0.279012
66990000,0.0324,0.013523,0.002678,0.000431,0.803305
66991000,0.0324,0.013523,0.002678,0.000431,0.392897
66992000,0.0324,0.013523,0.002678,0.000431,0.139506
66993000,0.0324,0.013523,0.002678,0.000431,0.516419
66994000,0.0324,0.013523,0.002678,0.000431,0.251393
66995000,0.0324,0.013523,0.002678,0.000431,0.347413
66996000,0.0324,0.013523,0.002678,0.000431,0.204029
66997000,0.0324,0.013523,0.002678,0.000431,0.171944
66998000,0.0324,0.013523,0.002678,0.000431,0.144325
66999000,0.0324,0.013523,0.002678,0.000431,0.558611
