Cycle,Area(mm^2),PeakDynamic(W),SubthresholdLeakage(W),GateLeakage(W),RunTimeDynamic(W)
101000000,0.0324,0.013523,0.002678,0.000431,0.000705
101001000,0.0324,0.013523,0.002678,0.000431,0.000940
101002000,0.0324,0.013523,0.002678,0.000431,0.000823
101003000,0.0324,0.013523,0.002678,0.000431,0.000823
101004000,0.0324,0.013523,0.002678,0.000431,0.000823
101005000,0.0324,0.013523,0.002678,0.000431,0.000823
101006000,0.0324,0.013523,0.002678,0.000431,0.000823
101007000,0.0324,0.013523,0.002678,0.000431,0.000823
101008000,0.0324,0.013523,0.002678,0.000431,0.000940
101009000,0.0324,0.013523,0.002678,0.000431,0.000705
101010000,0.0324,0.013523,0.002678,0.000431,0.000940
101011000,0.0324,0.013523,0.002678,0.000431,0.000823
101012000,0.0324,0.013523,0.002678,0.000431,0.000823
101013000,0.0324,0.013523,0.002678,0.000431,0.000705
101014000,0.0324,0.013523,0.002678,0.000431,0.000940
101015000,0.0324,0.013523,0.002678,0.000431,0.000940
101016000,0.0324,0.013523,0.002678,0.000431,0.000705
101017000,0.0324,0.013523,0.002678,0.000431,0.000940
101018000,0.0324,0.013523,0.002678,0.000431,0.000705
101019000,0.0324,0.013523,0.002678,0.000431,0.000940
101020000,0.0324,0.013523,0.002678,0.000431,0.000823
101021000,0.0324,0.013523,0.002678,0.000431,0.000823
101022000,0.0324,0.013523,0.002678,0.000431,0.000823
101023000,0.0324,0.013523,0.002678,0.000431,0.000823
101024000,0.0324,0.013523,0.002678,0.000431,0.000940
101025000,0.0324,0.013523,0.002678,0.000431,0.000705
101026000,0.0324,0.013523,0.002678,0.000431,0.000940
101027000,0.0324,0.013523,0.002678,0.000431,0.000823
101028000,0.0324,0.013523,0.002678,0.000431,0.000823
101029000,0.0324,0.013523,0.002678,0.000431,0.000823
101030000,0.0324,0.013523,0.002678,0.000431,0.000823
101031000,0.0324,0.013523,0.002678,0.000431,0.000823
101032000,0.0324,0.013523,0.002678,0.000431,0.000823
101033000,0.0324,0.013523,0.002678,0.000431,0.000823
101034000,0.0324,0.013523,0.002678,0.000431,0.000823
101035000,0.0324,0.013523,0.002678,0.000431,0.000940
101036000,0.0324,0.013523,0.002678,0.000431,0.000823
101037000,0.0324,0.013523,0.002678,0.000431,0.000823
101038000,0.0324,0.013523,0.002678,0.000431,0.000705
101039000,0.0324,0.013523,0.002678,0.000431,0.000940
101040000,0.0324,0.013523,0.002678,0.000431,0.035141
101041000,0.0324,0.013523,0.002678,0.000431,0.629481
101042000,0.0324,0.013523,0.002678,0.000431,0.587053
101043000,0.0324,0.013523,0.002678,0.000431,0.141857
101044000,0.0324,0.013523,0.002678,0.000431,0.148203
101045000,0.0324,0.013523,0.002678,0.000431,0.592460
101046000,0.0324,0.013523,0.002678,0.000431,0.232823
101047000,0.0324,0.013523,0.002678,0.000431,0.311097
101048000,0.0324,0.013523,0.002678,0.000431,0.254801
101049000,0.0324,0.013523,0.002678,0.000431,0.139271
101050000,0.0324,0.013523,0.002678,0.000431,0.169946
101051000,0.0324,0.013523,0.002678,0.000431,0.132572
101052000,0.0324,0.013523,0.002678,0.000431,0.475637
101053000,0.0324,0.013523,0.002678,0.000431,0.171121
101054000,0.0324,0.013523,0.002678,0.000431,0.137978
101055000,0.0324,0.013523,0.002678,0.000431,0.124932
101056000,0.0324,0.013523,0.002678,0.000431,0.109889
101057000,0.0324,0.013523,0.002678,0.000431,0.103307
101058000,0.0324,0.013523,0.002678,0.000431,0.090732
101059000,0.0324,0.013523,0.002678,0.000431,0.091790
101060000,0.0324,0.013523,0.002678,0.000431,0.080742
101061000,0.0324,0.013523,0.002678,0.000431,0.063700
101062000,0.0324,0.013523,0.002678,0.000431,0.064170
101063000,0.0324,0.013523,0.002678,0.000431,0.057001
101064000,0.0324,0.013523,0.002678,0.000431,0.046776
101065000,0.0324,0.013523,0.002678,0.000431,0.044426
101066000,0.0324,0.013523,0.002678,0.000431,0.033966
101067000,0.0324,0.013523,0.002678,0.000431,0.037609
101068000,0.0324,0.013523,0.002678,0.000431,0.026444
101069000,0.0324,0.013523,0.002678,0.000431,0.022095
101070000,0.0324,0.013523,0.002678,0.000431,0.023506
101071000,0.0324,0.013523,0.002678,0.000431,0.018452
101072000,0.0324,0.013523,0.002678,0.000431,0.017159
101073000,0.0324,0.013523,0.002678,0.000431,0.013986
101074000,0.0324,0.013523,0.002678,0.000431,0.014103
101075000,0.0324,0.013523,0.002678,0.000431,0.015279
101076000,0.0324,0.013523,0.002678,0.000431,0.014221
101077000,0.0324,0.013523,0.002678,0.000431,0.011518
101078000,0.0324,0.013523,0.002678,0.000431,0.010578
101079000,0.0324,0.013523,0.002678,0.000431,0.008462
101080000,0.0324,0.013523,0.002678,0.000431,0.007052
101081000,0.0324,0.013523,0.002678,0.000431,0.007874
101082000,0.0324,0.013523,0.002678,0.000431,0.014103
101083000,0.0324,0.013523,0.002678,0.000431,0.006699
101084000,0.0324,0.013523,0.002678,0.000431,0.003173
101085000,0.0324,0.013523,0.002678,0.000431,0.003526
101086000,0.0324,0.013523,0.002678,0.000431,0.003643
101087000,0.0324,0.013523,0.002678,0.000431,0.003173
101088000,0.0324,0.013523,0.002678,0.000431,0.003291
101089000,0.0324,0.013523,0.002678,0.000431,0.003643
101090000,0.0324,0.013523,0.002678,0.000431,0.003526
101091000,0.0324,0.013523,0.002678,0.000431,0.003173
101092000,0.0324,0.013523,0.002678,0.000431,0.003526
101093000,0.0324,0.013523,0.002678,0.000431,0.003526
101094000,0.0324,0.013523,0.002678,0.000431,0.003173
101095000,0.0324,0.013523,0.002678,0.000431,0.003408
101096000,0.0324,0.013523,0.002678,0.000431,0.003526
101097000,0.0324,0.013523,0.002678,0.000431,0.003526
101098000,0.0324,0.013523,0.002678,0.000431,0.003526
101099000,0.0324,0.013523,0.002678,0.000431,0.003173
101100000,0.0324,0.013523,0.002678,0.000431,0.003526
101101000,0.0324,0.013523,0.002678,0.000431,0.003408
101102000,0.0324,0.013523,0.002678,0.000431,0.003526
101103000,0.0324,0.013523,0.002678,0.000431,0.003173
101104000,0.0324,0.013523,0.002678,0.000431,0.003408
101105000,0.0324,0.013523,0.002678,0.000431,0.003761
101106000,0.0324,0.013523,0.002678,0.000431,0.003291
101107000,0.0324,0.013523,0.002678,0.000431,0.003173
101108000,0.0324,0.013523,0.002678,0.000431,0.005641
101109000,0.0324,0.013523,0.002678,0.000431,0.002468
101110000,0.0324,0.013523,0.002678,0.000431,0.002468
101111000,0.0324,0.013523,0.002678,0.000431,0.002351
101112000,0.0324,0.013523,0.002678,0.000431,0.002821
101113000,0.0324,0.013523,0.002678,0.000431,0.002233
101114000,0.0324,0.013523,0.002678,0.000431,0.002468
101115000,0.0324,0.013523,0.002678,0.000431,0.002586
101116000,0.0324,0.013523,0.002678,0.000431,0.002468
101117000,0.0324,0.013523,0.002678,0.000431,0.002586
101118000,0.0324,0.013523,0.002678,0.000431,0.002586
101119000,0.0324,0.013523,0.002678,0.000431,0.002703
101120000,0.0324,0.013523,0.002678,0.000431,0.002233
101121000,0.0324,0.013523,0.002678,0.000431,0.002468
101122000,0.0324,0.013523,0.002678,0.000431,0.006934
101123000,0.0324,0.013523,0.002678,0.000431,0.001058
101124000,0.0324,0.013523,0.002678,0.000431,0.000823
101125000,0.0324,0.013523,0.002678,0.000431,0.000823
101126000,0.0324,0.013523,0.002678,0.000431,0.000940
101127000,0.0324,0.013523,0.002678,0.000431,0.000940
101128000,0.0324,0.013523,0.002678,0.000431,0.000705
101129000,0.0324,0.013523,0.002678,0.000431,0.000940
101130000,0.0324,0.013523,0.002678,0.000431,0.000940
101131000,0.0324,0.013523,0.002678,0.000431,0.000940
101132000,0.0324,0.013523,0.002678,0.000431,0.000823
101133000,0.0324,0.013523,0.002678,0.000431,0.000823
101134000,0.0324,0.013523,0.002678,0.000431,0.000940
101135000,0.0324,0.013523,0.002678,0.000431,0.000823
101136000,0.0324,0.013523,0.002678,0.000431,0.000940
101137000,0.0324,0.013523,0.002678,0.000431,0.000823
101138000,0.0324,0.013523,0.002678,0.000431,0.000940
101139000,0.0324,0.013523,0.002678,0.000431,0.000823
101140000,0.0324,0.013523,0.002678,0.000431,0.000823
101141000,0.0324,0.013523,0.002678,0.000431,0.000940
101142000,0.0324,0.013523,0.002678,0.000431,0.000940
101143000,0.0324,0.013523,0.002678,0.000431,0.000940
101144000,0.0324,0.013523,0.002678,0.000431,0.000823
101145000,0.0324,0.013523,0.002678,0.000431,0.000823
101146000,0.0324,0.013523,0.002678,0.000431,0.000940
101147000,0.0324,0.013523,0.002678,0.000431,0.000823
101148000,0.0324,0.013523,0.002678,0.000431,0.000940
101149000,0.0324,0.013523,0.002678,0.000431,0.000823
101150000,0.0324,0.013523,0.002678,0.000431,0.000940
101151000,0.0324,0.013523,0.002678,0.000431,0.000823
101152000,0.0324,0.013523,0.002678,0.000431,0.000823
101153000,0.0324,0.013523,0.002678,0.000431,0.000940
101154000,0.0324,0.013523,0.002678,0.000431,0.000940
101155000,0.0324,0.013523,0.002678,0.000431,0.000823
101156000,0.0324,0.013523,0.002678,0.000431,0.000823
101157000,0.0324,0.013523,0.002678,0.000431,0.000940
101158000,0.0324,0.013523,0.002678,0.000431,0.000940
101159000,0.0324,0.013523,0.002678,0.000431,0.000823
101160000,0.0324,0.013523,0.002678,0.000431,0.000823
101161000,0.0324,0.013523,0.002678,0.000431,0.000940
101162000,0.0324,0.013523,0.002678,0.000431,0.000940
101163000,0.0324,0.013523,0.002678,0.000431,0.000823
101164000,0.0324,0.013523,0.002678,0.000431,0.000823
101165000,0.0324,0.013523,0.002678,0.000431,0.000940
101166000,0.0324,0.013523,0.002678,0.000431,0.000823
101167000,0.0324,0.013523,0.002678,0.000431,0.000940
101168000,0.0324,0.013523,0.002678,0.000431,0.000823
101169000,0.0324,0.013523,0.002678,0.000431,0.000940
101170000,0.0324,0.013523,0.002678,0.000431,0.000823
101171000,0.0324,0.013523,0.002678,0.000431,0.000823
101172000,0.0324,0.013523,0.002678,0.000431,0.000940
101173000,0.0324,0.013523,0.002678,0.000431,0.000940
101174000,0.0324,0.013523,0.002678,0.000431,0.000823
101175000,0.0324,0.013523,0.002678,0.000431,0.000823
101176000,0.0324,0.013523,0.002678,0.000431,0.000940
101177000,0.0324,0.013523,0.002678,0.000431,0.000940
101178000,0.0324,0.013523,0.002678,0.000431,0.000705
101179000,0.0324,0.013523,0.002678,0.000431,0.000940
101180000,0.0324,0.013523,0.002678,0.000431,0.000940
101181000,0.0324,0.013523,0.002678,0.000431,0.000823
101182000,0.0324,0.013523,0.002678,0.000431,0.000823
101183000,0.0324,0.013523,0.002678,0.000431,0.000940
101184000,0.0324,0.013523,0.002678,0.000431,0.000940
101185000,0.0324,0.013523,0.002678,0.000431,0.000823
101186000,0.0324,0.013523,0.002678,0.000431,0.000823
101187000,0.0324,0.013523,0.002678,0.000431,0.000940
101188000,0.0324,0.013523,0.002678,0.000431,0.000940
101189000,0.0324,0.013523,0.002678,0.000431,0.000940
101190000,0.0324,0.013523,0.002678,0.000431,0.000940
101191000,0.0324,0.013523,0.002678,0.000431,0.000705
101192000,0.0324,0.013523,0.002678,0.000431,0.000940
101193000,0.0324,0.013523,0.002678,0.000431,0.000940
101194000,0.0324,0.013523,0.002678,0.000431,0.000940
101195000,0.0324,0.013523,0.002678,0.000431,0.000705
101196000,0.0324,0.013523,0.002678,0.000431,0.000940
101197000,0.0324,0.013523,0.002678,0.000431,0.000940
101198000,0.0324,0.013523,0.002678,0.000431,0.000823
101199000,0.0324,0.013523,0.002678,0.000431,0.000823
101200000,0.0324,0.013523,0.002678,0.000431,0.000940
101201000,0.0324,0.013523,0.002678,0.000431,0.000940
101202000,0.0324,0.013523,0.002678,0.000431,0.000823
101203000,0.0324,0.013523,0.002678,0.000431,0.000823
101204000,0.0324,0.013523,0.002678,0.000431,0.000940
101205000,0.0324,0.013523,0.002678,0.000431,0.000823
101206000,0.0324,0.013523,0.002678,0.000431,0.000940
101207000,0.0324,0.013523,0.002678,0.000431,0.000823
101208000,0.0324,0.013523,0.002678,0.000431,0.000940
101209000,0.0324,0.013523,0.002678,0.000431,0.000823
101210000,0.0324,0.013523,0.002678,0.000431,0.000823
101211000,0.0324,0.013523,0.002678,0.000431,0.000940
101212000,0.0324,0.013523,0.002678,0.000431,0.000940
101213000,0.0324,0.013523,0.002678,0.000431,0.000940
101214000,0.0324,0.013523,0.002678,0.000431,0.000705
101215000,0.0324,0.013523,0.002678,0.000431,0.000940
101216000,0.0324,0.013523,0.002678,0.000431,0.000940
101217000,0.0324,0.013523,0.002678,0.000431,0.000823
101218000,0.0324,0.013523,0.002678,0.000431,0.000823
101219000,0.0324,0.013523,0.002678,0.000431,0.000940
101220000,0.0324,0.013523,0.002678,0.000431,0.000823
101221000,0.0324,0.013523,0.002678,0.000431,0.000940
101222000,0.0324,0.013523,0.002678,0.000431,0.000823
101223000,0.0324,0.013523,0.002678,0.000431,0.000940
101224000,0.0324,0.013523,0.002678,0.000431,0.000823
101225000,0.0324,0.013523,0.002678,0.000431,0.000823
101226000,0.0324,0.013523,0.002678,0.000431,0.000940
101227000,0.0324,0.013523,0.002678,0.000431,0.000940
101228000,0.0324,0.013523,0.002678,0.000431,0.000823
101229000,0.0324,0.013523,0.002678,0.000431,0.000823
101230000,0.0324,0.013523,0.002678,0.000431,0.000940
101231000,0.0324,0.013523,0.002678,0.000431,0.000940
101232000,0.0324,0.013523,0.002678,0.000431,0.000705
101233000,0.0324,0.013523,0.002678,0.000431,0.000940
101234000,0.0324,0.013523,0.002678,0.000431,0.000940
101235000,0.0324,0.013523,0.002678,0.000431,0.000940
101236000,0.0324,0.013523,0.002678,0.000431,0.000705
101237000,0.0324,0.013523,0.002678,0.000431,0.000940
101238000,0.0324,0.013523,0.002678,0.000431,0.000940
101239000,0.0324,0.013523,0.002678,0.000431,0.000823
101240000,0.0324,0.013523,0.002678,0.000431,0.000940
101241000,0.0324,0.013523,0.002678,0.000431,0.000823
101242000,0.0324,0.013523,0.002678,0.000431,0.000940
101243000,0.0324,0.013523,0.002678,0.000431,0.000823
101244000,0.0324,0.013523,0.002678,0.000431,0.000823
101245000,0.0324,0.013523,0.002678,0.000431,0.000940
101246000,0.0324,0.013523,0.002678,0.000431,0.000940
101247000,0.0324,0.013523,0.002678,0.000431,0.000823
101248000,0.0324,0.013523,0.002678,0.000431,0.000823
101249000,0.0324,0.013523,0.002678,0.000431,0.000940
101250000,0.0324,0.013523,0.002678,0.000431,0.000940
101251000,0.0324,0.013523,0.002678,0.000431,0.000705
101252000,0.0324,0.013523,0.002678,0.000431,0.000940
101253000,0.0324,0.013523,0.002678,0.000431,0.000940
101254000,0.0324,0.013523,0.002678,0.000431,0.022918
101255000,0.0324,0.013523,0.002678,0.000431,0.618198
101256000,0.0324,0.013523,0.002678,0.000431,0.599041
101257000,0.0324,0.013523,0.002678,0.000431,0.132572
101258000,0.0324,0.013523,0.002678,0.000431,0.133982
101259000,0.0324,0.013523,0.002678,0.000431,0.550502
101260000,0.0324,0.013523,0.002678,0.000431,0.254331
101261000,0.0324,0.013523,0.002678,0.000431,0.245869
101262000,0.0324,0.013523,0.002678,0.000431,0.289237
101263000,0.0324,0.013523,0.002678,0.000431,0.142327
101264000,0.0324,0.013523,0.002678,0.000431,0.152081
101265000,0.0324,0.013523,0.002678,0.000431,0.113650
101266000,0.0324,0.013523,0.002678,0.000431,0.411114
101267000,0.0324,0.013523,0.002678,0.000431,0.218485
101268000,0.0324,0.013523,0.002678,0.000431,0.112592
101269000,0.0324,0.013523,0.002678,0.000431,0.099076
101270000,0.0324,0.013523,0.002678,0.000431,0.089909
101271000,0.0324,0.013523,0.002678,0.000431,0.077098
101272000,0.0324,0.013523,0.002678,0.000431,0.070282
101273000,0.0324,0.013523,0.002678,0.000431,0.066874
101274000,0.0324,0.013523,0.002678,0.000431,0.060292
101275000,0.0324,0.013523,0.002678,0.000431,0.061350
101276000,0.0324,0.013523,0.002678,0.000431,0.055356
101277000,0.0324,0.013523,0.002678,0.000431,0.048539
101278000,0.0324,0.013523,0.002678,0.000431,0.044661
101279000,0.0324,0.013523,0.002678,0.000431,0.040077
101280000,0.0324,0.013523,0.002678,0.000431,0.039137
101281000,0.0324,0.013523,0.002678,0.000431,0.034553
101282000,0.0324,0.013523,0.002678,0.000431,0.036316
101283000,0.0324,0.013523,0.002678,0.000431,0.035611
101284000,0.0324,0.013523,0.002678,0.000431,0.025504
101285000,0.0324,0.013523,0.002678,0.000431,0.024211
101286000,0.0324,0.013523,0.002678,0.000431,0.024681
101287000,0.0324,0.013523,0.002678,0.000431,0.023388
101288000,0.0324,0.013523,0.002678,0.000431,0.025504
101289000,0.0324,0.013523,0.002678,0.000431,0.028677
101290000,0.0324,0.013523,0.002678,0.000431,0.019510
101291000,0.0324,0.013523,0.002678,0.000431,0.018569
101292000,0.0324,0.013523,0.002678,0.000431,0.016689
101293000,0.0324,0.013523,0.002678,0.000431,0.018217
101294000,0.0324,0.013523,0.002678,0.000431,0.018217
101295000,0.0324,0.013523,0.002678,0.000431,0.014456
101296000,0.0324,0.013523,0.002678,0.000431,0.017512
101297000,0.0324,0.013523,0.002678,0.000431,0.014338
101298000,0.0324,0.013523,0.002678,0.000431,0.010107
101299000,0.0324,0.013523,0.002678,0.000431,0.007639
101300000,0.0324,0.013523,0.002678,0.000431,0.004466
101301000,0.0324,0.013523,0.002678,0.000431,0.001880
101302000,0.0324,0.013523,0.002678,0.000431,0.001763
101303000,0.0324,0.013523,0.002678,0.000431,0.001763
101304000,0.0324,0.013523,0.002678,0.000431,0.001763
101305000,0.0324,0.013523,0.002678,0.000431,0.001645
101306000,0.0324,0.013523,0.002678,0.000431,0.003996
101307000,0.0324,0.013523,0.002678,0.000431,0.001058
101308000,0.0324,0.013523,0.002678,0.000431,0.000940
101309000,0.0324,0.013523,0.002678,0.000431,0.013751
101310000,0.0324,0.013523,0.002678,0.000431,0.544626
101311000,0.0324,0.013523,0.002678,0.000431,0.587288
101312000,0.0324,0.013523,0.002678,0.000431,0.132102
101313000,0.0324,0.013523,0.002678,0.000431,0.134452
101314000,0.0324,0.013523,0.002678,0.000431,0.494088
101315000,0.0324,0.013523,0.002678,0.000431,0.256917
101316000,0.0324,0.013523,0.002678,0.000431,0.238700
101317000,0.0324,0.013523,0.002678,0.000431,0.331900
101318000,0.0324,0.013523,0.002678,0.000431,0.152434
101319000,0.0324,0.013523,0.002678,0.000431,0.145265
101320000,0.0324,0.013523,0.002678,0.000431,0.143267
101321000,0.0324,0.013523,0.002678,0.000431,0.240110
101322000,0.0324,0.013523,0.002678,0.000431,0.457302
101323000,0.0324,0.013523,0.002678,0.000431,0.173472
101324000,0.0324,0.013523,0.002678,0.000431,0.149966
101325000,0.0324,0.013523,0.002678,0.000431,0.143384
101326000,0.0324,0.013523,0.002678,0.000431,0.139976
101327000,0.0324,0.013523,0.002678,0.000431,0.111417
101328000,0.0324,0.013523,0.002678,0.000431,0.104130
101329000,0.0324,0.013523,0.002678,0.000431,0.087794
101330000,0.0324,0.013523,0.002678,0.000431,0.090144
101331000,0.0324,0.013523,0.002678,0.000431,0.078509
101332000,0.0324,0.013523,0.002678,0.000431,0.063465
101333000,0.0324,0.013523,0.002678,0.000431,0.064993
101334000,0.0324,0.013523,0.002678,0.000431,0.053710
101335000,0.0324,0.013523,0.002678,0.000431,0.049949
101336000,0.0324,0.013523,0.002678,0.000431,0.036316
101337000,0.0324,0.013523,0.002678,0.000431,0.037491
101338000,0.0324,0.013523,0.002678,0.000431,0.034083
101339000,0.0324,0.013523,0.002678,0.000431,0.026914
101340000,0.0324,0.013523,0.002678,0.000431,0.020685
101341000,0.0324,0.013523,0.002678,0.000431,0.018452
101342000,0.0324,0.013523,0.002678,0.000431,0.023623
101343000,0.0324,0.013523,0.002678,0.000431,0.021860
101344000,0.0324,0.013523,0.002678,0.000431,0.011400
101345000,0.0324,0.013523,0.002678,0.000431,0.010695
101346000,0.0324,0.013523,0.002678,0.000431,0.017982
101347000,0.0324,0.013523,0.002678,0.000431,0.010460
101348000,0.0324,0.013523,0.002678,0.000431,0.011518
101349000,0.0324,0.013523,0.002678,0.000431,0.005759
101350000,0.0324,0.013523,0.002678,0.000431,0.005054
101351000,0.0324,0.013523,0.002678,0.000431,0.005054
101352000,0.0324,0.013523,0.002678,0.000431,0.004936
101353000,0.0324,0.013523,0.002678,0.000431,0.005406
101354000,0.0324,0.013523,0.002678,0.000431,0.005054
101355000,0.0324,0.013523,0.002678,0.000431,0.004819
101356000,0.0324,0.013523,0.002678,0.000431,0.006817
101357000,0.0324,0.013523,0.002678,0.000431,0.003643
101358000,0.0324,0.013523,0.002678,0.000431,0.003526
101359000,0.0324,0.013523,0.002678,0.000431,0.003291
101360000,0.0324,0.013523,0.002678,0.000431,0.006464
101361000,0.0324,0.013523,0.002678,0.000431,0.002703
101362000,0.0324,0.013523,0.002678,0.000431,0.002351
101363000,0.0324,0.013523,0.002678,0.000431,0.002468
101364000,0.0324,0.013523,0.002678,0.000431,0.002703
101365000,0.0324,0.013523,0.002678,0.000431,0.002351
101366000,0.0324,0.013523,0.002678,0.000431,0.002703
101367000,0.0324,0.013523,0.002678,0.000431,0.002351
101368000,0.0324,0.013523,0.002678,0.000431,0.002586
101369000,0.0324,0.013523,0.002678,0.000431,0.002586
101370000,0.0324,0.013523,0.002678,0.000431,0.002468
101371000,0.0324,0.013523,0.002678,0.000431,0.002468
101372000,0.0324,0.013523,0.002678,0.000431,0.002586
101373000,0.0324,0.013523,0.002678,0.000431,0.002351
101374000,0.0324,0.013523,0.002678,0.000431,0.002703
101375000,0.0324,0.013523,0.002678,0.000431,0.003526
101376000,0.0324,0.013523,0.002678,0.000431,0.002468
101377000,0.0324,0.013523,0.002678,0.000431,0.001880
101378000,0.0324,0.013523,0.002678,0.000431,0.001763
101379000,0.0324,0.013523,0.002678,0.000431,0.001528
101380000,0.0324,0.013523,0.002678,0.000431,0.001880
101381000,0.0324,0.013523,0.002678,0.000431,0.001528
101382000,0.0324,0.013523,0.002678,0.000431,0.001763
101383000,0.0324,0.013523,0.002678,0.000431,0.001645
101384000,0.0324,0.013523,0.002678,0.000431,0.001645
101385000,0.0324,0.013523,0.002678,0.000431,0.001763
101386000,0.0324,0.013523,0.002678,0.000431,0.001645
101387000,0.0324,0.013523,0.002678,0.000431,0.001763
101388000,0.0324,0.013523,0.002678,0.000431,0.001645
101389000,0.0324,0.013523,0.002678,0.000431,0.001763
101390000,0.0324,0.013523,0.002678,0.000431,0.001645
101391000,0.0324,0.013523,0.002678,0.000431,0.001645
101392000,0.0324,0.013523,0.002678,0.000431,0.001645
101393000,0.0324,0.013523,0.002678,0.000431,0.001763
101394000,0.0324,0.013523,0.002678,0.000431,0.001645
101395000,0.0324,0.013523,0.002678,0.000431,0.002703
101396000,0.0324,0.013523,0.002678,0.000431,0.002116
101397000,0.0324,0.013523,0.002678,0.000431,0.207202
101398000,0.0324,0.013523,0.002678,0.000431,0.616083
101399000,0.0324,0.013523,0.002678,0.000431,0.510307
101400000,0.0324,0.013523,0.002678,0.000431,0.143502
101401000,0.0324,0.013523,0.002678,0.000431,0.146793
101402000,0.0324,0.013523,0.002678,0.000431,0.597748
101403000,0.0324,0.013523,0.002678,0.000431,0.226594
101404000,0.0324,0.013523,0.002678,0.000431,0.299109
101405000,0.0324,0.013523,0.002678,0.000431,0.242696
101406000,0.0324,0.013523,0.002678,0.000431,0.154432
101407000,0.0324,0.013523,0.002678,0.000431,0.144442
101408000,0.0324,0.013523,0.002678,0.000431,0.209553
101409000,0.0324,0.013523,0.002678,0.000431,0.433444
101410000,0.0324,0.013523,0.002678,0.000431,0.134335
101411000,0.0324,0.013523,0.002678,0.000431,0.124580
101412000,0.0324,0.013523,0.002678,0.000431,0.099781
101413000,0.0324,0.013523,0.002678,0.000431,0.102485
101414000,0.0324,0.013523,0.002678,0.000431,0.080624
101415000,0.0324,0.013523,0.002678,0.000431,0.079684
101416000,0.0324,0.013523,0.002678,0.000431,0.072515
101417000,0.0324,0.013523,0.002678,0.000431,0.069812
101418000,0.0324,0.013523,0.002678,0.000431,0.059469
101419000,0.0324,0.013523,0.002678,0.000431,0.058764
101420000,0.0324,0.013523,0.002678,0.000431,0.054651
101421000,0.0324,0.013523,0.002678,0.000431,0.059939
101422000,0.0324,0.013523,0.002678,0.000431,0.043485
101423000,0.0324,0.013523,0.002678,0.000431,0.047834
101424000,0.0324,0.013523,0.002678,0.000431,0.043250
101425000,0.0324,0.013523,0.002678,0.000431,0.044543
101426000,0.0324,0.013523,0.002678,0.000431,0.042310
101427000,0.0324,0.013523,0.002678,0.000431,0.039489
101428000,0.0324,0.013523,0.002678,0.000431,0.034906
101429000,0.0324,0.013523,0.002678,0.000431,0.033025
101430000,0.0324,0.013523,0.002678,0.000431,0.025269
101431000,0.0324,0.013523,0.002678,0.000431,0.022565
101432000,0.0324,0.013523,0.002678,0.000431,0.019157
101433000,0.0324,0.013523,0.002678,0.000431,0.019862
101434000,0.0324,0.013523,0.002678,0.000431,0.023506
101435000,0.0324,0.013523,0.002678,0.000431,0.017864
101436000,0.0324,0.013523,0.002678,0.000431,0.022330
101437000,0.0324,0.013523,0.002678,0.000431,0.013633
101438000,0.0324,0.013523,0.002678,0.000431,0.010813
101439000,0.0324,0.013523,0.002678,0.000431,0.010107
101440000,0.0324,0.013523,0.002678,0.000431,0.009402
101441000,0.0324,0.013523,0.002678,0.000431,0.008227
101442000,0.0324,0.013523,0.002678,0.000431,0.013046
101443000,0.0324,0.013523,0.002678,0.000431,0.003408
101444000,0.0324,0.013523,0.002678,0.000431,0.003526
101445000,0.0324,0.013523,0.002678,0.000431,0.003526
101446000,0.0324,0.013523,0.002678,0.000431,0.003526
101447000,0.0324,0.013523,0.002678,0.000431,0.005406
101448000,0.0324,0.013523,0.002678,0.000431,0.004584
101449000,0.0324,0.013523,0.002678,0.000431,0.002821
101450000,0.0324,0.013523,0.002678,0.000431,0.006347
101451000,0.0324,0.013523,0.002678,0.000431,0.000823
101452000,0.0324,0.013523,0.002678,0.000431,0.000940
101453000,0.0324,0.013523,0.002678,0.000431,0.000705
101454000,0.0324,0.013523,0.002678,0.000431,0.000940
101455000,0.0324,0.013523,0.002678,0.000431,0.000940
101456000,0.0324,0.013523,0.002678,0.000431,0.000940
101457000,0.0324,0.013523,0.002678,0.000431,0.000823
101458000,0.0324,0.013523,0.002678,0.000431,0.000823
101459000,0.0324,0.013523,0.002678,0.000431,0.000940
101460000,0.0324,0.013523,0.002678,0.000431,0.000940
101461000,0.0324,0.013523,0.002678,0.000431,0.000940
101462000,0.0324,0.013523,0.002678,0.000431,0.000823
101463000,0.0324,0.013523,0.002678,0.000431,0.000940
101464000,0.0324,0.013523,0.002678,0.000431,0.000823
101465000,0.0324,0.013523,0.002678,0.000431,0.000940
101466000,0.0324,0.013523,0.002678,0.000431,0.000823
101467000,0.0324,0.013523,0.002678,0.000431,0.000823
101468000,0.0324,0.013523,0.002678,0.000431,0.000940
101469000,0.0324,0.013523,0.002678,0.000431,0.000940
101470000,0.0324,0.013523,0.002678,0.000431,0.000823
101471000,0.0324,0.013523,0.002678,0.000431,0.000823
101472000,0.0324,0.013523,0.002678,0.000431,0.000940
101473000,0.0324,0.013523,0.002678,0.000431,0.000940
101474000,0.0324,0.013523,0.002678,0.000431,0.000940
101475000,0.0324,0.013523,0.002678,0.000431,0.000940
101476000,0.0324,0.013523,0.002678,0.000431,0.000823
101477000,0.0324,0.013523,0.002678,0.000431,0.000823
101478000,0.0324,0.013523,0.002678,0.000431,0.000940
101479000,0.0324,0.013523,0.002678,0.000431,0.000823
101480000,0.0324,0.013523,0.002678,0.000431,0.000940
101481000,0.0324,0.013523,0.002678,0.000431,0.002116
101482000,0.0324,0.013523,0.002678,0.000431,0.427097
101483000,0.0324,0.013523,0.002678,0.000431,0.729615
101484000,0.0324,0.013523,0.002678,0.000431,0.148908
101485000,0.0324,0.013523,0.002678,0.000431,0.134452
101486000,0.0324,0.013523,0.002678,0.000431,0.150789
101487000,0.0324,0.013523,0.002678,0.000431,0.582000
101488000,0.0324,0.013523,0.002678,0.000431,0.258092
101489000,0.0324,0.013523,0.002678,0.000431,0.287356
101490000,0.0324,0.013523,0.002678,0.000431,0.218837
101491000,0.0324,0.013523,0.002678,0.000431,0.143267
101492000,0.0324,0.013523,0.002678,0.000431,0.166185
101493000,0.0324,0.013523,0.002678,0.000431,0.137273
101494000,0.0324,0.013523,0.002678,0.000431,0.493501
101495000,0.0324,0.013523,0.002678,0.000431,0.194039
101496000,0.0324,0.013523,0.002678,0.000431,0.153609
101497000,0.0324,0.013523,0.002678,0.000431,0.139859
101498000,0.0324,0.013523,0.002678,0.000431,0.127636
101499000,0.0324,0.013523,0.002678,0.000431,0.119409
101500000,0.0324,0.013523,0.002678,0.000431,0.111887
101501000,0.0324,0.013523,0.002678,0.000431,0.099429
101502000,0.0324,0.013523,0.002678,0.000431,0.088734
101503000,0.0324,0.013523,0.002678,0.000431,0.096491
101504000,0.0324,0.013523,0.002678,0.000431,0.079802
101505000,0.0324,0.013523,0.002678,0.000431,0.070987
101506000,0.0324,0.013523,0.002678,0.000431,0.073573
101507000,0.0324,0.013523,0.002678,0.000431,0.055943
101508000,0.0324,0.013523,0.002678,0.000431,0.052300
101509000,0.0324,0.013523,0.002678,0.000431,0.049244
101510000,0.0324,0.013523,0.002678,0.000431,0.035376
101511000,0.0324,0.013523,0.002678,0.000431,0.033613
101512000,0.0324,0.013523,0.002678,0.000431,0.030087
101513000,0.0324,0.013523,0.002678,0.000431,0.030910
101514000,0.0324,0.013523,0.002678,0.000431,0.027267
101515000,0.0324,0.013523,0.002678,0.000431,0.022330
101516000,0.0324,0.013523,0.002678,0.000431,0.024093
101517000,0.0324,0.013523,0.002678,0.000431,0.019275
101518000,0.0324,0.013523,0.002678,0.000431,0.020802
101519000,0.0324,0.013523,0.002678,0.000431,0.020685
101520000,0.0324,0.013523,0.002678,0.000431,0.018217
101521000,0.0324,0.013523,0.002678,0.000431,0.014456
101522000,0.0324,0.013523,0.002678,0.000431,0.012340
101523000,0.0324,0.013523,0.002678,0.000431,0.010930
101524000,0.0324,0.013523,0.002678,0.000431,0.011518
101525000,0.0324,0.013523,0.002678,0.000431,0.006347
101526000,0.0324,0.013523,0.002678,0.000431,0.005289
101527000,0.0324,0.013523,0.002678,0.000431,0.005876
101528000,0.0324,0.013523,0.002678,0.000431,0.003291
101529000,0.0324,0.013523,0.002678,0.000431,0.000940
101530000,0.0324,0.013523,0.002678,0.000431,0.000940
101531000,0.0324,0.013523,0.002678,0.000431,0.000940
101532000,0.0324,0.013523,0.002678,0.000431,0.000823
101533000,0.0324,0.013523,0.002678,0.000431,0.000823
101534000,0.0324,0.013523,0.002678,0.000431,0.000940
101535000,0.0324,0.013523,0.002678,0.000431,0.000940
101536000,0.0324,0.013523,0.002678,0.000431,0.220483
101537000,0.0324,0.013523,0.002678,0.000431,0.590227
101538000,0.0324,0.013523,0.002678,0.000431,0.512070
101539000,0.0324,0.013523,0.002678,0.000431,0.148673
101540000,0.0324,0.013523,0.002678,0.000431,0.163247
101541000,0.0324,0.013523,0.002678,0.000431,0.635357
101542000,0.0324,0.013523,0.002678,0.000431,0.256799
101543000,0.0324,0.013523,0.002678,0.000431,0.339421
101544000,0.0324,0.013523,0.002678,0.000431,0.195332
101545000,0.0324,0.013523,0.002678,0.000431,0.140681
101546000,0.0324,0.013523,0.002678,0.000431,0.108361
101547000,0.0324,0.013523,0.002678,0.000431,0.393132
101548000,0.0324,0.013523,0.002678,0.000431,0.292175
101549000,0.0324,0.013523,0.002678,0.000431,0.127753
101550000,0.0324,0.013523,0.002678,0.000431,0.117293
101551000,0.0324,0.013523,0.002678,0.000431,0.098959
101552000,0.0324,0.013523,0.002678,0.000431,0.086383
101553000,0.0324,0.013523,0.002678,0.000431,0.066286
101554000,0.0324,0.013523,0.002678,0.000431,0.075806
101555000,0.0324,0.013523,0.002678,0.000431,0.049479
101556000,0.0324,0.013523,0.002678,0.000431,0.050302
101557000,0.0324,0.013523,0.002678,0.000431,0.043720
101558000,0.0324,0.013523,0.002678,0.000431,0.042193
101559000,0.0324,0.013523,0.002678,0.000431,0.032203
101560000,0.0324,0.013523,0.002678,0.000431,0.027972
101561000,0.0324,0.013523,0.002678,0.000431,0.030910
101562000,0.0324,0.013523,0.002678,0.000431,0.018217
101563000,0.0324,0.013523,0.002678,0.000431,0.021390
101564000,0.0324,0.013523,0.002678,0.000431,0.020332
101565000,0.0324,0.013523,0.002678,0.000431,0.017277
101566000,0.0324,0.013523,0.002678,0.000431,0.014456
101567000,0.0324,0.013523,0.002678,0.000431,0.012928
101568000,0.0324,0.013523,0.002678,0.000431,0.009872
101569000,0.0324,0.013523,0.002678,0.000431,0.008932
101570000,0.0324,0.013523,0.002678,0.000431,0.005876
101571000,0.0324,0.013523,0.002678,0.000431,0.003291
101572000,0.0324,0.013523,0.002678,0.000431,0.002586
101573000,0.0324,0.013523,0.002678,0.000431,0.002821
101574000,0.0324,0.013523,0.002678,0.000431,0.002468
101575000,0.0324,0.013523,0.002678,0.000431,0.003526
101576000,0.0324,0.013523,0.002678,0.000431,0.003526
101577000,0.0324,0.013523,0.002678,0.000431,0.000940
101578000,0.0324,0.013523,0.002678,0.000431,0.000823
101579000,0.0324,0.013523,0.002678,0.000431,0.000940
101580000,0.0324,0.013523,0.002678,0.000431,0.000940
101581000,0.0324,0.013523,0.002678,0.000431,0.000823
101582000,0.0324,0.013523,0.002678,0.000431,0.000823
101583000,0.0324,0.013523,0.002678,0.000431,0.000940
101584000,0.0324,0.013523,0.002678,0.000431,0.000940
101585000,0.0324,0.013523,0.002678,0.000431,0.016689
101586000,0.0324,0.013523,0.002678,0.000431,0.617023
101587000,0.0324,0.013523,0.002678,0.000431,0.586936
101588000,0.0324,0.013523,0.002678,0.000431,0.132572
101589000,0.0324,0.013523,0.002678,0.000431,0.140916
101590000,0.0324,0.013523,0.002678,0.000431,0.597983
101591000,0.0324,0.013523,0.002678,0.000431,0.246339
101592000,0.0324,0.013523,0.002678,0.000431,0.283125
101593000,0.0324,0.013523,0.002678,0.000431,0.293703
101594000,0.0324,0.013523,0.002678,0.000431,0.141621
101595000,0.0324,0.013523,0.002678,0.000431,0.147733
101596000,0.0324,0.013523,0.002678,0.000431,0.211198
101597000,0.0324,0.013523,0.002678,0.000431,0.413582
101598000,0.0324,0.013523,0.002678,0.000431,0.125520
101599000,0.0324,0.013523,0.002678,0.000431,0.114943
101600000,0.0324,0.013523,0.002678,0.000431,0.114825
101601000,0.0324,0.013523,0.002678,0.000431,0.100369
101602000,0.0324,0.013523,0.002678,0.000431,0.088146
101603000,0.0324,0.013523,0.002678,0.000431,0.075218
101604000,0.0324,0.013523,0.002678,0.000431,0.072045
101605000,0.0324,0.013523,0.002678,0.000431,0.064641
101606000,0.0324,0.013523,0.002678,0.000431,0.064641
101607000,0.0324,0.013523,0.002678,0.000431,0.050890
101608000,0.0324,0.013523,0.002678,0.000431,0.051830
101609000,0.0324,0.013523,0.002678,0.000431,0.041723
101610000,0.0324,0.013523,0.002678,0.000431,0.051477
101611000,0.0324,0.013523,0.002678,0.000431,0.036199
101612000,0.0324,0.013523,0.002678,0.000431,0.029029
101613000,0.0324,0.013523,0.002678,0.000431,0.024916
101614000,0.0324,0.013523,0.002678,0.000431,0.024211
101615000,0.0324,0.013523,0.002678,0.000431,0.026326
101616000,0.0324,0.013523,0.002678,0.000431,0.031262
101617000,0.0324,0.013523,0.002678,0.000431,0.025856
101618000,0.0324,0.013523,0.002678,0.000431,0.020215
101619000,0.0324,0.013523,0.002678,0.000431,0.017982
101620000,0.0324,0.013523,0.002678,0.000431,0.015866
101621000,0.0324,0.013523,0.002678,0.000431,0.017512
101622000,0.0324,0.013523,0.002678,0.000431,0.012576
101623000,0.0324,0.013523,0.002678,0.000431,0.012693
101624000,0.0324,0.013523,0.002678,0.000431,0.013398
101625000,0.0324,0.013523,0.002678,0.000431,0.011400
101626000,0.0324,0.013523,0.002678,0.000431,0.014691
101627000,0.0324,0.013523,0.002678,0.000431,0.011283
101628000,0.0324,0.013523,0.002678,0.000431,0.007052
101629000,0.0324,0.013523,0.002678,0.000431,0.006934
101630000,0.0324,0.013523,0.002678,0.000431,0.006229
101631000,0.0324,0.013523,0.002678,0.000431,0.010578
101632000,0.0324,0.013523,0.002678,0.000431,0.005171
101633000,0.0324,0.013523,0.002678,0.000431,0.008932
101634000,0.0324,0.013523,0.002678,0.000431,0.003408
101635000,0.0324,0.013523,0.002678,0.000431,0.003408
101636000,0.0324,0.013523,0.002678,0.000431,0.003878
101637000,0.0324,0.013523,0.002678,0.000431,0.004584
101638000,0.0324,0.013523,0.002678,0.000431,0.003408
101639000,0.0324,0.013523,0.002678,0.000431,0.000940
101640000,0.0324,0.013523,0.002678,0.000431,0.010342
101641000,0.0324,0.013523,0.002678,0.000431,0.540277
101642000,0.0324,0.013523,0.002678,0.000431,0.633007
101643000,0.0324,0.013523,0.002678,0.000431,0.133277
101644000,0.0324,0.013523,0.002678,0.000431,0.133277
101645000,0.0324,0.013523,0.002678,0.000431,0.327434
101646000,0.0324,0.013523,0.002678,0.000431,0.423337
101647000,0.0324,0.013523,0.002678,0.000431,0.232001
101648000,0.0324,0.013523,0.002678,0.000431,0.308394
101649000,0.0324,0.013523,0.002678,0.000431,0.184637
101650000,0.0324,0.013523,0.002678,0.000431,0.140916
101651000,0.0324,0.013523,0.002678,0.000431,0.161014
101652000,0.0324,0.013523,0.002678,0.000431,0.193451
101653000,0.0324,0.013523,0.002678,0.000431,0.415932
101654000,0.0324,0.013523,0.002678,0.000431,0.114237
101655000,0.0324,0.013523,0.002678,0.000431,0.103895
101656000,0.0324,0.013523,0.002678,0.000431,0.103425
101657000,0.0324,0.013523,0.002678,0.000431,0.094610
101658000,0.0324,0.013523,0.002678,0.000431,0.092847
101659000,0.0324,0.013523,0.002678,0.000431,0.089321
101660000,0.0324,0.013523,0.002678,0.000431,0.087794
101661000,0.0324,0.013523,0.002678,0.000431,0.087558
101662000,0.0324,0.013523,0.002678,0.000431,0.087558
101663000,0.0324,0.013523,0.002678,0.000431,0.083563
101664000,0.0324,0.013523,0.002678,0.000431,0.068284
101665000,0.0324,0.013523,0.002678,0.000431,0.068989
101666000,0.0324,0.013523,0.002678,0.000431,0.066521
101667000,0.0324,0.013523,0.002678,0.000431,0.064876
101668000,0.0324,0.013523,0.002678,0.000431,0.056414
101669000,0.0324,0.013523,0.002678,0.000431,0.051947
101670000,0.0324,0.013523,0.002678,0.000431,0.050067
101671000,0.0324,0.013523,0.002678,0.000431,0.052065
101672000,0.0324,0.013523,0.002678,0.000431,0.046659
101673000,0.0324,0.013523,0.002678,0.000431,0.041958
101674000,0.0324,0.013523,0.002678,0.000431,0.040782
101675000,0.0324,0.013523,0.002678,0.000431,0.037844
101676000,0.0324,0.013523,0.002678,0.000431,0.038314
101677000,0.0324,0.013523,0.002678,0.000431,0.036434
101678000,0.0324,0.013523,0.002678,0.000431,0.033378
101679000,0.0324,0.013523,0.002678,0.000431,0.034671
101680000,0.0324,0.013523,0.002678,0.000431,0.029265
101681000,0.0324,0.013523,0.002678,0.000431,0.028089
101682000,0.0324,0.013523,0.002678,0.000431,0.029617
101683000,0.0324,0.013523,0.002678,0.000431,0.023153
101684000,0.0324,0.013523,0.002678,0.000431,0.020920
101685000,0.0324,0.013523,0.002678,0.000431,0.027031
101686000,0.0324,0.013523,0.002678,0.000431,0.020097
101687000,0.0324,0.013523,0.002678,0.000431,0.019627
101688000,0.0324,0.013523,0.002678,0.000431,0.018334
101689000,0.0324,0.013523,0.002678,0.000431,0.018569
101690000,0.0324,0.013523,0.002678,0.000431,0.015984
101691000,0.0324,0.013523,0.002678,0.000431,0.015631
101692000,0.0324,0.013523,0.002678,0.000431,0.009402
101693000,0.0324,0.013523,0.002678,0.000431,0.009285
101694000,0.0324,0.013523,0.002678,0.000431,0.010225
101695000,0.0324,0.013523,0.002678,0.000431,0.009637
101696000,0.0324,0.013523,0.002678,0.000431,0.008109
101697000,0.0324,0.013523,0.002678,0.000431,0.011048
101698000,0.0324,0.013523,0.002678,0.000431,0.005054
101699000,0.0324,0.013523,0.002678,0.000431,0.005054
101700000,0.0324,0.013523,0.002678,0.000431,0.005171
101701000,0.0324,0.013523,0.002678,0.000431,0.005994
101702000,0.0324,0.013523,0.002678,0.000431,0.007404
101703000,0.0324,0.013523,0.002678,0.000431,0.003173
101704000,0.0324,0.013523,0.002678,0.000431,0.000940
101705000,0.0324,0.013523,0.002678,0.000431,0.000940
101706000,0.0324,0.013523,0.002678,0.000431,0.002703
101707000,0.0324,0.013523,0.002678,0.000431,0.405472
101708000,0.0324,0.013523,0.002678,0.000431,0.701996
101709000,0.0324,0.013523,0.002678,0.000431,0.137626
101710000,0.0324,0.013523,0.002678,0.000431,0.133512
101711000,0.0324,0.013523,0.002678,0.000431,0.161954
101712000,0.0324,0.013523,0.002678,0.000431,0.558024
101713000,0.0324,0.013523,0.002678,0.000431,0.244811
101714000,0.0324,0.013523,0.002678,0.000431,0.274311
101715000,0.0324,0.013523,0.002678,0.000431,0.220953
101716000,0.0324,0.013523,0.002678,0.000431,0.145147
101717000,0.0324,0.013523,0.002678,0.000431,0.181581
101718000,0.0324,0.013523,0.002678,0.000431,0.100839
101719000,0.0324,0.013523,0.002678,0.000431,0.464471
101720000,0.0324,0.013523,0.002678,0.000431,0.123405
101721000,0.0324,0.013523,0.002678,0.000431,0.088146
101722000,0.0324,0.013523,0.002678,0.000431,0.068401
101723000,0.0324,0.013523,0.002678,0.000431,0.066991
101724000,0.0324,0.013523,0.002678,0.000431,0.065933
101725000,0.0324,0.013523,0.002678,0.000431,0.069459
101726000,0.0324,0.013523,0.002678,0.000431,0.060645
101727000,0.0324,0.013523,0.002678,0.000431,0.047364
101728000,0.0324,0.013523,0.002678,0.000431,0.051712
101729000,0.0324,0.013523,0.002678,0.000431,0.045366
101730000,0.0324,0.013523,0.002678,0.000431,0.044191
101731000,0.0324,0.013523,0.002678,0.000431,0.036551
101732000,0.0324,0.013523,0.002678,0.000431,0.039725
101733000,0.0324,0.013523,0.002678,0.000431,0.033378
101734000,0.0324,0.013523,0.002678,0.000431,0.032320
101735000,0.0324,0.013523,0.002678,0.000431,0.035494
101736000,0.0324,0.013523,0.002678,0.000431,0.034436
101737000,0.0324,0.013523,0.002678,0.000431,0.030910
101738000,0.0324,0.013523,0.002678,0.000431,0.032320
101739000,0.0324,0.013523,0.002678,0.000431,0.025504
101740000,0.0324,0.013523,0.002678,0.000431,0.021038
101741000,0.0324,0.013523,0.002678,0.000431,0.018922
101742000,0.0324,0.013523,0.002678,0.000431,0.017394
101743000,0.0324,0.013523,0.002678,0.000431,0.016336
101744000,0.0324,0.013523,0.002678,0.000431,0.016219
101745000,0.0324,0.013523,0.002678,0.000431,0.016924
101746000,0.0324,0.013523,0.002678,0.000431,0.009285
101747000,0.0324,0.013523,0.002678,0.000431,0.012105
101748000,0.0324,0.013523,0.002678,0.000431,0.006934
101749000,0.0324,0.013523,0.002678,0.000431,0.008462
101750000,0.0324,0.013523,0.002678,0.000431,0.005641
101751000,0.0324,0.013523,0.002678,0.000431,0.006111
101752000,0.0324,0.013523,0.002678,0.000431,0.005759
101753000,0.0324,0.013523,0.002678,0.000431,0.007522
101754000,0.0324,0.013523,0.002678,0.000431,0.004701
101755000,0.0324,0.013523,0.002678,0.000431,0.003878
101756000,0.0324,0.013523,0.002678,0.000431,0.004466
101757000,0.0324,0.013523,0.002678,0.000431,0.005171
101758000,0.0324,0.013523,0.002678,0.000431,0.004584
101759000,0.0324,0.013523,0.002678,0.000431,0.003291
101760000,0.0324,0.013523,0.002678,0.000431,0.003526
101761000,0.0324,0.013523,0.002678,0.000431,0.003173
101762000,0.0324,0.013523,0.002678,0.000431,0.003643
101763000,0.0324,0.013523,0.002678,0.000431,0.004936
101764000,0.0324,0.013523,0.002678,0.000431,0.002468
101765000,0.0324,0.013523,0.002678,0.000431,0.002586
101766000,0.0324,0.013523,0.002678,0.000431,0.002586
101767000,0.0324,0.013523,0.002678,0.000431,0.003408
101768000,0.0324,0.013523,0.002678,0.000431,0.001645
101769000,0.0324,0.013523,0.002678,0.000431,0.001645
101770000,0.0324,0.013523,0.002678,0.000431,0.001763
101771000,0.0324,0.013523,0.002678,0.000431,0.001763
101772000,0.0324,0.013523,0.002678,0.000431,0.001528
101773000,0.0324,0.013523,0.002678,0.000431,0.001880
101774000,0.0324,0.013523,0.002678,0.000431,0.001410
101775000,0.0324,0.013523,0.002678,0.000431,0.001880
101776000,0.0324,0.013523,0.002678,0.000431,0.001645
101777000,0.0324,0.013523,0.002678,0.000431,0.001645
101778000,0.0324,0.013523,0.002678,0.000431,0.001880
101779000,0.0324,0.013523,0.002678,0.000431,0.001410
101780000,0.0324,0.013523,0.002678,0.000431,0.001880
101781000,0.0324,0.013523,0.002678,0.000431,0.001645
101782000,0.0324,0.013523,0.002678,0.000431,0.001880
101783000,0.0324,0.013523,0.002678,0.000431,0.001528
101784000,0.0324,0.013523,0.002678,0.000431,0.001763
101785000,0.0324,0.013523,0.002678,0.000431,0.001645
101786000,0.0324,0.013523,0.002678,0.000431,0.001645
101787000,0.0324,0.013523,0.002678,0.000431,0.001645
101788000,0.0324,0.013523,0.002678,0.000431,0.001645
101789000,0.0324,0.013523,0.002678,0.000431,0.001998
101790000,0.0324,0.013523,0.002678,0.000431,0.001645
101791000,0.0324,0.013523,0.002678,0.000431,0.003526
101792000,0.0324,0.013523,0.002678,0.000431,0.000705
101793000,0.0324,0.013523,0.002678,0.000431,0.000940
101794000,0.0324,0.013523,0.002678,0.000431,0.000823
101795000,0.0324,0.013523,0.002678,0.000431,0.000823
101796000,0.0324,0.013523,0.002678,0.000431,0.000823
101797000,0.0324,0.013523,0.002678,0.000431,0.000823
101798000,0.0324,0.013523,0.002678,0.000431,0.000823
101799000,0.0324,0.013523,0.002678,0.000431,0.000823
101800000,0.0324,0.013523,0.002678,0.000431,0.000940
101801000,0.0324,0.013523,0.002678,0.000431,0.000705
101802000,0.0324,0.013523,0.002678,0.000431,0.000940
101803000,0.0324,0.013523,0.002678,0.000431,0.000823
101804000,0.0324,0.013523,0.002678,0.000431,0.000823
101805000,0.0324,0.013523,0.002678,0.000431,0.007522
101806000,0.0324,0.013523,0.002678,0.000431,0.499260
101807000,0.0324,0.013523,0.002678,0.000431,0.632537
101808000,0.0324,0.013523,0.002678,0.000431,0.133159
101809000,0.0324,0.013523,0.002678,0.000431,0.132572
101810000,0.0324,0.013523,0.002678,0.000431,0.243283
101811000,0.0324,0.013523,0.002678,0.000431,0.567426
101812000,0.0324,0.013523,0.002678,0.000431,0.228592
101813000,0.0324,0.013523,0.002678,0.000431,0.283596
101814000,0.0324,0.013523,0.002678,0.000431,0.172649
101815000,0.0324,0.013523,0.002678,0.000431,0.139976
101816000,0.0324,0.013523,0.002678,0.000431,0.155020
101817000,0.0324,0.013523,0.002678,0.000431,0.209318
101818000,0.0324,0.013523,0.002678,0.000431,0.419223
101819000,0.0324,0.013523,0.002678,0.000431,0.147733
101820000,0.0324,0.013523,0.002678,0.000431,0.121524
101821000,0.0324,0.013523,0.002678,0.000431,0.118586
101822000,0.0324,0.013523,0.002678,0.000431,0.109771
101823000,0.0324,0.013523,0.002678,0.000431,0.094845
101824000,0.0324,0.013523,0.002678,0.000431,0.086618
101825000,0.0324,0.013523,0.002678,0.000431,0.090614
101826000,0.0324,0.013523,0.002678,0.000431,0.075923
101827000,0.0324,0.013523,0.002678,0.000431,0.065698
101828000,0.0324,0.013523,0.002678,0.000431,0.063113
101829000,0.0324,0.013523,0.002678,0.000431,0.058999
101830000,0.0324,0.013523,0.002678,0.000431,0.054768
101831000,0.0324,0.013523,0.002678,0.000431,0.048422
101832000,0.0324,0.013523,0.002678,0.000431,0.042780
101833000,0.0324,0.013523,0.002678,0.000431,0.037491
101834000,0.0324,0.013523,0.002678,0.000431,0.031498
101835000,0.0324,0.013523,0.002678,0.000431,0.025034
101836000,0.0324,0.013523,0.002678,0.000431,0.023388
101837000,0.0324,0.013523,0.002678,0.000431,0.020450
101838000,0.0324,0.013523,0.002678,0.000431,0.021508
101839000,0.0324,0.013523,0.002678,0.000431,0.024328
101840000,0.0324,0.013523,0.002678,0.000431,0.015984
101841000,0.0324,0.013523,0.002678,0.000431,0.014809
101842000,0.0324,0.013523,0.002678,0.000431,0.015161
101843000,0.0324,0.013523,0.002678,0.000431,0.013398
101844000,0.0324,0.013523,0.002678,0.000431,0.010342
101845000,0.0324,0.013523,0.002678,0.000431,0.011165
101846000,0.0324,0.013523,0.002678,0.000431,0.011400
101847000,0.0324,0.013523,0.002678,0.000431,0.010695
101848000,0.0324,0.013523,0.002678,0.000431,0.011635
101849000,0.0324,0.013523,0.002678,0.000431,0.008227
101850000,0.0324,0.013523,0.002678,0.000431,0.008580
101851000,0.0324,0.013523,0.002678,0.000431,0.005876
101852000,0.0324,0.013523,0.002678,0.000431,0.006229
101853000,0.0324,0.013523,0.002678,0.000431,0.011635
101854000,0.0324,0.013523,0.002678,0.000431,0.005759
101855000,0.0324,0.013523,0.002678,0.000431,0.002586
101856000,0.0324,0.013523,0.002678,0.000431,0.002468
101857000,0.0324,0.013523,0.002678,0.000431,0.002586
101858000,0.0324,0.013523,0.002678,0.000431,0.002821
101859000,0.0324,0.013523,0.002678,0.000431,0.002351
101860000,0.0324,0.013523,0.002678,0.000431,0.002468
101861000,0.0324,0.013523,0.002678,0.000431,0.002586
101862000,0.0324,0.013523,0.002678,0.000431,0.002703
101863000,0.0324,0.013523,0.002678,0.000431,0.002586
101864000,0.0324,0.013523,0.002678,0.000431,0.003526
101865000,0.0324,0.013523,0.002678,0.000431,0.001528
101866000,0.0324,0.013523,0.002678,0.000431,0.001880
101867000,0.0324,0.013523,0.002678,0.000431,0.001763
101868000,0.0324,0.013523,0.002678,0.000431,0.001528
101869000,0.0324,0.013523,0.002678,0.000431,0.001763
101870000,0.0324,0.013523,0.002678,0.000431,0.001528
101871000,0.0324,0.013523,0.002678,0.000431,0.001880
101872000,0.0324,0.013523,0.002678,0.000431,0.001645
101873000,0.0324,0.013523,0.002678,0.000431,0.001645
101874000,0.0324,0.013523,0.002678,0.000431,0.001880
101875000,0.0324,0.013523,0.002678,0.000431,0.001410
101876000,0.0324,0.013523,0.002678,0.000431,0.001880
101877000,0.0324,0.013523,0.002678,0.000431,0.001645
101878000,0.0324,0.013523,0.002678,0.000431,0.001645
101879000,0.0324,0.013523,0.002678,0.000431,0.001763
101880000,0.0324,0.013523,0.002678,0.000431,0.003056
101881000,0.0324,0.013523,0.002678,0.000431,0.000823
101882000,0.0324,0.013523,0.002678,0.000431,0.001880
101883000,0.0324,0.013523,0.002678,0.000431,0.425217
101884000,0.0324,0.013523,0.002678,0.000431,0.704699
101885000,0.0324,0.013523,0.002678,0.000431,0.162071
101886000,0.0324,0.013523,0.002678,0.000431,0.142209
101887000,0.0324,0.013523,0.002678,0.000431,0.207085
101888000,0.0324,0.013523,0.002678,0.000431,0.577533
101889000,0.0324,0.013523,0.002678,0.000431,0.273841
101890000,0.0324,0.013523,0.002678,0.000431,0.340479
101891000,0.0324,0.013523,0.002678,0.000431,0.181464
101892000,0.0324,0.013523,0.002678,0.000431,0.143737
101893000,0.0324,0.013523,0.002678,0.000431,0.109066
101894000,0.0324,0.013523,0.002678,0.000431,0.436852
101895000,0.0324,0.013523,0.002678,0.000431,0.218367
101896000,0.0324,0.013523,0.002678,0.000431,0.142092
101897000,0.0324,0.013523,0.002678,0.000431,0.117058
101898000,0.0324,0.013523,0.002678,0.000431,0.112004
101899000,0.0324,0.013523,0.002678,0.000431,0.103307
101900000,0.0324,0.013523,0.002678,0.000431,0.105188
101901000,0.0324,0.013523,0.002678,0.000431,0.092142
101902000,0.0324,0.013523,0.002678,0.000431,0.081917
101903000,0.0324,0.013523,0.002678,0.000431,0.078744
101904000,0.0324,0.013523,0.002678,0.000431,0.076981
101905000,0.0324,0.013523,0.002678,0.000431,0.066874
101906000,0.0324,0.013523,0.002678,0.000431,0.068989
101907000,0.0324,0.013523,0.002678,0.000431,0.058059
101908000,0.0324,0.013523,0.002678,0.000431,0.052653
101909000,0.0324,0.013523,0.002678,0.000431,0.050302
101910000,0.0324,0.013523,0.002678,0.000431,0.043015
101911000,0.0324,0.013523,0.002678,0.000431,0.042545
101912000,0.0324,0.013523,0.002678,0.000431,0.032673
101913000,0.0324,0.013523,0.002678,0.000431,0.032320
101914000,0.0324,0.013523,0.002678,0.000431,0.027619
101915000,0.0324,0.013523,0.002678,0.000431,0.022683
101916000,0.0324,0.013523,0.002678,0.000431,0.017982
101917000,0.0324,0.013523,0.002678,0.000431,0.017864
101918000,0.0324,0.013523,0.002678,0.000431,0.019392
101919000,0.0324,0.013523,0.002678,0.000431,0.013751
101920000,0.0324,0.013523,0.002678,0.000431,0.013163
101921000,0.0324,0.013523,0.002678,0.000431,0.014926
101922000,0.0324,0.013523,0.002678,0.000431,0.016336
101923000,0.0324,0.013523,0.002678,0.000431,0.011518
101924000,0.0324,0.013523,0.002678,0.000431,0.009402
101925000,0.0324,0.013523,0.002678,0.000431,0.008345
101926000,0.0324,0.013523,0.002678,0.000431,0.007992
101927000,0.0324,0.013523,0.002678,0.000431,0.007757
101928000,0.0324,0.013523,0.002678,0.000431,0.007639
101929000,0.0324,0.013523,0.002678,0.000431,0.010107
101930000,0.0324,0.013523,0.002678,0.000431,0.010342
101931000,0.0324,0.013523,0.002678,0.000431,0.008345
101932000,0.0324,0.013523,0.002678,0.000431,0.004466
101933000,0.0324,0.013523,0.002678,0.000431,0.002468
101934000,0.0324,0.013523,0.002678,0.000431,0.002586
101935000,0.0324,0.013523,0.002678,0.000431,0.002351
101936000,0.0324,0.013523,0.002678,0.000431,0.002703
101937000,0.0324,0.013523,0.002678,0.000431,0.002586
101938000,0.0324,0.013523,0.002678,0.000431,0.002586
101939000,0.0324,0.013523,0.002678,0.000431,0.002586
101940000,0.0324,0.013523,0.002678,0.000431,0.004466
101941000,0.0324,0.013523,0.002678,0.000431,0.001528
101942000,0.0324,0.013523,0.002678,0.000431,0.002586
101943000,0.0324,0.013523,0.002678,0.000431,0.001998
101944000,0.0324,0.013523,0.002678,0.000431,0.000705
101945000,0.0324,0.013523,0.002678,0.000431,0.000940
101946000,0.0324,0.013523,0.002678,0.000431,0.000705
101947000,0.0324,0.013523,0.002678,0.000431,0.000940
101948000,0.0324,0.013523,0.002678,0.000431,0.000705
101949000,0.0324,0.013523,0.002678,0.000431,0.000823
101950000,0.0324,0.013523,0.002678,0.000431,0.000823
101951000,0.0324,0.013523,0.002678,0.000431,0.000940
101952000,0.0324,0.013523,0.002678,0.000431,0.000823
101953000,0.0324,0.013523,0.002678,0.000431,0.000823
101954000,0.0324,0.013523,0.002678,0.000431,0.000705
101955000,0.0324,0.013523,0.002678,0.000431,0.000940
101956000,0.0324,0.013523,0.002678,0.000431,0.000940
101957000,0.0324,0.013523,0.002678,0.000431,0.000705
101958000,0.0324,0.013523,0.002678,0.000431,0.000940
101959000,0.0324,0.013523,0.002678,0.000431,0.000705
101960000,0.0324,0.013523,0.002678,0.000431,0.000940
101961000,0.0324,0.013523,0.002678,0.000431,0.007522
101962000,0.0324,0.013523,0.002678,0.000431,0.524881
101963000,0.0324,0.013523,0.002678,0.000431,0.646287
101964000,0.0324,0.013523,0.002678,0.000431,0.137626
101965000,0.0324,0.013523,0.002678,0.000431,0.131867
101966000,0.0324,0.013523,0.002678,0.000431,0.273958
101967000,0.0324,0.013523,0.002678,0.000431,0.466704
101968000,0.0324,0.013523,0.002678,0.000431,0.234704
101969000,0.0324,0.013523,0.002678,0.000431,0.315798
101970000,0.0324,0.013523,0.002678,0.000431,0.201326
101971000,0.0324,0.013523,0.002678,0.000431,0.145030
101972000,0.0324,0.013523,0.002678,0.000431,0.150554
101973000,0.0324,0.013523,0.002678,0.000431,0.191688
101974000,0.0324,0.013523,0.002678,0.000431,0.443904
101975000,0.0324,0.013523,0.002678,0.000431,0.154667
101976000,0.0324,0.013523,0.002678,0.000431,0.133630
101977000,0.0324,0.013523,0.002678,0.000431,0.124110
101978000,0.0324,0.013523,0.002678,0.000431,0.113062
101979000,0.0324,0.013523,0.002678,0.000431,0.090497
101980000,0.0324,0.013523,0.002678,0.000431,0.086971
101981000,0.0324,0.013523,0.002678,0.000431,0.080389
101982000,0.0324,0.013523,0.002678,0.000431,0.073220
101983000,0.0324,0.013523,0.002678,0.000431,0.059587
101984000,0.0324,0.013523,0.002678,0.000431,0.059234
101985000,0.0324,0.013523,0.002678,0.000431,0.059352
101986000,0.0324,0.013523,0.002678,0.000431,0.057119
101987000,0.0324,0.013523,0.002678,0.000431,0.043250
101988000,0.0324,0.013523,0.002678,0.000431,0.043485
101989000,0.0324,0.013523,0.002678,0.000431,0.047716
101990000,0.0324,0.013523,0.002678,0.000431,0.035023
101991000,0.0324,0.013523,0.002678,0.000431,0.024916
101992000,0.0324,0.013523,0.002678,0.000431,0.025151
101993000,0.0324,0.013523,0.002678,0.000431,0.018452
101994000,0.0324,0.013523,0.002678,0.000431,0.017747
101995000,0.0324,0.013523,0.002678,0.000431,0.023153
101996000,0.0324,0.013523,0.002678,0.000431,0.018569
101997000,0.0324,0.013523,0.002678,0.000431,0.011753
101998000,0.0324,0.013523,0.002678,0.000431,0.011518
101999000,0.0324,0.013523,0.002678,0.000431,0.012693
