Cycle,Area(mm^2),PeakDynamic(W),SubthresholdLeakage(W),GateLeakage(W),RunTimeDynamic(W)
105000000,0.0324,0.013523,0.002678,0.000431,0.017747
105001000,0.0324,0.013523,0.002678,0.000431,0.018099
105002000,0.0324,0.013523,0.002678,0.000431,0.016689
105003000,0.0324,0.013523,0.002678,0.000431,0.015631
105004000,0.0324,0.013523,0.002678,0.000431,0.015161
105005000,0.0324,0.013523,0.002678,0.000431,0.015984
105006000,0.0324,0.013523,0.002678,0.000431,0.012811
105007000,0.0324,0.013523,0.002678,0.000431,0.011400
105008000,0.0324,0.013523,0.002678,0.000431,0.008815
105009000,0.0324,0.013523,0.002678,0.000431,0.008580
105010000,0.0324,0.013523,0.002678,0.000431,0.010578
105011000,0.0324,0.013523,0.002678,0.000431,0.011165
105012000,0.0324,0.013523,0.002678,0.000431,0.007052
105013000,0.0324,0.013523,0.002678,0.000431,0.007052
105014000,0.0324,0.013523,0.002678,0.000431,0.007052
105015000,0.0324,0.013523,0.002678,0.000431,0.004349
105016000,0.0324,0.013523,0.002678,0.000431,0.006934
105017000,0.0324,0.013523,0.002678,0.000431,0.004231
105018000,0.0324,0.013523,0.002678,0.000431,0.002703
105019000,0.0324,0.013523,0.002678,0.000431,0.002351
105020000,0.0324,0.013523,0.002678,0.000431,0.002703
105021000,0.0324,0.013523,0.002678,0.000431,0.002586
105022000,0.0324,0.013523,0.002678,0.000431,0.002703
105023000,0.0324,0.013523,0.002678,0.000431,0.002703
105024000,0.0324,0.013523,0.002678,0.000431,0.002351
105025000,0.0324,0.013523,0.002678,0.000431,0.002703
105026000,0.0324,0.013523,0.002678,0.000431,0.003996
105027000,0.0324,0.013523,0.002678,0.000431,0.001645
105028000,0.0324,0.013523,0.002678,0.000431,0.001763
105029000,0.0324,0.013523,0.002678,0.000431,0.001763
105030000,0.0324,0.013523,0.002678,0.000431,0.001763
105031000,0.0324,0.013523,0.002678,0.000431,0.001880
105032000,0.0324,0.013523,0.002678,0.000431,0.003643
105033000,0.0324,0.013523,0.002678,0.000431,0.000823
105034000,0.0324,0.013523,0.002678,0.000431,0.000823
105035000,0.0324,0.013523,0.002678,0.000431,0.000940
105036000,0.0324,0.013523,0.002678,0.000431,0.000940
105037000,0.0324,0.013523,0.002678,0.000431,0.000705
105038000,0.0324,0.013523,0.002678,0.000431,0.000940
105039000,0.0324,0.013523,0.002678,0.000431,0.000940
105040000,0.0324,0.013523,0.002678,0.000431,0.000940
105041000,0.0324,0.013523,0.002678,0.000431,0.000823
105042000,0.0324,0.013523,0.002678,0.000431,0.000823
105043000,0.0324,0.013523,0.002678,0.000431,0.000940
105044000,0.0324,0.013523,0.002678,0.000431,0.000823
105045000,0.0324,0.013523,0.002678,0.000431,0.000940
105046000,0.0324,0.013523,0.002678,0.000431,0.000823
105047000,0.0324,0.013523,0.002678,0.000431,0.000940
105048000,0.0324,0.013523,0.002678,0.000431,0.000823
105049000,0.0324,0.013523,0.002678,0.000431,0.000823
105050000,0.0324,0.013523,0.002678,0.000431,0.000940
105051000,0.0324,0.013523,0.002678,0.000431,0.000940
105052000,0.0324,0.013523,0.002678,0.000431,0.000705
105053000,0.0324,0.013523,0.002678,0.000431,0.000940
105054000,0.0324,0.013523,0.002678,0.000431,0.014338
105055000,0.0324,0.013523,0.002678,0.000431,0.619138
105056000,0.0324,0.013523,0.002678,0.000431,0.618316
105057000,0.0324,0.013523,0.002678,0.000431,0.158310
105058000,0.0324,0.013523,0.002678,0.000431,0.139976
105059000,0.0324,0.013523,0.002678,0.000431,0.503961
105060000,0.0324,0.013523,0.002678,0.000431,0.330607
105061000,0.0324,0.013523,0.002678,0.000431,0.273841
105062000,0.0324,0.013523,0.002678,0.000431,0.346356
105063000,0.0324,0.013523,0.002678,0.000431,0.146323
105064000,0.0324,0.013523,0.002678,0.000431,0.144795
105065000,0.0324,0.013523,0.002678,0.000431,0.184872
105066000,0.0324,0.013523,0.002678,0.000431,0.456009
105067000,0.0324,0.013523,0.002678,0.000431,0.184872
105068000,0.0324,0.013523,0.002678,0.000431,0.151611
105069000,0.0324,0.013523,0.002678,0.000431,0.130691
105070000,0.0324,0.013523,0.002678,0.000431,0.115413
105071000,0.0324,0.013523,0.002678,0.000431,0.108126
105072000,0.0324,0.013523,0.002678,0.000431,0.086971
105073000,0.0324,0.013523,0.002678,0.000431,0.083680
105074000,0.0324,0.013523,0.002678,0.000431,0.065581
105075000,0.0324,0.013523,0.002678,0.000431,0.055943
105076000,0.0324,0.013523,0.002678,0.000431,0.056414
105077000,0.0324,0.013523,0.002678,0.000431,0.048892
105078000,0.0324,0.013523,0.002678,0.000431,0.052535
105079000,0.0324,0.013523,0.002678,0.000431,0.042428
105080000,0.0324,0.013523,0.002678,0.000431,0.037609
105081000,0.0324,0.013523,0.002678,0.000431,0.042075
105082000,0.0324,0.013523,0.002678,0.000431,0.031968
105083000,0.0324,0.013523,0.002678,0.000431,0.035023
105084000,0.0324,0.013523,0.002678,0.000431,0.031850
105085000,0.0324,0.013523,0.002678,0.000431,0.031145
105086000,0.0324,0.013523,0.002678,0.000431,0.024798
105087000,0.0324,0.013523,0.002678,0.000431,0.023388
105088000,0.0324,0.013523,0.002678,0.000431,0.022800
105089000,0.0324,0.013523,0.002678,0.000431,0.025856
105090000,0.0324,0.013523,0.002678,0.000431,0.017747
105091000,0.0324,0.013523,0.002678,0.000431,0.017629
105092000,0.0324,0.013523,0.002678,0.000431,0.013163
105093000,0.0324,0.013523,0.002678,0.000431,0.010930
105094000,0.0324,0.013523,0.002678,0.000431,0.011870
105095000,0.0324,0.013523,0.002678,0.000431,0.009872
105096000,0.0324,0.013523,0.002678,0.000431,0.011048
105097000,0.0324,0.013523,0.002678,0.000431,0.012223
105098000,0.0324,0.013523,0.002678,0.000431,0.009637
105099000,0.0324,0.013523,0.002678,0.000431,0.010342
105100000,0.0324,0.013523,0.002678,0.000431,0.009402
105101000,0.0324,0.013523,0.002678,0.000431,0.013516
105102000,0.0324,0.013523,0.002678,0.000431,0.005289
105103000,0.0324,0.013523,0.002678,0.000431,0.005876
105104000,0.0324,0.013523,0.002678,0.000431,0.007992
105105000,0.0324,0.013523,0.002678,0.000431,0.004466
105106000,0.0324,0.013523,0.002678,0.000431,0.005876
105107000,0.0324,0.013523,0.002678,0.000431,0.004113
105108000,0.0324,0.013523,0.002678,0.000431,0.003526
105109000,0.0324,0.013523,0.002678,0.000431,0.003408
105110000,0.0324,0.013523,0.002678,0.000431,0.003291
105111000,0.0324,0.013523,0.002678,0.000431,0.003408
105112000,0.0324,0.013523,0.002678,0.000431,0.003408
105113000,0.0324,0.013523,0.002678,0.000431,0.006464
105114000,0.0324,0.013523,0.002678,0.000431,0.002468
105115000,0.0324,0.013523,0.002678,0.000431,0.002468
105116000,0.0324,0.013523,0.002678,0.000431,0.002468
105117000,0.0324,0.013523,0.002678,0.000431,0.002468
105118000,0.0324,0.013523,0.002678,0.000431,0.002468
105119000,0.0324,0.013523,0.002678,0.000431,0.002703
105120000,0.0324,0.013523,0.002678,0.000431,0.002351
105121000,0.0324,0.013523,0.002678,0.000431,0.002586
105122000,0.0324,0.013523,0.002678,0.000431,0.002233
105123000,0.0324,0.013523,0.002678,0.000431,0.004349
105124000,0.0324,0.013523,0.002678,0.000431,0.004701
105125000,0.0324,0.013523,0.002678,0.000431,0.002233
105126000,0.0324,0.013523,0.002678,0.000431,0.000823
105127000,0.0324,0.013523,0.002678,0.000431,0.000705
105128000,0.0324,0.013523,0.002678,0.000431,0.000940
105129000,0.0324,0.013523,0.002678,0.000431,0.000940
105130000,0.0324,0.013523,0.002678,0.000431,0.164069
105131000,0.0324,0.013523,0.002678,0.000431,0.588464
105132000,0.0324,0.013523,0.002678,0.000431,0.552970
105133000,0.0324,0.013523,0.002678,0.000431,0.141739
105134000,0.0324,0.013523,0.002678,0.000431,0.145382
105135000,0.0324,0.013523,0.002678,0.000431,0.610441
105136000,0.0324,0.013523,0.002678,0.000431,0.296406
105137000,0.0324,0.013523,0.002678,0.000431,0.266789
105138000,0.0324,0.013523,0.002678,0.000431,0.253156
105139000,0.0324,0.013523,0.002678,0.000431,0.149026
105140000,0.0324,0.013523,0.002678,0.000431,0.133865
105141000,0.0324,0.013523,0.002678,0.000431,0.243636
105142000,0.0324,0.013523,0.002678,0.000431,0.449545
105143000,0.0324,0.013523,0.002678,0.000431,0.171944
105144000,0.0324,0.013523,0.002678,0.000431,0.152904
105145000,0.0324,0.013523,0.002678,0.000431,0.135628
105146000,0.0324,0.013523,0.002678,0.000431,0.116823
105147000,0.0324,0.013523,0.002678,0.000431,0.105775
105148000,0.0324,0.013523,0.002678,0.000431,0.097313
105149000,0.0324,0.013523,0.002678,0.000431,0.096491
105150000,0.0324,0.013523,0.002678,0.000431,0.083327
105151000,0.0324,0.013523,0.002678,0.000431,0.087794
105152000,0.0324,0.013523,0.002678,0.000431,0.075218
105153000,0.0324,0.013523,0.002678,0.000431,0.047246
105154000,0.0324,0.013523,0.002678,0.000431,0.044426
105155000,0.0324,0.013523,0.002678,0.000431,0.041605
105156000,0.0324,0.013523,0.002678,0.000431,0.036669
105157000,0.0324,0.013523,0.002678,0.000431,0.033025
105158000,0.0324,0.013523,0.002678,0.000431,0.028207
105159000,0.0324,0.013523,0.002678,0.000431,0.029265
105160000,0.0324,0.013523,0.002678,0.000431,0.025151
105161000,0.0324,0.013523,0.002678,0.000431,0.031850
105162000,0.0324,0.013523,0.002678,0.000431,0.028794
105163000,0.0324,0.013523,0.002678,0.000431,0.019862
105164000,0.0324,0.013523,0.002678,0.000431,0.015514
105165000,0.0324,0.013523,0.002678,0.000431,0.013868
105166000,0.0324,0.013523,0.002678,0.000431,0.014338
105167000,0.0324,0.013523,0.002678,0.000431,0.010578
105168000,0.0324,0.013523,0.002678,0.000431,0.013633
105169000,0.0324,0.013523,0.002678,0.000431,0.010107
105170000,0.0324,0.013523,0.002678,0.000431,0.009990
105171000,0.0324,0.013523,0.002678,0.000431,0.012223
105172000,0.0324,0.013523,0.002678,0.000431,0.010460
105173000,0.0324,0.013523,0.002678,0.000431,0.008580
105174000,0.0324,0.013523,0.002678,0.000431,0.007992
105175000,0.0324,0.013523,0.002678,0.000431,0.010225
105176000,0.0324,0.013523,0.002678,0.000431,0.017512
105177000,0.0324,0.013523,0.002678,0.000431,0.003173
105178000,0.0324,0.013523,0.002678,0.000431,0.002586
105179000,0.0324,0.013523,0.002678,0.000431,0.002468
105180000,0.0324,0.013523,0.002678,0.000431,0.002468
105181000,0.0324,0.013523,0.002678,0.000431,0.002586
105182000,0.0324,0.013523,0.002678,0.000431,0.002351
105183000,0.0324,0.013523,0.002678,0.000431,0.005994
105184000,0.0324,0.013523,0.002678,0.000431,0.002703
105185000,0.0324,0.013523,0.002678,0.000431,0.000940
105186000,0.0324,0.013523,0.002678,0.000431,0.000705
105187000,0.0324,0.013523,0.002678,0.000431,0.014221
105188000,0.0324,0.013523,0.002678,0.000431,0.656160
105189000,0.0324,0.013523,0.002678,0.000431,0.584820
105190000,0.0324,0.013523,0.002678,0.000431,0.158546
105191000,0.0324,0.013523,0.002678,0.000431,0.143032
105192000,0.0324,0.013523,0.002678,0.000431,0.606210
105193000,0.0324,0.013523,0.002678,0.000431,0.258915
105194000,0.0324,0.013523,0.002678,0.000431,0.283948
105195000,0.0324,0.013523,0.002678,0.000431,0.275721
105196000,0.0324,0.013523,0.002678,0.000431,0.144912
105197000,0.0324,0.013523,0.002678,0.000431,0.144207
105198000,0.0324,0.013523,0.002678,0.000431,0.221541
105199000,0.0324,0.013523,0.002678,0.000431,0.439203
105200000,0.0324,0.013523,0.002678,0.000431,0.163599
105201000,0.0324,0.013523,0.002678,0.000431,0.127988
105202000,0.0324,0.013523,0.002678,0.000431,0.122934
105203000,0.0324,0.013523,0.002678,0.000431,0.108479
105204000,0.0324,0.013523,0.002678,0.000431,0.097548
105205000,0.0324,0.013523,0.002678,0.000431,0.088146
105206000,0.0324,0.013523,0.002678,0.000431,0.079449
105207000,0.0324,0.013523,0.002678,0.000431,0.066991
105208000,0.0324,0.013523,0.002678,0.000431,0.072515
105209000,0.0324,0.013523,0.002678,0.000431,0.066168
105210000,0.0324,0.013523,0.002678,0.000431,0.053945
105211000,0.0324,0.013523,0.002678,0.000431,0.051595
105212000,0.0324,0.013523,0.002678,0.000431,0.047364
105213000,0.0324,0.013523,0.002678,0.000431,0.041017
105214000,0.0324,0.013523,0.002678,0.000431,0.043368
105215000,0.0324,0.013523,0.002678,0.000431,0.041252
105216000,0.0324,0.013523,0.002678,0.000431,0.037727
105217000,0.0324,0.013523,0.002678,0.000431,0.040782
105218000,0.0324,0.013523,0.002678,0.000431,0.033496
105219000,0.0324,0.013523,0.002678,0.000431,0.027619
105220000,0.0324,0.013523,0.002678,0.000431,0.026444
105221000,0.0324,0.013523,0.002678,0.000431,0.026796
105222000,0.0324,0.013523,0.002678,0.000431,0.023858
105223000,0.0324,0.013523,0.002678,0.000431,0.021978
105224000,0.0324,0.013523,0.002678,0.000431,0.026091
105225000,0.0324,0.013523,0.002678,0.000431,0.019745
105226000,0.0324,0.013523,0.002678,0.000431,0.019275
105227000,0.0324,0.013523,0.002678,0.000431,0.020802
105228000,0.0324,0.013523,0.002678,0.000431,0.019745
105229000,0.0324,0.013523,0.002678,0.000431,0.019275
105230000,0.0324,0.013523,0.002678,0.000431,0.019627
105231000,0.0324,0.013523,0.002678,0.000431,0.014926
105232000,0.0324,0.013523,0.002678,0.000431,0.023153
105233000,0.0324,0.013523,0.002678,0.000431,0.011635
105234000,0.0324,0.013523,0.002678,0.000431,0.014103
105235000,0.0324,0.013523,0.002678,0.000431,0.010578
105236000,0.0324,0.013523,0.002678,0.000431,0.009990
105237000,0.0324,0.013523,0.002678,0.000431,0.011518
105238000,0.0324,0.013523,0.002678,0.000431,0.010813
105239000,0.0324,0.013523,0.002678,0.000431,0.011048
105240000,0.0324,0.013523,0.002678,0.000431,0.010342
105241000,0.0324,0.013523,0.002678,0.000431,0.008462
105242000,0.0324,0.013523,0.002678,0.000431,0.006111
105243000,0.0324,0.013523,0.002678,0.000431,0.005876
105244000,0.0324,0.013523,0.002678,0.000431,0.007169
105245000,0.0324,0.013523,0.002678,0.000431,0.005054
105246000,0.0324,0.013523,0.002678,0.000431,0.005994
105247000,0.0324,0.013523,0.002678,0.000431,0.005171
105248000,0.0324,0.013523,0.002678,0.000431,0.002468
105249000,0.0324,0.013523,0.002678,0.000431,0.002468
105250000,0.0324,0.013523,0.002678,0.000431,0.002703
105251000,0.0324,0.013523,0.002678,0.000431,0.002586
105252000,0.0324,0.013523,0.002678,0.000431,0.002351
105253000,0.0324,0.013523,0.002678,0.000431,0.002351
105254000,0.0324,0.013523,0.002678,0.000431,0.002586
105255000,0.0324,0.013523,0.002678,0.000431,0.002586
105256000,0.0324,0.013523,0.002678,0.000431,0.002703
105257000,0.0324,0.013523,0.002678,0.000431,0.002351
105258000,0.0324,0.013523,0.002678,0.000431,0.002468
105259000,0.0324,0.013523,0.002678,0.000431,0.003291
105260000,0.0324,0.013523,0.002678,0.000431,0.000823
105261000,0.0324,0.013523,0.002678,0.000431,0.014809
105262000,0.0324,0.013523,0.002678,0.000431,0.616553
105263000,0.0324,0.013523,0.002678,0.000431,0.606210
105264000,0.0324,0.013523,0.002678,0.000431,0.140681
105265000,0.0324,0.013523,0.002678,0.000431,0.134922
105266000,0.0324,0.013523,0.002678,0.000431,0.587053
105267000,0.0324,0.013523,0.002678,0.000431,0.268904
105268000,0.0324,0.013523,0.002678,0.000431,0.245634
105269000,0.0324,0.013523,0.002678,0.000431,0.318501
105270000,0.0324,0.013523,0.002678,0.000431,0.139741
105271000,0.0324,0.013523,0.002678,0.000431,0.184872
105272000,0.0324,0.013523,0.002678,0.000431,0.082270
105273000,0.0324,0.013523,0.002678,0.000431,0.492090
105274000,0.0324,0.013523,0.002678,0.000431,0.182286
105275000,0.0324,0.013523,0.002678,0.000431,0.116705
105276000,0.0324,0.013523,0.002678,0.000431,0.097548
105277000,0.0324,0.013523,0.002678,0.000431,0.094728
105278000,0.0324,0.013523,0.002678,0.000431,0.084738
105279000,0.0324,0.013523,0.002678,0.000431,0.073220
105280000,0.0324,0.013523,0.002678,0.000431,0.069929
105281000,0.0324,0.013523,0.002678,0.000431,0.058764
105282000,0.0324,0.013523,0.002678,0.000431,0.055003
105283000,0.0324,0.013523,0.002678,0.000431,0.054533
105284000,0.0324,0.013523,0.002678,0.000431,0.050537
105285000,0.0324,0.013523,0.002678,0.000431,0.044073
105286000,0.0324,0.013523,0.002678,0.000431,0.043133
105287000,0.0324,0.013523,0.002678,0.000431,0.047599
105288000,0.0324,0.013523,0.002678,0.000431,0.037962
105289000,0.0324,0.013523,0.002678,0.000431,0.027972
105290000,0.0324,0.013523,0.002678,0.000431,0.029970
105291000,0.0324,0.013523,0.002678,0.000431,0.027384
105292000,0.0324,0.013523,0.002678,0.000431,0.025974
105293000,0.0324,0.013523,0.002678,0.000431,0.023858
105294000,0.0324,0.013523,0.002678,0.000431,0.017747
105295000,0.0324,0.013523,0.002678,0.000431,0.015279
105296000,0.0324,0.013523,0.002678,0.000431,0.013281
105297000,0.0324,0.013523,0.002678,0.000431,0.012340
105298000,0.0324,0.013523,0.002678,0.000431,0.019627
105299000,0.0324,0.013523,0.002678,0.000431,0.011870
105300000,0.0324,0.013523,0.002678,0.000431,0.010813
105301000,0.0324,0.013523,0.002678,0.000431,0.009285
105302000,0.0324,0.013523,0.002678,0.000431,0.011635
105303000,0.0324,0.013523,0.002678,0.000431,0.008227
105304000,0.0324,0.013523,0.002678,0.000431,0.007874
105305000,0.0324,0.013523,0.002678,0.000431,0.009050
105306000,0.0324,0.013523,0.002678,0.000431,0.008580
105307000,0.0324,0.013523,0.002678,0.000431,0.008462
105308000,0.0324,0.013523,0.002678,0.000431,0.007992
105309000,0.0324,0.013523,0.002678,0.000431,0.008345
105310000,0.0324,0.013523,0.002678,0.000431,0.008815
105311000,0.0324,0.013523,0.002678,0.000431,0.006699
105312000,0.0324,0.013523,0.002678,0.000431,0.007052
105313000,0.0324,0.013523,0.002678,0.000431,0.006699
105314000,0.0324,0.013523,0.002678,0.000431,0.007287
105315000,0.0324,0.013523,0.002678,0.000431,0.006934
105316000,0.0324,0.013523,0.002678,0.000431,0.009050
105317000,0.0324,0.013523,0.002678,0.000431,0.004113
105318000,0.0324,0.013523,0.002678,0.000431,0.003291
105319000,0.0324,0.013523,0.002678,0.000431,0.003643
105320000,0.0324,0.013523,0.002678,0.000431,0.006582
105321000,0.0324,0.013523,0.002678,0.000431,0.002233
105322000,0.0324,0.013523,0.002678,0.000431,0.002586
105323000,0.0324,0.013523,0.002678,0.000431,0.002116
105324000,0.0324,0.013523,0.002678,0.000431,0.002351
105325000,0.0324,0.013523,0.002678,0.000431,0.002468
105326000,0.0324,0.013523,0.002678,0.000431,0.002233
105327000,0.0324,0.013523,0.002678,0.000431,0.002586
105328000,0.0324,0.013523,0.002678,0.000431,0.002468
105329000,0.0324,0.013523,0.002678,0.000431,0.002351
105330000,0.0324,0.013523,0.002678,0.000431,0.002468
105331000,0.0324,0.013523,0.002678,0.000431,0.002351
105332000,0.0324,0.013523,0.002678,0.000431,0.002468
105333000,0.0324,0.013523,0.002678,0.000431,0.002468
105334000,0.0324,0.013523,0.002678,0.000431,0.121172
105335000,0.0324,0.013523,0.002678,0.000431,0.588934
105336000,0.0324,0.013523,0.002678,0.000431,0.549679
105337000,0.0324,0.013523,0.002678,0.000431,0.138683
105338000,0.0324,0.013523,0.002678,0.000431,0.135980
105339000,0.0324,0.013523,0.002678,0.000431,0.593165
105340000,0.0324,0.013523,0.002678,0.000431,0.250923
105341000,0.0324,0.013523,0.002678,0.000431,0.279717
105342000,0.0324,0.013523,0.002678,0.000431,0.321557
105343000,0.0324,0.013523,0.002678,0.000431,0.138213
105344000,0.0324,0.013523,0.002678,0.000431,0.150436
105345000,0.0324,0.013523,0.002678,0.000431,0.156312
105346000,0.0324,0.013523,0.002678,0.000431,0.534166
105347000,0.0324,0.013523,0.002678,0.000431,0.239993
105348000,0.0324,0.013523,0.002678,0.000431,0.203324
105349000,0.0324,0.013523,0.002678,0.000431,0.168535
105350000,0.0324,0.013523,0.002678,0.000431,0.141621
105351000,0.0324,0.013523,0.002678,0.000431,0.122229
105352000,0.0324,0.013523,0.002678,0.000431,0.115413
105353000,0.0324,0.013523,0.002678,0.000431,0.098724
105354000,0.0324,0.013523,0.002678,0.000431,0.083210
105355000,0.0324,0.013523,0.002678,0.000431,0.073808
105356000,0.0324,0.013523,0.002678,0.000431,0.070752
105357000,0.0324,0.013523,0.002678,0.000431,0.054416
105358000,0.0324,0.013523,0.002678,0.000431,0.051477
105359000,0.0324,0.013523,0.002678,0.000431,0.043015
105360000,0.0324,0.013523,0.002678,0.000431,0.036904
105361000,0.0324,0.013523,0.002678,0.000431,0.042310
105362000,0.0324,0.013523,0.002678,0.000431,0.034906
105363000,0.0324,0.013523,0.002678,0.000431,0.026914
105364000,0.0324,0.013523,0.002678,0.000431,0.023036
105365000,0.0324,0.013523,0.002678,0.000431,0.032085
105366000,0.0324,0.013523,0.002678,0.000431,0.023153
105367000,0.0324,0.013523,0.002678,0.000431,0.024916
105368000,0.0324,0.013523,0.002678,0.000431,0.012340
105369000,0.0324,0.013523,0.002678,0.000431,0.012458
105370000,0.0324,0.013523,0.002678,0.000431,0.008227
105371000,0.0324,0.013523,0.002678,0.000431,0.007874
105372000,0.0324,0.013523,0.002678,0.000431,0.008580
105373000,0.0324,0.013523,0.002678,0.000431,0.008580
105374000,0.0324,0.013523,0.002678,0.000431,0.002703
105375000,0.0324,0.013523,0.002678,0.000431,0.006111
105376000,0.0324,0.013523,0.002678,0.000431,0.001880
105377000,0.0324,0.013523,0.002678,0.000431,0.001645
105378000,0.0324,0.013523,0.002678,0.000431,0.001763
105379000,0.0324,0.013523,0.002678,0.000431,0.001763
105380000,0.0324,0.013523,0.002678,0.000431,0.001763
105381000,0.0324,0.013523,0.002678,0.000431,0.001763
105382000,0.0324,0.013523,0.002678,0.000431,0.001763
105383000,0.0324,0.013523,0.002678,0.000431,0.001645
105384000,0.0324,0.013523,0.002678,0.000431,0.004819
105385000,0.0324,0.013523,0.002678,0.000431,0.000705
105386000,0.0324,0.013523,0.002678,0.000431,0.000940
105387000,0.0324,0.013523,0.002678,0.000431,0.000940
105388000,0.0324,0.013523,0.002678,0.000431,0.233411
105389000,0.0324,0.013523,0.002678,0.000431,0.675552
105390000,0.0324,0.013523,0.002678,0.000431,0.503843
105391000,0.0324,0.013523,0.002678,0.000431,0.139859
105392000,0.0324,0.013523,0.002678,0.000431,0.220365
105393000,0.0324,0.013523,0.002678,0.000431,0.552265
105394000,0.0324,0.013523,0.002678,0.000431,0.267377
105395000,0.0324,0.013523,0.002678,0.000431,0.349176
105396000,0.0324,0.013523,0.002678,0.000431,0.167008
105397000,0.0324,0.013523,0.002678,0.000431,0.174999
105398000,0.0324,0.013523,0.002678,0.000431,0.096961
105399000,0.0324,0.013523,0.002678,0.000431,0.497027
105400000,0.0324,0.013523,0.002678,0.000431,0.202266
105401000,0.0324,0.013523,0.002678,0.000431,0.141386
105402000,0.0324,0.013523,0.002678,0.000431,0.127048
105403000,0.0324,0.013523,0.002678,0.000431,0.102602
105404000,0.0324,0.013523,0.002678,0.000431,0.093787
105405000,0.0324,0.013523,0.002678,0.000431,0.088029
105406000,0.0324,0.013523,0.002678,0.000431,0.080977
105407000,0.0324,0.013523,0.002678,0.000431,0.066638
105408000,0.0324,0.013523,0.002678,0.000431,0.057236
105409000,0.0324,0.013523,0.002678,0.000431,0.058647
105410000,0.0324,0.013523,0.002678,0.000431,0.053593
105411000,0.0324,0.013523,0.002678,0.000431,0.043603
105412000,0.0324,0.013523,0.002678,0.000431,0.043133
105413000,0.0324,0.013523,0.002678,0.000431,0.043956
105414000,0.0324,0.013523,0.002678,0.000431,0.045131
105415000,0.0324,0.013523,0.002678,0.000431,0.037962
105416000,0.0324,0.013523,0.002678,0.000431,0.029147
105417000,0.0324,0.013523,0.002678,0.000431,0.028794
105418000,0.0324,0.013523,0.002678,0.000431,0.023858
105419000,0.0324,0.013523,0.002678,0.000431,0.020802
105420000,0.0324,0.013523,0.002678,0.000431,0.018687
105421000,0.0324,0.013523,0.002678,0.000431,0.019392
105422000,0.0324,0.013523,0.002678,0.000431,0.021743
105423000,0.0324,0.013523,0.002678,0.000431,0.017982
105424000,0.0324,0.013523,0.002678,0.000431,0.017512
105425000,0.0324,0.013523,0.002678,0.000431,0.013516
105426000,0.0324,0.013523,0.002678,0.000431,0.013281
105427000,0.0324,0.013523,0.002678,0.000431,0.019392
105428000,0.0324,0.013523,0.002678,0.000431,0.009050
105429000,0.0324,0.013523,0.002678,0.000431,0.010578
105430000,0.0324,0.013523,0.002678,0.000431,0.009755
105431000,0.0324,0.013523,0.002678,0.000431,0.007757
105432000,0.0324,0.013523,0.002678,0.000431,0.007287
105433000,0.0324,0.013523,0.002678,0.000431,0.013751
105434000,0.0324,0.013523,0.002678,0.000431,0.005406
105435000,0.0324,0.013523,0.002678,0.000431,0.002938
105436000,0.0324,0.013523,0.002678,0.000431,0.001645
105437000,0.0324,0.013523,0.002678,0.000431,0.001763
105438000,0.0324,0.013523,0.002678,0.000431,0.001880
105439000,0.0324,0.013523,0.002678,0.000431,0.001645
105440000,0.0324,0.013523,0.002678,0.000431,0.002703
105441000,0.0324,0.013523,0.002678,0.000431,0.002116
105442000,0.0324,0.013523,0.002678,0.000431,0.000823
105443000,0.0324,0.013523,0.002678,0.000431,0.000940
105444000,0.0324,0.013523,0.002678,0.000431,0.000823
105445000,0.0324,0.013523,0.002678,0.000431,0.000940
105446000,0.0324,0.013523,0.002678,0.000431,0.000823
105447000,0.0324,0.013523,0.002678,0.000431,0.000823
105448000,0.0324,0.013523,0.002678,0.000431,0.000940
105449000,0.0324,0.013523,0.002678,0.000431,0.000823
105450000,0.0324,0.013523,0.002678,0.000431,0.000823
105451000,0.0324,0.013523,0.002678,0.000431,0.000940
105452000,0.0324,0.013523,0.002678,0.000431,0.000940
105453000,0.0324,0.013523,0.002678,0.000431,0.000940
105454000,0.0324,0.013523,0.002678,0.000431,0.000705
105455000,0.0324,0.013523,0.002678,0.000431,0.000940
105456000,0.0324,0.013523,0.002678,0.000431,0.000940
105457000,0.0324,0.013523,0.002678,0.000431,0.000823
105458000,0.0324,0.013523,0.002678,0.000431,0.000823
105459000,0.0324,0.013523,0.002678,0.000431,0.000940
105460000,0.0324,0.013523,0.002678,0.000431,0.189690
105461000,0.0324,0.013523,0.002678,0.000431,0.587993
105462000,0.0324,0.013523,0.002678,0.000431,0.528524
105463000,0.0324,0.013523,0.002678,0.000431,0.137978
105464000,0.0324,0.013523,0.002678,0.000431,0.155960
105465000,0.0324,0.013523,0.002678,0.000431,0.637238
105466000,0.0324,0.013523,0.002678,0.000431,0.226594
105467000,0.0324,0.013523,0.002678,0.000431,0.286299
105468000,0.0324,0.013523,0.002678,0.000431,0.214724
105469000,0.0324,0.013523,0.002678,0.000431,0.151494
105470000,0.0324,0.013523,0.002678,0.000431,0.134922
105471000,0.0324,0.013523,0.002678,0.000431,0.271725
105472000,0.0324,0.013523,0.002678,0.000431,0.479280
105473000,0.0324,0.013523,0.002678,0.000431,0.226947
105474000,0.0324,0.013523,0.002678,0.000431,0.193099
105475000,0.0324,0.013523,0.002678,0.000431,0.146793
105476000,0.0324,0.013523,0.002678,0.000431,0.139623
105477000,0.0324,0.013523,0.002678,0.000431,0.110476
105478000,0.0324,0.013523,0.002678,0.000431,0.090849
105479000,0.0324,0.013523,0.002678,0.000431,0.074395
105480000,0.0324,0.013523,0.002678,0.000431,0.055003
105481000,0.0324,0.013523,0.002678,0.000431,0.043603
105482000,0.0324,0.013523,0.002678,0.000431,0.046776
105483000,0.0324,0.013523,0.002678,0.000431,0.041135
105484000,0.0324,0.013523,0.002678,0.000431,0.025739
105485000,0.0324,0.013523,0.002678,0.000431,0.030087
105486000,0.0324,0.013523,0.002678,0.000431,0.022213
105487000,0.0324,0.013523,0.002678,0.000431,0.020802
105488000,0.0324,0.013523,0.002678,0.000431,0.018099
105489000,0.0324,0.013523,0.002678,0.000431,0.015514
105490000,0.0324,0.013523,0.002678,0.000431,0.014573
105491000,0.0324,0.013523,0.002678,0.000431,0.009520
105492000,0.0324,0.013523,0.002678,0.000431,0.009637
105493000,0.0324,0.013523,0.002678,0.000431,0.008697
105494000,0.0324,0.013523,0.002678,0.000431,0.009755
105495000,0.0324,0.013523,0.002678,0.000431,0.015396
105496000,0.0324,0.013523,0.002678,0.000431,0.009285
105497000,0.0324,0.013523,0.002678,0.000431,0.008462
105498000,0.0324,0.013523,0.002678,0.000431,0.006817
105499000,0.0324,0.013523,0.002678,0.000431,0.010460
105500000,0.0324,0.013523,0.002678,0.000431,0.005171
105501000,0.0324,0.013523,0.002678,0.000431,0.007992
105502000,0.0324,0.013523,0.002678,0.000431,0.004466
105503000,0.0324,0.013523,0.002678,0.000431,0.003643
105504000,0.0324,0.013523,0.002678,0.000431,0.005994
105505000,0.0324,0.013523,0.002678,0.000431,0.003291
105506000,0.0324,0.013523,0.002678,0.000431,0.003291
105507000,0.0324,0.013523,0.002678,0.000431,0.002821
105508000,0.0324,0.013523,0.002678,0.000431,0.002586
105509000,0.0324,0.013523,0.002678,0.000431,0.002586
105510000,0.0324,0.013523,0.002678,0.000431,0.005759
105511000,0.0324,0.013523,0.002678,0.000431,0.001880
105512000,0.0324,0.013523,0.002678,0.000431,0.001528
105513000,0.0324,0.013523,0.002678,0.000431,0.001880
105514000,0.0324,0.013523,0.002678,0.000431,0.001763
105515000,0.0324,0.013523,0.002678,0.000431,0.001763
105516000,0.0324,0.013523,0.002678,0.000431,0.001528
105517000,0.0324,0.013523,0.002678,0.000431,0.001763
105518000,0.0324,0.013523,0.002678,0.000431,0.001763
105519000,0.0324,0.013523,0.002678,0.000431,0.001763
105520000,0.0324,0.013523,0.002678,0.000431,0.001645
105521000,0.0324,0.013523,0.002678,0.000431,0.001645
105522000,0.0324,0.013523,0.002678,0.000431,0.004113
105523000,0.0324,0.013523,0.002678,0.000431,0.000705
105524000,0.0324,0.013523,0.002678,0.000431,0.053123
105525000,0.0324,0.013523,0.002678,0.000431,0.729850
105526000,0.0324,0.013523,0.002678,0.000431,0.567779
105527000,0.0324,0.013523,0.002678,0.000431,0.169946
105528000,0.0324,0.013523,0.002678,0.000431,0.164775
105529000,0.0324,0.013523,0.002678,0.000431,0.629481
105530000,0.0324,0.013523,0.002678,0.000431,0.250688
105531000,0.0324,0.013523,0.002678,0.000431,0.355170
105532000,0.0324,0.013523,0.002678,0.000431,0.197565
105533000,0.0324,0.013523,0.002678,0.000431,0.169946
105534000,0.0324,0.013523,0.002678,0.000431,0.093200
105535000,0.0324,0.013523,0.002678,0.000431,0.535341
105536000,0.0324,0.013523,0.002678,0.000431,0.278072
105537000,0.0324,0.013523,0.002678,0.000431,0.199445
105538000,0.0324,0.013523,0.002678,0.000431,0.166302
105539000,0.0324,0.013523,0.002678,0.000431,0.139271
105540000,0.0324,0.013523,0.002678,0.000431,0.112239
105541000,0.0324,0.013523,0.002678,0.000431,0.101779
105542000,0.0324,0.013523,0.002678,0.000431,0.086266
105543000,0.0324,0.013523,0.002678,0.000431,0.085796
105544000,0.0324,0.013523,0.002678,0.000431,0.082740
105545000,0.0324,0.013523,0.002678,0.000431,0.068519
105546000,0.0324,0.013523,0.002678,0.000431,0.069107
105547000,0.0324,0.013523,0.002678,0.000431,0.053475
105548000,0.0324,0.013523,0.002678,0.000431,0.047716
105549000,0.0324,0.013523,0.002678,0.000431,0.053828
105550000,0.0324,0.013523,0.002678,0.000431,0.049362
105551000,0.0324,0.013523,0.002678,0.000431,0.040430
105552000,0.0324,0.013523,0.002678,0.000431,0.031380
105553000,0.0324,0.013523,0.002678,0.000431,0.028442
105554000,0.0324,0.013523,0.002678,0.000431,0.030557
105555000,0.0324,0.013523,0.002678,0.000431,0.026326
105556000,0.0324,0.013523,0.002678,0.000431,0.019392
105557000,0.0324,0.013523,0.002678,0.000431,0.018805
105558000,0.0324,0.013523,0.002678,0.000431,0.018922
105559000,0.0324,0.013523,0.002678,0.000431,0.018687
105560000,0.0324,0.013523,0.002678,0.000431,0.017159
105561000,0.0324,0.013523,0.002678,0.000431,0.014926
105562000,0.0324,0.013523,0.002678,0.000431,0.014103
105563000,0.0324,0.013523,0.002678,0.000431,0.015984
105564000,0.0324,0.013523,0.002678,0.000431,0.015749
105565000,0.0324,0.013523,0.002678,0.000431,0.014456
105566000,0.0324,0.013523,0.002678,0.000431,0.016807
105567000,0.0324,0.013523,0.002678,0.000431,0.009285
105568000,0.0324,0.013523,0.002678,0.000431,0.010813
105569000,0.0324,0.013523,0.002678,0.000431,0.005054
105570000,0.0324,0.013523,0.002678,0.000431,0.006817
105571000,0.0324,0.013523,0.002678,0.000431,0.006582
105572000,0.0324,0.013523,0.002678,0.000431,0.003291
105573000,0.0324,0.013523,0.002678,0.000431,0.003408
105574000,0.0324,0.013523,0.002678,0.000431,0.003761
105575000,0.0324,0.013523,0.002678,0.000431,0.003996
105576000,0.0324,0.013523,0.002678,0.000431,0.002586
105577000,0.0324,0.013523,0.002678,0.000431,0.004584
105578000,0.0324,0.013523,0.002678,0.000431,0.001763
105579000,0.0324,0.013523,0.002678,0.000431,0.001645
105580000,0.0324,0.013523,0.002678,0.000431,0.001763
105581000,0.0324,0.013523,0.002678,0.000431,0.001528
105582000,0.0324,0.013523,0.002678,0.000431,0.001763
105583000,0.0324,0.013523,0.002678,0.000431,0.001293
105584000,0.0324,0.013523,0.002678,0.000431,0.001880
105585000,0.0324,0.013523,0.002678,0.000431,0.001880
105586000,0.0324,0.013523,0.002678,0.000431,0.001998
105587000,0.0324,0.013523,0.002678,0.000431,0.001763
105588000,0.0324,0.013523,0.002678,0.000431,0.001880
105589000,0.0324,0.013523,0.002678,0.000431,0.001528
105590000,0.0324,0.013523,0.002678,0.000431,0.001998
105591000,0.0324,0.013523,0.002678,0.000431,0.001880
105592000,0.0324,0.013523,0.002678,0.000431,0.001645
105593000,0.0324,0.013523,0.002678,0.000431,0.001880
105594000,0.0324,0.013523,0.002678,0.000431,0.001645
105595000,0.0324,0.013523,0.002678,0.000431,0.001763
105596000,0.0324,0.013523,0.002678,0.000431,0.001763
105597000,0.0324,0.013523,0.002678,0.000431,0.001880
105598000,0.0324,0.013523,0.002678,0.000431,0.001645
105599000,0.0324,0.013523,0.002678,0.000431,0.001645
105600000,0.0324,0.013523,0.002678,0.000431,0.001998
105601000,0.0324,0.013523,0.002678,0.000431,0.001880
105602000,0.0324,0.013523,0.002678,0.000431,0.001763
105603000,0.0324,0.013523,0.002678,0.000431,0.001998
105604000,0.0324,0.013523,0.002678,0.000431,0.004231
105605000,0.0324,0.013523,0.002678,0.000431,0.457067
105606000,0.0324,0.013523,0.002678,0.000431,0.706814
105607000,0.0324,0.013523,0.002678,0.000431,0.278659
105608000,0.0324,0.013523,0.002678,0.000431,0.163247
105609000,0.0324,0.013523,0.002678,0.000431,0.373034
105610000,0.0324,0.013523,0.002678,0.000431,0.486332
105611000,0.0324,0.013523,0.002678,0.000431,0.261618
105612000,0.0324,0.013523,0.002678,0.000431,0.279364
105613000,0.0324,0.013523,0.002678,0.000431,0.152787
105614000,0.0324,0.013523,0.002678,0.000431,0.135157
105615000,0.0324,0.013523,0.002678,0.000431,0.236819
105616000,0.0324,0.013523,0.002678,0.000431,0.442611
105617000,0.0324,0.013523,0.002678,0.000431,0.174882
105618000,0.0324,0.013523,0.002678,0.000431,0.153844
105619000,0.0324,0.013523,0.002678,0.000431,0.138801
105620000,0.0324,0.013523,0.002678,0.000431,0.121054
105621000,0.0324,0.013523,0.002678,0.000431,0.112592
105622000,0.0324,0.013523,0.002678,0.000431,0.100252
105623000,0.0324,0.013523,0.002678,0.000431,0.089086
105624000,0.0324,0.013523,0.002678,0.000431,0.076276
105625000,0.0324,0.013523,0.002678,0.000431,0.068401
105626000,0.0324,0.013523,0.002678,0.000431,0.054651
105627000,0.0324,0.013523,0.002678,0.000431,0.054298
105628000,0.0324,0.013523,0.002678,0.000431,0.048069
105629000,0.0324,0.013523,0.002678,0.000431,0.042663
105630000,0.0324,0.013523,0.002678,0.000431,0.041723
105631000,0.0324,0.013523,0.002678,0.000431,0.039489
105632000,0.0324,0.013523,0.002678,0.000431,0.036199
105633000,0.0324,0.013523,0.002678,0.000431,0.031968
105634000,0.0324,0.013523,0.002678,0.000431,0.030087
105635000,0.0324,0.013523,0.002678,0.000431,0.030322
105636000,0.0324,0.013523,0.002678,0.000431,0.027031
105637000,0.0324,0.013523,0.002678,0.000431,0.029735
105638000,0.0324,0.013523,0.002678,0.000431,0.028559
105639000,0.0324,0.013523,0.002678,0.000431,0.022800
105640000,0.0324,0.013523,0.002678,0.000431,0.024681
105641000,0.0324,0.013523,0.002678,0.000431,0.019980
105642000,0.0324,0.013523,0.002678,0.000431,0.022095
105643000,0.0324,0.013523,0.002678,0.000431,0.019392
105644000,0.0324,0.013523,0.002678,0.000431,0.021155
105645000,0.0324,0.013523,0.002678,0.000431,0.021625
105646000,0.0324,0.013523,0.002678,0.000431,0.018099
105647000,0.0324,0.013523,0.002678,0.000431,0.017277
105648000,0.0324,0.013523,0.002678,0.000431,0.021155
105649000,0.0324,0.013523,0.002678,0.000431,0.019627
105650000,0.0324,0.013523,0.002678,0.000431,0.010460
105651000,0.0324,0.013523,0.002678,0.000431,0.012693
105652000,0.0324,0.013523,0.002678,0.000431,0.010578
105653000,0.0324,0.013523,0.002678,0.000431,0.005524
105654000,0.0324,0.013523,0.002678,0.000431,0.007639
105655000,0.0324,0.013523,0.002678,0.000431,0.003996
105656000,0.0324,0.013523,0.002678,0.000431,0.004349
105657000,0.0324,0.013523,0.002678,0.000431,0.004466
105658000,0.0324,0.013523,0.002678,0.000431,0.004466
105659000,0.0324,0.013523,0.002678,0.000431,0.007052
105660000,0.0324,0.013523,0.002678,0.000431,0.003526
105661000,0.0324,0.013523,0.002678,0.000431,0.003056
105662000,0.0324,0.013523,0.002678,0.000431,0.004231
105663000,0.0324,0.013523,0.002678,0.000431,0.003996
105664000,0.0324,0.013523,0.002678,0.000431,0.001880
105665000,0.0324,0.013523,0.002678,0.000431,0.002468
105666000,0.0324,0.013523,0.002678,0.000431,0.002821
105667000,0.0324,0.013523,0.002678,0.000431,0.000823
105668000,0.0324,0.013523,0.002678,0.000431,0.000823
105669000,0.0324,0.013523,0.002678,0.000431,0.000823
105670000,0.0324,0.013523,0.002678,0.000431,0.000705
105671000,0.0324,0.013523,0.002678,0.000431,0.000940
105672000,0.0324,0.013523,0.002678,0.000431,0.000940
105673000,0.0324,0.013523,0.002678,0.000431,0.000705
105674000,0.0324,0.013523,0.002678,0.000431,0.013868
105675000,0.0324,0.013523,0.002678,0.000431,0.645817
105676000,0.0324,0.013523,0.002678,0.000431,0.593047
105677000,0.0324,0.013523,0.002678,0.000431,0.163834
105678000,0.0324,0.013523,0.002678,0.000431,0.133042
105679000,0.0324,0.013523,0.002678,0.000431,0.481513
105680000,0.0324,0.013523,0.002678,0.000431,0.323320
105681000,0.0324,0.013523,0.002678,0.000431,0.250923
105682000,0.0324,0.013523,0.002678,0.000431,0.355288
105683000,0.0324,0.013523,0.002678,0.000431,0.137978
105684000,0.0324,0.013523,0.002678,0.000431,0.168653
105685000,0.0324,0.013523,0.002678,0.000431,0.097548
105686000,0.0324,0.013523,0.002678,0.000431,0.488917
105687000,0.0324,0.013523,0.002678,0.000431,0.258327
105688000,0.0324,0.013523,0.002678,0.000431,0.191688
105689000,0.0324,0.013523,0.002678,0.000431,0.157488
105690000,0.0324,0.013523,0.002678,0.000431,0.136803
105691000,0.0324,0.013523,0.002678,0.000431,0.122464
105692000,0.0324,0.013523,0.002678,0.000431,0.098254
105693000,0.0324,0.013523,0.002678,0.000431,0.082035
105694000,0.0324,0.013523,0.002678,0.000431,0.076628
105695000,0.0324,0.013523,0.002678,0.000431,0.072045
105696000,0.0324,0.013523,0.002678,0.000431,0.069812
105697000,0.0324,0.013523,0.002678,0.000431,0.059704
105698000,0.0324,0.013523,0.002678,0.000431,0.053240
105699000,0.0324,0.013523,0.002678,0.000431,0.048892
105700000,0.0324,0.013523,0.002678,0.000431,0.042075
105701000,0.0324,0.013523,0.002678,0.000431,0.044308
105702000,0.0324,0.013523,0.002678,0.000431,0.036904
105703000,0.0324,0.013523,0.002678,0.000431,0.031733
105704000,0.0324,0.013523,0.002678,0.000431,0.033613
105705000,0.0324,0.013523,0.002678,0.000431,0.029265
105706000,0.0324,0.013523,0.002678,0.000431,0.024328
105707000,0.0324,0.013523,0.002678,0.000431,0.028677
105708000,0.0324,0.013523,0.002678,0.000431,0.021390
105709000,0.0324,0.013523,0.002678,0.000431,0.022213
105710000,0.0324,0.013523,0.002678,0.000431,0.017512
105711000,0.0324,0.013523,0.002678,0.000431,0.020097
105712000,0.0324,0.013523,0.002678,0.000431,0.016219
105713000,0.0324,0.013523,0.002678,0.000431,0.014926
105714000,0.0324,0.013523,0.002678,0.000431,0.015631
105715000,0.0324,0.013523,0.002678,0.000431,0.011753
105716000,0.0324,0.013523,0.002678,0.000431,0.017277
105717000,0.0324,0.013523,0.002678,0.000431,0.012340
105718000,0.0324,0.013523,0.002678,0.000431,0.009285
105719000,0.0324,0.013523,0.002678,0.000431,0.004936
105720000,0.0324,0.013523,0.002678,0.000431,0.003878
105721000,0.0324,0.013523,0.002678,0.000431,0.006582
105722000,0.0324,0.013523,0.002678,0.000431,0.002821
105723000,0.0324,0.013523,0.002678,0.000431,0.003173
105724000,0.0324,0.013523,0.002678,0.000431,0.002586
105725000,0.0324,0.013523,0.002678,0.000431,0.002938
105726000,0.0324,0.013523,0.002678,0.000431,0.003526
105727000,0.0324,0.013523,0.002678,0.000431,0.003056
105728000,0.0324,0.013523,0.002678,0.000431,0.001763
105729000,0.0324,0.013523,0.002678,0.000431,0.004584
105730000,0.0324,0.013523,0.002678,0.000431,0.001058
105731000,0.0324,0.013523,0.002678,0.000431,0.000705
105732000,0.0324,0.013523,0.002678,0.000431,0.000940
105733000,0.0324,0.013523,0.002678,0.000431,0.000823
105734000,0.0324,0.013523,0.002678,0.000431,0.009637
105735000,0.0324,0.013523,0.002678,0.000431,0.589169
105736000,0.0324,0.013523,0.002678,0.000431,0.661449
105737000,0.0324,0.013523,0.002678,0.000431,0.165127
105738000,0.0324,0.013523,0.002678,0.000431,0.133982
105739000,0.0324,0.013523,0.002678,0.000431,0.489857
105740000,0.0324,0.013523,0.002678,0.000431,0.377030
105741000,0.0324,0.013523,0.002678,0.000431,0.295701
105742000,0.0324,0.013523,0.002678,0.000431,0.291117
105743000,0.0324,0.013523,0.002678,0.000431,0.138566
105744000,0.0324,0.013523,0.002678,0.000431,0.152081
105745000,0.0324,0.013523,0.002678,0.000431,0.187693
105746000,0.0324,0.013523,0.002678,0.000431,0.498555
105747000,0.0324,0.013523,0.002678,0.000431,0.230590
105748000,0.0324,0.013523,0.002678,0.000431,0.183344
105749000,0.0324,0.013523,0.002678,0.000431,0.156783
105750000,0.0324,0.013523,0.002678,0.000431,0.141621
105751000,0.0324,0.013523,0.002678,0.000431,0.118468
105752000,0.0324,0.013523,0.002678,0.000431,0.105188
105753000,0.0324,0.013523,0.002678,0.000431,0.102250
105754000,0.0324,0.013523,0.002678,0.000431,0.088499
105755000,0.0324,0.013523,0.002678,0.000431,0.091790
105756000,0.0324,0.013523,0.002678,0.000431,0.071105
105757000,0.0324,0.013523,0.002678,0.000431,0.064758
105758000,0.0324,0.013523,0.002678,0.000431,0.071575
105759000,0.0324,0.013523,0.002678,0.000431,0.048422
105760000,0.0324,0.013523,0.002678,0.000431,0.043838
105761000,0.0324,0.013523,0.002678,0.000431,0.037844
105762000,0.0324,0.013523,0.002678,0.000431,0.035023
105763000,0.0324,0.013523,0.002678,0.000431,0.037609
105764000,0.0324,0.013523,0.002678,0.000431,0.036434
105765000,0.0324,0.013523,0.002678,0.000431,0.024446
105766000,0.0324,0.013523,0.002678,0.000431,0.025621
105767000,0.0324,0.013523,0.002678,0.000431,0.028207
105768000,0.0324,0.013523,0.002678,0.000431,0.019157
105769000,0.0324,0.013523,0.002678,0.000431,0.019980
105770000,0.0324,0.013523,0.002678,0.000431,0.013868
105771000,0.0324,0.013523,0.002678,0.000431,0.015514
105772000,0.0324,0.013523,0.002678,0.000431,0.011048
105773000,0.0324,0.013523,0.002678,0.000431,0.010930
105774000,0.0324,0.013523,0.002678,0.000431,0.011048
105775000,0.0324,0.013523,0.002678,0.000431,0.011048
105776000,0.0324,0.013523,0.002678,0.000431,0.010695
105777000,0.0324,0.013523,0.002678,0.000431,0.011518
105778000,0.0324,0.013523,0.002678,0.000431,0.016219
105779000,0.0324,0.013523,0.002678,0.000431,0.008109
105780000,0.0324,0.013523,0.002678,0.000431,0.008580
105781000,0.0324,0.013523,0.002678,0.000431,0.009050
105782000,0.0324,0.013523,0.002678,0.000431,0.010695
105783000,0.0324,0.013523,0.002678,0.000431,0.008462
105784000,0.0324,0.013523,0.002678,0.000431,0.009755
105785000,0.0324,0.013523,0.002678,0.000431,0.006229
105786000,0.0324,0.013523,0.002678,0.000431,0.009285
105787000,0.0324,0.013523,0.002678,0.000431,0.003761
105788000,0.0324,0.013523,0.002678,0.000431,0.003408
105789000,0.0324,0.013523,0.002678,0.000431,0.003761
105790000,0.0324,0.013523,0.002678,0.000431,0.003291
105791000,0.0324,0.013523,0.002678,0.000431,0.004584
105792000,0.0324,0.013523,0.002678,0.000431,0.004113
105793000,0.0324,0.013523,0.002678,0.000431,0.003526
105794000,0.0324,0.013523,0.002678,0.000431,0.002821
105795000,0.0324,0.013523,0.002678,0.000431,0.001645
105796000,0.0324,0.013523,0.002678,0.000431,0.001880
105797000,0.0324,0.013523,0.002678,0.000431,0.001880
105798000,0.0324,0.013523,0.002678,0.000431,0.001645
105799000,0.0324,0.013523,0.002678,0.000431,0.001645
105800000,0.0324,0.013523,0.002678,0.000431,0.001880
105801000,0.0324,0.013523,0.002678,0.000431,0.001645
105802000,0.0324,0.013523,0.002678,0.000431,0.002703
105803000,0.0324,0.013523,0.002678,0.000431,0.002116
105804000,0.0324,0.013523,0.002678,0.000431,0.000940
105805000,0.0324,0.013523,0.002678,0.000431,0.000823
105806000,0.0324,0.013523,0.002678,0.000431,0.000823
105807000,0.0324,0.013523,0.002678,0.000431,0.000940
105808000,0.0324,0.013523,0.002678,0.000431,0.000940
105809000,0.0324,0.013523,0.002678,0.000431,0.000823
105810000,0.0324,0.013523,0.002678,0.000431,0.000940
105811000,0.0324,0.013523,0.002678,0.000431,0.000823
105812000,0.0324,0.013523,0.002678,0.000431,0.000940
105813000,0.0324,0.013523,0.002678,0.000431,0.000823
105814000,0.0324,0.013523,0.002678,0.000431,0.000940
105815000,0.0324,0.013523,0.002678,0.000431,0.000823
105816000,0.0324,0.013523,0.002678,0.000431,0.000940
105817000,0.0324,0.013523,0.002678,0.000431,0.000823
105818000,0.0324,0.013523,0.002678,0.000431,0.000823
105819000,0.0324,0.013523,0.002678,0.000431,0.000940
105820000,0.0324,0.013523,0.002678,0.000431,0.000940
105821000,0.0324,0.013523,0.002678,0.000431,0.000940
105822000,0.0324,0.013523,0.002678,0.000431,0.000705
105823000,0.0324,0.013523,0.002678,0.000431,0.000940
105824000,0.0324,0.013523,0.002678,0.000431,0.000940
105825000,0.0324,0.013523,0.002678,0.000431,0.000823
105826000,0.0324,0.013523,0.002678,0.000431,0.000823
105827000,0.0324,0.013523,0.002678,0.000431,0.001998
105828000,0.0324,0.013523,0.002678,0.000431,0.457067
105829000,0.0324,0.013523,0.002678,0.000431,0.711868
105830000,0.0324,0.013523,0.002678,0.000431,0.248220
105831000,0.0324,0.013523,0.002678,0.000431,0.160426
105832000,0.0324,0.013523,0.002678,0.000431,0.225419
105833000,0.0324,0.013523,0.002678,0.000431,0.598924
105834000,0.0324,0.013523,0.002678,0.000431,0.277249
105835000,0.0324,0.013523,0.002678,0.000431,0.378558
105836000,0.0324,0.013523,0.002678,0.000431,0.145735
105837000,0.0324,0.013523,0.002678,0.000431,0.153727
105838000,0.0324,0.013523,0.002678,0.000431,0.145617
105839000,0.0324,0.013523,0.002678,0.000431,0.456715
105840000,0.0324,0.013523,0.002678,0.000431,0.121994
105841000,0.0324,0.013523,0.002678,0.000431,0.106245
105842000,0.0324,0.013523,0.002678,0.000431,0.088146
105843000,0.0324,0.013523,0.002678,0.000431,0.083445
105844000,0.0324,0.013523,0.002678,0.000431,0.070399
105845000,0.0324,0.013523,0.002678,0.000431,0.053475
105846000,0.0324,0.013523,0.002678,0.000431,0.056649
105847000,0.0324,0.013523,0.002678,0.000431,0.043956
105848000,0.0324,0.013523,0.002678,0.000431,0.041135
105849000,0.0324,0.013523,0.002678,0.000431,0.039254
105850000,0.0324,0.013523,0.002678,0.000431,0.039725
105851000,0.0324,0.013523,0.002678,0.000431,0.030440
105852000,0.0324,0.013523,0.002678,0.000431,0.029852
105853000,0.0324,0.013523,0.002678,0.000431,0.025034
105854000,0.0324,0.013523,0.002678,0.000431,0.023506
105855000,0.0324,0.013523,0.002678,0.000431,0.021038
105856000,0.0324,0.013523,0.002678,0.000431,0.019510
105857000,0.0324,0.013523,0.002678,0.000431,0.022213
105858000,0.0324,0.013523,0.002678,0.000431,0.021508
105859000,0.0324,0.013523,0.002678,0.000431,0.015749
105860000,0.0324,0.013523,0.002678,0.000431,0.011870
105861000,0.0324,0.013523,0.002678,0.000431,0.010225
105862000,0.0324,0.013523,0.002678,0.000431,0.010460
105863000,0.0324,0.013523,0.002678,0.000431,0.011283
105864000,0.0324,0.013523,0.002678,0.000431,0.011283
105865000,0.0324,0.013523,0.002678,0.000431,0.009990
105866000,0.0324,0.013523,0.002678,0.000431,0.008815
105867000,0.0324,0.013523,0.002678,0.000431,0.011400
105868000,0.0324,0.013523,0.002678,0.000431,0.008227
105869000,0.0324,0.013523,0.002678,0.000431,0.005994
105870000,0.0324,0.013523,0.002678,0.000431,0.007287
105871000,0.0324,0.013523,0.002678,0.000431,0.005054
105872000,0.0324,0.013523,0.002678,0.000431,0.004936
105873000,0.0324,0.013523,0.002678,0.000431,0.004701
105874000,0.0324,0.013523,0.002678,0.000431,0.005759
105875000,0.0324,0.013523,0.002678,0.000431,0.005524
105876000,0.0324,0.013523,0.002678,0.000431,0.003526
105877000,0.0324,0.013523,0.002678,0.000431,0.004231
105878000,0.0324,0.013523,0.002678,0.000431,0.004231
105879000,0.0324,0.013523,0.002678,0.000431,0.003526
105880000,0.0324,0.013523,0.002678,0.000431,0.004349
105881000,0.0324,0.013523,0.002678,0.000431,0.003408
105882000,0.0324,0.013523,0.002678,0.000431,0.004466
105883000,0.0324,0.013523,0.002678,0.000431,0.003878
105884000,0.0324,0.013523,0.002678,0.000431,0.003878
105885000,0.0324,0.013523,0.002678,0.000431,0.004584
105886000,0.0324,0.013523,0.002678,0.000431,0.003291
105887000,0.0324,0.013523,0.002678,0.000431,0.004466
105888000,0.0324,0.013523,0.002678,0.000431,0.003643
105889000,0.0324,0.013523,0.002678,0.000431,0.003996
105890000,0.0324,0.013523,0.002678,0.000431,0.004231
105891000,0.0324,0.013523,0.002678,0.000431,0.003526
105892000,0.0324,0.013523,0.002678,0.000431,0.004349
105893000,0.0324,0.013523,0.002678,0.000431,0.003526
105894000,0.0324,0.013523,0.002678,0.000431,0.004349
105895000,0.0324,0.013523,0.002678,0.000431,0.004113
105896000,0.0324,0.013523,0.002678,0.000431,0.003643
105897000,0.0324,0.013523,0.002678,0.000431,0.003761
105898000,0.0324,0.013523,0.002678,0.000431,0.005406
105899000,0.0324,0.013523,0.002678,0.000431,0.002821
105900000,0.0324,0.013523,0.002678,0.000431,0.004231
105901000,0.0324,0.013523,0.002678,0.000431,0.001528
105902000,0.0324,0.013523,0.002678,0.000431,0.001880
105903000,0.0324,0.013523,0.002678,0.000431,0.003056
105904000,0.0324,0.013523,0.002678,0.000431,0.002233
105905000,0.0324,0.013523,0.002678,0.000431,0.000940
105906000,0.0324,0.013523,0.002678,0.000431,0.000705
105907000,0.0324,0.013523,0.002678,0.000431,0.000940
105908000,0.0324,0.013523,0.002678,0.000431,0.000940
105909000,0.0324,0.013523,0.002678,0.000431,0.071810
105910000,0.0324,0.013523,0.002678,0.000431,0.523941
105911000,0.0324,0.013523,0.002678,0.000431,0.609854
105912000,0.0324,0.013523,0.002678,0.000431,0.135392
105913000,0.0324,0.013523,0.002678,0.000431,0.134452
105914000,0.0324,0.013523,0.002678,0.000431,0.594105
105915000,0.0324,0.013523,0.002678,0.000431,0.232471
105916000,0.0324,0.013523,0.002678,0.000431,0.323320
105917000,0.0324,0.013523,0.002678,0.000431,0.306513
105918000,0.0324,0.013523,0.002678,0.000431,0.137743
105919000,0.0324,0.013523,0.002678,0.000431,0.164304
105920000,0.0324,0.013523,0.002678,0.000431,0.124227
105921000,0.0324,0.013523,0.002678,0.000431,0.493383
105922000,0.0324,0.013523,0.002678,0.000431,0.194157
105923000,0.0324,0.013523,0.002678,0.000431,0.171474
105924000,0.0324,0.013523,0.002678,0.000431,0.148908
105925000,0.0324,0.013523,0.002678,0.000431,0.129163
105926000,0.0324,0.013523,0.002678,0.000431,0.114590
105927000,0.0324,0.013523,0.002678,0.000431,0.112357
105928000,0.0324,0.013523,0.002678,0.000431,0.095198
105929000,0.0324,0.013523,0.002678,0.000431,0.082270
105930000,0.0324,0.013523,0.002678,0.000431,0.076981
105931000,0.0324,0.013523,0.002678,0.000431,0.063465
105932000,0.0324,0.013523,0.002678,0.000431,0.060057
105933000,0.0324,0.013523,0.002678,0.000431,0.050890
105934000,0.0324,0.013523,0.002678,0.000431,0.056178
105935000,0.0324,0.013523,0.002678,0.000431,0.038549
105936000,0.0324,0.013523,0.002678,0.000431,0.036434
105937000,0.0324,0.013523,0.002678,0.000431,0.033260
105938000,0.0324,0.013523,0.002678,0.000431,0.030557
105939000,0.0324,0.013523,0.002678,0.000431,0.024681
105940000,0.0324,0.013523,0.002678,0.000431,0.022683
105941000,0.0324,0.013523,0.002678,0.000431,0.028089
105942000,0.0324,0.013523,0.002678,0.000431,0.020802
105943000,0.0324,0.013523,0.002678,0.000431,0.021978
105944000,0.0324,0.013523,0.002678,0.000431,0.019040
105945000,0.0324,0.013523,0.002678,0.000431,0.021273
105946000,0.0324,0.013523,0.002678,0.000431,0.014809
105947000,0.0324,0.013523,0.002678,0.000431,0.011988
105948000,0.0324,0.013523,0.002678,0.000431,0.011048
105949000,0.0324,0.013523,0.002678,0.000431,0.012340
105950000,0.0324,0.013523,0.002678,0.000431,0.008109
105951000,0.0324,0.013523,0.002678,0.000431,0.009755
105952000,0.0324,0.013523,0.002678,0.000431,0.009990
105953000,0.0324,0.013523,0.002678,0.000431,0.006699
105954000,0.0324,0.013523,0.002678,0.000431,0.009050
105955000,0.0324,0.013523,0.002678,0.000431,0.009285
105956000,0.0324,0.013523,0.002678,0.000431,0.006817
105957000,0.0324,0.013523,0.002678,0.000431,0.003878
105958000,0.0324,0.013523,0.002678,0.000431,0.004349
105959000,0.0324,0.013523,0.002678,0.000431,0.003761
105960000,0.0324,0.013523,0.002678,0.000431,0.003291
105961000,0.0324,0.013523,0.002678,0.000431,0.005054
105962000,0.0324,0.013523,0.002678,0.000431,0.002586
105963000,0.0324,0.013523,0.002678,0.000431,0.002821
105964000,0.0324,0.013523,0.002678,0.000431,0.003643
105965000,0.0324,0.013523,0.002678,0.000431,0.074278
105966000,0.0324,0.013523,0.002678,0.000431,0.627365
105967000,0.0324,0.013523,0.002678,0.000431,0.586231
105968000,0.0324,0.013523,0.002678,0.000431,0.152434
105969000,0.0324,0.013523,0.002678,0.000431,0.136803
105970000,0.0324,0.013523,0.002678,0.000431,0.592812
105971000,0.0324,0.013523,0.002678,0.000431,0.249865
105972000,0.0324,0.013523,0.002678,0.000431,0.272665
105973000,0.0324,0.013523,0.002678,0.000431,0.292528
105974000,0.0324,0.013523,0.002678,0.000431,0.145147
105975000,0.0324,0.013523,0.002678,0.000431,0.168888
105976000,0.0324,0.013523,0.002678,0.000431,0.126108
105977000,0.0324,0.013523,0.002678,0.000431,0.499260
105978000,0.0324,0.013523,0.002678,0.000431,0.178290
105979000,0.0324,0.013523,0.002678,0.000431,0.139036
105980000,0.0324,0.013523,0.002678,0.000431,0.118939
105981000,0.0324,0.013523,0.002678,0.000431,0.111299
105982000,0.0324,0.013523,0.002678,0.000431,0.082975
105983000,0.0324,0.013523,0.002678,0.000431,0.068754
105984000,0.0324,0.013523,0.002678,0.000431,0.065463
105985000,0.0324,0.013523,0.002678,0.000431,0.062995
105986000,0.0324,0.013523,0.002678,0.000431,0.054298
105987000,0.0324,0.013523,0.002678,0.000431,0.053475
105988000,0.0324,0.013523,0.002678,0.000431,0.047599
105989000,0.0324,0.013523,0.002678,0.000431,0.045718
105990000,0.0324,0.013523,0.002678,0.000431,0.040665
105991000,0.0324,0.013523,0.002678,0.000431,0.032790
105992000,0.0324,0.013523,0.002678,0.000431,0.029382
105993000,0.0324,0.013523,0.002678,0.000431,0.032673
105994000,0.0324,0.013523,0.002678,0.000431,0.031027
105995000,0.0324,0.013523,0.002678,0.000431,0.026444
105996000,0.0324,0.013523,0.002678,0.000431,0.020567
105997000,0.0324,0.013523,0.002678,0.000431,0.012576
105998000,0.0324,0.013523,0.002678,0.000431,0.011283
105999000,0.0324,0.013523,0.002678,0.000431,0.009990
