Cycle,Area(mm^2),PeakDynamic(W),SubthresholdLeakage(W),GateLeakage(W),RunTimeDynamic(W)
25000000,0.0324,0.013523,0.002678,0.000431,0.076511
25001000,0.0324,0.013523,0.002678,0.000431,0.067226
25002000,0.0324,0.013523,0.002678,0.000431,0.057119
25003000,0.0324,0.013523,0.002678,0.000431,0.044073
25004000,0.0324,0.013523,0.002678,0.000431,0.032908
25005000,0.0324,0.013523,0.002678,0.000431,0.028207
25006000,0.0324,0.013523,0.002678,0.000431,0.028207
25007000,0.0324,0.013523,0.002678,0.000431,0.022213
25008000,0.0324,0.013523,0.002678,0.000431,0.016101
25009000,0.0324,0.013523,0.002678,0.000431,0.014691
25010000,0.0324,0.013523,0.002678,0.000431,0.019980
25011000,0.0324,0.013523,0.002678,0.000431,0.011048
25012000,0.0324,0.013523,0.002678,0.000431,0.007874
25013000,0.0324,0.013523,0.002678,0.000431,0.005876
25014000,0.0324,0.013523,0.002678,0.000431,0.004349
25015000,0.0324,0.013523,0.002678,0.000431,0.003408
25016000,0.0324,0.013523,0.002678,0.000431,0.005171
25017000,0.0324,0.013523,0.002678,0.000431,0.001645
25018000,0.0324,0.013523,0.002678,0.000431,0.001880
25019000,0.0324,0.013523,0.002678,0.000431,0.001880
25020000,0.0324,0.013523,0.002678,0.000431,0.001645
25021000,0.0324,0.013523,0.002678,0.000431,0.003173
25022000,0.0324,0.013523,0.002678,0.000431,0.000705
25023000,0.0324,0.013523,0.002678,0.000431,0.000940
25024000,0.0324,0.013523,0.002678,0.000431,0.000823
25025000,0.0324,0.013523,0.002678,0.000431,0.000823
25026000,0.0324,0.013523,0.002678,0.000431,0.000823
25027000,0.0324,0.013523,0.002678,0.000431,0.000823
25028000,0.0324,0.013523,0.002678,0.000431,0.000940
25029000,0.0324,0.013523,0.002678,0.000431,0.000705
25030000,0.0324,0.013523,0.002678,0.000431,0.000823
25031000,0.0324,0.013523,0.002678,0.000431,0.000823
25032000,0.0324,0.013523,0.002678,0.000431,0.000940
25033000,0.0324,0.013523,0.002678,0.000431,0.000823
25034000,0.0324,0.013523,0.002678,0.000431,0.000823
25035000,0.0324,0.013523,0.002678,0.000431,0.000705
25036000,0.0324,0.013523,0.002678,0.000431,0.000940
25037000,0.0324,0.013523,0.002678,0.000431,0.000940
25038000,0.0324,0.013523,0.002678,0.000431,0.000705
25039000,0.0324,0.013523,0.002678,0.000431,0.000940
25040000,0.0324,0.013523,0.002678,0.000431,0.000705
25041000,0.0324,0.013523,0.002678,0.000431,0.000940
25042000,0.0324,0.013523,0.002678,0.000431,0.000823
25043000,0.0324,0.013523,0.002678,0.000431,0.000940
25044000,0.0324,0.013523,0.002678,0.000431,0.000940
25045000,0.0324,0.013523,0.002678,0.000431,0.000823
25046000,0.0324,0.013523,0.002678,0.000431,0.000940
25047000,0.0324,0.013523,0.002678,0.000431,0.000940
25048000,0.0324,0.013523,0.002678,0.000431,0.000823
25049000,0.0324,0.013523,0.002678,0.000431,0.000823
25050000,0.0324,0.013523,0.002678,0.000431,0.000940
25051000,0.0324,0.013523,0.002678,0.000431,0.000823
25052000,0.0324,0.013523,0.002678,0.000431,0.000940
25053000,0.0324,0.013523,0.002678,0.000431,0.000823
25054000,0.0324,0.013523,0.002678,0.000431,0.000940
25055000,0.0324,0.013523,0.002678,0.000431,0.000823
25056000,0.0324,0.013523,0.002678,0.000431,0.000823
25057000,0.0324,0.013523,0.002678,0.000431,0.000940
25058000,0.0324,0.013523,0.002678,0.000431,0.000940
25059000,0.0324,0.013523,0.002678,0.000431,0.000823
25060000,0.0324,0.013523,0.002678,0.000431,0.000823
25061000,0.0324,0.013523,0.002678,0.000431,0.000940
25062000,0.0324,0.013523,0.002678,0.000431,0.000940
25063000,0.0324,0.013523,0.002678,0.000431,0.000705
25064000,0.0324,0.013523,0.002678,0.000431,0.000940
25065000,0.0324,0.013523,0.002678,0.000431,0.000940
25066000,0.0324,0.013523,0.002678,0.000431,0.000705
25067000,0.0324,0.013523,0.002678,0.000431,0.000940
25068000,0.0324,0.013523,0.002678,0.000431,0.000823
25069000,0.0324,0.013523,0.002678,0.000431,0.000823
25070000,0.0324,0.013523,0.002678,0.000431,0.000823
25071000,0.0324,0.013523,0.002678,0.000431,0.000823
25072000,0.0324,0.013523,0.002678,0.000431,0.000940
25073000,0.0324,0.013523,0.002678,0.000431,0.000823
25074000,0.0324,0.013523,0.002678,0.000431,0.000823
25075000,0.0324,0.013523,0.002678,0.000431,0.000823
25076000,0.0324,0.013523,0.002678,0.000431,0.000823
25077000,0.0324,0.013523,0.002678,0.000431,0.000940
25078000,0.0324,0.013523,0.002678,0.000431,0.000823
25079000,0.0324,0.013523,0.002678,0.000431,0.000940
25080000,0.0324,0.013523,0.002678,0.000431,0.000823
25081000,0.0324,0.013523,0.002678,0.000431,0.000940
25082000,0.0324,0.013523,0.002678,0.000431,0.000940
25083000,0.0324,0.013523,0.002678,0.000431,0.000705
25084000,0.0324,0.013523,0.002678,0.000431,0.000940
25085000,0.0324,0.013523,0.002678,0.000431,0.001645
25086000,0.0324,0.013523,0.002678,0.000431,0.360929
25087000,0.0324,0.013523,0.002678,0.000431,0.727735
25088000,0.0324,0.013523,0.002678,0.000431,0.237524
25089000,0.0324,0.013523,0.002678,0.000431,0.133747
25090000,0.0324,0.013523,0.002678,0.000431,0.271138
25091000,0.0324,0.013523,0.002678,0.000431,0.539807
25092000,0.0324,0.013523,0.002678,0.000431,0.232236
25093000,0.0324,0.013523,0.002678,0.000431,0.336601
25094000,0.0324,0.013523,0.002678,0.000431,0.143032
25095000,0.0324,0.013523,0.002678,0.000431,0.175587
25096000,0.0324,0.013523,0.002678,0.000431,0.101309
25097000,0.0324,0.013523,0.002678,0.000431,0.478457
25098000,0.0324,0.013523,0.002678,0.000431,0.154197
25099000,0.0324,0.013523,0.002678,0.000431,0.113062
25100000,0.0324,0.013523,0.002678,0.000431,0.087676
25101000,0.0324,0.013523,0.002678,0.000431,0.070869
25102000,0.0324,0.013523,0.002678,0.000431,0.065463
25103000,0.0324,0.013523,0.002678,0.000431,0.061820
25104000,0.0324,0.013523,0.002678,0.000431,0.033260
25105000,0.0324,0.013523,0.002678,0.000431,0.028912
25106000,0.0324,0.013523,0.002678,0.000431,0.026796
25107000,0.0324,0.013523,0.002678,0.000431,0.024211
25108000,0.0324,0.013523,0.002678,0.000431,0.014221
25109000,0.0324,0.013523,0.002678,0.000431,0.009167
25110000,0.0324,0.013523,0.002678,0.000431,0.006111
25111000,0.0324,0.013523,0.002678,0.000431,0.006229
25112000,0.0324,0.013523,0.002678,0.000431,0.005876
25113000,0.0324,0.013523,0.002678,0.000431,0.011048
25114000,0.0324,0.013523,0.002678,0.000431,0.004113
25115000,0.0324,0.013523,0.002678,0.000431,0.002468
25116000,0.0324,0.013523,0.002678,0.000431,0.003643
25117000,0.0324,0.013523,0.002678,0.000431,0.001763
25118000,0.0324,0.013523,0.002678,0.000431,0.001880
25119000,0.0324,0.013523,0.002678,0.000431,0.001763
25120000,0.0324,0.013523,0.002678,0.000431,0.003291
25121000,0.0324,0.013523,0.002678,0.000431,0.000940
25122000,0.0324,0.013523,0.002678,0.000431,0.003291
25123000,0.0324,0.013523,0.002678,0.000431,0.440026
25124000,0.0324,0.013523,0.002678,0.000431,0.727499
25125000,0.0324,0.013523,0.002678,0.000431,0.139623
25126000,0.0324,0.013523,0.002678,0.000431,0.132102
25127000,0.0324,0.013523,0.002678,0.000431,0.239875
25128000,0.0324,0.013523,0.002678,0.000431,0.477047
25129000,0.0324,0.013523,0.002678,0.000431,0.238112
25130000,0.0324,0.013523,0.002678,0.000431,0.265261
25131000,0.0324,0.013523,0.002678,0.000431,0.188398
25132000,0.0324,0.013523,0.002678,0.000431,0.153609
25133000,0.0324,0.013523,0.002678,0.000431,0.180053
25134000,0.0324,0.013523,0.002678,0.000431,0.103660
25135000,0.0324,0.013523,0.002678,0.000431,0.485979
25136000,0.0324,0.013523,0.002678,0.000431,0.133865
25137000,0.0324,0.013523,0.002678,0.000431,0.103895
25138000,0.0324,0.013523,0.002678,0.000431,0.083798
25139000,0.0324,0.013523,0.002678,0.000431,0.058529
25140000,0.0324,0.013523,0.002678,0.000431,0.060527
25141000,0.0324,0.013523,0.002678,0.000431,0.042780
25142000,0.0324,0.013523,0.002678,0.000431,0.039372
25143000,0.0324,0.013523,0.002678,0.000431,0.036669
25144000,0.0324,0.013523,0.002678,0.000431,0.031615
25145000,0.0324,0.013523,0.002678,0.000431,0.025151
25146000,0.0324,0.013523,0.002678,0.000431,0.022330
25147000,0.0324,0.013523,0.002678,0.000431,0.021273
25148000,0.0324,0.013523,0.002678,0.000431,0.018922
25149000,0.0324,0.013523,0.002678,0.000431,0.016571
25150000,0.0324,0.013523,0.002678,0.000431,0.011635
25151000,0.0324,0.013523,0.002678,0.000431,0.008227
25152000,0.0324,0.013523,0.002678,0.000431,0.005759
25153000,0.0324,0.013523,0.002678,0.000431,0.007522
25154000,0.0324,0.013523,0.002678,0.000431,0.007404
25155000,0.0324,0.013523,0.002678,0.000431,0.004113
25156000,0.0324,0.013523,0.002678,0.000431,0.004584
25157000,0.0324,0.013523,0.002678,0.000431,0.003878
25158000,0.0324,0.013523,0.002678,0.000431,0.003996
25159000,0.0324,0.013523,0.002678,0.000431,0.006464
25160000,0.0324,0.013523,0.002678,0.000431,0.003408
25161000,0.0324,0.013523,0.002678,0.000431,0.003291
25162000,0.0324,0.013523,0.002678,0.000431,0.003408
25163000,0.0324,0.013523,0.002678,0.000431,0.003526
25164000,0.0324,0.013523,0.002678,0.000431,0.003291
25165000,0.0324,0.013523,0.002678,0.000431,0.003408
25166000,0.0324,0.013523,0.002678,0.000431,0.003291
25167000,0.0324,0.013523,0.002678,0.000431,0.003408
25168000,0.0324,0.013523,0.002678,0.000431,0.003408
25169000,0.0324,0.013523,0.002678,0.000431,0.003408
25170000,0.0324,0.013523,0.002678,0.000431,0.003173
25171000,0.0324,0.013523,0.002678,0.000431,0.003291
25172000,0.0324,0.013523,0.002678,0.000431,0.003761
25173000,0.0324,0.013523,0.002678,0.000431,0.002938
25174000,0.0324,0.013523,0.002678,0.000431,0.003526
25175000,0.0324,0.013523,0.002678,0.000431,0.003408
25176000,0.0324,0.013523,0.002678,0.000431,0.005289
25177000,0.0324,0.013523,0.002678,0.000431,0.002468
25178000,0.0324,0.013523,0.002678,0.000431,0.002586
25179000,0.0324,0.013523,0.002678,0.000431,0.002703
25180000,0.0324,0.013523,0.002678,0.000431,0.002468
25181000,0.0324,0.013523,0.002678,0.000431,0.002351
25182000,0.0324,0.013523,0.002678,0.000431,0.002821
25183000,0.0324,0.013523,0.002678,0.000431,0.002351
25184000,0.0324,0.013523,0.002678,0.000431,0.002586
25185000,0.0324,0.013523,0.002678,0.000431,0.002468
25186000,0.0324,0.013523,0.002678,0.000431,0.002703
25187000,0.0324,0.013523,0.002678,0.000431,0.002468
25188000,0.0324,0.013523,0.002678,0.000431,0.002468
25189000,0.0324,0.013523,0.002678,0.000431,0.003761
25190000,0.0324,0.013523,0.002678,0.000431,0.003173
25191000,0.0324,0.013523,0.002678,0.000431,0.001293
25192000,0.0324,0.013523,0.002678,0.000431,0.000823
25193000,0.0324,0.013523,0.002678,0.000431,0.000823
25194000,0.0324,0.013523,0.002678,0.000431,0.000823
25195000,0.0324,0.013523,0.002678,0.000431,0.013868
25196000,0.0324,0.013523,0.002678,0.000431,0.617611
25197000,0.0324,0.013523,0.002678,0.000431,0.589639
25198000,0.0324,0.013523,0.002678,0.000431,0.133512
25199000,0.0324,0.013523,0.002678,0.000431,0.134452
25200000,0.0324,0.013523,0.002678,0.000431,0.521355
25201000,0.0324,0.013523,0.002678,0.000431,0.235291
25202000,0.0324,0.013523,0.002678,0.000431,0.234586
25203000,0.0324,0.013523,0.002678,0.000431,0.319324
25204000,0.0324,0.013523,0.002678,0.000431,0.149143
25205000,0.0324,0.013523,0.002678,0.000431,0.152317
25206000,0.0324,0.013523,0.002678,0.000431,0.109654
25207000,0.0324,0.013523,0.002678,0.000431,0.389606
25208000,0.0324,0.013523,0.002678,0.000431,0.261735
25209000,0.0324,0.013523,0.002678,0.000431,0.116705
25210000,0.0324,0.013523,0.002678,0.000431,0.100252
25211000,0.0324,0.013523,0.002678,0.000431,0.085325
25212000,0.0324,0.013523,0.002678,0.000431,0.086853
25213000,0.0324,0.013523,0.002678,0.000431,0.078626
25214000,0.0324,0.013523,0.002678,0.000431,0.055003
25215000,0.0324,0.013523,0.002678,0.000431,0.053475
25216000,0.0324,0.013523,0.002678,0.000431,0.040900
25217000,0.0324,0.013523,0.002678,0.000431,0.036199
25218000,0.0324,0.013523,0.002678,0.000431,0.027384
25219000,0.0324,0.013523,0.002678,0.000431,0.025386
25220000,0.0324,0.013523,0.002678,0.000431,0.021273
25221000,0.0324,0.013523,0.002678,0.000431,0.022330
25222000,0.0324,0.013523,0.002678,0.000431,0.012223
25223000,0.0324,0.013523,0.002678,0.000431,0.017277
25224000,0.0324,0.013523,0.002678,0.000431,0.008109
25225000,0.0324,0.013523,0.002678,0.000431,0.006229
25226000,0.0324,0.013523,0.002678,0.000431,0.008345
25227000,0.0324,0.013523,0.002678,0.000431,0.004936
25228000,0.0324,0.013523,0.002678,0.000431,0.002703
25229000,0.0324,0.013523,0.002678,0.000431,0.002821
25230000,0.0324,0.013523,0.002678,0.000431,0.004231
25231000,0.0324,0.013523,0.002678,0.000431,0.001645
25232000,0.0324,0.013523,0.002678,0.000431,0.001763
25233000,0.0324,0.013523,0.002678,0.000431,0.001645
25234000,0.0324,0.013523,0.002678,0.000431,0.001763
25235000,0.0324,0.013523,0.002678,0.000431,0.003643
25236000,0.0324,0.013523,0.002678,0.000431,0.001058
25237000,0.0324,0.013523,0.002678,0.000431,0.000940
25238000,0.0324,0.013523,0.002678,0.000431,0.013751
25239000,0.0324,0.013523,0.002678,0.000431,0.599981
25240000,0.0324,0.013523,0.002678,0.000431,0.593165
25241000,0.0324,0.013523,0.002678,0.000431,0.133042
25242000,0.0324,0.013523,0.002678,0.000431,0.134452
25243000,0.0324,0.013523,0.002678,0.000431,0.499260
25244000,0.0324,0.013523,0.002678,0.000431,0.246692
25245000,0.0324,0.013523,0.002678,0.000431,0.242578
25246000,0.0324,0.013523,0.002678,0.000431,0.325318
25247000,0.0324,0.013523,0.002678,0.000431,0.137273
25248000,0.0324,0.013523,0.002678,0.000431,0.151846
25249000,0.0324,0.013523,0.002678,0.000431,0.145382
25250000,0.0324,0.013523,0.002678,0.000431,0.234586
25251000,0.0324,0.013523,0.002678,0.000431,0.403004
25252000,0.0324,0.013523,0.002678,0.000431,0.118939
25253000,0.0324,0.013523,0.002678,0.000431,0.100369
25254000,0.0324,0.013523,0.002678,0.000431,0.080154
25255000,0.0324,0.013523,0.002678,0.000431,0.066286
25256000,0.0324,0.013523,0.002678,0.000431,0.057001
25257000,0.0324,0.013523,0.002678,0.000431,0.043368
25258000,0.0324,0.013523,0.002678,0.000431,0.026326
25259000,0.0324,0.013523,0.002678,0.000431,0.029265
25260000,0.0324,0.013523,0.002678,0.000431,0.027502
25261000,0.0324,0.013523,0.002678,0.000431,0.015866
25262000,0.0324,0.013523,0.002678,0.000431,0.012105
25263000,0.0324,0.013523,0.002678,0.000431,0.008932
25264000,0.0324,0.013523,0.002678,0.000431,0.007757
25265000,0.0324,0.013523,0.002678,0.000431,0.008697
25266000,0.0324,0.013523,0.002678,0.000431,0.003291
25267000,0.0324,0.013523,0.002678,0.000431,0.008109
25268000,0.0324,0.013523,0.002678,0.000431,0.001645
25269000,0.0324,0.013523,0.002678,0.000431,0.001763
25270000,0.0324,0.013523,0.002678,0.000431,0.001763
25271000,0.0324,0.013523,0.002678,0.000431,0.001763
25272000,0.0324,0.013523,0.002678,0.000431,0.001763
25273000,0.0324,0.013523,0.002678,0.000431,0.001645
25274000,0.0324,0.013523,0.002678,0.000431,0.001880
25275000,0.0324,0.013523,0.002678,0.000431,0.001645
25276000,0.0324,0.013523,0.002678,0.000431,0.001763
25277000,0.0324,0.013523,0.002678,0.000431,0.001528
25278000,0.0324,0.013523,0.002678,0.000431,0.003526
25279000,0.0324,0.013523,0.002678,0.000431,0.000940
25280000,0.0324,0.013523,0.002678,0.000431,0.000705
25281000,0.0324,0.013523,0.002678,0.000431,0.000940
25282000,0.0324,0.013523,0.002678,0.000431,0.000705
25283000,0.0324,0.013523,0.002678,0.000431,0.000940
25284000,0.0324,0.013523,0.002678,0.000431,0.000823
25285000,0.0324,0.013523,0.002678,0.000431,0.000823
25286000,0.0324,0.013523,0.002678,0.000431,0.000823
25287000,0.0324,0.013523,0.002678,0.000431,0.000823
25288000,0.0324,0.013523,0.002678,0.000431,0.000940
25289000,0.0324,0.013523,0.002678,0.000431,0.002821
25290000,0.0324,0.013523,0.002678,0.000431,0.460358
25291000,0.0324,0.013523,0.002678,0.000431,0.711868
25292000,0.0324,0.013523,0.002678,0.000431,0.147028
25293000,0.0324,0.013523,0.002678,0.000431,0.133982
25294000,0.0324,0.013523,0.002678,0.000431,0.361282
25295000,0.0324,0.013523,0.002678,0.000431,0.462826
25296000,0.0324,0.013523,0.002678,0.000431,0.225889
25297000,0.0324,0.013523,0.002678,0.000431,0.325318
25298000,0.0324,0.013523,0.002678,0.000431,0.145852
25299000,0.0324,0.013523,0.002678,0.000431,0.150201
25300000,0.0324,0.013523,0.002678,0.000431,0.115178
25301000,0.0324,0.013523,0.002678,0.000431,0.424512
25302000,0.0324,0.013523,0.002678,0.000431,0.212256
25303000,0.0324,0.013523,0.002678,0.000431,0.106010
25304000,0.0324,0.013523,0.002678,0.000431,0.086501
25305000,0.0324,0.013523,0.002678,0.000431,0.086266
25306000,0.0324,0.013523,0.002678,0.000431,0.066521
25307000,0.0324,0.013523,0.002678,0.000431,0.053358
25308000,0.0324,0.013523,0.002678,0.000431,0.053123
25309000,0.0324,0.013523,0.002678,0.000431,0.035611
25310000,0.0324,0.013523,0.002678,0.000431,0.033143
25311000,0.0324,0.013523,0.002678,0.000431,0.029500
25312000,0.0324,0.013523,0.002678,0.000431,0.030205
25313000,0.0324,0.013523,0.002678,0.000431,0.025034
25314000,0.0324,0.013523,0.002678,0.000431,0.023623
25315000,0.0324,0.013523,0.002678,0.000431,0.019627
25316000,0.0324,0.013523,0.002678,0.000431,0.016571
25317000,0.0324,0.013523,0.002678,0.000431,0.012693
25318000,0.0324,0.013523,0.002678,0.000431,0.012693
25319000,0.0324,0.013523,0.002678,0.000431,0.010578
25320000,0.0324,0.013523,0.002678,0.000431,0.008697
25321000,0.0324,0.013523,0.002678,0.000431,0.011283
25322000,0.0324,0.013523,0.002678,0.000431,0.008345
25323000,0.0324,0.013523,0.002678,0.000431,0.005994
25324000,0.0324,0.013523,0.002678,0.000431,0.009050
25325000,0.0324,0.013523,0.002678,0.000431,0.004466
25326000,0.0324,0.013523,0.002678,0.000431,0.005876
25327000,0.0324,0.013523,0.002678,0.000431,0.003643
25328000,0.0324,0.013523,0.002678,0.000431,0.003408
25329000,0.0324,0.013523,0.002678,0.000431,0.005054
25330000,0.0324,0.013523,0.002678,0.000431,0.002821
25331000,0.0324,0.013523,0.002678,0.000431,0.002351
25332000,0.0324,0.013523,0.002678,0.000431,0.002821
25333000,0.0324,0.013523,0.002678,0.000431,0.002233
25334000,0.0324,0.013523,0.002678,0.000431,0.002821
25335000,0.0324,0.013523,0.002678,0.000431,0.002351
25336000,0.0324,0.013523,0.002678,0.000431,0.002586
25337000,0.0324,0.013523,0.002678,0.000431,0.002703
25338000,0.0324,0.013523,0.002678,0.000431,0.002468
25339000,0.0324,0.013523,0.002678,0.000431,0.002703
25340000,0.0324,0.013523,0.002678,0.000431,0.002351
25341000,0.0324,0.013523,0.002678,0.000431,0.002703
25342000,0.0324,0.013523,0.002678,0.000431,0.002586
25343000,0.0324,0.013523,0.002678,0.000431,0.002468
25344000,0.0324,0.013523,0.002678,0.000431,0.002586
25345000,0.0324,0.013523,0.002678,0.000431,0.002468
25346000,0.0324,0.013523,0.002678,0.000431,0.004819
25347000,0.0324,0.013523,0.002678,0.000431,0.004113
25348000,0.0324,0.013523,0.002678,0.000431,0.334720
25349000,0.0324,0.013523,0.002678,0.000431,0.660038
25350000,0.0324,0.013523,0.002678,0.000431,0.278189
25351000,0.0324,0.013523,0.002678,0.000431,0.132102
25352000,0.0324,0.013523,0.002678,0.000431,0.158663
25353000,0.0324,0.013523,0.002678,0.000431,0.605388
25354000,0.0324,0.013523,0.002678,0.000431,0.274781
25355000,0.0324,0.013523,0.002678,0.000431,0.290177
25356000,0.0324,0.013523,0.002678,0.000431,0.216487
25357000,0.0324,0.013523,0.002678,0.000431,0.148203
25358000,0.0324,0.013523,0.002678,0.000431,0.118586
25359000,0.0324,0.013523,0.002678,0.000431,0.310157
25360000,0.0324,0.013523,0.002678,0.000431,0.329314
25361000,0.0324,0.013523,0.002678,0.000431,0.107891
25362000,0.0324,0.013523,0.002678,0.000431,0.099781
25363000,0.0324,0.013523,0.002678,0.000431,0.081212
25364000,0.0324,0.013523,0.002678,0.000431,0.074513
25365000,0.0324,0.013523,0.002678,0.000431,0.057471
25366000,0.0324,0.013523,0.002678,0.000431,0.043250
25367000,0.0324,0.013523,0.002678,0.000431,0.039019
25368000,0.0324,0.013523,0.002678,0.000431,0.029735
25369000,0.0324,0.013523,0.002678,0.000431,0.028442
25370000,0.0324,0.013523,0.002678,0.000431,0.024681
25371000,0.0324,0.013523,0.002678,0.000431,0.029147
25372000,0.0324,0.013523,0.002678,0.000431,0.023976
25373000,0.0324,0.013523,0.002678,0.000431,0.023976
25374000,0.0324,0.013523,0.002678,0.000431,0.014691
25375000,0.0324,0.013523,0.002678,0.000431,0.013633
25376000,0.0324,0.013523,0.002678,0.000431,0.011048
25377000,0.0324,0.013523,0.002678,0.000431,0.011518
25378000,0.0324,0.013523,0.002678,0.000431,0.011635
25379000,0.0324,0.013523,0.002678,0.000431,0.006817
25380000,0.0324,0.013523,0.002678,0.000431,0.007639
25381000,0.0324,0.013523,0.002678,0.000431,0.007757
25382000,0.0324,0.013523,0.002678,0.000431,0.004349
25383000,0.0324,0.013523,0.002678,0.000431,0.004113
25384000,0.0324,0.013523,0.002678,0.000431,0.003761
25385000,0.0324,0.013523,0.002678,0.000431,0.004584
25386000,0.0324,0.013523,0.002678,0.000431,0.003761
25387000,0.0324,0.013523,0.002678,0.000431,0.004113
25388000,0.0324,0.013523,0.002678,0.000431,0.004113
25389000,0.0324,0.013523,0.002678,0.000431,0.003996
25390000,0.0324,0.013523,0.002678,0.000431,0.005524
25391000,0.0324,0.013523,0.002678,0.000431,0.002468
25392000,0.0324,0.013523,0.002678,0.000431,0.002821
25393000,0.0324,0.013523,0.002678,0.000431,0.003878
25394000,0.0324,0.013523,0.002678,0.000431,0.001880
25395000,0.0324,0.013523,0.002678,0.000431,0.001645
25396000,0.0324,0.013523,0.002678,0.000431,0.001645
25397000,0.0324,0.013523,0.002678,0.000431,0.001645
25398000,0.0324,0.013523,0.002678,0.000431,0.001645
25399000,0.0324,0.013523,0.002678,0.000431,0.001763
25400000,0.0324,0.013523,0.002678,0.000431,0.001528
25401000,0.0324,0.013523,0.002678,0.000431,0.001880
25402000,0.0324,0.013523,0.002678,0.000431,0.003056
25403000,0.0324,0.013523,0.002678,0.000431,0.000823
25404000,0.0324,0.013523,0.002678,0.000431,0.000823
25405000,0.0324,0.013523,0.002678,0.000431,0.000823
25406000,0.0324,0.013523,0.002678,0.000431,0.000823
25407000,0.0324,0.013523,0.002678,0.000431,0.000823
25408000,0.0324,0.013523,0.002678,0.000431,0.000823
25409000,0.0324,0.013523,0.002678,0.000431,0.000823
25410000,0.0324,0.013523,0.002678,0.000431,0.000940
25411000,0.0324,0.013523,0.002678,0.000431,0.256211
25412000,0.0324,0.013523,0.002678,0.000431,0.669323
25413000,0.0324,0.013523,0.002678,0.000431,0.338481
25414000,0.0324,0.013523,0.002678,0.000431,0.136685
25415000,0.0324,0.013523,0.002678,0.000431,0.146558
25416000,0.0324,0.013523,0.002678,0.000431,0.633242
25417000,0.0324,0.013523,0.002678,0.000431,0.253156
25418000,0.0324,0.013523,0.002678,0.000431,0.269492
25419000,0.0324,0.013523,0.002678,0.000431,0.207202
25420000,0.0324,0.013523,0.002678,0.000431,0.144912
25421000,0.0324,0.013523,0.002678,0.000431,0.144207
25422000,0.0324,0.013523,0.002678,0.000431,0.235174
25423000,0.0324,0.013523,0.002678,0.000431,0.379969
25424000,0.0324,0.013523,0.002678,0.000431,0.125990
25425000,0.0324,0.013523,0.002678,0.000431,0.108479
25426000,0.0324,0.013523,0.002678,0.000431,0.087088
25427000,0.0324,0.013523,0.002678,0.000431,0.071575
25428000,0.0324,0.013523,0.002678,0.000431,0.055826
25429000,0.0324,0.013523,0.002678,0.000431,0.048304
25430000,0.0324,0.013523,0.002678,0.000431,0.045248
25431000,0.0324,0.013523,0.002678,0.000431,0.035141
25432000,0.0324,0.013523,0.002678,0.000431,0.024681
25433000,0.0324,0.013523,0.002678,0.000431,0.019862
25434000,0.0324,0.013523,0.002678,0.000431,0.017159
25435000,0.0324,0.013523,0.002678,0.000431,0.014691
25436000,0.0324,0.013523,0.002678,0.000431,0.007404
25437000,0.0324,0.013523,0.002678,0.000431,0.008815
25438000,0.0324,0.013523,0.002678,0.000431,0.005876
25439000,0.0324,0.013523,0.002678,0.000431,0.007874
25440000,0.0324,0.013523,0.002678,0.000431,0.004819
25441000,0.0324,0.013523,0.002678,0.000431,0.004936
25442000,0.0324,0.013523,0.002678,0.000431,0.006229
25443000,0.0324,0.013523,0.002678,0.000431,0.006111
25444000,0.0324,0.013523,0.002678,0.000431,0.004936
25445000,0.0324,0.013523,0.002678,0.000431,0.002468
25446000,0.0324,0.013523,0.002678,0.000431,0.002468
25447000,0.0324,0.013523,0.002678,0.000431,0.002468
25448000,0.0324,0.013523,0.002678,0.000431,0.002586
25449000,0.0324,0.013523,0.002678,0.000431,0.003996
25450000,0.0324,0.013523,0.002678,0.000431,0.001880
25451000,0.0324,0.013523,0.002678,0.000431,0.001763
25452000,0.0324,0.013523,0.002678,0.000431,0.001528
25453000,0.0324,0.013523,0.002678,0.000431,0.001763
25454000,0.0324,0.013523,0.002678,0.000431,0.001645
25455000,0.0324,0.013523,0.002678,0.000431,0.001645
25456000,0.0324,0.013523,0.002678,0.000431,0.001880
25457000,0.0324,0.013523,0.002678,0.000431,0.002468
25458000,0.0324,0.013523,0.002678,0.000431,0.018687
25459000,0.0324,0.013523,0.002678,0.000431,0.583292
25460000,0.0324,0.013523,0.002678,0.000431,0.601274
25461000,0.0324,0.013523,0.002678,0.000431,0.133042
25462000,0.0324,0.013523,0.002678,0.000431,0.133512
25463000,0.0324,0.013523,0.002678,0.000431,0.534166
25464000,0.0324,0.013523,0.002678,0.000431,0.247632
25465000,0.0324,0.013523,0.002678,0.000431,0.279600
25466000,0.0324,0.013523,0.002678,0.000431,0.273958
25467000,0.0324,0.013523,0.002678,0.000431,0.145617
25468000,0.0324,0.013523,0.002678,0.000431,0.141857
25469000,0.0324,0.013523,0.002678,0.000431,0.134217
25470000,0.0324,0.013523,0.002678,0.000431,0.281127
25471000,0.0324,0.013523,0.002678,0.000431,0.360459
25472000,0.0324,0.013523,0.002678,0.000431,0.125168
25473000,0.0324,0.013523,0.002678,0.000431,0.090262
25474000,0.0324,0.013523,0.002678,0.000431,0.077098
25475000,0.0324,0.013523,0.002678,0.000431,0.061702
25476000,0.0324,0.013523,0.002678,0.000431,0.055121
25477000,0.0324,0.013523,0.002678,0.000431,0.040430
25478000,0.0324,0.013523,0.002678,0.000431,0.043838
25479000,0.0324,0.013523,0.002678,0.000431,0.038549
25480000,0.0324,0.013523,0.002678,0.000431,0.042780
25481000,0.0324,0.013523,0.002678,0.000431,0.026679
25482000,0.0324,0.013523,0.002678,0.000431,0.020920
25483000,0.0324,0.013523,0.002678,0.000431,0.019745
25484000,0.0324,0.013523,0.002678,0.000431,0.023036
25485000,0.0324,0.013523,0.002678,0.000431,0.018569
25486000,0.0324,0.013523,0.002678,0.000431,0.013751
25487000,0.0324,0.013523,0.002678,0.000431,0.013516
25488000,0.0324,0.013523,0.002678,0.000431,0.011400
25489000,0.0324,0.013523,0.002678,0.000431,0.012340
25490000,0.0324,0.013523,0.002678,0.000431,0.006934
25491000,0.0324,0.013523,0.002678,0.000431,0.007757
25492000,0.0324,0.013523,0.002678,0.000431,0.007874
25493000,0.0324,0.013523,0.002678,0.000431,0.004819
25494000,0.0324,0.013523,0.002678,0.000431,0.006229
25495000,0.0324,0.013523,0.002678,0.000431,0.004584
25496000,0.0324,0.013523,0.002678,0.000431,0.006817
25497000,0.0324,0.013523,0.002678,0.000431,0.003878
25498000,0.0324,0.013523,0.002678,0.000431,0.004231
25499000,0.0324,0.013523,0.002678,0.000431,0.000940
25500000,0.0324,0.013523,0.002678,0.000431,0.000823
25501000,0.0324,0.013523,0.002678,0.000431,0.000823
25502000,0.0324,0.013523,0.002678,0.000431,0.000823
25503000,0.0324,0.013523,0.002678,0.000431,0.000823
25504000,0.0324,0.013523,0.002678,0.000431,0.000823
25505000,0.0324,0.013523,0.002678,0.000431,0.000823
25506000,0.0324,0.013523,0.002678,0.000431,0.000940
25507000,0.0324,0.013523,0.002678,0.000431,0.000940
25508000,0.0324,0.013523,0.002678,0.000431,0.134922
25509000,0.0324,0.013523,0.002678,0.000431,0.580002
25510000,0.0324,0.013523,0.002678,0.000431,0.535693
25511000,0.0324,0.013523,0.002678,0.000431,0.133512
25512000,0.0324,0.013523,0.002678,0.000431,0.133982
25513000,0.0324,0.013523,0.002678,0.000431,0.561432
25514000,0.0324,0.013523,0.002678,0.000431,0.244341
25515000,0.0324,0.013523,0.002678,0.000431,0.273723
25516000,0.0324,0.013523,0.002678,0.000431,0.267377
25517000,0.0324,0.013523,0.002678,0.000431,0.140211
25518000,0.0324,0.013523,0.002678,0.000431,0.167008
25519000,0.0324,0.013523,0.002678,0.000431,0.110594
25520000,0.0324,0.013523,0.002678,0.000431,0.471993
25521000,0.0324,0.013523,0.002678,0.000431,0.162894
25522000,0.0324,0.013523,0.002678,0.000431,0.102720
25523000,0.0324,0.013523,0.002678,0.000431,0.086031
25524000,0.0324,0.013523,0.002678,0.000431,0.079449
25525000,0.0324,0.013523,0.002678,0.000431,0.080037
25526000,0.0324,0.013523,0.002678,0.000431,0.060057
25527000,0.0324,0.013523,0.002678,0.000431,0.051712
25528000,0.0324,0.013523,0.002678,0.000431,0.040547
25529000,0.0324,0.013523,0.002678,0.000431,0.032085
25530000,0.0324,0.013523,0.002678,0.000431,0.029029
25531000,0.0324,0.013523,0.002678,0.000431,0.026914
25532000,0.0324,0.013523,0.002678,0.000431,0.029265
25533000,0.0324,0.013523,0.002678,0.000431,0.020097
25534000,0.0324,0.013523,0.002678,0.000431,0.015631
25535000,0.0324,0.013523,0.002678,0.000431,0.019157
25536000,0.0324,0.013523,0.002678,0.000431,0.008345
25537000,0.0324,0.013523,0.002678,0.000431,0.008462
25538000,0.0324,0.013523,0.002678,0.000431,0.011870
25539000,0.0324,0.013523,0.002678,0.000431,0.006817
25540000,0.0324,0.013523,0.002678,0.000431,0.008932
25541000,0.0324,0.013523,0.002678,0.000431,0.007522
25542000,0.0324,0.013523,0.002678,0.000431,0.004231
25543000,0.0324,0.013523,0.002678,0.000431,0.006229
25544000,0.0324,0.013523,0.002678,0.000431,0.003408
25545000,0.0324,0.013523,0.002678,0.000431,0.007169
25546000,0.0324,0.013523,0.002678,0.000431,0.001645
25547000,0.0324,0.013523,0.002678,0.000431,0.001645
25548000,0.0324,0.013523,0.002678,0.000431,0.001763
25549000,0.0324,0.013523,0.002678,0.000431,0.001645
25550000,0.0324,0.013523,0.002678,0.000431,0.001645
25551000,0.0324,0.013523,0.002678,0.000431,0.001763
25552000,0.0324,0.013523,0.002678,0.000431,0.001645
25553000,0.0324,0.013523,0.002678,0.000431,0.002468
25554000,0.0324,0.013523,0.002678,0.000431,0.002116
25555000,0.0324,0.013523,0.002678,0.000431,0.000823
25556000,0.0324,0.013523,0.002678,0.000431,0.000823
25557000,0.0324,0.013523,0.002678,0.000431,0.000705
25558000,0.0324,0.013523,0.002678,0.000431,0.000940
25559000,0.0324,0.013523,0.002678,0.000431,0.000940
25560000,0.0324,0.013523,0.002678,0.000431,0.000705
25561000,0.0324,0.013523,0.002678,0.000431,0.000940
25562000,0.0324,0.013523,0.002678,0.000431,0.000705
25563000,0.0324,0.013523,0.002678,0.000431,0.000940
25564000,0.0324,0.013523,0.002678,0.000431,0.000823
25565000,0.0324,0.013523,0.002678,0.000431,0.000823
25566000,0.0324,0.013523,0.002678,0.000431,0.000940
25567000,0.0324,0.013523,0.002678,0.000431,0.000823
25568000,0.0324,0.013523,0.002678,0.000431,0.000823
25569000,0.0324,0.013523,0.002678,0.000431,0.000940
25570000,0.0324,0.013523,0.002678,0.000431,0.000705
25571000,0.0324,0.013523,0.002678,0.000431,0.000940
25572000,0.0324,0.013523,0.002678,0.000431,0.000823
25573000,0.0324,0.013523,0.002678,0.000431,0.000823
25574000,0.0324,0.013523,0.002678,0.000431,0.000823
25575000,0.0324,0.013523,0.002678,0.000431,0.000823
25576000,0.0324,0.013523,0.002678,0.000431,0.000823
25577000,0.0324,0.013523,0.002678,0.000431,0.000823
25578000,0.0324,0.013523,0.002678,0.000431,0.000705
25579000,0.0324,0.013523,0.002678,0.000431,0.075923
25580000,0.0324,0.013523,0.002678,0.000431,0.597278
25581000,0.0324,0.013523,0.002678,0.000431,0.567661
25582000,0.0324,0.013523,0.002678,0.000431,0.132219
25583000,0.0324,0.013523,0.002678,0.000431,0.138096
25584000,0.0324,0.013523,0.002678,0.000431,0.588699
25585000,0.0324,0.013523,0.002678,0.000431,0.269727
25586000,0.0324,0.013523,0.002678,0.000431,0.268787
25587000,0.0324,0.013523,0.002678,0.000431,0.272078
25588000,0.0324,0.013523,0.002678,0.000431,0.142562
25589000,0.0324,0.013523,0.002678,0.000431,0.167125
25590000,0.0324,0.013523,0.002678,0.000431,0.146323
25591000,0.0324,0.013523,0.002678,0.000431,0.459065
25592000,0.0324,0.013523,0.002678,0.000431,0.135628
25593000,0.0324,0.013523,0.002678,0.000431,0.102955
25594000,0.0324,0.013523,0.002678,0.000431,0.091907
25595000,0.0324,0.013523,0.002678,0.000431,0.081212
25596000,0.0324,0.013523,0.002678,0.000431,0.068049
25597000,0.0324,0.013523,0.002678,0.000431,0.055003
25598000,0.0324,0.013523,0.002678,0.000431,0.049597
25599000,0.0324,0.013523,0.002678,0.000431,0.045366
25600000,0.0324,0.013523,0.002678,0.000431,0.037844
25601000,0.0324,0.013523,0.002678,0.000431,0.033378
25602000,0.0324,0.013523,0.002678,0.000431,0.022095
25603000,0.0324,0.013523,0.002678,0.000431,0.019157
25604000,0.0324,0.013523,0.002678,0.000431,0.019275
25605000,0.0324,0.013523,0.002678,0.000431,0.016336
25606000,0.0324,0.013523,0.002678,0.000431,0.014809
25607000,0.0324,0.013523,0.002678,0.000431,0.014456
25608000,0.0324,0.013523,0.002678,0.000431,0.009520
25609000,0.0324,0.013523,0.002678,0.000431,0.009872
25610000,0.0324,0.013523,0.002678,0.000431,0.010578
25611000,0.0324,0.013523,0.002678,0.000431,0.006464
25612000,0.0324,0.013523,0.002678,0.000431,0.004113
25613000,0.0324,0.013523,0.002678,0.000431,0.005876
25614000,0.0324,0.013523,0.002678,0.000431,0.003291
25615000,0.0324,0.013523,0.002678,0.000431,0.003408
25616000,0.0324,0.013523,0.002678,0.000431,0.004819
25617000,0.0324,0.013523,0.002678,0.000431,0.002586
25618000,0.0324,0.013523,0.002678,0.000431,0.002351
25619000,0.0324,0.013523,0.002678,0.000431,0.002468
25620000,0.0324,0.013523,0.002678,0.000431,0.002351
25621000,0.0324,0.013523,0.002678,0.000431,0.002468
25622000,0.0324,0.013523,0.002678,0.000431,0.002116
25623000,0.0324,0.013523,0.002678,0.000431,0.002586
25624000,0.0324,0.013523,0.002678,0.000431,0.002586
25625000,0.0324,0.013523,0.002678,0.000431,0.002116
25626000,0.0324,0.013523,0.002678,0.000431,0.002821
25627000,0.0324,0.013523,0.002678,0.000431,0.001998
25628000,0.0324,0.013523,0.002678,0.000431,0.002703
25629000,0.0324,0.013523,0.002678,0.000431,0.002351
25630000,0.0324,0.013523,0.002678,0.000431,0.002351
25631000,0.0324,0.013523,0.002678,0.000431,0.002586
25632000,0.0324,0.013523,0.002678,0.000431,0.002233
25633000,0.0324,0.013523,0.002678,0.000431,0.002703
25634000,0.0324,0.013523,0.002678,0.000431,0.002116
25635000,0.0324,0.013523,0.002678,0.000431,0.002586
25636000,0.0324,0.013523,0.002678,0.000431,0.001880
25637000,0.0324,0.013523,0.002678,0.000431,0.002116
25638000,0.0324,0.013523,0.002678,0.000431,0.002468
25639000,0.0324,0.013523,0.002678,0.000431,0.002233
25640000,0.0324,0.013523,0.002678,0.000431,0.002468
25641000,0.0324,0.013523,0.002678,0.000431,0.003173
25642000,0.0324,0.013523,0.002678,0.000431,0.001880
25643000,0.0324,0.013523,0.002678,0.000431,0.070634
25644000,0.0324,0.013523,0.002678,0.000431,0.567309
25645000,0.0324,0.013523,0.002678,0.000431,0.588464
25646000,0.0324,0.013523,0.002678,0.000431,0.132572
25647000,0.0324,0.013523,0.002678,0.000431,0.133042
25648000,0.0324,0.013523,0.002678,0.000431,0.549444
25649000,0.0324,0.013523,0.002678,0.000431,0.239640
25650000,0.0324,0.013523,0.002678,0.000431,0.268552
25651000,0.0324,0.013523,0.002678,0.000431,0.269727
25652000,0.0324,0.013523,0.002678,0.000431,0.144560
25653000,0.0324,0.013523,0.002678,0.000431,0.153374
25654000,0.0324,0.013523,0.002678,0.000431,0.116353
25655000,0.0324,0.013523,0.002678,0.000431,0.408410
25656000,0.0324,0.013523,0.002678,0.000431,0.235291
25657000,0.0324,0.013523,0.002678,0.000431,0.112827
25658000,0.0324,0.013523,0.002678,0.000431,0.095315
25659000,0.0324,0.013523,0.002678,0.000431,0.071692
25660000,0.0324,0.013523,0.002678,0.000431,0.061467
25661000,0.0324,0.013523,0.002678,0.000431,0.039137
25662000,0.0324,0.013523,0.002678,0.000431,0.038667
25663000,0.0324,0.013523,0.002678,0.000431,0.034201
25664000,0.0324,0.013523,0.002678,0.000431,0.024681
25665000,0.0324,0.013523,0.002678,0.000431,0.017277
25666000,0.0324,0.013523,0.002678,0.000431,0.016807
25667000,0.0324,0.013523,0.002678,0.000431,0.011988
25668000,0.0324,0.013523,0.002678,0.000431,0.014221
25669000,0.0324,0.013523,0.002678,0.000431,0.006582
25670000,0.0324,0.013523,0.002678,0.000431,0.008697
25671000,0.0324,0.013523,0.002678,0.000431,0.007404
25672000,0.0324,0.013523,0.002678,0.000431,0.004584
25673000,0.0324,0.013523,0.002678,0.000431,0.003173
25674000,0.0324,0.013523,0.002678,0.000431,0.002468
25675000,0.0324,0.013523,0.002678,0.000431,0.002586
25676000,0.0324,0.013523,0.002678,0.000431,0.002586
25677000,0.0324,0.013523,0.002678,0.000431,0.002468
25678000,0.0324,0.013523,0.002678,0.000431,0.006347
25679000,0.0324,0.013523,0.002678,0.000431,0.121994
25680000,0.0324,0.013523,0.002678,0.000431,0.592695
25681000,0.0324,0.013523,0.002678,0.000431,0.537104
25682000,0.0324,0.013523,0.002678,0.000431,0.133865
25683000,0.0324,0.013523,0.002678,0.000431,0.132572
25684000,0.0324,0.013523,0.002678,0.000431,0.564958
25685000,0.0324,0.013523,0.002678,0.000431,0.246104
25686000,0.0324,0.013523,0.002678,0.000431,0.281010
25687000,0.0324,0.013523,0.002678,0.000431,0.296641
25688000,0.0324,0.013523,0.002678,0.000431,0.138096
25689000,0.0324,0.013523,0.002678,0.000431,0.173472
25690000,0.0324,0.013523,0.002678,0.000431,0.124345
25691000,0.0324,0.013523,0.002678,0.000431,0.460593
25692000,0.0324,0.013523,0.002678,0.000431,0.114120
25693000,0.0324,0.013523,0.002678,0.000431,0.078039
25694000,0.0324,0.013523,0.002678,0.000431,0.075571
25695000,0.0324,0.013523,0.002678,0.000431,0.061585
25696000,0.0324,0.013523,0.002678,0.000431,0.052065
25697000,0.0324,0.013523,0.002678,0.000431,0.042780
25698000,0.0324,0.013523,0.002678,0.000431,0.035376
25699000,0.0324,0.013523,0.002678,0.000431,0.029617
25700000,0.0324,0.013523,0.002678,0.000431,0.021860
25701000,0.0324,0.013523,0.002678,0.000431,0.019040
25702000,0.0324,0.013523,0.002678,0.000431,0.017864
25703000,0.0324,0.013523,0.002678,0.000431,0.011635
25704000,0.0324,0.013523,0.002678,0.000431,0.012928
25705000,0.0324,0.013523,0.002678,0.000431,0.012458
25706000,0.0324,0.013523,0.002678,0.000431,0.011400
25707000,0.0324,0.013523,0.002678,0.000431,0.013633
25708000,0.0324,0.013523,0.002678,0.000431,0.012105
25709000,0.0324,0.013523,0.002678,0.000431,0.007404
25710000,0.0324,0.013523,0.002678,0.000431,0.009402
25711000,0.0324,0.013523,0.002678,0.000431,0.008345
25712000,0.0324,0.013523,0.002678,0.000431,0.006111
25713000,0.0324,0.013523,0.002678,0.000431,0.008462
25714000,0.0324,0.013523,0.002678,0.000431,0.005289
25715000,0.0324,0.013523,0.002678,0.000431,0.005641
25716000,0.0324,0.013523,0.002678,0.000431,0.008932
25717000,0.0324,0.013523,0.002678,0.000431,0.004584
25718000,0.0324,0.013523,0.002678,0.000431,0.001410
25719000,0.0324,0.013523,0.002678,0.000431,0.003643
25720000,0.0324,0.013523,0.002678,0.000431,0.000940
25721000,0.0324,0.013523,0.002678,0.000431,0.000705
25722000,0.0324,0.013523,0.002678,0.000431,0.000940
25723000,0.0324,0.013523,0.002678,0.000431,0.000705
25724000,0.0324,0.013523,0.002678,0.000431,0.000940
25725000,0.0324,0.013523,0.002678,0.000431,0.000823
25726000,0.0324,0.013523,0.002678,0.000431,0.000823
25727000,0.0324,0.013523,0.002678,0.000431,0.000940
25728000,0.0324,0.013523,0.002678,0.000431,0.000705
25729000,0.0324,0.013523,0.002678,0.000431,0.000940
25730000,0.0324,0.013523,0.002678,0.000431,0.000705
25731000,0.0324,0.013523,0.002678,0.000431,0.000940
25732000,0.0324,0.013523,0.002678,0.000431,0.000823
25733000,0.0324,0.013523,0.002678,0.000431,0.000823
25734000,0.0324,0.013523,0.002678,0.000431,0.000705
25735000,0.0324,0.013523,0.002678,0.000431,0.000940
25736000,0.0324,0.013523,0.002678,0.000431,0.000705
25737000,0.0324,0.013523,0.002678,0.000431,0.000940
25738000,0.0324,0.013523,0.002678,0.000431,0.000705
25739000,0.0324,0.013523,0.002678,0.000431,0.000940
25740000,0.0324,0.013523,0.002678,0.000431,0.000823
25741000,0.0324,0.013523,0.002678,0.000431,0.000823
25742000,0.0324,0.013523,0.002678,0.000431,0.000940
25743000,0.0324,0.013523,0.002678,0.000431,0.000705
25744000,0.0324,0.013523,0.002678,0.000431,0.000940
25745000,0.0324,0.013523,0.002678,0.000431,0.013633
25746000,0.0324,0.013523,0.002678,0.000431,0.541452
25747000,0.0324,0.013523,0.002678,0.000431,0.595750
25748000,0.0324,0.013523,0.002678,0.000431,0.135275
25749000,0.0324,0.013523,0.002678,0.000431,0.131161
25750000,0.0324,0.013523,0.002678,0.000431,0.463061
25751000,0.0324,0.013523,0.002678,0.000431,0.424159
25752000,0.0324,0.013523,0.002678,0.000431,0.245516
25753000,0.0324,0.013523,0.002678,0.000431,0.305691
25754000,0.0324,0.013523,0.002678,0.000431,0.147145
25755000,0.0324,0.013523,0.002678,0.000431,0.172531
25756000,0.0324,0.013523,0.002678,0.000431,0.093435
25757000,0.0324,0.013523,0.002678,0.000431,0.469995
25758000,0.0324,0.013523,0.002678,0.000431,0.146910
25759000,0.0324,0.013523,0.002678,0.000431,0.101192
25760000,0.0324,0.013523,0.002678,0.000431,0.091084
25761000,0.0324,0.013523,0.002678,0.000431,0.074748
25762000,0.0324,0.013523,0.002678,0.000431,0.065933
25763000,0.0324,0.013523,0.002678,0.000431,0.058176
25764000,0.0324,0.013523,0.002678,0.000431,0.052535
25765000,0.0324,0.013523,0.002678,0.000431,0.048892
25766000,0.0324,0.013523,0.002678,0.000431,0.034083
25767000,0.0324,0.013523,0.002678,0.000431,0.035846
25768000,0.0324,0.013523,0.002678,0.000431,0.039019
25769000,0.0324,0.013523,0.002678,0.000431,0.024798
25770000,0.0324,0.013523,0.002678,0.000431,0.018099
25771000,0.0324,0.013523,0.002678,0.000431,0.017629
25772000,0.0324,0.013523,0.002678,0.000431,0.017277
25773000,0.0324,0.013523,0.002678,0.000431,0.019040
25774000,0.0324,0.013523,0.002678,0.000431,0.016454
25775000,0.0324,0.013523,0.002678,0.000431,0.014103
25776000,0.0324,0.013523,0.002678,0.000431,0.009285
25777000,0.0324,0.013523,0.002678,0.000431,0.012576
25778000,0.0324,0.013523,0.002678,0.000431,0.009050
25779000,0.0324,0.013523,0.002678,0.000431,0.007874
25780000,0.0324,0.013523,0.002678,0.000431,0.007052
25781000,0.0324,0.013523,0.002678,0.000431,0.007992
25782000,0.0324,0.013523,0.002678,0.000431,0.007757
25783000,0.0324,0.013523,0.002678,0.000431,0.004819
25784000,0.0324,0.013523,0.002678,0.000431,0.006934
25785000,0.0324,0.013523,0.002678,0.000431,0.005171
25786000,0.0324,0.013523,0.002678,0.000431,0.005524
25787000,0.0324,0.013523,0.002678,0.000431,0.002586
25788000,0.0324,0.013523,0.002678,0.000431,0.002468
25789000,0.0324,0.013523,0.002678,0.000431,0.004584
25790000,0.0324,0.013523,0.002678,0.000431,0.001645
25791000,0.0324,0.013523,0.002678,0.000431,0.001645
25792000,0.0324,0.013523,0.002678,0.000431,0.001763
25793000,0.0324,0.013523,0.002678,0.000431,0.001528
25794000,0.0324,0.013523,0.002678,0.000431,0.001645
25795000,0.0324,0.013523,0.002678,0.000431,0.001763
25796000,0.0324,0.013523,0.002678,0.000431,0.003408
25797000,0.0324,0.013523,0.002678,0.000431,0.000940
25798000,0.0324,0.013523,0.002678,0.000431,0.000823
25799000,0.0324,0.013523,0.002678,0.000431,0.000940
25800000,0.0324,0.013523,0.002678,0.000431,0.000823
25801000,0.0324,0.013523,0.002678,0.000431,0.000823
25802000,0.0324,0.013523,0.002678,0.000431,0.000705
25803000,0.0324,0.013523,0.002678,0.000431,0.000940
25804000,0.0324,0.013523,0.002678,0.000431,0.000940
25805000,0.0324,0.013523,0.002678,0.000431,0.000705
25806000,0.0324,0.013523,0.002678,0.000431,0.000940
25807000,0.0324,0.013523,0.002678,0.000431,0.000705
25808000,0.0324,0.013523,0.002678,0.000431,0.000940
25809000,0.0324,0.013523,0.002678,0.000431,0.000823
25810000,0.0324,0.013523,0.002678,0.000431,0.000823
25811000,0.0324,0.013523,0.002678,0.000431,0.000823
25812000,0.0324,0.013523,0.002678,0.000431,0.000823
25813000,0.0324,0.013523,0.002678,0.000431,0.000940
25814000,0.0324,0.013523,0.002678,0.000431,0.000705
25815000,0.0324,0.013523,0.002678,0.000431,0.000940
25816000,0.0324,0.013523,0.002678,0.000431,0.000823
25817000,0.0324,0.013523,0.002678,0.000431,0.000823
25818000,0.0324,0.013523,0.002678,0.000431,0.000823
25819000,0.0324,0.013523,0.002678,0.000431,0.000823
25820000,0.0324,0.013523,0.002678,0.000431,0.000823
25821000,0.0324,0.013523,0.002678,0.000431,0.000823
25822000,0.0324,0.013523,0.002678,0.000431,0.000940
25823000,0.0324,0.013523,0.002678,0.000431,0.000705
25824000,0.0324,0.013523,0.002678,0.000431,0.000940
25825000,0.0324,0.013523,0.002678,0.000431,0.000705
25826000,0.0324,0.013523,0.002678,0.000431,0.000940
25827000,0.0324,0.013523,0.002678,0.000431,0.000823
25828000,0.0324,0.013523,0.002678,0.000431,0.000823
25829000,0.0324,0.013523,0.002678,0.000431,0.000940
25830000,0.0324,0.013523,0.002678,0.000431,0.000705
25831000,0.0324,0.013523,0.002678,0.000431,0.000940
25832000,0.0324,0.013523,0.002678,0.000431,0.000823
25833000,0.0324,0.013523,0.002678,0.000431,0.000823
25834000,0.0324,0.013523,0.002678,0.000431,0.000823
25835000,0.0324,0.013523,0.002678,0.000431,0.000823
25836000,0.0324,0.013523,0.002678,0.000431,0.000823
25837000,0.0324,0.013523,0.002678,0.000431,0.000823
25838000,0.0324,0.013523,0.002678,0.000431,0.000940
25839000,0.0324,0.013523,0.002678,0.000431,0.000705
25840000,0.0324,0.013523,0.002678,0.000431,0.000823
25841000,0.0324,0.013523,0.002678,0.000431,0.000940
25842000,0.0324,0.013523,0.002678,0.000431,0.000823
25843000,0.0324,0.013523,0.002678,0.000431,0.000823
25844000,0.0324,0.013523,0.002678,0.000431,0.000823
25845000,0.0324,0.013523,0.002678,0.000431,0.000823
25846000,0.0324,0.013523,0.002678,0.000431,0.015866
25847000,0.0324,0.013523,0.002678,0.000431,0.563783
25848000,0.0324,0.013523,0.002678,0.000431,0.601744
25849000,0.0324,0.013523,0.002678,0.000431,0.136215
25850000,0.0324,0.013523,0.002678,0.000431,0.133512
25851000,0.0324,0.013523,0.002678,0.000431,0.488682
25852000,0.0324,0.013523,0.002678,0.000431,0.278072
25853000,0.0324,0.013523,0.002678,0.000431,0.233411
25854000,0.0324,0.013523,0.002678,0.000431,0.282303
25855000,0.0324,0.013523,0.002678,0.000431,0.162189
25856000,0.0324,0.013523,0.002678,0.000431,0.145617
25857000,0.0324,0.013523,0.002678,0.000431,0.180993
25858000,0.0324,0.013523,0.002678,0.000431,0.126578
25859000,0.0324,0.013523,0.002678,0.000431,0.478692
25860000,0.0324,0.013523,0.002678,0.000431,0.128341
25861000,0.0324,0.013523,0.002678,0.000431,0.110594
25862000,0.0324,0.013523,0.002678,0.000431,0.090027
25863000,0.0324,0.013523,0.002678,0.000431,0.068754
25864000,0.0324,0.013523,0.002678,0.000431,0.057941
25865000,0.0324,0.013523,0.002678,0.000431,0.050772
25866000,0.0324,0.013523,0.002678,0.000431,0.044661
25867000,0.0324,0.013523,0.002678,0.000431,0.043368
25868000,0.0324,0.013523,0.002678,0.000431,0.033848
25869000,0.0324,0.013523,0.002678,0.000431,0.028324
25870000,0.0324,0.013523,0.002678,0.000431,0.027502
25871000,0.0324,0.013523,0.002678,0.000431,0.026091
25872000,0.0324,0.013523,0.002678,0.000431,0.027267
25873000,0.0324,0.013523,0.002678,0.000431,0.022213
25874000,0.0324,0.013523,0.002678,0.000431,0.018099
25875000,0.0324,0.013523,0.002678,0.000431,0.019392
25876000,0.0324,0.013523,0.002678,0.000431,0.016219
25877000,0.0324,0.013523,0.002678,0.000431,0.013163
25878000,0.0324,0.013523,0.002678,0.000431,0.014926
25879000,0.0324,0.013523,0.002678,0.000431,0.014573
25880000,0.0324,0.013523,0.002678,0.000431,0.013516
25881000,0.0324,0.013523,0.002678,0.000431,0.009050
25882000,0.0324,0.013523,0.002678,0.000431,0.007287
25883000,0.0324,0.013523,0.002678,0.000431,0.007874
25884000,0.0324,0.013523,0.002678,0.000431,0.008227
25885000,0.0324,0.013523,0.002678,0.000431,0.007052
25886000,0.0324,0.013523,0.002678,0.000431,0.006229
25887000,0.0324,0.013523,0.002678,0.000431,0.006111
25888000,0.0324,0.013523,0.002678,0.000431,0.006582
25889000,0.0324,0.013523,0.002678,0.000431,0.006229
25890000,0.0324,0.013523,0.002678,0.000431,0.005171
25891000,0.0324,0.013523,0.002678,0.000431,0.004936
25892000,0.0324,0.013523,0.002678,0.000431,0.005171
25893000,0.0324,0.013523,0.002678,0.000431,0.004936
25894000,0.0324,0.013523,0.002678,0.000431,0.005406
25895000,0.0324,0.013523,0.002678,0.000431,0.005054
25896000,0.0324,0.013523,0.002678,0.000431,0.007169
25897000,0.0324,0.013523,0.002678,0.000431,0.004231
25898000,0.0324,0.013523,0.002678,0.000431,0.004231
25899000,0.0324,0.013523,0.002678,0.000431,0.004349
25900000,0.0324,0.013523,0.002678,0.000431,0.003996
25901000,0.0324,0.013523,0.002678,0.000431,0.006464
25902000,0.0324,0.013523,0.002678,0.000431,0.003643
25903000,0.0324,0.013523,0.002678,0.000431,0.003173
25904000,0.0324,0.013523,0.002678,0.000431,0.003761
25905000,0.0324,0.013523,0.002678,0.000431,0.003291
25906000,0.0324,0.013523,0.002678,0.000431,0.003643
25907000,0.0324,0.013523,0.002678,0.000431,0.006699
25908000,0.0324,0.013523,0.002678,0.000431,0.002468
25909000,0.0324,0.013523,0.002678,0.000431,0.000823
25910000,0.0324,0.013523,0.002678,0.000431,0.014103
25911000,0.0324,0.013523,0.002678,0.000431,0.580707
25912000,0.0324,0.013523,0.002678,0.000431,0.588464
25913000,0.0324,0.013523,0.002678,0.000431,0.141504
25914000,0.0324,0.013523,0.002678,0.000431,0.133982
25915000,0.0324,0.013523,0.002678,0.000431,0.445784
25916000,0.0324,0.013523,0.002678,0.000431,0.300637
25917000,0.0324,0.013523,0.002678,0.000431,0.236937
25918000,0.0324,0.013523,0.002678,0.000431,0.322262
25919000,0.0324,0.013523,0.002678,0.000431,0.143384
25920000,0.0324,0.013523,0.002678,0.000431,0.148791
25921000,0.0324,0.013523,0.002678,0.000431,0.151729
25922000,0.0324,0.013523,0.002678,0.000431,0.236467
25923000,0.0324,0.013523,0.002678,0.000431,0.409586
25924000,0.0324,0.013523,0.002678,0.000431,0.130574
25925000,0.0324,0.013523,0.002678,0.000431,0.109889
25926000,0.0324,0.013523,0.002678,0.000431,0.091790
25927000,0.0324,0.013523,0.002678,0.000431,0.081800
25928000,0.0324,0.013523,0.002678,0.000431,0.068284
25929000,0.0324,0.013523,0.002678,0.000431,0.066521
25930000,0.0324,0.013523,0.002678,0.000431,0.056531
25931000,0.0324,0.013523,0.002678,0.000431,0.039254
25932000,0.0324,0.013523,0.002678,0.000431,0.037844
25933000,0.0324,0.013523,0.002678,0.000431,0.033731
25934000,0.0324,0.013523,0.002678,0.000431,0.026326
25935000,0.0324,0.013523,0.002678,0.000431,0.019980
25936000,0.0324,0.013523,0.002678,0.000431,0.022213
25937000,0.0324,0.013523,0.002678,0.000431,0.017042
25938000,0.0324,0.013523,0.002678,0.000431,0.019392
25939000,0.0324,0.013523,0.002678,0.000431,0.012223
25940000,0.0324,0.013523,0.002678,0.000431,0.015514
25941000,0.0324,0.013523,0.002678,0.000431,0.014103
25942000,0.0324,0.013523,0.002678,0.000431,0.011753
25943000,0.0324,0.013523,0.002678,0.000431,0.006582
25944000,0.0324,0.013523,0.002678,0.000431,0.009872
25945000,0.0324,0.013523,0.002678,0.000431,0.005289
25946000,0.0324,0.013523,0.002678,0.000431,0.004819
25947000,0.0324,0.013523,0.002678,0.000431,0.004701
25948000,0.0324,0.013523,0.002678,0.000431,0.009285
25949000,0.0324,0.013523,0.002678,0.000431,0.002351
25950000,0.0324,0.013523,0.002678,0.000431,0.002233
25951000,0.0324,0.013523,0.002678,0.000431,0.004349
25952000,0.0324,0.013523,0.002678,0.000431,0.002938
25953000,0.0324,0.013523,0.002678,0.000431,0.000940
25954000,0.0324,0.013523,0.002678,0.000431,0.000705
25955000,0.0324,0.013523,0.002678,0.000431,0.000940
25956000,0.0324,0.013523,0.002678,0.000431,0.000823
25957000,0.0324,0.013523,0.002678,0.000431,0.000823
25958000,0.0324,0.013523,0.002678,0.000431,0.000823
25959000,0.0324,0.013523,0.002678,0.000431,0.000823
25960000,0.0324,0.013523,0.002678,0.000431,0.000823
25961000,0.0324,0.013523,0.002678,0.000431,0.000823
25962000,0.0324,0.013523,0.002678,0.000431,0.000940
25963000,0.0324,0.013523,0.002678,0.000431,0.000705
25964000,0.0324,0.013523,0.002678,0.000431,0.000940
25965000,0.0324,0.013523,0.002678,0.000431,0.000823
25966000,0.0324,0.013523,0.002678,0.000431,0.016336
25967000,0.0324,0.013523,0.002678,0.000431,0.608561
25968000,0.0324,0.013523,0.002678,0.000431,0.599511
25969000,0.0324,0.013523,0.002678,0.000431,0.133512
25970000,0.0324,0.013523,0.002678,0.000431,0.133982
25971000,0.0324,0.013523,0.002678,0.000431,0.489505
25972000,0.0324,0.013523,0.002678,0.000431,0.259737
25973000,0.0324,0.013523,0.002678,0.000431,0.242226
25974000,0.0324,0.013523,0.002678,0.000431,0.327904
25975000,0.0324,0.013523,0.002678,0.000431,0.144677
25976000,0.0324,0.013523,0.002678,0.000431,0.147498
25977000,0.0324,0.013523,0.002678,0.000431,0.125873
25978000,0.0324,0.013523,0.002678,0.000431,0.320499
25979000,0.0324,0.013523,0.002678,0.000431,0.331547
25980000,0.0324,0.013523,0.002678,0.000431,0.145382
25981000,0.0324,0.013523,0.002678,0.000431,0.109066
25982000,0.0324,0.013523,0.002678,0.000431,0.087676
25983000,0.0324,0.013523,0.002678,0.000431,0.079449
25984000,0.0324,0.013523,0.002678,0.000431,0.070164
25985000,0.0324,0.013523,0.002678,0.000431,0.063700
25986000,0.0324,0.013523,0.002678,0.000431,0.052065
25987000,0.0324,0.013523,0.002678,0.000431,0.048422
25988000,0.0324,0.013523,0.002678,0.000431,0.031968
25989000,0.0324,0.013523,0.002678,0.000431,0.031733
25990000,0.0324,0.013523,0.002678,0.000431,0.027619
25991000,0.0324,0.013523,0.002678,0.000431,0.021625
25992000,0.0324,0.013523,0.002678,0.000431,0.016807
25993000,0.0324,0.013523,0.002678,0.000431,0.019157
25994000,0.0324,0.013523,0.002678,0.000431,0.010695
25995000,0.0324,0.013523,0.002678,0.000431,0.008227
25996000,0.0324,0.013523,0.002678,0.000431,0.008580
25997000,0.0324,0.013523,0.002678,0.000431,0.012340
25998000,0.0324,0.013523,0.002678,0.000431,0.003996
25999000,0.0324,0.013523,0.002678,0.000431,0.004349
