Cycle,Area(mm^2),PeakDynamic(W),SubthresholdLeakage(W),GateLeakage(W),RunTimeDynamic(W)
103000000,0.0324,0.013523,0.002678,0.000431,0.158898
103001000,0.0324,0.013523,0.002678,0.000431,0.136215
103002000,0.0324,0.013523,0.002678,0.000431,0.129516
103003000,0.0324,0.013523,0.002678,0.000431,0.120231
103004000,0.0324,0.013523,0.002678,0.000431,0.103190
103005000,0.0324,0.013523,0.002678,0.000431,0.104600
103006000,0.0324,0.013523,0.002678,0.000431,0.102132
103007000,0.0324,0.013523,0.002678,0.000431,0.091319
103008000,0.0324,0.013523,0.002678,0.000431,0.085913
103009000,0.0324,0.013523,0.002678,0.000431,0.081917
103010000,0.0324,0.013523,0.002678,0.000431,0.079919
103011000,0.0324,0.013523,0.002678,0.000431,0.069577
103012000,0.0324,0.013523,0.002678,0.000431,0.066638
103013000,0.0324,0.013523,0.002678,0.000431,0.057589
103014000,0.0324,0.013523,0.002678,0.000431,0.051360
103015000,0.0324,0.013523,0.002678,0.000431,0.049949
103016000,0.0324,0.013523,0.002678,0.000431,0.038197
103017000,0.0324,0.013523,0.002678,0.000431,0.039254
103018000,0.0324,0.013523,0.002678,0.000431,0.029029
103019000,0.0324,0.013523,0.002678,0.000431,0.031733
103020000,0.0324,0.013523,0.002678,0.000431,0.029617
103021000,0.0324,0.013523,0.002678,0.000431,0.021390
103022000,0.0324,0.013523,0.002678,0.000431,0.023976
103023000,0.0324,0.013523,0.002678,0.000431,0.024916
103024000,0.0324,0.013523,0.002678,0.000431,0.017629
103025000,0.0324,0.013523,0.002678,0.000431,0.013163
103026000,0.0324,0.013523,0.002678,0.000431,0.013868
103027000,0.0324,0.013523,0.002678,0.000431,0.014573
103028000,0.0324,0.013523,0.002678,0.000431,0.012693
103029000,0.0324,0.013523,0.002678,0.000431,0.017982
103030000,0.0324,0.013523,0.002678,0.000431,0.011400
103031000,0.0324,0.013523,0.002678,0.000431,0.009520
103032000,0.0324,0.013523,0.002678,0.000431,0.009872
103033000,0.0324,0.013523,0.002678,0.000431,0.004701
103034000,0.0324,0.013523,0.002678,0.000431,0.006111
103035000,0.0324,0.013523,0.002678,0.000431,0.004701
103036000,0.0324,0.013523,0.002678,0.000431,0.003526
103037000,0.0324,0.013523,0.002678,0.000431,0.003526
103038000,0.0324,0.013523,0.002678,0.000431,0.003761
103039000,0.0324,0.013523,0.002678,0.000431,0.004819
103040000,0.0324,0.013523,0.002678,0.000431,0.007169
103041000,0.0324,0.013523,0.002678,0.000431,0.002351
103042000,0.0324,0.013523,0.002678,0.000431,0.000705
103043000,0.0324,0.013523,0.002678,0.000431,0.000940
103044000,0.0324,0.013523,0.002678,0.000431,0.000705
103045000,0.0324,0.013523,0.002678,0.000431,0.000940
103046000,0.0324,0.013523,0.002678,0.000431,0.000705
103047000,0.0324,0.013523,0.002678,0.000431,0.000940
103048000,0.0324,0.013523,0.002678,0.000431,0.000823
103049000,0.0324,0.013523,0.002678,0.000431,0.000823
103050000,0.0324,0.013523,0.002678,0.000431,0.002351
103051000,0.0324,0.013523,0.002678,0.000431,0.447900
103052000,0.0324,0.013523,0.002678,0.000431,0.701291
103053000,0.0324,0.013523,0.002678,0.000431,0.172884
103054000,0.0324,0.013523,0.002678,0.000431,0.133982
103055000,0.0324,0.013523,0.002678,0.000431,0.221423
103056000,0.0324,0.013523,0.002678,0.000431,0.587523
103057000,0.0324,0.013523,0.002678,0.000431,0.234351
103058000,0.0324,0.013523,0.002678,0.000431,0.300167
103059000,0.0324,0.013523,0.002678,0.000431,0.171826
103060000,0.0324,0.013523,0.002678,0.000431,0.146558
103061000,0.0324,0.013523,0.002678,0.000431,0.132337
103062000,0.0324,0.013523,0.002678,0.000431,0.286299
103063000,0.0324,0.013523,0.002678,0.000431,0.446255
103064000,0.0324,0.013523,0.002678,0.000431,0.195214
103065000,0.0324,0.013523,0.002678,0.000431,0.185107
103066000,0.0324,0.013523,0.002678,0.000431,0.162659
103067000,0.0324,0.013523,0.002678,0.000431,0.152081
103068000,0.0324,0.013523,0.002678,0.000431,0.116941
103069000,0.0324,0.013523,0.002678,0.000431,0.092260
103070000,0.0324,0.013523,0.002678,0.000431,0.090614
103071000,0.0324,0.013523,0.002678,0.000431,0.086383
103072000,0.0324,0.013523,0.002678,0.000431,0.072867
103073000,0.0324,0.013523,0.002678,0.000431,0.083798
103074000,0.0324,0.013523,0.002678,0.000431,0.064641
103075000,0.0324,0.013523,0.002678,0.000431,0.052183
103076000,0.0324,0.013523,0.002678,0.000431,0.052183
103077000,0.0324,0.013523,0.002678,0.000431,0.043133
103078000,0.0324,0.013523,0.002678,0.000431,0.031733
103079000,0.0324,0.013523,0.002678,0.000431,0.042545
103080000,0.0324,0.013523,0.002678,0.000431,0.037727
103081000,0.0324,0.013523,0.002678,0.000431,0.026326
103082000,0.0324,0.013523,0.002678,0.000431,0.028324
103083000,0.0324,0.013523,0.002678,0.000431,0.023741
103084000,0.0324,0.013523,0.002678,0.000431,0.021508
103085000,0.0324,0.013523,0.002678,0.000431,0.021038
103086000,0.0324,0.013523,0.002678,0.000431,0.021038
103087000,0.0324,0.013523,0.002678,0.000431,0.019275
103088000,0.0324,0.013523,0.002678,0.000431,0.021155
103089000,0.0324,0.013523,0.002678,0.000431,0.018334
103090000,0.0324,0.013523,0.002678,0.000431,0.018217
103091000,0.0324,0.013523,0.002678,0.000431,0.012576
103092000,0.0324,0.013523,0.002678,0.000431,0.011988
103093000,0.0324,0.013523,0.002678,0.000431,0.013633
103094000,0.0324,0.013523,0.002678,0.000431,0.011165
103095000,0.0324,0.013523,0.002678,0.000431,0.014103
103096000,0.0324,0.013523,0.002678,0.000431,0.015749
103097000,0.0324,0.013523,0.002678,0.000431,0.005054
103098000,0.0324,0.013523,0.002678,0.000431,0.004819
103099000,0.0324,0.013523,0.002678,0.000431,0.005171
103100000,0.0324,0.013523,0.002678,0.000431,0.005054
103101000,0.0324,0.013523,0.002678,0.000431,0.004936
103102000,0.0324,0.013523,0.002678,0.000431,0.005171
103103000,0.0324,0.013523,0.002678,0.000431,0.004701
103104000,0.0324,0.013523,0.002678,0.000431,0.004701
103105000,0.0324,0.013523,0.002678,0.000431,0.009872
103106000,0.0324,0.013523,0.002678,0.000431,0.002586
103107000,0.0324,0.013523,0.002678,0.000431,0.002468
103108000,0.0324,0.013523,0.002678,0.000431,0.003643
103109000,0.0324,0.013523,0.002678,0.000431,0.006582
103110000,0.0324,0.013523,0.002678,0.000431,0.461181
103111000,0.0324,0.013523,0.002678,0.000431,0.685542
103112000,0.0324,0.013523,0.002678,0.000431,0.264909
103113000,0.0324,0.013523,0.002678,0.000431,0.141151
103114000,0.0324,0.013523,0.002678,0.000431,0.231178
103115000,0.0324,0.013523,0.002678,0.000431,0.603272
103116000,0.0324,0.013523,0.002678,0.000431,0.242108
103117000,0.0324,0.013523,0.002678,0.000431,0.368803
103118000,0.0324,0.013523,0.002678,0.000431,0.145852
103119000,0.0324,0.013523,0.002678,0.000431,0.177115
103120000,0.0324,0.013523,0.002678,0.000431,0.089321
103121000,0.0324,0.013523,0.002678,0.000431,0.500553
103122000,0.0324,0.013523,0.002678,0.000431,0.255506
103123000,0.0324,0.013523,0.002678,0.000431,0.185695
103124000,0.0324,0.013523,0.002678,0.000431,0.176997
103125000,0.0324,0.013523,0.002678,0.000431,0.143149
103126000,0.0324,0.013523,0.002678,0.000431,0.133042
103127000,0.0324,0.013523,0.002678,0.000431,0.123052
103128000,0.0324,0.013523,0.002678,0.000431,0.105893
103129000,0.0324,0.013523,0.002678,0.000431,0.099194
103130000,0.0324,0.013523,0.002678,0.000431,0.085443
103131000,0.0324,0.013523,0.002678,0.000431,0.075688
103132000,0.0324,0.013523,0.002678,0.000431,0.064641
103133000,0.0324,0.013523,0.002678,0.000431,0.070869
103134000,0.0324,0.013523,0.002678,0.000431,0.062172
103135000,0.0324,0.013523,0.002678,0.000431,0.055473
103136000,0.0324,0.013523,0.002678,0.000431,0.045601
103137000,0.0324,0.013523,0.002678,0.000431,0.044896
103138000,0.0324,0.013523,0.002678,0.000431,0.033731
103139000,0.0324,0.013523,0.002678,0.000431,0.033966
103140000,0.0324,0.013523,0.002678,0.000431,0.034671
103141000,0.0324,0.013523,0.002678,0.000431,0.027502
103142000,0.0324,0.013523,0.002678,0.000431,0.031733
103143000,0.0324,0.013523,0.002678,0.000431,0.023976
103144000,0.0324,0.013523,0.002678,0.000431,0.021743
103145000,0.0324,0.013523,0.002678,0.000431,0.015279
103146000,0.0324,0.013523,0.002678,0.000431,0.015749
103147000,0.0324,0.013523,0.002678,0.000431,0.022683
103148000,0.0324,0.013523,0.002678,0.000431,0.012458
103149000,0.0324,0.013523,0.002678,0.000431,0.012693
103150000,0.0324,0.013523,0.002678,0.000431,0.011870
103151000,0.0324,0.013523,0.002678,0.000431,0.012693
103152000,0.0324,0.013523,0.002678,0.000431,0.014573
103153000,0.0324,0.013523,0.002678,0.000431,0.011635
103154000,0.0324,0.013523,0.002678,0.000431,0.009167
103155000,0.0324,0.013523,0.002678,0.000431,0.010930
103156000,0.0324,0.013523,0.002678,0.000431,0.009872
103157000,0.0324,0.013523,0.002678,0.000431,0.009990
103158000,0.0324,0.013523,0.002678,0.000431,0.007287
103159000,0.0324,0.013523,0.002678,0.000431,0.005171
103160000,0.0324,0.013523,0.002678,0.000431,0.005289
103161000,0.0324,0.013523,0.002678,0.000431,0.005759
103162000,0.0324,0.013523,0.002678,0.000431,0.004819
103163000,0.0324,0.013523,0.002678,0.000431,0.005876
103164000,0.0324,0.013523,0.002678,0.000431,0.009167
103165000,0.0324,0.013523,0.002678,0.000431,0.004466
103166000,0.0324,0.013523,0.002678,0.000431,0.003526
103167000,0.0324,0.013523,0.002678,0.000431,0.002703
103168000,0.0324,0.013523,0.002678,0.000431,0.004349
103169000,0.0324,0.013523,0.002678,0.000431,0.002116
103170000,0.0324,0.013523,0.002678,0.000431,0.001880
103171000,0.0324,0.013523,0.002678,0.000431,0.004113
103172000,0.0324,0.013523,0.002678,0.000431,0.000940
103173000,0.0324,0.013523,0.002678,0.000431,0.000823
103174000,0.0324,0.013523,0.002678,0.000431,0.000823
103175000,0.0324,0.013523,0.002678,0.000431,0.000823
103176000,0.0324,0.013523,0.002678,0.000431,0.000823
103177000,0.0324,0.013523,0.002678,0.000431,0.000705
103178000,0.0324,0.013523,0.002678,0.000431,0.000940
103179000,0.0324,0.013523,0.002678,0.000431,0.000940
103180000,0.0324,0.013523,0.002678,0.000431,0.000705
103181000,0.0324,0.013523,0.002678,0.000431,0.000940
103182000,0.0324,0.013523,0.002678,0.000431,0.000705
103183000,0.0324,0.013523,0.002678,0.000431,0.000940
103184000,0.0324,0.013523,0.002678,0.000431,0.000940
103185000,0.0324,0.013523,0.002678,0.000431,0.000705
103186000,0.0324,0.013523,0.002678,0.000431,0.000940
103187000,0.0324,0.013523,0.002678,0.000431,0.000705
103188000,0.0324,0.013523,0.002678,0.000431,0.000940
103189000,0.0324,0.013523,0.002678,0.000431,0.000705
103190000,0.0324,0.013523,0.002678,0.000431,0.000940
103191000,0.0324,0.013523,0.002678,0.000431,0.000705
103192000,0.0324,0.013523,0.002678,0.000431,0.000940
103193000,0.0324,0.013523,0.002678,0.000431,0.000823
103194000,0.0324,0.013523,0.002678,0.000431,0.000823
103195000,0.0324,0.013523,0.002678,0.000431,0.000823
103196000,0.0324,0.013523,0.002678,0.000431,0.000823
103197000,0.0324,0.013523,0.002678,0.000431,0.000940
103198000,0.0324,0.013523,0.002678,0.000431,0.000705
103199000,0.0324,0.013523,0.002678,0.000431,0.000940
103200000,0.0324,0.013523,0.002678,0.000431,0.000823
103201000,0.0324,0.013523,0.002678,0.000431,0.000823
103202000,0.0324,0.013523,0.002678,0.000431,0.000823
103203000,0.0324,0.013523,0.002678,0.000431,0.000823
103204000,0.0324,0.013523,0.002678,0.000431,0.000823
103205000,0.0324,0.013523,0.002678,0.000431,0.000823
103206000,0.0324,0.013523,0.002678,0.000431,0.000940
103207000,0.0324,0.013523,0.002678,0.000431,0.000705
103208000,0.0324,0.013523,0.002678,0.000431,0.000940
103209000,0.0324,0.013523,0.002678,0.000431,0.000705
103210000,0.0324,0.013523,0.002678,0.000431,0.000940
103211000,0.0324,0.013523,0.002678,0.000431,0.000940
103212000,0.0324,0.013523,0.002678,0.000431,0.000705
103213000,0.0324,0.013523,0.002678,0.000431,0.000940
103214000,0.0324,0.013523,0.002678,0.000431,0.000705
103215000,0.0324,0.013523,0.002678,0.000431,0.000940
103216000,0.0324,0.013523,0.002678,0.000431,0.000705
103217000,0.0324,0.013523,0.002678,0.000431,0.000940
103218000,0.0324,0.013523,0.002678,0.000431,0.000705
103219000,0.0324,0.013523,0.002678,0.000431,0.000940
103220000,0.0324,0.013523,0.002678,0.000431,0.000823
103221000,0.0324,0.013523,0.002678,0.000431,0.000823
103222000,0.0324,0.013523,0.002678,0.000431,0.000705
103223000,0.0324,0.013523,0.002678,0.000431,0.000940
103224000,0.0324,0.013523,0.002678,0.000431,0.000940
103225000,0.0324,0.013523,0.002678,0.000431,0.000705
103226000,0.0324,0.013523,0.002678,0.000431,0.000705
103227000,0.0324,0.013523,0.002678,0.000431,0.000823
103228000,0.0324,0.013523,0.002678,0.000431,0.000823
103229000,0.0324,0.013523,0.002678,0.000431,0.000940
103230000,0.0324,0.013523,0.002678,0.000431,0.000705
103231000,0.0324,0.013523,0.002678,0.000431,0.000940
103232000,0.0324,0.013523,0.002678,0.000431,0.000823
103233000,0.0324,0.013523,0.002678,0.000431,0.000823
103234000,0.0324,0.013523,0.002678,0.000431,0.000940
103235000,0.0324,0.013523,0.002678,0.000431,0.000705
103236000,0.0324,0.013523,0.002678,0.000431,0.000940
103237000,0.0324,0.013523,0.002678,0.000431,0.000823
103238000,0.0324,0.013523,0.002678,0.000431,0.000823
103239000,0.0324,0.013523,0.002678,0.000431,0.000823
103240000,0.0324,0.013523,0.002678,0.000431,0.000823
103241000,0.0324,0.013523,0.002678,0.000431,0.002116
103242000,0.0324,0.013523,0.002678,0.000431,0.308041
103243000,0.0324,0.013523,0.002678,0.000431,0.705287
103244000,0.0324,0.013523,0.002678,0.000431,0.366688
103245000,0.0324,0.013523,0.002678,0.000431,0.140329
103246000,0.0324,0.013523,0.002678,0.000431,0.141151
103247000,0.0324,0.013523,0.002678,0.000431,0.603860
103248000,0.0324,0.013523,0.002678,0.000431,0.238230
103249000,0.0324,0.013523,0.002678,0.000431,0.296876
103250000,0.0324,0.013523,0.002678,0.000431,0.211903
103251000,0.0324,0.013523,0.002678,0.000431,0.158781
103252000,0.0324,0.013523,0.002678,0.000431,0.139859
103253000,0.0324,0.013523,0.002678,0.000431,0.238817
103254000,0.0324,0.013523,0.002678,0.000431,0.465059
103255000,0.0324,0.013523,0.002678,0.000431,0.200973
103256000,0.0324,0.013523,0.002678,0.000431,0.179818
103257000,0.0324,0.013523,0.002678,0.000431,0.154315
103258000,0.0324,0.013523,0.002678,0.000431,0.139623
103259000,0.0324,0.013523,0.002678,0.000431,0.126695
103260000,0.0324,0.013523,0.002678,0.000431,0.110006
103261000,0.0324,0.013523,0.002678,0.000431,0.090379
103262000,0.0324,0.013523,0.002678,0.000431,0.079449
103263000,0.0324,0.013523,0.002678,0.000431,0.077098
103264000,0.0324,0.013523,0.002678,0.000431,0.074630
103265000,0.0324,0.013523,0.002678,0.000431,0.061702
103266000,0.0324,0.013523,0.002678,0.000431,0.050185
103267000,0.0324,0.013523,0.002678,0.000431,0.043720
103268000,0.0324,0.013523,0.002678,0.000431,0.031027
103269000,0.0324,0.013523,0.002678,0.000431,0.038667
103270000,0.0324,0.013523,0.002678,0.000431,0.025269
103271000,0.0324,0.013523,0.002678,0.000431,0.022565
103272000,0.0324,0.013523,0.002678,0.000431,0.015984
103273000,0.0324,0.013523,0.002678,0.000431,0.021273
103274000,0.0324,0.013523,0.002678,0.000431,0.018217
103275000,0.0324,0.013523,0.002678,0.000431,0.014338
103276000,0.0324,0.013523,0.002678,0.000431,0.009285
103277000,0.0324,0.013523,0.002678,0.000431,0.015279
103278000,0.0324,0.013523,0.002678,0.000431,0.009755
103279000,0.0324,0.013523,0.002678,0.000431,0.006934
103280000,0.0324,0.013523,0.002678,0.000431,0.007169
103281000,0.0324,0.013523,0.002678,0.000431,0.010813
103282000,0.0324,0.013523,0.002678,0.000431,0.005876
103283000,0.0324,0.013523,0.002678,0.000431,0.004113
103284000,0.0324,0.013523,0.002678,0.000431,0.004113
103285000,0.0324,0.013523,0.002678,0.000431,0.006817
103286000,0.0324,0.013523,0.002678,0.000431,0.003291
103287000,0.0324,0.013523,0.002678,0.000431,0.003408
103288000,0.0324,0.013523,0.002678,0.000431,0.003291
103289000,0.0324,0.013523,0.002678,0.000431,0.003526
103290000,0.0324,0.013523,0.002678,0.000431,0.003173
103291000,0.0324,0.013523,0.002678,0.000431,0.003408
103292000,0.0324,0.013523,0.002678,0.000431,0.003408
103293000,0.0324,0.013523,0.002678,0.000431,0.003291
103294000,0.0324,0.013523,0.002678,0.000431,0.003526
103295000,0.0324,0.013523,0.002678,0.000431,0.004701
103296000,0.0324,0.013523,0.002678,0.000431,0.002703
103297000,0.0324,0.013523,0.002678,0.000431,0.002351
103298000,0.0324,0.013523,0.002678,0.000431,0.002703
103299000,0.0324,0.013523,0.002678,0.000431,0.002468
103300000,0.0324,0.013523,0.002678,0.000431,0.002468
103301000,0.0324,0.013523,0.002678,0.000431,0.002351
103302000,0.0324,0.013523,0.002678,0.000431,0.002586
103303000,0.0324,0.013523,0.002678,0.000431,0.002703
103304000,0.0324,0.013523,0.002678,0.000431,0.002468
103305000,0.0324,0.013523,0.002678,0.000431,0.004584
103306000,0.0324,0.013523,0.002678,0.000431,0.003761
103307000,0.0324,0.013523,0.002678,0.000431,0.001880
103308000,0.0324,0.013523,0.002678,0.000431,0.001763
103309000,0.0324,0.013523,0.002678,0.000431,0.001528
103310000,0.0324,0.013523,0.002678,0.000431,0.001880
103311000,0.0324,0.013523,0.002678,0.000431,0.001645
103312000,0.0324,0.013523,0.002678,0.000431,0.001763
103313000,0.0324,0.013523,0.002678,0.000431,0.001645
103314000,0.0324,0.013523,0.002678,0.000431,0.001763
103315000,0.0324,0.013523,0.002678,0.000431,0.001645
103316000,0.0324,0.013523,0.002678,0.000431,0.001763
103317000,0.0324,0.013523,0.002678,0.000431,0.001645
103318000,0.0324,0.013523,0.002678,0.000431,0.001763
103319000,0.0324,0.013523,0.002678,0.000431,0.001763
103320000,0.0324,0.013523,0.002678,0.000431,0.001528
103321000,0.0324,0.013523,0.002678,0.000431,0.001880
103322000,0.0324,0.013523,0.002678,0.000431,0.001645
103323000,0.0324,0.013523,0.002678,0.000431,0.001763
103324000,0.0324,0.013523,0.002678,0.000431,0.001763
103325000,0.0324,0.013523,0.002678,0.000431,0.003056
103326000,0.0324,0.013523,0.002678,0.000431,0.001058
103327000,0.0324,0.013523,0.002678,0.000431,0.000705
103328000,0.0324,0.013523,0.002678,0.000431,0.000940
103329000,0.0324,0.013523,0.002678,0.000431,0.000823
103330000,0.0324,0.013523,0.002678,0.000431,0.000823
103331000,0.0324,0.013523,0.002678,0.000431,0.000823
103332000,0.0324,0.013523,0.002678,0.000431,0.000823
103333000,0.0324,0.013523,0.002678,0.000431,0.000940
103334000,0.0324,0.013523,0.002678,0.000431,0.000705
103335000,0.0324,0.013523,0.002678,0.000431,0.000940
103336000,0.0324,0.013523,0.002678,0.000431,0.000823
103337000,0.0324,0.013523,0.002678,0.000431,0.000823
103338000,0.0324,0.013523,0.002678,0.000431,0.000823
103339000,0.0324,0.013523,0.002678,0.000431,0.000823
103340000,0.0324,0.013523,0.002678,0.000431,0.000823
103341000,0.0324,0.013523,0.002678,0.000431,0.000823
103342000,0.0324,0.013523,0.002678,0.000431,0.000823
103343000,0.0324,0.013523,0.002678,0.000431,0.000940
103344000,0.0324,0.013523,0.002678,0.000431,0.000823
103345000,0.0324,0.013523,0.002678,0.000431,0.000823
103346000,0.0324,0.013523,0.002678,0.000431,0.000823
103347000,0.0324,0.013523,0.002678,0.000431,0.000705
103348000,0.0324,0.013523,0.002678,0.000431,0.000940
103349000,0.0324,0.013523,0.002678,0.000431,0.000940
103350000,0.0324,0.013523,0.002678,0.000431,0.000705
103351000,0.0324,0.013523,0.002678,0.000431,0.000940
103352000,0.0324,0.013523,0.002678,0.000431,0.000705
103353000,0.0324,0.013523,0.002678,0.000431,0.000940
103354000,0.0324,0.013523,0.002678,0.000431,0.000823
103355000,0.0324,0.013523,0.002678,0.000431,0.000823
103356000,0.0324,0.013523,0.002678,0.000431,0.000940
103357000,0.0324,0.013523,0.002678,0.000431,0.000705
103358000,0.0324,0.013523,0.002678,0.000431,0.000940
103359000,0.0324,0.013523,0.002678,0.000431,0.000823
103360000,0.0324,0.013523,0.002678,0.000431,0.000823
103361000,0.0324,0.013523,0.002678,0.000431,0.000823
103362000,0.0324,0.013523,0.002678,0.000431,0.000823
103363000,0.0324,0.013523,0.002678,0.000431,0.000940
103364000,0.0324,0.013523,0.002678,0.000431,0.000705
103365000,0.0324,0.013523,0.002678,0.000431,0.000940
103366000,0.0324,0.013523,0.002678,0.000431,0.000823
103367000,0.0324,0.013523,0.002678,0.000431,0.000705
103368000,0.0324,0.013523,0.002678,0.000431,0.000940
103369000,0.0324,0.013523,0.002678,0.000431,0.000823
103370000,0.0324,0.013523,0.002678,0.000431,0.000823
103371000,0.0324,0.013523,0.002678,0.000431,0.000823
103372000,0.0324,0.013523,0.002678,0.000431,0.000940
103373000,0.0324,0.013523,0.002678,0.000431,0.000705
103374000,0.0324,0.013523,0.002678,0.000431,0.000940
103375000,0.0324,0.013523,0.002678,0.000431,0.000823
103376000,0.0324,0.013523,0.002678,0.000431,0.000823
103377000,0.0324,0.013523,0.002678,0.000431,0.000705
103378000,0.0324,0.013523,0.002678,0.000431,0.000940
103379000,0.0324,0.013523,0.002678,0.000431,0.000940
103380000,0.0324,0.013523,0.002678,0.000431,0.000705
103381000,0.0324,0.013523,0.002678,0.000431,0.000940
103382000,0.0324,0.013523,0.002678,0.000431,0.000705
103383000,0.0324,0.013523,0.002678,0.000431,0.000940
103384000,0.0324,0.013523,0.002678,0.000431,0.000823
103385000,0.0324,0.013523,0.002678,0.000431,0.000823
103386000,0.0324,0.013523,0.002678,0.000431,0.000940
103387000,0.0324,0.013523,0.002678,0.000431,0.000705
103388000,0.0324,0.013523,0.002678,0.000431,0.000940
103389000,0.0324,0.013523,0.002678,0.000431,0.000705
103390000,0.0324,0.013523,0.002678,0.000431,0.000940
103391000,0.0324,0.013523,0.002678,0.000431,0.000823
103392000,0.0324,0.013523,0.002678,0.000431,0.000823
103393000,0.0324,0.013523,0.002678,0.000431,0.000823
103394000,0.0324,0.013523,0.002678,0.000431,0.000823
103395000,0.0324,0.013523,0.002678,0.000431,0.000940
103396000,0.0324,0.013523,0.002678,0.000431,0.000705
103397000,0.0324,0.013523,0.002678,0.000431,0.000823
103398000,0.0324,0.013523,0.002678,0.000431,0.000940
103399000,0.0324,0.013523,0.002678,0.000431,0.000823
103400000,0.0324,0.013523,0.002678,0.000431,0.000823
103401000,0.0324,0.013523,0.002678,0.000431,0.000823
103402000,0.0324,0.013523,0.002678,0.000431,0.000705
103403000,0.0324,0.013523,0.002678,0.000431,0.000940
103404000,0.0324,0.013523,0.002678,0.000431,0.000940
103405000,0.0324,0.013523,0.002678,0.000431,0.000705
103406000,0.0324,0.013523,0.002678,0.000431,0.000940
103407000,0.0324,0.013523,0.002678,0.000431,0.000705
103408000,0.0324,0.013523,0.002678,0.000431,0.000940
103409000,0.0324,0.013523,0.002678,0.000431,0.000940
103410000,0.0324,0.013523,0.002678,0.000431,0.000705
103411000,0.0324,0.013523,0.002678,0.000431,0.000940
103412000,0.0324,0.013523,0.002678,0.000431,0.000705
103413000,0.0324,0.013523,0.002678,0.000431,0.000940
103414000,0.0324,0.013523,0.002678,0.000431,0.000823
103415000,0.0324,0.013523,0.002678,0.000431,0.000823
103416000,0.0324,0.013523,0.002678,0.000431,0.000823
103417000,0.0324,0.013523,0.002678,0.000431,0.014103
103418000,0.0324,0.013523,0.002678,0.000431,0.692359
103419000,0.0324,0.013523,0.002678,0.000431,0.560139
103420000,0.0324,0.013523,0.002678,0.000431,0.185812
103421000,0.0324,0.013523,0.002678,0.000431,0.149613
103422000,0.0324,0.013523,0.002678,0.000431,0.590814
103423000,0.0324,0.013523,0.002678,0.000431,0.265379
103424000,0.0324,0.013523,0.002678,0.000431,0.288297
103425000,0.0324,0.013523,0.002678,0.000431,0.316386
103426000,0.0324,0.013523,0.002678,0.000431,0.146558
103427000,0.0324,0.013523,0.002678,0.000431,0.132924
103428000,0.0324,0.013523,0.002678,0.000431,0.240815
103429000,0.0324,0.013523,0.002678,0.000431,0.423924
103430000,0.0324,0.013523,0.002678,0.000431,0.145265
103431000,0.0324,0.013523,0.002678,0.000431,0.141974
103432000,0.0324,0.013523,0.002678,0.000431,0.121172
103433000,0.0324,0.013523,0.002678,0.000431,0.112004
103434000,0.0324,0.013523,0.002678,0.000431,0.096373
103435000,0.0324,0.013523,0.002678,0.000431,0.086266
103436000,0.0324,0.013523,0.002678,0.000431,0.084150
103437000,0.0324,0.013523,0.002678,0.000431,0.064405
103438000,0.0324,0.013523,0.002678,0.000431,0.068049
103439000,0.0324,0.013523,0.002678,0.000431,0.059352
103440000,0.0324,0.013523,0.002678,0.000431,0.049362
103441000,0.0324,0.013523,0.002678,0.000431,0.051360
103442000,0.0324,0.013523,0.002678,0.000431,0.043133
103443000,0.0324,0.013523,0.002678,0.000431,0.035376
103444000,0.0324,0.013523,0.002678,0.000431,0.041017
103445000,0.0324,0.013523,0.002678,0.000431,0.039372
103446000,0.0324,0.013523,0.002678,0.000431,0.037962
103447000,0.0324,0.013523,0.002678,0.000431,0.023976
103448000,0.0324,0.013523,0.002678,0.000431,0.022330
103449000,0.0324,0.013523,0.002678,0.000431,0.023388
103450000,0.0324,0.013523,0.002678,0.000431,0.018922
103451000,0.0324,0.013523,0.002678,0.000431,0.016219
103452000,0.0324,0.013523,0.002678,0.000431,0.021273
103453000,0.0324,0.013523,0.002678,0.000431,0.012340
103454000,0.0324,0.013523,0.002678,0.000431,0.010342
103455000,0.0324,0.013523,0.002678,0.000431,0.014221
103456000,0.0324,0.013523,0.002678,0.000431,0.008932
103457000,0.0324,0.013523,0.002678,0.000431,0.007992
103458000,0.0324,0.013523,0.002678,0.000431,0.008580
103459000,0.0324,0.013523,0.002678,0.000431,0.007874
103460000,0.0324,0.013523,0.002678,0.000431,0.008580
103461000,0.0324,0.013523,0.002678,0.000431,0.009755
103462000,0.0324,0.013523,0.002678,0.000431,0.007404
103463000,0.0324,0.013523,0.002678,0.000431,0.007874
103464000,0.0324,0.013523,0.002678,0.000431,0.008697
103465000,0.0324,0.013523,0.002678,0.000431,0.006582
103466000,0.0324,0.013523,0.002678,0.000431,0.012223
103467000,0.0324,0.013523,0.002678,0.000431,0.002586
103468000,0.0324,0.013523,0.002678,0.000431,0.002351
103469000,0.0324,0.013523,0.002678,0.000431,0.002703
103470000,0.0324,0.013523,0.002678,0.000431,0.002586
103471000,0.0324,0.013523,0.002678,0.000431,0.003056
103472000,0.0324,0.013523,0.002678,0.000431,0.000940
103473000,0.0324,0.013523,0.002678,0.000431,0.000940
103474000,0.0324,0.013523,0.002678,0.000431,0.000823
103475000,0.0324,0.013523,0.002678,0.000431,0.000940
103476000,0.0324,0.013523,0.002678,0.000431,0.000823
103477000,0.0324,0.013523,0.002678,0.000431,0.000940
103478000,0.0324,0.013523,0.002678,0.000431,0.000823
103479000,0.0324,0.013523,0.002678,0.000431,0.000823
103480000,0.0324,0.013523,0.002678,0.000431,0.000940
103481000,0.0324,0.013523,0.002678,0.000431,0.000940
103482000,0.0324,0.013523,0.002678,0.000431,0.000823
103483000,0.0324,0.013523,0.002678,0.000431,0.000823
103484000,0.0324,0.013523,0.002678,0.000431,0.000940
103485000,0.0324,0.013523,0.002678,0.000431,0.000940
103486000,0.0324,0.013523,0.002678,0.000431,0.000823
103487000,0.0324,0.013523,0.002678,0.000431,0.000823
103488000,0.0324,0.013523,0.002678,0.000431,0.000940
103489000,0.0324,0.013523,0.002678,0.000431,0.000940
103490000,0.0324,0.013523,0.002678,0.000431,0.000823
103491000,0.0324,0.013523,0.002678,0.000431,0.000823
103492000,0.0324,0.013523,0.002678,0.000431,0.000940
103493000,0.0324,0.013523,0.002678,0.000431,0.000940
103494000,0.0324,0.013523,0.002678,0.000431,0.000940
103495000,0.0324,0.013523,0.002678,0.000431,0.225654
103496000,0.0324,0.013523,0.002678,0.000431,0.633829
103497000,0.0324,0.013523,0.002678,0.000431,0.464471
103498000,0.0324,0.013523,0.002678,0.000431,0.133159
103499000,0.0324,0.013523,0.002678,0.000431,0.137508
103500000,0.0324,0.013523,0.002678,0.000431,0.615143
103501000,0.0324,0.013523,0.002678,0.000431,0.215429
103502000,0.0324,0.013523,0.002678,0.000431,0.321322
103503000,0.0324,0.013523,0.002678,0.000431,0.253978
103504000,0.0324,0.013523,0.002678,0.000431,0.144442
103505000,0.0324,0.013523,0.002678,0.000431,0.140916
103506000,0.0324,0.013523,0.002678,0.000431,0.236349
103507000,0.0324,0.013523,0.002678,0.000431,0.462238
103508000,0.0324,0.013523,0.002678,0.000431,0.193804
103509000,0.0324,0.013523,0.002678,0.000431,0.161131
103510000,0.0324,0.013523,0.002678,0.000431,0.151376
103511000,0.0324,0.013523,0.002678,0.000431,0.120466
103512000,0.0324,0.013523,0.002678,0.000431,0.116000
103513000,0.0324,0.013523,0.002678,0.000431,0.101192
103514000,0.0324,0.013523,0.002678,0.000431,0.078274
103515000,0.0324,0.013523,0.002678,0.000431,0.067226
103516000,0.0324,0.013523,0.002678,0.000431,0.057236
103517000,0.0324,0.013523,0.002678,0.000431,0.055943
103518000,0.0324,0.013523,0.002678,0.000431,0.047834
103519000,0.0324,0.013523,0.002678,0.000431,0.035611
103520000,0.0324,0.013523,0.002678,0.000431,0.023388
103521000,0.0324,0.013523,0.002678,0.000431,0.030087
103522000,0.0324,0.013523,0.002678,0.000431,0.021743
103523000,0.0324,0.013523,0.002678,0.000431,0.022683
103524000,0.0324,0.013523,0.002678,0.000431,0.018334
103525000,0.0324,0.013523,0.002678,0.000431,0.011165
103526000,0.0324,0.013523,0.002678,0.000431,0.011635
103527000,0.0324,0.013523,0.002678,0.000431,0.014691
103528000,0.0324,0.013523,0.002678,0.000431,0.006817
103529000,0.0324,0.013523,0.002678,0.000431,0.007404
103530000,0.0324,0.013523,0.002678,0.000431,0.007169
103531000,0.0324,0.013523,0.002678,0.000431,0.006582
103532000,0.0324,0.013523,0.002678,0.000431,0.008109
103533000,0.0324,0.013523,0.002678,0.000431,0.006111
103534000,0.0324,0.013523,0.002678,0.000431,0.007757
103535000,0.0324,0.013523,0.002678,0.000431,0.007757
103536000,0.0324,0.013523,0.002678,0.000431,0.006229
103537000,0.0324,0.013523,0.002678,0.000431,0.002586
103538000,0.0324,0.013523,0.002678,0.000431,0.002586
103539000,0.0324,0.013523,0.002678,0.000431,0.005876
103540000,0.0324,0.013523,0.002678,0.000431,0.002116
103541000,0.0324,0.013523,0.002678,0.000431,0.072750
103542000,0.0324,0.013523,0.002678,0.000431,0.673201
103543000,0.0324,0.013523,0.002678,0.000431,0.576358
103544000,0.0324,0.013523,0.002678,0.000431,0.153962
103545000,0.0324,0.013523,0.002678,0.000431,0.137155
103546000,0.0324,0.013523,0.002678,0.000431,0.585878
103547000,0.0324,0.013523,0.002678,0.000431,0.247984
103548000,0.0324,0.013523,0.002678,0.000431,0.268552
103549000,0.0324,0.013523,0.002678,0.000431,0.252333
103550000,0.0324,0.013523,0.002678,0.000431,0.157370
103551000,0.0324,0.013523,0.002678,0.000431,0.165127
103552000,0.0324,0.013523,0.002678,0.000431,0.174177
103553000,0.0324,0.013523,0.002678,0.000431,0.484686
103554000,0.0324,0.013523,0.002678,0.000431,0.183814
103555000,0.0324,0.013523,0.002678,0.000431,0.159603
103556000,0.0324,0.013523,0.002678,0.000431,0.129163
103557000,0.0324,0.013523,0.002678,0.000431,0.121994
103558000,0.0324,0.013523,0.002678,0.000431,0.107186
103559000,0.0324,0.013523,0.002678,0.000431,0.084620
103560000,0.0324,0.013523,0.002678,0.000431,0.072162
103561000,0.0324,0.013523,0.002678,0.000431,0.064170
103562000,0.0324,0.013523,0.002678,0.000431,0.068872
103563000,0.0324,0.013523,0.002678,0.000431,0.057354
103564000,0.0324,0.013523,0.002678,0.000431,0.062878
103565000,0.0324,0.013523,0.002678,0.000431,0.051242
103566000,0.0324,0.013523,0.002678,0.000431,0.045836
103567000,0.0324,0.013523,0.002678,0.000431,0.052300
103568000,0.0324,0.013523,0.002678,0.000431,0.045013
103569000,0.0324,0.013523,0.002678,0.000431,0.039842
103570000,0.0324,0.013523,0.002678,0.000431,0.043956
103571000,0.0324,0.013523,0.002678,0.000431,0.033966
103572000,0.0324,0.013523,0.002678,0.000431,0.025386
103573000,0.0324,0.013523,0.002678,0.000431,0.023506
103574000,0.0324,0.013523,0.002678,0.000431,0.021155
103575000,0.0324,0.013523,0.002678,0.000431,0.019157
103576000,0.0324,0.013523,0.002678,0.000431,0.017042
103577000,0.0324,0.013523,0.002678,0.000431,0.019745
103578000,0.0324,0.013523,0.002678,0.000431,0.018452
103579000,0.0324,0.013523,0.002678,0.000431,0.012811
103580000,0.0324,0.013523,0.002678,0.000431,0.018334
103581000,0.0324,0.013523,0.002678,0.000431,0.010225
103582000,0.0324,0.013523,0.002678,0.000431,0.009990
103583000,0.0324,0.013523,0.002678,0.000431,0.010107
103584000,0.0324,0.013523,0.002678,0.000431,0.010225
103585000,0.0324,0.013523,0.002678,0.000431,0.011870
103586000,0.0324,0.013523,0.002678,0.000431,0.008932
103587000,0.0324,0.013523,0.002678,0.000431,0.010695
103588000,0.0324,0.013523,0.002678,0.000431,0.007639
103589000,0.0324,0.013523,0.002678,0.000431,0.010695
103590000,0.0324,0.013523,0.002678,0.000431,0.006817
103591000,0.0324,0.013523,0.002678,0.000431,0.006817
103592000,0.0324,0.013523,0.002678,0.000431,0.006582
103593000,0.0324,0.013523,0.002678,0.000431,0.009050
103594000,0.0324,0.013523,0.002678,0.000431,0.005876
103595000,0.0324,0.013523,0.002678,0.000431,0.005876
103596000,0.0324,0.013523,0.002678,0.000431,0.006347
103597000,0.0324,0.013523,0.002678,0.000431,0.005876
103598000,0.0324,0.013523,0.002678,0.000431,0.005759
103599000,0.0324,0.013523,0.002678,0.000431,0.008932
103600000,0.0324,0.013523,0.002678,0.000431,0.005524
103601000,0.0324,0.013523,0.002678,0.000431,0.004819
103602000,0.0324,0.013523,0.002678,0.000431,0.004584
103603000,0.0324,0.013523,0.002678,0.000431,0.002703
103604000,0.0324,0.013523,0.002678,0.000431,0.002586
103605000,0.0324,0.013523,0.002678,0.000431,0.003878
103606000,0.0324,0.013523,0.002678,0.000431,0.001645
103607000,0.0324,0.013523,0.002678,0.000431,0.001645
103608000,0.0324,0.013523,0.002678,0.000431,0.003173
103609000,0.0324,0.013523,0.002678,0.000431,0.000940
103610000,0.0324,0.013523,0.002678,0.000431,0.000940
103611000,0.0324,0.013523,0.002678,0.000431,0.000823
103612000,0.0324,0.013523,0.002678,0.000431,0.000823
103613000,0.0324,0.013523,0.002678,0.000431,0.004231
103614000,0.0324,0.013523,0.002678,0.000431,0.514068
103615000,0.0324,0.013523,0.002678,0.000431,0.713631
103616000,0.0324,0.013523,0.002678,0.000431,0.163247
103617000,0.0324,0.013523,0.002678,0.000431,0.138331
103618000,0.0324,0.013523,0.002678,0.000431,0.332135
103619000,0.0324,0.013523,0.002678,0.000431,0.471406
103620000,0.0324,0.013523,0.002678,0.000431,0.232941
103621000,0.0324,0.013523,0.002678,0.000431,0.360694
103622000,0.0324,0.013523,0.002678,0.000431,0.144325
103623000,0.0324,0.013523,0.002678,0.000431,0.166067
103624000,0.0324,0.013523,0.002678,0.000431,0.111182
103625000,0.0324,0.013523,0.002678,0.000431,0.438733
103626000,0.0324,0.013523,0.002678,0.000431,0.271960
103627000,0.0324,0.013523,0.002678,0.000431,0.173589
103628000,0.0324,0.013523,0.002678,0.000431,0.138096
103629000,0.0324,0.013523,0.002678,0.000431,0.135980
103630000,0.0324,0.013523,0.002678,0.000431,0.120466
103631000,0.0324,0.013523,0.002678,0.000431,0.103660
103632000,0.0324,0.013523,0.002678,0.000431,0.095550
103633000,0.0324,0.013523,0.002678,0.000431,0.087558
103634000,0.0324,0.013523,0.002678,0.000431,0.085208
103635000,0.0324,0.013523,0.002678,0.000431,0.069577
103636000,0.0324,0.013523,0.002678,0.000431,0.058999
103637000,0.0324,0.013523,0.002678,0.000431,0.054063
103638000,0.0324,0.013523,0.002678,0.000431,0.044896
103639000,0.0324,0.013523,0.002678,0.000431,0.043603
103640000,0.0324,0.013523,0.002678,0.000431,0.038197
103641000,0.0324,0.013523,0.002678,0.000431,0.039372
103642000,0.0324,0.013523,0.002678,0.000431,0.036669
103643000,0.0324,0.013523,0.002678,0.000431,0.026561
103644000,0.0324,0.013523,0.002678,0.000431,0.027384
103645000,0.0324,0.013523,0.002678,0.000431,0.026209
103646000,0.0324,0.013523,0.002678,0.000431,0.027502
103647000,0.0324,0.013523,0.002678,0.000431,0.023623
103648000,0.0324,0.013523,0.002678,0.000431,0.022565
103649000,0.0324,0.013523,0.002678,0.000431,0.020685
103650000,0.0324,0.013523,0.002678,0.000431,0.013046
103651000,0.0324,0.013523,0.002678,0.000431,0.010813
103652000,0.0324,0.013523,0.002678,0.000431,0.012340
103653000,0.0324,0.013523,0.002678,0.000431,0.010342
103654000,0.0324,0.013523,0.002678,0.000431,0.005289
103655000,0.0324,0.013523,0.002678,0.000431,0.006111
103656000,0.0324,0.013523,0.002678,0.000431,0.005759
103657000,0.0324,0.013523,0.002678,0.000431,0.005171
103658000,0.0324,0.013523,0.002678,0.000431,0.003291
103659000,0.0324,0.013523,0.002678,0.000431,0.005406
103660000,0.0324,0.013523,0.002678,0.000431,0.002821
103661000,0.0324,0.013523,0.002678,0.000431,0.002586
103662000,0.0324,0.013523,0.002678,0.000431,0.002703
103663000,0.0324,0.013523,0.002678,0.000431,0.002703
103664000,0.0324,0.013523,0.002678,0.000431,0.005406
103665000,0.0324,0.013523,0.002678,0.000431,0.002233
103666000,0.0324,0.013523,0.002678,0.000431,0.000823
103667000,0.0324,0.013523,0.002678,0.000431,0.000823
103668000,0.0324,0.013523,0.002678,0.000431,0.013868
103669000,0.0324,0.013523,0.002678,0.000431,0.619256
103670000,0.0324,0.013523,0.002678,0.000431,0.593165
103671000,0.0324,0.013523,0.002678,0.000431,0.163364
103672000,0.0324,0.013523,0.002678,0.000431,0.132572
103673000,0.0324,0.013523,0.002678,0.000431,0.534636
103674000,0.0324,0.013523,0.002678,0.000431,0.323320
103675000,0.0324,0.013523,0.002678,0.000431,0.275721
103676000,0.0324,0.013523,0.002678,0.000431,0.307336
103677000,0.0324,0.013523,0.002678,0.000431,0.149966
103678000,0.0324,0.013523,0.002678,0.000431,0.161014
103679000,0.0324,0.013523,0.002678,0.000431,0.157958
103680000,0.0324,0.013523,0.002678,0.000431,0.478222
103681000,0.0324,0.013523,0.002678,0.000431,0.216957
103682000,0.0324,0.013523,0.002678,0.000431,0.180171
103683000,0.0324,0.013523,0.002678,0.000431,0.167360
103684000,0.0324,0.013523,0.002678,0.000431,0.141386
103685000,0.0324,0.013523,0.002678,0.000431,0.136215
103686000,0.0324,0.013523,0.002678,0.000431,0.109301
103687000,0.0324,0.013523,0.002678,0.000431,0.097196
103688000,0.0324,0.013523,0.002678,0.000431,0.090614
103689000,0.0324,0.013523,0.002678,0.000431,0.077334
103690000,0.0324,0.013523,0.002678,0.000431,0.067931
103691000,0.0324,0.013523,0.002678,0.000431,0.064170
103692000,0.0324,0.013523,0.002678,0.000431,0.056884
103693000,0.0324,0.013523,0.002678,0.000431,0.050302
103694000,0.0324,0.013523,0.002678,0.000431,0.053358
103695000,0.0324,0.013523,0.002678,0.000431,0.043838
103696000,0.0324,0.013523,0.002678,0.000431,0.038667
103697000,0.0324,0.013523,0.002678,0.000431,0.039489
103698000,0.0324,0.013523,0.002678,0.000431,0.032203
103699000,0.0324,0.013523,0.002678,0.000431,0.030440
103700000,0.0324,0.013523,0.002678,0.000431,0.025974
103701000,0.0324,0.013523,0.002678,0.000431,0.023976
103702000,0.0324,0.013523,0.002678,0.000431,0.023506
103703000,0.0324,0.013523,0.002678,0.000431,0.023036
103704000,0.0324,0.013523,0.002678,0.000431,0.019745
103705000,0.0324,0.013523,0.002678,0.000431,0.024681
103706000,0.0324,0.013523,0.002678,0.000431,0.013633
103707000,0.0324,0.013523,0.002678,0.000431,0.015749
103708000,0.0324,0.013523,0.002678,0.000431,0.013398
103709000,0.0324,0.013523,0.002678,0.000431,0.016336
103710000,0.0324,0.013523,0.002678,0.000431,0.010342
103711000,0.0324,0.013523,0.002678,0.000431,0.011048
103712000,0.0324,0.013523,0.002678,0.000431,0.009872
103713000,0.0324,0.013523,0.002678,0.000431,0.010225
103714000,0.0324,0.013523,0.002678,0.000431,0.010460
103715000,0.0324,0.013523,0.002678,0.000431,0.012223
103716000,0.0324,0.013523,0.002678,0.000431,0.012223
103717000,0.0324,0.013523,0.002678,0.000431,0.012223
103718000,0.0324,0.013523,0.002678,0.000431,0.005994
103719000,0.0324,0.013523,0.002678,0.000431,0.006111
103720000,0.0324,0.013523,0.002678,0.000431,0.006111
103721000,0.0324,0.013523,0.002678,0.000431,0.005876
103722000,0.0324,0.013523,0.002678,0.000431,0.006699
103723000,0.0324,0.013523,0.002678,0.000431,0.005759
103724000,0.0324,0.013523,0.002678,0.000431,0.006229
103725000,0.0324,0.013523,0.002678,0.000431,0.006229
103726000,0.0324,0.013523,0.002678,0.000431,0.006464
103727000,0.0324,0.013523,0.002678,0.000431,0.005876
103728000,0.0324,0.013523,0.002678,0.000431,0.006229
103729000,0.0324,0.013523,0.002678,0.000431,0.007757
103730000,0.0324,0.013523,0.002678,0.000431,0.004584
103731000,0.0324,0.013523,0.002678,0.000431,0.005759
103732000,0.0324,0.013523,0.002678,0.000431,0.005171
103733000,0.0324,0.013523,0.002678,0.000431,0.004936
103734000,0.0324,0.013523,0.002678,0.000431,0.005641
103735000,0.0324,0.013523,0.002678,0.000431,0.005759
103736000,0.0324,0.013523,0.002678,0.000431,0.005289
103737000,0.0324,0.013523,0.002678,0.000431,0.004231
103738000,0.0324,0.013523,0.002678,0.000431,0.005054
103739000,0.0324,0.013523,0.002678,0.000431,0.005406
103740000,0.0324,0.013523,0.002678,0.000431,0.005289
103741000,0.0324,0.013523,0.002678,0.000431,0.003173
103742000,0.0324,0.013523,0.002678,0.000431,0.003996
103743000,0.0324,0.013523,0.002678,0.000431,0.003643
103744000,0.0324,0.013523,0.002678,0.000431,0.003173
103745000,0.0324,0.013523,0.002678,0.000431,0.003878
103746000,0.0324,0.013523,0.002678,0.000431,0.003408
103747000,0.0324,0.013523,0.002678,0.000431,0.002586
103748000,0.0324,0.013523,0.002678,0.000431,0.003761
103749000,0.0324,0.013523,0.002678,0.000431,0.001528
103750000,0.0324,0.013523,0.002678,0.000431,0.001880
103751000,0.0324,0.013523,0.002678,0.000431,0.027384
103752000,0.0324,0.013523,0.002678,0.000431,0.678843
103753000,0.0324,0.013523,0.002678,0.000431,0.583527
103754000,0.0324,0.013523,0.002678,0.000431,0.156900
103755000,0.0324,0.013523,0.002678,0.000431,0.146793
103756000,0.0324,0.013523,0.002678,0.000431,0.599629
103757000,0.0324,0.013523,0.002678,0.000431,0.257857
103758000,0.0324,0.013523,0.002678,0.000431,0.306749
103759000,0.0324,0.013523,0.002678,0.000431,0.275016
103760000,0.0324,0.013523,0.002678,0.000431,0.142209
103761000,0.0324,0.013523,0.002678,0.000431,0.137155
103762000,0.0324,0.013523,0.002678,0.000431,0.245634
103763000,0.0324,0.013523,0.002678,0.000431,0.440613
103764000,0.0324,0.013523,0.002678,0.000431,0.169593
103765000,0.0324,0.013523,0.002678,0.000431,0.152317
103766000,0.0324,0.013523,0.002678,0.000431,0.144677
103767000,0.0324,0.013523,0.002678,0.000431,0.119291
103768000,0.0324,0.013523,0.002678,0.000431,0.115530
103769000,0.0324,0.013523,0.002678,0.000431,0.098489
103770000,0.0324,0.013523,0.002678,0.000431,0.087676
103771000,0.0324,0.013523,0.002678,0.000431,0.076981
103772000,0.0324,0.013523,0.002678,0.000431,0.066168
103773000,0.0324,0.013523,0.002678,0.000431,0.066286
103774000,0.0324,0.013523,0.002678,0.000431,0.051477
103775000,0.0324,0.013523,0.002678,0.000431,0.049832
103776000,0.0324,0.013523,0.002678,0.000431,0.047364
103777000,0.0324,0.013523,0.002678,0.000431,0.032320
103778000,0.0324,0.013523,0.002678,0.000431,0.034083
103779000,0.0324,0.013523,0.002678,0.000431,0.023976
103780000,0.0324,0.013523,0.002678,0.000431,0.024446
103781000,0.0324,0.013523,0.002678,0.000431,0.022213
103782000,0.0324,0.013523,0.002678,0.000431,0.022800
103783000,0.0324,0.013523,0.002678,0.000431,0.016101
103784000,0.0324,0.013523,0.002678,0.000431,0.017864
103785000,0.0324,0.013523,0.002678,0.000431,0.018922
103786000,0.0324,0.013523,0.002678,0.000431,0.015984
103787000,0.0324,0.013523,0.002678,0.000431,0.011400
103788000,0.0324,0.013523,0.002678,0.000431,0.010813
103789000,0.0324,0.013523,0.002678,0.000431,0.011048
103790000,0.0324,0.013523,0.002678,0.000431,0.014573
103791000,0.0324,0.013523,0.002678,0.000431,0.012576
103792000,0.0324,0.013523,0.002678,0.000431,0.007287
103793000,0.0324,0.013523,0.002678,0.000431,0.006347
103794000,0.0324,0.013523,0.002678,0.000431,0.010813
103795000,0.0324,0.013523,0.002678,0.000431,0.006699
103796000,0.0324,0.013523,0.002678,0.000431,0.003291
103797000,0.0324,0.013523,0.002678,0.000431,0.006229
103798000,0.0324,0.013523,0.002678,0.000431,0.003408
103799000,0.0324,0.013523,0.002678,0.000431,0.001763
103800000,0.0324,0.013523,0.002678,0.000431,0.001645
103801000,0.0324,0.013523,0.002678,0.000431,0.001763
103802000,0.0324,0.013523,0.002678,0.000431,0.001645
103803000,0.0324,0.013523,0.002678,0.000431,0.001763
103804000,0.0324,0.013523,0.002678,0.000431,0.002703
103805000,0.0324,0.013523,0.002678,0.000431,0.001763
103806000,0.0324,0.013523,0.002678,0.000431,0.000940
103807000,0.0324,0.013523,0.002678,0.000431,0.000705
103808000,0.0324,0.013523,0.002678,0.000431,0.000940
103809000,0.0324,0.013523,0.002678,0.000431,0.000823
103810000,0.0324,0.013523,0.002678,0.000431,0.000823
103811000,0.0324,0.013523,0.002678,0.000431,0.000823
103812000,0.0324,0.013523,0.002678,0.000431,0.000823
103813000,0.0324,0.013523,0.002678,0.000431,0.000940
103814000,0.0324,0.013523,0.002678,0.000431,0.000705
103815000,0.0324,0.013523,0.002678,0.000431,0.000940
103816000,0.0324,0.013523,0.002678,0.000431,0.000705
103817000,0.0324,0.013523,0.002678,0.000431,0.000940
103818000,0.0324,0.013523,0.002678,0.000431,0.000823
103819000,0.0324,0.013523,0.002678,0.000431,0.000823
103820000,0.0324,0.013523,0.002678,0.000431,0.000705
103821000,0.0324,0.013523,0.002678,0.000431,0.000940
103822000,0.0324,0.013523,0.002678,0.000431,0.000940
103823000,0.0324,0.013523,0.002678,0.000431,0.000705
103824000,0.0324,0.013523,0.002678,0.000431,0.000940
103825000,0.0324,0.013523,0.002678,0.000431,0.000705
103826000,0.0324,0.013523,0.002678,0.000431,0.000940
103827000,0.0324,0.013523,0.002678,0.000431,0.000823
103828000,0.0324,0.013523,0.002678,0.000431,0.000823
103829000,0.0324,0.013523,0.002678,0.000431,0.000823
103830000,0.0324,0.013523,0.002678,0.000431,0.073103
103831000,0.0324,0.013523,0.002678,0.000431,0.641586
103832000,0.0324,0.013523,0.002678,0.000431,0.576123
103833000,0.0324,0.013523,0.002678,0.000431,0.143384
103834000,0.0324,0.013523,0.002678,0.000431,0.148203
103835000,0.0324,0.013523,0.002678,0.000431,0.606093
103836000,0.0324,0.013523,0.002678,0.000431,0.273958
103837000,0.0324,0.013523,0.002678,0.000431,0.263851
103838000,0.0324,0.013523,0.002678,0.000431,0.247632
103839000,0.0324,0.013523,0.002678,0.000431,0.153139
103840000,0.0324,0.013523,0.002678,0.000431,0.142327
103841000,0.0324,0.013523,0.002678,0.000431,0.223539
103842000,0.0324,0.013523,0.002678,0.000431,0.462708
103843000,0.0324,0.013523,0.002678,0.000431,0.201678
103844000,0.0324,0.013523,0.002678,0.000431,0.166537
103845000,0.0324,0.013523,0.002678,0.000431,0.154667
103846000,0.0324,0.013523,0.002678,0.000431,0.112710
103847000,0.0324,0.013523,0.002678,0.000431,0.106833
103848000,0.0324,0.013523,0.002678,0.000431,0.091554
103849000,0.0324,0.013523,0.002678,0.000431,0.076511
103850000,0.0324,0.013523,0.002678,0.000431,0.073103
103851000,0.0324,0.013523,0.002678,0.000431,0.055356
103852000,0.0324,0.013523,0.002678,0.000431,0.049479
103853000,0.0324,0.013523,0.002678,0.000431,0.044426
103854000,0.0324,0.013523,0.002678,0.000431,0.045013
103855000,0.0324,0.013523,0.002678,0.000431,0.037727
103856000,0.0324,0.013523,0.002678,0.000431,0.035964
103857000,0.0324,0.013523,0.002678,0.000431,0.025269
103858000,0.0324,0.013523,0.002678,0.000431,0.023741
103859000,0.0324,0.013523,0.002678,0.000431,0.022330
103860000,0.0324,0.013523,0.002678,0.000431,0.012811
103861000,0.0324,0.013523,0.002678,0.000431,0.013633
103862000,0.0324,0.013523,0.002678,0.000431,0.014691
103863000,0.0324,0.013523,0.002678,0.000431,0.013751
103864000,0.0324,0.013523,0.002678,0.000431,0.016101
103865000,0.0324,0.013523,0.002678,0.000431,0.013046
103866000,0.0324,0.013523,0.002678,0.000431,0.013046
103867000,0.0324,0.013523,0.002678,0.000431,0.010225
103868000,0.0324,0.013523,0.002678,0.000431,0.008345
103869000,0.0324,0.013523,0.002678,0.000431,0.006111
103870000,0.0324,0.013523,0.002678,0.000431,0.007757
103871000,0.0324,0.013523,0.002678,0.000431,0.009755
103872000,0.0324,0.013523,0.002678,0.000431,0.005994
103873000,0.0324,0.013523,0.002678,0.000431,0.002351
103874000,0.0324,0.013523,0.002678,0.000431,0.002586
103875000,0.0324,0.013523,0.002678,0.000431,0.005406
103876000,0.0324,0.013523,0.002678,0.000431,0.001880
103877000,0.0324,0.013523,0.002678,0.000431,0.002586
103878000,0.0324,0.013523,0.002678,0.000431,0.002116
103879000,0.0324,0.013523,0.002678,0.000431,0.000940
103880000,0.0324,0.013523,0.002678,0.000431,0.000940
103881000,0.0324,0.013523,0.002678,0.000431,0.000823
103882000,0.0324,0.013523,0.002678,0.000431,0.000823
103883000,0.0324,0.013523,0.002678,0.000431,0.000940
103884000,0.0324,0.013523,0.002678,0.000431,0.000940
103885000,0.0324,0.013523,0.002678,0.000431,0.000705
103886000,0.0324,0.013523,0.002678,0.000431,0.000940
103887000,0.0324,0.013523,0.002678,0.000431,0.000940
103888000,0.0324,0.013523,0.002678,0.000431,0.195919
103889000,0.0324,0.013523,0.002678,0.000431,0.605975
103890000,0.0324,0.013523,0.002678,0.000431,0.540747
103891000,0.0324,0.013523,0.002678,0.000431,0.141034
103892000,0.0324,0.013523,0.002678,0.000431,0.140799
103893000,0.0324,0.013523,0.002678,0.000431,0.627013
103894000,0.0324,0.013523,0.002678,0.000431,0.234116
103895000,0.0324,0.013523,0.002678,0.000431,0.280775
103896000,0.0324,0.013523,0.002678,0.000431,0.263146
103897000,0.0324,0.013523,0.002678,0.000431,0.148203
103898000,0.0324,0.013523,0.002678,0.000431,0.148556
103899000,0.0324,0.013523,0.002678,0.000431,0.209318
103900000,0.0324,0.013523,0.002678,0.000431,0.460593
103901000,0.0324,0.013523,0.002678,0.000431,0.193216
103902000,0.0324,0.013523,0.002678,0.000431,0.176645
103903000,0.0324,0.013523,0.002678,0.000431,0.152904
103904000,0.0324,0.013523,0.002678,0.000431,0.145382
103905000,0.0324,0.013523,0.002678,0.000431,0.127753
103906000,0.0324,0.013523,0.002678,0.000431,0.110594
103907000,0.0324,0.013523,0.002678,0.000431,0.104012
103908000,0.0324,0.013523,0.002678,0.000431,0.091907
103909000,0.0324,0.013523,0.002678,0.000431,0.089439
103910000,0.0324,0.013523,0.002678,0.000431,0.065933
103911000,0.0324,0.013523,0.002678,0.000431,0.066991
103912000,0.0324,0.013523,0.002678,0.000431,0.054298
103913000,0.0324,0.013523,0.002678,0.000431,0.048304
103914000,0.0324,0.013523,0.002678,0.000431,0.034553
103915000,0.0324,0.013523,0.002678,0.000431,0.040195
103916000,0.0324,0.013523,0.002678,0.000431,0.029029
103917000,0.0324,0.013523,0.002678,0.000431,0.031380
103918000,0.0324,0.013523,0.002678,0.000431,0.026444
103919000,0.0324,0.013523,0.002678,0.000431,0.027854
103920000,0.0324,0.013523,0.002678,0.000431,0.033496
103921000,0.0324,0.013523,0.002678,0.000431,0.021508
103922000,0.0324,0.013523,0.002678,0.000431,0.029852
103923000,0.0324,0.013523,0.002678,0.000431,0.016689
103924000,0.0324,0.013523,0.002678,0.000431,0.022330
103925000,0.0324,0.013523,0.002678,0.000431,0.019627
103926000,0.0324,0.013523,0.002678,0.000431,0.020567
103927000,0.0324,0.013523,0.002678,0.000431,0.010342
103928000,0.0324,0.013523,0.002678,0.000431,0.018452
103929000,0.0324,0.013523,0.002678,0.000431,0.007874
103930000,0.0324,0.013523,0.002678,0.000431,0.006347
103931000,0.0324,0.013523,0.002678,0.000431,0.010460
103932000,0.0324,0.013523,0.002678,0.000431,0.006111
103933000,0.0324,0.013523,0.002678,0.000431,0.005994
103934000,0.0324,0.013523,0.002678,0.000431,0.004113
103935000,0.0324,0.013523,0.002678,0.000431,0.003996
103936000,0.0324,0.013523,0.002678,0.000431,0.003643
103937000,0.0324,0.013523,0.002678,0.000431,0.005289
103938000,0.0324,0.013523,0.002678,0.000431,0.002821
103939000,0.0324,0.013523,0.002678,0.000431,0.002938
103940000,0.0324,0.013523,0.002678,0.000431,0.005289
103941000,0.0324,0.013523,0.002678,0.000431,0.000823
103942000,0.0324,0.013523,0.002678,0.000431,0.000823
103943000,0.0324,0.013523,0.002678,0.000431,0.013751
103944000,0.0324,0.013523,0.002678,0.000431,0.606680
103945000,0.0324,0.013523,0.002678,0.000431,0.612087
103946000,0.0324,0.013523,0.002678,0.000431,0.179230
103947000,0.0324,0.013523,0.002678,0.000431,0.132572
103948000,0.0324,0.013523,0.002678,0.000431,0.416050
103949000,0.0324,0.013523,0.002678,0.000431,0.394307
103950000,0.0324,0.013523,0.002678,0.000431,0.229415
103951000,0.0324,0.013523,0.002678,0.000431,0.349059
103952000,0.0324,0.013523,0.002678,0.000431,0.140681
103953000,0.0324,0.013523,0.002678,0.000431,0.162424
103954000,0.0324,0.013523,0.002678,0.000431,0.109184
103955000,0.0324,0.013523,0.002678,0.000431,0.435324
103956000,0.0324,0.013523,0.002678,0.000431,0.238817
103957000,0.0324,0.013523,0.002678,0.000431,0.143384
103958000,0.0324,0.013523,0.002678,0.000431,0.118116
103959000,0.0324,0.013523,0.002678,0.000431,0.104835
103960000,0.0324,0.013523,0.002678,0.000431,0.092965
103961000,0.0324,0.013523,0.002678,0.000431,0.086736
103962000,0.0324,0.013523,0.002678,0.000431,0.072045
103963000,0.0324,0.013523,0.002678,0.000431,0.071105
103964000,0.0324,0.013523,0.002678,0.000431,0.064288
103965000,0.0324,0.013523,0.002678,0.000431,0.058176
103966000,0.0324,0.013523,0.002678,0.000431,0.045718
103967000,0.0324,0.013523,0.002678,0.000431,0.042428
103968000,0.0324,0.013523,0.002678,0.000431,0.035494
103969000,0.0324,0.013523,0.002678,0.000431,0.037021
103970000,0.0324,0.013523,0.002678,0.000431,0.026091
103971000,0.0324,0.013523,0.002678,0.000431,0.026209
103972000,0.0324,0.013523,0.002678,0.000431,0.022330
103973000,0.0324,0.013523,0.002678,0.000431,0.022330
103974000,0.0324,0.013523,0.002678,0.000431,0.018569
103975000,0.0324,0.013523,0.002678,0.000431,0.018099
103976000,0.0324,0.013523,0.002678,0.000431,0.011988
103977000,0.0324,0.013523,0.002678,0.000431,0.012576
103978000,0.0324,0.013523,0.002678,0.000431,0.012811
103979000,0.0324,0.013523,0.002678,0.000431,0.017159
103980000,0.0324,0.013523,0.002678,0.000431,0.010578
103981000,0.0324,0.013523,0.002678,0.000431,0.010813
103982000,0.0324,0.013523,0.002678,0.000431,0.012458
103983000,0.0324,0.013523,0.002678,0.000431,0.009637
103984000,0.0324,0.013523,0.002678,0.000431,0.009990
103985000,0.0324,0.013523,0.002678,0.000431,0.010225
103986000,0.0324,0.013523,0.002678,0.000431,0.010695
103987000,0.0324,0.013523,0.002678,0.000431,0.010578
103988000,0.0324,0.013523,0.002678,0.000431,0.013516
103989000,0.0324,0.013523,0.002678,0.000431,0.007639
103990000,0.0324,0.013523,0.002678,0.000431,0.004819
103991000,0.0324,0.013523,0.002678,0.000431,0.005289
103992000,0.0324,0.013523,0.002678,0.000431,0.005054
103993000,0.0324,0.013523,0.002678,0.000431,0.004701
103994000,0.0324,0.013523,0.002678,0.000431,0.007404
103995000,0.0324,0.013523,0.002678,0.000431,0.004231
103996000,0.0324,0.013523,0.002678,0.000431,0.004231
103997000,0.0324,0.013523,0.002678,0.000431,0.004113
103998000,0.0324,0.013523,0.002678,0.000431,0.003761
103999000,0.0324,0.013523,0.002678,0.000431,0.004349
