Cycle,Area(mm^2),PeakDynamic(W),SubthresholdLeakage(W),GateLeakage(W),RunTimeDynamic(W)
88000000,0.0324,0.013523,0.002678,0.000431,0.009520
88001000,0.0324,0.013523,0.002678,0.000431,0.009520
88002000,0.0324,0.013523,0.002678,0.000431,0.005759
88003000,0.0324,0.013523,0.002678,0.000431,0.004466
88004000,0.0324,0.013523,0.002678,0.000431,0.003643
88005000,0.0324,0.013523,0.002678,0.000431,0.006111
88006000,0.0324,0.013523,0.002678,0.000431,0.002938
88007000,0.0324,0.013523,0.002678,0.000431,0.002233
88008000,0.0324,0.013523,0.002678,0.000431,0.003761
88009000,0.0324,0.013523,0.002678,0.000431,0.003056
88010000,0.0324,0.013523,0.002678,0.000431,0.001763
88011000,0.0324,0.013523,0.002678,0.000431,0.001763
88012000,0.0324,0.013523,0.002678,0.000431,0.001645
88013000,0.0324,0.013523,0.002678,0.000431,0.058059
88014000,0.0324,0.013523,0.002678,0.000431,0.658863
88015000,0.0324,0.013523,0.002678,0.000431,0.606328
88016000,0.0324,0.013523,0.002678,0.000431,0.137861
88017000,0.0324,0.013523,0.002678,0.000431,0.139036
88018000,0.0324,0.013523,0.002678,0.000431,0.666855
88019000,0.0324,0.013523,0.002678,0.000431,0.301930
88020000,0.0324,0.013523,0.002678,0.000431,0.233176
88021000,0.0324,0.013523,0.002678,0.000431,0.218602
88022000,0.0324,0.013523,0.002678,0.000431,0.150671
88023000,0.0324,0.013523,0.002678,0.000431,0.117411
88024000,0.0324,0.013523,0.002678,0.000431,0.346003
88025000,0.0324,0.013523,0.002678,0.000431,0.393837
88026000,0.0324,0.013523,0.002678,0.000431,0.182286
88027000,0.0324,0.013523,0.002678,0.000431,0.150554
88028000,0.0324,0.013523,0.002678,0.000431,0.136098
88029000,0.0324,0.013523,0.002678,0.000431,0.104718
88030000,0.0324,0.013523,0.002678,0.000431,0.092847
88031000,0.0324,0.013523,0.002678,0.000431,0.078156
88032000,0.0324,0.013523,0.002678,0.000431,0.070047
88033000,0.0324,0.013523,0.002678,0.000431,0.070399
88034000,0.0324,0.013523,0.002678,0.000431,0.047599
88035000,0.0324,0.013523,0.002678,0.000431,0.044308
88036000,0.0324,0.013523,0.002678,0.000431,0.046776
88037000,0.0324,0.013523,0.002678,0.000431,0.038667
88038000,0.0324,0.013523,0.002678,0.000431,0.032790
88039000,0.0324,0.013523,0.002678,0.000431,0.030792
88040000,0.0324,0.013523,0.002678,0.000431,0.026209
88041000,0.0324,0.013523,0.002678,0.000431,0.024093
88042000,0.0324,0.013523,0.002678,0.000431,0.015984
88043000,0.0324,0.013523,0.002678,0.000431,0.010342
88044000,0.0324,0.013523,0.002678,0.000431,0.015514
88045000,0.0324,0.013523,0.002678,0.000431,0.011400
88046000,0.0324,0.013523,0.002678,0.000431,0.011753
88047000,0.0324,0.013523,0.002678,0.000431,0.009285
88048000,0.0324,0.013523,0.002678,0.000431,0.006464
88049000,0.0324,0.013523,0.002678,0.000431,0.009050
88050000,0.0324,0.013523,0.002678,0.000431,0.004231
88051000,0.0324,0.013523,0.002678,0.000431,0.007169
88052000,0.0324,0.013523,0.002678,0.000431,0.003408
88053000,0.0324,0.013523,0.002678,0.000431,0.003526
88054000,0.0324,0.013523,0.002678,0.000431,0.003408
88055000,0.0324,0.013523,0.002678,0.000431,0.003408
88056000,0.0324,0.013523,0.002678,0.000431,0.003526
88057000,0.0324,0.013523,0.002678,0.000431,0.008815
88058000,0.0324,0.013523,0.002678,0.000431,0.001528
88059000,0.0324,0.013523,0.002678,0.000431,0.001763
88060000,0.0324,0.013523,0.002678,0.000431,0.001645
88061000,0.0324,0.013523,0.002678,0.000431,0.001645
88062000,0.0324,0.013523,0.002678,0.000431,0.001763
88063000,0.0324,0.013523,0.002678,0.000431,0.001528
88064000,0.0324,0.013523,0.002678,0.000431,0.001880
88065000,0.0324,0.013523,0.002678,0.000431,0.001410
88066000,0.0324,0.013523,0.002678,0.000431,0.001998
88067000,0.0324,0.013523,0.002678,0.000431,0.003291
88068000,0.0324,0.013523,0.002678,0.000431,0.048304
88069000,0.0324,0.013523,0.002678,0.000431,0.681311
88070000,0.0324,0.013523,0.002678,0.000431,0.592107
88071000,0.0324,0.013523,0.002678,0.000431,0.135392
88072000,0.0324,0.013523,0.002678,0.000431,0.134922
88073000,0.0324,0.013523,0.002678,0.000431,0.597748
88074000,0.0324,0.013523,0.002678,0.000431,0.247162
88075000,0.0324,0.013523,0.002678,0.000431,0.287239
88076000,0.0324,0.013523,0.002678,0.000431,0.229885
88077000,0.0324,0.013523,0.002678,0.000431,0.145735
88078000,0.0324,0.013523,0.002678,0.000431,0.125520
88079000,0.0324,0.013523,0.002678,0.000431,0.334133
88080000,0.0324,0.013523,0.002678,0.000431,0.330254
88081000,0.0324,0.013523,0.002678,0.000431,0.114355
88082000,0.0324,0.013523,0.002678,0.000431,0.090967
88083000,0.0324,0.013523,0.002678,0.000431,0.089439
88084000,0.0324,0.013523,0.002678,0.000431,0.064993
88085000,0.0324,0.013523,0.002678,0.000431,0.051947
88086000,0.0324,0.013523,0.002678,0.000431,0.043368
88087000,0.0324,0.013523,0.002678,0.000431,0.047599
88088000,0.0324,0.013523,0.002678,0.000431,0.042663
88089000,0.0324,0.013523,0.002678,0.000431,0.039489
88090000,0.0324,0.013523,0.002678,0.000431,0.030322
88091000,0.0324,0.013523,0.002678,0.000431,0.031145
88092000,0.0324,0.013523,0.002678,0.000431,0.025034
88093000,0.0324,0.013523,0.002678,0.000431,0.022448
88094000,0.0324,0.013523,0.002678,0.000431,0.024563
88095000,0.0324,0.013523,0.002678,0.000431,0.019980
88096000,0.0324,0.013523,0.002678,0.000431,0.017747
88097000,0.0324,0.013523,0.002678,0.000431,0.012223
88098000,0.0324,0.013523,0.002678,0.000431,0.014573
88099000,0.0324,0.013523,0.002678,0.000431,0.013751
88100000,0.0324,0.013523,0.002678,0.000431,0.010813
88101000,0.0324,0.013523,0.002678,0.000431,0.004819
88102000,0.0324,0.013523,0.002678,0.000431,0.007052
88103000,0.0324,0.013523,0.002678,0.000431,0.001763
88104000,0.0324,0.013523,0.002678,0.000431,0.003408
88105000,0.0324,0.013523,0.002678,0.000431,0.002586
88106000,0.0324,0.013523,0.002678,0.000431,0.000940
88107000,0.0324,0.013523,0.002678,0.000431,0.000823
88108000,0.0324,0.013523,0.002678,0.000431,0.000940
88109000,0.0324,0.013523,0.002678,0.000431,0.000823
88110000,0.0324,0.013523,0.002678,0.000431,0.000823
88111000,0.0324,0.013523,0.002678,0.000431,0.070869
88112000,0.0324,0.013523,0.002678,0.000431,0.577181
88113000,0.0324,0.013523,0.002678,0.000431,0.571540
88114000,0.0324,0.013523,0.002678,0.000431,0.133982
88115000,0.0324,0.013523,0.002678,0.000431,0.134805
88116000,0.0324,0.013523,0.002678,0.000431,0.573185
88117000,0.0324,0.013523,0.002678,0.000431,0.268787
88118000,0.0324,0.013523,0.002678,0.000431,0.309452
88119000,0.0324,0.013523,0.002678,0.000431,0.228475
88120000,0.0324,0.013523,0.002678,0.000431,0.148908
88121000,0.0324,0.013523,0.002678,0.000431,0.106245
88122000,0.0324,0.013523,0.002678,0.000431,0.404297
88123000,0.0324,0.013523,0.002678,0.000431,0.324730
88124000,0.0324,0.013523,0.002678,0.000431,0.142562
88125000,0.0324,0.013523,0.002678,0.000431,0.119409
88126000,0.0324,0.013523,0.002678,0.000431,0.098019
88127000,0.0324,0.013523,0.002678,0.000431,0.071105
88128000,0.0324,0.013523,0.002678,0.000431,0.065933
88129000,0.0324,0.013523,0.002678,0.000431,0.040900
88130000,0.0324,0.013523,0.002678,0.000431,0.048304
88131000,0.0324,0.013523,0.002678,0.000431,0.028442
88132000,0.0324,0.013523,0.002678,0.000431,0.028207
88133000,0.0324,0.013523,0.002678,0.000431,0.022800
88134000,0.0324,0.013523,0.002678,0.000431,0.013751
88135000,0.0324,0.013523,0.002678,0.000431,0.013986
88136000,0.0324,0.013523,0.002678,0.000431,0.007992
88137000,0.0324,0.013523,0.002678,0.000431,0.004349
88138000,0.0324,0.013523,0.002678,0.000431,0.004231
88139000,0.0324,0.013523,0.002678,0.000431,0.003761
88140000,0.0324,0.013523,0.002678,0.000431,0.012105
88141000,0.0324,0.013523,0.002678,0.000431,0.000823
88142000,0.0324,0.013523,0.002678,0.000431,0.000823
88143000,0.0324,0.013523,0.002678,0.000431,0.000823
88144000,0.0324,0.013523,0.002678,0.000431,0.000940
88145000,0.0324,0.013523,0.002678,0.000431,0.000705
88146000,0.0324,0.013523,0.002678,0.000431,0.000940
88147000,0.0324,0.013523,0.002678,0.000431,0.000705
88148000,0.0324,0.013523,0.002678,0.000431,0.000940
88149000,0.0324,0.013523,0.002678,0.000431,0.000940
88150000,0.0324,0.013523,0.002678,0.000431,0.000705
88151000,0.0324,0.013523,0.002678,0.000431,0.000940
88152000,0.0324,0.013523,0.002678,0.000431,0.000705
88153000,0.0324,0.013523,0.002678,0.000431,0.000940
88154000,0.0324,0.013523,0.002678,0.000431,0.000823
88155000,0.0324,0.013523,0.002678,0.000431,0.000823
88156000,0.0324,0.013523,0.002678,0.000431,0.000823
88157000,0.0324,0.013523,0.002678,0.000431,0.000823
88158000,0.0324,0.013523,0.002678,0.000431,0.000940
88159000,0.0324,0.013523,0.002678,0.000431,0.000705
88160000,0.0324,0.013523,0.002678,0.000431,0.000940
88161000,0.0324,0.013523,0.002678,0.000431,0.000823
88162000,0.0324,0.013523,0.002678,0.000431,0.000705
88163000,0.0324,0.013523,0.002678,0.000431,0.000940
88164000,0.0324,0.013523,0.002678,0.000431,0.000823
88165000,0.0324,0.013523,0.002678,0.000431,0.000823
88166000,0.0324,0.013523,0.002678,0.000431,0.000823
88167000,0.0324,0.013523,0.002678,0.000431,0.000823
88168000,0.0324,0.013523,0.002678,0.000431,0.000823
88169000,0.0324,0.013523,0.002678,0.000431,0.000940
88170000,0.0324,0.013523,0.002678,0.000431,0.000705
88171000,0.0324,0.013523,0.002678,0.000431,0.000940
88172000,0.0324,0.013523,0.002678,0.000431,0.000705
88173000,0.0324,0.013523,0.002678,0.000431,0.000940
88174000,0.0324,0.013523,0.002678,0.000431,0.000940
88175000,0.0324,0.013523,0.002678,0.000431,0.000705
88176000,0.0324,0.013523,0.002678,0.000431,0.000940
88177000,0.0324,0.013523,0.002678,0.000431,0.000705
88178000,0.0324,0.013523,0.002678,0.000431,0.000940
88179000,0.0324,0.013523,0.002678,0.000431,0.000823
88180000,0.0324,0.013523,0.002678,0.000431,0.000823
88181000,0.0324,0.013523,0.002678,0.000431,0.000823
88182000,0.0324,0.013523,0.002678,0.000431,0.000823
88183000,0.0324,0.013523,0.002678,0.000431,0.000940
88184000,0.0324,0.013523,0.002678,0.000431,0.000705
88185000,0.0324,0.013523,0.002678,0.000431,0.000940
88186000,0.0324,0.013523,0.002678,0.000431,0.000823
88187000,0.0324,0.013523,0.002678,0.000431,0.001645
88188000,0.0324,0.013523,0.002678,0.000431,0.307571
88189000,0.0324,0.013523,0.002678,0.000431,0.724444
88190000,0.0324,0.013523,0.002678,0.000431,0.309922
88191000,0.0324,0.013523,0.002678,0.000431,0.135392
88192000,0.0324,0.013523,0.002678,0.000431,0.372682
88193000,0.0324,0.013523,0.002678,0.000431,0.426862
88194000,0.0324,0.013523,0.002678,0.000431,0.268669
88195000,0.0324,0.013523,0.002678,0.000431,0.288532
88196000,0.0324,0.013523,0.002678,0.000431,0.150083
88197000,0.0324,0.013523,0.002678,0.000431,0.140094
88198000,0.0324,0.013523,0.002678,0.000431,0.243283
88199000,0.0324,0.013523,0.002678,0.000431,0.492678
88200000,0.0324,0.013523,0.002678,0.000431,0.209670
88201000,0.0324,0.013523,0.002678,0.000431,0.197800
88202000,0.0324,0.013523,0.002678,0.000431,0.161601
88203000,0.0324,0.013523,0.002678,0.000431,0.147850
88204000,0.0324,0.013523,0.002678,0.000431,0.124345
88205000,0.0324,0.013523,0.002678,0.000431,0.110947
88206000,0.0324,0.013523,0.002678,0.000431,0.072632
88207000,0.0324,0.013523,0.002678,0.000431,0.059587
88208000,0.0324,0.013523,0.002678,0.000431,0.053005
88209000,0.0324,0.013523,0.002678,0.000431,0.043956
88210000,0.0324,0.013523,0.002678,0.000431,0.039842
88211000,0.0324,0.013523,0.002678,0.000431,0.032085
88212000,0.0324,0.013523,0.002678,0.000431,0.023036
88213000,0.0324,0.013523,0.002678,0.000431,0.020567
88214000,0.0324,0.013523,0.002678,0.000431,0.020215
88215000,0.0324,0.013523,0.002678,0.000431,0.015396
88216000,0.0324,0.013523,0.002678,0.000431,0.017512
88217000,0.0324,0.013523,0.002678,0.000431,0.015396
88218000,0.0324,0.013523,0.002678,0.000431,0.016101
88219000,0.0324,0.013523,0.002678,0.000431,0.018217
88220000,0.0324,0.013523,0.002678,0.000431,0.011283
88221000,0.0324,0.013523,0.002678,0.000431,0.008697
88222000,0.0324,0.013523,0.002678,0.000431,0.002586
88223000,0.0324,0.013523,0.002678,0.000431,0.002468
88224000,0.0324,0.013523,0.002678,0.000431,0.006699
88225000,0.0324,0.013523,0.002678,0.000431,0.000940
88226000,0.0324,0.013523,0.002678,0.000431,0.277367
88227000,0.0324,0.013523,0.002678,0.000431,0.758644
88228000,0.0324,0.013523,0.002678,0.000431,0.393014
88229000,0.0324,0.013523,0.002678,0.000431,0.134452
88230000,0.0324,0.013523,0.002678,0.000431,0.266084
88231000,0.0324,0.013523,0.002678,0.000431,0.463061
88232000,0.0324,0.013523,0.002678,0.000431,0.271725
88233000,0.0324,0.013523,0.002678,0.000431,0.335073
88234000,0.0324,0.013523,0.002678,0.000431,0.145617
88235000,0.0324,0.013523,0.002678,0.000431,0.173707
88236000,0.0324,0.013523,0.002678,0.000431,0.099664
88237000,0.0324,0.013523,0.002678,0.000431,0.538514
88238000,0.0324,0.013523,0.002678,0.000431,0.300990
88239000,0.0324,0.013523,0.002678,0.000431,0.223774
88240000,0.0324,0.013523,0.002678,0.000431,0.203676
88241000,0.0324,0.013523,0.002678,0.000431,0.139506
88242000,0.0324,0.013523,0.002678,0.000431,0.118586
88243000,0.0324,0.013523,0.002678,0.000431,0.102837
88244000,0.0324,0.013523,0.002678,0.000431,0.075453
88245000,0.0324,0.013523,0.002678,0.000431,0.046659
88246000,0.0324,0.013523,0.002678,0.000431,0.038902
88247000,0.0324,0.013523,0.002678,0.000431,0.035494
88248000,0.0324,0.013523,0.002678,0.000431,0.034318
88249000,0.0324,0.013523,0.002678,0.000431,0.025856
88250000,0.0324,0.013523,0.002678,0.000431,0.020332
88251000,0.0324,0.013523,0.002678,0.000431,0.015044
88252000,0.0324,0.013523,0.002678,0.000431,0.013868
88253000,0.0324,0.013523,0.002678,0.000431,0.011635
88254000,0.0324,0.013523,0.002678,0.000431,0.005641
88255000,0.0324,0.013523,0.002678,0.000431,0.005641
88256000,0.0324,0.013523,0.002678,0.000431,0.005641
88257000,0.0324,0.013523,0.002678,0.000431,0.005641
88258000,0.0324,0.013523,0.002678,0.000431,0.004701
88259000,0.0324,0.013523,0.002678,0.000431,0.006934
88260000,0.0324,0.013523,0.002678,0.000431,0.005171
88261000,0.0324,0.013523,0.002678,0.000431,0.008109
88262000,0.0324,0.013523,0.002678,0.000431,0.002233
88263000,0.0324,0.013523,0.002678,0.000431,0.004231
88264000,0.0324,0.013523,0.002678,0.000431,0.004466
88265000,0.0324,0.013523,0.002678,0.000431,0.000823
88266000,0.0324,0.013523,0.002678,0.000431,0.000940
88267000,0.0324,0.013523,0.002678,0.000431,0.000705
88268000,0.0324,0.013523,0.002678,0.000431,0.229885
88269000,0.0324,0.013523,0.002678,0.000431,0.713279
88270000,0.0324,0.013523,0.002678,0.000431,0.497262
88271000,0.0324,0.013523,0.002678,0.000431,0.152669
88272000,0.0324,0.013523,0.002678,0.000431,0.231883
88273000,0.0324,0.013523,0.002678,0.000431,0.549327
88274000,0.0324,0.013523,0.002678,0.000431,0.264438
88275000,0.0324,0.013523,0.002678,0.000431,0.321910
88276000,0.0324,0.013523,0.002678,0.000431,0.147145
88277000,0.0324,0.013523,0.002678,0.000431,0.177820
88278000,0.0324,0.013523,0.002678,0.000431,0.143972
88279000,0.0324,0.013523,0.002678,0.000431,0.577298
88280000,0.0324,0.013523,0.002678,0.000431,0.379381
88281000,0.0324,0.013523,0.002678,0.000431,0.240228
88282000,0.0324,0.013523,0.002678,0.000431,0.201091
88283000,0.0324,0.013523,0.002678,0.000431,0.161131
88284000,0.0324,0.013523,0.002678,0.000431,0.159251
88285000,0.0324,0.013523,0.002678,0.000431,0.120701
88286000,0.0324,0.013523,0.002678,0.000431,0.089909
88287000,0.0324,0.013523,0.002678,0.000431,0.076863
88288000,0.0324,0.013523,0.002678,0.000431,0.071457
88289000,0.0324,0.013523,0.002678,0.000431,0.058176
88290000,0.0324,0.013523,0.002678,0.000431,0.050655
88291000,0.0324,0.013523,0.002678,0.000431,0.034083
88292000,0.0324,0.013523,0.002678,0.000431,0.028912
88293000,0.0324,0.013523,0.002678,0.000431,0.024798
88294000,0.0324,0.013523,0.002678,0.000431,0.028559
88295000,0.0324,0.013523,0.002678,0.000431,0.014338
88296000,0.0324,0.013523,0.002678,0.000431,0.009872
88297000,0.0324,0.013523,0.002678,0.000431,0.008932
88298000,0.0324,0.013523,0.002678,0.000431,0.005876
88299000,0.0324,0.013523,0.002678,0.000431,0.010930
88300000,0.0324,0.013523,0.002678,0.000431,0.003056
88301000,0.0324,0.013523,0.002678,0.000431,0.006347
88302000,0.0324,0.013523,0.002678,0.000431,0.002586
88303000,0.0324,0.013523,0.002678,0.000431,0.002233
88304000,0.0324,0.013523,0.002678,0.000431,0.004584
88305000,0.0324,0.013523,0.002678,0.000431,0.001763
88306000,0.0324,0.013523,0.002678,0.000431,0.001763
88307000,0.0324,0.013523,0.002678,0.000431,0.001763
88308000,0.0324,0.013523,0.002678,0.000431,0.001528
88309000,0.0324,0.013523,0.002678,0.000431,0.001763
88310000,0.0324,0.013523,0.002678,0.000431,0.001528
88311000,0.0324,0.013523,0.002678,0.000431,0.001880
88312000,0.0324,0.013523,0.002678,0.000431,0.001645
88313000,0.0324,0.013523,0.002678,0.000431,0.001645
88314000,0.0324,0.013523,0.002678,0.000431,0.001645
88315000,0.0324,0.013523,0.002678,0.000431,0.006464
88316000,0.0324,0.013523,0.002678,0.000431,0.000823
88317000,0.0324,0.013523,0.002678,0.000431,0.000823
88318000,0.0324,0.013523,0.002678,0.000431,0.000940
88319000,0.0324,0.013523,0.002678,0.000431,0.000940
88320000,0.0324,0.013523,0.002678,0.000431,0.000940
88321000,0.0324,0.013523,0.002678,0.000431,0.000823
88322000,0.0324,0.013523,0.002678,0.000431,0.000940
88323000,0.0324,0.013523,0.002678,0.000431,0.001998
88324000,0.0324,0.013523,0.002678,0.000431,0.583292
88325000,0.0324,0.013523,0.002678,0.000431,0.743953
88326000,0.0324,0.013523,0.002678,0.000431,0.342830
88327000,0.0324,0.013523,0.002678,0.000431,0.175117
88328000,0.0324,0.013523,0.002678,0.000431,0.414757
88329000,0.0324,0.013523,0.002678,0.000431,0.437557
88330000,0.0324,0.013523,0.002678,0.000431,0.266201
88331000,0.0324,0.013523,0.002678,0.000431,0.265379
88332000,0.0324,0.013523,0.002678,0.000431,0.159956
88333000,0.0324,0.013523,0.002678,0.000431,0.151376
88334000,0.0324,0.013523,0.002678,0.000431,0.215429
88335000,0.0324,0.013523,0.002678,0.000431,0.531697
88336000,0.0324,0.013523,0.002678,0.000431,0.255154
88337000,0.0324,0.013523,0.002678,0.000431,0.202619
88338000,0.0324,0.013523,0.002678,0.000431,0.179348
88339000,0.0324,0.013523,0.002678,0.000431,0.165832
88340000,0.0324,0.013523,0.002678,0.000431,0.137743
88341000,0.0324,0.013523,0.002678,0.000431,0.124227
88342000,0.0324,0.013523,0.002678,0.000431,0.114825
88343000,0.0324,0.013523,0.002678,0.000431,0.100839
88344000,0.0324,0.013523,0.002678,0.000431,0.087558
88345000,0.0324,0.013523,0.002678,0.000431,0.078039
88346000,0.0324,0.013523,0.002678,0.000431,0.063465
88347000,0.0324,0.013523,0.002678,0.000431,0.053710
88348000,0.0324,0.013523,0.002678,0.000431,0.044778
88349000,0.0324,0.013523,0.002678,0.000431,0.040900
88350000,0.0324,0.013523,0.002678,0.000431,0.045954
88351000,0.0324,0.013523,0.002678,0.000431,0.029970
88352000,0.0324,0.013523,0.002678,0.000431,0.028912
88353000,0.0324,0.013523,0.002678,0.000431,0.030440
88354000,0.0324,0.013523,0.002678,0.000431,0.028442
88355000,0.0324,0.013523,0.002678,0.000431,0.018452
88356000,0.0324,0.013523,0.002678,0.000431,0.024093
88357000,0.0324,0.013523,0.002678,0.000431,0.014573
88358000,0.0324,0.013523,0.002678,0.000431,0.014691
88359000,0.0324,0.013523,0.002678,0.000431,0.014691
88360000,0.0324,0.013523,0.002678,0.000431,0.018922
88361000,0.0324,0.013523,0.002678,0.000431,0.010107
88362000,0.0324,0.013523,0.002678,0.000431,0.012811
88363000,0.0324,0.013523,0.002678,0.000431,0.005759
88364000,0.0324,0.013523,0.002678,0.000431,0.006934
88365000,0.0324,0.013523,0.002678,0.000431,0.004231
88366000,0.0324,0.013523,0.002678,0.000431,0.003878
88367000,0.0324,0.013523,0.002678,0.000431,0.006229
88368000,0.0324,0.013523,0.002678,0.000431,0.004584
88369000,0.0324,0.013523,0.002678,0.000431,0.001763
88370000,0.0324,0.013523,0.002678,0.000431,0.004584
88371000,0.0324,0.013523,0.002678,0.000431,0.037139
88372000,0.0324,0.013523,0.002678,0.000431,0.771455
88373000,0.0324,0.013523,0.002678,0.000431,0.567779
88374000,0.0324,0.013523,0.002678,0.000431,0.192394
88375000,0.0324,0.013523,0.002678,0.000431,0.163247
88376000,0.0324,0.013523,0.002678,0.000431,0.610911
88377000,0.0324,0.013523,0.002678,0.000431,0.243283
88378000,0.0324,0.013523,0.002678,0.000431,0.296641
88379000,0.0324,0.013523,0.002678,0.000431,0.254213
88380000,0.0324,0.013523,0.002678,0.000431,0.156900
88381000,0.0324,0.013523,0.002678,0.000431,0.157958
88382000,0.0324,0.013523,0.002678,0.000431,0.190983
88383000,0.0324,0.013523,0.002678,0.000431,0.484686
88384000,0.0324,0.013523,0.002678,0.000431,0.226829
88385000,0.0324,0.013523,0.002678,0.000431,0.204499
88386000,0.0324,0.013523,0.002678,0.000431,0.165362
88387000,0.0324,0.013523,0.002678,0.000431,0.138448
88388000,0.0324,0.013523,0.002678,0.000431,0.124932
88389000,0.0324,0.013523,0.002678,0.000431,0.105540
88390000,0.0324,0.013523,0.002678,0.000431,0.101192
88391000,0.0324,0.013523,0.002678,0.000431,0.094610
88392000,0.0324,0.013523,0.002678,0.000431,0.068284
88393000,0.0324,0.013523,0.002678,0.000431,0.068049
88394000,0.0324,0.013523,0.002678,0.000431,0.056414
88395000,0.0324,0.013523,0.002678,0.000431,0.046776
88396000,0.0324,0.013523,0.002678,0.000431,0.046189
88397000,0.0324,0.013523,0.002678,0.000431,0.042428
88398000,0.0324,0.013523,0.002678,0.000431,0.040900
88399000,0.0324,0.013523,0.002678,0.000431,0.031380
88400000,0.0324,0.013523,0.002678,0.000431,0.025151
88401000,0.0324,0.013523,0.002678,0.000431,0.019980
88402000,0.0324,0.013523,0.002678,0.000431,0.026326
88403000,0.0324,0.013523,0.002678,0.000431,0.026091
88404000,0.0324,0.013523,0.002678,0.000431,0.010460
88405000,0.0324,0.013523,0.002678,0.000431,0.009637
88406000,0.0324,0.013523,0.002678,0.000431,0.008580
88407000,0.0324,0.013523,0.002678,0.000431,0.007992
88408000,0.0324,0.013523,0.002678,0.000431,0.008815
88409000,0.0324,0.013523,0.002678,0.000431,0.009402
88410000,0.0324,0.013523,0.002678,0.000431,0.010930
88411000,0.0324,0.013523,0.002678,0.000431,0.006347
88412000,0.0324,0.013523,0.002678,0.000431,0.007052
88413000,0.0324,0.013523,0.002678,0.000431,0.005406
88414000,0.0324,0.013523,0.002678,0.000431,0.006111
88415000,0.0324,0.013523,0.002678,0.000431,0.005759
88416000,0.0324,0.013523,0.002678,0.000431,0.004349
88417000,0.0324,0.013523,0.002678,0.000431,0.004231
88418000,0.0324,0.013523,0.002678,0.000431,0.004584
88419000,0.0324,0.013523,0.002678,0.000431,0.003878
88420000,0.0324,0.013523,0.002678,0.000431,0.004584
88421000,0.0324,0.013523,0.002678,0.000431,0.004349
88422000,0.0324,0.013523,0.002678,0.000431,0.005876
88423000,0.0324,0.013523,0.002678,0.000431,0.006229
88424000,0.0324,0.013523,0.002678,0.000431,0.002586
88425000,0.0324,0.013523,0.002678,0.000431,0.002468
88426000,0.0324,0.013523,0.002678,0.000431,0.002703
88427000,0.0324,0.013523,0.002678,0.000431,0.002703
88428000,0.0324,0.013523,0.002678,0.000431,0.002351
88429000,0.0324,0.013523,0.002678,0.000431,0.002703
88430000,0.0324,0.013523,0.002678,0.000431,0.002468
88431000,0.0324,0.013523,0.002678,0.000431,0.002938
88432000,0.0324,0.013523,0.002678,0.000431,0.002468
88433000,0.0324,0.013523,0.002678,0.000431,0.005876
88434000,0.0324,0.013523,0.002678,0.000431,0.002116
88435000,0.0324,0.013523,0.002678,0.000431,0.001528
88436000,0.0324,0.013523,0.002678,0.000431,0.001880
88437000,0.0324,0.013523,0.002678,0.000431,0.001763
88438000,0.0324,0.013523,0.002678,0.000431,0.001645
88439000,0.0324,0.013523,0.002678,0.000431,0.001880
88440000,0.0324,0.013523,0.002678,0.000431,0.001645
88441000,0.0324,0.013523,0.002678,0.000431,0.001998
88442000,0.0324,0.013523,0.002678,0.000431,0.001528
88443000,0.0324,0.013523,0.002678,0.000431,0.001880
88444000,0.0324,0.013523,0.002678,0.000431,0.001645
88445000,0.0324,0.013523,0.002678,0.000431,0.001763
88446000,0.0324,0.013523,0.002678,0.000431,0.001880
88447000,0.0324,0.013523,0.002678,0.000431,0.001763
88448000,0.0324,0.013523,0.002678,0.000431,0.001645
88449000,0.0324,0.013523,0.002678,0.000431,0.001880
88450000,0.0324,0.013523,0.002678,0.000431,0.005054
88451000,0.0324,0.013523,0.002678,0.000431,0.000940
88452000,0.0324,0.013523,0.002678,0.000431,0.000940
88453000,0.0324,0.013523,0.002678,0.000431,0.000705
88454000,0.0324,0.013523,0.002678,0.000431,0.000940
88455000,0.0324,0.013523,0.002678,0.000431,0.000705
88456000,0.0324,0.013523,0.002678,0.000431,0.000940
88457000,0.0324,0.013523,0.002678,0.000431,0.000940
88458000,0.0324,0.013523,0.002678,0.000431,0.000705
88459000,0.0324,0.013523,0.002678,0.000431,0.000940
88460000,0.0324,0.013523,0.002678,0.000431,0.000705
88461000,0.0324,0.013523,0.002678,0.000431,0.000940
88462000,0.0324,0.013523,0.002678,0.000431,0.000823
88463000,0.0324,0.013523,0.002678,0.000431,0.000823
88464000,0.0324,0.013523,0.002678,0.000431,0.000823
88465000,0.0324,0.013523,0.002678,0.000431,0.000823
88466000,0.0324,0.013523,0.002678,0.000431,0.000940
88467000,0.0324,0.013523,0.002678,0.000431,0.000705
88468000,0.0324,0.013523,0.002678,0.000431,0.000940
88469000,0.0324,0.013523,0.002678,0.000431,0.000823
88470000,0.0324,0.013523,0.002678,0.000431,0.000823
88471000,0.0324,0.013523,0.002678,0.000431,0.000823
88472000,0.0324,0.013523,0.002678,0.000431,0.000823
88473000,0.0324,0.013523,0.002678,0.000431,0.000823
88474000,0.0324,0.013523,0.002678,0.000431,0.000823
88475000,0.0324,0.013523,0.002678,0.000431,0.000940
88476000,0.0324,0.013523,0.002678,0.000431,0.000823
88477000,0.0324,0.013523,0.002678,0.000431,0.000823
88478000,0.0324,0.013523,0.002678,0.000431,0.000705
88479000,0.0324,0.013523,0.002678,0.000431,0.000940
88480000,0.0324,0.013523,0.002678,0.000431,0.000940
88481000,0.0324,0.013523,0.002678,0.000431,0.000705
88482000,0.0324,0.013523,0.002678,0.000431,0.000940
88483000,0.0324,0.013523,0.002678,0.000431,0.000705
88484000,0.0324,0.013523,0.002678,0.000431,0.000940
88485000,0.0324,0.013523,0.002678,0.000431,0.000823
88486000,0.0324,0.013523,0.002678,0.000431,0.000823
88487000,0.0324,0.013523,0.002678,0.000431,0.000940
88488000,0.0324,0.013523,0.002678,0.000431,0.000705
88489000,0.0324,0.013523,0.002678,0.000431,0.000940
88490000,0.0324,0.013523,0.002678,0.000431,0.000823
88491000,0.0324,0.013523,0.002678,0.000431,0.000823
88492000,0.0324,0.013523,0.002678,0.000431,0.000823
88493000,0.0324,0.013523,0.002678,0.000431,0.000823
88494000,0.0324,0.013523,0.002678,0.000431,0.000823
88495000,0.0324,0.013523,0.002678,0.000431,0.000823
88496000,0.0324,0.013523,0.002678,0.000431,0.000940
88497000,0.0324,0.013523,0.002678,0.000431,0.000705
88498000,0.0324,0.013523,0.002678,0.000431,0.000823
88499000,0.0324,0.013523,0.002678,0.000431,0.000940
88500000,0.0324,0.013523,0.002678,0.000431,0.000823
88501000,0.0324,0.013523,0.002678,0.000431,0.000823
88502000,0.0324,0.013523,0.002678,0.000431,0.000823
88503000,0.0324,0.013523,0.002678,0.000431,0.000705
88504000,0.0324,0.013523,0.002678,0.000431,0.000940
88505000,0.0324,0.013523,0.002678,0.000431,0.000940
88506000,0.0324,0.013523,0.002678,0.000431,0.000705
88507000,0.0324,0.013523,0.002678,0.000431,0.000940
88508000,0.0324,0.013523,0.002678,0.000431,0.000705
88509000,0.0324,0.013523,0.002678,0.000431,0.000940
88510000,0.0324,0.013523,0.002678,0.000431,0.000940
88511000,0.0324,0.013523,0.002678,0.000431,0.000705
88512000,0.0324,0.013523,0.002678,0.000431,0.000940
88513000,0.0324,0.013523,0.002678,0.000431,0.000705
88514000,0.0324,0.013523,0.002678,0.000431,0.000940
88515000,0.0324,0.013523,0.002678,0.000431,0.000823
88516000,0.0324,0.013523,0.002678,0.000431,0.000823
88517000,0.0324,0.013523,0.002678,0.000431,0.000823
88518000,0.0324,0.013523,0.002678,0.000431,0.000823
88519000,0.0324,0.013523,0.002678,0.000431,0.000940
88520000,0.0324,0.013523,0.002678,0.000431,0.000705
88521000,0.0324,0.013523,0.002678,0.000431,0.000940
88522000,0.0324,0.013523,0.002678,0.000431,0.000823
88523000,0.0324,0.013523,0.002678,0.000431,0.000823
88524000,0.0324,0.013523,0.002678,0.000431,0.000823
88525000,0.0324,0.013523,0.002678,0.000431,0.000823
88526000,0.0324,0.013523,0.002678,0.000431,0.000823
88527000,0.0324,0.013523,0.002678,0.000431,0.000823
88528000,0.0324,0.013523,0.002678,0.000431,0.000940
88529000,0.0324,0.013523,0.002678,0.000431,0.000705
88530000,0.0324,0.013523,0.002678,0.000431,0.000940
88531000,0.0324,0.013523,0.002678,0.000431,0.000705
88532000,0.0324,0.013523,0.002678,0.000431,0.000940
88533000,0.0324,0.013523,0.002678,0.000431,0.000940
88534000,0.0324,0.013523,0.002678,0.000431,0.000705
88535000,0.0324,0.013523,0.002678,0.000431,0.000940
88536000,0.0324,0.013523,0.002678,0.000431,0.000705
88537000,0.0324,0.013523,0.002678,0.000431,0.000940
88538000,0.0324,0.013523,0.002678,0.000431,0.000823
88539000,0.0324,0.013523,0.002678,0.000431,0.000823
88540000,0.0324,0.013523,0.002678,0.000431,0.000823
88541000,0.0324,0.013523,0.002678,0.000431,0.000823
88542000,0.0324,0.013523,0.002678,0.000431,0.000940
88543000,0.0324,0.013523,0.002678,0.000431,0.000705
88544000,0.0324,0.013523,0.002678,0.000431,0.000940
88545000,0.0324,0.013523,0.002678,0.000431,0.000823
88546000,0.0324,0.013523,0.002678,0.000431,0.000823
88547000,0.0324,0.013523,0.002678,0.000431,0.000823
88548000,0.0324,0.013523,0.002678,0.000431,0.000823
88549000,0.0324,0.013523,0.002678,0.000431,0.000823
88550000,0.0324,0.013523,0.002678,0.000431,0.000823
88551000,0.0324,0.013523,0.002678,0.000431,0.000823
88552000,0.0324,0.013523,0.002678,0.000431,0.000940
88553000,0.0324,0.013523,0.002678,0.000431,0.000823
88554000,0.0324,0.013523,0.002678,0.000431,0.000823
88555000,0.0324,0.013523,0.002678,0.000431,0.000823
88556000,0.0324,0.013523,0.002678,0.000431,0.000705
88557000,0.0324,0.013523,0.002678,0.000431,0.000940
88558000,0.0324,0.013523,0.002678,0.000431,0.000940
88559000,0.0324,0.013523,0.002678,0.000431,0.000705
88560000,0.0324,0.013523,0.002678,0.000431,0.000940
88561000,0.0324,0.013523,0.002678,0.000431,0.000705
88562000,0.0324,0.013523,0.002678,0.000431,0.000940
88563000,0.0324,0.013523,0.002678,0.000431,0.000823
88564000,0.0324,0.013523,0.002678,0.000431,0.000823
88565000,0.0324,0.013523,0.002678,0.000431,0.000940
88566000,0.0324,0.013523,0.002678,0.000431,0.000705
88567000,0.0324,0.013523,0.002678,0.000431,0.000940
88568000,0.0324,0.013523,0.002678,0.000431,0.000823
88569000,0.0324,0.013523,0.002678,0.000431,0.000823
88570000,0.0324,0.013523,0.002678,0.000431,0.000823
88571000,0.0324,0.013523,0.002678,0.000431,0.000823
88572000,0.0324,0.013523,0.002678,0.000431,0.000940
88573000,0.0324,0.013523,0.002678,0.000431,0.000705
88574000,0.0324,0.013523,0.002678,0.000431,0.000940
88575000,0.0324,0.013523,0.002678,0.000431,0.000705
88576000,0.0324,0.013523,0.002678,0.000431,0.000940
88577000,0.0324,0.013523,0.002678,0.000431,0.000823
88578000,0.0324,0.013523,0.002678,0.000431,0.000823
88579000,0.0324,0.013523,0.002678,0.000431,0.000705
88580000,0.0324,0.013523,0.002678,0.000431,0.000940
88581000,0.0324,0.013523,0.002678,0.000431,0.000940
88582000,0.0324,0.013523,0.002678,0.000431,0.000705
88583000,0.0324,0.013523,0.002678,0.000431,0.000940
88584000,0.0324,0.013523,0.002678,0.000431,0.000705
88585000,0.0324,0.013523,0.002678,0.000431,0.000940
88586000,0.0324,0.013523,0.002678,0.000431,0.000823
88587000,0.0324,0.013523,0.002678,0.000431,0.000823
88588000,0.0324,0.013523,0.002678,0.000431,0.000940
88589000,0.0324,0.013523,0.002678,0.000431,0.000705
88590000,0.0324,0.013523,0.002678,0.000431,0.000940
88591000,0.0324,0.013523,0.002678,0.000431,0.000823
88592000,0.0324,0.013523,0.002678,0.000431,0.000823
88593000,0.0324,0.013523,0.002678,0.000431,0.000823
88594000,0.0324,0.013523,0.002678,0.000431,0.000823
88595000,0.0324,0.013523,0.002678,0.000431,0.000823
88596000,0.0324,0.013523,0.002678,0.000431,0.000823
88597000,0.0324,0.013523,0.002678,0.000431,0.000940
88598000,0.0324,0.013523,0.002678,0.000431,0.000823
88599000,0.0324,0.013523,0.002678,0.000431,0.000823
88600000,0.0324,0.013523,0.002678,0.000431,0.000823
88601000,0.0324,0.013523,0.002678,0.000431,0.000823
88602000,0.0324,0.013523,0.002678,0.000431,0.000823
88603000,0.0324,0.013523,0.002678,0.000431,0.000823
88604000,0.0324,0.013523,0.002678,0.000431,0.000823
88605000,0.0324,0.013523,0.002678,0.000431,0.000823
88606000,0.0324,0.013523,0.002678,0.000431,0.000940
88607000,0.0324,0.013523,0.002678,0.000431,0.000823
88608000,0.0324,0.013523,0.002678,0.000431,0.000823
88609000,0.0324,0.013523,0.002678,0.000431,0.000705
88610000,0.0324,0.013523,0.002678,0.000431,0.000940
88611000,0.0324,0.013523,0.002678,0.000431,0.000940
88612000,0.0324,0.013523,0.002678,0.000431,0.000705
88613000,0.0324,0.013523,0.002678,0.000431,0.000940
88614000,0.0324,0.013523,0.002678,0.000431,0.000705
88615000,0.0324,0.013523,0.002678,0.000431,0.000940
88616000,0.0324,0.013523,0.002678,0.000431,0.000823
88617000,0.0324,0.013523,0.002678,0.000431,0.000823
88618000,0.0324,0.013523,0.002678,0.000431,0.000940
88619000,0.0324,0.013523,0.002678,0.000431,0.000705
88620000,0.0324,0.013523,0.002678,0.000431,0.000940
88621000,0.0324,0.013523,0.002678,0.000431,0.000823
88622000,0.0324,0.013523,0.002678,0.000431,0.000823
88623000,0.0324,0.013523,0.002678,0.000431,0.000823
88624000,0.0324,0.013523,0.002678,0.000431,0.000823
88625000,0.0324,0.013523,0.002678,0.000431,0.000823
88626000,0.0324,0.013523,0.002678,0.000431,0.000823
88627000,0.0324,0.013523,0.002678,0.000431,0.000940
88628000,0.0324,0.013523,0.002678,0.000431,0.000705
88629000,0.0324,0.013523,0.002678,0.000431,0.000940
88630000,0.0324,0.013523,0.002678,0.000431,0.000823
88631000,0.0324,0.013523,0.002678,0.000431,0.000823
88632000,0.0324,0.013523,0.002678,0.000431,0.000705
88633000,0.0324,0.013523,0.002678,0.000431,0.000940
88634000,0.0324,0.013523,0.002678,0.000431,0.000940
88635000,0.0324,0.013523,0.002678,0.000431,0.000705
88636000,0.0324,0.013523,0.002678,0.000431,0.000940
88637000,0.0324,0.013523,0.002678,0.000431,0.000705
88638000,0.0324,0.013523,0.002678,0.000431,0.000940
88639000,0.0324,0.013523,0.002678,0.000431,0.000823
88640000,0.0324,0.013523,0.002678,0.000431,0.000823
88641000,0.0324,0.013523,0.002678,0.000431,0.000940
88642000,0.0324,0.013523,0.002678,0.000431,0.000705
88643000,0.0324,0.013523,0.002678,0.000431,0.000940
88644000,0.0324,0.013523,0.002678,0.000431,0.000823
88645000,0.0324,0.013523,0.002678,0.000431,0.000823
88646000,0.0324,0.013523,0.002678,0.000431,0.000823
88647000,0.0324,0.013523,0.002678,0.000431,0.000823
88648000,0.0324,0.013523,0.002678,0.000431,0.000823
88649000,0.0324,0.013523,0.002678,0.000431,0.000823
88650000,0.0324,0.013523,0.002678,0.000431,0.000823
88651000,0.0324,0.013523,0.002678,0.000431,0.000823
88652000,0.0324,0.013523,0.002678,0.000431,0.000823
88653000,0.0324,0.013523,0.002678,0.000431,0.000940
88654000,0.0324,0.013523,0.002678,0.000431,0.000823
88655000,0.0324,0.013523,0.002678,0.000431,0.000823
88656000,0.0324,0.013523,0.002678,0.000431,0.000823
88657000,0.0324,0.013523,0.002678,0.000431,0.000705
88658000,0.0324,0.013523,0.002678,0.000431,0.238582
88659000,0.0324,0.013523,0.002678,0.000431,0.688128
88660000,0.0324,0.013523,0.002678,0.000431,0.457302
88661000,0.0324,0.013523,0.002678,0.000431,0.145970
88662000,0.0324,0.013523,0.002678,0.000431,0.187810
88663000,0.0324,0.013523,0.002678,0.000431,0.622664
88664000,0.0324,0.013523,0.002678,0.000431,0.265144
88665000,0.0324,0.013523,0.002678,0.000431,0.354935
88666000,0.0324,0.013523,0.002678,0.000431,0.175117
88667000,0.0324,0.013523,0.002678,0.000431,0.169006
88668000,0.0324,0.013523,0.002678,0.000431,0.101427
88669000,0.0324,0.013523,0.002678,0.000431,0.506429
88670000,0.0324,0.013523,0.002678,0.000431,0.320969
88671000,0.0324,0.013523,0.002678,0.000431,0.231295
88672000,0.0324,0.013523,0.002678,0.000431,0.187928
88673000,0.0324,0.013523,0.002678,0.000431,0.160308
88674000,0.0324,0.013523,0.002678,0.000431,0.128811
88675000,0.0324,0.013523,0.002678,0.000431,0.128341
88676000,0.0324,0.013523,0.002678,0.000431,0.109771
88677000,0.0324,0.013523,0.002678,0.000431,0.090614
88678000,0.0324,0.013523,0.002678,0.000431,0.079567
88679000,0.0324,0.013523,0.002678,0.000431,0.064405
88680000,0.0324,0.013523,0.002678,0.000431,0.059939
88681000,0.0324,0.013523,0.002678,0.000431,0.052183
88682000,0.0324,0.013523,0.002678,0.000431,0.038432
88683000,0.0324,0.013523,0.002678,0.000431,0.048304
88684000,0.0324,0.013523,0.002678,0.000431,0.039607
88685000,0.0324,0.013523,0.002678,0.000431,0.039489
88686000,0.0324,0.013523,0.002678,0.000431,0.023623
88687000,0.0324,0.013523,0.002678,0.000431,0.023741
88688000,0.0324,0.013523,0.002678,0.000431,0.019510
88689000,0.0324,0.013523,0.002678,0.000431,0.018334
88690000,0.0324,0.013523,0.002678,0.000431,0.013751
88691000,0.0324,0.013523,0.002678,0.000431,0.011165
88692000,0.0324,0.013523,0.002678,0.000431,0.012458
88693000,0.0324,0.013523,0.002678,0.000431,0.010813
88694000,0.0324,0.013523,0.002678,0.000431,0.008462
88695000,0.0324,0.013523,0.002678,0.000431,0.012458
88696000,0.0324,0.013523,0.002678,0.000431,0.011283
88697000,0.0324,0.013523,0.002678,0.000431,0.009050
88698000,0.0324,0.013523,0.002678,0.000431,0.004349
88699000,0.0324,0.013523,0.002678,0.000431,0.006934
88700000,0.0324,0.013523,0.002678,0.000431,0.006111
88701000,0.0324,0.013523,0.002678,0.000431,0.003996
88702000,0.0324,0.013523,0.002678,0.000431,0.001880
88703000,0.0324,0.013523,0.002678,0.000431,0.002351
88704000,0.0324,0.013523,0.002678,0.000431,0.001880
88705000,0.0324,0.013523,0.002678,0.000431,0.000823
88706000,0.0324,0.013523,0.002678,0.000431,0.000940
88707000,0.0324,0.013523,0.002678,0.000431,0.000940
88708000,0.0324,0.013523,0.002678,0.000431,0.000823
88709000,0.0324,0.013523,0.002678,0.000431,0.000823
88710000,0.0324,0.013523,0.002678,0.000431,0.000940
88711000,0.0324,0.013523,0.002678,0.000431,0.000940
88712000,0.0324,0.013523,0.002678,0.000431,0.000705
88713000,0.0324,0.013523,0.002678,0.000431,0.000940
88714000,0.0324,0.013523,0.002678,0.000431,0.000940
88715000,0.0324,0.013523,0.002678,0.000431,0.000940
88716000,0.0324,0.013523,0.002678,0.000431,0.000705
88717000,0.0324,0.013523,0.002678,0.000431,0.000940
88718000,0.0324,0.013523,0.002678,0.000431,0.000940
88719000,0.0324,0.013523,0.002678,0.000431,0.000940
88720000,0.0324,0.013523,0.002678,0.000431,0.000705
88721000,0.0324,0.013523,0.002678,0.000431,0.000940
88722000,0.0324,0.013523,0.002678,0.000431,0.000940
88723000,0.0324,0.013523,0.002678,0.000431,0.000823
88724000,0.0324,0.013523,0.002678,0.000431,0.000940
88725000,0.0324,0.013523,0.002678,0.000431,0.000823
88726000,0.0324,0.013523,0.002678,0.000431,0.000940
88727000,0.0324,0.013523,0.002678,0.000431,0.000823
88728000,0.0324,0.013523,0.002678,0.000431,0.000823
88729000,0.0324,0.013523,0.002678,0.000431,0.000940
88730000,0.0324,0.013523,0.002678,0.000431,0.000940
88731000,0.0324,0.013523,0.002678,0.000431,0.001058
88732000,0.0324,0.013523,0.002678,0.000431,0.301107
88733000,0.0324,0.013523,0.002678,0.000431,0.753591
88734000,0.0324,0.013523,0.002678,0.000431,0.415227
88735000,0.0324,0.013523,0.002678,0.000431,0.164539
88736000,0.0324,0.013523,0.002678,0.000431,0.297346
88737000,0.0324,0.013523,0.002678,0.000431,0.533108
88738000,0.0324,0.013523,0.002678,0.000431,0.303693
88739000,0.0324,0.013523,0.002678,0.000431,0.356463
88740000,0.0324,0.013523,0.002678,0.000431,0.150554
88741000,0.0324,0.013523,0.002678,0.000431,0.130926
88742000,0.0324,0.013523,0.002678,0.000431,0.240228
88743000,0.0324,0.013523,0.002678,0.000431,0.493031
88744000,0.0324,0.013523,0.002678,0.000431,0.212608
88745000,0.0324,0.013523,0.002678,0.000431,0.195097
88746000,0.0324,0.013523,0.002678,0.000431,0.162071
88747000,0.0324,0.013523,0.002678,0.000431,0.139271
88748000,0.0324,0.013523,0.002678,0.000431,0.116588
88749000,0.0324,0.013523,0.002678,0.000431,0.101074
88750000,0.0324,0.013523,0.002678,0.000431,0.084385
88751000,0.0324,0.013523,0.002678,0.000431,0.076041
88752000,0.0324,0.013523,0.002678,0.000431,0.080624
88753000,0.0324,0.013523,0.002678,0.000431,0.062172
88754000,0.0324,0.013523,0.002678,0.000431,0.057354
88755000,0.0324,0.013523,0.002678,0.000431,0.046541
88756000,0.0324,0.013523,0.002678,0.000431,0.052653
88757000,0.0324,0.013523,0.002678,0.000431,0.038079
88758000,0.0324,0.013523,0.002678,0.000431,0.026679
88759000,0.0324,0.013523,0.002678,0.000431,0.030675
88760000,0.0324,0.013523,0.002678,0.000431,0.025386
88761000,0.0324,0.013523,0.002678,0.000431,0.024681
88762000,0.0324,0.013523,0.002678,0.000431,0.021978
88763000,0.0324,0.013523,0.002678,0.000431,0.016454
88764000,0.0324,0.013523,0.002678,0.000431,0.013633
88765000,0.0324,0.013523,0.002678,0.000431,0.013986
88766000,0.0324,0.013523,0.002678,0.000431,0.010107
88767000,0.0324,0.013523,0.002678,0.000431,0.011048
88768000,0.0324,0.013523,0.002678,0.000431,0.010342
88769000,0.0324,0.013523,0.002678,0.000431,0.010578
88770000,0.0324,0.013523,0.002678,0.000431,0.010930
88771000,0.0324,0.013523,0.002678,0.000431,0.013986
88772000,0.0324,0.013523,0.002678,0.000431,0.018099
88773000,0.0324,0.013523,0.002678,0.000431,0.003408
88774000,0.0324,0.013523,0.002678,0.000431,0.004113
88775000,0.0324,0.013523,0.002678,0.000431,0.001528
88776000,0.0324,0.013523,0.002678,0.000431,0.001880
88777000,0.0324,0.013523,0.002678,0.000431,0.001528
88778000,0.0324,0.013523,0.002678,0.000431,0.001763
88779000,0.0324,0.013523,0.002678,0.000431,0.001645
88780000,0.0324,0.013523,0.002678,0.000431,0.001645
88781000,0.0324,0.013523,0.002678,0.000431,0.001645
88782000,0.0324,0.013523,0.002678,0.000431,0.001645
88783000,0.0324,0.013523,0.002678,0.000431,0.005641
88784000,0.0324,0.013523,0.002678,0.000431,0.000940
88785000,0.0324,0.013523,0.002678,0.000431,0.000705
88786000,0.0324,0.013523,0.002678,0.000431,0.000823
88787000,0.0324,0.013523,0.002678,0.000431,0.000940
88788000,0.0324,0.013523,0.002678,0.000431,0.000823
88789000,0.0324,0.013523,0.002678,0.000431,0.000823
88790000,0.0324,0.013523,0.002678,0.000431,0.000705
88791000,0.0324,0.013523,0.002678,0.000431,0.244694
88792000,0.0324,0.013523,0.002678,0.000431,0.701996
88793000,0.0324,0.013523,0.002678,0.000431,0.462826
88794000,0.0324,0.013523,0.002678,0.000431,0.141269
88795000,0.0324,0.013523,0.002678,0.000431,0.177350
88796000,0.0324,0.013523,0.002678,0.000431,0.617023
88797000,0.0324,0.013523,0.002678,0.000431,0.261030
88798000,0.0324,0.013523,0.002678,0.000431,0.299932
88799000,0.0324,0.013523,0.002678,0.000431,0.168770
88800000,0.0324,0.013523,0.002678,0.000431,0.161836
88801000,0.0324,0.013523,0.002678,0.000431,0.100604
88802000,0.0324,0.013523,0.002678,0.000431,0.399478
88803000,0.0324,0.013523,0.002678,0.000431,0.339186
88804000,0.0324,0.013523,0.002678,0.000431,0.178878
88805000,0.0324,0.013523,0.002678,0.000431,0.150083
88806000,0.0324,0.013523,0.002678,0.000431,0.128106
88807000,0.0324,0.013523,0.002678,0.000431,0.103072
88808000,0.0324,0.013523,0.002678,0.000431,0.090732
88809000,0.0324,0.013523,0.002678,0.000431,0.073925
88810000,0.0324,0.013523,0.002678,0.000431,0.069812
88811000,0.0324,0.013523,0.002678,0.000431,0.056414
88812000,0.0324,0.013523,0.002678,0.000431,0.047364
88813000,0.0324,0.013523,0.002678,0.000431,0.035023
88814000,0.0324,0.013523,0.002678,0.000431,0.033260
88815000,0.0324,0.013523,0.002678,0.000431,0.025621
88816000,0.0324,0.013523,0.002678,0.000431,0.027619
88817000,0.0324,0.013523,0.002678,0.000431,0.022095
88818000,0.0324,0.013523,0.002678,0.000431,0.021625
88819000,0.0324,0.013523,0.002678,0.000431,0.012811
88820000,0.0324,0.013523,0.002678,0.000431,0.012928
88821000,0.0324,0.013523,0.002678,0.000431,0.007874
88822000,0.0324,0.013523,0.002678,0.000431,0.008345
88823000,0.0324,0.013523,0.002678,0.000431,0.005406
88824000,0.0324,0.013523,0.002678,0.000431,0.007169
88825000,0.0324,0.013523,0.002678,0.000431,0.007757
88826000,0.0324,0.013523,0.002678,0.000431,0.004113
88827000,0.0324,0.013523,0.002678,0.000431,0.003878
88828000,0.0324,0.013523,0.002678,0.000431,0.005876
88829000,0.0324,0.013523,0.002678,0.000431,0.004466
88830000,0.0324,0.013523,0.002678,0.000431,0.004349
88831000,0.0324,0.013523,0.002678,0.000431,0.002586
88832000,0.0324,0.013523,0.002678,0.000431,0.002351
88833000,0.0324,0.013523,0.002678,0.000431,0.002351
88834000,0.0324,0.013523,0.002678,0.000431,0.002233
88835000,0.0324,0.013523,0.002678,0.000431,0.002468
88836000,0.0324,0.013523,0.002678,0.000431,0.002821
88837000,0.0324,0.013523,0.002678,0.000431,0.001880
88838000,0.0324,0.013523,0.002678,0.000431,0.004701
88839000,0.0324,0.013523,0.002678,0.000431,0.003526
88840000,0.0324,0.013523,0.002678,0.000431,0.001763
88841000,0.0324,0.013523,0.002678,0.000431,0.001645
88842000,0.0324,0.013523,0.002678,0.000431,0.001645
88843000,0.0324,0.013523,0.002678,0.000431,0.016454
88844000,0.0324,0.013523,0.002678,0.000431,0.678960
88845000,0.0324,0.013523,0.002678,0.000431,0.575418
88846000,0.0324,0.013523,0.002678,0.000431,0.157605
88847000,0.0324,0.013523,0.002678,0.000431,0.153492
88848000,0.0324,0.013523,0.002678,0.000431,0.600687
88849000,0.0324,0.013523,0.002678,0.000431,0.285476
88850000,0.0324,0.013523,0.002678,0.000431,0.292410
88851000,0.0324,0.013523,0.002678,0.000431,0.277014
88852000,0.0324,0.013523,0.002678,0.000431,0.150201
88853000,0.0324,0.013523,0.002678,0.000431,0.114825
88854000,0.0324,0.013523,0.002678,0.000431,0.328726
88855000,0.0324,0.013523,0.002678,0.000431,0.412759
88856000,0.0324,0.013523,0.002678,0.000431,0.204264
88857000,0.0324,0.013523,0.002678,0.000431,0.170651
88858000,0.0324,0.013523,0.002678,0.000431,0.128458
88859000,0.0324,0.013523,0.002678,0.000431,0.115883
88860000,0.0324,0.013523,0.002678,0.000431,0.089909
88861000,0.0324,0.013523,0.002678,0.000431,0.075101
88862000,0.0324,0.013523,0.002678,0.000431,0.072750
88863000,0.0324,0.013523,0.002678,0.000431,0.052535
88864000,0.0324,0.013523,0.002678,0.000431,0.036434
88865000,0.0324,0.013523,0.002678,0.000431,0.032203
88866000,0.0324,0.013523,0.002678,0.000431,0.027031
88867000,0.0324,0.013523,0.002678,0.000431,0.024916
88868000,0.0324,0.013523,0.002678,0.000431,0.024211
88869000,0.0324,0.013523,0.002678,0.000431,0.021155
88870000,0.0324,0.013523,0.002678,0.000431,0.024211
88871000,0.0324,0.013523,0.002678,0.000431,0.013633
88872000,0.0324,0.013523,0.002678,0.000431,0.014103
88873000,0.0324,0.013523,0.002678,0.000431,0.015396
88874000,0.0324,0.013523,0.002678,0.000431,0.012105
88875000,0.0324,0.013523,0.002678,0.000431,0.011165
88876000,0.0324,0.013523,0.002678,0.000431,0.016924
88877000,0.0324,0.013523,0.002678,0.000431,0.007287
88878000,0.0324,0.013523,0.002678,0.000431,0.003996
88879000,0.0324,0.013523,0.002678,0.000431,0.005759
88880000,0.0324,0.013523,0.002678,0.000431,0.003291
88881000,0.0324,0.013523,0.002678,0.000431,0.003291
88882000,0.0324,0.013523,0.002678,0.000431,0.003056
88883000,0.0324,0.013523,0.002678,0.000431,0.003173
88884000,0.0324,0.013523,0.002678,0.000431,0.003291
88885000,0.0324,0.013523,0.002678,0.000431,0.005524
88886000,0.0324,0.013523,0.002678,0.000431,0.002233
88887000,0.0324,0.013523,0.002678,0.000431,0.002351
88888000,0.0324,0.013523,0.002678,0.000431,0.002586
88889000,0.0324,0.013523,0.002678,0.000431,0.002351
88890000,0.0324,0.013523,0.002678,0.000431,0.002468
88891000,0.0324,0.013523,0.002678,0.000431,0.002351
88892000,0.0324,0.013523,0.002678,0.000431,0.002468
88893000,0.0324,0.013523,0.002678,0.000431,0.002586
88894000,0.0324,0.013523,0.002678,0.000431,0.002116
88895000,0.0324,0.013523,0.002678,0.000431,0.002468
88896000,0.0324,0.013523,0.002678,0.000431,0.002468
88897000,0.0324,0.013523,0.002678,0.000431,0.002586
88898000,0.0324,0.013523,0.002678,0.000431,0.002233
88899000,0.0324,0.013523,0.002678,0.000431,0.002468
88900000,0.0324,0.013523,0.002678,0.000431,0.002586
88901000,0.0324,0.013523,0.002678,0.000431,0.002233
88902000,0.0324,0.013523,0.002678,0.000431,0.002586
88903000,0.0324,0.013523,0.002678,0.000431,0.002468
88904000,0.0324,0.013523,0.002678,0.000431,0.003291
88905000,0.0324,0.013523,0.002678,0.000431,0.000940
88906000,0.0324,0.013523,0.002678,0.000431,0.000940
88907000,0.0324,0.013523,0.002678,0.000431,0.274428
88908000,0.0324,0.013523,0.002678,0.000431,0.739017
88909000,0.0324,0.013523,0.002678,0.000431,0.374562
88910000,0.0324,0.013523,0.002678,0.000431,0.138213
88911000,0.0324,0.013523,0.002678,0.000431,0.226594
88912000,0.0324,0.013523,0.002678,0.000431,0.559199
88913000,0.0324,0.013523,0.002678,0.000431,0.257857
88914000,0.0324,0.013523,0.002678,0.000431,0.346708
88915000,0.0324,0.013523,0.002678,0.000431,0.139271
88916000,0.0324,0.013523,0.002678,0.000431,0.174999
88917000,0.0324,0.013523,0.002678,0.000431,0.096961
88918000,0.0324,0.013523,0.002678,0.000431,0.483981
88919000,0.0324,0.013523,0.002678,0.000431,0.249160
88920000,0.0324,0.013523,0.002678,0.000431,0.167243
88921000,0.0324,0.013523,0.002678,0.000431,0.146205
88922000,0.0324,0.013523,0.002678,0.000431,0.126813
88923000,0.0324,0.013523,0.002678,0.000431,0.104600
88924000,0.0324,0.013523,0.002678,0.000431,0.084503
88925000,0.0324,0.013523,0.002678,0.000431,0.086853
88926000,0.0324,0.013523,0.002678,0.000431,0.065816
88927000,0.0324,0.013523,0.002678,0.000431,0.058529
88928000,0.0324,0.013523,0.002678,0.000431,0.060997
88929000,0.0324,0.013523,0.002678,0.000431,0.051712
88930000,0.0324,0.013523,0.002678,0.000431,0.043250
88931000,0.0324,0.013523,0.002678,0.000431,0.041017
88932000,0.0324,0.013523,0.002678,0.000431,0.039725
88933000,0.0324,0.013523,0.002678,0.000431,0.030557
88934000,0.0324,0.013523,0.002678,0.000431,0.035023
88935000,0.0324,0.013523,0.002678,0.000431,0.022565
88936000,0.0324,0.013523,0.002678,0.000431,0.022918
88937000,0.0324,0.013523,0.002678,0.000431,0.022918
88938000,0.0324,0.013523,0.002678,0.000431,0.017982
88939000,0.0324,0.013523,0.002678,0.000431,0.026444
88940000,0.0324,0.013523,0.002678,0.000431,0.018922
88941000,0.0324,0.013523,0.002678,0.000431,0.010107
88942000,0.0324,0.013523,0.002678,0.000431,0.007522
88943000,0.0324,0.013523,0.002678,0.000431,0.010813
88944000,0.0324,0.013523,0.002678,0.000431,0.006699
88945000,0.0324,0.013523,0.002678,0.000431,0.006817
88946000,0.0324,0.013523,0.002678,0.000431,0.006464
88947000,0.0324,0.013523,0.002678,0.000431,0.006582
88948000,0.0324,0.013523,0.002678,0.000431,0.011283
88949000,0.0324,0.013523,0.002678,0.000431,0.005759
88950000,0.0324,0.013523,0.002678,0.000431,0.008815
88951000,0.0324,0.013523,0.002678,0.000431,0.003526
88952000,0.0324,0.013523,0.002678,0.000431,0.003761
88953000,0.0324,0.013523,0.002678,0.000431,0.003408
88954000,0.0324,0.013523,0.002678,0.000431,0.003408
88955000,0.0324,0.013523,0.002678,0.000431,0.003408
88956000,0.0324,0.013523,0.002678,0.000431,0.005406
88957000,0.0324,0.013523,0.002678,0.000431,0.002703
88958000,0.0324,0.013523,0.002678,0.000431,0.003878
88959000,0.0324,0.013523,0.002678,0.000431,0.003408
88960000,0.0324,0.013523,0.002678,0.000431,0.001763
88961000,0.0324,0.013523,0.002678,0.000431,0.001763
88962000,0.0324,0.013523,0.002678,0.000431,0.003761
88963000,0.0324,0.013523,0.002678,0.000431,0.000823
88964000,0.0324,0.013523,0.002678,0.000431,0.000823
88965000,0.0324,0.013523,0.002678,0.000431,0.000940
88966000,0.0324,0.013523,0.002678,0.000431,0.000823
88967000,0.0324,0.013523,0.002678,0.000431,0.000823
88968000,0.0324,0.013523,0.002678,0.000431,0.000705
88969000,0.0324,0.013523,0.002678,0.000431,0.000940
88970000,0.0324,0.013523,0.002678,0.000431,0.230590
88971000,0.0324,0.013523,0.002678,0.000431,0.622899
88972000,0.0324,0.013523,0.002678,0.000431,0.490445
88973000,0.0324,0.013523,0.002678,0.000431,0.135392
88974000,0.0324,0.013523,0.002678,0.000431,0.145735
88975000,0.0324,0.013523,0.002678,0.000431,0.623134
88976000,0.0324,0.013523,0.002678,0.000431,0.227064
88977000,0.0324,0.013523,0.002678,0.000431,0.356110
88978000,0.0324,0.013523,0.002678,0.000431,0.229180
88979000,0.0324,0.013523,0.002678,0.000431,0.150554
88980000,0.0324,0.013523,0.002678,0.000431,0.097901
88981000,0.0324,0.013523,0.002678,0.000431,0.430623
88982000,0.0324,0.013523,0.002678,0.000431,0.353877
88983000,0.0324,0.013523,0.002678,0.000431,0.203206
88984000,0.0324,0.013523,0.002678,0.000431,0.167478
88985000,0.0324,0.013523,0.002678,0.000431,0.161484
88986000,0.0324,0.013523,0.002678,0.000431,0.136685
88987000,0.0324,0.013523,0.002678,0.000431,0.126930
88988000,0.0324,0.013523,0.002678,0.000431,0.094375
88989000,0.0324,0.013523,0.002678,0.000431,0.090849
88990000,0.0324,0.013523,0.002678,0.000431,0.091672
88991000,0.0324,0.013523,0.002678,0.000431,0.071222
88992000,0.0324,0.013523,0.002678,0.000431,0.061232
88993000,0.0324,0.013523,0.002678,0.000431,0.051595
88994000,0.0324,0.013523,0.002678,0.000431,0.050420
88995000,0.0324,0.013523,0.002678,0.000431,0.054768
88996000,0.0324,0.013523,0.002678,0.000431,0.038079
88997000,0.0324,0.013523,0.002678,0.000431,0.036786
88998000,0.0324,0.013523,0.002678,0.000431,0.035729
88999000,0.0324,0.013523,0.002678,0.000431,0.019627
