Cycle,Area(mm^2),PeakDynamic(W),SubthresholdLeakage(W),GateLeakage(W),RunTimeDynamic(W)
56000000,0.0324,0.013523,0.002678,0.000431,0.653574
56001000,0.0324,0.013523,0.002678,0.000431,0.551795
56002000,0.0324,0.013523,0.002678,0.000431,0.136333
56003000,0.0324,0.013523,0.002678,0.000431,0.136333
56004000,0.0324,0.013523,0.002678,0.000431,0.526056
56005000,0.0324,0.013523,0.002678,0.000431,0.234939
56006000,0.0324,0.013523,0.002678,0.000431,0.349646
56007000,0.0324,0.013523,0.002678,0.000431,0.197330
56008000,0.0324,0.013523,0.002678,0.000431,0.166185
56009000,0.0324,0.013523,0.002678,0.000431,0.106598
56010000,0.0324,0.013523,0.002678,0.000431,0.522765
56011000,0.0324,0.013523,0.002678,0.000431,0.205204
56012000,0.0324,0.013523,0.002678,0.000431,0.150554
56013000,0.0324,0.013523,0.002678,0.000431,0.129046
56014000,0.0324,0.013523,0.002678,0.000431,0.111534
56015000,0.0324,0.013523,0.002678,0.000431,0.087441
56016000,0.0324,0.013523,0.002678,0.000431,0.065581
56017000,0.0324,0.013523,0.002678,0.000431,0.047129
56018000,0.0324,0.013523,0.002678,0.000431,0.030205
56019000,0.0324,0.013523,0.002678,0.000431,0.024563
56020000,0.0324,0.013523,0.002678,0.000431,0.022683
56021000,0.0324,0.013523,0.002678,0.000431,0.023153
56022000,0.0324,0.013523,0.002678,0.000431,0.010813
56023000,0.0324,0.013523,0.002678,0.000431,0.003761
56024000,0.0324,0.013523,0.002678,0.000431,0.002703
56025000,0.0324,0.013523,0.002678,0.000431,0.005876
56026000,0.0324,0.013523,0.002678,0.000431,0.002351
56027000,0.0324,0.013523,0.002678,0.000431,0.000940
56028000,0.0324,0.013523,0.002678,0.000431,0.015279
56029000,0.0324,0.013523,0.002678,0.000431,0.682839
56030000,0.0324,0.013523,0.002678,0.000431,0.574595
56031000,0.0324,0.013523,0.002678,0.000431,0.139153
56032000,0.0324,0.013523,0.002678,0.000431,0.139976
56033000,0.0324,0.013523,0.002678,0.000431,0.544626
56034000,0.0324,0.013523,0.002678,0.000431,0.295348
56035000,0.0324,0.013523,0.002678,0.000431,0.307336
56036000,0.0324,0.013523,0.002678,0.000431,0.187340
56037000,0.0324,0.013523,0.002678,0.000431,0.180523
56038000,0.0324,0.013523,0.002678,0.000431,0.092495
56039000,0.0324,0.013523,0.002678,0.000431,0.550972
56040000,0.0324,0.013523,0.002678,0.000431,0.181228
56041000,0.0324,0.013523,0.002678,0.000431,0.131161
56042000,0.0324,0.013523,0.002678,0.000431,0.115295
56043000,0.0324,0.013523,0.002678,0.000431,0.113180
56044000,0.0324,0.013523,0.002678,0.000431,0.086031
56045000,0.0324,0.013523,0.002678,0.000431,0.066168
56046000,0.0324,0.013523,0.002678,0.000431,0.052535
56047000,0.0324,0.013523,0.002678,0.000431,0.040900
56048000,0.0324,0.013523,0.002678,0.000431,0.021860
56049000,0.0324,0.013523,0.002678,0.000431,0.020920
56050000,0.0324,0.013523,0.002678,0.000431,0.009285
56051000,0.0324,0.013523,0.002678,0.000431,0.009755
56052000,0.0324,0.013523,0.002678,0.000431,0.001175
56053000,0.0324,0.013523,0.002678,0.000431,0.001763
56054000,0.0324,0.013523,0.002678,0.000431,0.000940
56055000,0.0324,0.013523,0.002678,0.000431,0.001528
56056000,0.0324,0.013523,0.002678,0.000431,0.001293
56057000,0.0324,0.013523,0.002678,0.000431,0.001058
56058000,0.0324,0.013523,0.002678,0.000431,0.001880
56059000,0.0324,0.013523,0.002678,0.000431,0.001175
56060000,0.0324,0.013523,0.002678,0.000431,0.001293
56061000,0.0324,0.013523,0.002678,0.000431,0.001293
56062000,0.0324,0.013523,0.002678,0.000431,0.001175
56063000,0.0324,0.013523,0.002678,0.000431,0.002351
56064000,0.0324,0.013523,0.002678,0.000431,0.523588
56065000,0.0324,0.013523,0.002678,0.000431,0.718097
56066000,0.0324,0.013523,0.002678,0.000431,0.142562
56067000,0.0324,0.013523,0.002678,0.000431,0.136803
56068000,0.0324,0.013523,0.002678,0.000431,0.494676
56069000,0.0324,0.013523,0.002678,0.000431,0.234821
56070000,0.0324,0.013523,0.002678,0.000431,0.313448
56071000,0.0324,0.013523,0.002678,0.000431,0.191688
56072000,0.0324,0.013523,0.002678,0.000431,0.175587
56073000,0.0324,0.013523,0.002678,0.000431,0.113767
56074000,0.0324,0.013523,0.002678,0.000431,0.516301
56075000,0.0324,0.013523,0.002678,0.000431,0.247984
56076000,0.0324,0.013523,0.002678,0.000431,0.185224
56077000,0.0324,0.013523,0.002678,0.000431,0.149378
56078000,0.0324,0.013523,0.002678,0.000431,0.132454
56079000,0.0324,0.013523,0.002678,0.000431,0.100134
56080000,0.0324,0.013523,0.002678,0.000431,0.087676
56081000,0.0324,0.013523,0.002678,0.000431,0.064405
56082000,0.0324,0.013523,0.002678,0.000431,0.048422
56083000,0.0324,0.013523,0.002678,0.000431,0.043720
56084000,0.0324,0.013523,0.002678,0.000431,0.025504
56085000,0.0324,0.013523,0.002678,0.000431,0.020215
56086000,0.0324,0.013523,0.002678,0.000431,0.023153
56087000,0.0324,0.013523,0.002678,0.000431,0.013751
56088000,0.0324,0.013523,0.002678,0.000431,0.016101
56089000,0.0324,0.013523,0.002678,0.000431,0.006817
56090000,0.0324,0.013523,0.002678,0.000431,0.007874
56091000,0.0324,0.013523,0.002678,0.000431,0.005406
56092000,0.0324,0.013523,0.002678,0.000431,0.006111
56093000,0.0324,0.013523,0.002678,0.000431,0.007404
56094000,0.0324,0.013523,0.002678,0.000431,0.005876
56095000,0.0324,0.013523,0.002678,0.000431,0.001763
56096000,0.0324,0.013523,0.002678,0.000431,0.018805
56097000,0.0324,0.013523,0.002678,0.000431,0.751828
56098000,0.0324,0.013523,0.002678,0.000431,0.550032
56099000,0.0324,0.013523,0.002678,0.000431,0.140446
56100000,0.0324,0.013523,0.002678,0.000431,0.140094
56101000,0.0324,0.013523,0.002678,0.000431,0.521237
56102000,0.0324,0.013523,0.002678,0.000431,0.233293
56103000,0.0324,0.013523,0.002678,0.000431,0.302870
56104000,0.0324,0.013523,0.002678,0.000431,0.148791
56105000,0.0324,0.013523,0.002678,0.000431,0.196860
56106000,0.0324,0.013523,0.002678,0.000431,0.102132
56107000,0.0324,0.013523,0.002678,0.000431,0.537104
56108000,0.0324,0.013523,0.002678,0.000431,0.223774
56109000,0.0324,0.013523,0.002678,0.000431,0.171356
56110000,0.0324,0.013523,0.002678,0.000431,0.144677
56111000,0.0324,0.013523,0.002678,0.000431,0.128341
56112000,0.0324,0.013523,0.002678,0.000431,0.102132
56113000,0.0324,0.013523,0.002678,0.000431,0.098724
56114000,0.0324,0.013523,0.002678,0.000431,0.094258
56115000,0.0324,0.013523,0.002678,0.000431,0.059587
56116000,0.0324,0.013523,0.002678,0.000431,0.057471
56117000,0.0324,0.013523,0.002678,0.000431,0.051947
56118000,0.0324,0.013523,0.002678,0.000431,0.032673
56119000,0.0324,0.013523,0.002678,0.000431,0.028677
56120000,0.0324,0.013523,0.002678,0.000431,0.026796
56121000,0.0324,0.013523,0.002678,0.000431,0.025504
56122000,0.0324,0.013523,0.002678,0.000431,0.017512
56123000,0.0324,0.013523,0.002678,0.000431,0.021273
56124000,0.0324,0.013523,0.002678,0.000431,0.017042
56125000,0.0324,0.013523,0.002678,0.000431,0.004584
56126000,0.0324,0.013523,0.002678,0.000431,0.004349
56127000,0.0324,0.013523,0.002678,0.000431,0.006111
56128000,0.0324,0.013523,0.002678,0.000431,0.005994
56129000,0.0324,0.013523,0.002678,0.000431,0.002821
56130000,0.0324,0.013523,0.002678,0.000431,0.004819
56131000,0.0324,0.013523,0.002678,0.000431,0.001058
56132000,0.0324,0.013523,0.002678,0.000431,0.000823
56133000,0.0324,0.013523,0.002678,0.000431,0.000823
56134000,0.0324,0.013523,0.002678,0.000431,0.000940
56135000,0.0324,0.013523,0.002678,0.000431,0.054416
56136000,0.0324,0.013523,0.002678,0.000431,0.725619
56137000,0.0324,0.013523,0.002678,0.000431,0.556261
56138000,0.0324,0.013523,0.002678,0.000431,0.135392
56139000,0.0324,0.013523,0.002678,0.000431,0.158663
56140000,0.0324,0.013523,0.002678,0.000431,0.585760
56141000,0.0324,0.013523,0.002678,0.000431,0.248220
56142000,0.0324,0.013523,0.002678,0.000431,0.335308
56143000,0.0324,0.013523,0.002678,0.000431,0.151141
56144000,0.0324,0.013523,0.002678,0.000431,0.120819
56145000,0.0324,0.013523,0.002678,0.000431,0.339774
56146000,0.0324,0.013523,0.002678,0.000431,0.357521
56147000,0.0324,0.013523,0.002678,0.000431,0.141621
56148000,0.0324,0.013523,0.002678,0.000431,0.110594
56149000,0.0324,0.013523,0.002678,0.000431,0.105658
56150000,0.0324,0.013523,0.002678,0.000431,0.082387
56151000,0.0324,0.013523,0.002678,0.000431,0.077216
56152000,0.0324,0.013523,0.002678,0.000431,0.064523
56153000,0.0324,0.013523,0.002678,0.000431,0.046424
56154000,0.0324,0.013523,0.002678,0.000431,0.041370
56155000,0.0324,0.013523,0.002678,0.000431,0.030087
56156000,0.0324,0.013523,0.002678,0.000431,0.021978
56157000,0.0324,0.013523,0.002678,0.000431,0.015984
56158000,0.0324,0.013523,0.002678,0.000431,0.012811
56159000,0.0324,0.013523,0.002678,0.000431,0.011988
56160000,0.0324,0.013523,0.002678,0.000431,0.005994
56161000,0.0324,0.013523,0.002678,0.000431,0.007052
56162000,0.0324,0.013523,0.002678,0.000431,0.007169
56163000,0.0324,0.013523,0.002678,0.000431,0.010225
56164000,0.0324,0.013523,0.002678,0.000431,0.003526
56165000,0.0324,0.013523,0.002678,0.000431,0.002703
56166000,0.0324,0.013523,0.002678,0.000431,0.014338
56167000,0.0324,0.013523,0.002678,0.000431,0.692359
56168000,0.0324,0.013523,0.002678,0.000431,0.545918
56169000,0.0324,0.013523,0.002678,0.000431,0.136333
56170000,0.0324,0.013523,0.002678,0.000431,0.146088
56171000,0.0324,0.013523,0.002678,0.000431,0.582940
56172000,0.0324,0.013523,0.002678,0.000431,0.230943
56173000,0.0324,0.013523,0.002678,0.000431,0.340127
56174000,0.0324,0.013523,0.002678,0.000431,0.149026
56175000,0.0324,0.013523,0.002678,0.000431,0.175940
56176000,0.0324,0.013523,0.002678,0.000431,0.105423
56177000,0.0324,0.013523,0.002678,0.000431,0.544743
56178000,0.0324,0.013523,0.002678,0.000431,0.189808
56179000,0.0324,0.013523,0.002678,0.000431,0.164069
56180000,0.0324,0.013523,0.002678,0.000431,0.127048
56181000,0.0324,0.013523,0.002678,0.000431,0.107891
56182000,0.0324,0.013523,0.002678,0.000431,0.075453
56183000,0.0324,0.013523,0.002678,0.000431,0.074278
56184000,0.0324,0.013523,0.002678,0.000431,0.055826
56185000,0.0324,0.013523,0.002678,0.000431,0.050185
56186000,0.0324,0.013523,0.002678,0.000431,0.038667
56187000,0.0324,0.013523,0.002678,0.000431,0.037491
56188000,0.0324,0.013523,0.002678,0.000431,0.022095
56189000,0.0324,0.013523,0.002678,0.000431,0.018452
56190000,0.0324,0.013523,0.002678,0.000431,0.013516
56191000,0.0324,0.013523,0.002678,0.000431,0.012576
56192000,0.0324,0.013523,0.002678,0.000431,0.014573
56193000,0.0324,0.013523,0.002678,0.000431,0.011283
56194000,0.0324,0.013523,0.002678,0.000431,0.008580
56195000,0.0324,0.013523,0.002678,0.000431,0.004584
56196000,0.0324,0.013523,0.002678,0.000431,0.002586
56197000,0.0324,0.013523,0.002678,0.000431,0.002703
56198000,0.0324,0.013523,0.002678,0.000431,0.002586
56199000,0.0324,0.013523,0.002678,0.000431,0.007639
56200000,0.0324,0.013523,0.002678,0.000431,0.000823
56201000,0.0324,0.013523,0.002678,0.000431,0.000940
56202000,0.0324,0.013523,0.002678,0.000431,0.000823
56203000,0.0324,0.013523,0.002678,0.000431,0.000823
56204000,0.0324,0.013523,0.002678,0.000431,0.000705
56205000,0.0324,0.013523,0.002678,0.000431,0.000940
56206000,0.0324,0.013523,0.002678,0.000431,0.000940
56207000,0.0324,0.013523,0.002678,0.000431,0.000705
56208000,0.0324,0.013523,0.002678,0.000431,0.000940
56209000,0.0324,0.013523,0.002678,0.000431,0.000705
56210000,0.0324,0.013523,0.002678,0.000431,0.000940
56211000,0.0324,0.013523,0.002678,0.000431,0.000823
56212000,0.0324,0.013523,0.002678,0.000431,0.000823
56213000,0.0324,0.013523,0.002678,0.000431,0.000940
56214000,0.0324,0.013523,0.002678,0.000431,0.000705
56215000,0.0324,0.013523,0.002678,0.000431,0.000940
56216000,0.0324,0.013523,0.002678,0.000431,0.000705
56217000,0.0324,0.013523,0.002678,0.000431,0.000940
56218000,0.0324,0.013523,0.002678,0.000431,0.000705
56219000,0.0324,0.013523,0.002678,0.000431,0.000940
56220000,0.0324,0.013523,0.002678,0.000431,0.073220
56221000,0.0324,0.013523,0.002678,0.000431,0.756646
56222000,0.0324,0.013523,0.002678,0.000431,0.520180
56223000,0.0324,0.013523,0.002678,0.000431,0.135863
56224000,0.0324,0.013523,0.002678,0.000431,0.177585
56225000,0.0324,0.013523,0.002678,0.000431,0.541687
56226000,0.0324,0.013523,0.002678,0.000431,0.249042
56227000,0.0324,0.013523,0.002678,0.000431,0.295113
56228000,0.0324,0.013523,0.002678,0.000431,0.157018
56229000,0.0324,0.013523,0.002678,0.000431,0.154432
56230000,0.0324,0.013523,0.002678,0.000431,0.199915
56231000,0.0324,0.013523,0.002678,0.000431,0.499377
56232000,0.0324,0.013523,0.002678,0.000431,0.188750
56233000,0.0324,0.013523,0.002678,0.000431,0.168535
56234000,0.0324,0.013523,0.002678,0.000431,0.131984
56235000,0.0324,0.013523,0.002678,0.000431,0.100016
56236000,0.0324,0.013523,0.002678,0.000431,0.097666
56237000,0.0324,0.013523,0.002678,0.000431,0.092495
56238000,0.0324,0.013523,0.002678,0.000431,0.056296
56239000,0.0324,0.013523,0.002678,0.000431,0.047834
56240000,0.0324,0.013523,0.002678,0.000431,0.033025
56241000,0.0324,0.013523,0.002678,0.000431,0.029029
56242000,0.0324,0.013523,0.002678,0.000431,0.016571
56243000,0.0324,0.013523,0.002678,0.000431,0.007169
56244000,0.0324,0.013523,0.002678,0.000431,0.008932
56245000,0.0324,0.013523,0.002678,0.000431,0.008580
56246000,0.0324,0.013523,0.002678,0.000431,0.006229
56247000,0.0324,0.013523,0.002678,0.000431,0.007992
56248000,0.0324,0.013523,0.002678,0.000431,0.004584
56249000,0.0324,0.013523,0.002678,0.000431,0.004584
56250000,0.0324,0.013523,0.002678,0.000431,0.001763
56251000,0.0324,0.013523,0.002678,0.000431,0.006111
56252000,0.0324,0.013523,0.002678,0.000431,0.000940
56253000,0.0324,0.013523,0.002678,0.000431,0.000940
56254000,0.0324,0.013523,0.002678,0.000431,0.000823
56255000,0.0324,0.013523,0.002678,0.000431,0.000823
56256000,0.0324,0.013523,0.002678,0.000431,0.014691
56257000,0.0324,0.013523,0.002678,0.000431,0.716099
56258000,0.0324,0.013523,0.002678,0.000431,0.565076
56259000,0.0324,0.013523,0.002678,0.000431,0.135628
56260000,0.0324,0.013523,0.002678,0.000431,0.136333
56261000,0.0324,0.013523,0.002678,0.000431,0.533343
56262000,0.0324,0.013523,0.002678,0.000431,0.262440
56263000,0.0324,0.013523,0.002678,0.000431,0.308276
56264000,0.0324,0.013523,0.002678,0.000431,0.176997
56265000,0.0324,0.013523,0.002678,0.000431,0.166537
56266000,0.0324,0.013523,0.002678,0.000431,0.112239
56267000,0.0324,0.013523,0.002678,0.000431,0.487272
56268000,0.0324,0.013523,0.002678,0.000431,0.259150
56269000,0.0324,0.013523,0.002678,0.000431,0.176762
56270000,0.0324,0.013523,0.002678,0.000431,0.145265
56271000,0.0324,0.013523,0.002678,0.000431,0.117411
56272000,0.0324,0.013523,0.002678,0.000431,0.101779
56273000,0.0324,0.013523,0.002678,0.000431,0.073573
56274000,0.0324,0.013523,0.002678,0.000431,0.058176
56275000,0.0324,0.013523,0.002678,0.000431,0.054298
56276000,0.0324,0.013523,0.002678,0.000431,0.041605
56277000,0.0324,0.013523,0.002678,0.000431,0.040900
56278000,0.0324,0.013523,0.002678,0.000431,0.033378
56279000,0.0324,0.013523,0.002678,0.000431,0.019862
56280000,0.0324,0.013523,0.002678,0.000431,0.020450
56281000,0.0324,0.013523,0.002678,0.000431,0.016924
56282000,0.0324,0.013523,0.002678,0.000431,0.018805
56283000,0.0324,0.013523,0.002678,0.000431,0.013633
56284000,0.0324,0.013523,0.002678,0.000431,0.016924
56285000,0.0324,0.013523,0.002678,0.000431,0.008815
56286000,0.0324,0.013523,0.002678,0.000431,0.004349
56287000,0.0324,0.013523,0.002678,0.000431,0.003996
56288000,0.0324,0.013523,0.002678,0.000431,0.003526
56289000,0.0324,0.013523,0.002678,0.000431,0.003996
56290000,0.0324,0.013523,0.002678,0.000431,0.004349
56291000,0.0324,0.013523,0.002678,0.000431,0.007992
56292000,0.0324,0.013523,0.002678,0.000431,0.001058
56293000,0.0324,0.013523,0.002678,0.000431,0.000705
56294000,0.0324,0.013523,0.002678,0.000431,0.000705
56295000,0.0324,0.013523,0.002678,0.000431,0.000940
56296000,0.0324,0.013523,0.002678,0.000431,0.000705
56297000,0.0324,0.013523,0.002678,0.000431,0.008697
56298000,0.0324,0.013523,0.002678,0.000431,0.655572
56299000,0.0324,0.013523,0.002678,0.000431,0.625955
56300000,0.0324,0.013523,0.002678,0.000431,0.136333
56301000,0.0324,0.013523,0.002678,0.000431,0.136803
56302000,0.0324,0.013523,0.002678,0.000431,0.533460
56303000,0.0324,0.013523,0.002678,0.000431,0.279952
56304000,0.0324,0.013523,0.002678,0.000431,0.331782
56305000,0.0324,0.013523,0.002678,0.000431,0.152434
56306000,0.0324,0.013523,0.002678,0.000431,0.170533
56307000,0.0324,0.013523,0.002678,0.000431,0.127636
56308000,0.0324,0.013523,0.002678,0.000431,0.538632
56309000,0.0324,0.013523,0.002678,0.000431,0.218367
56310000,0.0324,0.013523,0.002678,0.000431,0.176175
56311000,0.0324,0.013523,0.002678,0.000431,0.164892
56312000,0.0324,0.013523,0.002678,0.000431,0.135392
56313000,0.0324,0.013523,0.002678,0.000431,0.116118
56314000,0.0324,0.013523,0.002678,0.000431,0.091672
56315000,0.0324,0.013523,0.002678,0.000431,0.067814
56316000,0.0324,0.013523,0.002678,0.000431,0.060645
56317000,0.0324,0.013523,0.002678,0.000431,0.042663
56318000,0.0324,0.013523,0.002678,0.000431,0.042545
56319000,0.0324,0.013523,0.002678,0.000431,0.030910
56320000,0.0324,0.013523,0.002678,0.000431,0.033496
56321000,0.0324,0.013523,0.002678,0.000431,0.017629
56322000,0.0324,0.013523,0.002678,0.000431,0.013986
56323000,0.0324,0.013523,0.002678,0.000431,0.012340
56324000,0.0324,0.013523,0.002678,0.000431,0.007522
56325000,0.0324,0.013523,0.002678,0.000431,0.008109
56326000,0.0324,0.013523,0.002678,0.000431,0.009167
56327000,0.0324,0.013523,0.002678,0.000431,0.006229
56328000,0.0324,0.013523,0.002678,0.000431,0.003643
56329000,0.0324,0.013523,0.002678,0.000431,0.005054
56330000,0.0324,0.013523,0.002678,0.000431,0.002703
56331000,0.0324,0.013523,0.002678,0.000431,0.002703
56332000,0.0324,0.013523,0.002678,0.000431,0.002586
56333000,0.0324,0.013523,0.002678,0.000431,0.002586
56334000,0.0324,0.013523,0.002678,0.000431,0.005171
56335000,0.0324,0.013523,0.002678,0.000431,0.001645
56336000,0.0324,0.013523,0.002678,0.000431,0.004113
56337000,0.0324,0.013523,0.002678,0.000431,0.000940
56338000,0.0324,0.013523,0.002678,0.000431,0.000940
56339000,0.0324,0.013523,0.002678,0.000431,0.000823
56340000,0.0324,0.013523,0.002678,0.000431,0.015044
56341000,0.0324,0.013523,0.002678,0.000431,0.754531
56342000,0.0324,0.013523,0.002678,0.000431,0.559199
56343000,0.0324,0.013523,0.002678,0.000431,0.135392
56344000,0.0324,0.013523,0.002678,0.000431,0.137038
56345000,0.0324,0.013523,0.002678,0.000431,0.515008
56346000,0.0324,0.013523,0.002678,0.000431,0.234234
56347000,0.0324,0.013523,0.002678,0.000431,0.316033
56348000,0.0324,0.013523,0.002678,0.000431,0.181699
56349000,0.0324,0.013523,0.002678,0.000431,0.164187
56350000,0.0324,0.013523,0.002678,0.000431,0.109889
56351000,0.0324,0.013523,0.002678,0.000431,0.493148
56352000,0.0324,0.013523,0.002678,0.000431,0.284653
56353000,0.0324,0.013523,0.002678,0.000431,0.171356
56354000,0.0324,0.013523,0.002678,0.000431,0.146323
56355000,0.0324,0.013523,0.002678,0.000431,0.130809
56356000,0.0324,0.013523,0.002678,0.000431,0.094023
56357000,0.0324,0.013523,0.002678,0.000431,0.076041
56358000,0.0324,0.013523,0.002678,0.000431,0.054768
56359000,0.0324,0.013523,0.002678,0.000431,0.050067
56360000,0.0324,0.013523,0.002678,0.000431,0.025269
56361000,0.0324,0.013523,0.002678,0.000431,0.024211
56362000,0.0324,0.013523,0.002678,0.000431,0.024563
56363000,0.0324,0.013523,0.002678,0.000431,0.021273
56364000,0.0324,0.013523,0.002678,0.000431,0.021155
56365000,0.0324,0.013523,0.002678,0.000431,0.018334
56366000,0.0324,0.013523,0.002678,0.000431,0.011048
56367000,0.0324,0.013523,0.002678,0.000431,0.012458
56368000,0.0324,0.013523,0.002678,0.000431,0.006699
56369000,0.0324,0.013523,0.002678,0.000431,0.007404
56370000,0.0324,0.013523,0.002678,0.000431,0.006699
56371000,0.0324,0.013523,0.002678,0.000431,0.008109
56372000,0.0324,0.013523,0.002678,0.000431,0.007404
56373000,0.0324,0.013523,0.002678,0.000431,0.006699
56374000,0.0324,0.013523,0.002678,0.000431,0.005054
56375000,0.0324,0.013523,0.002678,0.000431,0.005406
56376000,0.0324,0.013523,0.002678,0.000431,0.005289
56377000,0.0324,0.013523,0.002678,0.000431,0.005171
56378000,0.0324,0.013523,0.002678,0.000431,0.005406
56379000,0.0324,0.013523,0.002678,0.000431,0.005406
56380000,0.0324,0.013523,0.002678,0.000431,0.005054
56381000,0.0324,0.013523,0.002678,0.000431,0.005406
56382000,0.0324,0.013523,0.002678,0.000431,0.005289
56383000,0.0324,0.013523,0.002678,0.000431,0.005171
56384000,0.0324,0.013523,0.002678,0.000431,0.006111
56385000,0.0324,0.013523,0.002678,0.000431,0.004819
56386000,0.0324,0.013523,0.002678,0.000431,0.004819
56387000,0.0324,0.013523,0.002678,0.000431,0.003408
56388000,0.0324,0.013523,0.002678,0.000431,0.004701
56389000,0.0324,0.013523,0.002678,0.000431,0.003643
56390000,0.0324,0.013523,0.002678,0.000431,0.004701
56391000,0.0324,0.013523,0.002678,0.000431,0.004231
56392000,0.0324,0.013523,0.002678,0.000431,0.003996
56393000,0.0324,0.013523,0.002678,0.000431,0.004349
56394000,0.0324,0.013523,0.002678,0.000431,0.003996
56395000,0.0324,0.013523,0.002678,0.000431,0.004231
56396000,0.0324,0.013523,0.002678,0.000431,0.004231
56397000,0.0324,0.013523,0.002678,0.000431,0.004584
56398000,0.0324,0.013523,0.002678,0.000431,0.003761
56399000,0.0324,0.013523,0.002678,0.000431,0.004349
56400000,0.0324,0.013523,0.002678,0.000431,0.004466
56401000,0.0324,0.013523,0.002678,0.000431,0.004231
56402000,0.0324,0.013523,0.002678,0.000431,0.003878
56403000,0.0324,0.013523,0.002678,0.000431,0.004349
56404000,0.0324,0.013523,0.002678,0.000431,0.003996
56405000,0.0324,0.013523,0.002678,0.000431,0.004466
56406000,0.0324,0.013523,0.002678,0.000431,0.003996
56407000,0.0324,0.013523,0.002678,0.000431,0.011283
56408000,0.0324,0.013523,0.002678,0.000431,0.003878
56409000,0.0324,0.013523,0.002678,0.000431,0.001058
56410000,0.0324,0.013523,0.002678,0.000431,0.000823
56411000,0.0324,0.013523,0.002678,0.000431,0.000823
56412000,0.0324,0.013523,0.002678,0.000431,0.014338
56413000,0.0324,0.013523,0.002678,0.000431,0.758057
56414000,0.0324,0.013523,0.002678,0.000431,0.557789
56415000,0.0324,0.013523,0.002678,0.000431,0.137743
56416000,0.0324,0.013523,0.002678,0.000431,0.136920
56417000,0.0324,0.013523,0.002678,0.000431,0.516066
56418000,0.0324,0.013523,0.002678,0.000431,0.264556
56419000,0.0324,0.013523,0.002678,0.000431,0.331782
56420000,0.0324,0.013523,0.002678,0.000431,0.149261
56421000,0.0324,0.013523,0.002678,0.000431,0.180406
56422000,0.0324,0.013523,0.002678,0.000431,0.114472
56423000,0.0324,0.013523,0.002678,0.000431,0.550384
56424000,0.0324,0.013523,0.002678,0.000431,0.195919
56425000,0.0324,0.013523,0.002678,0.000431,0.165715
56426000,0.0324,0.013523,0.002678,0.000431,0.133630
56427000,0.0324,0.013523,0.002678,0.000431,0.124462
56428000,0.0324,0.013523,0.002678,0.000431,0.101662
56429000,0.0324,0.013523,0.002678,0.000431,0.087323
56430000,0.0324,0.013523,0.002678,0.000431,0.067226
56431000,0.0324,0.013523,0.002678,0.000431,0.058529
56432000,0.0324,0.013523,0.002678,0.000431,0.042780
56433000,0.0324,0.013523,0.002678,0.000431,0.043603
56434000,0.0324,0.013523,0.002678,0.000431,0.029382
56435000,0.0324,0.013523,0.002678,0.000431,0.025269
56436000,0.0324,0.013523,0.002678,0.000431,0.020685
56437000,0.0324,0.013523,0.002678,0.000431,0.023388
56438000,0.0324,0.013523,0.002678,0.000431,0.020097
56439000,0.0324,0.013523,0.002678,0.000431,0.023976
56440000,0.0324,0.013523,0.002678,0.000431,0.017747
56441000,0.0324,0.013523,0.002678,0.000431,0.012458
56442000,0.0324,0.013523,0.002678,0.000431,0.012458
56443000,0.0324,0.013523,0.002678,0.000431,0.015279
56444000,0.0324,0.013523,0.002678,0.000431,0.010107
56445000,0.0324,0.013523,0.002678,0.000431,0.013868
56446000,0.0324,0.013523,0.002678,0.000431,0.009402
56447000,0.0324,0.013523,0.002678,0.000431,0.008580
56448000,0.0324,0.013523,0.002678,0.000431,0.010578
56449000,0.0324,0.013523,0.002678,0.000431,0.007992
56450000,0.0324,0.013523,0.002678,0.000431,0.007639
56451000,0.0324,0.013523,0.002678,0.000431,0.007404
56452000,0.0324,0.013523,0.002678,0.000431,0.007639
56453000,0.0324,0.013523,0.002678,0.000431,0.007522
56454000,0.0324,0.013523,0.002678,0.000431,0.008580
56455000,0.0324,0.013523,0.002678,0.000431,0.006347
56456000,0.0324,0.013523,0.002678,0.000431,0.008580
56457000,0.0324,0.013523,0.002678,0.000431,0.007992
56458000,0.0324,0.013523,0.002678,0.000431,0.007992
56459000,0.0324,0.013523,0.002678,0.000431,0.011753
56460000,0.0324,0.013523,0.002678,0.000431,0.005641
56461000,0.0324,0.013523,0.002678,0.000431,0.006111
56462000,0.0324,0.013523,0.002678,0.000431,0.006817
56463000,0.0324,0.013523,0.002678,0.000431,0.003996
56464000,0.0324,0.013523,0.002678,0.000431,0.004584
56465000,0.0324,0.013523,0.002678,0.000431,0.004231
56466000,0.0324,0.013523,0.002678,0.000431,0.005289
56467000,0.0324,0.013523,0.002678,0.000431,0.002351
56468000,0.0324,0.013523,0.002678,0.000431,0.003761
56469000,0.0324,0.013523,0.002678,0.000431,0.224596
56470000,0.0324,0.013523,0.002678,0.000431,0.695884
56471000,0.0324,0.013523,0.002678,0.000431,0.455422
56472000,0.0324,0.013523,0.002678,0.000431,0.136568
56473000,0.0324,0.013523,0.002678,0.000431,0.406883
56474000,0.0324,0.013523,0.002678,0.000431,0.367276
56475000,0.0324,0.013523,0.002678,0.000431,0.270197
56476000,0.0324,0.013523,0.002678,0.000431,0.239993
56477000,0.0324,0.013523,0.002678,0.000431,0.146323
56478000,0.0324,0.013523,0.002678,0.000431,0.125403
56479000,0.0324,0.013523,0.002678,0.000431,0.373270
56480000,0.0324,0.013523,0.002678,0.000431,0.370919
56481000,0.0324,0.013523,0.002678,0.000431,0.181581
56482000,0.0324,0.013523,0.002678,0.000431,0.164892
56483000,0.0324,0.013523,0.002678,0.000431,0.129869
56484000,0.0324,0.013523,0.002678,0.000431,0.107656
56485000,0.0324,0.013523,0.002678,0.000431,0.100604
56486000,0.0324,0.013523,0.002678,0.000431,0.074983
56487000,0.0324,0.013523,0.002678,0.000431,0.052300
56488000,0.0324,0.013523,0.002678,0.000431,0.046306
56489000,0.0324,0.013523,0.002678,0.000431,0.023976
56490000,0.0324,0.013523,0.002678,0.000431,0.026796
56491000,0.0324,0.013523,0.002678,0.000431,0.013986
56492000,0.0324,0.013523,0.002678,0.000431,0.009637
56493000,0.0324,0.013523,0.002678,0.000431,0.010460
56494000,0.0324,0.013523,0.002678,0.000431,0.006111
56495000,0.0324,0.013523,0.002678,0.000431,0.004936
56496000,0.0324,0.013523,0.002678,0.000431,0.006229
56497000,0.0324,0.013523,0.002678,0.000431,0.004231
56498000,0.0324,0.013523,0.002678,0.000431,0.004936
56499000,0.0324,0.013523,0.002678,0.000431,0.002586
56500000,0.0324,0.013523,0.002678,0.000431,0.004113
56501000,0.0324,0.013523,0.002678,0.000431,0.000940
56502000,0.0324,0.013523,0.002678,0.000431,0.000823
56503000,0.0324,0.013523,0.002678,0.000431,0.000940
56504000,0.0324,0.013523,0.002678,0.000431,0.000705
56505000,0.0324,0.013523,0.002678,0.000431,0.265026
56506000,0.0324,0.013523,0.002678,0.000431,0.738665
56507000,0.0324,0.013523,0.002678,0.000431,0.377853
56508000,0.0324,0.013523,0.002678,0.000431,0.136333
56509000,0.0324,0.013523,0.002678,0.000431,0.465647
56510000,0.0324,0.013523,0.002678,0.000431,0.246927
56511000,0.0324,0.013523,0.002678,0.000431,0.269610
56512000,0.0324,0.013523,0.002678,0.000431,0.257152
56513000,0.0324,0.013523,0.002678,0.000431,0.162306
56514000,0.0324,0.013523,0.002678,0.000431,0.135863
56515000,0.0324,0.013523,0.002678,0.000431,0.271843
56516000,0.0324,0.013523,0.002678,0.000431,0.495029
56517000,0.0324,0.013523,0.002678,0.000431,0.177468
56518000,0.0324,0.013523,0.002678,0.000431,0.162189
56519000,0.0324,0.013523,0.002678,0.000431,0.138918
56520000,0.0324,0.013523,0.002678,0.000431,0.108008
56521000,0.0324,0.013523,0.002678,0.000431,0.094610
56522000,0.0324,0.013523,0.002678,0.000431,0.079684
56523000,0.0324,0.013523,0.002678,0.000431,0.049714
56524000,0.0324,0.013523,0.002678,0.000431,0.043015
56525000,0.0324,0.013523,0.002678,0.000431,0.036199
56526000,0.0324,0.013523,0.002678,0.000431,0.031498
56527000,0.0324,0.013523,0.002678,0.000431,0.017747
56528000,0.0324,0.013523,0.002678,0.000431,0.017159
56529000,0.0324,0.013523,0.002678,0.000431,0.012458
56530000,0.0324,0.013523,0.002678,0.000431,0.009285
56531000,0.0324,0.013523,0.002678,0.000431,0.006464
56532000,0.0324,0.013523,0.002678,0.000431,0.007992
56533000,0.0324,0.013523,0.002678,0.000431,0.008462
56534000,0.0324,0.013523,0.002678,0.000431,0.002351
56535000,0.0324,0.013523,0.002678,0.000431,0.002468
56536000,0.0324,0.013523,0.002678,0.000431,0.001998
56537000,0.0324,0.013523,0.002678,0.000431,0.003996
56538000,0.0324,0.013523,0.002678,0.000431,0.000823
56539000,0.0324,0.013523,0.002678,0.000431,0.002116
56540000,0.0324,0.013523,0.002678,0.000431,0.511835
56541000,0.0324,0.013523,0.002678,0.000431,0.742661
56542000,0.0324,0.013523,0.002678,0.000431,0.193804
56543000,0.0324,0.013523,0.002678,0.000431,0.135392
56544000,0.0324,0.013523,0.002678,0.000431,0.536399
56545000,0.0324,0.013523,0.002678,0.000431,0.265614
56546000,0.0324,0.013523,0.002678,0.000431,0.302635
56547000,0.0324,0.013523,0.002678,0.000431,0.235644
56548000,0.0324,0.013523,0.002678,0.000431,0.168888
56549000,0.0324,0.013523,0.002678,0.000431,0.103660
56550000,0.0324,0.013523,0.002678,0.000431,0.529112
56551000,0.0324,0.013523,0.002678,0.000431,0.256329
56552000,0.0324,0.013523,0.002678,0.000431,0.180288
56553000,0.0324,0.013523,0.002678,0.000431,0.161014
56554000,0.0324,0.013523,0.002678,0.000431,0.134570
56555000,0.0324,0.013523,0.002678,0.000431,0.105775
56556000,0.0324,0.013523,0.002678,0.000431,0.083680
56557000,0.0324,0.013523,0.002678,0.000431,0.056296
56558000,0.0324,0.013523,0.002678,0.000431,0.047129
56559000,0.0324,0.013523,0.002678,0.000431,0.033966
56560000,0.0324,0.013523,0.002678,0.000431,0.028089
56561000,0.0324,0.013523,0.002678,0.000431,0.029970
56562000,0.0324,0.013523,0.002678,0.000431,0.020097
56563000,0.0324,0.013523,0.002678,0.000431,0.016454
56564000,0.0324,0.013523,0.002678,0.000431,0.017512
56565000,0.0324,0.013523,0.002678,0.000431,0.006582
56566000,0.0324,0.013523,0.002678,0.000431,0.009990
56567000,0.0324,0.013523,0.002678,0.000431,0.009050
56568000,0.0324,0.013523,0.002678,0.000431,0.005406
56569000,0.0324,0.013523,0.002678,0.000431,0.003526
56570000,0.0324,0.013523,0.002678,0.000431,0.004819
56571000,0.0324,0.013523,0.002678,0.000431,0.002586
56572000,0.0324,0.013523,0.002678,0.000431,0.002703
56573000,0.0324,0.013523,0.002678,0.000431,0.002586
56574000,0.0324,0.013523,0.002678,0.000431,0.002351
56575000,0.0324,0.013523,0.002678,0.000431,0.002821
56576000,0.0324,0.013523,0.002678,0.000431,0.005054
56577000,0.0324,0.013523,0.002678,0.000431,0.001880
56578000,0.0324,0.013523,0.002678,0.000431,0.001645
56579000,0.0324,0.013523,0.002678,0.000431,0.001175
56580000,0.0324,0.013523,0.002678,0.000431,0.270667
56581000,0.0324,0.013523,0.002678,0.000431,0.763933
56582000,0.0324,0.013523,0.002678,0.000431,0.386315
56583000,0.0324,0.013523,0.002678,0.000431,0.135863
56584000,0.0324,0.013523,0.002678,0.000431,0.458125
56585000,0.0324,0.013523,0.002678,0.000431,0.253038
56586000,0.0324,0.013523,0.002678,0.000431,0.274193
56587000,0.0324,0.013523,0.002678,0.000431,0.267729
56588000,0.0324,0.013523,0.002678,0.000431,0.162424
56589000,0.0324,0.013523,0.002678,0.000431,0.118233
56590000,0.0324,0.013523,0.002678,0.000431,0.364925
56591000,0.0324,0.013523,0.002678,0.000431,0.348589
56592000,0.0324,0.013523,0.002678,0.000431,0.137861
56593000,0.0324,0.013523,0.002678,0.000431,0.131984
56594000,0.0324,0.013523,0.002678,0.000431,0.114002
56595000,0.0324,0.013523,0.002678,0.000431,0.090614
56596000,0.0324,0.013523,0.002678,0.000431,0.098841
56597000,0.0324,0.013523,0.002678,0.000431,0.053593
56598000,0.0324,0.013523,0.002678,0.000431,0.046071
56599000,0.0324,0.013523,0.002678,0.000431,0.041017
56600000,0.0324,0.013523,0.002678,0.000431,0.028442
56601000,0.0324,0.013523,0.002678,0.000431,0.021038
56602000,0.0324,0.013523,0.002678,0.000431,0.018334
56603000,0.0324,0.013523,0.002678,0.000431,0.010225
56604000,0.0324,0.013523,0.002678,0.000431,0.010930
56605000,0.0324,0.013523,0.002678,0.000431,0.009285
56606000,0.0324,0.013523,0.002678,0.000431,0.004466
56607000,0.0324,0.013523,0.002678,0.000431,0.004819
56608000,0.0324,0.013523,0.002678,0.000431,0.014103
56609000,0.0324,0.013523,0.002678,0.000431,0.695884
56610000,0.0324,0.013523,0.002678,0.000431,0.549092
56611000,0.0324,0.013523,0.002678,0.000431,0.135392
56612000,0.0324,0.013523,0.002678,0.000431,0.135863
56613000,0.0324,0.013523,0.002678,0.000431,0.521825
56614000,0.0324,0.013523,0.002678,0.000431,0.239522
56615000,0.0324,0.013523,0.002678,0.000431,0.319794
56616000,0.0324,0.013523,0.002678,0.000431,0.178408
56617000,0.0324,0.013523,0.002678,0.000431,0.154550
56618000,0.0324,0.013523,0.002678,0.000431,0.112239
56619000,0.0324,0.013523,0.002678,0.000431,0.503373
56620000,0.0324,0.013523,0.002678,0.000431,0.289002
56621000,0.0324,0.013523,0.002678,0.000431,0.197917
56622000,0.0324,0.013523,0.002678,0.000431,0.158075
56623000,0.0324,0.013523,0.002678,0.000431,0.129399
56624000,0.0324,0.013523,0.002678,0.000431,0.089792
56625000,0.0324,0.013523,0.002678,0.000431,0.072632
56626000,0.0324,0.013523,0.002678,0.000431,0.068284
56627000,0.0324,0.013523,0.002678,0.000431,0.058529
56628000,0.0324,0.013523,0.002678,0.000431,0.037021
56629000,0.0324,0.013523,0.002678,0.000431,0.024563
56630000,0.0324,0.013523,0.002678,0.000431,0.026679
56631000,0.0324,0.013523,0.002678,0.000431,0.025151
56632000,0.0324,0.013523,0.002678,0.000431,0.021860
56633000,0.0324,0.013523,0.002678,0.000431,0.027854
56634000,0.0324,0.013523,0.002678,0.000431,0.020450
56635000,0.0324,0.013523,0.002678,0.000431,0.013633
56636000,0.0324,0.013523,0.002678,0.000431,0.012223
56637000,0.0324,0.013523,0.002678,0.000431,0.016101
56638000,0.0324,0.013523,0.002678,0.000431,0.009990
56639000,0.0324,0.013523,0.002678,0.000431,0.010813
56640000,0.0324,0.013523,0.002678,0.000431,0.006582
56641000,0.0324,0.013523,0.002678,0.000431,0.007404
56642000,0.0324,0.013523,0.002678,0.000431,0.006464
56643000,0.0324,0.013523,0.002678,0.000431,0.007639
56644000,0.0324,0.013523,0.002678,0.000431,0.007522
56645000,0.0324,0.013523,0.002678,0.000431,0.005406
56646000,0.0324,0.013523,0.002678,0.000431,0.005524
56647000,0.0324,0.013523,0.002678,0.000431,0.001880
56648000,0.0324,0.013523,0.002678,0.000431,0.004231
56649000,0.0324,0.013523,0.002678,0.000431,0.000823
56650000,0.0324,0.013523,0.002678,0.000431,0.000823
56651000,0.0324,0.013523,0.002678,0.000431,0.001880
56652000,0.0324,0.013523,0.002678,0.000431,0.548151
56653000,0.0324,0.013523,0.002678,0.000431,0.744306
56654000,0.0324,0.013523,0.002678,0.000431,0.148556
56655000,0.0324,0.013523,0.002678,0.000431,0.140094
56656000,0.0324,0.013523,0.002678,0.000431,0.546624
56657000,0.0324,0.013523,0.002678,0.000431,0.263146
56658000,0.0324,0.013523,0.002678,0.000431,0.284888
56659000,0.0324,0.013523,0.002678,0.000431,0.212021
56660000,0.0324,0.013523,0.002678,0.000431,0.160426
56661000,0.0324,0.013523,0.002678,0.000431,0.115765
56662000,0.0324,0.013523,0.002678,0.000431,0.509720
56663000,0.0324,0.013523,0.002678,0.000431,0.315093
56664000,0.0324,0.013523,0.002678,0.000431,0.201561
56665000,0.0324,0.013523,0.002678,0.000431,0.182404
56666000,0.0324,0.013523,0.002678,0.000431,0.145970
56667000,0.0324,0.013523,0.002678,0.000431,0.114708
56668000,0.0324,0.013523,0.002678,0.000431,0.098724
56669000,0.0324,0.013523,0.002678,0.000431,0.067461
56670000,0.0324,0.013523,0.002678,0.000431,0.068284
56671000,0.0324,0.013523,0.002678,0.000431,0.061115
56672000,0.0324,0.013523,0.002678,0.000431,0.046894
56673000,0.0324,0.013523,0.002678,0.000431,0.046776
56674000,0.0324,0.013523,0.002678,0.000431,0.024563
56675000,0.0324,0.013523,0.002678,0.000431,0.028207
56676000,0.0324,0.013523,0.002678,0.000431,0.027619
56677000,0.0324,0.013523,0.002678,0.000431,0.017864
56678000,0.0324,0.013523,0.002678,0.000431,0.019745
56679000,0.0324,0.013523,0.002678,0.000431,0.012693
56680000,0.0324,0.013523,0.002678,0.000431,0.012105
56681000,0.0324,0.013523,0.002678,0.000431,0.009402
56682000,0.0324,0.013523,0.002678,0.000431,0.006347
56683000,0.0324,0.013523,0.002678,0.000431,0.006464
56684000,0.0324,0.013523,0.002678,0.000431,0.005759
56685000,0.0324,0.013523,0.002678,0.000431,0.006817
56686000,0.0324,0.013523,0.002678,0.000431,0.006229
56687000,0.0324,0.013523,0.002678,0.000431,0.006229
56688000,0.0324,0.013523,0.002678,0.000431,0.005641
56689000,0.0324,0.013523,0.002678,0.000431,0.006582
56690000,0.0324,0.013523,0.002678,0.000431,0.006347
56691000,0.0324,0.013523,0.002678,0.000431,0.006347
56692000,0.0324,0.013523,0.002678,0.000431,0.005994
56693000,0.0324,0.013523,0.002678,0.000431,0.006347
56694000,0.0324,0.013523,0.002678,0.000431,0.009167
56695000,0.0324,0.013523,0.002678,0.000431,0.008580
56696000,0.0324,0.013523,0.002678,0.000431,0.003761
56697000,0.0324,0.013523,0.002678,0.000431,0.004701
56698000,0.0324,0.013523,0.002678,0.000431,0.004349
56699000,0.0324,0.013523,0.002678,0.000431,0.004349
56700000,0.0324,0.013523,0.002678,0.000431,0.004584
56701000,0.0324,0.013523,0.002678,0.000431,0.004231
56702000,0.0324,0.013523,0.002678,0.000431,0.004819
56703000,0.0324,0.013523,0.002678,0.000431,0.004349
56704000,0.0324,0.013523,0.002678,0.000431,0.009402
56705000,0.0324,0.013523,0.002678,0.000431,0.005994
56706000,0.0324,0.013523,0.002678,0.000431,0.071810
56707000,0.0324,0.013523,0.002678,0.000431,0.796136
56708000,0.0324,0.013523,0.002678,0.000431,0.528524
56709000,0.0324,0.013523,0.002678,0.000431,0.141857
56710000,0.0324,0.013523,0.002678,0.000431,0.375032
56711000,0.0324,0.013523,0.002678,0.000431,0.357521
56712000,0.0324,0.013523,0.002678,0.000431,0.296053
56713000,0.0324,0.013523,0.002678,0.000431,0.231060
56714000,0.0324,0.013523,0.002678,0.000431,0.178760
56715000,0.0324,0.013523,0.002678,0.000431,0.122817
56716000,0.0324,0.013523,0.002678,0.000431,0.514656
56717000,0.0324,0.013523,0.002678,0.000431,0.123522
56718000,0.0324,0.013523,0.002678,0.000431,0.103542
56719000,0.0324,0.013523,0.002678,0.000431,0.087558
56720000,0.0324,0.013523,0.002678,0.000431,0.079214
56721000,0.0324,0.013523,0.002678,0.000431,0.066874
56722000,0.0324,0.013523,0.002678,0.000431,0.068049
56723000,0.0324,0.013523,0.002678,0.000431,0.043956
56724000,0.0324,0.013523,0.002678,0.000431,0.042663
56725000,0.0324,0.013523,0.002678,0.000431,0.036316
56726000,0.0324,0.013523,0.002678,0.000431,0.032438
56727000,0.0324,0.013523,0.002678,0.000431,0.026679
56728000,0.0324,0.013523,0.002678,0.000431,0.021743
56729000,0.0324,0.013523,0.002678,0.000431,0.024093
56730000,0.0324,0.013523,0.002678,0.000431,0.011635
56731000,0.0324,0.013523,0.002678,0.000431,0.014103
56732000,0.0324,0.013523,0.002678,0.000431,0.007992
56733000,0.0324,0.013523,0.002678,0.000431,0.005994
56734000,0.0324,0.013523,0.002678,0.000431,0.006229
56735000,0.0324,0.013523,0.002678,0.000431,0.005994
56736000,0.0324,0.013523,0.002678,0.000431,0.005994
56737000,0.0324,0.013523,0.002678,0.000431,0.009990
56738000,0.0324,0.013523,0.002678,0.000431,0.004466
56739000,0.0324,0.013523,0.002678,0.000431,0.004584
56740000,0.0324,0.013523,0.002678,0.000431,0.003878
56741000,0.0324,0.013523,0.002678,0.000431,0.005994
56742000,0.0324,0.013523,0.002678,0.000431,0.003761
56743000,0.0324,0.013523,0.002678,0.000431,0.003408
56744000,0.0324,0.013523,0.002678,0.000431,0.004466
56745000,0.0324,0.013523,0.002678,0.000431,0.004936
56746000,0.0324,0.013523,0.002678,0.000431,0.001763
56747000,0.0324,0.013523,0.002678,0.000431,0.001645
56748000,0.0324,0.013523,0.002678,0.000431,0.001763
56749000,0.0324,0.013523,0.002678,0.000431,0.003056
56750000,0.0324,0.013523,0.002678,0.000431,0.030557
56751000,0.0324,0.013523,0.002678,0.000431,0.666502
56752000,0.0324,0.013523,0.002678,0.000431,0.539572
56753000,0.0324,0.013523,0.002678,0.000431,0.135863
56754000,0.0324,0.013523,0.002678,0.000431,0.167243
56755000,0.0324,0.013523,0.002678,0.000431,0.550737
56756000,0.0324,0.013523,0.002678,0.000431,0.297346
56757000,0.0324,0.013523,0.002678,0.000431,0.300285
56758000,0.0324,0.013523,0.002678,0.000431,0.155960
56759000,0.0324,0.013523,0.002678,0.000431,0.132337
56760000,0.0324,0.013523,0.002678,0.000431,0.251628
56761000,0.0324,0.013523,0.002678,0.000431,0.462708
56762000,0.0324,0.013523,0.002678,0.000431,0.160191
56763000,0.0324,0.013523,0.002678,0.000431,0.136333
56764000,0.0324,0.013523,0.002678,0.000431,0.111652
56765000,0.0324,0.013523,0.002678,0.000431,0.102250
56766000,0.0324,0.013523,0.002678,0.000431,0.084150
56767000,0.0324,0.013523,0.002678,0.000431,0.054063
56768000,0.0324,0.013523,0.002678,0.000431,0.044308
56769000,0.0324,0.013523,0.002678,0.000431,0.031968
56770000,0.0324,0.013523,0.002678,0.000431,0.033848
56771000,0.0324,0.013523,0.002678,0.000431,0.029382
56772000,0.0324,0.013523,0.002678,0.000431,0.023858
56773000,0.0324,0.013523,0.002678,0.000431,0.018334
56774000,0.0324,0.013523,0.002678,0.000431,0.013281
56775000,0.0324,0.013523,0.002678,0.000431,0.017629
56776000,0.0324,0.013523,0.002678,0.000431,0.009755
56777000,0.0324,0.013523,0.002678,0.000431,0.007992
56778000,0.0324,0.013523,0.002678,0.000431,0.003056
56779000,0.0324,0.013523,0.002678,0.000431,0.004936
56780000,0.0324,0.013523,0.002678,0.000431,0.002938
56781000,0.0324,0.013523,0.002678,0.000431,0.002116
56782000,0.0324,0.013523,0.002678,0.000431,0.000823
56783000,0.0324,0.013523,0.002678,0.000431,0.002703
56784000,0.0324,0.013523,0.002678,0.000431,0.449663
56785000,0.0324,0.013523,0.002678,0.000431,0.757587
56786000,0.0324,0.013523,0.002678,0.000431,0.170886
56787000,0.0324,0.013523,0.002678,0.000431,0.135863
56788000,0.0324,0.013523,0.002678,0.000431,0.487154
56789000,0.0324,0.013523,0.002678,0.000431,0.242461
56790000,0.0324,0.013523,0.002678,0.000431,0.309804
56791000,0.0324,0.013523,0.002678,0.000431,0.227417
56792000,0.0324,0.013523,0.002678,0.000431,0.156077
56793000,0.0324,0.013523,0.002678,0.000431,0.111534
56794000,0.0324,0.013523,0.002678,0.000431,0.486567
56795000,0.0324,0.013523,0.002678,0.000431,0.256329
56796000,0.0324,0.013523,0.002678,0.000431,0.169946
56797000,0.0324,0.013523,0.002678,0.000431,0.143972
56798000,0.0324,0.013523,0.002678,0.000431,0.114943
56799000,0.0324,0.013523,0.002678,0.000431,0.101897
56800000,0.0324,0.013523,0.002678,0.000431,0.070282
56801000,0.0324,0.013523,0.002678,0.000431,0.062407
56802000,0.0324,0.013523,0.002678,0.000431,0.045131
56803000,0.0324,0.013523,0.002678,0.000431,0.027031
56804000,0.0324,0.013523,0.002678,0.000431,0.029970
56805000,0.0324,0.013523,0.002678,0.000431,0.022683
56806000,0.0324,0.013523,0.002678,0.000431,0.014456
56807000,0.0324,0.013523,0.002678,0.000431,0.008109
56808000,0.0324,0.013523,0.002678,0.000431,0.005524
56809000,0.0324,0.013523,0.002678,0.000431,0.004819
56810000,0.0324,0.013523,0.002678,0.000431,0.006464
56811000,0.0324,0.013523,0.002678,0.000431,0.002351
56812000,0.0324,0.013523,0.002678,0.000431,0.001528
56813000,0.0324,0.013523,0.002678,0.000431,0.003291
56814000,0.0324,0.013523,0.002678,0.000431,0.013633
56815000,0.0324,0.013523,0.002678,0.000431,0.756059
56816000,0.0324,0.013523,0.002678,0.000431,0.539807
56817000,0.0324,0.013523,0.002678,0.000431,0.135040
56818000,0.0324,0.013523,0.002678,0.000431,0.161601
56819000,0.0324,0.013523,0.002678,0.000431,0.593517
56820000,0.0324,0.013523,0.002678,0.000431,0.256094
56821000,0.0324,0.013523,0.002678,0.000431,0.246809
56822000,0.0324,0.013523,0.002678,0.000431,0.149731
56823000,0.0324,0.013523,0.002678,0.000431,0.152669
56824000,0.0324,0.013523,0.002678,0.000431,0.234821
56825000,0.0324,0.013523,0.002678,0.000431,0.538867
56826000,0.0324,0.013523,0.002678,0.000431,0.230943
56827000,0.0324,0.013523,0.002678,0.000431,0.213314
56828000,0.0324,0.013523,0.002678,0.000431,0.158428
56829000,0.0324,0.013523,0.002678,0.000431,0.142327
56830000,0.0324,0.013523,0.002678,0.000431,0.098489
56831000,0.0324,0.013523,0.002678,0.000431,0.084150
56832000,0.0324,0.013523,0.002678,0.000431,0.079449
56833000,0.0324,0.013523,0.002678,0.000431,0.062643
56834000,0.0324,0.013523,0.002678,0.000431,0.040312
56835000,0.0324,0.013523,0.002678,0.000431,0.042310
56836000,0.0324,0.013523,0.002678,0.000431,0.025386
56837000,0.0324,0.013523,0.002678,0.000431,0.016101
56838000,0.0324,0.013523,0.002678,0.000431,0.009050
56839000,0.0324,0.013523,0.002678,0.000431,0.011870
56840000,0.0324,0.013523,0.002678,0.000431,0.009050
56841000,0.0324,0.013523,0.002678,0.000431,0.009402
56842000,0.0324,0.013523,0.002678,0.000431,0.004936
56843000,0.0324,0.013523,0.002678,0.000431,0.002586
56844000,0.0324,0.013523,0.002678,0.000431,0.004466
56845000,0.0324,0.013523,0.002678,0.000431,0.000940
56846000,0.0324,0.013523,0.002678,0.000431,0.000823
56847000,0.0324,0.013523,0.002678,0.000431,0.000705
56848000,0.0324,0.013523,0.002678,0.000431,0.000940
56849000,0.0324,0.013523,0.002678,0.000431,0.000940
56850000,0.0324,0.013523,0.002678,0.000431,0.000823
56851000,0.0324,0.013523,0.002678,0.000431,0.000823
56852000,0.0324,0.013523,0.002678,0.000431,0.000940
56853000,0.0324,0.013523,0.002678,0.000431,0.002116
56854000,0.0324,0.013523,0.002678,0.000431,0.371624
56855000,0.0324,0.013523,0.002678,0.000431,0.829279
56856000,0.0324,0.013523,0.002678,0.000431,0.261265
56857000,0.0324,0.013523,0.002678,0.000431,0.147263
56858000,0.0324,0.013523,0.002678,0.000431,0.628423
56859000,0.0324,0.013523,0.002678,0.000431,0.277719
56860000,0.0324,0.013523,0.002678,0.000431,0.322145
56861000,0.0324,0.013523,0.002678,0.000431,0.149731
56862000,0.0324,0.013523,0.002678,0.000431,0.110006
56863000,0.0324,0.013523,0.002678,0.000431,0.496086
56864000,0.0324,0.013523,0.002678,0.000431,0.309687
56865000,0.0324,0.013523,0.002678,0.000431,0.210611
56866000,0.0324,0.013523,0.002678,0.000431,0.184989
56867000,0.0324,0.013523,0.002678,0.000431,0.151141
56868000,0.0324,0.013523,0.002678,0.000431,0.126813
56869000,0.0324,0.013523,0.002678,0.000431,0.088851
56870000,0.0324,0.013523,0.002678,0.000431,0.086501
56871000,0.0324,0.013523,0.002678,0.000431,0.066403
56872000,0.0324,0.013523,0.002678,0.000431,0.054298
56873000,0.0324,0.013523,0.002678,0.000431,0.043133
56874000,0.0324,0.013523,0.002678,0.000431,0.033966
56875000,0.0324,0.013523,0.002678,0.000431,0.029617
56876000,0.0324,0.013523,0.002678,0.000431,0.016807
56877000,0.0324,0.013523,0.002678,0.000431,0.014338
56878000,0.0324,0.013523,0.002678,0.000431,0.009167
56879000,0.0324,0.013523,0.002678,0.000431,0.003996
56880000,0.0324,0.013523,0.002678,0.000431,0.003173
56881000,0.0324,0.013523,0.002678,0.000431,0.004113
56882000,0.0324,0.013523,0.002678,0.000431,0.003643
56883000,0.0324,0.013523,0.002678,0.000431,0.002468
56884000,0.0324,0.013523,0.002678,0.000431,0.002351
56885000,0.0324,0.013523,0.002678,0.000431,0.002586
56886000,0.0324,0.013523,0.002678,0.000431,0.002351
56887000,0.0324,0.013523,0.002678,0.000431,0.002468
56888000,0.0324,0.013523,0.002678,0.000431,0.002116
56889000,0.0324,0.013523,0.002678,0.000431,0.002703
56890000,0.0324,0.013523,0.002678,0.000431,0.002703
56891000,0.0324,0.013523,0.002678,0.000431,0.001998
56892000,0.0324,0.013523,0.002678,0.000431,0.002821
56893000,0.0324,0.013523,0.002678,0.000431,0.001998
56894000,0.0324,0.013523,0.002678,0.000431,0.002703
56895000,0.0324,0.013523,0.002678,0.000431,0.002233
56896000,0.0324,0.013523,0.002678,0.000431,0.002468
56897000,0.0324,0.013523,0.002678,0.000431,0.002586
56898000,0.0324,0.013523,0.002678,0.000431,0.002351
56899000,0.0324,0.013523,0.002678,0.000431,0.002351
56900000,0.0324,0.013523,0.002678,0.000431,0.002586
56901000,0.0324,0.013523,0.002678,0.000431,0.002116
56902000,0.0324,0.013523,0.002678,0.000431,0.002586
56903000,0.0324,0.013523,0.002678,0.000431,0.002351
56904000,0.0324,0.013523,0.002678,0.000431,0.002351
56905000,0.0324,0.013523,0.002678,0.000431,0.002821
56906000,0.0324,0.013523,0.002678,0.000431,0.001998
56907000,0.0324,0.013523,0.002678,0.000431,0.002116
56908000,0.0324,0.013523,0.002678,0.000431,0.002586
56909000,0.0324,0.013523,0.002678,0.000431,0.002351
56910000,0.0324,0.013523,0.002678,0.000431,0.001880
56911000,0.0324,0.013523,0.002678,0.000431,0.001645
56912000,0.0324,0.013523,0.002678,0.000431,0.001645
56913000,0.0324,0.013523,0.002678,0.000431,0.001880
56914000,0.0324,0.013523,0.002678,0.000431,0.003643
56915000,0.0324,0.013523,0.002678,0.000431,0.000705
56916000,0.0324,0.013523,0.002678,0.000431,0.000940
56917000,0.0324,0.013523,0.002678,0.000431,0.000940
56918000,0.0324,0.013523,0.002678,0.000431,0.000940
56919000,0.0324,0.013523,0.002678,0.000431,0.099664
56920000,0.0324,0.013523,0.002678,0.000431,0.829749
56921000,0.0324,0.013523,0.002678,0.000431,0.476459
56922000,0.0324,0.013523,0.002678,0.000431,0.138683
56923000,0.0324,0.013523,0.002678,0.000431,0.445549
56924000,0.0324,0.013523,0.002678,0.000431,0.293703
56925000,0.0324,0.013523,0.002678,0.000431,0.379499
56926000,0.0324,0.013523,0.002678,0.000431,0.214136
56927000,0.0324,0.013523,0.002678,0.000431,0.138213
56928000,0.0324,0.013523,0.002678,0.000431,0.238465
56929000,0.0324,0.013523,0.002678,0.000431,0.501963
56930000,0.0324,0.013523,0.002678,0.000431,0.191571
56931000,0.0324,0.013523,0.002678,0.000431,0.182756
56932000,0.0324,0.013523,0.002678,0.000431,0.145735
56933000,0.0324,0.013523,0.002678,0.000431,0.114120
56934000,0.0324,0.013523,0.002678,0.000431,0.101192
56935000,0.0324,0.013523,0.002678,0.000431,0.077686
56936000,0.0324,0.013523,0.002678,0.000431,0.065228
56937000,0.0324,0.013523,0.002678,0.000431,0.048069
56938000,0.0324,0.013523,0.002678,0.000431,0.051712
56939000,0.0324,0.013523,0.002678,0.000431,0.038197
56940000,0.0324,0.013523,0.002678,0.000431,0.031615
56941000,0.0324,0.013523,0.002678,0.000431,0.030910
56942000,0.0324,0.013523,0.002678,0.000431,0.028559
56943000,0.0324,0.013523,0.002678,0.000431,0.016336
56944000,0.0324,0.013523,0.002678,0.000431,0.022565
56945000,0.0324,0.013523,0.002678,0.000431,0.007992
56946000,0.0324,0.013523,0.002678,0.000431,0.013163
56947000,0.0324,0.013523,0.002678,0.000431,0.008109
56948000,0.0324,0.013523,0.002678,0.000431,0.004113
56949000,0.0324,0.013523,0.002678,0.000431,0.008227
56950000,0.0324,0.013523,0.002678,0.000431,0.004231
56951000,0.0324,0.013523,0.002678,0.000431,0.002116
56952000,0.0324,0.013523,0.002678,0.000431,0.002586
56953000,0.0324,0.013523,0.002678,0.000431,0.002586
56954000,0.0324,0.013523,0.002678,0.000431,0.002116
56955000,0.0324,0.013523,0.002678,0.000431,0.002703
56956000,0.0324,0.013523,0.002678,0.000431,0.002116
56957000,0.0324,0.013523,0.002678,0.000431,0.002351
56958000,0.0324,0.013523,0.002678,0.000431,0.003056
56959000,0.0324,0.013523,0.002678,0.000431,0.002703
56960000,0.0324,0.013523,0.002678,0.000431,0.000940
56961000,0.0324,0.013523,0.002678,0.000431,0.000940
56962000,0.0324,0.013523,0.002678,0.000431,0.000705
56963000,0.0324,0.013523,0.002678,0.000431,0.071810
56964000,0.0324,0.013523,0.002678,0.000431,0.774393
56965000,0.0324,0.013523,0.002678,0.000431,0.542393
56966000,0.0324,0.013523,0.002678,0.000431,0.135980
56967000,0.0324,0.013523,0.002678,0.000431,0.185695
56968000,0.0324,0.013523,0.002678,0.000431,0.510307
56969000,0.0324,0.013523,0.002678,0.000431,0.265379
56970000,0.0324,0.013523,0.002678,0.000431,0.297346
56971000,0.0324,0.013523,0.002678,0.000431,0.148086
56972000,0.0324,0.013523,0.002678,0.000431,0.151611
56973000,0.0324,0.013523,0.002678,0.000431,0.236819
56974000,0.0324,0.013523,0.002678,0.000431,0.483041
56975000,0.0324,0.013523,0.002678,0.000431,0.166537
56976000,0.0324,0.013523,0.002678,0.000431,0.169123
56977000,0.0324,0.013523,0.002678,0.000431,0.137273
56978000,0.0324,0.013523,0.002678,0.000431,0.114708
56979000,0.0324,0.013523,0.002678,0.000431,0.098136
56980000,0.0324,0.013523,0.002678,0.000431,0.078509
56981000,0.0324,0.013523,0.002678,0.000431,0.065933
56982000,0.0324,0.013523,0.002678,0.000431,0.064523
56983000,0.0324,0.013523,0.002678,0.000431,0.064641
56984000,0.0324,0.013523,0.002678,0.000431,0.045013
56985000,0.0324,0.013523,0.002678,0.000431,0.036904
56986000,0.0324,0.013523,0.002678,0.000431,0.032438
56987000,0.0324,0.013523,0.002678,0.000431,0.020450
56988000,0.0324,0.013523,0.002678,0.000431,0.012811
56989000,0.0324,0.013523,0.002678,0.000431,0.014691
56990000,0.0324,0.013523,0.002678,0.000431,0.011048
56991000,0.0324,0.013523,0.002678,0.000431,0.008462
56992000,0.0324,0.013523,0.002678,0.000431,0.008932
56993000,0.0324,0.013523,0.002678,0.000431,0.008932
56994000,0.0324,0.013523,0.002678,0.000431,0.011165
56995000,0.0324,0.013523,0.002678,0.000431,0.009637
56996000,0.0324,0.013523,0.002678,0.000431,0.006934
56997000,0.0324,0.013523,0.002678,0.000431,0.008815
56998000,0.0324,0.013523,0.002678,0.000431,0.007757
56999000,0.0324,0.013523,0.002678,0.000431,0.004584
