Cycle,Area(mm^2),PeakDynamic(W),SubthresholdLeakage(W),GateLeakage(W),RunTimeDynamic(W)
74000000,0.0324,0.013523,0.002678,0.000431,0.005406
74001000,0.0324,0.013523,0.002678,0.000431,0.000823
74002000,0.0324,0.013523,0.002678,0.000431,0.285829
74003000,0.0324,0.013523,0.002678,0.000431,0.834685
74004000,0.0324,0.013523,0.002678,0.000431,0.366453
74005000,0.0324,0.013523,0.002678,0.000431,0.138683
74006000,0.0324,0.013523,0.002678,0.000431,0.486919
74007000,0.0324,0.013523,0.002678,0.000431,0.241168
74008000,0.0324,0.013523,0.002678,0.000431,0.332605
74009000,0.0324,0.013523,0.002678,0.000431,0.152552
74010000,0.0324,0.013523,0.002678,0.000431,0.187693
74011000,0.0324,0.013523,0.002678,0.000431,0.133630
74012000,0.0324,0.013523,0.002678,0.000431,0.575653
74013000,0.0324,0.013523,0.002678,0.000431,0.188163
74014000,0.0324,0.013523,0.002678,0.000431,0.152669
74015000,0.0324,0.013523,0.002678,0.000431,0.131984
74016000,0.0324,0.013523,0.002678,0.000431,0.113180
74017000,0.0324,0.013523,0.002678,0.000431,0.103072
74018000,0.0324,0.013523,0.002678,0.000431,0.070634
74019000,0.0324,0.013523,0.002678,0.000431,0.060880
74020000,0.0324,0.013523,0.002678,0.000431,0.041605
74021000,0.0324,0.013523,0.002678,0.000431,0.044896
74022000,0.0324,0.013523,0.002678,0.000431,0.033848
74023000,0.0324,0.013523,0.002678,0.000431,0.026914
74024000,0.0324,0.013523,0.002678,0.000431,0.024563
74025000,0.0324,0.013523,0.002678,0.000431,0.023741
74026000,0.0324,0.013523,0.002678,0.000431,0.013986
74027000,0.0324,0.013523,0.002678,0.000431,0.018452
74028000,0.0324,0.013523,0.002678,0.000431,0.010695
74029000,0.0324,0.013523,0.002678,0.000431,0.012223
74030000,0.0324,0.013523,0.002678,0.000431,0.010578
74031000,0.0324,0.013523,0.002678,0.000431,0.009167
74032000,0.0324,0.013523,0.002678,0.000431,0.003526
74033000,0.0324,0.013523,0.002678,0.000431,0.381026
74034000,0.0324,0.013523,0.002678,0.000431,0.868416
74035000,0.0324,0.013523,0.002678,0.000431,0.204969
74036000,0.0324,0.013523,0.002678,0.000431,0.138683
74037000,0.0324,0.013523,0.002678,0.000431,0.474461
74038000,0.0324,0.013523,0.002678,0.000431,0.265496
74039000,0.0324,0.013523,0.002678,0.000431,0.294173
74040000,0.0324,0.013523,0.002678,0.000431,0.155372
74041000,0.0324,0.013523,0.002678,0.000431,0.156900
74042000,0.0324,0.013523,0.002678,0.000431,0.223421
74043000,0.0324,0.013523,0.002678,0.000431,0.560492
74044000,0.0324,0.013523,0.002678,0.000431,0.220600
74045000,0.0324,0.013523,0.002678,0.000431,0.214254
74046000,0.0324,0.013523,0.002678,0.000431,0.156195
74047000,0.0324,0.013523,0.002678,0.000431,0.118703
74048000,0.0324,0.013523,0.002678,0.000431,0.091554
74049000,0.0324,0.013523,0.002678,0.000431,0.078039
74050000,0.0324,0.013523,0.002678,0.000431,0.053123
74051000,0.0324,0.013523,0.002678,0.000431,0.036669
74052000,0.0324,0.013523,0.002678,0.000431,0.017512
74053000,0.0324,0.013523,0.002678,0.000431,0.010695
74054000,0.0324,0.013523,0.002678,0.000431,0.013163
74055000,0.0324,0.013523,0.002678,0.000431,0.009167
74056000,0.0324,0.013523,0.002678,0.000431,0.008815
74057000,0.0324,0.013523,0.002678,0.000431,0.008227
74058000,0.0324,0.013523,0.002678,0.000431,0.009872
74059000,0.0324,0.013523,0.002678,0.000431,0.009402
74060000,0.0324,0.013523,0.002678,0.000431,0.003996
74061000,0.0324,0.013523,0.002678,0.000431,0.008109
74062000,0.0324,0.013523,0.002678,0.000431,0.079802
74063000,0.0324,0.013523,0.002678,0.000431,0.905790
74064000,0.0324,0.013523,0.002678,0.000431,0.496322
74065000,0.0324,0.013523,0.002678,0.000431,0.140094
74066000,0.0324,0.013523,0.002678,0.000431,0.458125
74067000,0.0324,0.013523,0.002678,0.000431,0.247397
74068000,0.0324,0.013523,0.002678,0.000431,0.373857
74069000,0.0324,0.013523,0.002678,0.000431,0.167243
74070000,0.0324,0.013523,0.002678,0.000431,0.135275
74071000,0.0324,0.013523,0.002678,0.000431,0.272078
74072000,0.0324,0.013523,0.002678,0.000431,0.544508
74073000,0.0324,0.013523,0.002678,0.000431,0.201913
74074000,0.0324,0.013523,0.002678,0.000431,0.197447
74075000,0.0324,0.013523,0.002678,0.000431,0.148673
74076000,0.0324,0.013523,0.002678,0.000431,0.113415
74077000,0.0324,0.013523,0.002678,0.000431,0.096843
74078000,0.0324,0.013523,0.002678,0.000431,0.085796
74079000,0.0324,0.013523,0.002678,0.000431,0.069459
74080000,0.0324,0.013523,0.002678,0.000431,0.047011
74081000,0.0324,0.013523,0.002678,0.000431,0.027619
74082000,0.0324,0.013523,0.002678,0.000431,0.027384
74083000,0.0324,0.013523,0.002678,0.000431,0.018334
74084000,0.0324,0.013523,0.002678,0.000431,0.022213
74085000,0.0324,0.013523,0.002678,0.000431,0.007992
74086000,0.0324,0.013523,0.002678,0.000431,0.005406
74087000,0.0324,0.013523,0.002678,0.000431,0.009520
74088000,0.0324,0.013523,0.002678,0.000431,0.004819
74089000,0.0324,0.013523,0.002678,0.000431,0.002938
74090000,0.0324,0.013523,0.002678,0.000431,0.002821
74091000,0.0324,0.013523,0.002678,0.000431,0.003056
74092000,0.0324,0.013523,0.002678,0.000431,0.002586
74093000,0.0324,0.013523,0.002678,0.000431,0.003056
74094000,0.0324,0.013523,0.002678,0.000431,0.003173
74095000,0.0324,0.013523,0.002678,0.000431,0.002586
74096000,0.0324,0.013523,0.002678,0.000431,0.002703
74097000,0.0324,0.013523,0.002678,0.000431,0.003173
74098000,0.0324,0.013523,0.002678,0.000431,0.002703
74099000,0.0324,0.013523,0.002678,0.000431,0.002821
74100000,0.0324,0.013523,0.002678,0.000431,0.005406
74101000,0.0324,0.013523,0.002678,0.000431,0.001528
74102000,0.0324,0.013523,0.002678,0.000431,0.001880
74103000,0.0324,0.013523,0.002678,0.000431,0.001528
74104000,0.0324,0.013523,0.002678,0.000431,0.001998
74105000,0.0324,0.013523,0.002678,0.000431,0.001645
74106000,0.0324,0.013523,0.002678,0.000431,0.001763
74107000,0.0324,0.013523,0.002678,0.000431,0.001410
74108000,0.0324,0.013523,0.002678,0.000431,0.001998
74109000,0.0324,0.013523,0.002678,0.000431,0.001645
74110000,0.0324,0.013523,0.002678,0.000431,0.001880
74111000,0.0324,0.013523,0.002678,0.000431,0.002586
74112000,0.0324,0.013523,0.002678,0.000431,0.015161
74113000,0.0324,0.013523,0.002678,0.000431,0.828574
74114000,0.0324,0.013523,0.002678,0.000431,0.569777
74115000,0.0324,0.013523,0.002678,0.000431,0.144560
74116000,0.0324,0.013523,0.002678,0.000431,0.205557
74117000,0.0324,0.013523,0.002678,0.000431,0.511365
74118000,0.0324,0.013523,0.002678,0.000431,0.276896
74119000,0.0324,0.013523,0.002678,0.000431,0.256211
74120000,0.0324,0.013523,0.002678,0.000431,0.188515
74121000,0.0324,0.013523,0.002678,0.000431,0.086501
74122000,0.0324,0.013523,0.002678,0.000431,0.615848
74123000,0.0324,0.013523,0.002678,0.000431,0.260560
74124000,0.0324,0.013523,0.002678,0.000431,0.213784
74125000,0.0324,0.013523,0.002678,0.000431,0.181699
74126000,0.0324,0.013523,0.002678,0.000431,0.144325
74127000,0.0324,0.013523,0.002678,0.000431,0.130691
74128000,0.0324,0.013523,0.002678,0.000431,0.100252
74129000,0.0324,0.013523,0.002678,0.000431,0.082740
74130000,0.0324,0.013523,0.002678,0.000431,0.046071
74131000,0.0324,0.013523,0.002678,0.000431,0.036551
74132000,0.0324,0.013523,0.002678,0.000431,0.019157
74133000,0.0324,0.013523,0.002678,0.000431,0.012340
74134000,0.0324,0.013523,0.002678,0.000431,0.007052
74135000,0.0324,0.013523,0.002678,0.000431,0.011635
74136000,0.0324,0.013523,0.002678,0.000431,0.006699
74137000,0.0324,0.013523,0.002678,0.000431,0.002116
74138000,0.0324,0.013523,0.002678,0.000431,0.002586
74139000,0.0324,0.013523,0.002678,0.000431,0.002468
74140000,0.0324,0.013523,0.002678,0.000431,0.002233
74141000,0.0324,0.013523,0.002678,0.000431,0.002703
74142000,0.0324,0.013523,0.002678,0.000431,0.002233
74143000,0.0324,0.013523,0.002678,0.000431,0.002116
74144000,0.0324,0.013523,0.002678,0.000431,0.002116
74145000,0.0324,0.013523,0.002678,0.000431,0.005054
74146000,0.0324,0.013523,0.002678,0.000431,0.001175
74147000,0.0324,0.013523,0.002678,0.000431,0.001645
74148000,0.0324,0.013523,0.002678,0.000431,0.001058
74149000,0.0324,0.013523,0.002678,0.000431,0.010813
74150000,0.0324,0.013523,0.002678,0.000431,0.735961
74151000,0.0324,0.013523,0.002678,0.000431,0.654985
74152000,0.0324,0.013523,0.002678,0.000431,0.146323
74153000,0.0324,0.013523,0.002678,0.000431,0.173472
74154000,0.0324,0.013523,0.002678,0.000431,0.511483
74155000,0.0324,0.013523,0.002678,0.000431,0.308276
74156000,0.0324,0.013523,0.002678,0.000431,0.255036
74157000,0.0324,0.013523,0.002678,0.000431,0.190278
74158000,0.0324,0.013523,0.002678,0.000431,0.089204
74159000,0.0324,0.013523,0.002678,0.000431,0.599394
74160000,0.0324,0.013523,0.002678,0.000431,0.278189
74161000,0.0324,0.013523,0.002678,0.000431,0.214371
74162000,0.0324,0.013523,0.002678,0.000431,0.183109
74163000,0.0324,0.013523,0.002678,0.000431,0.169593
74164000,0.0324,0.013523,0.002678,0.000431,0.138213
74165000,0.0324,0.013523,0.002678,0.000431,0.119879
74166000,0.0324,0.013523,0.002678,0.000431,0.090027
74167000,0.0324,0.013523,0.002678,0.000431,0.075218
74168000,0.0324,0.013523,0.002678,0.000431,0.061232
74169000,0.0324,0.013523,0.002678,0.000431,0.055943
74170000,0.0324,0.013523,0.002678,0.000431,0.040195
74171000,0.0324,0.013523,0.002678,0.000431,0.013751
74172000,0.0324,0.013523,0.002678,0.000431,0.013633
74173000,0.0324,0.013523,0.002678,0.000431,0.009402
74174000,0.0324,0.013523,0.002678,0.000431,0.013163
74175000,0.0324,0.013523,0.002678,0.000431,0.003291
74176000,0.0324,0.013523,0.002678,0.000431,0.003173
74177000,0.0324,0.013523,0.002678,0.000431,0.003408
74178000,0.0324,0.013523,0.002678,0.000431,0.003056
74179000,0.0324,0.013523,0.002678,0.000431,0.003643
74180000,0.0324,0.013523,0.002678,0.000431,0.003173
74181000,0.0324,0.013523,0.002678,0.000431,0.004936
74182000,0.0324,0.013523,0.002678,0.000431,0.004113
74183000,0.0324,0.013523,0.002678,0.000431,0.002586
74184000,0.0324,0.013523,0.002678,0.000431,0.002821
74185000,0.0324,0.013523,0.002678,0.000431,0.002116
74186000,0.0324,0.013523,0.002678,0.000431,0.002703
74187000,0.0324,0.013523,0.002678,0.000431,0.002351
74188000,0.0324,0.013523,0.002678,0.000431,0.002703
74189000,0.0324,0.013523,0.002678,0.000431,0.004349
74190000,0.0324,0.013523,0.002678,0.000431,0.003173
74191000,0.0324,0.013523,0.002678,0.000431,0.000705
74192000,0.0324,0.013523,0.002678,0.000431,0.000940
74193000,0.0324,0.013523,0.002678,0.000431,0.000940
74194000,0.0324,0.013523,0.002678,0.000431,0.000705
74195000,0.0324,0.013523,0.002678,0.000431,0.000940
74196000,0.0324,0.013523,0.002678,0.000431,0.000705
74197000,0.0324,0.013523,0.002678,0.000431,0.000940
74198000,0.0324,0.013523,0.002678,0.000431,0.000823
74199000,0.0324,0.013523,0.002678,0.000431,0.000823
74200000,0.0324,0.013523,0.002678,0.000431,0.000823
74201000,0.0324,0.013523,0.002678,0.000431,0.000823
74202000,0.0324,0.013523,0.002678,0.000431,0.000940
74203000,0.0324,0.013523,0.002678,0.000431,0.000705
74204000,0.0324,0.013523,0.002678,0.000431,0.000940
74205000,0.0324,0.013523,0.002678,0.000431,0.000823
74206000,0.0324,0.013523,0.002678,0.000431,0.000823
74207000,0.0324,0.013523,0.002678,0.000431,0.000823
74208000,0.0324,0.013523,0.002678,0.000431,0.000823
74209000,0.0324,0.013523,0.002678,0.000431,0.000823
74210000,0.0324,0.013523,0.002678,0.000431,0.000940
74211000,0.0324,0.013523,0.002678,0.000431,0.071692
74212000,0.0324,0.013523,0.002678,0.000431,0.888160
74213000,0.0324,0.013523,0.002678,0.000431,0.520415
74214000,0.0324,0.013523,0.002678,0.000431,0.140094
74215000,0.0324,0.013523,0.002678,0.000431,0.501845
74216000,0.0324,0.013523,0.002678,0.000431,0.270315
74217000,0.0324,0.013523,0.002678,0.000431,0.358578
74218000,0.0324,0.013523,0.002678,0.000431,0.158193
74219000,0.0324,0.013523,0.002678,0.000431,0.126695
74220000,0.0324,0.013523,0.002678,0.000431,0.322380
74221000,0.0324,0.013523,0.002678,0.000431,0.495146
74222000,0.0324,0.013523,0.002678,0.000431,0.203794
74223000,0.0324,0.013523,0.002678,0.000431,0.172766
74224000,0.0324,0.013523,0.002678,0.000431,0.157018
74225000,0.0324,0.013523,0.002678,0.000431,0.120819
74226000,0.0324,0.013523,0.002678,0.000431,0.113767
74227000,0.0324,0.013523,0.002678,0.000431,0.056296
74228000,0.0324,0.013523,0.002678,0.000431,0.041370
74229000,0.0324,0.013523,0.002678,0.000431,0.036434
74230000,0.0324,0.013523,0.002678,0.000431,0.014926
74231000,0.0324,0.013523,0.002678,0.000431,0.024446
74232000,0.0324,0.013523,0.002678,0.000431,0.012340
74233000,0.0324,0.013523,0.002678,0.000431,0.014456
74234000,0.0324,0.013523,0.002678,0.000431,0.005406
74235000,0.0324,0.013523,0.002678,0.000431,0.002821
74236000,0.0324,0.013523,0.002678,0.000431,0.004701
74237000,0.0324,0.013523,0.002678,0.000431,0.017277
74238000,0.0324,0.013523,0.002678,0.000431,0.861599
74239000,0.0324,0.013523,0.002678,0.000431,0.539807
74240000,0.0324,0.013523,0.002678,0.000431,0.143854
74241000,0.0324,0.013523,0.002678,0.000431,0.272430
74242000,0.0324,0.013523,0.002678,0.000431,0.408528
74243000,0.0324,0.013523,0.002678,0.000431,0.320147
74244000,0.0324,0.013523,0.002678,0.000431,0.228122
74245000,0.0324,0.013523,0.002678,0.000431,0.170063
74246000,0.0324,0.013523,0.002678,0.000431,0.151729
74247000,0.0324,0.013523,0.002678,0.000431,0.592460
74248000,0.0324,0.013523,0.002678,0.000431,0.212021
74249000,0.0324,0.013523,0.002678,0.000431,0.175822
74250000,0.0324,0.013523,0.002678,0.000431,0.154550
74251000,0.0324,0.013523,0.002678,0.000431,0.130809
74252000,0.0324,0.013523,0.002678,0.000431,0.097078
74253000,0.0324,0.013523,0.002678,0.000431,0.084973
74254000,0.0324,0.013523,0.002678,0.000431,0.067814
74255000,0.0324,0.013523,0.002678,0.000431,0.039489
74256000,0.0324,0.013523,0.002678,0.000431,0.035494
74257000,0.0324,0.013523,0.002678,0.000431,0.027267
74258000,0.0324,0.013523,0.002678,0.000431,0.027854
74259000,0.0324,0.013523,0.002678,0.000431,0.013868
74260000,0.0324,0.013523,0.002678,0.000431,0.015866
74261000,0.0324,0.013523,0.002678,0.000431,0.012693
74262000,0.0324,0.013523,0.002678,0.000431,0.006934
74263000,0.0324,0.013523,0.002678,0.000431,0.009285
74264000,0.0324,0.013523,0.002678,0.000431,0.011283
74265000,0.0324,0.013523,0.002678,0.000431,0.003291
74266000,0.0324,0.013523,0.002678,0.000431,0.005759
74267000,0.0324,0.013523,0.002678,0.000431,0.002468
74268000,0.0324,0.013523,0.002678,0.000431,0.002586
74269000,0.0324,0.013523,0.002678,0.000431,0.005876
74270000,0.0324,0.013523,0.002678,0.000431,0.001528
74271000,0.0324,0.013523,0.002678,0.000431,0.001645
74272000,0.0324,0.013523,0.002678,0.000431,0.001880
74273000,0.0324,0.013523,0.002678,0.000431,0.001410
74274000,0.0324,0.013523,0.002678,0.000431,0.001880
74275000,0.0324,0.013523,0.002678,0.000431,0.001645
74276000,0.0324,0.013523,0.002678,0.000431,0.001410
74277000,0.0324,0.013523,0.002678,0.000431,0.017159
74278000,0.0324,0.013523,0.002678,0.000431,0.888160
74279000,0.0324,0.013523,0.002678,0.000431,0.542040
74280000,0.0324,0.013523,0.002678,0.000431,0.137508
74281000,0.0324,0.013523,0.002678,0.000431,0.292763
74282000,0.0324,0.013523,0.002678,0.000431,0.534283
74283000,0.0324,0.013523,0.002678,0.000431,0.261853
74284000,0.0324,0.013523,0.002678,0.000431,0.210963
74285000,0.0324,0.013523,0.002678,0.000431,0.164304
74286000,0.0324,0.013523,0.002678,0.000431,0.159133
74287000,0.0324,0.013523,0.002678,0.000431,0.592342
74288000,0.0324,0.013523,0.002678,0.000431,0.221423
74289000,0.0324,0.013523,0.002678,0.000431,0.195332
74290000,0.0324,0.013523,0.002678,0.000431,0.174529
74291000,0.0324,0.013523,0.002678,0.000431,0.142092
74292000,0.0324,0.013523,0.002678,0.000431,0.121407
74293000,0.0324,0.013523,0.002678,0.000431,0.100604
74294000,0.0324,0.013523,0.002678,0.000431,0.086736
74295000,0.0324,0.013523,0.002678,0.000431,0.060527
74296000,0.0324,0.013523,0.002678,0.000431,0.055826
74297000,0.0324,0.013523,0.002678,0.000431,0.052300
74298000,0.0324,0.013523,0.002678,0.000431,0.034788
74299000,0.0324,0.013523,0.002678,0.000431,0.023741
74300000,0.0324,0.013523,0.002678,0.000431,0.017277
74301000,0.0324,0.013523,0.002678,0.000431,0.018217
74302000,0.0324,0.013523,0.002678,0.000431,0.019040
74303000,0.0324,0.013523,0.002678,0.000431,0.010930
74304000,0.0324,0.013523,0.002678,0.000431,0.014456
74305000,0.0324,0.013523,0.002678,0.000431,0.008227
74306000,0.0324,0.013523,0.002678,0.000431,0.004936
74307000,0.0324,0.013523,0.002678,0.000431,0.008109
74308000,0.0324,0.013523,0.002678,0.000431,0.008932
74309000,0.0324,0.013523,0.002678,0.000431,0.005054
74310000,0.0324,0.013523,0.002678,0.000431,0.004113
74311000,0.0324,0.013523,0.002678,0.000431,0.003643
74312000,0.0324,0.013523,0.002678,0.000431,0.002938
74313000,0.0324,0.013523,0.002678,0.000431,0.007404
74314000,0.0324,0.013523,0.002678,0.000431,0.003291
74315000,0.0324,0.013523,0.002678,0.000431,0.002351
74316000,0.0324,0.013523,0.002678,0.000431,0.015631
74317000,0.0324,0.013523,0.002678,0.000431,0.881931
74318000,0.0324,0.013523,0.002678,0.000431,0.532755
74319000,0.0324,0.013523,0.002678,0.000431,0.137508
74320000,0.0324,0.013523,0.002678,0.000431,0.209788
74321000,0.0324,0.013523,0.002678,0.000431,0.508544
74322000,0.0324,0.013523,0.002678,0.000431,0.267494
74323000,0.0324,0.013523,0.002678,0.000431,0.228945
74324000,0.0324,0.013523,0.002678,0.000431,0.164775
74325000,0.0324,0.013523,0.002678,0.000431,0.110947
74326000,0.0324,0.013523,0.002678,0.000431,0.513598
74327000,0.0324,0.013523,0.002678,0.000431,0.322262
74328000,0.0324,0.013523,0.002678,0.000431,0.199210
74329000,0.0324,0.013523,0.002678,0.000431,0.156430
74330000,0.0324,0.013523,0.002678,0.000431,0.142914
74331000,0.0324,0.013523,0.002678,0.000431,0.130339
74332000,0.0324,0.013523,0.002678,0.000431,0.091202
74333000,0.0324,0.013523,0.002678,0.000431,0.083210
74334000,0.0324,0.013523,0.002678,0.000431,0.054886
74335000,0.0324,0.013523,0.002678,0.000431,0.052770
74336000,0.0324,0.013523,0.002678,0.000431,0.037256
74337000,0.0324,0.013523,0.002678,0.000431,0.038197
74338000,0.0324,0.013523,0.002678,0.000431,0.025386
74339000,0.0324,0.013523,0.002678,0.000431,0.028442
74340000,0.0324,0.013523,0.002678,0.000431,0.016571
74341000,0.0324,0.013523,0.002678,0.000431,0.014573
74342000,0.0324,0.013523,0.002678,0.000431,0.018569
74343000,0.0324,0.013523,0.002678,0.000431,0.011400
74344000,0.0324,0.013523,0.002678,0.000431,0.013163
74345000,0.0324,0.013523,0.002678,0.000431,0.013868
74346000,0.0324,0.013523,0.002678,0.000431,0.011165
74347000,0.0324,0.013523,0.002678,0.000431,0.009520
74348000,0.0324,0.013523,0.002678,0.000431,0.006582
74349000,0.0324,0.013523,0.002678,0.000431,0.006817
74350000,0.0324,0.013523,0.002678,0.000431,0.011165
74351000,0.0324,0.013523,0.002678,0.000431,0.004349
74352000,0.0324,0.013523,0.002678,0.000431,0.003408
74353000,0.0324,0.013523,0.002678,0.000431,0.007992
74354000,0.0324,0.013523,0.002678,0.000431,0.004701
74355000,0.0324,0.013523,0.002678,0.000431,0.002821
74356000,0.0324,0.013523,0.002678,0.000431,0.000823
74357000,0.0324,0.013523,0.002678,0.000431,0.000823
74358000,0.0324,0.013523,0.002678,0.000431,0.000940
74359000,0.0324,0.013523,0.002678,0.000431,0.000705
74360000,0.0324,0.013523,0.002678,0.000431,0.000940
74361000,0.0324,0.013523,0.002678,0.000431,0.000823
74362000,0.0324,0.013523,0.002678,0.000431,0.000823
74363000,0.0324,0.013523,0.002678,0.000431,0.000705
74364000,0.0324,0.013523,0.002678,0.000431,0.000940
74365000,0.0324,0.013523,0.002678,0.000431,0.000940
74366000,0.0324,0.013523,0.002678,0.000431,0.000705
74367000,0.0324,0.013523,0.002678,0.000431,0.000940
74368000,0.0324,0.013523,0.002678,0.000431,0.000705
74369000,0.0324,0.013523,0.002678,0.000431,0.000940
74370000,0.0324,0.013523,0.002678,0.000431,0.000823
74371000,0.0324,0.013523,0.002678,0.000431,0.000823
74372000,0.0324,0.013523,0.002678,0.000431,0.000940
74373000,0.0324,0.013523,0.002678,0.000431,0.000705
74374000,0.0324,0.013523,0.002678,0.000431,0.000940
74375000,0.0324,0.013523,0.002678,0.000431,0.000705
74376000,0.0324,0.013523,0.002678,0.000431,0.021860
74377000,0.0324,0.013523,0.002678,0.000431,0.853842
74378000,0.0324,0.013523,0.002678,0.000431,0.530170
74379000,0.0324,0.013523,0.002678,0.000431,0.138096
74380000,0.0324,0.013523,0.002678,0.000431,0.253626
74381000,0.0324,0.013523,0.002678,0.000431,0.475519
74382000,0.0324,0.013523,0.002678,0.000431,0.277719
74383000,0.0324,0.013523,0.002678,0.000431,0.235879
74384000,0.0324,0.013523,0.002678,0.000431,0.189103
74385000,0.0324,0.013523,0.002678,0.000431,0.096726
74386000,0.0324,0.013523,0.002678,0.000431,0.594105
74387000,0.0324,0.013523,0.002678,0.000431,0.228710
74388000,0.0324,0.013523,0.002678,0.000431,0.180641
74389000,0.0324,0.013523,0.002678,0.000431,0.169123
74390000,0.0324,0.013523,0.002678,0.000431,0.121407
74391000,0.0324,0.013523,0.002678,0.000431,0.099311
74392000,0.0324,0.013523,0.002678,0.000431,0.075336
74393000,0.0324,0.013523,0.002678,0.000431,0.047834
74394000,0.0324,0.013523,0.002678,0.000431,0.052535
74395000,0.0324,0.013523,0.002678,0.000431,0.025739
74396000,0.0324,0.013523,0.002678,0.000431,0.016101
74397000,0.0324,0.013523,0.002678,0.000431,0.015984
74398000,0.0324,0.013523,0.002678,0.000431,0.010225
74399000,0.0324,0.013523,0.002678,0.000431,0.009990
74400000,0.0324,0.013523,0.002678,0.000431,0.006817
74401000,0.0324,0.013523,0.002678,0.000431,0.002938
74402000,0.0324,0.013523,0.002678,0.000431,0.003996
74403000,0.0324,0.013523,0.002678,0.000431,0.000940
74404000,0.0324,0.013523,0.002678,0.000431,0.000705
74405000,0.0324,0.013523,0.002678,0.000431,0.000940
74406000,0.0324,0.013523,0.002678,0.000431,0.000705
74407000,0.0324,0.013523,0.002678,0.000431,0.000940
74408000,0.0324,0.013523,0.002678,0.000431,0.000823
74409000,0.0324,0.013523,0.002678,0.000431,0.000823
74410000,0.0324,0.013523,0.002678,0.000431,0.000940
74411000,0.0324,0.013523,0.002678,0.000431,0.000705
74412000,0.0324,0.013523,0.002678,0.000431,0.001880
74413000,0.0324,0.013523,0.002678,0.000431,0.620431
74414000,0.0324,0.013523,0.002678,0.000431,0.767106
74415000,0.0324,0.013523,0.002678,0.000431,0.149026
74416000,0.0324,0.013523,0.002678,0.000431,0.139388
74417000,0.0324,0.013523,0.002678,0.000431,0.505959
74418000,0.0324,0.013523,0.002678,0.000431,0.267729
74419000,0.0324,0.013523,0.002678,0.000431,0.289589
74420000,0.0324,0.013523,0.002678,0.000431,0.159133
74421000,0.0324,0.013523,0.002678,0.000431,0.132807
74422000,0.0324,0.013523,0.002678,0.000431,0.329314
74423000,0.0324,0.013523,0.002678,0.000431,0.457420
74424000,0.0324,0.013523,0.002678,0.000431,0.192629
74425000,0.0324,0.013523,0.002678,0.000431,0.182286
74426000,0.0324,0.013523,0.002678,0.000431,0.139388
74427000,0.0324,0.013523,0.002678,0.000431,0.101779
74428000,0.0324,0.013523,0.002678,0.000431,0.107538
74429000,0.0324,0.013523,0.002678,0.000431,0.074748
74430000,0.0324,0.013523,0.002678,0.000431,0.041840
74431000,0.0324,0.013523,0.002678,0.000431,0.036199
74432000,0.0324,0.013523,0.002678,0.000431,0.028794
74433000,0.0324,0.013523,0.002678,0.000431,0.023036
74434000,0.0324,0.013523,0.002678,0.000431,0.015514
74435000,0.0324,0.013523,0.002678,0.000431,0.012928
74436000,0.0324,0.013523,0.002678,0.000431,0.011518
74437000,0.0324,0.013523,0.002678,0.000431,0.014926
74438000,0.0324,0.013523,0.002678,0.000431,0.011048
74439000,0.0324,0.013523,0.002678,0.000431,0.011400
74440000,0.0324,0.013523,0.002678,0.000431,0.011165
74441000,0.0324,0.013523,0.002678,0.000431,0.009050
74442000,0.0324,0.013523,0.002678,0.000431,0.004466
74443000,0.0324,0.013523,0.002678,0.000431,0.004466
74444000,0.0324,0.013523,0.002678,0.000431,0.008580
74445000,0.0324,0.013523,0.002678,0.000431,0.003996
74446000,0.0324,0.013523,0.002678,0.000431,0.007757
74447000,0.0324,0.013523,0.002678,0.000431,0.002586
74448000,0.0324,0.013523,0.002678,0.000431,0.003056
74449000,0.0324,0.013523,0.002678,0.000431,0.003291
74450000,0.0324,0.013523,0.002678,0.000431,0.003173
74451000,0.0324,0.013523,0.002678,0.000431,0.003643
74452000,0.0324,0.013523,0.002678,0.000431,0.002821
74453000,0.0324,0.013523,0.002678,0.000431,0.002703
74454000,0.0324,0.013523,0.002678,0.000431,0.003643
74455000,0.0324,0.013523,0.002678,0.000431,0.002703
74456000,0.0324,0.013523,0.002678,0.000431,0.003643
74457000,0.0324,0.013523,0.002678,0.000431,0.000940
74458000,0.0324,0.013523,0.002678,0.000431,0.000705
74459000,0.0324,0.013523,0.002678,0.000431,0.000940
74460000,0.0324,0.013523,0.002678,0.000431,0.000705
74461000,0.0324,0.013523,0.002678,0.000431,0.000940
74462000,0.0324,0.013523,0.002678,0.000431,0.000823
74463000,0.0324,0.013523,0.002678,0.000431,0.000823
74464000,0.0324,0.013523,0.002678,0.000431,0.000823
74465000,0.0324,0.013523,0.002678,0.000431,0.000823
74466000,0.0324,0.013523,0.002678,0.000431,0.000940
74467000,0.0324,0.013523,0.002678,0.000431,0.000705
74468000,0.0324,0.013523,0.002678,0.000431,0.000940
74469000,0.0324,0.013523,0.002678,0.000431,0.000823
74470000,0.0324,0.013523,0.002678,0.000431,0.000705
74471000,0.0324,0.013523,0.002678,0.000431,0.000940
74472000,0.0324,0.013523,0.002678,0.000431,0.000823
74473000,0.0324,0.013523,0.002678,0.000431,0.000823
74474000,0.0324,0.013523,0.002678,0.000431,0.000823
74475000,0.0324,0.013523,0.002678,0.000431,0.000823
74476000,0.0324,0.013523,0.002678,0.000431,0.000823
74477000,0.0324,0.013523,0.002678,0.000431,0.000940
74478000,0.0324,0.013523,0.002678,0.000431,0.000823
74479000,0.0324,0.013523,0.002678,0.000431,0.000823
74480000,0.0324,0.013523,0.002678,0.000431,0.000940
74481000,0.0324,0.013523,0.002678,0.000431,0.000823
74482000,0.0324,0.013523,0.002678,0.000431,0.001058
74483000,0.0324,0.013523,0.002678,0.000431,0.000705
74484000,0.0324,0.013523,0.002678,0.000431,0.000940
74485000,0.0324,0.013523,0.002678,0.000431,0.014809
74486000,0.0324,0.013523,0.002678,0.000431,0.778389
74487000,0.0324,0.013523,0.002678,0.000431,0.581529
74488000,0.0324,0.013523,0.002678,0.000431,0.141739
74489000,0.0324,0.013523,0.002678,0.000431,0.154902
74490000,0.0324,0.013523,0.002678,0.000431,0.552853
74491000,0.0324,0.013523,0.002678,0.000431,0.260325
74492000,0.0324,0.013523,0.002678,0.000431,0.283360
74493000,0.0324,0.013523,0.002678,0.000431,0.160543
74494000,0.0324,0.013523,0.002678,0.000431,0.106481
74495000,0.0324,0.013523,0.002678,0.000431,0.443316
74496000,0.0324,0.013523,0.002678,0.000431,0.381496
74497000,0.0324,0.013523,0.002678,0.000431,0.205439
74498000,0.0324,0.013523,0.002678,0.000431,0.175705
74499000,0.0324,0.013523,0.002678,0.000431,0.147028
74500000,0.0324,0.013523,0.002678,0.000431,0.122464
74501000,0.0324,0.013523,0.002678,0.000431,0.102132
74502000,0.0324,0.013523,0.002678,0.000431,0.068872
74503000,0.0324,0.013523,0.002678,0.000431,0.051830
74504000,0.0324,0.013523,0.002678,0.000431,0.048187
74505000,0.0324,0.013523,0.002678,0.000431,0.026679
74506000,0.0324,0.013523,0.002678,0.000431,0.030792
74507000,0.0324,0.013523,0.002678,0.000431,0.023036
74508000,0.0324,0.013523,0.002678,0.000431,0.011283
74509000,0.0324,0.013523,0.002678,0.000431,0.009285
74510000,0.0324,0.013523,0.002678,0.000431,0.009050
74511000,0.0324,0.013523,0.002678,0.000431,0.002703
74512000,0.0324,0.013523,0.002678,0.000431,0.005054
74513000,0.0324,0.013523,0.002678,0.000431,0.238935
74514000,0.0324,0.013523,0.002678,0.000431,0.761348
74515000,0.0324,0.013523,0.002678,0.000431,0.450603
74516000,0.0324,0.013523,0.002678,0.000431,0.139623
74517000,0.0324,0.013523,0.002678,0.000431,0.523706
74518000,0.0324,0.013523,0.002678,0.000431,0.250923
74519000,0.0324,0.013523,0.002678,0.000431,0.311097
74520000,0.0324,0.013523,0.002678,0.000431,0.174059
74521000,0.0324,0.013523,0.002678,0.000431,0.167948
74522000,0.0324,0.013523,0.002678,0.000431,0.161014
74523000,0.0324,0.013523,0.002678,0.000431,0.553440
74524000,0.0324,0.013523,0.002678,0.000431,0.171239
74525000,0.0324,0.013523,0.002678,0.000431,0.148791
74526000,0.0324,0.013523,0.002678,0.000431,0.134335
74527000,0.0324,0.013523,0.002678,0.000431,0.104130
74528000,0.0324,0.013523,0.002678,0.000431,0.076393
74529000,0.0324,0.013523,0.002678,0.000431,0.056296
74530000,0.0324,0.013523,0.002678,0.000431,0.044778
74531000,0.0324,0.013523,0.002678,0.000431,0.024563
74532000,0.0324,0.013523,0.002678,0.000431,0.017042
74533000,0.0324,0.013523,0.002678,0.000431,0.011518
74534000,0.0324,0.013523,0.002678,0.000431,0.012340
74535000,0.0324,0.013523,0.002678,0.000431,0.006817
74536000,0.0324,0.013523,0.002678,0.000431,0.002586
74537000,0.0324,0.013523,0.002678,0.000431,0.002586
74538000,0.0324,0.013523,0.002678,0.000431,0.002351
74539000,0.0324,0.013523,0.002678,0.000431,0.002586
74540000,0.0324,0.013523,0.002678,0.000431,0.005054
74541000,0.0324,0.013523,0.002678,0.000431,0.001528
74542000,0.0324,0.013523,0.002678,0.000431,0.001880
74543000,0.0324,0.013523,0.002678,0.000431,0.001645
74544000,0.0324,0.013523,0.002678,0.000431,0.001645
74545000,0.0324,0.013523,0.002678,0.000431,0.001645
74546000,0.0324,0.013523,0.002678,0.000431,0.001645
74547000,0.0324,0.013523,0.002678,0.000431,0.001880
74548000,0.0324,0.013523,0.002678,0.000431,0.001645
74549000,0.0324,0.013523,0.002678,0.000431,0.001645
74550000,0.0324,0.013523,0.002678,0.000431,0.001645
74551000,0.0324,0.013523,0.002678,0.000431,0.001645
74552000,0.0324,0.013523,0.002678,0.000431,0.001763
74553000,0.0324,0.013523,0.002678,0.000431,0.001645
74554000,0.0324,0.013523,0.002678,0.000431,0.001645
74555000,0.0324,0.013523,0.002678,0.000431,0.001645
74556000,0.0324,0.013523,0.002678,0.000431,0.001763
74557000,0.0324,0.013523,0.002678,0.000431,0.001410
74558000,0.0324,0.013523,0.002678,0.000431,0.001880
74559000,0.0324,0.013523,0.002678,0.000431,0.001528
74560000,0.0324,0.013523,0.002678,0.000431,0.001763
74561000,0.0324,0.013523,0.002678,0.000431,0.001528
74562000,0.0324,0.013523,0.002678,0.000431,0.004113
74563000,0.0324,0.013523,0.002678,0.000431,0.000940
74564000,0.0324,0.013523,0.002678,0.000431,0.000823
74565000,0.0324,0.013523,0.002678,0.000431,0.000823
74566000,0.0324,0.013523,0.002678,0.000431,0.000823
74567000,0.0324,0.013523,0.002678,0.000431,0.000823
74568000,0.0324,0.013523,0.002678,0.000431,0.017394
74569000,0.0324,0.013523,0.002678,0.000431,0.800837
74570000,0.0324,0.013523,0.002678,0.000431,0.537221
74571000,0.0324,0.013523,0.002678,0.000431,0.136333
74572000,0.0324,0.013523,0.002678,0.000431,0.146323
74573000,0.0324,0.013523,0.002678,0.000431,0.532168
74574000,0.0324,0.013523,0.002678,0.000431,0.266084
74575000,0.0324,0.013523,0.002678,0.000431,0.285711
74576000,0.0324,0.013523,0.002678,0.000431,0.158310
74577000,0.0324,0.013523,0.002678,0.000431,0.154315
74578000,0.0324,0.013523,0.002678,0.000431,0.213784
74579000,0.0324,0.013523,0.002678,0.000431,0.541217
74580000,0.0324,0.013523,0.002678,0.000431,0.250688
74581000,0.0324,0.013523,0.002678,0.000431,0.240228
74582000,0.0324,0.013523,0.002678,0.000431,0.198740
74583000,0.0324,0.013523,0.002678,0.000431,0.168183
74584000,0.0324,0.013523,0.002678,0.000431,0.139859
74585000,0.0324,0.013523,0.002678,0.000431,0.122464
74586000,0.0324,0.013523,0.002678,0.000431,0.091084
74587000,0.0324,0.013523,0.002678,0.000431,0.074043
74588000,0.0324,0.013523,0.002678,0.000431,0.071222
74589000,0.0324,0.013523,0.002678,0.000431,0.063818
74590000,0.0324,0.013523,0.002678,0.000431,0.044426
74591000,0.0324,0.013523,0.002678,0.000431,0.036081
74592000,0.0324,0.013523,0.002678,0.000431,0.025621
74593000,0.0324,0.013523,0.002678,0.000431,0.020215
74594000,0.0324,0.013523,0.002678,0.000431,0.023153
74595000,0.0324,0.013523,0.002678,0.000431,0.013986
74596000,0.0324,0.013523,0.002678,0.000431,0.014221
74597000,0.0324,0.013523,0.002678,0.000431,0.006582
74598000,0.0324,0.013523,0.002678,0.000431,0.010813
74599000,0.0324,0.013523,0.002678,0.000431,0.005406
74600000,0.0324,0.013523,0.002678,0.000431,0.008227
74601000,0.0324,0.013523,0.002678,0.000431,0.011635
74602000,0.0324,0.013523,0.002678,0.000431,0.001528
74603000,0.0324,0.013523,0.002678,0.000431,0.001645
74604000,0.0324,0.013523,0.002678,0.000431,0.001528
74605000,0.0324,0.013523,0.002678,0.000431,0.001528
74606000,0.0324,0.013523,0.002678,0.000431,0.001880
74607000,0.0324,0.013523,0.002678,0.000431,0.001175
74608000,0.0324,0.013523,0.002678,0.000431,0.001880
74609000,0.0324,0.013523,0.002678,0.000431,0.001528
74610000,0.0324,0.013523,0.002678,0.000431,0.001528
74611000,0.0324,0.013523,0.002678,0.000431,0.001645
74612000,0.0324,0.013523,0.002678,0.000431,0.001410
74613000,0.0324,0.013523,0.002678,0.000431,0.001880
74614000,0.0324,0.013523,0.002678,0.000431,0.001410
74615000,0.0324,0.013523,0.002678,0.000431,0.001528
74616000,0.0324,0.013523,0.002678,0.000431,0.001293
74617000,0.0324,0.013523,0.002678,0.000431,0.001645
74618000,0.0324,0.013523,0.002678,0.000431,0.001410
74619000,0.0324,0.013523,0.002678,0.000431,0.001058
74620000,0.0324,0.013523,0.002678,0.000431,0.000940
74621000,0.0324,0.013523,0.002678,0.000431,0.000705
74622000,0.0324,0.013523,0.002678,0.000431,0.285476
74623000,0.0324,0.013523,0.002678,0.000431,0.813648
74624000,0.0324,0.013523,0.002678,0.000431,0.382202
74625000,0.0324,0.013523,0.002678,0.000431,0.141386
74626000,0.0324,0.013523,0.002678,0.000431,0.592930
74627000,0.0324,0.013523,0.002678,0.000431,0.249160
74628000,0.0324,0.013523,0.002678,0.000431,0.333663
74629000,0.0324,0.013523,0.002678,0.000431,0.164187
74630000,0.0324,0.013523,0.002678,0.000431,0.105658
74631000,0.0324,0.013523,0.002678,0.000431,0.562490
74632000,0.0324,0.013523,0.002678,0.000431,0.247514
74633000,0.0324,0.013523,0.002678,0.000431,0.189220
74634000,0.0324,0.013523,0.002678,0.000431,0.147028
74635000,0.0324,0.013523,0.002678,0.000431,0.132807
74636000,0.0324,0.013523,0.002678,0.000431,0.110359
74637000,0.0324,0.013523,0.002678,0.000431,0.072750
74638000,0.0324,0.013523,0.002678,0.000431,0.065581
74639000,0.0324,0.013523,0.002678,0.000431,0.056296
74640000,0.0324,0.013523,0.002678,0.000431,0.046776
74641000,0.0324,0.013523,0.002678,0.000431,0.041605
74642000,0.0324,0.013523,0.002678,0.000431,0.046424
74643000,0.0324,0.013523,0.002678,0.000431,0.036081
74644000,0.0324,0.013523,0.002678,0.000431,0.023976
74645000,0.0324,0.013523,0.002678,0.000431,0.021155
74646000,0.0324,0.013523,0.002678,0.000431,0.022918
74647000,0.0324,0.013523,0.002678,0.000431,0.019157
74648000,0.0324,0.013523,0.002678,0.000431,0.012928
74649000,0.0324,0.013523,0.002678,0.000431,0.011165
74650000,0.0324,0.013523,0.002678,0.000431,0.012223
74651000,0.0324,0.013523,0.002678,0.000431,0.007404
74652000,0.0324,0.013523,0.002678,0.000431,0.007757
74653000,0.0324,0.013523,0.002678,0.000431,0.006934
74654000,0.0324,0.013523,0.002678,0.000431,0.007522
74655000,0.0324,0.013523,0.002678,0.000431,0.007874
74656000,0.0324,0.013523,0.002678,0.000431,0.007992
74657000,0.0324,0.013523,0.002678,0.000431,0.011165
74658000,0.0324,0.013523,0.002678,0.000431,0.004701
74659000,0.0324,0.013523,0.002678,0.000431,0.005054
74660000,0.0324,0.013523,0.002678,0.000431,0.004466
74661000,0.0324,0.013523,0.002678,0.000431,0.005171
74662000,0.0324,0.013523,0.002678,0.000431,0.005054
74663000,0.0324,0.013523,0.002678,0.000431,0.004584
74664000,0.0324,0.013523,0.002678,0.000431,0.004701
74665000,0.0324,0.013523,0.002678,0.000431,0.004231
74666000,0.0324,0.013523,0.002678,0.000431,0.005171
74667000,0.0324,0.013523,0.002678,0.000431,0.015749
74668000,0.0324,0.013523,0.002678,0.000431,0.001058
74669000,0.0324,0.013523,0.002678,0.000431,0.000940
74670000,0.0324,0.013523,0.002678,0.000431,0.127871
74671000,0.0324,0.013523,0.002678,0.000431,0.831277
74672000,0.0324,0.013523,0.002678,0.000431,0.482688
74673000,0.0324,0.013523,0.002678,0.000431,0.137155
74674000,0.0324,0.013523,0.002678,0.000431,0.537456
74675000,0.0324,0.013523,0.002678,0.000431,0.293585
74676000,0.0324,0.013523,0.002678,0.000431,0.340127
74677000,0.0324,0.013523,0.002678,0.000431,0.165480
74678000,0.0324,0.013523,0.002678,0.000431,0.123052
74679000,0.0324,0.013523,0.002678,0.000431,0.299462
74680000,0.0324,0.013523,0.002678,0.000431,0.485391
74681000,0.0324,0.013523,0.002678,0.000431,0.192629
74682000,0.0324,0.013523,0.002678,0.000431,0.170063
74683000,0.0324,0.013523,0.002678,0.000431,0.129516
74684000,0.0324,0.013523,0.002678,0.000431,0.134570
74685000,0.0324,0.013523,0.002678,0.000431,0.095668
74686000,0.0324,0.013523,0.002678,0.000431,0.079567
74687000,0.0324,0.013523,0.002678,0.000431,0.068519
74688000,0.0324,0.013523,0.002678,0.000431,0.043368
74689000,0.0324,0.013523,0.002678,0.000431,0.040430
74690000,0.0324,0.013523,0.002678,0.000431,0.040900
74691000,0.0324,0.013523,0.002678,0.000431,0.024798
74692000,0.0324,0.013523,0.002678,0.000431,0.022095
74693000,0.0324,0.013523,0.002678,0.000431,0.020097
74694000,0.0324,0.013523,0.002678,0.000431,0.017512
74695000,0.0324,0.013523,0.002678,0.000431,0.011518
74696000,0.0324,0.013523,0.002678,0.000431,0.006699
74697000,0.0324,0.013523,0.002678,0.000431,0.010930
74698000,0.0324,0.013523,0.002678,0.000431,0.007052
74699000,0.0324,0.013523,0.002678,0.000431,0.001528
74700000,0.0324,0.013523,0.002678,0.000431,0.001528
74701000,0.0324,0.013523,0.002678,0.000431,0.001528
74702000,0.0324,0.013523,0.002678,0.000431,0.001058
74703000,0.0324,0.013523,0.002678,0.000431,0.003056
74704000,0.0324,0.013523,0.002678,0.000431,0.612204
74705000,0.0324,0.013523,0.002678,0.000431,0.728322
74706000,0.0324,0.013523,0.002678,0.000431,0.144677
74707000,0.0324,0.013523,0.002678,0.000431,0.140681
74708000,0.0324,0.013523,0.002678,0.000431,0.514891
74709000,0.0324,0.013523,0.002678,0.000431,0.263968
74710000,0.0324,0.013523,0.002678,0.000431,0.330137
74711000,0.0324,0.013523,0.002678,0.000431,0.155372
74712000,0.0324,0.013523,0.002678,0.000431,0.107186
74713000,0.0324,0.013523,0.002678,0.000431,0.450721
74714000,0.0324,0.013523,0.002678,0.000431,0.341419
74715000,0.0324,0.013523,0.002678,0.000431,0.160426
74716000,0.0324,0.013523,0.002678,0.000431,0.143384
74717000,0.0324,0.013523,0.002678,0.000431,0.109184
74718000,0.0324,0.013523,0.002678,0.000431,0.100016
74719000,0.0324,0.013523,0.002678,0.000431,0.074748
74720000,0.0324,0.013523,0.002678,0.000431,0.057119
74721000,0.0324,0.013523,0.002678,0.000431,0.046189
74722000,0.0324,0.013523,0.002678,0.000431,0.037374
74723000,0.0324,0.013523,0.002678,0.000431,0.031498
74724000,0.0324,0.013523,0.002678,0.000431,0.037609
74725000,0.0324,0.013523,0.002678,0.000431,0.016807
74726000,0.0324,0.013523,0.002678,0.000431,0.017747
74727000,0.0324,0.013523,0.002678,0.000431,0.020450
74728000,0.0324,0.013523,0.002678,0.000431,0.003643
74729000,0.0324,0.013523,0.002678,0.000431,0.006347
74730000,0.0324,0.013523,0.002678,0.000431,0.004584
74731000,0.0324,0.013523,0.002678,0.000431,0.003291
74732000,0.0324,0.013523,0.002678,0.000431,0.004584
74733000,0.0324,0.013523,0.002678,0.000431,0.001175
74734000,0.0324,0.013523,0.002678,0.000431,0.001293
74735000,0.0324,0.013523,0.002678,0.000431,0.001293
74736000,0.0324,0.013523,0.002678,0.000431,0.001410
74737000,0.0324,0.013523,0.002678,0.000431,0.001410
74738000,0.0324,0.013523,0.002678,0.000431,0.000940
74739000,0.0324,0.013523,0.002678,0.000431,0.001410
74740000,0.0324,0.013523,0.002678,0.000431,0.001175
74741000,0.0324,0.013523,0.002678,0.000431,0.001528
74742000,0.0324,0.013523,0.002678,0.000431,0.001528
74743000,0.0324,0.013523,0.002678,0.000431,0.000940
74744000,0.0324,0.013523,0.002678,0.000431,0.001293
74745000,0.0324,0.013523,0.002678,0.000431,0.029500
74746000,0.0324,0.013523,0.002678,0.000431,0.810239
74747000,0.0324,0.013523,0.002678,0.000431,0.546036
74748000,0.0324,0.013523,0.002678,0.000431,0.136803
74749000,0.0324,0.013523,0.002678,0.000431,0.267259
74750000,0.0324,0.013523,0.002678,0.000431,0.485509
74751000,0.0324,0.013523,0.002678,0.000431,0.326376
74752000,0.0324,0.013523,0.002678,0.000431,0.235056
74753000,0.0324,0.013523,0.002678,0.000431,0.167830
74754000,0.0324,0.013523,0.002678,0.000431,0.134805
74755000,0.0324,0.013523,0.002678,0.000431,0.553323
74756000,0.0324,0.013523,0.002678,0.000431,0.222363
74757000,0.0324,0.013523,0.002678,0.000431,0.181816
74758000,0.0324,0.013523,0.002678,0.000431,0.154550
74759000,0.0324,0.013523,0.002678,0.000431,0.132337
74760000,0.0324,0.013523,0.002678,0.000431,0.106245
74761000,0.0324,0.013523,0.002678,0.000431,0.081447
74762000,0.0324,0.013523,0.002678,0.000431,0.059704
74763000,0.0324,0.013523,0.002678,0.000431,0.054298
74764000,0.0324,0.013523,0.002678,0.000431,0.042780
74765000,0.0324,0.013523,0.002678,0.000431,0.041723
74766000,0.0324,0.013523,0.002678,0.000431,0.031145
74767000,0.0324,0.013523,0.002678,0.000431,0.010695
74768000,0.0324,0.013523,0.002678,0.000431,0.007169
74769000,0.0324,0.013523,0.002678,0.000431,0.010342
74770000,0.0324,0.013523,0.002678,0.000431,0.006699
74771000,0.0324,0.013523,0.002678,0.000431,0.004819
74772000,0.0324,0.013523,0.002678,0.000431,0.004349
74773000,0.0324,0.013523,0.002678,0.000431,0.004936
74774000,0.0324,0.013523,0.002678,0.000431,0.003878
74775000,0.0324,0.013523,0.002678,0.000431,0.003291
74776000,0.0324,0.013523,0.002678,0.000431,0.002468
74777000,0.0324,0.013523,0.002678,0.000431,0.001763
74778000,0.0324,0.013523,0.002678,0.000431,0.005759
74779000,0.0324,0.013523,0.002678,0.000431,0.622782
74780000,0.0324,0.013523,0.002678,0.000431,0.703054
74781000,0.0324,0.013523,0.002678,0.000431,0.147968
74782000,0.0324,0.013523,0.002678,0.000431,0.140681
74783000,0.0324,0.013523,0.002678,0.000431,0.516771
74784000,0.0324,0.013523,0.002678,0.000431,0.272078
74785000,0.0324,0.013523,0.002678,0.000431,0.293820
74786000,0.0324,0.013523,0.002678,0.000431,0.153257
74787000,0.0324,0.013523,0.002678,0.000431,0.170886
74788000,0.0324,0.013523,0.002678,0.000431,0.150906
74789000,0.0324,0.013523,0.002678,0.000431,0.587053
74790000,0.0324,0.013523,0.002678,0.000431,0.277954
74791000,0.0324,0.013523,0.002678,0.000431,0.229297
74792000,0.0324,0.013523,0.002678,0.000431,0.214371
74793000,0.0324,0.013523,0.002678,0.000431,0.158898
74794000,0.0324,0.013523,0.002678,0.000431,0.132102
74795000,0.0324,0.013523,0.002678,0.000431,0.103072
74796000,0.0324,0.013523,0.002678,0.000431,0.082622
74797000,0.0324,0.013523,0.002678,0.000431,0.055238
74798000,0.0324,0.013523,0.002678,0.000431,0.035494
74799000,0.0324,0.013523,0.002678,0.000431,0.035964
74800000,0.0324,0.013523,0.002678,0.000431,0.025739
74801000,0.0324,0.013523,0.002678,0.000431,0.015514
74802000,0.0324,0.013523,0.002678,0.000431,0.015279
74803000,0.0324,0.013523,0.002678,0.000431,0.007992
74804000,0.0324,0.013523,0.002678,0.000431,0.008932
74805000,0.0324,0.013523,0.002678,0.000431,0.005054
74806000,0.0324,0.013523,0.002678,0.000431,0.004936
74807000,0.0324,0.013523,0.002678,0.000431,0.004701
74808000,0.0324,0.013523,0.002678,0.000431,0.005171
74809000,0.0324,0.013523,0.002678,0.000431,0.004349
74810000,0.0324,0.013523,0.002678,0.000431,0.005054
74811000,0.0324,0.013523,0.002678,0.000431,0.004231
74812000,0.0324,0.013523,0.002678,0.000431,0.005406
74813000,0.0324,0.013523,0.002678,0.000431,0.008932
74814000,0.0324,0.013523,0.002678,0.000431,0.004819
74815000,0.0324,0.013523,0.002678,0.000431,0.001058
74816000,0.0324,0.013523,0.002678,0.000431,0.068401
74817000,0.0324,0.013523,0.002678,0.000431,0.865830
74818000,0.0324,0.013523,0.002678,0.000431,0.527819
74819000,0.0324,0.013523,0.002678,0.000431,0.147733
74820000,0.0324,0.013523,0.002678,0.000431,0.336836
74821000,0.0324,0.013523,0.002678,0.000431,0.355758
74822000,0.0324,0.013523,0.002678,0.000431,0.310627
74823000,0.0324,0.013523,0.002678,0.000431,0.230003
74824000,0.0324,0.013523,0.002678,0.000431,0.186047
74825000,0.0324,0.013523,0.002678,0.000431,0.094493
74826000,0.0324,0.013523,0.002678,0.000431,0.584350
74827000,0.0324,0.013523,0.002678,0.000431,0.198740
74828000,0.0324,0.013523,0.002678,0.000431,0.176292
74829000,0.0324,0.013523,0.002678,0.000431,0.152434
74830000,0.0324,0.013523,0.002678,0.000431,0.125755
74831000,0.0324,0.013523,0.002678,0.000431,0.100722
74832000,0.0324,0.013523,0.002678,0.000431,0.079332
74833000,0.0324,0.013523,0.002678,0.000431,0.066051
74834000,0.0324,0.013523,0.002678,0.000431,0.052653
74835000,0.0324,0.013523,0.002678,0.000431,0.052535
74836000,0.0324,0.013523,0.002678,0.000431,0.040782
74837000,0.0324,0.013523,0.002678,0.000431,0.039607
74838000,0.0324,0.013523,0.002678,0.000431,0.035023
74839000,0.0324,0.013523,0.002678,0.000431,0.033025
74840000,0.0324,0.013523,0.002678,0.000431,0.018452
74841000,0.0324,0.013523,0.002678,0.000431,0.021743
74842000,0.0324,0.013523,0.002678,0.000431,0.023388
74843000,0.0324,0.013523,0.002678,0.000431,0.017277
74844000,0.0324,0.013523,0.002678,0.000431,0.018687
74845000,0.0324,0.013523,0.002678,0.000431,0.016336
74846000,0.0324,0.013523,0.002678,0.000431,0.014338
74847000,0.0324,0.013523,0.002678,0.000431,0.012693
74848000,0.0324,0.013523,0.002678,0.000431,0.013398
74849000,0.0324,0.013523,0.002678,0.000431,0.012458
74850000,0.0324,0.013523,0.002678,0.000431,0.010460
74851000,0.0324,0.013523,0.002678,0.000431,0.013398
74852000,0.0324,0.013523,0.002678,0.000431,0.012928
74853000,0.0324,0.013523,0.002678,0.000431,0.011400
74854000,0.0324,0.013523,0.002678,0.000431,0.007874
74855000,0.0324,0.013523,0.002678,0.000431,0.007757
74856000,0.0324,0.013523,0.002678,0.000431,0.007874
74857000,0.0324,0.013523,0.002678,0.000431,0.007522
74858000,0.0324,0.013523,0.002678,0.000431,0.005641
74859000,0.0324,0.013523,0.002678,0.000431,0.007522
74860000,0.0324,0.013523,0.002678,0.000431,0.011870
74861000,0.0324,0.013523,0.002678,0.000431,0.005524
74862000,0.0324,0.013523,0.002678,0.000431,0.002116
74863000,0.0324,0.013523,0.002678,0.000431,0.002938
74864000,0.0324,0.013523,0.002678,0.000431,0.014103
74865000,0.0324,0.013523,0.002678,0.000431,0.764756
74866000,0.0324,0.013523,0.002678,0.000431,0.563195
74867000,0.0324,0.013523,0.002678,0.000431,0.147968
74868000,0.0324,0.013523,0.002678,0.000431,0.174412
74869000,0.0324,0.013523,0.002678,0.000431,0.556496
74870000,0.0324,0.013523,0.002678,0.000431,0.275016
74871000,0.0324,0.013523,0.002678,0.000431,0.273253
74872000,0.0324,0.013523,0.002678,0.000431,0.174647
74873000,0.0324,0.013523,0.002678,0.000431,0.098136
74874000,0.0324,0.013523,0.002678,0.000431,0.547094
74875000,0.0324,0.013523,0.002678,0.000431,0.296524
74876000,0.0324,0.013523,0.002678,0.000431,0.218367
74877000,0.0324,0.013523,0.002678,0.000431,0.196860
74878000,0.0324,0.013523,0.002678,0.000431,0.159016
74879000,0.0324,0.013523,0.002678,0.000431,0.146088
74880000,0.0324,0.013523,0.002678,0.000431,0.111887
74881000,0.0324,0.013523,0.002678,0.000431,0.075688
74882000,0.0324,0.013523,0.002678,0.000431,0.077216
74883000,0.0324,0.013523,0.002678,0.000431,0.049597
74884000,0.0324,0.013523,0.002678,0.000431,0.046071
74885000,0.0324,0.013523,0.002678,0.000431,0.036786
74886000,0.0324,0.013523,0.002678,0.000431,0.032790
74887000,0.0324,0.013523,0.002678,0.000431,0.026091
74888000,0.0324,0.013523,0.002678,0.000431,0.022918
74889000,0.0324,0.013523,0.002678,0.000431,0.020215
74890000,0.0324,0.013523,0.002678,0.000431,0.017982
74891000,0.0324,0.013523,0.002678,0.000431,0.018334
74892000,0.0324,0.013523,0.002678,0.000431,0.015749
74893000,0.0324,0.013523,0.002678,0.000431,0.011870
74894000,0.0324,0.013523,0.002678,0.000431,0.021860
74895000,0.0324,0.013523,0.002678,0.000431,0.008227
74896000,0.0324,0.013523,0.002678,0.000431,0.004701
74897000,0.0324,0.013523,0.002678,0.000431,0.005054
74898000,0.0324,0.013523,0.002678,0.000431,0.004231
74899000,0.0324,0.013523,0.002678,0.000431,0.004466
74900000,0.0324,0.013523,0.002678,0.000431,0.004231
74901000,0.0324,0.013523,0.002678,0.000431,0.006582
74902000,0.0324,0.013523,0.002678,0.000431,0.004701
74903000,0.0324,0.013523,0.002678,0.000431,0.001645
74904000,0.0324,0.013523,0.002678,0.000431,0.001410
74905000,0.0324,0.013523,0.002678,0.000431,0.001645
74906000,0.0324,0.013523,0.002678,0.000431,0.001410
74907000,0.0324,0.013523,0.002678,0.000431,0.001645
74908000,0.0324,0.013523,0.002678,0.000431,0.000823
74909000,0.0324,0.013523,0.002678,0.000431,0.002116
74910000,0.0324,0.013523,0.002678,0.000431,0.431799
74911000,0.0324,0.013523,0.002678,0.000431,0.802365
74912000,0.0324,0.013523,0.002678,0.000431,0.267377
74913000,0.0324,0.013523,0.002678,0.000431,0.142914
74914000,0.0324,0.013523,0.002678,0.000431,0.477517
74915000,0.0324,0.013523,0.002678,0.000431,0.244929
74916000,0.0324,0.013523,0.002678,0.000431,0.322850
74917000,0.0324,0.013523,0.002678,0.000431,0.146675
74918000,0.0324,0.013523,0.002678,0.000431,0.200738
74919000,0.0324,0.013523,0.002678,0.000431,0.098489
74920000,0.0324,0.013523,0.002678,0.000431,0.599511
74921000,0.0324,0.013523,0.002678,0.000431,0.265379
74922000,0.0324,0.013523,0.002678,0.000431,0.205204
74923000,0.0324,0.013523,0.002678,0.000431,0.183932
74924000,0.0324,0.013523,0.002678,0.000431,0.159838
74925000,0.0324,0.013523,0.002678,0.000431,0.128928
74926000,0.0324,0.013523,0.002678,0.000431,0.106363
74927000,0.0324,0.013523,0.002678,0.000431,0.097313
74928000,0.0324,0.013523,0.002678,0.000431,0.087911
74929000,0.0324,0.013523,0.002678,0.000431,0.076041
74930000,0.0324,0.013523,0.002678,0.000431,0.060409
74931000,0.0324,0.013523,0.002678,0.000431,0.042545
74932000,0.0324,0.013523,0.002678,0.000431,0.032555
74933000,0.0324,0.013523,0.002678,0.000431,0.035611
74934000,0.0324,0.013523,0.002678,0.000431,0.037844
74935000,0.0324,0.013523,0.002678,0.000431,0.022095
74936000,0.0324,0.013523,0.002678,0.000431,0.018217
74937000,0.0324,0.013523,0.002678,0.000431,0.017159
74938000,0.0324,0.013523,0.002678,0.000431,0.012928
74939000,0.0324,0.013523,0.002678,0.000431,0.012340
74940000,0.0324,0.013523,0.002678,0.000431,0.017747
74941000,0.0324,0.013523,0.002678,0.000431,0.000823
74942000,0.0324,0.013523,0.002678,0.000431,0.000823
74943000,0.0324,0.013523,0.002678,0.000431,0.000940
74944000,0.0324,0.013523,0.002678,0.000431,0.000705
74945000,0.0324,0.013523,0.002678,0.000431,0.000705
74946000,0.0324,0.013523,0.002678,0.000431,0.001058
74947000,0.0324,0.013523,0.002678,0.000431,0.000823
74948000,0.0324,0.013523,0.002678,0.000431,0.000940
74949000,0.0324,0.013523,0.002678,0.000431,0.000940
74950000,0.0324,0.013523,0.002678,0.000431,0.000940
74951000,0.0324,0.013523,0.002678,0.000431,0.015631
74952000,0.0324,0.013523,0.002678,0.000431,0.880874
74953000,0.0324,0.013523,0.002678,0.000431,0.535811
74954000,0.0324,0.013523,0.002678,0.000431,0.146558
74955000,0.0324,0.013523,0.002678,0.000431,0.228592
74956000,0.0324,0.013523,0.002678,0.000431,0.483746
74957000,0.0324,0.013523,0.002678,0.000431,0.299227
74958000,0.0324,0.013523,0.002678,0.000431,0.247044
74959000,0.0324,0.013523,0.002678,0.000431,0.180876
74960000,0.0324,0.013523,0.002678,0.000431,0.100016
74961000,0.0324,0.013523,0.002678,0.000431,0.593517
74962000,0.0324,0.013523,0.002678,0.000431,0.292410
74963000,0.0324,0.013523,0.002678,0.000431,0.220013
74964000,0.0324,0.013523,0.002678,0.000431,0.187457
74965000,0.0324,0.013523,0.002678,0.000431,0.155372
74966000,0.0324,0.013523,0.002678,0.000431,0.128223
74967000,0.0324,0.013523,0.002678,0.000431,0.106716
74968000,0.0324,0.013523,0.002678,0.000431,0.086383
74969000,0.0324,0.013523,0.002678,0.000431,0.067461
74970000,0.0324,0.013523,0.002678,0.000431,0.051712
74971000,0.0324,0.013523,0.002678,0.000431,0.035846
74972000,0.0324,0.013523,0.002678,0.000431,0.028207
74973000,0.0324,0.013523,0.002678,0.000431,0.031733
74974000,0.0324,0.013523,0.002678,0.000431,0.030792
74975000,0.0324,0.013523,0.002678,0.000431,0.009990
74976000,0.0324,0.013523,0.002678,0.000431,0.004701
74977000,0.0324,0.013523,0.002678,0.000431,0.005406
74978000,0.0324,0.013523,0.002678,0.000431,0.010460
74979000,0.0324,0.013523,0.002678,0.000431,0.003408
74980000,0.0324,0.013523,0.002678,0.000431,0.002703
74981000,0.0324,0.013523,0.002678,0.000431,0.004466
74982000,0.0324,0.013523,0.002678,0.000431,0.003761
74983000,0.0324,0.013523,0.002678,0.000431,0.000823
74984000,0.0324,0.013523,0.002678,0.000431,0.000940
74985000,0.0324,0.013523,0.002678,0.000431,0.000823
74986000,0.0324,0.013523,0.002678,0.000431,0.000823
74987000,0.0324,0.013523,0.002678,0.000431,0.000823
74988000,0.0324,0.013523,0.002678,0.000431,0.000823
74989000,0.0324,0.013523,0.002678,0.000431,0.002116
74990000,0.0324,0.013523,0.002678,0.000431,0.622312
74991000,0.0324,0.013523,0.002678,0.000431,0.748890
74992000,0.0324,0.013523,0.002678,0.000431,0.173237
74993000,0.0324,0.013523,0.002678,0.000431,0.176997
74994000,0.0324,0.013523,0.002678,0.000431,0.564253
74995000,0.0324,0.013523,0.002678,0.000431,0.293703
74996000,0.0324,0.013523,0.002678,0.000431,0.307454
74997000,0.0324,0.013523,0.002678,0.000431,0.162659
74998000,0.0324,0.013523,0.002678,0.000431,0.137155
74999000,0.0324,0.013523,0.002678,0.000431,0.570012
