Cycle,Area(mm^2),PeakDynamic(W),SubthresholdLeakage(W),GateLeakage(W),RunTimeDynamic(W)
30000000,0.0324,0.013523,0.002678,0.000431,0.000823
30001000,0.0324,0.013523,0.002678,0.000431,0.000823
30002000,0.0324,0.013523,0.002678,0.000431,0.000940
30003000,0.0324,0.013523,0.002678,0.000431,0.000705
30004000,0.0324,0.013523,0.002678,0.000431,0.000940
30005000,0.0324,0.013523,0.002678,0.000431,0.000823
30006000,0.0324,0.013523,0.002678,0.000431,0.000823
30007000,0.0324,0.013523,0.002678,0.000431,0.000823
30008000,0.0324,0.013523,0.002678,0.000431,0.000823
30009000,0.0324,0.013523,0.002678,0.000431,0.000940
30010000,0.0324,0.013523,0.002678,0.000431,0.000705
30011000,0.0324,0.013523,0.002678,0.000431,0.000940
30012000,0.0324,0.013523,0.002678,0.000431,0.000823
30013000,0.0324,0.013523,0.002678,0.000431,0.000823
30014000,0.0324,0.013523,0.002678,0.000431,0.000823
30015000,0.0324,0.013523,0.002678,0.000431,0.000823
30016000,0.0324,0.013523,0.002678,0.000431,0.000705
30017000,0.0324,0.013523,0.002678,0.000431,0.000940
30018000,0.0324,0.013523,0.002678,0.000431,0.000940
30019000,0.0324,0.013523,0.002678,0.000431,0.000705
30020000,0.0324,0.013523,0.002678,0.000431,0.002351
30021000,0.0324,0.013523,0.002678,0.000431,0.401476
30022000,0.0324,0.013523,0.002678,0.000431,0.692946
30023000,0.0324,0.013523,0.002678,0.000431,0.202854
30024000,0.0324,0.013523,0.002678,0.000431,0.132572
30025000,0.0324,0.013523,0.002678,0.000431,0.142797
30026000,0.0324,0.013523,0.002678,0.000431,0.592812
30027000,0.0324,0.013523,0.002678,0.000431,0.242108
30028000,0.0324,0.013523,0.002678,0.000431,0.279482
30029000,0.0324,0.013523,0.002678,0.000431,0.243166
30030000,0.0324,0.013523,0.002678,0.000431,0.146323
30031000,0.0324,0.013523,0.002678,0.000431,0.165597
30032000,0.0324,0.013523,0.002678,0.000431,0.127401
30033000,0.0324,0.013523,0.002678,0.000431,0.467057
30034000,0.0324,0.013523,0.002678,0.000431,0.139623
30035000,0.0324,0.013523,0.002678,0.000431,0.106481
30036000,0.0324,0.013523,0.002678,0.000431,0.095433
30037000,0.0324,0.013523,0.002678,0.000431,0.087558
30038000,0.0324,0.013523,0.002678,0.000431,0.065111
30039000,0.0324,0.013523,0.002678,0.000431,0.066051
30040000,0.0324,0.013523,0.002678,0.000431,0.055708
30041000,0.0324,0.013523,0.002678,0.000431,0.053828
30042000,0.0324,0.013523,0.002678,0.000431,0.049714
30043000,0.0324,0.013523,0.002678,0.000431,0.040782
30044000,0.0324,0.013523,0.002678,0.000431,0.041252
30045000,0.0324,0.013523,0.002678,0.000431,0.034318
30046000,0.0324,0.013523,0.002678,0.000431,0.035611
30047000,0.0324,0.013523,0.002678,0.000431,0.023271
30048000,0.0324,0.013523,0.002678,0.000431,0.020097
30049000,0.0324,0.013523,0.002678,0.000431,0.015631
30050000,0.0324,0.013523,0.002678,0.000431,0.013163
30051000,0.0324,0.013523,0.002678,0.000431,0.010342
30052000,0.0324,0.013523,0.002678,0.000431,0.011165
30053000,0.0324,0.013523,0.002678,0.000431,0.009402
30054000,0.0324,0.013523,0.002678,0.000431,0.010107
30055000,0.0324,0.013523,0.002678,0.000431,0.009755
30056000,0.0324,0.013523,0.002678,0.000431,0.010930
30057000,0.0324,0.013523,0.002678,0.000431,0.007052
30058000,0.0324,0.013523,0.002678,0.000431,0.007287
30059000,0.0324,0.013523,0.002678,0.000431,0.005171
30060000,0.0324,0.013523,0.002678,0.000431,0.003526
30061000,0.0324,0.013523,0.002678,0.000431,0.003056
30062000,0.0324,0.013523,0.002678,0.000431,0.003291
30063000,0.0324,0.013523,0.002678,0.000431,0.003173
30064000,0.0324,0.013523,0.002678,0.000431,0.003408
30065000,0.0324,0.013523,0.002678,0.000431,0.003056
30066000,0.0324,0.013523,0.002678,0.000431,0.003408
30067000,0.0324,0.013523,0.002678,0.000431,0.003173
30068000,0.0324,0.013523,0.002678,0.000431,0.003526
30069000,0.0324,0.013523,0.002678,0.000431,0.002821
30070000,0.0324,0.013523,0.002678,0.000431,0.002586
30071000,0.0324,0.013523,0.002678,0.000431,0.002703
30072000,0.0324,0.013523,0.002678,0.000431,0.002468
30073000,0.0324,0.013523,0.002678,0.000431,0.002703
30074000,0.0324,0.013523,0.002678,0.000431,0.002703
30075000,0.0324,0.013523,0.002678,0.000431,0.002703
30076000,0.0324,0.013523,0.002678,0.000431,0.002351
30077000,0.0324,0.013523,0.002678,0.000431,0.002821
30078000,0.0324,0.013523,0.002678,0.000431,0.002703
30079000,0.0324,0.013523,0.002678,0.000431,0.002586
30080000,0.0324,0.013523,0.002678,0.000431,0.002468
30081000,0.0324,0.013523,0.002678,0.000431,0.004349
30082000,0.0324,0.013523,0.002678,0.000431,0.001880
30083000,0.0324,0.013523,0.002678,0.000431,0.001880
30084000,0.0324,0.013523,0.002678,0.000431,0.001645
30085000,0.0324,0.013523,0.002678,0.000431,0.001763
30086000,0.0324,0.013523,0.002678,0.000431,0.001763
30087000,0.0324,0.013523,0.002678,0.000431,0.001763
30088000,0.0324,0.013523,0.002678,0.000431,0.001645
30089000,0.0324,0.013523,0.002678,0.000431,0.001880
30090000,0.0324,0.013523,0.002678,0.000431,0.001763
30091000,0.0324,0.013523,0.002678,0.000431,0.003056
30092000,0.0324,0.013523,0.002678,0.000431,0.000940
30093000,0.0324,0.013523,0.002678,0.000431,0.000940
30094000,0.0324,0.013523,0.002678,0.000431,0.000705
30095000,0.0324,0.013523,0.002678,0.000431,0.000940
30096000,0.0324,0.013523,0.002678,0.000431,0.000940
30097000,0.0324,0.013523,0.002678,0.000431,0.000940
30098000,0.0324,0.013523,0.002678,0.000431,0.002586
30099000,0.0324,0.013523,0.002678,0.000431,0.443199
30100000,0.0324,0.013523,0.002678,0.000431,0.722328
30101000,0.0324,0.013523,0.002678,0.000431,0.141151
30102000,0.0324,0.013523,0.002678,0.000431,0.133512
30103000,0.0324,0.013523,0.002678,0.000431,0.268787
30104000,0.0324,0.013523,0.002678,0.000431,0.490445
30105000,0.0324,0.013523,0.002678,0.000431,0.248690
30106000,0.0324,0.013523,0.002678,0.000431,0.333310
30107000,0.0324,0.013523,0.002678,0.000431,0.167360
30108000,0.0324,0.013523,0.002678,0.000431,0.152904
30109000,0.0324,0.013523,0.002678,0.000431,0.125520
30110000,0.0324,0.013523,0.002678,0.000431,0.303928
30111000,0.0324,0.013523,0.002678,0.000431,0.328491
30112000,0.0324,0.013523,0.002678,0.000431,0.115648
30113000,0.0324,0.013523,0.002678,0.000431,0.082152
30114000,0.0324,0.013523,0.002678,0.000431,0.080624
30115000,0.0324,0.013523,0.002678,0.000431,0.074395
30116000,0.0324,0.013523,0.002678,0.000431,0.049362
30117000,0.0324,0.013523,0.002678,0.000431,0.042663
30118000,0.0324,0.013523,0.002678,0.000431,0.038432
30119000,0.0324,0.013523,0.002678,0.000431,0.035023
30120000,0.0324,0.013523,0.002678,0.000431,0.034201
30121000,0.0324,0.013523,0.002678,0.000431,0.026561
30122000,0.0324,0.013523,0.002678,0.000431,0.015161
30123000,0.0324,0.013523,0.002678,0.000431,0.019275
30124000,0.0324,0.013523,0.002678,0.000431,0.012693
30125000,0.0324,0.013523,0.002678,0.000431,0.011870
30126000,0.0324,0.013523,0.002678,0.000431,0.013046
30127000,0.0324,0.013523,0.002678,0.000431,0.013868
30128000,0.0324,0.013523,0.002678,0.000431,0.007639
30129000,0.0324,0.013523,0.002678,0.000431,0.010342
30130000,0.0324,0.013523,0.002678,0.000431,0.006934
30131000,0.0324,0.013523,0.002678,0.000431,0.006934
30132000,0.0324,0.013523,0.002678,0.000431,0.006347
30133000,0.0324,0.013523,0.002678,0.000431,0.009050
30134000,0.0324,0.013523,0.002678,0.000431,0.005171
30135000,0.0324,0.013523,0.002678,0.000431,0.006817
30136000,0.0324,0.013523,0.002678,0.000431,0.005994
30137000,0.0324,0.013523,0.002678,0.000431,0.005524
30138000,0.0324,0.013523,0.002678,0.000431,0.002703
30139000,0.0324,0.013523,0.002678,0.000431,0.002586
30140000,0.0324,0.013523,0.002678,0.000431,0.002586
30141000,0.0324,0.013523,0.002678,0.000431,0.002821
30142000,0.0324,0.013523,0.002678,0.000431,0.002233
30143000,0.0324,0.013523,0.002678,0.000431,0.003643
30144000,0.0324,0.013523,0.002678,0.000431,0.001645
30145000,0.0324,0.013523,0.002678,0.000431,0.001645
30146000,0.0324,0.013523,0.002678,0.000431,0.001763
30147000,0.0324,0.013523,0.002678,0.000431,0.003526
30148000,0.0324,0.013523,0.002678,0.000431,0.000823
30149000,0.0324,0.013523,0.002678,0.000431,0.000823
30150000,0.0324,0.013523,0.002678,0.000431,0.000940
30151000,0.0324,0.013523,0.002678,0.000431,0.000940
30152000,0.0324,0.013523,0.002678,0.000431,0.000823
30153000,0.0324,0.013523,0.002678,0.000431,0.000823
30154000,0.0324,0.013523,0.002678,0.000431,0.012693
30155000,0.0324,0.013523,0.002678,0.000431,0.546271
30156000,0.0324,0.013523,0.002678,0.000431,0.621724
30157000,0.0324,0.013523,0.002678,0.000431,0.134452
30158000,0.0324,0.013523,0.002678,0.000431,0.132102
30159000,0.0324,0.013523,0.002678,0.000431,0.406883
30160000,0.0324,0.013523,0.002678,0.000431,0.381144
30161000,0.0324,0.013523,0.002678,0.000431,0.257857
30162000,0.0324,0.013523,0.002678,0.000431,0.326846
30163000,0.0324,0.013523,0.002678,0.000431,0.138683
30164000,0.0324,0.013523,0.002678,0.000431,0.151729
30165000,0.0324,0.013523,0.002678,0.000431,0.118939
30166000,0.0324,0.013523,0.002678,0.000431,0.331665
30167000,0.0324,0.013523,0.002678,0.000431,0.326611
30168000,0.0324,0.013523,0.002678,0.000431,0.111534
30169000,0.0324,0.013523,0.002678,0.000431,0.093670
30170000,0.0324,0.013523,0.002678,0.000431,0.076628
30171000,0.0324,0.013523,0.002678,0.000431,0.066991
30172000,0.0324,0.013523,0.002678,0.000431,0.054768
30173000,0.0324,0.013523,0.002678,0.000431,0.051712
30174000,0.0324,0.013523,0.002678,0.000431,0.049832
30175000,0.0324,0.013523,0.002678,0.000431,0.034318
30176000,0.0324,0.013523,0.002678,0.000431,0.034436
30177000,0.0324,0.013523,0.002678,0.000431,0.023271
30178000,0.0324,0.013523,0.002678,0.000431,0.022330
30179000,0.0324,0.013523,0.002678,0.000431,0.023036
30180000,0.0324,0.013523,0.002678,0.000431,0.015749
30181000,0.0324,0.013523,0.002678,0.000431,0.018099
30182000,0.0324,0.013523,0.002678,0.000431,0.018922
30183000,0.0324,0.013523,0.002678,0.000431,0.017747
30184000,0.0324,0.013523,0.002678,0.000431,0.011988
30185000,0.0324,0.013523,0.002678,0.000431,0.010578
30186000,0.0324,0.013523,0.002678,0.000431,0.009167
30187000,0.0324,0.013523,0.002678,0.000431,0.011518
30188000,0.0324,0.013523,0.002678,0.000431,0.007404
30189000,0.0324,0.013523,0.002678,0.000431,0.005994
30190000,0.0324,0.013523,0.002678,0.000431,0.005994
30191000,0.0324,0.013523,0.002678,0.000431,0.002233
30192000,0.0324,0.013523,0.002678,0.000431,0.002703
30193000,0.0324,0.013523,0.002678,0.000431,0.004231
30194000,0.0324,0.013523,0.002678,0.000431,0.001763
30195000,0.0324,0.013523,0.002678,0.000431,0.003643
30196000,0.0324,0.013523,0.002678,0.000431,0.000705
30197000,0.0324,0.013523,0.002678,0.000431,0.000940
30198000,0.0324,0.013523,0.002678,0.000431,0.000823
30199000,0.0324,0.013523,0.002678,0.000431,0.000823
30200000,0.0324,0.013523,0.002678,0.000431,0.000705
30201000,0.0324,0.013523,0.002678,0.000431,0.000940
30202000,0.0324,0.013523,0.002678,0.000431,0.245986
30203000,0.0324,0.013523,0.002678,0.000431,0.684249
30204000,0.0324,0.013523,0.002678,0.000431,0.348118
30205000,0.0324,0.013523,0.002678,0.000431,0.132924
30206000,0.0324,0.013523,0.002678,0.000431,0.134217
30207000,0.0324,0.013523,0.002678,0.000431,0.580824
30208000,0.0324,0.013523,0.002678,0.000431,0.233528
30209000,0.0324,0.013523,0.002678,0.000431,0.293703
30210000,0.0324,0.013523,0.002678,0.000431,0.243283
30211000,0.0324,0.013523,0.002678,0.000431,0.147850
30212000,0.0324,0.013523,0.002678,0.000431,0.162071
30213000,0.0324,0.013523,0.002678,0.000431,0.164069
30214000,0.0324,0.013523,0.002678,0.000431,0.442494
30215000,0.0324,0.013523,0.002678,0.000431,0.137743
30216000,0.0324,0.013523,0.002678,0.000431,0.122699
30217000,0.0324,0.013523,0.002678,0.000431,0.101427
30218000,0.0324,0.013523,0.002678,0.000431,0.088499
30219000,0.0324,0.013523,0.002678,0.000431,0.085561
30220000,0.0324,0.013523,0.002678,0.000431,0.071575
30221000,0.0324,0.013523,0.002678,0.000431,0.071105
30222000,0.0324,0.013523,0.002678,0.000431,0.058059
30223000,0.0324,0.013523,0.002678,0.000431,0.050772
30224000,0.0324,0.013523,0.002678,0.000431,0.038902
30225000,0.0324,0.013523,0.002678,0.000431,0.037374
30226000,0.0324,0.013523,0.002678,0.000431,0.032320
30227000,0.0324,0.013523,0.002678,0.000431,0.028912
30228000,0.0324,0.013523,0.002678,0.000431,0.024093
30229000,0.0324,0.013523,0.002678,0.000431,0.018334
30230000,0.0324,0.013523,0.002678,0.000431,0.019745
30231000,0.0324,0.013523,0.002678,0.000431,0.022448
30232000,0.0324,0.013523,0.002678,0.000431,0.017277
30233000,0.0324,0.013523,0.002678,0.000431,0.014809
30234000,0.0324,0.013523,0.002678,0.000431,0.016336
30235000,0.0324,0.013523,0.002678,0.000431,0.014573
30236000,0.0324,0.013523,0.002678,0.000431,0.013516
30237000,0.0324,0.013523,0.002678,0.000431,0.012458
30238000,0.0324,0.013523,0.002678,0.000431,0.008227
30239000,0.0324,0.013523,0.002678,0.000431,0.008462
30240000,0.0324,0.013523,0.002678,0.000431,0.009050
30241000,0.0324,0.013523,0.002678,0.000431,0.007757
30242000,0.0324,0.013523,0.002678,0.000431,0.011165
30243000,0.0324,0.013523,0.002678,0.000431,0.007052
30244000,0.0324,0.013523,0.002678,0.000431,0.008227
30245000,0.0324,0.013523,0.002678,0.000431,0.011165
30246000,0.0324,0.013523,0.002678,0.000431,0.005876
30247000,0.0324,0.013523,0.002678,0.000431,0.007287
30248000,0.0324,0.013523,0.002678,0.000431,0.006934
30249000,0.0324,0.013523,0.002678,0.000431,0.004936
30250000,0.0324,0.013523,0.002678,0.000431,0.005406
30251000,0.0324,0.013523,0.002678,0.000431,0.005289
30252000,0.0324,0.013523,0.002678,0.000431,0.005641
30253000,0.0324,0.013523,0.002678,0.000431,0.006464
30254000,0.0324,0.013523,0.002678,0.000431,0.002468
30255000,0.0324,0.013523,0.002678,0.000431,0.002586
30256000,0.0324,0.013523,0.002678,0.000431,0.002586
30257000,0.0324,0.013523,0.002678,0.000431,0.002586
30258000,0.0324,0.013523,0.002678,0.000431,0.002586
30259000,0.0324,0.013523,0.002678,0.000431,0.002351
30260000,0.0324,0.013523,0.002678,0.000431,0.004466
30261000,0.0324,0.013523,0.002678,0.000431,0.001763
30262000,0.0324,0.013523,0.002678,0.000431,0.001645
30263000,0.0324,0.013523,0.002678,0.000431,0.002703
30264000,0.0324,0.013523,0.002678,0.000431,0.000940
30265000,0.0324,0.013523,0.002678,0.000431,0.000940
30266000,0.0324,0.013523,0.002678,0.000431,0.000705
30267000,0.0324,0.013523,0.002678,0.000431,0.000940
30268000,0.0324,0.013523,0.002678,0.000431,0.000705
30269000,0.0324,0.013523,0.002678,0.000431,0.000940
30270000,0.0324,0.013523,0.002678,0.000431,0.000823
30271000,0.0324,0.013523,0.002678,0.000431,0.000823
30272000,0.0324,0.013523,0.002678,0.000431,0.000940
30273000,0.0324,0.013523,0.002678,0.000431,0.000705
30274000,0.0324,0.013523,0.002678,0.000431,0.000940
30275000,0.0324,0.013523,0.002678,0.000431,0.000823
30276000,0.0324,0.013523,0.002678,0.000431,0.000823
30277000,0.0324,0.013523,0.002678,0.000431,0.000823
30278000,0.0324,0.013523,0.002678,0.000431,0.000823
30279000,0.0324,0.013523,0.002678,0.000431,0.000823
30280000,0.0324,0.013523,0.002678,0.000431,0.000823
30281000,0.0324,0.013523,0.002678,0.000431,0.000940
30282000,0.0324,0.013523,0.002678,0.000431,0.000823
30283000,0.0324,0.013523,0.002678,0.000431,0.000823
30284000,0.0324,0.013523,0.002678,0.000431,0.000705
30285000,0.0324,0.013523,0.002678,0.000431,0.000940
30286000,0.0324,0.013523,0.002678,0.000431,0.000705
30287000,0.0324,0.013523,0.002678,0.000431,0.000940
30288000,0.0324,0.013523,0.002678,0.000431,0.000705
30289000,0.0324,0.013523,0.002678,0.000431,0.000940
30290000,0.0324,0.013523,0.002678,0.000431,0.000940
30291000,0.0324,0.013523,0.002678,0.000431,0.000705
30292000,0.0324,0.013523,0.002678,0.000431,0.000940
30293000,0.0324,0.013523,0.002678,0.000431,0.000705
30294000,0.0324,0.013523,0.002678,0.000431,0.000940
30295000,0.0324,0.013523,0.002678,0.000431,0.000823
30296000,0.0324,0.013523,0.002678,0.000431,0.000823
30297000,0.0324,0.013523,0.002678,0.000431,0.000823
30298000,0.0324,0.013523,0.002678,0.000431,0.083915
30299000,0.0324,0.013523,0.002678,0.000431,0.604800
30300000,0.0324,0.013523,0.002678,0.000431,0.560257
30301000,0.0324,0.013523,0.002678,0.000431,0.137155
30302000,0.0324,0.013523,0.002678,0.000431,0.132102
30303000,0.0324,0.013523,0.002678,0.000431,0.638061
30304000,0.0324,0.013523,0.002678,0.000431,0.246457
30305000,0.0324,0.013523,0.002678,0.000431,0.237172
30306000,0.0324,0.013523,0.002678,0.000431,0.275839
30307000,0.0324,0.013523,0.002678,0.000431,0.144795
30308000,0.0324,0.013523,0.002678,0.000431,0.179348
30309000,0.0324,0.013523,0.002678,0.000431,0.091084
30310000,0.0324,0.013523,0.002678,0.000431,0.482336
30311000,0.0324,0.013523,0.002678,0.000431,0.165597
30312000,0.0324,0.013523,0.002678,0.000431,0.117528
30313000,0.0324,0.013523,0.002678,0.000431,0.090732
30314000,0.0324,0.013523,0.002678,0.000431,0.074630
30315000,0.0324,0.013523,0.002678,0.000431,0.067226
30316000,0.0324,0.013523,0.002678,0.000431,0.053828
30317000,0.0324,0.013523,0.002678,0.000431,0.054886
30318000,0.0324,0.013523,0.002678,0.000431,0.040782
30319000,0.0324,0.013523,0.002678,0.000431,0.036551
30320000,0.0324,0.013523,0.002678,0.000431,0.022918
30321000,0.0324,0.013523,0.002678,0.000431,0.019980
30322000,0.0324,0.013523,0.002678,0.000431,0.017394
30323000,0.0324,0.013523,0.002678,0.000431,0.021625
30324000,0.0324,0.013523,0.002678,0.000431,0.015396
30325000,0.0324,0.013523,0.002678,0.000431,0.011165
30326000,0.0324,0.013523,0.002678,0.000431,0.009285
30327000,0.0324,0.013523,0.002678,0.000431,0.010695
30328000,0.0324,0.013523,0.002678,0.000431,0.004349
30329000,0.0324,0.013523,0.002678,0.000431,0.006934
30330000,0.0324,0.013523,0.002678,0.000431,0.003291
30331000,0.0324,0.013523,0.002678,0.000431,0.005054
30332000,0.0324,0.013523,0.002678,0.000431,0.002233
30333000,0.0324,0.013523,0.002678,0.000431,0.002351
30334000,0.0324,0.013523,0.002678,0.000431,0.002586
30335000,0.0324,0.013523,0.002678,0.000431,0.002351
30336000,0.0324,0.013523,0.002678,0.000431,0.001763
30337000,0.0324,0.013523,0.002678,0.000431,0.003408
30338000,0.0324,0.013523,0.002678,0.000431,0.001058
30339000,0.0324,0.013523,0.002678,0.000431,0.000823
30340000,0.0324,0.013523,0.002678,0.000431,0.000823
30341000,0.0324,0.013523,0.002678,0.000431,0.000823
30342000,0.0324,0.013523,0.002678,0.000431,0.000823
30343000,0.0324,0.013523,0.002678,0.000431,0.000940
30344000,0.0324,0.013523,0.002678,0.000431,0.000823
30345000,0.0324,0.013523,0.002678,0.000431,0.071692
30346000,0.0324,0.013523,0.002678,0.000431,0.604918
30347000,0.0324,0.013523,0.002678,0.000431,0.578121
30348000,0.0324,0.013523,0.002678,0.000431,0.133394
30349000,0.0324,0.013523,0.002678,0.000431,0.132572
30350000,0.0324,0.013523,0.002678,0.000431,0.578474
30351000,0.0324,0.013523,0.002678,0.000431,0.275721
30352000,0.0324,0.013523,0.002678,0.000431,0.238347
30353000,0.0324,0.013523,0.002678,0.000431,0.267142
30354000,0.0324,0.013523,0.002678,0.000431,0.143972
30355000,0.0324,0.013523,0.002678,0.000431,0.145852
30356000,0.0324,0.013523,0.002678,0.000431,0.115648
30357000,0.0324,0.013523,0.002678,0.000431,0.425805
30358000,0.0324,0.013523,0.002678,0.000431,0.230473
30359000,0.0324,0.013523,0.002678,0.000431,0.135510
30360000,0.0324,0.013523,0.002678,0.000431,0.105188
30361000,0.0324,0.013523,0.002678,0.000431,0.097196
30362000,0.0324,0.013523,0.002678,0.000431,0.084620
30363000,0.0324,0.013523,0.002678,0.000431,0.069694
30364000,0.0324,0.013523,0.002678,0.000431,0.062172
30365000,0.0324,0.013523,0.002678,0.000431,0.055943
30366000,0.0324,0.013523,0.002678,0.000431,0.055238
30367000,0.0324,0.013523,0.002678,0.000431,0.053475
30368000,0.0324,0.013523,0.002678,0.000431,0.054180
30369000,0.0324,0.013523,0.002678,0.000431,0.039842
30370000,0.0324,0.013523,0.002678,0.000431,0.034906
30371000,0.0324,0.013523,0.002678,0.000431,0.026209
30372000,0.0324,0.013523,0.002678,0.000431,0.022918
30373000,0.0324,0.013523,0.002678,0.000431,0.015984
30374000,0.0324,0.013523,0.002678,0.000431,0.017042
30375000,0.0324,0.013523,0.002678,0.000431,0.012105
30376000,0.0324,0.013523,0.002678,0.000431,0.014809
30377000,0.0324,0.013523,0.002678,0.000431,0.010460
30378000,0.0324,0.013523,0.002678,0.000431,0.006699
30379000,0.0324,0.013523,0.002678,0.000431,0.006699
30380000,0.0324,0.013523,0.002678,0.000431,0.008932
30381000,0.0324,0.013523,0.002678,0.000431,0.006934
30382000,0.0324,0.013523,0.002678,0.000431,0.006229
30383000,0.0324,0.013523,0.002678,0.000431,0.009167
30384000,0.0324,0.013523,0.002678,0.000431,0.003526
30385000,0.0324,0.013523,0.002678,0.000431,0.005289
30386000,0.0324,0.013523,0.002678,0.000431,0.002351
30387000,0.0324,0.013523,0.002678,0.000431,0.002586
30388000,0.0324,0.013523,0.002678,0.000431,0.002586
30389000,0.0324,0.013523,0.002678,0.000431,0.002351
30390000,0.0324,0.013523,0.002678,0.000431,0.002821
30391000,0.0324,0.013523,0.002678,0.000431,0.002116
30392000,0.0324,0.013523,0.002678,0.000431,0.002821
30393000,0.0324,0.013523,0.002678,0.000431,0.002468
30394000,0.0324,0.013523,0.002678,0.000431,0.002468
30395000,0.0324,0.013523,0.002678,0.000431,0.002703
30396000,0.0324,0.013523,0.002678,0.000431,0.003643
30397000,0.0324,0.013523,0.002678,0.000431,0.001998
30398000,0.0324,0.013523,0.002678,0.000431,0.001528
30399000,0.0324,0.013523,0.002678,0.000431,0.001763
30400000,0.0324,0.013523,0.002678,0.000431,0.001645
30401000,0.0324,0.013523,0.002678,0.000431,0.001645
30402000,0.0324,0.013523,0.002678,0.000431,0.001763
30403000,0.0324,0.013523,0.002678,0.000431,0.001528
30404000,0.0324,0.013523,0.002678,0.000431,0.001880
30405000,0.0324,0.013523,0.002678,0.000431,0.001528
30406000,0.0324,0.013523,0.002678,0.000431,0.001763
30407000,0.0324,0.013523,0.002678,0.000431,0.001528
30408000,0.0324,0.013523,0.002678,0.000431,0.001763
30409000,0.0324,0.013523,0.002678,0.000431,0.001645
30410000,0.0324,0.013523,0.002678,0.000431,0.001645
30411000,0.0324,0.013523,0.002678,0.000431,0.001645
30412000,0.0324,0.013523,0.002678,0.000431,0.004466
30413000,0.0324,0.013523,0.002678,0.000431,0.423807
30414000,0.0324,0.013523,0.002678,0.000431,0.729615
30415000,0.0324,0.013523,0.002678,0.000431,0.163364
30416000,0.0324,0.013523,0.002678,0.000431,0.133042
30417000,0.0324,0.013523,0.002678,0.000431,0.144677
30418000,0.0324,0.013523,0.002678,0.000431,0.578944
30419000,0.0324,0.013523,0.002678,0.000431,0.245281
30420000,0.0324,0.013523,0.002678,0.000431,0.269257
30421000,0.0324,0.013523,0.002678,0.000431,0.229297
30422000,0.0324,0.013523,0.002678,0.000431,0.145147
30423000,0.0324,0.013523,0.002678,0.000431,0.189103
30424000,0.0324,0.013523,0.002678,0.000431,0.083445
30425000,0.0324,0.013523,0.002678,0.000431,0.500553
30426000,0.0324,0.013523,0.002678,0.000431,0.158075
30427000,0.0324,0.013523,0.002678,0.000431,0.120584
30428000,0.0324,0.013523,0.002678,0.000431,0.101309
30429000,0.0324,0.013523,0.002678,0.000431,0.085678
30430000,0.0324,0.013523,0.002678,0.000431,0.069342
30431000,0.0324,0.013523,0.002678,0.000431,0.057001
30432000,0.0324,0.013523,0.002678,0.000431,0.049597
30433000,0.0324,0.013523,0.002678,0.000431,0.051595
30434000,0.0324,0.013523,0.002678,0.000431,0.037139
30435000,0.0324,0.013523,0.002678,0.000431,0.032673
30436000,0.0324,0.013523,0.002678,0.000431,0.030910
30437000,0.0324,0.013523,0.002678,0.000431,0.029970
30438000,0.0324,0.013523,0.002678,0.000431,0.017747
30439000,0.0324,0.013523,0.002678,0.000431,0.019745
30440000,0.0324,0.013523,0.002678,0.000431,0.009520
30441000,0.0324,0.013523,0.002678,0.000431,0.009755
30442000,0.0324,0.013523,0.002678,0.000431,0.011400
30443000,0.0324,0.013523,0.002678,0.000431,0.014103
30444000,0.0324,0.013523,0.002678,0.000431,0.007522
30445000,0.0324,0.013523,0.002678,0.000431,0.007757
30446000,0.0324,0.013523,0.002678,0.000431,0.006111
30447000,0.0324,0.013523,0.002678,0.000431,0.004936
30448000,0.0324,0.013523,0.002678,0.000431,0.004113
30449000,0.0324,0.013523,0.002678,0.000431,0.004584
30450000,0.0324,0.013523,0.002678,0.000431,0.004584
30451000,0.0324,0.013523,0.002678,0.000431,0.002821
30452000,0.0324,0.013523,0.002678,0.000431,0.003526
30453000,0.0324,0.013523,0.002678,0.000431,0.004584
30454000,0.0324,0.013523,0.002678,0.000431,0.002351
30455000,0.0324,0.013523,0.002678,0.000431,0.001880
30456000,0.0324,0.013523,0.002678,0.000431,0.002821
30457000,0.0324,0.013523,0.002678,0.000431,0.002116
30458000,0.0324,0.013523,0.002678,0.000431,0.002351
30459000,0.0324,0.013523,0.002678,0.000431,0.002468
30460000,0.0324,0.013523,0.002678,0.000431,0.002233
30461000,0.0324,0.013523,0.002678,0.000431,0.002351
30462000,0.0324,0.013523,0.002678,0.000431,0.002351
30463000,0.0324,0.013523,0.002678,0.000431,0.002116
30464000,0.0324,0.013523,0.002678,0.000431,0.002233
30465000,0.0324,0.013523,0.002678,0.000431,0.001645
30466000,0.0324,0.013523,0.002678,0.000431,0.001528
30467000,0.0324,0.013523,0.002678,0.000431,0.001763
30468000,0.0324,0.013523,0.002678,0.000431,0.001880
30469000,0.0324,0.013523,0.002678,0.000431,0.001410
30470000,0.0324,0.013523,0.002678,0.000431,0.003408
30471000,0.0324,0.013523,0.002678,0.000431,0.000823
30472000,0.0324,0.013523,0.002678,0.000431,0.000823
30473000,0.0324,0.013523,0.002678,0.000431,0.000823
30474000,0.0324,0.013523,0.002678,0.000431,0.000823
30475000,0.0324,0.013523,0.002678,0.000431,0.000940
30476000,0.0324,0.013523,0.002678,0.000431,0.000705
30477000,0.0324,0.013523,0.002678,0.000431,0.000823
30478000,0.0324,0.013523,0.002678,0.000431,0.000940
30479000,0.0324,0.013523,0.002678,0.000431,0.000823
30480000,0.0324,0.013523,0.002678,0.000431,0.000823
30481000,0.0324,0.013523,0.002678,0.000431,0.000823
30482000,0.0324,0.013523,0.002678,0.000431,0.000823
30483000,0.0324,0.013523,0.002678,0.000431,0.000823
30484000,0.0324,0.013523,0.002678,0.000431,0.000940
30485000,0.0324,0.013523,0.002678,0.000431,0.000705
30486000,0.0324,0.013523,0.002678,0.000431,0.000940
30487000,0.0324,0.013523,0.002678,0.000431,0.000705
30488000,0.0324,0.013523,0.002678,0.000431,0.000940
30489000,0.0324,0.013523,0.002678,0.000431,0.000940
30490000,0.0324,0.013523,0.002678,0.000431,0.000705
30491000,0.0324,0.013523,0.002678,0.000431,0.000940
30492000,0.0324,0.013523,0.002678,0.000431,0.000705
30493000,0.0324,0.013523,0.002678,0.000431,0.000940
30494000,0.0324,0.013523,0.002678,0.000431,0.070634
30495000,0.0324,0.013523,0.002678,0.000431,0.599159
30496000,0.0324,0.013523,0.002678,0.000431,0.585996
30497000,0.0324,0.013523,0.002678,0.000431,0.140564
30498000,0.0324,0.013523,0.002678,0.000431,0.133394
30499000,0.0324,0.013523,0.002678,0.000431,0.583880
30500000,0.0324,0.013523,0.002678,0.000431,0.237289
30501000,0.0324,0.013523,0.002678,0.000431,0.272430
30502000,0.0324,0.013523,0.002678,0.000431,0.293938
30503000,0.0324,0.013523,0.002678,0.000431,0.144912
30504000,0.0324,0.013523,0.002678,0.000431,0.175117
30505000,0.0324,0.013523,0.002678,0.000431,0.108361
30506000,0.0324,0.013523,0.002678,0.000431,0.479750
30507000,0.0324,0.013523,0.002678,0.000431,0.160191
30508000,0.0324,0.013523,0.002678,0.000431,0.124815
30509000,0.0324,0.013523,0.002678,0.000431,0.106010
30510000,0.0324,0.013523,0.002678,0.000431,0.088146
30511000,0.0324,0.013523,0.002678,0.000431,0.077334
30512000,0.0324,0.013523,0.002678,0.000431,0.067696
30513000,0.0324,0.013523,0.002678,0.000431,0.057941
30514000,0.0324,0.013523,0.002678,0.000431,0.054886
30515000,0.0324,0.013523,0.002678,0.000431,0.043838
30516000,0.0324,0.013523,0.002678,0.000431,0.036434
30517000,0.0324,0.013523,0.002678,0.000431,0.028559
30518000,0.0324,0.013523,0.002678,0.000431,0.031850
30519000,0.0324,0.013523,0.002678,0.000431,0.021155
30520000,0.0324,0.013523,0.002678,0.000431,0.013398
30521000,0.0324,0.013523,0.002678,0.000431,0.011165
30522000,0.0324,0.013523,0.002678,0.000431,0.011400
30523000,0.0324,0.013523,0.002678,0.000431,0.008580
30524000,0.0324,0.013523,0.002678,0.000431,0.007992
30525000,0.0324,0.013523,0.002678,0.000431,0.007169
30526000,0.0324,0.013523,0.002678,0.000431,0.005641
30527000,0.0324,0.013523,0.002678,0.000431,0.006347
30528000,0.0324,0.013523,0.002678,0.000431,0.006817
30529000,0.0324,0.013523,0.002678,0.000431,0.007639
30530000,0.0324,0.013523,0.002678,0.000431,0.005876
30531000,0.0324,0.013523,0.002678,0.000431,0.004231
30532000,0.0324,0.013523,0.002678,0.000431,0.001880
30533000,0.0324,0.013523,0.002678,0.000431,0.001645
30534000,0.0324,0.013523,0.002678,0.000431,0.001528
30535000,0.0324,0.013523,0.002678,0.000431,0.001763
30536000,0.0324,0.013523,0.002678,0.000431,0.001763
30537000,0.0324,0.013523,0.002678,0.000431,0.001528
30538000,0.0324,0.013523,0.002678,0.000431,0.001763
30539000,0.0324,0.013523,0.002678,0.000431,0.001645
30540000,0.0324,0.013523,0.002678,0.000431,0.001645
30541000,0.0324,0.013523,0.002678,0.000431,0.001645
30542000,0.0324,0.013523,0.002678,0.000431,0.001763
30543000,0.0324,0.013523,0.002678,0.000431,0.001763
30544000,0.0324,0.013523,0.002678,0.000431,0.001528
30545000,0.0324,0.013523,0.002678,0.000431,0.001763
30546000,0.0324,0.013523,0.002678,0.000431,0.001645
30547000,0.0324,0.013523,0.002678,0.000431,0.001645
30548000,0.0324,0.013523,0.002678,0.000431,0.001763
30549000,0.0324,0.013523,0.002678,0.000431,0.001645
30550000,0.0324,0.013523,0.002678,0.000431,0.001763
30551000,0.0324,0.013523,0.002678,0.000431,0.001528
30552000,0.0324,0.013523,0.002678,0.000431,0.001763
30553000,0.0324,0.013523,0.002678,0.000431,0.001645
30554000,0.0324,0.013523,0.002678,0.000431,0.001645
30555000,0.0324,0.013523,0.002678,0.000431,0.001528
30556000,0.0324,0.013523,0.002678,0.000431,0.001528
30557000,0.0324,0.013523,0.002678,0.000431,0.001880
30558000,0.0324,0.013523,0.002678,0.000431,0.001410
30559000,0.0324,0.013523,0.002678,0.000431,0.001763
30560000,0.0324,0.013523,0.002678,0.000431,0.001880
30561000,0.0324,0.013523,0.002678,0.000431,0.003526
30562000,0.0324,0.013523,0.002678,0.000431,0.000823
30563000,0.0324,0.013523,0.002678,0.000431,0.000823
30564000,0.0324,0.013523,0.002678,0.000431,0.000705
30565000,0.0324,0.013523,0.002678,0.000431,0.000940
30566000,0.0324,0.013523,0.002678,0.000431,0.000940
30567000,0.0324,0.013523,0.002678,0.000431,0.000705
30568000,0.0324,0.013523,0.002678,0.000431,0.000940
30569000,0.0324,0.013523,0.002678,0.000431,0.000705
30570000,0.0324,0.013523,0.002678,0.000431,0.000940
30571000,0.0324,0.013523,0.002678,0.000431,0.000940
30572000,0.0324,0.013523,0.002678,0.000431,0.000705
30573000,0.0324,0.013523,0.002678,0.000431,0.000940
30574000,0.0324,0.013523,0.002678,0.000431,0.000705
30575000,0.0324,0.013523,0.002678,0.000431,0.000940
30576000,0.0324,0.013523,0.002678,0.000431,0.000823
30577000,0.0324,0.013523,0.002678,0.000431,0.000823
30578000,0.0324,0.013523,0.002678,0.000431,0.000823
30579000,0.0324,0.013523,0.002678,0.000431,0.000823
30580000,0.0324,0.013523,0.002678,0.000431,0.001880
30581000,0.0324,0.013523,0.002678,0.000431,0.333780
30582000,0.0324,0.013523,0.002678,0.000431,0.694239
30583000,0.0324,0.013523,0.002678,0.000431,0.276661
30584000,0.0324,0.013523,0.002678,0.000431,0.133042
30585000,0.0324,0.013523,0.002678,0.000431,0.137273
30586000,0.0324,0.013523,0.002678,0.000431,0.579296
30587000,0.0324,0.013523,0.002678,0.000431,0.239287
30588000,0.0324,0.013523,0.002678,0.000431,0.278189
30589000,0.0324,0.013523,0.002678,0.000431,0.242696
30590000,0.0324,0.013523,0.002678,0.000431,0.139859
30591000,0.0324,0.013523,0.002678,0.000431,0.183344
30592000,0.0324,0.013523,0.002678,0.000431,0.094728
30593000,0.0324,0.013523,0.002678,0.000431,0.490915
30594000,0.0324,0.013523,0.002678,0.000431,0.188985
30595000,0.0324,0.013523,0.002678,0.000431,0.129281
30596000,0.0324,0.013523,0.002678,0.000431,0.110241
30597000,0.0324,0.013523,0.002678,0.000431,0.091672
30598000,0.0324,0.013523,0.002678,0.000431,0.083445
30599000,0.0324,0.013523,0.002678,0.000431,0.068754
30600000,0.0324,0.013523,0.002678,0.000431,0.066521
30601000,0.0324,0.013523,0.002678,0.000431,0.055238
30602000,0.0324,0.013523,0.002678,0.000431,0.047599
30603000,0.0324,0.013523,0.002678,0.000431,0.038197
30604000,0.0324,0.013523,0.002678,0.000431,0.030675
30605000,0.0324,0.013523,0.002678,0.000431,0.027619
30606000,0.0324,0.013523,0.002678,0.000431,0.031850
30607000,0.0324,0.013523,0.002678,0.000431,0.025151
30608000,0.0324,0.013523,0.002678,0.000431,0.017394
30609000,0.0324,0.013523,0.002678,0.000431,0.019627
30610000,0.0324,0.013523,0.002678,0.000431,0.018452
30611000,0.0324,0.013523,0.002678,0.000431,0.013868
30612000,0.0324,0.013523,0.002678,0.000431,0.010695
30613000,0.0324,0.013523,0.002678,0.000431,0.007639
30614000,0.0324,0.013523,0.002678,0.000431,0.007522
30615000,0.0324,0.013523,0.002678,0.000431,0.009402
30616000,0.0324,0.013523,0.002678,0.000431,0.008580
30617000,0.0324,0.013523,0.002678,0.000431,0.005759
30618000,0.0324,0.013523,0.002678,0.000431,0.008580
30619000,0.0324,0.013523,0.002678,0.000431,0.010813
30620000,0.0324,0.013523,0.002678,0.000431,0.003643
30621000,0.0324,0.013523,0.002678,0.000431,0.003526
30622000,0.0324,0.013523,0.002678,0.000431,0.003408
30623000,0.0324,0.013523,0.002678,0.000431,0.003526
30624000,0.0324,0.013523,0.002678,0.000431,0.003643
30625000,0.0324,0.013523,0.002678,0.000431,0.003173
30626000,0.0324,0.013523,0.002678,0.000431,0.006347
30627000,0.0324,0.013523,0.002678,0.000431,0.003996
30628000,0.0324,0.013523,0.002678,0.000431,0.004349
30629000,0.0324,0.013523,0.002678,0.000431,0.000940
30630000,0.0324,0.013523,0.002678,0.000431,0.000823
30631000,0.0324,0.013523,0.002678,0.000431,0.000940
30632000,0.0324,0.013523,0.002678,0.000431,0.000823
30633000,0.0324,0.013523,0.002678,0.000431,0.000823
30634000,0.0324,0.013523,0.002678,0.000431,0.000940
30635000,0.0324,0.013523,0.002678,0.000431,0.000940
30636000,0.0324,0.013523,0.002678,0.000431,0.000823
30637000,0.0324,0.013523,0.002678,0.000431,0.000823
30638000,0.0324,0.013523,0.002678,0.000431,0.013633
30639000,0.0324,0.013523,0.002678,0.000431,0.590462
30640000,0.0324,0.013523,0.002678,0.000431,0.621489
30641000,0.0324,0.013523,0.002678,0.000431,0.146323
30642000,0.0324,0.013523,0.002678,0.000431,0.132102
30643000,0.0324,0.013523,0.002678,0.000431,0.402064
30644000,0.0324,0.013523,0.002678,0.000431,0.363750
30645000,0.0324,0.013523,0.002678,0.000431,0.231883
30646000,0.0324,0.013523,0.002678,0.000431,0.354112
30647000,0.0324,0.013523,0.002678,0.000431,0.152552
30648000,0.0324,0.013523,0.002678,0.000431,0.151964
30649000,0.0324,0.013523,0.002678,0.000431,0.119996
30650000,0.0324,0.013523,0.002678,0.000431,0.329079
30651000,0.0324,0.013523,0.002678,0.000431,0.317679
30652000,0.0324,0.013523,0.002678,0.000431,0.137038
30653000,0.0324,0.013523,0.002678,0.000431,0.111299
30654000,0.0324,0.013523,0.002678,0.000431,0.106245
30655000,0.0324,0.013523,0.002678,0.000431,0.083915
30656000,0.0324,0.013523,0.002678,0.000431,0.082387
30657000,0.0324,0.013523,0.002678,0.000431,0.075688
30658000,0.0324,0.013523,0.002678,0.000431,0.058999
30659000,0.0324,0.013523,0.002678,0.000431,0.060057
30660000,0.0324,0.013523,0.002678,0.000431,0.045366
30661000,0.0324,0.013523,0.002678,0.000431,0.048069
30662000,0.0324,0.013523,0.002678,0.000431,0.037727
30663000,0.0324,0.013523,0.002678,0.000431,0.038667
30664000,0.0324,0.013523,0.002678,0.000431,0.030910
30665000,0.0324,0.013523,0.002678,0.000431,0.024093
30666000,0.0324,0.013523,0.002678,0.000431,0.025386
30667000,0.0324,0.013523,0.002678,0.000431,0.022095
30668000,0.0324,0.013523,0.002678,0.000431,0.020567
30669000,0.0324,0.013523,0.002678,0.000431,0.018922
30670000,0.0324,0.013523,0.002678,0.000431,0.019745
30671000,0.0324,0.013523,0.002678,0.000431,0.015514
30672000,0.0324,0.013523,0.002678,0.000431,0.015866
30673000,0.0324,0.013523,0.002678,0.000431,0.017042
30674000,0.0324,0.013523,0.002678,0.000431,0.013281
30675000,0.0324,0.013523,0.002678,0.000431,0.013986
30676000,0.0324,0.013523,0.002678,0.000431,0.011753
30677000,0.0324,0.013523,0.002678,0.000431,0.011518
30678000,0.0324,0.013523,0.002678,0.000431,0.011400
30679000,0.0324,0.013523,0.002678,0.000431,0.006817
30680000,0.0324,0.013523,0.002678,0.000431,0.006817
30681000,0.0324,0.013523,0.002678,0.000431,0.006699
30682000,0.0324,0.013523,0.002678,0.000431,0.008462
30683000,0.0324,0.013523,0.002678,0.000431,0.005641
30684000,0.0324,0.013523,0.002678,0.000431,0.007992
30685000,0.0324,0.013523,0.002678,0.000431,0.005054
30686000,0.0324,0.013523,0.002678,0.000431,0.004936
30687000,0.0324,0.013523,0.002678,0.000431,0.005054
30688000,0.0324,0.013523,0.002678,0.000431,0.005054
30689000,0.0324,0.013523,0.002678,0.000431,0.004936
30690000,0.0324,0.013523,0.002678,0.000431,0.005171
30691000,0.0324,0.013523,0.002678,0.000431,0.004701
30692000,0.0324,0.013523,0.002678,0.000431,0.005289
30693000,0.0324,0.013523,0.002678,0.000431,0.005054
30694000,0.0324,0.013523,0.002678,0.000431,0.006582
30695000,0.0324,0.013523,0.002678,0.000431,0.005641
30696000,0.0324,0.013523,0.002678,0.000431,0.003056
30697000,0.0324,0.013523,0.002678,0.000431,0.003173
30698000,0.0324,0.013523,0.002678,0.000431,0.002938
30699000,0.0324,0.013523,0.002678,0.000431,0.003173
30700000,0.0324,0.013523,0.002678,0.000431,0.003408
30701000,0.0324,0.013523,0.002678,0.000431,0.003173
30702000,0.0324,0.013523,0.002678,0.000431,0.003291
30703000,0.0324,0.013523,0.002678,0.000431,0.003056
30704000,0.0324,0.013523,0.002678,0.000431,0.003408
30705000,0.0324,0.013523,0.002678,0.000431,0.004113
30706000,0.0324,0.013523,0.002678,0.000431,0.004584
30707000,0.0324,0.013523,0.002678,0.000431,0.001058
30708000,0.0324,0.013523,0.002678,0.000431,0.000823
30709000,0.0324,0.013523,0.002678,0.000431,0.000823
30710000,0.0324,0.013523,0.002678,0.000431,0.000823
30711000,0.0324,0.013523,0.002678,0.000431,0.000823
30712000,0.0324,0.013523,0.002678,0.000431,0.000940
30713000,0.0324,0.013523,0.002678,0.000431,0.000823
30714000,0.0324,0.013523,0.002678,0.000431,0.000823
30715000,0.0324,0.013523,0.002678,0.000431,0.000823
30716000,0.0324,0.013523,0.002678,0.000431,0.000823
30717000,0.0324,0.013523,0.002678,0.000431,0.000823
30718000,0.0324,0.013523,0.002678,0.000431,0.000823
30719000,0.0324,0.013523,0.002678,0.000431,0.000940
30720000,0.0324,0.013523,0.002678,0.000431,0.000705
30721000,0.0324,0.013523,0.002678,0.000431,0.000823
30722000,0.0324,0.013523,0.002678,0.000431,0.000940
30723000,0.0324,0.013523,0.002678,0.000431,0.000823
30724000,0.0324,0.013523,0.002678,0.000431,0.000940
30725000,0.0324,0.013523,0.002678,0.000431,0.000940
30726000,0.0324,0.013523,0.002678,0.000431,0.000940
30727000,0.0324,0.013523,0.002678,0.000431,0.000823
30728000,0.0324,0.013523,0.002678,0.000431,0.000823
30729000,0.0324,0.013523,0.002678,0.000431,0.014103
30730000,0.0324,0.013523,0.002678,0.000431,0.574243
30731000,0.0324,0.013523,0.002678,0.000431,0.622899
30732000,0.0324,0.013523,0.002678,0.000431,0.133512
30733000,0.0324,0.013523,0.002678,0.000431,0.132572
30734000,0.0324,0.013523,0.002678,0.000431,0.395482
30735000,0.0324,0.013523,0.002678,0.000431,0.366218
30736000,0.0324,0.013523,0.002678,0.000431,0.223656
30737000,0.0324,0.013523,0.002678,0.000431,0.314858
30738000,0.0324,0.013523,0.002678,0.000431,0.168183
30739000,0.0324,0.013523,0.002678,0.000431,0.152199
30740000,0.0324,0.013523,0.002678,0.000431,0.155255
30741000,0.0324,0.013523,0.002678,0.000431,0.192629
30742000,0.0324,0.013523,0.002678,0.000431,0.426510
30743000,0.0324,0.013523,0.002678,0.000431,0.114825
30744000,0.0324,0.013523,0.002678,0.000431,0.093435
30745000,0.0324,0.013523,0.002678,0.000431,0.070282
30746000,0.0324,0.013523,0.002678,0.000431,0.067109
30747000,0.0324,0.013523,0.002678,0.000431,0.056296
30748000,0.0324,0.013523,0.002678,0.000431,0.042193
30749000,0.0324,0.013523,0.002678,0.000431,0.042545
30750000,0.0324,0.013523,0.002678,0.000431,0.033260
30751000,0.0324,0.013523,0.002678,0.000431,0.026326
30752000,0.0324,0.013523,0.002678,0.000431,0.027619
30753000,0.0324,0.013523,0.002678,0.000431,0.022448
30754000,0.0324,0.013523,0.002678,0.000431,0.021273
30755000,0.0324,0.013523,0.002678,0.000431,0.018099
30756000,0.0324,0.013523,0.002678,0.000431,0.015984
30757000,0.0324,0.013523,0.002678,0.000431,0.017512
30758000,0.0324,0.013523,0.002678,0.000431,0.014338
30759000,0.0324,0.013523,0.002678,0.000431,0.023271
30760000,0.0324,0.013523,0.002678,0.000431,0.010225
30761000,0.0324,0.013523,0.002678,0.000431,0.013163
30762000,0.0324,0.013523,0.002678,0.000431,0.008345
30763000,0.0324,0.013523,0.002678,0.000431,0.006699
30764000,0.0324,0.013523,0.002678,0.000431,0.008697
30765000,0.0324,0.013523,0.002678,0.000431,0.009050
30766000,0.0324,0.013523,0.002678,0.000431,0.006934
30767000,0.0324,0.013523,0.002678,0.000431,0.004701
30768000,0.0324,0.013523,0.002678,0.000431,0.003878
30769000,0.0324,0.013523,0.002678,0.000431,0.002586
30770000,0.0324,0.013523,0.002678,0.000431,0.002586
30771000,0.0324,0.013523,0.002678,0.000431,0.002586
30772000,0.0324,0.013523,0.002678,0.000431,0.002468
30773000,0.0324,0.013523,0.002678,0.000431,0.002586
30774000,0.0324,0.013523,0.002678,0.000431,0.002468
30775000,0.0324,0.013523,0.002678,0.000431,0.002351
30776000,0.0324,0.013523,0.002678,0.000431,0.002703
30777000,0.0324,0.013523,0.002678,0.000431,0.003408
30778000,0.0324,0.013523,0.002678,0.000431,0.003056
30779000,0.0324,0.013523,0.002678,0.000431,0.000940
30780000,0.0324,0.013523,0.002678,0.000431,0.000823
30781000,0.0324,0.013523,0.002678,0.000431,0.000823
30782000,0.0324,0.013523,0.002678,0.000431,0.000823
30783000,0.0324,0.013523,0.002678,0.000431,0.000823
30784000,0.0324,0.013523,0.002678,0.000431,0.000705
30785000,0.0324,0.013523,0.002678,0.000431,0.000940
30786000,0.0324,0.013523,0.002678,0.000431,0.000823
30787000,0.0324,0.013523,0.002678,0.000431,0.000823
30788000,0.0324,0.013523,0.002678,0.000431,0.000705
30789000,0.0324,0.013523,0.002678,0.000431,0.214136
30790000,0.0324,0.013523,0.002678,0.000431,0.563430
30791000,0.0324,0.013523,0.002678,0.000431,0.477047
30792000,0.0324,0.013523,0.002678,0.000431,0.131632
30793000,0.0324,0.013523,0.002678,0.000431,0.143502
30794000,0.0324,0.013523,0.002678,0.000431,0.659098
30795000,0.0324,0.013523,0.002678,0.000431,0.237995
30796000,0.0324,0.013523,0.002678,0.000431,0.255506
30797000,0.0324,0.013523,0.002678,0.000431,0.236937
30798000,0.0324,0.013523,0.002678,0.000431,0.152434
30799000,0.0324,0.013523,0.002678,0.000431,0.162894
30800000,0.0324,0.013523,0.002678,0.000431,0.147145
30801000,0.0324,0.013523,0.002678,0.000431,0.456479
30802000,0.0324,0.013523,0.002678,0.000431,0.143502
30803000,0.0324,0.013523,0.002678,0.000431,0.110712
30804000,0.0324,0.013523,0.002678,0.000431,0.106245
30805000,0.0324,0.013523,0.002678,0.000431,0.090027
30806000,0.0324,0.013523,0.002678,0.000431,0.066991
30807000,0.0324,0.013523,0.002678,0.000431,0.054063
30808000,0.0324,0.013523,0.002678,0.000431,0.047716
30809000,0.0324,0.013523,0.002678,0.000431,0.043015
30810000,0.0324,0.013523,0.002678,0.000431,0.034318
30811000,0.0324,0.013523,0.002678,0.000431,0.028207
30812000,0.0324,0.013523,0.002678,0.000431,0.031380
30813000,0.0324,0.013523,0.002678,0.000431,0.021978
30814000,0.0324,0.013523,0.002678,0.000431,0.022213
30815000,0.0324,0.013523,0.002678,0.000431,0.018922
30816000,0.0324,0.013523,0.002678,0.000431,0.020097
30817000,0.0324,0.013523,0.002678,0.000431,0.014691
30818000,0.0324,0.013523,0.002678,0.000431,0.013516
30819000,0.0324,0.013523,0.002678,0.000431,0.013986
30820000,0.0324,0.013523,0.002678,0.000431,0.017864
30821000,0.0324,0.013523,0.002678,0.000431,0.006464
30822000,0.0324,0.013523,0.002678,0.000431,0.006111
30823000,0.0324,0.013523,0.002678,0.000431,0.007404
30824000,0.0324,0.013523,0.002678,0.000431,0.005406
30825000,0.0324,0.013523,0.002678,0.000431,0.005171
30826000,0.0324,0.013523,0.002678,0.000431,0.005171
30827000,0.0324,0.013523,0.002678,0.000431,0.005876
30828000,0.0324,0.013523,0.002678,0.000431,0.007287
30829000,0.0324,0.013523,0.002678,0.000431,0.003056
30830000,0.0324,0.013523,0.002678,0.000431,0.003526
30831000,0.0324,0.013523,0.002678,0.000431,0.003643
30832000,0.0324,0.013523,0.002678,0.000431,0.003526
30833000,0.0324,0.013523,0.002678,0.000431,0.003056
30834000,0.0324,0.013523,0.002678,0.000431,0.003408
30835000,0.0324,0.013523,0.002678,0.000431,0.003761
30836000,0.0324,0.013523,0.002678,0.000431,0.003408
30837000,0.0324,0.013523,0.002678,0.000431,0.006817
30838000,0.0324,0.013523,0.002678,0.000431,0.221658
30839000,0.0324,0.013523,0.002678,0.000431,0.638531
30840000,0.0324,0.013523,0.002678,0.000431,0.427685
30841000,0.0324,0.013523,0.002678,0.000431,0.132572
30842000,0.0324,0.013523,0.002678,0.000431,0.133042
30843000,0.0324,0.013523,0.002678,0.000431,0.584703
30844000,0.0324,0.013523,0.002678,0.000431,0.238112
30845000,0.0324,0.013523,0.002678,0.000431,0.272430
30846000,0.0324,0.013523,0.002678,0.000431,0.252803
30847000,0.0324,0.013523,0.002678,0.000431,0.140211
30848000,0.0324,0.013523,0.002678,0.000431,0.185695
30849000,0.0324,0.013523,0.002678,0.000431,0.091437
30850000,0.0324,0.013523,0.002678,0.000431,0.463531
30851000,0.0324,0.013523,0.002678,0.000431,0.147263
30852000,0.0324,0.013523,0.002678,0.000431,0.104835
30853000,0.0324,0.013523,0.002678,0.000431,0.086736
30854000,0.0324,0.013523,0.002678,0.000431,0.076393
30855000,0.0324,0.013523,0.002678,0.000431,0.063113
30856000,0.0324,0.013523,0.002678,0.000431,0.060762
30857000,0.0324,0.013523,0.002678,0.000431,0.045836
30858000,0.0324,0.013523,0.002678,0.000431,0.036199
30859000,0.0324,0.013523,0.002678,0.000431,0.047364
30860000,0.0324,0.013523,0.002678,0.000431,0.027619
30861000,0.0324,0.013523,0.002678,0.000431,0.023153
30862000,0.0324,0.013523,0.002678,0.000431,0.022565
30863000,0.0324,0.013523,0.002678,0.000431,0.018805
30864000,0.0324,0.013523,0.002678,0.000431,0.015514
30865000,0.0324,0.013523,0.002678,0.000431,0.015044
30866000,0.0324,0.013523,0.002678,0.000431,0.020215
30867000,0.0324,0.013523,0.002678,0.000431,0.014103
30868000,0.0324,0.013523,0.002678,0.000431,0.010342
30869000,0.0324,0.013523,0.002678,0.000431,0.011988
30870000,0.0324,0.013523,0.002678,0.000431,0.011283
30871000,0.0324,0.013523,0.002678,0.000431,0.008227
30872000,0.0324,0.013523,0.002678,0.000431,0.006229
30873000,0.0324,0.013523,0.002678,0.000431,0.003643
30874000,0.0324,0.013523,0.002678,0.000431,0.003056
30875000,0.0324,0.013523,0.002678,0.000431,0.003173
30876000,0.0324,0.013523,0.002678,0.000431,0.002821
30877000,0.0324,0.013523,0.002678,0.000431,0.002586
30878000,0.0324,0.013523,0.002678,0.000431,0.002586
30879000,0.0324,0.013523,0.002678,0.000431,0.002586
30880000,0.0324,0.013523,0.002678,0.000431,0.002703
30881000,0.0324,0.013523,0.002678,0.000431,0.005994
30882000,0.0324,0.013523,0.002678,0.000431,0.000940
30883000,0.0324,0.013523,0.002678,0.000431,0.002821
30884000,0.0324,0.013523,0.002678,0.000431,0.454246
30885000,0.0324,0.013523,0.002678,0.000431,0.689890
30886000,0.0324,0.013523,0.002678,0.000431,0.139153
30887000,0.0324,0.013523,0.002678,0.000431,0.133512
30888000,0.0324,0.013523,0.002678,0.000431,0.233646
30889000,0.0324,0.013523,0.002678,0.000431,0.510660
30890000,0.0324,0.013523,0.002678,0.000431,0.230473
30891000,0.0324,0.013523,0.002678,0.000431,0.282890
30892000,0.0324,0.013523,0.002678,0.000431,0.205439
30893000,0.0324,0.013523,0.002678,0.000431,0.140094
30894000,0.0324,0.013523,0.002678,0.000431,0.183697
30895000,0.0324,0.013523,0.002678,0.000431,0.129281
30896000,0.0324,0.013523,0.002678,0.000431,0.453776
30897000,0.0324,0.013523,0.002678,0.000431,0.137273
30898000,0.0324,0.013523,0.002678,0.000431,0.109536
30899000,0.0324,0.013523,0.002678,0.000431,0.095198
30900000,0.0324,0.013523,0.002678,0.000431,0.092377
30901000,0.0324,0.013523,0.002678,0.000431,0.071692
30902000,0.0324,0.013523,0.002678,0.000431,0.065816
30903000,0.0324,0.013523,0.002678,0.000431,0.056531
30904000,0.0324,0.013523,0.002678,0.000431,0.056061
30905000,0.0324,0.013523,0.002678,0.000431,0.056766
30906000,0.0324,0.013523,0.002678,0.000431,0.045366
30907000,0.0324,0.013523,0.002678,0.000431,0.041017
30908000,0.0324,0.013523,0.002678,0.000431,0.035846
30909000,0.0324,0.013523,0.002678,0.000431,0.030087
30910000,0.0324,0.013523,0.002678,0.000431,0.025269
30911000,0.0324,0.013523,0.002678,0.000431,0.020685
30912000,0.0324,0.013523,0.002678,0.000431,0.022330
30913000,0.0324,0.013523,0.002678,0.000431,0.013516
30914000,0.0324,0.013523,0.002678,0.000431,0.013633
30915000,0.0324,0.013523,0.002678,0.000431,0.015279
30916000,0.0324,0.013523,0.002678,0.000431,0.014221
30917000,0.0324,0.013523,0.002678,0.000431,0.015749
30918000,0.0324,0.013523,0.002678,0.000431,0.009872
30919000,0.0324,0.013523,0.002678,0.000431,0.013868
30920000,0.0324,0.013523,0.002678,0.000431,0.012811
30921000,0.0324,0.013523,0.002678,0.000431,0.005641
30922000,0.0324,0.013523,0.002678,0.000431,0.007169
30923000,0.0324,0.013523,0.002678,0.000431,0.005054
30924000,0.0324,0.013523,0.002678,0.000431,0.004466
30925000,0.0324,0.013523,0.002678,0.000431,0.004466
30926000,0.0324,0.013523,0.002678,0.000431,0.006347
30927000,0.0324,0.013523,0.002678,0.000431,0.003526
30928000,0.0324,0.013523,0.002678,0.000431,0.005524
30929000,0.0324,0.013523,0.002678,0.000431,0.003761
30930000,0.0324,0.013523,0.002678,0.000431,0.002703
30931000,0.0324,0.013523,0.002678,0.000431,0.001880
30932000,0.0324,0.013523,0.002678,0.000431,0.001410
30933000,0.0324,0.013523,0.002678,0.000431,0.001880
30934000,0.0324,0.013523,0.002678,0.000431,0.001528
30935000,0.0324,0.013523,0.002678,0.000431,0.001763
30936000,0.0324,0.013523,0.002678,0.000431,0.001763
30937000,0.0324,0.013523,0.002678,0.000431,0.001528
30938000,0.0324,0.013523,0.002678,0.000431,0.003643
30939000,0.0324,0.013523,0.002678,0.000431,0.000940
30940000,0.0324,0.013523,0.002678,0.000431,0.000705
30941000,0.0324,0.013523,0.002678,0.000431,0.001058
30942000,0.0324,0.013523,0.002678,0.000431,0.000940
30943000,0.0324,0.013523,0.002678,0.000431,0.000823
30944000,0.0324,0.013523,0.002678,0.000431,0.000940
30945000,0.0324,0.013523,0.002678,0.000431,0.000940
30946000,0.0324,0.013523,0.002678,0.000431,0.000823
30947000,0.0324,0.013523,0.002678,0.000431,0.000823
30948000,0.0324,0.013523,0.002678,0.000431,0.000823
30949000,0.0324,0.013523,0.002678,0.000431,0.000823
30950000,0.0324,0.013523,0.002678,0.000431,0.000823
30951000,0.0324,0.013523,0.002678,0.000431,0.000823
30952000,0.0324,0.013523,0.002678,0.000431,0.000940
30953000,0.0324,0.013523,0.002678,0.000431,0.000705
30954000,0.0324,0.013523,0.002678,0.000431,0.000823
30955000,0.0324,0.013523,0.002678,0.000431,0.000940
30956000,0.0324,0.013523,0.002678,0.000431,0.000823
30957000,0.0324,0.013523,0.002678,0.000431,0.000823
30958000,0.0324,0.013523,0.002678,0.000431,0.000823
30959000,0.0324,0.013523,0.002678,0.000431,0.000705
30960000,0.0324,0.013523,0.002678,0.000431,0.000940
30961000,0.0324,0.013523,0.002678,0.000431,0.000940
30962000,0.0324,0.013523,0.002678,0.000431,0.000705
30963000,0.0324,0.013523,0.002678,0.000431,0.000940
30964000,0.0324,0.013523,0.002678,0.000431,0.000705
30965000,0.0324,0.013523,0.002678,0.000431,0.000940
30966000,0.0324,0.013523,0.002678,0.000431,0.000940
30967000,0.0324,0.013523,0.002678,0.000431,0.000705
30968000,0.0324,0.013523,0.002678,0.000431,0.000940
30969000,0.0324,0.013523,0.002678,0.000431,0.000705
30970000,0.0324,0.013523,0.002678,0.000431,0.000940
30971000,0.0324,0.013523,0.002678,0.000431,0.020920
30972000,0.0324,0.013523,0.002678,0.000431,0.574830
30973000,0.0324,0.013523,0.002678,0.000431,0.607973
30974000,0.0324,0.013523,0.002678,0.000431,0.132572
30975000,0.0324,0.013523,0.002678,0.000431,0.134452
30976000,0.0324,0.013523,0.002678,0.000431,0.544978
30977000,0.0324,0.013523,0.002678,0.000431,0.293820
30978000,0.0324,0.013523,0.002678,0.000431,0.246104
30979000,0.0324,0.013523,0.002678,0.000431,0.313565
30980000,0.0324,0.013523,0.002678,0.000431,0.139623
30981000,0.0324,0.013523,0.002678,0.000431,0.150906
30982000,0.0324,0.013523,0.002678,0.000431,0.105188
30983000,0.0324,0.013523,0.002678,0.000431,0.390546
30984000,0.0324,0.013523,0.002678,0.000431,0.248220
30985000,0.0324,0.013523,0.002678,0.000431,0.117763
30986000,0.0324,0.013523,0.002678,0.000431,0.087088
30987000,0.0324,0.013523,0.002678,0.000431,0.080859
30988000,0.0324,0.013523,0.002678,0.000431,0.068166
30989000,0.0324,0.013523,0.002678,0.000431,0.063348
30990000,0.0324,0.013523,0.002678,0.000431,0.050537
30991000,0.0324,0.013523,0.002678,0.000431,0.043838
30992000,0.0324,0.013523,0.002678,0.000431,0.037609
30993000,0.0324,0.013523,0.002678,0.000431,0.026326
30994000,0.0324,0.013523,0.002678,0.000431,0.029500
30995000,0.0324,0.013523,0.002678,0.000431,0.023036
30996000,0.0324,0.013523,0.002678,0.000431,0.022213
30997000,0.0324,0.013523,0.002678,0.000431,0.017629
30998000,0.0324,0.013523,0.002678,0.000431,0.012458
30999000,0.0324,0.013523,0.002678,0.000431,0.014573
