Cycle,Area(mm^2),PeakDynamic(W),SubthresholdLeakage(W),GateLeakage(W),RunTimeDynamic(W)
51000000,0.0324,0.013523,0.002678,0.000431,0.005171
51001000,0.0324,0.013523,0.002678,0.000431,0.003173
51002000,0.0324,0.013523,0.002678,0.000431,0.005524
51003000,0.0324,0.013523,0.002678,0.000431,0.003643
51004000,0.0324,0.013523,0.002678,0.000431,0.004466
51005000,0.0324,0.013523,0.002678,0.000431,0.004701
51006000,0.0324,0.013523,0.002678,0.000431,0.005406
51007000,0.0324,0.013523,0.002678,0.000431,0.003526
51008000,0.0324,0.013523,0.002678,0.000431,0.005054
51009000,0.0324,0.013523,0.002678,0.000431,0.001058
51010000,0.0324,0.013523,0.002678,0.000431,0.000823
51011000,0.0324,0.013523,0.002678,0.000431,0.001293
51012000,0.0324,0.013523,0.002678,0.000431,0.000940
51013000,0.0324,0.013523,0.002678,0.000431,0.001410
51014000,0.0324,0.013523,0.002678,0.000431,0.000705
51015000,0.0324,0.013523,0.002678,0.000431,0.001175
51016000,0.0324,0.013523,0.002678,0.000431,0.001175
51017000,0.0324,0.013523,0.002678,0.000431,0.000823
51018000,0.0324,0.013523,0.002678,0.000431,0.001293
51019000,0.0324,0.013523,0.002678,0.000431,0.000940
51020000,0.0324,0.013523,0.002678,0.000431,0.001293
51021000,0.0324,0.013523,0.002678,0.000431,0.001175
51022000,0.0324,0.013523,0.002678,0.000431,0.001410
51023000,0.0324,0.013523,0.002678,0.000431,0.001528
51024000,0.0324,0.013523,0.002678,0.000431,0.000705
51025000,0.0324,0.013523,0.002678,0.000431,0.001175
51026000,0.0324,0.013523,0.002678,0.000431,0.217545
51027000,0.0324,0.013523,0.002678,0.000431,0.652752
51028000,0.0324,0.013523,0.002678,0.000431,0.471170
51029000,0.0324,0.013523,0.002678,0.000431,0.134922
51030000,0.0324,0.013523,0.002678,0.000431,0.241755
51031000,0.0324,0.013523,0.002678,0.000431,0.470230
51032000,0.0324,0.013523,0.002678,0.000431,0.232823
51033000,0.0324,0.013523,0.002678,0.000431,0.344475
51034000,0.0324,0.013523,0.002678,0.000431,0.150671
51035000,0.0324,0.013523,0.002678,0.000431,0.153492
51036000,0.0324,0.013523,0.002678,0.000431,0.188045
51037000,0.0324,0.013523,0.002678,0.000431,0.534871
51038000,0.0324,0.013523,0.002678,0.000431,0.188045
51039000,0.0324,0.013523,0.002678,0.000431,0.171004
51040000,0.0324,0.013523,0.002678,0.000431,0.135628
51041000,0.0324,0.013523,0.002678,0.000431,0.114708
51042000,0.0324,0.013523,0.002678,0.000431,0.091202
51043000,0.0324,0.013523,0.002678,0.000431,0.072397
51044000,0.0324,0.013523,0.002678,0.000431,0.066638
51045000,0.0324,0.013523,0.002678,0.000431,0.051242
51046000,0.0324,0.013523,0.002678,0.000431,0.034906
51047000,0.0324,0.013523,0.002678,0.000431,0.026914
51048000,0.0324,0.013523,0.002678,0.000431,0.026796
51049000,0.0324,0.013523,0.002678,0.000431,0.026561
51050000,0.0324,0.013523,0.002678,0.000431,0.017394
51051000,0.0324,0.013523,0.002678,0.000431,0.011283
51052000,0.0324,0.013523,0.002678,0.000431,0.006817
51053000,0.0324,0.013523,0.002678,0.000431,0.003996
51054000,0.0324,0.013523,0.002678,0.000431,0.003291
51055000,0.0324,0.013523,0.002678,0.000431,0.005289
51056000,0.0324,0.013523,0.002678,0.000431,0.005171
51057000,0.0324,0.013523,0.002678,0.000431,0.003526
51058000,0.0324,0.013523,0.002678,0.000431,0.002938
51059000,0.0324,0.013523,0.002678,0.000431,0.000940
51060000,0.0324,0.013523,0.002678,0.000431,0.000823
51061000,0.0324,0.013523,0.002678,0.000431,0.000940
51062000,0.0324,0.013523,0.002678,0.000431,0.000823
51063000,0.0324,0.013523,0.002678,0.000431,0.000823
51064000,0.0324,0.013523,0.002678,0.000431,0.000940
51065000,0.0324,0.013523,0.002678,0.000431,0.000940
51066000,0.0324,0.013523,0.002678,0.000431,0.000940
51067000,0.0324,0.013523,0.002678,0.000431,0.000940
51068000,0.0324,0.013523,0.002678,0.000431,0.000940
51069000,0.0324,0.013523,0.002678,0.000431,0.000705
51070000,0.0324,0.013523,0.002678,0.000431,0.000940
51071000,0.0324,0.013523,0.002678,0.000431,0.000940
51072000,0.0324,0.013523,0.002678,0.000431,0.001880
51073000,0.0324,0.013523,0.002678,0.000431,0.511130
51074000,0.0324,0.013523,0.002678,0.000431,0.767812
51075000,0.0324,0.013523,0.002678,0.000431,0.157253
51076000,0.0324,0.013523,0.002678,0.000431,0.136803
51077000,0.0324,0.013523,0.002678,0.000431,0.543215
51078000,0.0324,0.013523,0.002678,0.000431,0.237289
51079000,0.0324,0.013523,0.002678,0.000431,0.343535
51080000,0.0324,0.013523,0.002678,0.000431,0.155490
51081000,0.0324,0.013523,0.002678,0.000431,0.168065
51082000,0.0324,0.013523,0.002678,0.000431,0.160896
51083000,0.0324,0.013523,0.002678,0.000431,0.538632
51084000,0.0324,0.013523,0.002678,0.000431,0.180053
51085000,0.0324,0.013523,0.002678,0.000431,0.148673
51086000,0.0324,0.013523,0.002678,0.000431,0.120819
51087000,0.0324,0.013523,0.002678,0.000431,0.107068
51088000,0.0324,0.013523,0.002678,0.000431,0.085090
51089000,0.0324,0.013523,0.002678,0.000431,0.066286
51090000,0.0324,0.013523,0.002678,0.000431,0.053945
51091000,0.0324,0.013523,0.002678,0.000431,0.033613
51092000,0.0324,0.013523,0.002678,0.000431,0.016454
51093000,0.0324,0.013523,0.002678,0.000431,0.016924
51094000,0.0324,0.013523,0.002678,0.000431,0.012223
51095000,0.0324,0.013523,0.002678,0.000431,0.013046
51096000,0.0324,0.013523,0.002678,0.000431,0.005171
51097000,0.0324,0.013523,0.002678,0.000431,0.002703
51098000,0.0324,0.013523,0.002678,0.000431,0.002468
51099000,0.0324,0.013523,0.002678,0.000431,0.003761
51100000,0.0324,0.013523,0.002678,0.000431,0.002821
51101000,0.0324,0.013523,0.002678,0.000431,0.002468
51102000,0.0324,0.013523,0.002678,0.000431,0.005289
51103000,0.0324,0.013523,0.002678,0.000431,0.001293
51104000,0.0324,0.013523,0.002678,0.000431,0.000823
51105000,0.0324,0.013523,0.002678,0.000431,0.001763
51106000,0.0324,0.013523,0.002678,0.000431,0.544861
51107000,0.0324,0.013523,0.002678,0.000431,0.734786
51108000,0.0324,0.013523,0.002678,0.000431,0.142092
51109000,0.0324,0.013523,0.002678,0.000431,0.136333
51110000,0.0324,0.013523,0.002678,0.000431,0.485391
51111000,0.0324,0.013523,0.002678,0.000431,0.237524
51112000,0.0324,0.013523,0.002678,0.000431,0.319794
51113000,0.0324,0.013523,0.002678,0.000431,0.207555
51114000,0.0324,0.013523,0.002678,0.000431,0.173707
51115000,0.0324,0.013523,0.002678,0.000431,0.103660
51116000,0.0324,0.013523,0.002678,0.000431,0.527937
51117000,0.0324,0.013523,0.002678,0.000431,0.232471
51118000,0.0324,0.013523,0.002678,0.000431,0.152081
51119000,0.0324,0.013523,0.002678,0.000431,0.129399
51120000,0.0324,0.013523,0.002678,0.000431,0.101192
51121000,0.0324,0.013523,0.002678,0.000431,0.089321
51122000,0.0324,0.013523,0.002678,0.000431,0.066638
51123000,0.0324,0.013523,0.002678,0.000431,0.047599
51124000,0.0324,0.013523,0.002678,0.000431,0.035846
51125000,0.0324,0.013523,0.002678,0.000431,0.042663
51126000,0.0324,0.013523,0.002678,0.000431,0.027149
51127000,0.0324,0.013523,0.002678,0.000431,0.021743
51128000,0.0324,0.013523,0.002678,0.000431,0.020685
51129000,0.0324,0.013523,0.002678,0.000431,0.015161
51130000,0.0324,0.013523,0.002678,0.000431,0.010813
51131000,0.0324,0.013523,0.002678,0.000431,0.006229
51132000,0.0324,0.013523,0.002678,0.000431,0.007874
51133000,0.0324,0.013523,0.002678,0.000431,0.006582
51134000,0.0324,0.013523,0.002678,0.000431,0.008697
51135000,0.0324,0.013523,0.002678,0.000431,0.002468
51136000,0.0324,0.013523,0.002678,0.000431,0.002703
51137000,0.0324,0.013523,0.002678,0.000431,0.004584
51138000,0.0324,0.013523,0.002678,0.000431,0.001880
51139000,0.0324,0.013523,0.002678,0.000431,0.001528
51140000,0.0324,0.013523,0.002678,0.000431,0.001645
51141000,0.0324,0.013523,0.002678,0.000431,0.001763
51142000,0.0324,0.013523,0.002678,0.000431,0.001645
51143000,0.0324,0.013523,0.002678,0.000431,0.001763
51144000,0.0324,0.013523,0.002678,0.000431,0.004231
51145000,0.0324,0.013523,0.002678,0.000431,0.000940
51146000,0.0324,0.013523,0.002678,0.000431,0.000823
51147000,0.0324,0.013523,0.002678,0.000431,0.071810
51148000,0.0324,0.013523,0.002678,0.000431,0.751475
51149000,0.0324,0.013523,0.002678,0.000431,0.526761
51150000,0.0324,0.013523,0.002678,0.000431,0.136803
51151000,0.0324,0.013523,0.002678,0.000431,0.140564
51152000,0.0324,0.013523,0.002678,0.000431,0.532755
51153000,0.0324,0.013523,0.002678,0.000431,0.230943
51154000,0.0324,0.013523,0.002678,0.000431,0.314740
51155000,0.0324,0.013523,0.002678,0.000431,0.150906
51156000,0.0324,0.013523,0.002678,0.000431,0.184989
51157000,0.0324,0.013523,0.002678,0.000431,0.101779
51158000,0.0324,0.013523,0.002678,0.000431,0.531815
51159000,0.0324,0.013523,0.002678,0.000431,0.234704
51160000,0.0324,0.013523,0.002678,0.000431,0.170416
51161000,0.0324,0.013523,0.002678,0.000431,0.143619
51162000,0.0324,0.013523,0.002678,0.000431,0.113062
51163000,0.0324,0.013523,0.002678,0.000431,0.110476
51164000,0.0324,0.013523,0.002678,0.000431,0.084268
51165000,0.0324,0.013523,0.002678,0.000431,0.069459
51166000,0.0324,0.013523,0.002678,0.000431,0.046776
51167000,0.0324,0.013523,0.002678,0.000431,0.050772
51168000,0.0324,0.013523,0.002678,0.000431,0.031027
51169000,0.0324,0.013523,0.002678,0.000431,0.037491
51170000,0.0324,0.013523,0.002678,0.000431,0.019745
51171000,0.0324,0.013523,0.002678,0.000431,0.021743
51172000,0.0324,0.013523,0.002678,0.000431,0.023036
51173000,0.0324,0.013523,0.002678,0.000431,0.010813
51174000,0.0324,0.013523,0.002678,0.000431,0.005876
51175000,0.0324,0.013523,0.002678,0.000431,0.005289
51176000,0.0324,0.013523,0.002678,0.000431,0.007404
51177000,0.0324,0.013523,0.002678,0.000431,0.003996
51178000,0.0324,0.013523,0.002678,0.000431,0.010813
51179000,0.0324,0.013523,0.002678,0.000431,0.002586
51180000,0.0324,0.013523,0.002678,0.000431,0.000823
51181000,0.0324,0.013523,0.002678,0.000431,0.000823
51182000,0.0324,0.013523,0.002678,0.000431,0.000823
51183000,0.0324,0.013523,0.002678,0.000431,0.000823
51184000,0.0324,0.013523,0.002678,0.000431,0.000940
51185000,0.0324,0.013523,0.002678,0.000431,0.000823
51186000,0.0324,0.013523,0.002678,0.000431,0.000823
51187000,0.0324,0.013523,0.002678,0.000431,0.000823
51188000,0.0324,0.013523,0.002678,0.000431,0.000823
51189000,0.0324,0.013523,0.002678,0.000431,0.000705
51190000,0.0324,0.013523,0.002678,0.000431,0.000940
51191000,0.0324,0.013523,0.002678,0.000431,0.000940
51192000,0.0324,0.013523,0.002678,0.000431,0.000705
51193000,0.0324,0.013523,0.002678,0.000431,0.000940
51194000,0.0324,0.013523,0.002678,0.000431,0.000705
51195000,0.0324,0.013523,0.002678,0.000431,0.000940
51196000,0.0324,0.013523,0.002678,0.000431,0.000823
51197000,0.0324,0.013523,0.002678,0.000431,0.000823
51198000,0.0324,0.013523,0.002678,0.000431,0.000940
51199000,0.0324,0.013523,0.002678,0.000431,0.000705
51200000,0.0324,0.013523,0.002678,0.000431,0.000940
51201000,0.0324,0.013523,0.002678,0.000431,0.000705
51202000,0.0324,0.013523,0.002678,0.000431,0.000940
51203000,0.0324,0.013523,0.002678,0.000431,0.000823
51204000,0.0324,0.013523,0.002678,0.000431,0.000823
51205000,0.0324,0.013523,0.002678,0.000431,0.000823
51206000,0.0324,0.013523,0.002678,0.000431,0.000823
51207000,0.0324,0.013523,0.002678,0.000431,0.000940
51208000,0.0324,0.013523,0.002678,0.000431,0.000705
51209000,0.0324,0.013523,0.002678,0.000431,0.000823
51210000,0.0324,0.013523,0.002678,0.000431,0.000940
51211000,0.0324,0.013523,0.002678,0.000431,0.000823
51212000,0.0324,0.013523,0.002678,0.000431,0.000823
51213000,0.0324,0.013523,0.002678,0.000431,0.000823
51214000,0.0324,0.013523,0.002678,0.000431,0.000705
51215000,0.0324,0.013523,0.002678,0.000431,0.000940
51216000,0.0324,0.013523,0.002678,0.000431,0.000940
51217000,0.0324,0.013523,0.002678,0.000431,0.000705
51218000,0.0324,0.013523,0.002678,0.000431,0.000940
51219000,0.0324,0.013523,0.002678,0.000431,0.000705
51220000,0.0324,0.013523,0.002678,0.000431,0.000940
51221000,0.0324,0.013523,0.002678,0.000431,0.000823
51222000,0.0324,0.013523,0.002678,0.000431,0.000823
51223000,0.0324,0.013523,0.002678,0.000431,0.000940
51224000,0.0324,0.013523,0.002678,0.000431,0.000705
51225000,0.0324,0.013523,0.002678,0.000431,0.000940
51226000,0.0324,0.013523,0.002678,0.000431,0.000823
51227000,0.0324,0.013523,0.002678,0.000431,0.000823
51228000,0.0324,0.013523,0.002678,0.000431,0.000823
51229000,0.0324,0.013523,0.002678,0.000431,0.000823
51230000,0.0324,0.013523,0.002678,0.000431,0.000823
51231000,0.0324,0.013523,0.002678,0.000431,0.000823
51232000,0.0324,0.013523,0.002678,0.000431,0.000940
51233000,0.0324,0.013523,0.002678,0.000431,0.000705
51234000,0.0324,0.013523,0.002678,0.000431,0.000940
51235000,0.0324,0.013523,0.002678,0.000431,0.000823
51236000,0.0324,0.013523,0.002678,0.000431,0.000823
51237000,0.0324,0.013523,0.002678,0.000431,0.000705
51238000,0.0324,0.013523,0.002678,0.000431,0.000940
51239000,0.0324,0.013523,0.002678,0.000431,0.000940
51240000,0.0324,0.013523,0.002678,0.000431,0.000705
51241000,0.0324,0.013523,0.002678,0.000431,0.000940
51242000,0.0324,0.013523,0.002678,0.000431,0.000705
51243000,0.0324,0.013523,0.002678,0.000431,0.000940
51244000,0.0324,0.013523,0.002678,0.000431,0.000823
51245000,0.0324,0.013523,0.002678,0.000431,0.000823
51246000,0.0324,0.013523,0.002678,0.000431,0.297464
51247000,0.0324,0.013523,0.002678,0.000431,0.783443
51248000,0.0324,0.013523,0.002678,0.000431,0.324378
51249000,0.0324,0.013523,0.002678,0.000431,0.137273
51250000,0.0324,0.013523,0.002678,0.000431,0.527114
51251000,0.0324,0.013523,0.002678,0.000431,0.304868
51252000,0.0324,0.013523,0.002678,0.000431,0.269022
51253000,0.0324,0.013523,0.002678,0.000431,0.207790
51254000,0.0324,0.013523,0.002678,0.000431,0.168300
51255000,0.0324,0.013523,0.002678,0.000431,0.108949
51256000,0.0324,0.013523,0.002678,0.000431,0.535929
51257000,0.0324,0.013523,0.002678,0.000431,0.270785
51258000,0.0324,0.013523,0.002678,0.000431,0.190513
51259000,0.0324,0.013523,0.002678,0.000431,0.157958
51260000,0.0324,0.013523,0.002678,0.000431,0.130339
51261000,0.0324,0.013523,0.002678,0.000431,0.118116
51262000,0.0324,0.013523,0.002678,0.000431,0.097783
51263000,0.0324,0.013523,0.002678,0.000431,0.072280
51264000,0.0324,0.013523,0.002678,0.000431,0.062055
51265000,0.0324,0.013523,0.002678,0.000431,0.055238
51266000,0.0324,0.013523,0.002678,0.000431,0.038667
51267000,0.0324,0.013523,0.002678,0.000431,0.045601
51268000,0.0324,0.013523,0.002678,0.000431,0.046071
51269000,0.0324,0.013523,0.002678,0.000431,0.021743
51270000,0.0324,0.013523,0.002678,0.000431,0.016454
51271000,0.0324,0.013523,0.002678,0.000431,0.016101
51272000,0.0324,0.013523,0.002678,0.000431,0.011988
51273000,0.0324,0.013523,0.002678,0.000431,0.007757
51274000,0.0324,0.013523,0.002678,0.000431,0.008815
51275000,0.0324,0.013523,0.002678,0.000431,0.013398
51276000,0.0324,0.013523,0.002678,0.000431,0.007757
51277000,0.0324,0.013523,0.002678,0.000431,0.002703
51278000,0.0324,0.013523,0.002678,0.000431,0.005641
51279000,0.0324,0.013523,0.002678,0.000431,0.001880
51280000,0.0324,0.013523,0.002678,0.000431,0.003761
51281000,0.0324,0.013523,0.002678,0.000431,0.000940
51282000,0.0324,0.013523,0.002678,0.000431,0.000823
51283000,0.0324,0.013523,0.002678,0.000431,0.000940
51284000,0.0324,0.013523,0.002678,0.000431,0.000823
51285000,0.0324,0.013523,0.002678,0.000431,0.000823
51286000,0.0324,0.013523,0.002678,0.000431,0.000940
51287000,0.0324,0.013523,0.002678,0.000431,0.000705
51288000,0.0324,0.013523,0.002678,0.000431,0.000940
51289000,0.0324,0.013523,0.002678,0.000431,0.000705
51290000,0.0324,0.013523,0.002678,0.000431,0.000940
51291000,0.0324,0.013523,0.002678,0.000431,0.000823
51292000,0.0324,0.013523,0.002678,0.000431,0.000823
51293000,0.0324,0.013523,0.002678,0.000431,0.000940
51294000,0.0324,0.013523,0.002678,0.000431,0.183344
51295000,0.0324,0.013523,0.002678,0.000431,0.735021
51296000,0.0324,0.013523,0.002678,0.000431,0.492443
51297000,0.0324,0.013523,0.002678,0.000431,0.135392
51298000,0.0324,0.013523,0.002678,0.000431,0.319559
51299000,0.0324,0.013523,0.002678,0.000431,0.410879
51300000,0.0324,0.013523,0.002678,0.000431,0.302047
51301000,0.0324,0.013523,0.002678,0.000431,0.266319
51302000,0.0324,0.013523,0.002678,0.000431,0.157370
51303000,0.0324,0.013523,0.002678,0.000431,0.120231
51304000,0.0324,0.013523,0.002678,0.000431,0.332487
51305000,0.0324,0.013523,0.002678,0.000431,0.408175
51306000,0.0324,0.013523,0.002678,0.000431,0.170298
51307000,0.0324,0.013523,0.002678,0.000431,0.160191
51308000,0.0324,0.013523,0.002678,0.000431,0.145735
51309000,0.0324,0.013523,0.002678,0.000431,0.125990
51310000,0.0324,0.013523,0.002678,0.000431,0.107773
51311000,0.0324,0.013523,0.002678,0.000431,0.084033
51312000,0.0324,0.013523,0.002678,0.000431,0.052183
51313000,0.0324,0.013523,0.002678,0.000431,0.053240
51314000,0.0324,0.013523,0.002678,0.000431,0.043133
51315000,0.0324,0.013523,0.002678,0.000431,0.039489
51316000,0.0324,0.013523,0.002678,0.000431,0.032908
51317000,0.0324,0.013523,0.002678,0.000431,0.035258
51318000,0.0324,0.013523,0.002678,0.000431,0.015161
51319000,0.0324,0.013523,0.002678,0.000431,0.016689
51320000,0.0324,0.013523,0.002678,0.000431,0.018805
51321000,0.0324,0.013523,0.002678,0.000431,0.011165
51322000,0.0324,0.013523,0.002678,0.000431,0.012105
51323000,0.0324,0.013523,0.002678,0.000431,0.006582
51324000,0.0324,0.013523,0.002678,0.000431,0.004701
51325000,0.0324,0.013523,0.002678,0.000431,0.003291
51326000,0.0324,0.013523,0.002678,0.000431,0.000940
51327000,0.0324,0.013523,0.002678,0.000431,0.001998
51328000,0.0324,0.013523,0.002678,0.000431,0.397128
51329000,0.0324,0.013523,0.002678,0.000431,0.766989
51330000,0.0324,0.013523,0.002678,0.000431,0.230003
51331000,0.0324,0.013523,0.002678,0.000431,0.137155
51332000,0.0324,0.013523,0.002678,0.000431,0.499847
51333000,0.0324,0.013523,0.002678,0.000431,0.274076
51334000,0.0324,0.013523,0.002678,0.000431,0.273606
51335000,0.0324,0.013523,0.002678,0.000431,0.245164
51336000,0.0324,0.013523,0.002678,0.000431,0.151376
51337000,0.0324,0.013523,0.002678,0.000431,0.107891
51338000,0.0324,0.013523,0.002678,0.000431,0.430153
51339000,0.0324,0.013523,0.002678,0.000431,0.310274
51340000,0.0324,0.013523,0.002678,0.000431,0.153962
51341000,0.0324,0.013523,0.002678,0.000431,0.139388
51342000,0.0324,0.013523,0.002678,0.000431,0.103307
51343000,0.0324,0.013523,0.002678,0.000431,0.090967
51344000,0.0324,0.013523,0.002678,0.000431,0.082505
51345000,0.0324,0.013523,0.002678,0.000431,0.067344
51346000,0.0324,0.013523,0.002678,0.000431,0.064053
51347000,0.0324,0.013523,0.002678,0.000431,0.042780
51348000,0.0324,0.013523,0.002678,0.000431,0.036551
51349000,0.0324,0.013523,0.002678,0.000431,0.027619
51350000,0.0324,0.013523,0.002678,0.000431,0.012223
51351000,0.0324,0.013523,0.002678,0.000431,0.016101
51352000,0.0324,0.013523,0.002678,0.000431,0.009755
51353000,0.0324,0.013523,0.002678,0.000431,0.006699
51354000,0.0324,0.013523,0.002678,0.000431,0.002351
51355000,0.0324,0.013523,0.002678,0.000431,0.002703
51356000,0.0324,0.013523,0.002678,0.000431,0.002468
51357000,0.0324,0.013523,0.002678,0.000431,0.002703
51358000,0.0324,0.013523,0.002678,0.000431,0.003291
51359000,0.0324,0.013523,0.002678,0.000431,0.005289
51360000,0.0324,0.013523,0.002678,0.000431,0.000940
51361000,0.0324,0.013523,0.002678,0.000431,0.000823
51362000,0.0324,0.013523,0.002678,0.000431,0.000940
51363000,0.0324,0.013523,0.002678,0.000431,0.000705
51364000,0.0324,0.013523,0.002678,0.000431,0.000940
51365000,0.0324,0.013523,0.002678,0.000431,0.000823
51366000,0.0324,0.013523,0.002678,0.000431,0.000823
51367000,0.0324,0.013523,0.002678,0.000431,0.000823
51368000,0.0324,0.013523,0.002678,0.000431,0.000823
51369000,0.0324,0.013523,0.002678,0.000431,0.000940
51370000,0.0324,0.013523,0.002678,0.000431,0.000705
51371000,0.0324,0.013523,0.002678,0.000431,0.000823
51372000,0.0324,0.013523,0.002678,0.000431,0.000823
51373000,0.0324,0.013523,0.002678,0.000431,0.073690
51374000,0.0324,0.013523,0.002678,0.000431,0.697647
51375000,0.0324,0.013523,0.002678,0.000431,0.551090
51376000,0.0324,0.013523,0.002678,0.000431,0.136333
51377000,0.0324,0.013523,0.002678,0.000431,0.159251
51378000,0.0324,0.013523,0.002678,0.000431,0.545566
51379000,0.0324,0.013523,0.002678,0.000431,0.307101
51380000,0.0324,0.013523,0.002678,0.000431,0.277014
51381000,0.0324,0.013523,0.002678,0.000431,0.142209
51382000,0.0324,0.013523,0.002678,0.000431,0.186282
51383000,0.0324,0.013523,0.002678,0.000431,0.101662
51384000,0.0324,0.013523,0.002678,0.000431,0.522060
51385000,0.0324,0.013523,0.002678,0.000431,0.215429
51386000,0.0324,0.013523,0.002678,0.000431,0.149496
51387000,0.0324,0.013523,0.002678,0.000431,0.134335
51388000,0.0324,0.013523,0.002678,0.000431,0.116118
51389000,0.0324,0.013523,0.002678,0.000431,0.099311
51390000,0.0324,0.013523,0.002678,0.000431,0.070752
51391000,0.0324,0.013523,0.002678,0.000431,0.061702
51392000,0.0324,0.013523,0.002678,0.000431,0.066521
51393000,0.0324,0.013523,0.002678,0.000431,0.035376
51394000,0.0324,0.013523,0.002678,0.000431,0.030557
51395000,0.0324,0.013523,0.002678,0.000431,0.021743
51396000,0.0324,0.013523,0.002678,0.000431,0.024093
51397000,0.0324,0.013523,0.002678,0.000431,0.009285
51398000,0.0324,0.013523,0.002678,0.000431,0.007522
51399000,0.0324,0.013523,0.002678,0.000431,0.003056
51400000,0.0324,0.013523,0.002678,0.000431,0.003643
51401000,0.0324,0.013523,0.002678,0.000431,0.005406
51402000,0.0324,0.013523,0.002678,0.000431,0.002116
51403000,0.0324,0.013523,0.002678,0.000431,0.004819
51404000,0.0324,0.013523,0.002678,0.000431,0.001410
51405000,0.0324,0.013523,0.002678,0.000431,0.004231
51406000,0.0324,0.013523,0.002678,0.000431,0.001058
51407000,0.0324,0.013523,0.002678,0.000431,0.000705
51408000,0.0324,0.013523,0.002678,0.000431,0.000940
51409000,0.0324,0.013523,0.002678,0.000431,0.000705
51410000,0.0324,0.013523,0.002678,0.000431,0.000940
51411000,0.0324,0.013523,0.002678,0.000431,0.000823
51412000,0.0324,0.013523,0.002678,0.000431,0.000823
51413000,0.0324,0.013523,0.002678,0.000431,0.000940
51414000,0.0324,0.013523,0.002678,0.000431,0.000705
51415000,0.0324,0.013523,0.002678,0.000431,0.000940
51416000,0.0324,0.013523,0.002678,0.000431,0.000823
51417000,0.0324,0.013523,0.002678,0.000431,0.000823
51418000,0.0324,0.013523,0.002678,0.000431,0.000823
51419000,0.0324,0.013523,0.002678,0.000431,0.000823
51420000,0.0324,0.013523,0.002678,0.000431,0.000940
51421000,0.0324,0.013523,0.002678,0.000431,0.000705
51422000,0.0324,0.013523,0.002678,0.000431,0.000940
51423000,0.0324,0.013523,0.002678,0.000431,0.000823
51424000,0.0324,0.013523,0.002678,0.000431,0.000823
51425000,0.0324,0.013523,0.002678,0.000431,0.000823
51426000,0.0324,0.013523,0.002678,0.000431,0.000823
51427000,0.0324,0.013523,0.002678,0.000431,0.000705
51428000,0.0324,0.013523,0.002678,0.000431,0.000940
51429000,0.0324,0.013523,0.002678,0.000431,0.002586
51430000,0.0324,0.013523,0.002678,0.000431,0.431799
51431000,0.0324,0.013523,0.002678,0.000431,0.756646
51432000,0.0324,0.013523,0.002678,0.000431,0.188985
51433000,0.0324,0.013523,0.002678,0.000431,0.135980
51434000,0.0324,0.013523,0.002678,0.000431,0.468937
51435000,0.0324,0.013523,0.002678,0.000431,0.268317
51436000,0.0324,0.013523,0.002678,0.000431,0.248925
51437000,0.0324,0.013523,0.002678,0.000431,0.257269
51438000,0.0324,0.013523,0.002678,0.000431,0.154667
51439000,0.0324,0.013523,0.002678,0.000431,0.169123
51440000,0.0324,0.013523,0.002678,0.000431,0.158663
51441000,0.0324,0.013523,0.002678,0.000431,0.541100
51442000,0.0324,0.013523,0.002678,0.000431,0.220248
51443000,0.0324,0.013523,0.002678,0.000431,0.163482
51444000,0.0324,0.013523,0.002678,0.000431,0.139859
51445000,0.0324,0.013523,0.002678,0.000431,0.115060
51446000,0.0324,0.013523,0.002678,0.000431,0.099194
51447000,0.0324,0.013523,0.002678,0.000431,0.089556
51448000,0.0324,0.013523,0.002678,0.000431,0.072632
51449000,0.0324,0.013523,0.002678,0.000431,0.057706
51450000,0.0324,0.013523,0.002678,0.000431,0.053945
51451000,0.0324,0.013523,0.002678,0.000431,0.049949
51452000,0.0324,0.013523,0.002678,0.000431,0.045013
51453000,0.0324,0.013523,0.002678,0.000431,0.032438
51454000,0.0324,0.013523,0.002678,0.000431,0.018687
51455000,0.0324,0.013523,0.002678,0.000431,0.018334
51456000,0.0324,0.013523,0.002678,0.000431,0.011400
51457000,0.0324,0.013523,0.002678,0.000431,0.010813
51458000,0.0324,0.013523,0.002678,0.000431,0.008462
51459000,0.0324,0.013523,0.002678,0.000431,0.007757
51460000,0.0324,0.013523,0.002678,0.000431,0.004701
51461000,0.0324,0.013523,0.002678,0.000431,0.004701
51462000,0.0324,0.013523,0.002678,0.000431,0.004349
51463000,0.0324,0.013523,0.002678,0.000431,0.006699
51464000,0.0324,0.013523,0.002678,0.000431,0.003056
51465000,0.0324,0.013523,0.002678,0.000431,0.003643
51466000,0.0324,0.013523,0.002678,0.000431,0.002703
51467000,0.0324,0.013523,0.002678,0.000431,0.003643
51468000,0.0324,0.013523,0.002678,0.000431,0.003408
51469000,0.0324,0.013523,0.002678,0.000431,0.002938
51470000,0.0324,0.013523,0.002678,0.000431,0.003526
51471000,0.0324,0.013523,0.002678,0.000431,0.002938
51472000,0.0324,0.013523,0.002678,0.000431,0.003408
51473000,0.0324,0.013523,0.002678,0.000431,0.003291
51474000,0.0324,0.013523,0.002678,0.000431,0.004584
51475000,0.0324,0.013523,0.002678,0.000431,0.004466
51476000,0.0324,0.013523,0.002678,0.000431,0.002351
51477000,0.0324,0.013523,0.002678,0.000431,0.002351
51478000,0.0324,0.013523,0.002678,0.000431,0.002703
51479000,0.0324,0.013523,0.002678,0.000431,0.002233
51480000,0.0324,0.013523,0.002678,0.000431,0.002468
51481000,0.0324,0.013523,0.002678,0.000431,0.002116
51482000,0.0324,0.013523,0.002678,0.000431,0.002586
51483000,0.0324,0.013523,0.002678,0.000431,0.002468
51484000,0.0324,0.013523,0.002678,0.000431,0.002351
51485000,0.0324,0.013523,0.002678,0.000431,0.002586
51486000,0.0324,0.013523,0.002678,0.000431,0.002233
51487000,0.0324,0.013523,0.002678,0.000431,0.002586
51488000,0.0324,0.013523,0.002678,0.000431,0.002468
51489000,0.0324,0.013523,0.002678,0.000431,0.002116
51490000,0.0324,0.013523,0.002678,0.000431,0.002586
51491000,0.0324,0.013523,0.002678,0.000431,0.002468
51492000,0.0324,0.013523,0.002678,0.000431,0.002233
51493000,0.0324,0.013523,0.002678,0.000431,0.002586
51494000,0.0324,0.013523,0.002678,0.000431,0.002116
51495000,0.0324,0.013523,0.002678,0.000431,0.002586
51496000,0.0324,0.013523,0.002678,0.000431,0.002468
51497000,0.0324,0.013523,0.002678,0.000431,0.002233
51498000,0.0324,0.013523,0.002678,0.000431,0.002821
51499000,0.0324,0.013523,0.002678,0.000431,0.002116
51500000,0.0324,0.013523,0.002678,0.000431,0.002586
51501000,0.0324,0.013523,0.002678,0.000431,0.002351
51502000,0.0324,0.013523,0.002678,0.000431,0.002351
51503000,0.0324,0.013523,0.002678,0.000431,0.002468
51504000,0.0324,0.013523,0.002678,0.000431,0.002233
51505000,0.0324,0.013523,0.002678,0.000431,0.002468
51506000,0.0324,0.013523,0.002678,0.000431,0.002468
51507000,0.0324,0.013523,0.002678,0.000431,0.002586
51508000,0.0324,0.013523,0.002678,0.000431,0.002116
51509000,0.0324,0.013523,0.002678,0.000431,0.002468
51510000,0.0324,0.013523,0.002678,0.000431,0.002468
51511000,0.0324,0.013523,0.002678,0.000431,0.002586
51512000,0.0324,0.013523,0.002678,0.000431,0.002233
51513000,0.0324,0.013523,0.002678,0.000431,0.002468
51514000,0.0324,0.013523,0.002678,0.000431,0.001998
51515000,0.0324,0.013523,0.002678,0.000431,0.002703
51516000,0.0324,0.013523,0.002678,0.000431,0.002468
51517000,0.0324,0.013523,0.002678,0.000431,0.002233
51518000,0.0324,0.013523,0.002678,0.000431,0.001998
51519000,0.0324,0.013523,0.002678,0.000431,0.002468
51520000,0.0324,0.013523,0.002678,0.000431,0.002233
51521000,0.0324,0.013523,0.002678,0.000431,0.002468
51522000,0.0324,0.013523,0.002678,0.000431,0.002233
51523000,0.0324,0.013523,0.002678,0.000431,0.002703
51524000,0.0324,0.013523,0.002678,0.000431,0.002468
51525000,0.0324,0.013523,0.002678,0.000431,0.002351
51526000,0.0324,0.013523,0.002678,0.000431,0.002703
51527000,0.0324,0.013523,0.002678,0.000431,0.002233
51528000,0.0324,0.013523,0.002678,0.000431,0.002586
51529000,0.0324,0.013523,0.002678,0.000431,0.002468
51530000,0.0324,0.013523,0.002678,0.000431,0.002351
51531000,0.0324,0.013523,0.002678,0.000431,0.002586
51532000,0.0324,0.013523,0.002678,0.000431,0.002233
51533000,0.0324,0.013523,0.002678,0.000431,0.002468
51534000,0.0324,0.013523,0.002678,0.000431,0.002468
51535000,0.0324,0.013523,0.002678,0.000431,0.001880
51536000,0.0324,0.013523,0.002678,0.000431,0.001880
51537000,0.0324,0.013523,0.002678,0.000431,0.001645
51538000,0.0324,0.013523,0.002678,0.000431,0.001645
51539000,0.0324,0.013523,0.002678,0.000431,0.001880
51540000,0.0324,0.013523,0.002678,0.000431,0.001528
51541000,0.0324,0.013523,0.002678,0.000431,0.001763
51542000,0.0324,0.013523,0.002678,0.000431,0.001763
51543000,0.0324,0.013523,0.002678,0.000431,0.001528
51544000,0.0324,0.013523,0.002678,0.000431,0.001880
51545000,0.0324,0.013523,0.002678,0.000431,0.001645
51546000,0.0324,0.013523,0.002678,0.000431,0.001645
51547000,0.0324,0.013523,0.002678,0.000431,0.001880
51548000,0.0324,0.013523,0.002678,0.000431,0.001528
51549000,0.0324,0.013523,0.002678,0.000431,0.001763
51550000,0.0324,0.013523,0.002678,0.000431,0.001763
51551000,0.0324,0.013523,0.002678,0.000431,0.001528
51552000,0.0324,0.013523,0.002678,0.000431,0.001880
51553000,0.0324,0.013523,0.002678,0.000431,0.001645
51554000,0.0324,0.013523,0.002678,0.000431,0.001645
51555000,0.0324,0.013523,0.002678,0.000431,0.001880
51556000,0.0324,0.013523,0.002678,0.000431,0.001528
51557000,0.0324,0.013523,0.002678,0.000431,0.001763
51558000,0.0324,0.013523,0.002678,0.000431,0.001763
51559000,0.0324,0.013523,0.002678,0.000431,0.001528
51560000,0.0324,0.013523,0.002678,0.000431,0.001880
51561000,0.0324,0.013523,0.002678,0.000431,0.001645
51562000,0.0324,0.013523,0.002678,0.000431,0.001645
51563000,0.0324,0.013523,0.002678,0.000431,0.001880
51564000,0.0324,0.013523,0.002678,0.000431,0.001528
51565000,0.0324,0.013523,0.002678,0.000431,0.001763
51566000,0.0324,0.013523,0.002678,0.000431,0.001763
51567000,0.0324,0.013523,0.002678,0.000431,0.001528
51568000,0.0324,0.013523,0.002678,0.000431,0.001880
51569000,0.0324,0.013523,0.002678,0.000431,0.001645
51570000,0.0324,0.013523,0.002678,0.000431,0.001645
51571000,0.0324,0.013523,0.002678,0.000431,0.001880
51572000,0.0324,0.013523,0.002678,0.000431,0.001528
51573000,0.0324,0.013523,0.002678,0.000431,0.001763
51574000,0.0324,0.013523,0.002678,0.000431,0.001763
51575000,0.0324,0.013523,0.002678,0.000431,0.001528
51576000,0.0324,0.013523,0.002678,0.000431,0.001880
51577000,0.0324,0.013523,0.002678,0.000431,0.001645
51578000,0.0324,0.013523,0.002678,0.000431,0.001645
51579000,0.0324,0.013523,0.002678,0.000431,0.001763
51580000,0.0324,0.013523,0.002678,0.000431,0.001645
51581000,0.0324,0.013523,0.002678,0.000431,0.001763
51582000,0.0324,0.013523,0.002678,0.000431,0.001645
51583000,0.0324,0.013523,0.002678,0.000431,0.001645
51584000,0.0324,0.013523,0.002678,0.000431,0.001880
51585000,0.0324,0.013523,0.002678,0.000431,0.001645
51586000,0.0324,0.013523,0.002678,0.000431,0.001645
51587000,0.0324,0.013523,0.002678,0.000431,0.001763
51588000,0.0324,0.013523,0.002678,0.000431,0.001645
51589000,0.0324,0.013523,0.002678,0.000431,0.001763
51590000,0.0324,0.013523,0.002678,0.000431,0.001645
51591000,0.0324,0.013523,0.002678,0.000431,0.001645
51592000,0.0324,0.013523,0.002678,0.000431,0.001880
51593000,0.0324,0.013523,0.002678,0.000431,0.001528
51594000,0.0324,0.013523,0.002678,0.000431,0.001763
51595000,0.0324,0.013523,0.002678,0.000431,0.001763
51596000,0.0324,0.013523,0.002678,0.000431,0.001528
51597000,0.0324,0.013523,0.002678,0.000431,0.001880
51598000,0.0324,0.013523,0.002678,0.000431,0.001645
51599000,0.0324,0.013523,0.002678,0.000431,0.001645
51600000,0.0324,0.013523,0.002678,0.000431,0.001880
51601000,0.0324,0.013523,0.002678,0.000431,0.001528
51602000,0.0324,0.013523,0.002678,0.000431,0.001763
51603000,0.0324,0.013523,0.002678,0.000431,0.003643
51604000,0.0324,0.013523,0.002678,0.000431,0.053005
51605000,0.0324,0.013523,0.002678,0.000431,0.728557
51606000,0.0324,0.013523,0.002678,0.000431,0.568131
51607000,0.0324,0.013523,0.002678,0.000431,0.139741
51608000,0.0324,0.013523,0.002678,0.000431,0.164892
51609000,0.0324,0.013523,0.002678,0.000431,0.621254
51610000,0.0324,0.013523,0.002678,0.000431,0.273488
51611000,0.0324,0.013523,0.002678,0.000431,0.312155
51612000,0.0324,0.013523,0.002678,0.000431,0.144090
51613000,0.0324,0.013523,0.002678,0.000431,0.151024
51614000,0.0324,0.013523,0.002678,0.000431,0.210493
51615000,0.0324,0.013523,0.002678,0.000431,0.491620
51616000,0.0324,0.013523,0.002678,0.000431,0.196977
51617000,0.0324,0.013523,0.002678,0.000431,0.180288
51618000,0.0324,0.013523,0.002678,0.000431,0.149378
51619000,0.0324,0.013523,0.002678,0.000431,0.127401
51620000,0.0324,0.013523,0.002678,0.000431,0.108949
51621000,0.0324,0.013523,0.002678,0.000431,0.082857
51622000,0.0324,0.013523,0.002678,0.000431,0.072280
51623000,0.0324,0.013523,0.002678,0.000431,0.058647
51624000,0.0324,0.013523,0.002678,0.000431,0.048187
51625000,0.0324,0.013523,0.002678,0.000431,0.029970
51626000,0.0324,0.013523,0.002678,0.000431,0.024211
51627000,0.0324,0.013523,0.002678,0.000431,0.019392
51628000,0.0324,0.013523,0.002678,0.000431,0.004819
51629000,0.0324,0.013523,0.002678,0.000431,0.007992
51630000,0.0324,0.013523,0.002678,0.000431,0.004113
51631000,0.0324,0.013523,0.002678,0.000431,0.003526
51632000,0.0324,0.013523,0.002678,0.000431,0.003643
51633000,0.0324,0.013523,0.002678,0.000431,0.004349
51634000,0.0324,0.013523,0.002678,0.000431,0.006934
51635000,0.0324,0.013523,0.002678,0.000431,0.004349
51636000,0.0324,0.013523,0.002678,0.000431,0.001998
51637000,0.0324,0.013523,0.002678,0.000431,0.000823
51638000,0.0324,0.013523,0.002678,0.000431,0.000940
51639000,0.0324,0.013523,0.002678,0.000431,0.000823
51640000,0.0324,0.013523,0.002678,0.000431,0.000823
51641000,0.0324,0.013523,0.002678,0.000431,0.000823
51642000,0.0324,0.013523,0.002678,0.000431,0.000940
51643000,0.0324,0.013523,0.002678,0.000431,0.000705
51644000,0.0324,0.013523,0.002678,0.000431,0.071575
51645000,0.0324,0.013523,0.002678,0.000431,0.730438
51646000,0.0324,0.013523,0.002678,0.000431,0.542510
51647000,0.0324,0.013523,0.002678,0.000431,0.136333
51648000,0.0324,0.013523,0.002678,0.000431,0.264556
51649000,0.0324,0.013523,0.002678,0.000431,0.464354
51650000,0.0324,0.013523,0.002678,0.000431,0.311332
51651000,0.0324,0.013523,0.002678,0.000431,0.302518
51652000,0.0324,0.013523,0.002678,0.000431,0.156665
51653000,0.0324,0.013523,0.002678,0.000431,0.103542
51654000,0.0324,0.013523,0.002678,0.000431,0.513833
51655000,0.0324,0.013523,0.002678,0.000431,0.231178
51656000,0.0324,0.013523,0.002678,0.000431,0.130104
51657000,0.0324,0.013523,0.002678,0.000431,0.113297
51658000,0.0324,0.013523,0.002678,0.000431,0.087441
51659000,0.0324,0.013523,0.002678,0.000431,0.069224
51660000,0.0324,0.013523,0.002678,0.000431,0.068519
51661000,0.0324,0.013523,0.002678,0.000431,0.054063
51662000,0.0324,0.013523,0.002678,0.000431,0.031733
51663000,0.0324,0.013523,0.002678,0.000431,0.027502
51664000,0.0324,0.013523,0.002678,0.000431,0.018922
51665000,0.0324,0.013523,0.002678,0.000431,0.018334
51666000,0.0324,0.013523,0.002678,0.000431,0.015161
51667000,0.0324,0.013523,0.002678,0.000431,0.008227
51668000,0.0324,0.013523,0.002678,0.000431,0.011048
51669000,0.0324,0.013523,0.002678,0.000431,0.008932
51670000,0.0324,0.013523,0.002678,0.000431,0.008580
51671000,0.0324,0.013523,0.002678,0.000431,0.007052
51672000,0.0324,0.013523,0.002678,0.000431,0.005289
51673000,0.0324,0.013523,0.002678,0.000431,0.004584
51674000,0.0324,0.013523,0.002678,0.000431,0.489152
51675000,0.0324,0.013523,0.002678,0.000431,0.761113
51676000,0.0324,0.013523,0.002678,0.000431,0.153962
51677000,0.0324,0.013523,0.002678,0.000431,0.135863
51678000,0.0324,0.013523,0.002678,0.000431,0.513833
51679000,0.0324,0.013523,0.002678,0.000431,0.263381
51680000,0.0324,0.013523,0.002678,0.000431,0.300990
51681000,0.0324,0.013523,0.002678,0.000431,0.209200
51682000,0.0324,0.013523,0.002678,0.000431,0.173942
51683000,0.0324,0.013523,0.002678,0.000431,0.101544
51684000,0.0324,0.013523,0.002678,0.000431,0.508780
51685000,0.0324,0.013523,0.002678,0.000431,0.233764
51686000,0.0324,0.013523,0.002678,0.000431,0.144795
51687000,0.0324,0.013523,0.002678,0.000431,0.131749
51688000,0.0324,0.013523,0.002678,0.000431,0.106481
51689000,0.0324,0.013523,0.002678,0.000431,0.086383
51690000,0.0324,0.013523,0.002678,0.000431,0.061820
51691000,0.0324,0.013523,0.002678,0.000431,0.048187
51692000,0.0324,0.013523,0.002678,0.000431,0.044661
51693000,0.0324,0.013523,0.002678,0.000431,0.042428
51694000,0.0324,0.013523,0.002678,0.000431,0.039489
51695000,0.0324,0.013523,0.002678,0.000431,0.039137
51696000,0.0324,0.013523,0.002678,0.000431,0.023388
51697000,0.0324,0.013523,0.002678,0.000431,0.024093
51698000,0.0324,0.013523,0.002678,0.000431,0.027854
51699000,0.0324,0.013523,0.002678,0.000431,0.018452
51700000,0.0324,0.013523,0.002678,0.000431,0.018452
51701000,0.0324,0.013523,0.002678,0.000431,0.009872
51702000,0.0324,0.013523,0.002678,0.000431,0.013163
51703000,0.0324,0.013523,0.002678,0.000431,0.009402
51704000,0.0324,0.013523,0.002678,0.000431,0.009050
51705000,0.0324,0.013523,0.002678,0.000431,0.006934
51706000,0.0324,0.013523,0.002678,0.000431,0.008227
51707000,0.0324,0.013523,0.002678,0.000431,0.003408
51708000,0.0324,0.013523,0.002678,0.000431,0.005171
51709000,0.0324,0.013523,0.002678,0.000431,0.004466
51710000,0.0324,0.013523,0.002678,0.000431,0.001528
51711000,0.0324,0.013523,0.002678,0.000431,0.001763
51712000,0.0324,0.013523,0.002678,0.000431,0.001528
51713000,0.0324,0.013523,0.002678,0.000431,0.001763
51714000,0.0324,0.013523,0.002678,0.000431,0.001645
51715000,0.0324,0.013523,0.002678,0.000431,0.001763
51716000,0.0324,0.013523,0.002678,0.000431,0.001410
51717000,0.0324,0.013523,0.002678,0.000431,0.001763
51718000,0.0324,0.013523,0.002678,0.000431,0.001880
51719000,0.0324,0.013523,0.002678,0.000431,0.001528
51720000,0.0324,0.013523,0.002678,0.000431,0.001763
51721000,0.0324,0.013523,0.002678,0.000431,0.001528
51722000,0.0324,0.013523,0.002678,0.000431,0.001645
51723000,0.0324,0.013523,0.002678,0.000431,0.001763
51724000,0.0324,0.013523,0.002678,0.000431,0.001763
51725000,0.0324,0.013523,0.002678,0.000431,0.001645
51726000,0.0324,0.013523,0.002678,0.000431,0.001645
51727000,0.0324,0.013523,0.002678,0.000431,0.001645
51728000,0.0324,0.013523,0.002678,0.000431,0.001763
51729000,0.0324,0.013523,0.002678,0.000431,0.001645
51730000,0.0324,0.013523,0.002678,0.000431,0.001645
51731000,0.0324,0.013523,0.002678,0.000431,0.001645
51732000,0.0324,0.013523,0.002678,0.000431,0.001645
51733000,0.0324,0.013523,0.002678,0.000431,0.001645
51734000,0.0324,0.013523,0.002678,0.000431,0.001763
51735000,0.0324,0.013523,0.002678,0.000431,0.001528
51736000,0.0324,0.013523,0.002678,0.000431,0.001645
51737000,0.0324,0.013523,0.002678,0.000431,0.001880
51738000,0.0324,0.013523,0.002678,0.000431,0.001528
51739000,0.0324,0.013523,0.002678,0.000431,0.001645
51740000,0.0324,0.013523,0.002678,0.000431,0.001763
51741000,0.0324,0.013523,0.002678,0.000431,0.001763
51742000,0.0324,0.013523,0.002678,0.000431,0.001763
51743000,0.0324,0.013523,0.002678,0.000431,0.002468
51744000,0.0324,0.013523,0.002678,0.000431,0.002116
51745000,0.0324,0.013523,0.002678,0.000431,0.000823
51746000,0.0324,0.013523,0.002678,0.000431,0.000940
51747000,0.0324,0.013523,0.002678,0.000431,0.000823
51748000,0.0324,0.013523,0.002678,0.000431,0.000823
51749000,0.0324,0.013523,0.002678,0.000431,0.226242
51750000,0.0324,0.013523,0.002678,0.000431,0.674729
51751000,0.0324,0.013523,0.002678,0.000431,0.468350
51752000,0.0324,0.013523,0.002678,0.000431,0.135980
51753000,0.0324,0.013523,0.002678,0.000431,0.340832
51754000,0.0324,0.013523,0.002678,0.000431,0.388196
51755000,0.0324,0.013523,0.002678,0.000431,0.311802
51756000,0.0324,0.013523,0.002678,0.000431,0.280892
51757000,0.0324,0.013523,0.002678,0.000431,0.156430
51758000,0.0324,0.013523,0.002678,0.000431,0.118116
51759000,0.0324,0.013523,0.002678,0.000431,0.358814
51760000,0.0324,0.013523,0.002678,0.000431,0.372564
51761000,0.0324,0.013523,0.002678,0.000431,0.145382
51762000,0.0324,0.013523,0.002678,0.000431,0.115883
51763000,0.0324,0.013523,0.002678,0.000431,0.114590
51764000,0.0324,0.013523,0.002678,0.000431,0.084620
51765000,0.0324,0.013523,0.002678,0.000431,0.069459
51766000,0.0324,0.013523,0.002678,0.000431,0.059822
51767000,0.0324,0.013523,0.002678,0.000431,0.044778
51768000,0.0324,0.013523,0.002678,0.000431,0.043485
51769000,0.0324,0.013523,0.002678,0.000431,0.027737
51770000,0.0324,0.013523,0.002678,0.000431,0.020450
51771000,0.0324,0.013523,0.002678,0.000431,0.020567
51772000,0.0324,0.013523,0.002678,0.000431,0.018805
51773000,0.0324,0.013523,0.002678,0.000431,0.013516
51774000,0.0324,0.013523,0.002678,0.000431,0.011518
51775000,0.0324,0.013523,0.002678,0.000431,0.006934
51776000,0.0324,0.013523,0.002678,0.000431,0.004349
51777000,0.0324,0.013523,0.002678,0.000431,0.005994
51778000,0.0324,0.013523,0.002678,0.000431,0.002703
51779000,0.0324,0.013523,0.002678,0.000431,0.004113
51780000,0.0324,0.013523,0.002678,0.000431,0.004584
51781000,0.0324,0.013523,0.002678,0.000431,0.072045
51782000,0.0324,0.013523,0.002678,0.000431,0.705404
51783000,0.0324,0.013523,0.002678,0.000431,0.538867
51784000,0.0324,0.013523,0.002678,0.000431,0.135745
51785000,0.0324,0.013523,0.002678,0.000431,0.143972
51786000,0.0324,0.013523,0.002678,0.000431,0.539924
51787000,0.0324,0.013523,0.002678,0.000431,0.268199
51788000,0.0324,0.013523,0.002678,0.000431,0.333663
51789000,0.0324,0.013523,0.002678,0.000431,0.145382
51790000,0.0324,0.013523,0.002678,0.000431,0.178173
51791000,0.0324,0.013523,0.002678,0.000431,0.117058
51792000,0.0324,0.013523,0.002678,0.000431,0.553088
51793000,0.0324,0.013523,0.002678,0.000431,0.197917
51794000,0.0324,0.013523,0.002678,0.000431,0.159016
51795000,0.0324,0.013523,0.002678,0.000431,0.136685
51796000,0.0324,0.013523,0.002678,0.000431,0.112945
51797000,0.0324,0.013523,0.002678,0.000431,0.090262
51798000,0.0324,0.013523,0.002678,0.000431,0.078626
51799000,0.0324,0.013523,0.002678,0.000431,0.057706
51800000,0.0324,0.013523,0.002678,0.000431,0.049362
51801000,0.0324,0.013523,0.002678,0.000431,0.044191
51802000,0.0324,0.013523,0.002678,0.000431,0.032908
51803000,0.0324,0.013523,0.002678,0.000431,0.027854
51804000,0.0324,0.013523,0.002678,0.000431,0.021978
51805000,0.0324,0.013523,0.002678,0.000431,0.023623
51806000,0.0324,0.013523,0.002678,0.000431,0.016571
51807000,0.0324,0.013523,0.002678,0.000431,0.015161
51808000,0.0324,0.013523,0.002678,0.000431,0.019157
51809000,0.0324,0.013523,0.002678,0.000431,0.016571
51810000,0.0324,0.013523,0.002678,0.000431,0.014809
51811000,0.0324,0.013523,0.002678,0.000431,0.012458
51812000,0.0324,0.013523,0.002678,0.000431,0.011635
51813000,0.0324,0.013523,0.002678,0.000431,0.012928
51814000,0.0324,0.013523,0.002678,0.000431,0.011518
51815000,0.0324,0.013523,0.002678,0.000431,0.012928
51816000,0.0324,0.013523,0.002678,0.000431,0.011988
51817000,0.0324,0.013523,0.002678,0.000431,0.014456
51818000,0.0324,0.013523,0.002678,0.000431,0.007052
51819000,0.0324,0.013523,0.002678,0.000431,0.006347
51820000,0.0324,0.013523,0.002678,0.000431,0.004701
51821000,0.0324,0.013523,0.002678,0.000431,0.003526
51822000,0.0324,0.013523,0.002678,0.000431,0.076511
51823000,0.0324,0.013523,0.002678,0.000431,0.774511
51824000,0.0324,0.013523,0.002678,0.000431,0.524176
51825000,0.0324,0.013523,0.002678,0.000431,0.136920
51826000,0.0324,0.013523,0.002678,0.000431,0.258797
51827000,0.0324,0.013523,0.002678,0.000431,0.441788
51828000,0.0324,0.013523,0.002678,0.000431,0.306043
51829000,0.0324,0.013523,0.002678,0.000431,0.266319
51830000,0.0324,0.013523,0.002678,0.000431,0.156783
51831000,0.0324,0.013523,0.002678,0.000431,0.107538
51832000,0.0324,0.013523,0.002678,0.000431,0.400183
51833000,0.0324,0.013523,0.002678,0.000431,0.368333
51834000,0.0324,0.013523,0.002678,0.000431,0.188398
51835000,0.0324,0.013523,0.002678,0.000431,0.149613
51836000,0.0324,0.013523,0.002678,0.000431,0.127401
51837000,0.0324,0.013523,0.002678,0.000431,0.095550
51838000,0.0324,0.013523,0.002678,0.000431,0.075923
51839000,0.0324,0.013523,0.002678,0.000431,0.054886
51840000,0.0324,0.013523,0.002678,0.000431,0.049009
51841000,0.0324,0.013523,0.002678,0.000431,0.038197
51842000,0.0324,0.013523,0.002678,0.000431,0.017629
51843000,0.0324,0.013523,0.002678,0.000431,0.023271
51844000,0.0324,0.013523,0.002678,0.000431,0.018805
51845000,0.0324,0.013523,0.002678,0.000431,0.016689
51846000,0.0324,0.013523,0.002678,0.000431,0.011518
51847000,0.0324,0.013523,0.002678,0.000431,0.008345
51848000,0.0324,0.013523,0.002678,0.000431,0.011400
51849000,0.0324,0.013523,0.002678,0.000431,0.007522
51850000,0.0324,0.013523,0.002678,0.000431,0.008345
51851000,0.0324,0.013523,0.002678,0.000431,0.003996
51852000,0.0324,0.013523,0.002678,0.000431,0.005641
51853000,0.0324,0.013523,0.002678,0.000431,0.007639
51854000,0.0324,0.013523,0.002678,0.000431,0.001528
51855000,0.0324,0.013523,0.002678,0.000431,0.001763
51856000,0.0324,0.013523,0.002678,0.000431,0.004819
51857000,0.0324,0.013523,0.002678,0.000431,0.000940
51858000,0.0324,0.013523,0.002678,0.000431,0.000940
51859000,0.0324,0.013523,0.002678,0.000431,0.000705
51860000,0.0324,0.013523,0.002678,0.000431,0.000940
51861000,0.0324,0.013523,0.002678,0.000431,0.000940
51862000,0.0324,0.013523,0.002678,0.000431,0.000940
51863000,0.0324,0.013523,0.002678,0.000431,0.000823
51864000,0.0324,0.013523,0.002678,0.000431,0.000823
51865000,0.0324,0.013523,0.002678,0.000431,0.000940
51866000,0.0324,0.013523,0.002678,0.000431,0.000940
51867000,0.0324,0.013523,0.002678,0.000431,0.134335
51868000,0.0324,0.013523,0.002678,0.000431,0.732788
51869000,0.0324,0.013523,0.002678,0.000431,0.490093
51870000,0.0324,0.013523,0.002678,0.000431,0.136685
51871000,0.0324,0.013523,0.002678,0.000431,0.242696
51872000,0.0324,0.013523,0.002678,0.000431,0.500317
51873000,0.0324,0.013523,0.002678,0.000431,0.277014
51874000,0.0324,0.013523,0.002678,0.000431,0.233411
51875000,0.0324,0.013523,0.002678,0.000431,0.143032
51876000,0.0324,0.013523,0.002678,0.000431,0.177820
51877000,0.0324,0.013523,0.002678,0.000431,0.147145
51878000,0.0324,0.013523,0.002678,0.000431,0.549444
51879000,0.0324,0.013523,0.002678,0.000431,0.237054
51880000,0.0324,0.013523,0.002678,0.000431,0.182286
51881000,0.0324,0.013523,0.002678,0.000431,0.166772
51882000,0.0324,0.013523,0.002678,0.000431,0.119996
51883000,0.0324,0.013523,0.002678,0.000431,0.101309
51884000,0.0324,0.013523,0.002678,0.000431,0.076276
51885000,0.0324,0.013523,0.002678,0.000431,0.062878
51886000,0.0324,0.013523,0.002678,0.000431,0.059822
51887000,0.0324,0.013523,0.002678,0.000431,0.039372
51888000,0.0324,0.013523,0.002678,0.000431,0.040077
51889000,0.0324,0.013523,0.002678,0.000431,0.024211
51890000,0.0324,0.013523,0.002678,0.000431,0.019510
51891000,0.0324,0.013523,0.002678,0.000431,0.022448
51892000,0.0324,0.013523,0.002678,0.000431,0.012576
51893000,0.0324,0.013523,0.002678,0.000431,0.009520
51894000,0.0324,0.013523,0.002678,0.000431,0.007287
51895000,0.0324,0.013523,0.002678,0.000431,0.008697
51896000,0.0324,0.013523,0.002678,0.000431,0.006464
51897000,0.0324,0.013523,0.002678,0.000431,0.009755
51898000,0.0324,0.013523,0.002678,0.000431,0.007992
51899000,0.0324,0.013523,0.002678,0.000431,0.000823
51900000,0.0324,0.013523,0.002678,0.000431,0.000940
51901000,0.0324,0.013523,0.002678,0.000431,0.000705
51902000,0.0324,0.013523,0.002678,0.000431,0.002468
51903000,0.0324,0.013523,0.002678,0.000431,0.588229
51904000,0.0324,0.013523,0.002678,0.000431,0.758409
51905000,0.0324,0.013523,0.002678,0.000431,0.140916
51906000,0.0324,0.013523,0.002678,0.000431,0.138683
51907000,0.0324,0.013523,0.002678,0.000431,0.556849
51908000,0.0324,0.013523,0.002678,0.000431,0.246927
51909000,0.0324,0.013523,0.002678,0.000431,0.273841
51910000,0.0324,0.013523,0.002678,0.000431,0.167125
51911000,0.0324,0.013523,0.002678,0.000431,0.169593
51912000,0.0324,0.013523,0.002678,0.000431,0.111652
51913000,0.0324,0.013523,0.002678,0.000431,0.472346
51914000,0.0324,0.013523,0.002678,0.000431,0.257387
51915000,0.0324,0.013523,0.002678,0.000431,0.161131
51916000,0.0324,0.013523,0.002678,0.000431,0.139623
51917000,0.0324,0.013523,0.002678,0.000431,0.105305
51918000,0.0324,0.013523,0.002678,0.000431,0.095785
51919000,0.0324,0.013523,0.002678,0.000431,0.072750
51920000,0.0324,0.013523,0.002678,0.000431,0.055473
51921000,0.0324,0.013523,0.002678,0.000431,0.050302
51922000,0.0324,0.013523,0.002678,0.000431,0.040900
51923000,0.0324,0.013523,0.002678,0.000431,0.016101
51924000,0.0324,0.013523,0.002678,0.000431,0.014691
51925000,0.0324,0.013523,0.002678,0.000431,0.015279
51926000,0.0324,0.013523,0.002678,0.000431,0.012340
51927000,0.0324,0.013523,0.002678,0.000431,0.012693
51928000,0.0324,0.013523,0.002678,0.000431,0.012693
51929000,0.0324,0.013523,0.002678,0.000431,0.009285
51930000,0.0324,0.013523,0.002678,0.000431,0.004936
51931000,0.0324,0.013523,0.002678,0.000431,0.006699
51932000,0.0324,0.013523,0.002678,0.000431,0.003526
51933000,0.0324,0.013523,0.002678,0.000431,0.004819
51934000,0.0324,0.013523,0.002678,0.000431,0.005524
51935000,0.0324,0.013523,0.002678,0.000431,0.001763
51936000,0.0324,0.013523,0.002678,0.000431,0.001763
51937000,0.0324,0.013523,0.002678,0.000431,0.003878
51938000,0.0324,0.013523,0.002678,0.000431,0.000705
51939000,0.0324,0.013523,0.002678,0.000431,0.000940
51940000,0.0324,0.013523,0.002678,0.000431,0.000705
51941000,0.0324,0.013523,0.002678,0.000431,0.000940
51942000,0.0324,0.013523,0.002678,0.000431,0.161954
51943000,0.0324,0.013523,0.002678,0.000431,0.687070
51944000,0.0324,0.013523,0.002678,0.000431,0.490798
51945000,0.0324,0.013523,0.002678,0.000431,0.136333
51946000,0.0324,0.013523,0.002678,0.000431,0.289589
51947000,0.0324,0.013523,0.002678,0.000431,0.440496
51948000,0.0324,0.013523,0.002678,0.000431,0.298169
51949000,0.0324,0.013523,0.002678,0.000431,0.285476
51950000,0.0324,0.013523,0.002678,0.000431,0.151141
51951000,0.0324,0.013523,0.002678,0.000431,0.133394
51952000,0.0324,0.013523,0.002678,0.000431,0.275721
51953000,0.0324,0.013523,0.002678,0.000431,0.473991
51954000,0.0324,0.013523,0.002678,0.000431,0.189220
51955000,0.0324,0.013523,0.002678,0.000431,0.171591
51956000,0.0324,0.013523,0.002678,0.000431,0.155960
51957000,0.0324,0.013523,0.002678,0.000431,0.120114
51958000,0.0324,0.013523,0.002678,0.000431,0.098019
51959000,0.0324,0.013523,0.002678,0.000431,0.091202
51960000,0.0324,0.013523,0.002678,0.000431,0.076041
51961000,0.0324,0.013523,0.002678,0.000431,0.050067
51962000,0.0324,0.013523,0.002678,0.000431,0.037139
51963000,0.0324,0.013523,0.002678,0.000431,0.036199
51964000,0.0324,0.013523,0.002678,0.000431,0.015161
51965000,0.0324,0.013523,0.002678,0.000431,0.014926
51966000,0.0324,0.013523,0.002678,0.000431,0.010107
51967000,0.0324,0.013523,0.002678,0.000431,0.011518
51968000,0.0324,0.013523,0.002678,0.000431,0.011165
51969000,0.0324,0.013523,0.002678,0.000431,0.013046
51970000,0.0324,0.013523,0.002678,0.000431,0.009990
51971000,0.0324,0.013523,0.002678,0.000431,0.018805
51972000,0.0324,0.013523,0.002678,0.000431,0.763228
51973000,0.0324,0.013523,0.002678,0.000431,0.553323
51974000,0.0324,0.013523,0.002678,0.000431,0.135392
51975000,0.0324,0.013523,0.002678,0.000431,0.152199
51976000,0.0324,0.013523,0.002678,0.000431,0.587171
51977000,0.0324,0.013523,0.002678,0.000431,0.272900
51978000,0.0324,0.013523,0.002678,0.000431,0.324495
51979000,0.0324,0.013523,0.002678,0.000431,0.151259
51980000,0.0324,0.013523,0.002678,0.000431,0.116941
51981000,0.0324,0.013523,0.002678,0.000431,0.358814
51982000,0.0324,0.013523,0.002678,0.000431,0.370684
51983000,0.0324,0.013523,0.002678,0.000431,0.163952
51984000,0.0324,0.013523,0.002678,0.000431,0.135863
51985000,0.0324,0.013523,0.002678,0.000431,0.118939
51986000,0.0324,0.013523,0.002678,0.000431,0.096256
51987000,0.0324,0.013523,0.002678,0.000431,0.063583
51988000,0.0324,0.013523,0.002678,0.000431,0.053240
51989000,0.0324,0.013523,0.002678,0.000431,0.032203
51990000,0.0324,0.013523,0.002678,0.000431,0.035258
51991000,0.0324,0.013523,0.002678,0.000431,0.029147
51992000,0.0324,0.013523,0.002678,0.000431,0.036316
51993000,0.0324,0.013523,0.002678,0.000431,0.017512
51994000,0.0324,0.013523,0.002678,0.000431,0.020332
51995000,0.0324,0.013523,0.002678,0.000431,0.016101
51996000,0.0324,0.013523,0.002678,0.000431,0.019510
51997000,0.0324,0.013523,0.002678,0.000431,0.019275
51998000,0.0324,0.013523,0.002678,0.000431,0.017159
51999000,0.0324,0.013523,0.002678,0.000431,0.009050
