Cycle,Area(mm^2),PeakDynamic(W),SubthresholdLeakage(W),GateLeakage(W),RunTimeDynamic(W)
40000000,0.0324,0.013523,0.002678,0.000431,0.209083
40001000,0.0324,0.013523,0.002678,0.000431,0.162659
40002000,0.0324,0.013523,0.002678,0.000431,0.109066
40003000,0.0324,0.013523,0.002678,0.000431,0.487037
40004000,0.0324,0.013523,0.002678,0.000431,0.243048
40005000,0.0324,0.013523,0.002678,0.000431,0.158898
40006000,0.0324,0.013523,0.002678,0.000431,0.136333
40007000,0.0324,0.013523,0.002678,0.000431,0.109419
40008000,0.0324,0.013523,0.002678,0.000431,0.088264
40009000,0.0324,0.013523,0.002678,0.000431,0.070987
40010000,0.0324,0.013523,0.002678,0.000431,0.040312
40011000,0.0324,0.013523,0.002678,0.000431,0.040195
40012000,0.0324,0.013523,0.002678,0.000431,0.034906
40013000,0.0324,0.013523,0.002678,0.000431,0.030792
40014000,0.0324,0.013523,0.002678,0.000431,0.024211
40015000,0.0324,0.013523,0.002678,0.000431,0.018687
40016000,0.0324,0.013523,0.002678,0.000431,0.005406
40017000,0.0324,0.013523,0.002678,0.000431,0.008109
40018000,0.0324,0.013523,0.002678,0.000431,0.005524
40019000,0.0324,0.013523,0.002678,0.000431,0.005876
40020000,0.0324,0.013523,0.002678,0.000431,0.011283
40021000,0.0324,0.013523,0.002678,0.000431,0.001880
40022000,0.0324,0.013523,0.002678,0.000431,0.001293
40023000,0.0324,0.013523,0.002678,0.000431,0.000940
40024000,0.0324,0.013523,0.002678,0.000431,0.003056
40025000,0.0324,0.013523,0.002678,0.000431,0.550620
40026000,0.0324,0.013523,0.002678,0.000431,0.695649
40027000,0.0324,0.013523,0.002678,0.000431,0.134922
40028000,0.0324,0.013523,0.002678,0.000431,0.137743
40029000,0.0324,0.013523,0.002678,0.000431,0.498084
40030000,0.0324,0.013523,0.002678,0.000431,0.237407
40031000,0.0324,0.013523,0.002678,0.000431,0.310745
40032000,0.0324,0.013523,0.002678,0.000431,0.188398
40033000,0.0324,0.013523,0.002678,0.000431,0.167125
40034000,0.0324,0.013523,0.002678,0.000431,0.107538
40035000,0.0324,0.013523,0.002678,0.000431,0.511953
40036000,0.0324,0.013523,0.002678,0.000431,0.250453
40037000,0.0324,0.013523,0.002678,0.000431,0.179113
40038000,0.0324,0.013523,0.002678,0.000431,0.148086
40039000,0.0324,0.013523,0.002678,0.000431,0.119761
40040000,0.0324,0.013523,0.002678,0.000431,0.097196
40041000,0.0324,0.013523,0.002678,0.000431,0.078744
40042000,0.0324,0.013523,0.002678,0.000431,0.056296
40043000,0.0324,0.013523,0.002678,0.000431,0.043956
40044000,0.0324,0.013523,0.002678,0.000431,0.028442
40045000,0.0324,0.013523,0.002678,0.000431,0.021625
40046000,0.0324,0.013523,0.002678,0.000431,0.023858
40047000,0.0324,0.013523,0.002678,0.000431,0.023623
40048000,0.0324,0.013523,0.002678,0.000431,0.013281
40049000,0.0324,0.013523,0.002678,0.000431,0.009285
40050000,0.0324,0.013523,0.002678,0.000431,0.005524
40051000,0.0324,0.013523,0.002678,0.000431,0.006699
40052000,0.0324,0.013523,0.002678,0.000431,0.002586
40053000,0.0324,0.013523,0.002678,0.000431,0.002468
40054000,0.0324,0.013523,0.002678,0.000431,0.008462
40055000,0.0324,0.013523,0.002678,0.000431,0.333192
40056000,0.0324,0.013523,0.002678,0.000431,0.807771
40057000,0.0324,0.013523,0.002678,0.000431,0.245986
40058000,0.0324,0.013523,0.002678,0.000431,0.136333
40059000,0.0324,0.013523,0.002678,0.000431,0.511600
40060000,0.0324,0.013523,0.002678,0.000431,0.260678
40061000,0.0324,0.013523,0.002678,0.000431,0.277837
40062000,0.0324,0.013523,0.002678,0.000431,0.219778
40063000,0.0324,0.013523,0.002678,0.000431,0.161836
40064000,0.0324,0.013523,0.002678,0.000431,0.111534
40065000,0.0324,0.013523,0.002678,0.000431,0.503961
40066000,0.0324,0.013523,0.002678,0.000431,0.292410
40067000,0.0324,0.013523,0.002678,0.000431,0.193922
40068000,0.0324,0.013523,0.002678,0.000431,0.178760
40069000,0.0324,0.013523,0.002678,0.000431,0.145852
40070000,0.0324,0.013523,0.002678,0.000431,0.104483
40071000,0.0324,0.013523,0.002678,0.000431,0.084620
40072000,0.0324,0.013523,0.002678,0.000431,0.060527
40073000,0.0324,0.013523,0.002678,0.000431,0.049362
40074000,0.0324,0.013523,0.002678,0.000431,0.039725
40075000,0.0324,0.013523,0.002678,0.000431,0.022448
40076000,0.0324,0.013523,0.002678,0.000431,0.017394
40077000,0.0324,0.013523,0.002678,0.000431,0.013281
40078000,0.0324,0.013523,0.002678,0.000431,0.007874
40079000,0.0324,0.013523,0.002678,0.000431,0.004701
40080000,0.0324,0.013523,0.002678,0.000431,0.002586
40081000,0.0324,0.013523,0.002678,0.000431,0.004231
40082000,0.0324,0.013523,0.002678,0.000431,0.239640
40083000,0.0324,0.013523,0.002678,0.000431,0.724679
40084000,0.0324,0.013523,0.002678,0.000431,0.443316
40085000,0.0324,0.013523,0.002678,0.000431,0.138213
40086000,0.0324,0.013523,0.002678,0.000431,0.477047
40087000,0.0324,0.013523,0.002678,0.000431,0.253861
40088000,0.0324,0.013523,0.002678,0.000431,0.309452
40089000,0.0324,0.013523,0.002678,0.000431,0.193804
40090000,0.0324,0.013523,0.002678,0.000431,0.197565
40091000,0.0324,0.013523,0.002678,0.000431,0.088381
40092000,0.0324,0.013523,0.002678,0.000431,0.553793
40093000,0.0324,0.013523,0.002678,0.000431,0.228945
40094000,0.0324,0.013523,0.002678,0.000431,0.178878
40095000,0.0324,0.013523,0.002678,0.000431,0.140446
40096000,0.0324,0.013523,0.002678,0.000431,0.116705
40097000,0.0324,0.013523,0.002678,0.000431,0.115060
40098000,0.0324,0.013523,0.002678,0.000431,0.092730
40099000,0.0324,0.013523,0.002678,0.000431,0.053945
40100000,0.0324,0.013523,0.002678,0.000431,0.057589
40101000,0.0324,0.013523,0.002678,0.000431,0.039019
40102000,0.0324,0.013523,0.002678,0.000431,0.032908
40103000,0.0324,0.013523,0.002678,0.000431,0.024093
40104000,0.0324,0.013523,0.002678,0.000431,0.020450
40105000,0.0324,0.013523,0.002678,0.000431,0.013516
40106000,0.0324,0.013523,0.002678,0.000431,0.012811
40107000,0.0324,0.013523,0.002678,0.000431,0.007404
40108000,0.0324,0.013523,0.002678,0.000431,0.009755
40109000,0.0324,0.013523,0.002678,0.000431,0.007169
40110000,0.0324,0.013523,0.002678,0.000431,0.007052
40111000,0.0324,0.013523,0.002678,0.000431,0.004466
40112000,0.0324,0.013523,0.002678,0.000431,0.003996
40113000,0.0324,0.013523,0.002678,0.000431,0.004349
40114000,0.0324,0.013523,0.002678,0.000431,0.006464
40115000,0.0324,0.013523,0.002678,0.000431,0.003526
40116000,0.0324,0.013523,0.002678,0.000431,0.005876
40117000,0.0324,0.013523,0.002678,0.000431,0.002351
40118000,0.0324,0.013523,0.002678,0.000431,0.002468
40119000,0.0324,0.013523,0.002678,0.000431,0.004231
40120000,0.0324,0.013523,0.002678,0.000431,0.001645
40121000,0.0324,0.013523,0.002678,0.000431,0.001880
40122000,0.0324,0.013523,0.002678,0.000431,0.001410
40123000,0.0324,0.013523,0.002678,0.000431,0.001645
40124000,0.0324,0.013523,0.002678,0.000431,0.001645
40125000,0.0324,0.013523,0.002678,0.000431,0.001880
40126000,0.0324,0.013523,0.002678,0.000431,0.001410
40127000,0.0324,0.013523,0.002678,0.000431,0.001880
40128000,0.0324,0.013523,0.002678,0.000431,0.001645
40129000,0.0324,0.013523,0.002678,0.000431,0.001645
40130000,0.0324,0.013523,0.002678,0.000431,0.001645
40131000,0.0324,0.013523,0.002678,0.000431,0.001645
40132000,0.0324,0.013523,0.002678,0.000431,0.001645
40133000,0.0324,0.013523,0.002678,0.000431,0.001763
40134000,0.0324,0.013523,0.002678,0.000431,0.002586
40135000,0.0324,0.013523,0.002678,0.000431,0.059822
40136000,0.0324,0.013523,0.002678,0.000431,0.726559
40137000,0.0324,0.013523,0.002678,0.000431,0.552265
40138000,0.0324,0.013523,0.002678,0.000431,0.136333
40139000,0.0324,0.013523,0.002678,0.000431,0.155960
40140000,0.0324,0.013523,0.002678,0.000431,0.525704
40141000,0.0324,0.013523,0.002678,0.000431,0.240110
40142000,0.0324,0.013523,0.002678,0.000431,0.357638
40143000,0.0324,0.013523,0.002678,0.000431,0.145617
40144000,0.0324,0.013523,0.002678,0.000431,0.155725
40145000,0.0324,0.013523,0.002678,0.000431,0.238817
40146000,0.0324,0.013523,0.002678,0.000431,0.457302
40147000,0.0324,0.013523,0.002678,0.000431,0.152552
40148000,0.0324,0.013523,0.002678,0.000431,0.142797
40149000,0.0324,0.013523,0.002678,0.000431,0.108479
40150000,0.0324,0.013523,0.002678,0.000431,0.093082
40151000,0.0324,0.013523,0.002678,0.000431,0.095785
40152000,0.0324,0.013523,0.002678,0.000431,0.061820
40153000,0.0324,0.013523,0.002678,0.000431,0.051595
40154000,0.0324,0.013523,0.002678,0.000431,0.037962
40155000,0.0324,0.013523,0.002678,0.000431,0.034083
40156000,0.0324,0.013523,0.002678,0.000431,0.030322
40157000,0.0324,0.013523,0.002678,0.000431,0.020685
40158000,0.0324,0.013523,0.002678,0.000431,0.017277
40159000,0.0324,0.013523,0.002678,0.000431,0.010695
40160000,0.0324,0.013523,0.002678,0.000431,0.013163
40161000,0.0324,0.013523,0.002678,0.000431,0.006699
40162000,0.0324,0.013523,0.002678,0.000431,0.006464
40163000,0.0324,0.013523,0.002678,0.000431,0.006934
40164000,0.0324,0.013523,0.002678,0.000431,0.005641
40165000,0.0324,0.013523,0.002678,0.000431,0.006817
40166000,0.0324,0.013523,0.002678,0.000431,0.006934
40167000,0.0324,0.013523,0.002678,0.000431,0.007639
40168000,0.0324,0.013523,0.002678,0.000431,0.007287
40169000,0.0324,0.013523,0.002678,0.000431,0.005524
40170000,0.0324,0.013523,0.002678,0.000431,0.003408
40171000,0.0324,0.013523,0.002678,0.000431,0.005876
40172000,0.0324,0.013523,0.002678,0.000431,0.001880
40173000,0.0324,0.013523,0.002678,0.000431,0.001880
40174000,0.0324,0.013523,0.002678,0.000431,0.001410
40175000,0.0324,0.013523,0.002678,0.000431,0.001880
40176000,0.0324,0.013523,0.002678,0.000431,0.001645
40177000,0.0324,0.013523,0.002678,0.000431,0.001880
40178000,0.0324,0.013523,0.002678,0.000431,0.001528
40179000,0.0324,0.013523,0.002678,0.000431,0.002468
40180000,0.0324,0.013523,0.002678,0.000431,0.073103
40181000,0.0324,0.013523,0.002678,0.000431,0.666150
40182000,0.0324,0.013523,0.002678,0.000431,0.562137
40183000,0.0324,0.013523,0.002678,0.000431,0.136333
40184000,0.0324,0.013523,0.002678,0.000431,0.144442
40185000,0.0324,0.013523,0.002678,0.000431,0.582940
40186000,0.0324,0.013523,0.002678,0.000431,0.273488
40187000,0.0324,0.013523,0.002678,0.000431,0.291940
40188000,0.0324,0.013523,0.002678,0.000431,0.146440
40189000,0.0324,0.013523,0.002678,0.000431,0.163364
40190000,0.0324,0.013523,0.002678,0.000431,0.100016
40191000,0.0324,0.013523,0.002678,0.000431,0.511600
40192000,0.0324,0.013523,0.002678,0.000431,0.267964
40193000,0.0324,0.013523,0.002678,0.000431,0.189455
40194000,0.0324,0.013523,0.002678,0.000431,0.161484
40195000,0.0324,0.013523,0.002678,0.000431,0.137626
40196000,0.0324,0.013523,0.002678,0.000431,0.116470
40197000,0.0324,0.013523,0.002678,0.000431,0.084033
40198000,0.0324,0.013523,0.002678,0.000431,0.074395
40199000,0.0324,0.013523,0.002678,0.000431,0.054533
40200000,0.0324,0.013523,0.002678,0.000431,0.043485
40201000,0.0324,0.013523,0.002678,0.000431,0.043485
40202000,0.0324,0.013523,0.002678,0.000431,0.034788
40203000,0.0324,0.013523,0.002678,0.000431,0.036081
40204000,0.0324,0.013523,0.002678,0.000431,0.017864
40205000,0.0324,0.013523,0.002678,0.000431,0.016219
40206000,0.0324,0.013523,0.002678,0.000431,0.012811
40207000,0.0324,0.013523,0.002678,0.000431,0.007522
40208000,0.0324,0.013523,0.002678,0.000431,0.007522
40209000,0.0324,0.013523,0.002678,0.000431,0.004466
40210000,0.0324,0.013523,0.002678,0.000431,0.004701
40211000,0.0324,0.013523,0.002678,0.000431,0.004466
40212000,0.0324,0.013523,0.002678,0.000431,0.004936
40213000,0.0324,0.013523,0.002678,0.000431,0.004584
40214000,0.0324,0.013523,0.002678,0.000431,0.004584
40215000,0.0324,0.013523,0.002678,0.000431,0.004466
40216000,0.0324,0.013523,0.002678,0.000431,0.007404
40217000,0.0324,0.013523,0.002678,0.000431,0.006464
40218000,0.0324,0.013523,0.002678,0.000431,0.005994
40219000,0.0324,0.013523,0.002678,0.000431,0.005759
40220000,0.0324,0.013523,0.002678,0.000431,0.001410
40221000,0.0324,0.013523,0.002678,0.000431,0.000940
40222000,0.0324,0.013523,0.002678,0.000431,0.001645
40223000,0.0324,0.013523,0.002678,0.000431,0.000940
40224000,0.0324,0.013523,0.002678,0.000431,0.001528
40225000,0.0324,0.013523,0.002678,0.000431,0.001410
40226000,0.0324,0.013523,0.002678,0.000431,0.001058
40227000,0.0324,0.013523,0.002678,0.000431,0.001058
40228000,0.0324,0.013523,0.002678,0.000431,0.001058
40229000,0.0324,0.013523,0.002678,0.000431,0.071810
40230000,0.0324,0.013523,0.002678,0.000431,0.739135
40231000,0.0324,0.013523,0.002678,0.000431,0.540395
40232000,0.0324,0.013523,0.002678,0.000431,0.138096
40233000,0.0324,0.013523,0.002678,0.000431,0.206615
40234000,0.0324,0.013523,0.002678,0.000431,0.584468
40235000,0.0324,0.013523,0.002678,0.000431,0.236467
40236000,0.0324,0.013523,0.002678,0.000431,0.265966
40237000,0.0324,0.013523,0.002678,0.000431,0.150319
40238000,0.0324,0.013523,0.002678,0.000431,0.127283
40239000,0.0324,0.013523,0.002678,0.000431,0.313213
40240000,0.0324,0.013523,0.002678,0.000431,0.465647
40241000,0.0324,0.013523,0.002678,0.000431,0.196742
40242000,0.0324,0.013523,0.002678,0.000431,0.173589
40243000,0.0324,0.013523,0.002678,0.000431,0.149496
40244000,0.0324,0.013523,0.002678,0.000431,0.127636
40245000,0.0324,0.013523,0.002678,0.000431,0.107303
40246000,0.0324,0.013523,0.002678,0.000431,0.081800
40247000,0.0324,0.013523,0.002678,0.000431,0.074278
40248000,0.0324,0.013523,0.002678,0.000431,0.058412
40249000,0.0324,0.013523,0.002678,0.000431,0.052888
40250000,0.0324,0.013523,0.002678,0.000431,0.041840
40251000,0.0324,0.013523,0.002678,0.000431,0.032673
40252000,0.0324,0.013523,0.002678,0.000431,0.035141
40253000,0.0324,0.013523,0.002678,0.000431,0.028559
40254000,0.0324,0.013523,0.002678,0.000431,0.029147
40255000,0.0324,0.013523,0.002678,0.000431,0.019745
40256000,0.0324,0.013523,0.002678,0.000431,0.014926
40257000,0.0324,0.013523,0.002678,0.000431,0.016689
40258000,0.0324,0.013523,0.002678,0.000431,0.015044
40259000,0.0324,0.013523,0.002678,0.000431,0.013751
40260000,0.0324,0.013523,0.002678,0.000431,0.010460
40261000,0.0324,0.013523,0.002678,0.000431,0.010930
40262000,0.0324,0.013523,0.002678,0.000431,0.005876
40263000,0.0324,0.013523,0.002678,0.000431,0.007522
40264000,0.0324,0.013523,0.002678,0.000431,0.005406
40265000,0.0324,0.013523,0.002678,0.000431,0.006934
40266000,0.0324,0.013523,0.002678,0.000431,0.006817
40267000,0.0324,0.013523,0.002678,0.000431,0.006464
40268000,0.0324,0.013523,0.002678,0.000431,0.206144
40269000,0.0324,0.013523,0.002678,0.000431,0.727735
40270000,0.0324,0.013523,0.002678,0.000431,0.468937
40271000,0.0324,0.013523,0.002678,0.000431,0.136333
40272000,0.0324,0.013523,0.002678,0.000431,0.407940
40273000,0.0324,0.013523,0.002678,0.000431,0.360341
40274000,0.0324,0.013523,0.002678,0.000431,0.284771
40275000,0.0324,0.013523,0.002678,0.000431,0.251510
40276000,0.0324,0.013523,0.002678,0.000431,0.150789
40277000,0.0324,0.013523,0.002678,0.000431,0.122934
40278000,0.0324,0.013523,0.002678,0.000431,0.466352
40279000,0.0324,0.013523,0.002678,0.000431,0.346356
40280000,0.0324,0.013523,0.002678,0.000431,0.212491
40281000,0.0324,0.013523,0.002678,0.000431,0.181346
40282000,0.0324,0.013523,0.002678,0.000431,0.143972
40283000,0.0324,0.013523,0.002678,0.000431,0.108596
40284000,0.0324,0.013523,0.002678,0.000431,0.088851
40285000,0.0324,0.013523,0.002678,0.000431,0.078509
40286000,0.0324,0.013523,0.002678,0.000431,0.043838
40287000,0.0324,0.013523,0.002678,0.000431,0.034436
40288000,0.0324,0.013523,0.002678,0.000431,0.026914
40289000,0.0324,0.013523,0.002678,0.000431,0.022918
40290000,0.0324,0.013523,0.002678,0.000431,0.020332
40291000,0.0324,0.013523,0.002678,0.000431,0.023623
40292000,0.0324,0.013523,0.002678,0.000431,0.008462
40293000,0.0324,0.013523,0.002678,0.000431,0.005054
40294000,0.0324,0.013523,0.002678,0.000431,0.003408
40295000,0.0324,0.013523,0.002678,0.000431,0.005524
40296000,0.0324,0.013523,0.002678,0.000431,0.006111
40297000,0.0324,0.013523,0.002678,0.000431,0.000705
40298000,0.0324,0.013523,0.002678,0.000431,0.000940
40299000,0.0324,0.013523,0.002678,0.000431,0.000940
40300000,0.0324,0.013523,0.002678,0.000431,0.000705
40301000,0.0324,0.013523,0.002678,0.000431,0.000940
40302000,0.0324,0.013523,0.002678,0.000431,0.000705
40303000,0.0324,0.013523,0.002678,0.000431,0.000940
40304000,0.0324,0.013523,0.002678,0.000431,0.000823
40305000,0.0324,0.013523,0.002678,0.000431,0.000823
40306000,0.0324,0.013523,0.002678,0.000431,0.000940
40307000,0.0324,0.013523,0.002678,0.000431,0.000705
40308000,0.0324,0.013523,0.002678,0.000431,0.000940
40309000,0.0324,0.013523,0.002678,0.000431,0.000705
40310000,0.0324,0.013523,0.002678,0.000431,0.000940
40311000,0.0324,0.013523,0.002678,0.000431,0.000823
40312000,0.0324,0.013523,0.002678,0.000431,0.000823
40313000,0.0324,0.013523,0.002678,0.000431,0.000823
40314000,0.0324,0.013523,0.002678,0.000431,0.000823
40315000,0.0324,0.013523,0.002678,0.000431,0.000705
40316000,0.0324,0.013523,0.002678,0.000431,0.000940
40317000,0.0324,0.013523,0.002678,0.000431,0.000823
40318000,0.0324,0.013523,0.002678,0.000431,0.000823
40319000,0.0324,0.013523,0.002678,0.000431,0.000823
40320000,0.0324,0.013523,0.002678,0.000431,0.000823
40321000,0.0324,0.013523,0.002678,0.000431,0.000823
40322000,0.0324,0.013523,0.002678,0.000431,0.000823
40323000,0.0324,0.013523,0.002678,0.000431,0.000940
40324000,0.0324,0.013523,0.002678,0.000431,0.000705
40325000,0.0324,0.013523,0.002678,0.000431,0.000940
40326000,0.0324,0.013523,0.002678,0.000431,0.000705
40327000,0.0324,0.013523,0.002678,0.000431,0.000940
40328000,0.0324,0.013523,0.002678,0.000431,0.000940
40329000,0.0324,0.013523,0.002678,0.000431,0.000705
40330000,0.0324,0.013523,0.002678,0.000431,0.000940
40331000,0.0324,0.013523,0.002678,0.000431,0.000705
40332000,0.0324,0.013523,0.002678,0.000431,0.000940
40333000,0.0324,0.013523,0.002678,0.000431,0.000823
40334000,0.0324,0.013523,0.002678,0.000431,0.000823
40335000,0.0324,0.013523,0.002678,0.000431,0.000823
40336000,0.0324,0.013523,0.002678,0.000431,0.000823
40337000,0.0324,0.013523,0.002678,0.000431,0.000823
40338000,0.0324,0.013523,0.002678,0.000431,0.000823
40339000,0.0324,0.013523,0.002678,0.000431,0.000940
40340000,0.0324,0.013523,0.002678,0.000431,0.000705
40341000,0.0324,0.013523,0.002678,0.000431,0.000940
40342000,0.0324,0.013523,0.002678,0.000431,0.000823
40343000,0.0324,0.013523,0.002678,0.000431,0.000823
40344000,0.0324,0.013523,0.002678,0.000431,0.000823
40345000,0.0324,0.013523,0.002678,0.000431,0.000823
40346000,0.0324,0.013523,0.002678,0.000431,0.000823
40347000,0.0324,0.013523,0.002678,0.000431,0.000823
40348000,0.0324,0.013523,0.002678,0.000431,0.000940
40349000,0.0324,0.013523,0.002678,0.000431,0.003526
40350000,0.0324,0.013523,0.002678,0.000431,0.596691
40351000,0.0324,0.013523,0.002678,0.000431,0.734786
40352000,0.0324,0.013523,0.002678,0.000431,0.136685
40353000,0.0324,0.013523,0.002678,0.000431,0.152199
40354000,0.0324,0.013523,0.002678,0.000431,0.556496
40355000,0.0324,0.013523,0.002678,0.000431,0.269140
40356000,0.0324,0.013523,0.002678,0.000431,0.309334
40357000,0.0324,0.013523,0.002678,0.000431,0.155960
40358000,0.0324,0.013523,0.002678,0.000431,0.139976
40359000,0.0324,0.013523,0.002678,0.000431,0.244341
40360000,0.0324,0.013523,0.002678,0.000431,0.474931
40361000,0.0324,0.013523,0.002678,0.000431,0.210493
40362000,0.0324,0.013523,0.002678,0.000431,0.189338
40363000,0.0324,0.013523,0.002678,0.000431,0.164304
40364000,0.0324,0.013523,0.002678,0.000431,0.131279
40365000,0.0324,0.013523,0.002678,0.000431,0.119174
40366000,0.0324,0.013523,0.002678,0.000431,0.083798
40367000,0.0324,0.013523,0.002678,0.000431,0.088381
40368000,0.0324,0.013523,0.002678,0.000431,0.073220
40369000,0.0324,0.013523,0.002678,0.000431,0.049009
40370000,0.0324,0.013523,0.002678,0.000431,0.039137
40371000,0.0324,0.013523,0.002678,0.000431,0.029735
40372000,0.0324,0.013523,0.002678,0.000431,0.029617
40373000,0.0324,0.013523,0.002678,0.000431,0.022448
40374000,0.0324,0.013523,0.002678,0.000431,0.011635
40375000,0.0324,0.013523,0.002678,0.000431,0.020450
40376000,0.0324,0.013523,0.002678,0.000431,0.013868
40377000,0.0324,0.013523,0.002678,0.000431,0.006464
40378000,0.0324,0.013523,0.002678,0.000431,0.006229
40379000,0.0324,0.013523,0.002678,0.000431,0.003996
40380000,0.0324,0.013523,0.002678,0.000431,0.006582
40381000,0.0324,0.013523,0.002678,0.000431,0.005171
40382000,0.0324,0.013523,0.002678,0.000431,0.003878
40383000,0.0324,0.013523,0.002678,0.000431,0.002821
40384000,0.0324,0.013523,0.002678,0.000431,0.001175
40385000,0.0324,0.013523,0.002678,0.000431,0.001528
40386000,0.0324,0.013523,0.002678,0.000431,0.001293
40387000,0.0324,0.013523,0.002678,0.000431,0.000823
40388000,0.0324,0.013523,0.002678,0.000431,0.003761
40389000,0.0324,0.013523,0.002678,0.000431,0.635005
40390000,0.0324,0.013523,0.002678,0.000431,0.671203
40391000,0.0324,0.013523,0.002678,0.000431,0.135392
40392000,0.0324,0.013523,0.002678,0.000431,0.136333
40393000,0.0324,0.013523,0.002678,0.000431,0.529935
40394000,0.0324,0.013523,0.002678,0.000431,0.268552
40395000,0.0324,0.013523,0.002678,0.000431,0.281480
40396000,0.0324,0.013523,0.002678,0.000431,0.184872
40397000,0.0324,0.013523,0.002678,0.000431,0.167125
40398000,0.0324,0.013523,0.002678,0.000431,0.117176
40399000,0.0324,0.013523,0.002678,0.000431,0.466117
40400000,0.0324,0.013523,0.002678,0.000431,0.270550
40401000,0.0324,0.013523,0.002678,0.000431,0.190278
40402000,0.0324,0.013523,0.002678,0.000431,0.155137
40403000,0.0324,0.013523,0.002678,0.000431,0.126343
40404000,0.0324,0.013523,0.002678,0.000431,0.107538
40405000,0.0324,0.013523,0.002678,0.000431,0.098606
40406000,0.0324,0.013523,0.002678,0.000431,0.066403
40407000,0.0324,0.013523,0.002678,0.000431,0.051007
40408000,0.0324,0.013523,0.002678,0.000431,0.043956
40409000,0.0324,0.013523,0.002678,0.000431,0.040312
40410000,0.0324,0.013523,0.002678,0.000431,0.022683
40411000,0.0324,0.013523,0.002678,0.000431,0.019392
40412000,0.0324,0.013523,0.002678,0.000431,0.020920
40413000,0.0324,0.013523,0.002678,0.000431,0.016571
40414000,0.0324,0.013523,0.002678,0.000431,0.017747
40415000,0.0324,0.013523,0.002678,0.000431,0.013986
40416000,0.0324,0.013523,0.002678,0.000431,0.011870
40417000,0.0324,0.013523,0.002678,0.000431,0.012928
40418000,0.0324,0.013523,0.002678,0.000431,0.010460
40419000,0.0324,0.013523,0.002678,0.000431,0.011165
40420000,0.0324,0.013523,0.002678,0.000431,0.006934
40421000,0.0324,0.013523,0.002678,0.000431,0.004701
40422000,0.0324,0.013523,0.002678,0.000431,0.005054
40423000,0.0324,0.013523,0.002678,0.000431,0.001880
40424000,0.0324,0.013523,0.002678,0.000431,0.001410
40425000,0.0324,0.013523,0.002678,0.000431,0.001880
40426000,0.0324,0.013523,0.002678,0.000431,0.001528
40427000,0.0324,0.013523,0.002678,0.000431,0.001763
40428000,0.0324,0.013523,0.002678,0.000431,0.001763
40429000,0.0324,0.013523,0.002678,0.000431,0.002586
40430000,0.0324,0.013523,0.002678,0.000431,0.002351
40431000,0.0324,0.013523,0.002678,0.000431,0.000823
40432000,0.0324,0.013523,0.002678,0.000431,0.000823
40433000,0.0324,0.013523,0.002678,0.000431,0.000705
40434000,0.0324,0.013523,0.002678,0.000431,0.000940
40435000,0.0324,0.013523,0.002678,0.000431,0.000940
40436000,0.0324,0.013523,0.002678,0.000431,0.009520
40437000,0.0324,0.013523,0.002678,0.000431,0.646993
40438000,0.0324,0.013523,0.002678,0.000431,0.632889
40439000,0.0324,0.013523,0.002678,0.000431,0.135863
40440000,0.0324,0.013523,0.002678,0.000431,0.135392
40441000,0.0324,0.013523,0.002678,0.000431,0.532638
40442000,0.0324,0.013523,0.002678,0.000431,0.274898
40443000,0.0324,0.013523,0.002678,0.000431,0.304868
40444000,0.0324,0.013523,0.002678,0.000431,0.185224
40445000,0.0324,0.013523,0.002678,0.000431,0.174764
40446000,0.0324,0.013523,0.002678,0.000431,0.101897
40447000,0.0324,0.013523,0.002678,0.000431,0.512775
40448000,0.0324,0.013523,0.002678,0.000431,0.264203
40449000,0.0324,0.013523,0.002678,0.000431,0.185812
40450000,0.0324,0.013523,0.002678,0.000431,0.166302
40451000,0.0324,0.013523,0.002678,0.000431,0.135040
40452000,0.0324,0.013523,0.002678,0.000431,0.120936
40453000,0.0324,0.013523,0.002678,0.000431,0.070399
40454000,0.0324,0.013523,0.002678,0.000431,0.063465
40455000,0.0324,0.013523,0.002678,0.000431,0.046776
40456000,0.0324,0.013523,0.002678,0.000431,0.029735
40457000,0.0324,0.013523,0.002678,0.000431,0.026326
40458000,0.0324,0.013523,0.002678,0.000431,0.025386
40459000,0.0324,0.013523,0.002678,0.000431,0.015044
40460000,0.0324,0.013523,0.002678,0.000431,0.011165
40461000,0.0324,0.013523,0.002678,0.000431,0.010225
40462000,0.0324,0.013523,0.002678,0.000431,0.009285
40463000,0.0324,0.013523,0.002678,0.000431,0.007522
40464000,0.0324,0.013523,0.002678,0.000431,0.003408
40465000,0.0324,0.013523,0.002678,0.000431,0.003526
40466000,0.0324,0.013523,0.002678,0.000431,0.001410
40467000,0.0324,0.013523,0.002678,0.000431,0.001880
40468000,0.0324,0.013523,0.002678,0.000431,0.001645
40469000,0.0324,0.013523,0.002678,0.000431,0.001645
40470000,0.0324,0.013523,0.002678,0.000431,0.001645
40471000,0.0324,0.013523,0.002678,0.000431,0.001645
40472000,0.0324,0.013523,0.002678,0.000431,0.001645
40473000,0.0324,0.013523,0.002678,0.000431,0.001645
40474000,0.0324,0.013523,0.002678,0.000431,0.001880
40475000,0.0324,0.013523,0.002678,0.000431,0.001410
40476000,0.0324,0.013523,0.002678,0.000431,0.001645
40477000,0.0324,0.013523,0.002678,0.000431,0.001880
40478000,0.0324,0.013523,0.002678,0.000431,0.001645
40479000,0.0324,0.013523,0.002678,0.000431,0.001645
40480000,0.0324,0.013523,0.002678,0.000431,0.001645
40481000,0.0324,0.013523,0.002678,0.000431,0.001410
40482000,0.0324,0.013523,0.002678,0.000431,0.246809
40483000,0.0324,0.013523,0.002678,0.000431,0.758174
40484000,0.0324,0.013523,0.002678,0.000431,0.377148
40485000,0.0324,0.013523,0.002678,0.000431,0.139153
40486000,0.0324,0.013523,0.002678,0.000431,0.450486
40487000,0.0324,0.013523,0.002678,0.000431,0.266201
40488000,0.0324,0.013523,0.002678,0.000431,0.292998
40489000,0.0324,0.013523,0.002678,0.000431,0.273723
40490000,0.0324,0.013523,0.002678,0.000431,0.157135
40491000,0.0324,0.013523,0.002678,0.000431,0.107773
40492000,0.0324,0.013523,0.002678,0.000431,0.414522
40493000,0.0324,0.013523,0.002678,0.000431,0.367511
40494000,0.0324,0.013523,0.002678,0.000431,0.193569
40495000,0.0324,0.013523,0.002678,0.000431,0.158546
40496000,0.0324,0.013523,0.002678,0.000431,0.129163
40497000,0.0324,0.013523,0.002678,0.000431,0.101427
40498000,0.0324,0.013523,0.002678,0.000431,0.087441
40499000,0.0324,0.013523,0.002678,0.000431,0.078861
40500000,0.0324,0.013523,0.002678,0.000431,0.053123
40501000,0.0324,0.013523,0.002678,0.000431,0.056531
40502000,0.0324,0.013523,0.002678,0.000431,0.042780
40503000,0.0324,0.013523,0.002678,0.000431,0.031498
40504000,0.0324,0.013523,0.002678,0.000431,0.017159
40505000,0.0324,0.013523,0.002678,0.000431,0.012458
40506000,0.0324,0.013523,0.002678,0.000431,0.015984
40507000,0.0324,0.013523,0.002678,0.000431,0.011518
40508000,0.0324,0.013523,0.002678,0.000431,0.017042
40509000,0.0324,0.013523,0.002678,0.000431,0.757234
40510000,0.0324,0.013523,0.002678,0.000431,0.548974
40511000,0.0324,0.013523,0.002678,0.000431,0.136685
40512000,0.0324,0.013523,0.002678,0.000431,0.136803
40513000,0.0324,0.013523,0.002678,0.000431,0.531933
40514000,0.0324,0.013523,0.002678,0.000431,0.260678
40515000,0.0324,0.013523,0.002678,0.000431,0.323673
40516000,0.0324,0.013523,0.002678,0.000431,0.144560
40517000,0.0324,0.013523,0.002678,0.000431,0.193569
40518000,0.0324,0.013523,0.002678,0.000431,0.098841
40519000,0.0324,0.013523,0.002678,0.000431,0.543450
40520000,0.0324,0.013523,0.002678,0.000431,0.210375
40521000,0.0324,0.013523,0.002678,0.000431,0.168770
40522000,0.0324,0.013523,0.002678,0.000431,0.141974
40523000,0.0324,0.013523,0.002678,0.000431,0.115060
40524000,0.0324,0.013523,0.002678,0.000431,0.092730
40525000,0.0324,0.013523,0.002678,0.000431,0.066168
40526000,0.0324,0.013523,0.002678,0.000431,0.052300
40527000,0.0324,0.013523,0.002678,0.000431,0.046306
40528000,0.0324,0.013523,0.002678,0.000431,0.029382
40529000,0.0324,0.013523,0.002678,0.000431,0.014221
40530000,0.0324,0.013523,0.002678,0.000431,0.014691
40531000,0.0324,0.013523,0.002678,0.000431,0.007874
40532000,0.0324,0.013523,0.002678,0.000431,0.008227
40533000,0.0324,0.013523,0.002678,0.000431,0.003761
40534000,0.0324,0.013523,0.002678,0.000431,0.006111
40535000,0.0324,0.013523,0.002678,0.000431,0.006817
40536000,0.0324,0.013523,0.002678,0.000431,0.107538
40537000,0.0324,0.013523,0.002678,0.000431,0.767342
40538000,0.0324,0.013523,0.002678,0.000431,0.497497
40539000,0.0324,0.013523,0.002678,0.000431,0.136333
40540000,0.0324,0.013523,0.002678,0.000431,0.332722
40541000,0.0324,0.013523,0.002678,0.000431,0.372329
40542000,0.0324,0.013523,0.002678,0.000431,0.291470
40543000,0.0324,0.013523,0.002678,0.000431,0.279952
40544000,0.0324,0.013523,0.002678,0.000431,0.159721
40545000,0.0324,0.013523,0.002678,0.000431,0.105305
40546000,0.0324,0.013523,0.002678,0.000431,0.406412
40547000,0.0324,0.013523,0.002678,0.000431,0.365513
40548000,0.0324,0.013523,0.002678,0.000431,0.179701
40549000,0.0324,0.013523,0.002678,0.000431,0.149848
40550000,0.0324,0.013523,0.002678,0.000431,0.112945
40551000,0.0324,0.013523,0.002678,0.000431,0.092495
40552000,0.0324,0.013523,0.002678,0.000431,0.086971
40553000,0.0324,0.013523,0.002678,0.000431,0.060292
40554000,0.0324,0.013523,0.002678,0.000431,0.037021
40555000,0.0324,0.013523,0.002678,0.000431,0.034671
40556000,0.0324,0.013523,0.002678,0.000431,0.027854
40557000,0.0324,0.013523,0.002678,0.000431,0.020567
40558000,0.0324,0.013523,0.002678,0.000431,0.018922
40559000,0.0324,0.013523,0.002678,0.000431,0.014456
40560000,0.0324,0.013523,0.002678,0.000431,0.018099
40561000,0.0324,0.013523,0.002678,0.000431,0.008345
40562000,0.0324,0.013523,0.002678,0.000431,0.006582
40563000,0.0324,0.013523,0.002678,0.000431,0.003526
40564000,0.0324,0.013523,0.002678,0.000431,0.000940
40565000,0.0324,0.013523,0.002678,0.000431,0.001058
40566000,0.0324,0.013523,0.002678,0.000431,0.000705
40567000,0.0324,0.013523,0.002678,0.000431,0.001058
40568000,0.0324,0.013523,0.002678,0.000431,0.260442
40569000,0.0324,0.013523,0.002678,0.000431,0.774746
40570000,0.0324,0.013523,0.002678,0.000431,0.335896
40571000,0.0324,0.013523,0.002678,0.000431,0.136803
40572000,0.0324,0.013523,0.002678,0.000431,0.463649
40573000,0.0324,0.013523,0.002678,0.000431,0.244694
40574000,0.0324,0.013523,0.002678,0.000431,0.305926
40575000,0.0324,0.013523,0.002678,0.000431,0.254449
40576000,0.0324,0.013523,0.002678,0.000431,0.151141
40577000,0.0324,0.013523,0.002678,0.000431,0.121877
40578000,0.0324,0.013523,0.002678,0.000431,0.360929
40579000,0.0324,0.013523,0.002678,0.000431,0.397363
40580000,0.0324,0.013523,0.002678,0.000431,0.190161
40581000,0.0324,0.013523,0.002678,0.000431,0.166302
40582000,0.0324,0.013523,0.002678,0.000431,0.150671
40583000,0.0324,0.013523,0.002678,0.000431,0.114590
40584000,0.0324,0.013523,0.002678,0.000431,0.095198
40585000,0.0324,0.013523,0.002678,0.000431,0.077569
40586000,0.0324,0.013523,0.002678,0.000431,0.060174
40587000,0.0324,0.013523,0.002678,0.000431,0.048187
40588000,0.0324,0.013523,0.002678,0.000431,0.030322
40589000,0.0324,0.013523,0.002678,0.000431,0.034906
40590000,0.0324,0.013523,0.002678,0.000431,0.026444
40591000,0.0324,0.013523,0.002678,0.000431,0.019510
40592000,0.0324,0.013523,0.002678,0.000431,0.013868
40593000,0.0324,0.013523,0.002678,0.000431,0.006582
40594000,0.0324,0.013523,0.002678,0.000431,0.011518
40595000,0.0324,0.013523,0.002678,0.000431,0.002821
40596000,0.0324,0.013523,0.002678,0.000431,0.001645
40597000,0.0324,0.013523,0.002678,0.000431,0.001645
40598000,0.0324,0.013523,0.002678,0.000431,0.004349
40599000,0.0324,0.013523,0.002678,0.000431,0.360812
40600000,0.0324,0.013523,0.002678,0.000431,0.804715
40601000,0.0324,0.013523,0.002678,0.000431,0.244106
40602000,0.0324,0.013523,0.002678,0.000431,0.135863
40603000,0.0324,0.013523,0.002678,0.000431,0.490915
40604000,0.0324,0.013523,0.002678,0.000431,0.270315
40605000,0.0324,0.013523,0.002678,0.000431,0.256211
40606000,0.0324,0.013523,0.002678,0.000431,0.234116
40607000,0.0324,0.013523,0.002678,0.000431,0.149496
40608000,0.0324,0.013523,0.002678,0.000431,0.125755
40609000,0.0324,0.013523,0.002678,0.000431,0.391956
40610000,0.0324,0.013523,0.002678,0.000431,0.423101
40611000,0.0324,0.013523,0.002678,0.000431,0.233881
40612000,0.0324,0.013523,0.002678,0.000431,0.198505
40613000,0.0324,0.013523,0.002678,0.000431,0.175822
40614000,0.0324,0.013523,0.002678,0.000431,0.135275
40615000,0.0324,0.013523,0.002678,0.000431,0.108479
40616000,0.0324,0.013523,0.002678,0.000431,0.096843
40617000,0.0324,0.013523,0.002678,0.000431,0.065933
40618000,0.0324,0.013523,0.002678,0.000431,0.059822
40619000,0.0324,0.013523,0.002678,0.000431,0.046071
40620000,0.0324,0.013523,0.002678,0.000431,0.030792
40621000,0.0324,0.013523,0.002678,0.000431,0.023623
40622000,0.0324,0.013523,0.002678,0.000431,0.011988
40623000,0.0324,0.013523,0.002678,0.000431,0.004466
40624000,0.0324,0.013523,0.002678,0.000431,0.006582
40625000,0.0324,0.013523,0.002678,0.000431,0.004113
40626000,0.0324,0.013523,0.002678,0.000431,0.005524
40627000,0.0324,0.013523,0.002678,0.000431,0.002938
40628000,0.0324,0.013523,0.002678,0.000431,0.005876
40629000,0.0324,0.013523,0.002678,0.000431,0.002116
40630000,0.0324,0.013523,0.002678,0.000431,0.004113
40631000,0.0324,0.013523,0.002678,0.000431,0.001410
40632000,0.0324,0.013523,0.002678,0.000431,0.020332
40633000,0.0324,0.013523,0.002678,0.000431,0.823167
40634000,0.0324,0.013523,0.002678,0.000431,0.548504
40635000,0.0324,0.013523,0.002678,0.000431,0.135863
40636000,0.0324,0.013523,0.002678,0.000431,0.211198
40637000,0.0324,0.013523,0.002678,0.000431,0.550620
40638000,0.0324,0.013523,0.002678,0.000431,0.301225
40639000,0.0324,0.013523,0.002678,0.000431,0.259855
40640000,0.0324,0.013523,0.002678,0.000431,0.152199
40641000,0.0324,0.013523,0.002678,0.000431,0.112474
40642000,0.0324,0.013523,0.002678,0.000431,0.478457
40643000,0.0324,0.013523,0.002678,0.000431,0.326493
40644000,0.0324,0.013523,0.002678,0.000431,0.191924
40645000,0.0324,0.013523,0.002678,0.000431,0.158898
40646000,0.0324,0.013523,0.002678,0.000431,0.128458
40647000,0.0324,0.013523,0.002678,0.000431,0.121054
40648000,0.0324,0.013523,0.002678,0.000431,0.094845
40649000,0.0324,0.013523,0.002678,0.000431,0.086853
40650000,0.0324,0.013523,0.002678,0.000431,0.063818
40651000,0.0324,0.013523,0.002678,0.000431,0.048422
40652000,0.0324,0.013523,0.002678,0.000431,0.035611
40653000,0.0324,0.013523,0.002678,0.000431,0.027854
40654000,0.0324,0.013523,0.002678,0.000431,0.019392
40655000,0.0324,0.013523,0.002678,0.000431,0.006699
40656000,0.0324,0.013523,0.002678,0.000431,0.008815
40657000,0.0324,0.013523,0.002678,0.000431,0.011048
40658000,0.0324,0.013523,0.002678,0.000431,0.006934
40659000,0.0324,0.013523,0.002678,0.000431,0.014691
40660000,0.0324,0.013523,0.002678,0.000431,0.794608
40661000,0.0324,0.013523,0.002678,0.000431,0.535576
40662000,0.0324,0.013523,0.002678,0.000431,0.146675
40663000,0.0324,0.013523,0.002678,0.000431,0.153139
40664000,0.0324,0.013523,0.002678,0.000431,0.527937
40665000,0.0324,0.013523,0.002678,0.000431,0.256446
40666000,0.0324,0.013523,0.002678,0.000431,0.327904
40667000,0.0324,0.013523,0.002678,0.000431,0.165362
40668000,0.0324,0.013523,0.002678,0.000431,0.127636
40669000,0.0324,0.013523,0.002678,0.000431,0.284653
40670000,0.0324,0.013523,0.002678,0.000431,0.454129
40671000,0.0324,0.013523,0.002678,0.000431,0.186282
40672000,0.0324,0.013523,0.002678,0.000431,0.161131
40673000,0.0324,0.013523,0.002678,0.000431,0.141974
40674000,0.0324,0.013523,0.002678,0.000431,0.104012
40675000,0.0324,0.013523,0.002678,0.000431,0.078861
40676000,0.0324,0.013523,0.002678,0.000431,0.074983
40677000,0.0324,0.013523,0.002678,0.000431,0.053005
40678000,0.0324,0.013523,0.002678,0.000431,0.038549
40679000,0.0324,0.013523,0.002678,0.000431,0.031733
40680000,0.0324,0.013523,0.002678,0.000431,0.019040
40681000,0.0324,0.013523,0.002678,0.000431,0.017042
40682000,0.0324,0.013523,0.002678,0.000431,0.015984
40683000,0.0324,0.013523,0.002678,0.000431,0.017747
40684000,0.0324,0.013523,0.002678,0.000431,0.012223
40685000,0.0324,0.013523,0.002678,0.000431,0.009050
40686000,0.0324,0.013523,0.002678,0.000431,0.007992
40687000,0.0324,0.013523,0.002678,0.000431,0.003996
40688000,0.0324,0.013523,0.002678,0.000431,0.005759
40689000,0.0324,0.013523,0.002678,0.000431,0.004936
40690000,0.0324,0.013523,0.002678,0.000431,0.006699
40691000,0.0324,0.013523,0.002678,0.000431,0.001528
40692000,0.0324,0.013523,0.002678,0.000431,0.001528
40693000,0.0324,0.013523,0.002678,0.000431,0.001645
40694000,0.0324,0.013523,0.002678,0.000431,0.001175
40695000,0.0324,0.013523,0.002678,0.000431,0.001645
40696000,0.0324,0.013523,0.002678,0.000431,0.001410
40697000,0.0324,0.013523,0.002678,0.000431,0.001645
40698000,0.0324,0.013523,0.002678,0.000431,0.001880
40699000,0.0324,0.013523,0.002678,0.000431,0.072162
40700000,0.0324,0.013523,0.002678,0.000431,0.755706
40701000,0.0324,0.013523,0.002678,0.000431,0.519710
40702000,0.0324,0.013523,0.002678,0.000431,0.136333
40703000,0.0324,0.013523,0.002678,0.000431,0.173824
40704000,0.0324,0.013523,0.002678,0.000431,0.574360
40705000,0.0324,0.013523,0.002678,0.000431,0.253626
40706000,0.0324,0.013523,0.002678,0.000431,0.272665
40707000,0.0324,0.013523,0.002678,0.000431,0.158428
40708000,0.0324,0.013523,0.002678,0.000431,0.140094
40709000,0.0324,0.013523,0.002678,0.000431,0.239875
40710000,0.0324,0.013523,0.002678,0.000431,0.495029
40711000,0.0324,0.013523,0.002678,0.000431,0.193099
40712000,0.0324,0.013523,0.002678,0.000431,0.180993
40713000,0.0324,0.013523,0.002678,0.000431,0.120584
40714000,0.0324,0.013523,0.002678,0.000431,0.106598
40715000,0.0324,0.013523,0.002678,0.000431,0.084738
40716000,0.0324,0.013523,0.002678,0.000431,0.074278
40717000,0.0324,0.013523,0.002678,0.000431,0.047834
40718000,0.0324,0.013523,0.002678,0.000431,0.041017
40719000,0.0324,0.013523,0.002678,0.000431,0.033966
40720000,0.0324,0.013523,0.002678,0.000431,0.022800
40721000,0.0324,0.013523,0.002678,0.000431,0.018805
40722000,0.0324,0.013523,0.002678,0.000431,0.014573
40723000,0.0324,0.013523,0.002678,0.000431,0.010930
40724000,0.0324,0.013523,0.002678,0.000431,0.012576
40725000,0.0324,0.013523,0.002678,0.000431,0.007052
40726000,0.0324,0.013523,0.002678,0.000431,0.012105
40727000,0.0324,0.013523,0.002678,0.000431,0.008580
40728000,0.0324,0.013523,0.002678,0.000431,0.004466
40729000,0.0324,0.013523,0.002678,0.000431,0.001880
40730000,0.0324,0.013523,0.002678,0.000431,0.001763
40731000,0.0324,0.013523,0.002678,0.000431,0.003408
40732000,0.0324,0.013523,0.002678,0.000431,0.000823
40733000,0.0324,0.013523,0.002678,0.000431,0.000823
40734000,0.0324,0.013523,0.002678,0.000431,0.072280
40735000,0.0324,0.013523,0.002678,0.000431,0.776391
40736000,0.0324,0.013523,0.002678,0.000431,0.513833
40737000,0.0324,0.013523,0.002678,0.000431,0.136803
40738000,0.0324,0.013523,0.002678,0.000431,0.196390
40739000,0.0324,0.013523,0.002678,0.000431,0.494676
40740000,0.0324,0.013523,0.002678,0.000431,0.242226
40741000,0.0324,0.013523,0.002678,0.000431,0.332957
40742000,0.0324,0.013523,0.002678,0.000431,0.161249
40743000,0.0324,0.013523,0.002678,0.000431,0.155137
40744000,0.0324,0.013523,0.002678,0.000431,0.169358
40745000,0.0324,0.013523,0.002678,0.000431,0.521002
40746000,0.0324,0.013523,0.002678,0.000431,0.197917
40747000,0.0324,0.013523,0.002678,0.000431,0.168653
40748000,0.0324,0.013523,0.002678,0.000431,0.141857
40749000,0.0324,0.013523,0.002678,0.000431,0.114355
40750000,0.0324,0.013523,0.002678,0.000431,0.091437
40751000,0.0324,0.013523,0.002678,0.000431,0.064523
40752000,0.0324,0.013523,0.002678,0.000431,0.051360
40753000,0.0324,0.013523,0.002678,0.000431,0.048304
40754000,0.0324,0.013523,0.002678,0.000431,0.034318
40755000,0.0324,0.013523,0.002678,0.000431,0.026679
40756000,0.0324,0.013523,0.002678,0.000431,0.017512
40757000,0.0324,0.013523,0.002678,0.000431,0.017864
40758000,0.0324,0.013523,0.002678,0.000431,0.007639
40759000,0.0324,0.013523,0.002678,0.000431,0.005876
40760000,0.0324,0.013523,0.002678,0.000431,0.003996
40761000,0.0324,0.013523,0.002678,0.000431,0.004701
40762000,0.0324,0.013523,0.002678,0.000431,0.072280
40763000,0.0324,0.013523,0.002678,0.000431,0.753943
40764000,0.0324,0.013523,0.002678,0.000431,0.521355
40765000,0.0324,0.013523,0.002678,0.000431,0.136333
40766000,0.0324,0.013523,0.002678,0.000431,0.237760
40767000,0.0324,0.013523,0.002678,0.000431,0.521825
40768000,0.0324,0.013523,0.002678,0.000431,0.283008
40769000,0.0324,0.013523,0.002678,0.000431,0.243518
40770000,0.0324,0.013523,0.002678,0.000431,0.148908
40771000,0.0324,0.013523,0.002678,0.000431,0.129634
40772000,0.0324,0.013523,0.002678,0.000431,0.328491
40773000,0.0324,0.013523,0.002678,0.000431,0.427215
40774000,0.0324,0.013523,0.002678,0.000431,0.189455
40775000,0.0324,0.013523,0.002678,0.000431,0.167125
40776000,0.0324,0.013523,0.002678,0.000431,0.135628
40777000,0.0324,0.013523,0.002678,0.000431,0.106481
40778000,0.0324,0.013523,0.002678,0.000431,0.082740
40779000,0.0324,0.013523,0.002678,0.000431,0.068401
40780000,0.0324,0.013523,0.002678,0.000431,0.056649
40781000,0.0324,0.013523,0.002678,0.000431,0.043838
40782000,0.0324,0.013523,0.002678,0.000431,0.031850
40783000,0.0324,0.013523,0.002678,0.000431,0.021743
40784000,0.0324,0.013523,0.002678,0.000431,0.018922
40785000,0.0324,0.013523,0.002678,0.000431,0.012928
40786000,0.0324,0.013523,0.002678,0.000431,0.013986
40787000,0.0324,0.013523,0.002678,0.000431,0.009050
40788000,0.0324,0.013523,0.002678,0.000431,0.006229
40789000,0.0324,0.013523,0.002678,0.000431,0.007757
40790000,0.0324,0.013523,0.002678,0.000431,0.003643
40791000,0.0324,0.013523,0.002678,0.000431,0.003056
40792000,0.0324,0.013523,0.002678,0.000431,0.003408
40793000,0.0324,0.013523,0.002678,0.000431,0.000940
40794000,0.0324,0.013523,0.002678,0.000431,0.000705
40795000,0.0324,0.013523,0.002678,0.000431,0.000940
40796000,0.0324,0.013523,0.002678,0.000431,0.000940
40797000,0.0324,0.013523,0.002678,0.000431,0.000705
40798000,0.0324,0.013523,0.002678,0.000431,0.000940
40799000,0.0324,0.013523,0.002678,0.000431,0.000705
40800000,0.0324,0.013523,0.002678,0.000431,0.000940
40801000,0.0324,0.013523,0.002678,0.000431,0.000823
40802000,0.0324,0.013523,0.002678,0.000431,0.072867
40803000,0.0324,0.013523,0.002678,0.000431,0.782385
40804000,0.0324,0.013523,0.002678,0.000431,0.503726
40805000,0.0324,0.013523,0.002678,0.000431,0.135863
40806000,0.0324,0.013523,0.002678,0.000431,0.303575
40807000,0.0324,0.013523,0.002678,0.000431,0.434619
40808000,0.0324,0.013523,0.002678,0.000431,0.253978
40809000,0.0324,0.013523,0.002678,0.000431,0.252451
40810000,0.0324,0.013523,0.002678,0.000431,0.157135
40811000,0.0324,0.013523,0.002678,0.000431,0.114355
40812000,0.0324,0.013523,0.002678,0.000431,0.420868
40813000,0.0324,0.013523,0.002678,0.000431,0.334250
40814000,0.0324,0.013523,0.002678,0.000431,0.155372
40815000,0.0324,0.013523,0.002678,0.000431,0.141504
40816000,0.0324,0.013523,0.002678,0.000431,0.116118
40817000,0.0324,0.013523,0.002678,0.000431,0.096373
40818000,0.0324,0.013523,0.002678,0.000431,0.076041
40819000,0.0324,0.013523,0.002678,0.000431,0.077216
40820000,0.0324,0.013523,0.002678,0.000431,0.067461
40821000,0.0324,0.013523,0.002678,0.000431,0.050772
40822000,0.0324,0.013523,0.002678,0.000431,0.037374
40823000,0.0324,0.013523,0.002678,0.000431,0.041370
40824000,0.0324,0.013523,0.002678,0.000431,0.026091
40825000,0.0324,0.013523,0.002678,0.000431,0.022683
40826000,0.0324,0.013523,0.002678,0.000431,0.017864
40827000,0.0324,0.013523,0.002678,0.000431,0.017277
40828000,0.0324,0.013523,0.002678,0.000431,0.008697
40829000,0.0324,0.013523,0.002678,0.000431,0.008697
40830000,0.0324,0.013523,0.002678,0.000431,0.012693
40831000,0.0324,0.013523,0.002678,0.000431,0.004584
40832000,0.0324,0.013523,0.002678,0.000431,0.004231
40833000,0.0324,0.013523,0.002678,0.000431,0.003526
40834000,0.0324,0.013523,0.002678,0.000431,0.003878
40835000,0.0324,0.013523,0.002678,0.000431,0.003761
40836000,0.0324,0.013523,0.002678,0.000431,0.003056
40837000,0.0324,0.013523,0.002678,0.000431,0.003643
40838000,0.0324,0.013523,0.002678,0.000431,0.003996
40839000,0.0324,0.013523,0.002678,0.000431,0.004113
40840000,0.0324,0.013523,0.002678,0.000431,0.000823
40841000,0.0324,0.013523,0.002678,0.000431,0.000940
40842000,0.0324,0.013523,0.002678,0.000431,0.005289
40843000,0.0324,0.013523,0.002678,0.000431,0.629011
40844000,0.0324,0.013523,0.002678,0.000431,0.631714
40845000,0.0324,0.013523,0.002678,0.000431,0.136803
40846000,0.0324,0.013523,0.002678,0.000431,0.137155
40847000,0.0324,0.013523,0.002678,0.000431,0.525469
40848000,0.0324,0.013523,0.002678,0.000431,0.242813
40849000,0.0324,0.013523,0.002678,0.000431,0.348236
40850000,0.0324,0.013523,0.002678,0.000431,0.145735
40851000,0.0324,0.013523,0.002678,0.000431,0.154197
40852000,0.0324,0.013523,0.002678,0.000431,0.228710
40853000,0.0324,0.013523,0.002678,0.000431,0.500317
40854000,0.0324,0.013523,0.002678,0.000431,0.176527
40855000,0.0324,0.013523,0.002678,0.000431,0.163834
40856000,0.0324,0.013523,0.002678,0.000431,0.143032
40857000,0.0324,0.013523,0.002678,0.000431,0.108831
40858000,0.0324,0.013523,0.002678,0.000431,0.091202
40859000,0.0324,0.013523,0.002678,0.000431,0.053945
40860000,0.0324,0.013523,0.002678,0.000431,0.052888
40861000,0.0324,0.013523,0.002678,0.000431,0.047011
40862000,0.0324,0.013523,0.002678,0.000431,0.039489
40863000,0.0324,0.013523,0.002678,0.000431,0.032320
40864000,0.0324,0.013523,0.002678,0.000431,0.026326
40865000,0.0324,0.013523,0.002678,0.000431,0.012223
40866000,0.0324,0.013523,0.002678,0.000431,0.011753
40867000,0.0324,0.013523,0.002678,0.000431,0.003996
40868000,0.0324,0.013523,0.002678,0.000431,0.001763
40869000,0.0324,0.013523,0.002678,0.000431,0.002468
40870000,0.0324,0.013523,0.002678,0.000431,0.001998
40871000,0.0324,0.013523,0.002678,0.000431,0.000940
40872000,0.0324,0.013523,0.002678,0.000431,0.000940
40873000,0.0324,0.013523,0.002678,0.000431,0.000940
40874000,0.0324,0.013523,0.002678,0.000431,0.000705
40875000,0.0324,0.013523,0.002678,0.000431,0.000940
40876000,0.0324,0.013523,0.002678,0.000431,0.000940
40877000,0.0324,0.013523,0.002678,0.000431,0.000940
40878000,0.0324,0.013523,0.002678,0.000431,0.000705
40879000,0.0324,0.013523,0.002678,0.000431,0.000940
40880000,0.0324,0.013523,0.002678,0.000431,0.000940
40881000,0.0324,0.013523,0.002678,0.000431,0.149613
40882000,0.0324,0.013523,0.002678,0.000431,0.748537
40883000,0.0324,0.013523,0.002678,0.000431,0.472228
40884000,0.0324,0.013523,0.002678,0.000431,0.137273
40885000,0.0324,0.013523,0.002678,0.000431,0.400889
40886000,0.0324,0.013523,0.002678,0.000431,0.348001
40887000,0.0324,0.013523,0.002678,0.000431,0.289237
40888000,0.0324,0.013523,0.002678,0.000431,0.247044
40889000,0.0324,0.013523,0.002678,0.000431,0.160073
40890000,0.0324,0.013523,0.002678,0.000431,0.108243
40891000,0.0324,0.013523,0.002678,0.000431,0.500905
40892000,0.0324,0.013523,0.002678,0.000431,0.247514
40893000,0.0324,0.013523,0.002678,0.000431,0.150083
40894000,0.0324,0.013523,0.002678,0.000431,0.119056
40895000,0.0324,0.013523,0.002678,0.000431,0.099664
40896000,0.0324,0.013523,0.002678,0.000431,0.081682
40897000,0.0324,0.013523,0.002678,0.000431,0.072632
40898000,0.0324,0.013523,0.002678,0.000431,0.057471
40899000,0.0324,0.013523,0.002678,0.000431,0.046306
40900000,0.0324,0.013523,0.002678,0.000431,0.035376
40901000,0.0324,0.013523,0.002678,0.000431,0.027384
40902000,0.0324,0.013523,0.002678,0.000431,0.025621
40903000,0.0324,0.013523,0.002678,0.000431,0.019275
40904000,0.0324,0.013523,0.002678,0.000431,0.011988
40905000,0.0324,0.013523,0.002678,0.000431,0.003173
40906000,0.0324,0.013523,0.002678,0.000431,0.012340
40907000,0.0324,0.013523,0.002678,0.000431,0.665915
40908000,0.0324,0.013523,0.002678,0.000431,0.616670
40909000,0.0324,0.013523,0.002678,0.000431,0.137743
40910000,0.0324,0.013523,0.002678,0.000431,0.152552
40911000,0.0324,0.013523,0.002678,0.000431,0.581765
40912000,0.0324,0.013523,0.002678,0.000431,0.258680
40913000,0.0324,0.013523,0.002678,0.000431,0.323203
40914000,0.0324,0.013523,0.002678,0.000431,0.156900
40915000,0.0324,0.013523,0.002678,0.000431,0.132102
40916000,0.0324,0.013523,0.002678,0.000431,0.253861
40917000,0.0324,0.013523,0.002678,0.000431,0.487859
40918000,0.0324,0.013523,0.002678,0.000431,0.188163
40919000,0.0324,0.013523,0.002678,0.000431,0.179583
40920000,0.0324,0.013523,0.002678,0.000431,0.135628
40921000,0.0324,0.013523,0.002678,0.000431,0.107773
40922000,0.0324,0.013523,0.002678,0.000431,0.084268
40923000,0.0324,0.013523,0.002678,0.000431,0.067109
40924000,0.0324,0.013523,0.002678,0.000431,0.065698
40925000,0.0324,0.013523,0.002678,0.000431,0.055356
40926000,0.0324,0.013523,0.002678,0.000431,0.041958
40927000,0.0324,0.013523,0.002678,0.000431,0.030792
40928000,0.0324,0.013523,0.002678,0.000431,0.036199
40929000,0.0324,0.013523,0.002678,0.000431,0.026326
40930000,0.0324,0.013523,0.002678,0.000431,0.027031
40931000,0.0324,0.013523,0.002678,0.000431,0.019627
40932000,0.0324,0.013523,0.002678,0.000431,0.019157
40933000,0.0324,0.013523,0.002678,0.000431,0.013633
40934000,0.0324,0.013523,0.002678,0.000431,0.008580
40935000,0.0324,0.013523,0.002678,0.000431,0.008462
40936000,0.0324,0.013523,0.002678,0.000431,0.011400
40937000,0.0324,0.013523,0.002678,0.000431,0.006229
40938000,0.0324,0.013523,0.002678,0.000431,0.005994
40939000,0.0324,0.013523,0.002678,0.000431,0.008109
40940000,0.0324,0.013523,0.002678,0.000431,0.005641
40941000,0.0324,0.013523,0.002678,0.000431,0.002703
40942000,0.0324,0.013523,0.002678,0.000431,0.002586
40943000,0.0324,0.013523,0.002678,0.000431,0.004936
40944000,0.0324,0.013523,0.002678,0.000431,0.001645
40945000,0.0324,0.013523,0.002678,0.000431,0.001645
40946000,0.0324,0.013523,0.002678,0.000431,0.002821
40947000,0.0324,0.013523,0.002678,0.000431,0.001998
40948000,0.0324,0.013523,0.002678,0.000431,0.000940
40949000,0.0324,0.013523,0.002678,0.000431,0.201796
40950000,0.0324,0.013523,0.002678,0.000431,0.715747
40951000,0.0324,0.013523,0.002678,0.000431,0.465294
40952000,0.0324,0.013523,0.002678,0.000431,0.136333
40953000,0.0324,0.013523,0.002678,0.000431,0.437675
40954000,0.0324,0.013523,0.002678,0.000431,0.325553
40955000,0.0324,0.013523,0.002678,0.000431,0.273018
40956000,0.0324,0.013523,0.002678,0.000431,0.247984
40957000,0.0324,0.013523,0.002678,0.000431,0.168418
40958000,0.0324,0.013523,0.002678,0.000431,0.113415
40959000,0.0324,0.013523,0.002678,0.000431,0.501140
40960000,0.0324,0.013523,0.002678,0.000431,0.325200
40961000,0.0324,0.013523,0.002678,0.000431,0.197447
40962000,0.0324,0.013523,0.002678,0.000431,0.171121
40963000,0.0324,0.013523,0.002678,0.000431,0.131867
40964000,0.0324,0.013523,0.002678,0.000431,0.129751
40965000,0.0324,0.013523,0.002678,0.000431,0.088734
40966000,0.0324,0.013523,0.002678,0.000431,0.079214
40967000,0.0324,0.013523,0.002678,0.000431,0.063583
40968000,0.0324,0.013523,0.002678,0.000431,0.048539
40969000,0.0324,0.013523,0.002678,0.000431,0.035023
40970000,0.0324,0.013523,0.002678,0.000431,0.034788
40971000,0.0324,0.013523,0.002678,0.000431,0.031262
40972000,0.0324,0.013523,0.002678,0.000431,0.018569
40973000,0.0324,0.013523,0.002678,0.000431,0.015396
40974000,0.0324,0.013523,0.002678,0.000431,0.013398
40975000,0.0324,0.013523,0.002678,0.000431,0.008109
40976000,0.0324,0.013523,0.002678,0.000431,0.009637
40977000,0.0324,0.013523,0.002678,0.000431,0.013986
40978000,0.0324,0.013523,0.002678,0.000431,0.004349
40979000,0.0324,0.013523,0.002678,0.000431,0.001763
40980000,0.0324,0.013523,0.002678,0.000431,0.001763
40981000,0.0324,0.013523,0.002678,0.000431,0.482923
40982000,0.0324,0.013523,0.002678,0.000431,0.800132
40983000,0.0324,0.013523,0.002678,0.000431,0.200621
40984000,0.0324,0.013523,0.002678,0.000431,0.137273
40985000,0.0324,0.013523,0.002678,0.000431,0.515126
40986000,0.0324,0.013523,0.002678,0.000431,0.244106
40987000,0.0324,0.013523,0.002678,0.000431,0.329079
40988000,0.0324,0.013523,0.002678,0.000431,0.199210
40989000,0.0324,0.013523,0.002678,0.000431,0.190983
40990000,0.0324,0.013523,0.002678,0.000431,0.084973
40991000,0.0324,0.013523,0.002678,0.000431,0.549327
40992000,0.0324,0.013523,0.002678,0.000431,0.228005
40993000,0.0324,0.013523,0.002678,0.000431,0.180171
40994000,0.0324,0.013523,0.002678,0.000431,0.151964
40995000,0.0324,0.013523,0.002678,0.000431,0.148203
40996000,0.0324,0.013523,0.002678,0.000431,0.102602
40997000,0.0324,0.013523,0.002678,0.000431,0.093552
40998000,0.0324,0.013523,0.002678,0.000431,0.061232
40999000,0.0324,0.013523,0.002678,0.000431,0.050655
