Cycle,Area(mm^2),PeakDynamic(W),SubthresholdLeakage(W),GateLeakage(W),RunTimeDynamic(W)
104000000,0.0324,0.013523,0.002678,0.000431,0.003878
104001000,0.0324,0.013523,0.002678,0.000431,0.003878
104002000,0.0324,0.013523,0.002678,0.000431,0.004113
104003000,0.0324,0.013523,0.002678,0.000431,0.003761
104004000,0.0324,0.013523,0.002678,0.000431,0.003996
104005000,0.0324,0.013523,0.002678,0.000431,0.003996
104006000,0.0324,0.013523,0.002678,0.000431,0.003878
104007000,0.0324,0.013523,0.002678,0.000431,0.003056
104008000,0.0324,0.013523,0.002678,0.000431,0.002821
104009000,0.0324,0.013523,0.002678,0.000431,0.002586
104010000,0.0324,0.013523,0.002678,0.000431,0.002468
104011000,0.0324,0.013523,0.002678,0.000431,0.003996
104012000,0.0324,0.013523,0.002678,0.000431,0.001645
104013000,0.0324,0.013523,0.002678,0.000431,0.001763
104014000,0.0324,0.013523,0.002678,0.000431,0.001763
104015000,0.0324,0.013523,0.002678,0.000431,0.001528
104016000,0.0324,0.013523,0.002678,0.000431,0.001763
104017000,0.0324,0.013523,0.002678,0.000431,0.001880
104018000,0.0324,0.013523,0.002678,0.000431,0.003173
104019000,0.0324,0.013523,0.002678,0.000431,0.000705
104020000,0.0324,0.013523,0.002678,0.000431,0.000940
104021000,0.0324,0.013523,0.002678,0.000431,0.000940
104022000,0.0324,0.013523,0.002678,0.000431,0.000823
104023000,0.0324,0.013523,0.002678,0.000431,0.072397
104024000,0.0324,0.013523,0.002678,0.000431,0.628306
104025000,0.0324,0.013523,0.002678,0.000431,0.555556
104026000,0.0324,0.013523,0.002678,0.000431,0.141857
104027000,0.0324,0.013523,0.002678,0.000431,0.141974
104028000,0.0324,0.013523,0.002678,0.000431,0.619844
104029000,0.0324,0.013523,0.002678,0.000431,0.281127
104030000,0.0324,0.013523,0.002678,0.000431,0.291705
104031000,0.0324,0.013523,0.002678,0.000431,0.257739
104032000,0.0324,0.013523,0.002678,0.000431,0.138448
104033000,0.0324,0.013523,0.002678,0.000431,0.140446
104034000,0.0324,0.013523,0.002678,0.000431,0.230355
104035000,0.0324,0.013523,0.002678,0.000431,0.435207
104036000,0.0324,0.013523,0.002678,0.000431,0.167830
104037000,0.0324,0.013523,0.002678,0.000431,0.159486
104038000,0.0324,0.013523,0.002678,0.000431,0.129751
104039000,0.0324,0.013523,0.002678,0.000431,0.112474
104040000,0.0324,0.013523,0.002678,0.000431,0.110712
104041000,0.0324,0.013523,0.002678,0.000431,0.085913
104042000,0.0324,0.013523,0.002678,0.000431,0.088734
104043000,0.0324,0.013523,0.002678,0.000431,0.072867
104044000,0.0324,0.013523,0.002678,0.000431,0.063700
104045000,0.0324,0.013523,0.002678,0.000431,0.053240
104046000,0.0324,0.013523,0.002678,0.000431,0.052535
104047000,0.0324,0.013523,0.002678,0.000431,0.044661
104048000,0.0324,0.013523,0.002678,0.000431,0.042898
104049000,0.0324,0.013523,0.002678,0.000431,0.035376
104050000,0.0324,0.013523,0.002678,0.000431,0.031145
104051000,0.0324,0.013523,0.002678,0.000431,0.028559
104052000,0.0324,0.013523,0.002678,0.000431,0.028912
104053000,0.0324,0.013523,0.002678,0.000431,0.031145
104054000,0.0324,0.013523,0.002678,0.000431,0.023741
104055000,0.0324,0.013523,0.002678,0.000431,0.022565
104056000,0.0324,0.013523,0.002678,0.000431,0.027737
104057000,0.0324,0.013523,0.002678,0.000431,0.015631
104058000,0.0324,0.013523,0.002678,0.000431,0.012223
104059000,0.0324,0.013523,0.002678,0.000431,0.012811
104060000,0.0324,0.013523,0.002678,0.000431,0.012105
104061000,0.0324,0.013523,0.002678,0.000431,0.011870
104062000,0.0324,0.013523,0.002678,0.000431,0.012458
104063000,0.0324,0.013523,0.002678,0.000431,0.012105
104064000,0.0324,0.013523,0.002678,0.000431,0.012811
104065000,0.0324,0.013523,0.002678,0.000431,0.013281
104066000,0.0324,0.013523,0.002678,0.000431,0.011283
104067000,0.0324,0.013523,0.002678,0.000431,0.012576
104068000,0.0324,0.013523,0.002678,0.000431,0.013633
104069000,0.0324,0.013523,0.002678,0.000431,0.008697
104070000,0.0324,0.013523,0.002678,0.000431,0.006934
104071000,0.0324,0.013523,0.002678,0.000431,0.005759
104072000,0.0324,0.013523,0.002678,0.000431,0.005994
104073000,0.0324,0.013523,0.002678,0.000431,0.005289
104074000,0.0324,0.013523,0.002678,0.000431,0.004936
104075000,0.0324,0.013523,0.002678,0.000431,0.005171
104076000,0.0324,0.013523,0.002678,0.000431,0.004584
104077000,0.0324,0.013523,0.002678,0.000431,0.004936
104078000,0.0324,0.013523,0.002678,0.000431,0.006817
104079000,0.0324,0.013523,0.002678,0.000431,0.004113
104080000,0.0324,0.013523,0.002678,0.000431,0.004466
104081000,0.0324,0.013523,0.002678,0.000431,0.003761
104082000,0.0324,0.013523,0.002678,0.000431,0.003643
104083000,0.0324,0.013523,0.002678,0.000431,0.005876
104084000,0.0324,0.013523,0.002678,0.000431,0.003878
104085000,0.0324,0.013523,0.002678,0.000431,0.001763
104086000,0.0324,0.013523,0.002678,0.000431,0.001763
104087000,0.0324,0.013523,0.002678,0.000431,0.002938
104088000,0.0324,0.013523,0.002678,0.000431,0.000705
104089000,0.0324,0.013523,0.002678,0.000431,0.000940
104090000,0.0324,0.013523,0.002678,0.000431,0.000823
104091000,0.0324,0.013523,0.002678,0.000431,0.000823
104092000,0.0324,0.013523,0.002678,0.000431,0.000823
104093000,0.0324,0.013523,0.002678,0.000431,0.000823
104094000,0.0324,0.013523,0.002678,0.000431,0.000940
104095000,0.0324,0.013523,0.002678,0.000431,0.000705
104096000,0.0324,0.013523,0.002678,0.000431,0.000940
104097000,0.0324,0.013523,0.002678,0.000431,0.000823
104098000,0.0324,0.013523,0.002678,0.000431,0.000823
104099000,0.0324,0.013523,0.002678,0.000431,0.000823
104100000,0.0324,0.013523,0.002678,0.000431,0.000823
104101000,0.0324,0.013523,0.002678,0.000431,0.000823
104102000,0.0324,0.013523,0.002678,0.000431,0.000823
104103000,0.0324,0.013523,0.002678,0.000431,0.000940
104104000,0.0324,0.013523,0.002678,0.000431,0.000705
104105000,0.0324,0.013523,0.002678,0.000431,0.000940
104106000,0.0324,0.013523,0.002678,0.000431,0.000705
104107000,0.0324,0.013523,0.002678,0.000431,0.000940
104108000,0.0324,0.013523,0.002678,0.000431,0.000940
104109000,0.0324,0.013523,0.002678,0.000431,0.000705
104110000,0.0324,0.013523,0.002678,0.000431,0.000940
104111000,0.0324,0.013523,0.002678,0.000431,0.000705
104112000,0.0324,0.013523,0.002678,0.000431,0.000940
104113000,0.0324,0.013523,0.002678,0.000431,0.000823
104114000,0.0324,0.013523,0.002678,0.000431,0.000823
104115000,0.0324,0.013523,0.002678,0.000431,0.000823
104116000,0.0324,0.013523,0.002678,0.000431,0.000823
104117000,0.0324,0.013523,0.002678,0.000431,0.000940
104118000,0.0324,0.013523,0.002678,0.000431,0.000705
104119000,0.0324,0.013523,0.002678,0.000431,0.000940
104120000,0.0324,0.013523,0.002678,0.000431,0.000823
104121000,0.0324,0.013523,0.002678,0.000431,0.000823
104122000,0.0324,0.013523,0.002678,0.000431,0.000823
104123000,0.0324,0.013523,0.002678,0.000431,0.000823
104124000,0.0324,0.013523,0.002678,0.000431,0.000823
104125000,0.0324,0.013523,0.002678,0.000431,0.000823
104126000,0.0324,0.013523,0.002678,0.000431,0.000823
104127000,0.0324,0.013523,0.002678,0.000431,0.000823
104128000,0.0324,0.013523,0.002678,0.000431,0.000940
104129000,0.0324,0.013523,0.002678,0.000431,0.000823
104130000,0.0324,0.013523,0.002678,0.000431,0.000823
104131000,0.0324,0.013523,0.002678,0.000431,0.000705
104132000,0.0324,0.013523,0.002678,0.000431,0.000940
104133000,0.0324,0.013523,0.002678,0.000431,0.000940
104134000,0.0324,0.013523,0.002678,0.000431,0.000705
104135000,0.0324,0.013523,0.002678,0.000431,0.000940
104136000,0.0324,0.013523,0.002678,0.000431,0.000705
104137000,0.0324,0.013523,0.002678,0.000431,0.000940
104138000,0.0324,0.013523,0.002678,0.000431,0.000823
104139000,0.0324,0.013523,0.002678,0.000431,0.000823
104140000,0.0324,0.013523,0.002678,0.000431,0.000940
104141000,0.0324,0.013523,0.002678,0.000431,0.000705
104142000,0.0324,0.013523,0.002678,0.000431,0.000940
104143000,0.0324,0.013523,0.002678,0.000431,0.000823
104144000,0.0324,0.013523,0.002678,0.000431,0.000823
104145000,0.0324,0.013523,0.002678,0.000431,0.000823
104146000,0.0324,0.013523,0.002678,0.000431,0.000823
104147000,0.0324,0.013523,0.002678,0.000431,0.000823
104148000,0.0324,0.013523,0.002678,0.000431,0.000823
104149000,0.0324,0.013523,0.002678,0.000431,0.000940
104150000,0.0324,0.013523,0.002678,0.000431,0.000705
104151000,0.0324,0.013523,0.002678,0.000431,0.000940
104152000,0.0324,0.013523,0.002678,0.000431,0.000823
104153000,0.0324,0.013523,0.002678,0.000431,0.015044
104154000,0.0324,0.013523,0.002678,0.000431,0.661449
104155000,0.0324,0.013523,0.002678,0.000431,0.578826
104156000,0.0324,0.013523,0.002678,0.000431,0.152669
104157000,0.0324,0.013523,0.002678,0.000431,0.137978
104158000,0.0324,0.013523,0.002678,0.000431,0.590462
104159000,0.0324,0.013523,0.002678,0.000431,0.267729
104160000,0.0324,0.013523,0.002678,0.000431,0.281715
104161000,0.0324,0.013523,0.002678,0.000431,0.297816
104162000,0.0324,0.013523,0.002678,0.000431,0.152904
104163000,0.0324,0.013523,0.002678,0.000431,0.108596
104164000,0.0324,0.013523,0.002678,0.000431,0.345180
104165000,0.0324,0.013523,0.002678,0.000431,0.370331
104166000,0.0324,0.013523,0.002678,0.000431,0.194274
104167000,0.0324,0.013523,0.002678,0.000431,0.165950
104168000,0.0324,0.013523,0.002678,0.000431,0.160896
104169000,0.0324,0.013523,0.002678,0.000431,0.146205
104170000,0.0324,0.013523,0.002678,0.000431,0.133277
104171000,0.0324,0.013523,0.002678,0.000431,0.116823
104172000,0.0324,0.013523,0.002678,0.000431,0.109419
104173000,0.0324,0.013523,0.002678,0.000431,0.083327
104174000,0.0324,0.013523,0.002678,0.000431,0.079332
104175000,0.0324,0.013523,0.002678,0.000431,0.068401
104176000,0.0324,0.013523,0.002678,0.000431,0.063348
104177000,0.0324,0.013523,0.002678,0.000431,0.056531
104178000,0.0324,0.013523,0.002678,0.000431,0.053710
104179000,0.0324,0.013523,0.002678,0.000431,0.050420
104180000,0.0324,0.013523,0.002678,0.000431,0.053710
104181000,0.0324,0.013523,0.002678,0.000431,0.045954
104182000,0.0324,0.013523,0.002678,0.000431,0.041252
104183000,0.0324,0.013523,0.002678,0.000431,0.034436
104184000,0.0324,0.013523,0.002678,0.000431,0.033496
104185000,0.0324,0.013523,0.002678,0.000431,0.030910
104186000,0.0324,0.013523,0.002678,0.000431,0.022918
104187000,0.0324,0.013523,0.002678,0.000431,0.019862
104188000,0.0324,0.013523,0.002678,0.000431,0.015396
104189000,0.0324,0.013523,0.002678,0.000431,0.013633
104190000,0.0324,0.013523,0.002678,0.000431,0.016571
104191000,0.0324,0.013523,0.002678,0.000431,0.014221
104192000,0.0324,0.013523,0.002678,0.000431,0.011283
104193000,0.0324,0.013523,0.002678,0.000431,0.010930
104194000,0.0324,0.013523,0.002678,0.000431,0.010695
104195000,0.0324,0.013523,0.002678,0.000431,0.010695
104196000,0.0324,0.013523,0.002678,0.000431,0.011048
104197000,0.0324,0.013523,0.002678,0.000431,0.006934
104198000,0.0324,0.013523,0.002678,0.000431,0.006229
104199000,0.0324,0.013523,0.002678,0.000431,0.006464
104200000,0.0324,0.013523,0.002678,0.000431,0.006464
104201000,0.0324,0.013523,0.002678,0.000431,0.005876
104202000,0.0324,0.013523,0.002678,0.000431,0.006582
104203000,0.0324,0.013523,0.002678,0.000431,0.008462
104204000,0.0324,0.013523,0.002678,0.000431,0.005524
104205000,0.0324,0.013523,0.002678,0.000431,0.005876
104206000,0.0324,0.013523,0.002678,0.000431,0.005171
104207000,0.0324,0.013523,0.002678,0.000431,0.005759
104208000,0.0324,0.013523,0.002678,0.000431,0.005524
104209000,0.0324,0.013523,0.002678,0.000431,0.005289
104210000,0.0324,0.013523,0.002678,0.000431,0.009167
104211000,0.0324,0.013523,0.002678,0.000431,0.003996
104212000,0.0324,0.013523,0.002678,0.000431,0.004113
104213000,0.0324,0.013523,0.002678,0.000431,0.003408
104214000,0.0324,0.013523,0.002678,0.000431,0.004466
104215000,0.0324,0.013523,0.002678,0.000431,0.005171
104216000,0.0324,0.013523,0.002678,0.000431,0.004231
104217000,0.0324,0.013523,0.002678,0.000431,0.002938
104218000,0.0324,0.013523,0.002678,0.000431,0.002233
104219000,0.0324,0.013523,0.002678,0.000431,0.003878
104220000,0.0324,0.013523,0.002678,0.000431,0.002703
104221000,0.0324,0.013523,0.002678,0.000431,0.001528
104222000,0.0324,0.013523,0.002678,0.000431,0.001528
104223000,0.0324,0.013523,0.002678,0.000431,0.000823
104224000,0.0324,0.013523,0.002678,0.000431,0.072162
104225000,0.0324,0.013523,0.002678,0.000431,0.658275
104226000,0.0324,0.013523,0.002678,0.000431,0.582940
104227000,0.0324,0.013523,0.002678,0.000431,0.141151
104228000,0.0324,0.013523,0.002678,0.000431,0.133042
104229000,0.0324,0.013523,0.002678,0.000431,0.586818
104230000,0.0324,0.013523,0.002678,0.000431,0.255976
104231000,0.0324,0.013523,0.002678,0.000431,0.315563
104232000,0.0324,0.013523,0.002678,0.000431,0.263263
104233000,0.0324,0.013523,0.002678,0.000431,0.147263
104234000,0.0324,0.013523,0.002678,0.000431,0.132219
104235000,0.0324,0.013523,0.002678,0.000431,0.238582
104236000,0.0324,0.013523,0.002678,0.000431,0.443904
104237000,0.0324,0.013523,0.002678,0.000431,0.169711
104238000,0.0324,0.013523,0.002678,0.000431,0.156195
104239000,0.0324,0.013523,0.002678,0.000431,0.146675
104240000,0.0324,0.013523,0.002678,0.000431,0.127048
104241000,0.0324,0.013523,0.002678,0.000431,0.111652
104242000,0.0324,0.013523,0.002678,0.000431,0.097666
104243000,0.0324,0.013523,0.002678,0.000431,0.094610
104244000,0.0324,0.013523,0.002678,0.000431,0.079919
104245000,0.0324,0.013523,0.002678,0.000431,0.064523
104246000,0.0324,0.013523,0.002678,0.000431,0.070634
104247000,0.0324,0.013523,0.002678,0.000431,0.060527
104248000,0.0324,0.013523,0.002678,0.000431,0.053593
104249000,0.0324,0.013523,0.002678,0.000431,0.048069
104250000,0.0324,0.013523,0.002678,0.000431,0.047481
104251000,0.0324,0.013523,0.002678,0.000431,0.048657
104252000,0.0324,0.013523,0.002678,0.000431,0.047951
104253000,0.0324,0.013523,0.002678,0.000431,0.036904
104254000,0.0324,0.013523,0.002678,0.000431,0.034553
104255000,0.0324,0.013523,0.002678,0.000431,0.034318
104256000,0.0324,0.013523,0.002678,0.000431,0.028089
104257000,0.0324,0.013523,0.002678,0.000431,0.023623
104258000,0.0324,0.013523,0.002678,0.000431,0.021038
104259000,0.0324,0.013523,0.002678,0.000431,0.019745
104260000,0.0324,0.013523,0.002678,0.000431,0.024563
104261000,0.0324,0.013523,0.002678,0.000431,0.024798
104262000,0.0324,0.013523,0.002678,0.000431,0.015631
104263000,0.0324,0.013523,0.002678,0.000431,0.015984
104264000,0.0324,0.013523,0.002678,0.000431,0.014809
104265000,0.0324,0.013523,0.002678,0.000431,0.014338
104266000,0.0324,0.013523,0.002678,0.000431,0.010813
104267000,0.0324,0.013523,0.002678,0.000431,0.009637
104268000,0.0324,0.013523,0.002678,0.000431,0.013281
104269000,0.0324,0.013523,0.002678,0.000431,0.008462
104270000,0.0324,0.013523,0.002678,0.000431,0.005759
104271000,0.0324,0.013523,0.002678,0.000431,0.005524
104272000,0.0324,0.013523,0.002678,0.000431,0.007639
104273000,0.0324,0.013523,0.002678,0.000431,0.008462
104274000,0.0324,0.013523,0.002678,0.000431,0.001880
104275000,0.0324,0.013523,0.002678,0.000431,0.001880
104276000,0.0324,0.013523,0.002678,0.000431,0.012576
104277000,0.0324,0.013523,0.002678,0.000431,0.556261
104278000,0.0324,0.013523,0.002678,0.000431,0.669441
104279000,0.0324,0.013523,0.002678,0.000431,0.156665
104280000,0.0324,0.013523,0.002678,0.000431,0.132572
104281000,0.0324,0.013523,0.002678,0.000431,0.374092
104282000,0.0324,0.013523,0.002678,0.000431,0.421809
104283000,0.0324,0.013523,0.002678,0.000431,0.246104
104284000,0.0324,0.013523,0.002678,0.000431,0.357051
104285000,0.0324,0.013523,0.002678,0.000431,0.140446
104286000,0.0324,0.013523,0.002678,0.000431,0.144325
104287000,0.0324,0.013523,0.002678,0.000431,0.114590
104288000,0.0324,0.013523,0.002678,0.000431,0.431328
104289000,0.0324,0.013523,0.002678,0.000431,0.287944
104290000,0.0324,0.013523,0.002678,0.000431,0.166302
104291000,0.0324,0.013523,0.002678,0.000431,0.142209
104292000,0.0324,0.013523,0.002678,0.000431,0.127636
104293000,0.0324,0.013523,0.002678,0.000431,0.112710
104294000,0.0324,0.013523,0.002678,0.000431,0.103425
104295000,0.0324,0.013523,0.002678,0.000431,0.096491
104296000,0.0324,0.013523,0.002678,0.000431,0.075336
104297000,0.0324,0.013523,0.002678,0.000431,0.073220
104298000,0.0324,0.013523,0.002678,0.000431,0.080977
104299000,0.0324,0.013523,0.002678,0.000431,0.073103
104300000,0.0324,0.013523,0.002678,0.000431,0.050890
104301000,0.0324,0.013523,0.002678,0.000431,0.045954
104302000,0.0324,0.013523,0.002678,0.000431,0.046776
104303000,0.0324,0.013523,0.002678,0.000431,0.049009
104304000,0.0324,0.013523,0.002678,0.000431,0.040665
104305000,0.0324,0.013523,0.002678,0.000431,0.039842
104306000,0.0324,0.013523,0.002678,0.000431,0.038667
104307000,0.0324,0.013523,0.002678,0.000431,0.033378
104308000,0.0324,0.013523,0.002678,0.000431,0.039254
104309000,0.0324,0.013523,0.002678,0.000431,0.031615
104310000,0.0324,0.013523,0.002678,0.000431,0.038549
104311000,0.0324,0.013523,0.002678,0.000431,0.023741
104312000,0.0324,0.013523,0.002678,0.000431,0.021978
104313000,0.0324,0.013523,0.002678,0.000431,0.022800
104314000,0.0324,0.013523,0.002678,0.000431,0.022800
104315000,0.0324,0.013523,0.002678,0.000431,0.018452
104316000,0.0324,0.013523,0.002678,0.000431,0.016101
104317000,0.0324,0.013523,0.002678,0.000431,0.016336
104318000,0.0324,0.013523,0.002678,0.000431,0.016454
104319000,0.0324,0.013523,0.002678,0.000431,0.015044
104320000,0.0324,0.013523,0.002678,0.000431,0.015749
104321000,0.0324,0.013523,0.002678,0.000431,0.015866
104322000,0.0324,0.013523,0.002678,0.000431,0.012811
104323000,0.0324,0.013523,0.002678,0.000431,0.013751
104324000,0.0324,0.013523,0.002678,0.000431,0.012928
104325000,0.0324,0.013523,0.002678,0.000431,0.013163
104326000,0.0324,0.013523,0.002678,0.000431,0.005876
104327000,0.0324,0.013523,0.002678,0.000431,0.006347
104328000,0.0324,0.013523,0.002678,0.000431,0.005289
104329000,0.0324,0.013523,0.002678,0.000431,0.005994
104330000,0.0324,0.013523,0.002678,0.000431,0.005994
104331000,0.0324,0.013523,0.002678,0.000431,0.005641
104332000,0.0324,0.013523,0.002678,0.000431,0.006229
104333000,0.0324,0.013523,0.002678,0.000431,0.005641
104334000,0.0324,0.013523,0.002678,0.000431,0.005994
104335000,0.0324,0.013523,0.002678,0.000431,0.005759
104336000,0.0324,0.013523,0.002678,0.000431,0.005524
104337000,0.0324,0.013523,0.002678,0.000431,0.008345
104338000,0.0324,0.013523,0.002678,0.000431,0.005876
104339000,0.0324,0.013523,0.002678,0.000431,0.005524
104340000,0.0324,0.013523,0.002678,0.000431,0.003643
104341000,0.0324,0.013523,0.002678,0.000431,0.002586
104342000,0.0324,0.013523,0.002678,0.000431,0.002586
104343000,0.0324,0.013523,0.002678,0.000431,0.002351
104344000,0.0324,0.013523,0.002678,0.000431,0.002821
104345000,0.0324,0.013523,0.002678,0.000431,0.002233
104346000,0.0324,0.013523,0.002678,0.000431,0.004466
104347000,0.0324,0.013523,0.002678,0.000431,0.001763
104348000,0.0324,0.013523,0.002678,0.000431,0.002703
104349000,0.0324,0.013523,0.002678,0.000431,0.002468
104350000,0.0324,0.013523,0.002678,0.000431,0.000823
104351000,0.0324,0.013523,0.002678,0.000431,0.000823
104352000,0.0324,0.013523,0.002678,0.000431,0.000940
104353000,0.0324,0.013523,0.002678,0.000431,0.000823
104354000,0.0324,0.013523,0.002678,0.000431,0.073925
104355000,0.0324,0.013523,0.002678,0.000431,0.648050
104356000,0.0324,0.013523,0.002678,0.000431,0.581529
104357000,0.0324,0.013523,0.002678,0.000431,0.145500
104358000,0.0324,0.013523,0.002678,0.000431,0.137626
104359000,0.0324,0.013523,0.002678,0.000431,0.592695
104360000,0.0324,0.013523,0.002678,0.000431,0.254096
104361000,0.0324,0.013523,0.002678,0.000431,0.267612
104362000,0.0324,0.013523,0.002678,0.000431,0.282420
104363000,0.0324,0.013523,0.002678,0.000431,0.139506
104364000,0.0324,0.013523,0.002678,0.000431,0.177115
104365000,0.0324,0.013523,0.002678,0.000431,0.136920
104366000,0.0324,0.013523,0.002678,0.000431,0.472463
104367000,0.0324,0.013523,0.002678,0.000431,0.194509
104368000,0.0324,0.013523,0.002678,0.000431,0.153492
104369000,0.0324,0.013523,0.002678,0.000431,0.128576
104370000,0.0324,0.013523,0.002678,0.000431,0.114943
104371000,0.0324,0.013523,0.002678,0.000431,0.101309
104372000,0.0324,0.013523,0.002678,0.000431,0.085090
104373000,0.0324,0.013523,0.002678,0.000431,0.080272
104374000,0.0324,0.013523,0.002678,0.000431,0.055473
104375000,0.0324,0.013523,0.002678,0.000431,0.052418
104376000,0.0324,0.013523,0.002678,0.000431,0.045718
104377000,0.0324,0.013523,0.002678,0.000431,0.036199
104378000,0.0324,0.013523,0.002678,0.000431,0.037139
104379000,0.0324,0.013523,0.002678,0.000431,0.029735
104380000,0.0324,0.013523,0.002678,0.000431,0.030205
104381000,0.0324,0.013523,0.002678,0.000431,0.031262
104382000,0.0324,0.013523,0.002678,0.000431,0.024681
104383000,0.0324,0.013523,0.002678,0.000431,0.021273
104384000,0.0324,0.013523,0.002678,0.000431,0.017982
104385000,0.0324,0.013523,0.002678,0.000431,0.021978
104386000,0.0324,0.013523,0.002678,0.000431,0.016454
104387000,0.0324,0.013523,0.002678,0.000431,0.014221
104388000,0.0324,0.013523,0.002678,0.000431,0.007757
104389000,0.0324,0.013523,0.002678,0.000431,0.008345
104390000,0.0324,0.013523,0.002678,0.000431,0.006699
104391000,0.0324,0.013523,0.002678,0.000431,0.008815
104392000,0.0324,0.013523,0.002678,0.000431,0.006347
104393000,0.0324,0.013523,0.002678,0.000431,0.007757
104394000,0.0324,0.013523,0.002678,0.000431,0.004819
104395000,0.0324,0.013523,0.002678,0.000431,0.007169
104396000,0.0324,0.013523,0.002678,0.000431,0.003878
104397000,0.0324,0.013523,0.002678,0.000431,0.004466
104398000,0.0324,0.013523,0.002678,0.000431,0.004113
104399000,0.0324,0.013523,0.002678,0.000431,0.004113
104400000,0.0324,0.013523,0.002678,0.000431,0.003996
104401000,0.0324,0.013523,0.002678,0.000431,0.006582
104402000,0.0324,0.013523,0.002678,0.000431,0.003643
104403000,0.0324,0.013523,0.002678,0.000431,0.004701
104404000,0.0324,0.013523,0.002678,0.000431,0.002233
104405000,0.0324,0.013523,0.002678,0.000431,0.002468
104406000,0.0324,0.013523,0.002678,0.000431,0.002468
104407000,0.0324,0.013523,0.002678,0.000431,0.003878
104408000,0.0324,0.013523,0.002678,0.000431,0.251510
104409000,0.0324,0.013523,0.002678,0.000431,0.672144
104410000,0.0324,0.013523,0.002678,0.000431,0.398891
104411000,0.0324,0.013523,0.002678,0.000431,0.143149
104412000,0.0324,0.013523,0.002678,0.000431,0.180876
104413000,0.0324,0.013523,0.002678,0.000431,0.647815
104414000,0.0324,0.013523,0.002678,0.000431,0.228357
104415000,0.0324,0.013523,0.002678,0.000431,0.324495
104416000,0.0324,0.013523,0.002678,0.000431,0.204499
104417000,0.0324,0.013523,0.002678,0.000431,0.153374
104418000,0.0324,0.013523,0.002678,0.000431,0.102837
104419000,0.0324,0.013523,0.002678,0.000431,0.376208
104420000,0.0324,0.013523,0.002678,0.000431,0.349764
104421000,0.0324,0.013523,0.002678,0.000431,0.176762
104422000,0.0324,0.013523,0.002678,0.000431,0.145147
104423000,0.0324,0.013523,0.002678,0.000431,0.141151
104424000,0.0324,0.013523,0.002678,0.000431,0.116823
104425000,0.0324,0.013523,0.002678,0.000431,0.097313
104426000,0.0324,0.013523,0.002678,0.000431,0.081447
104427000,0.0324,0.013523,0.002678,0.000431,0.067461
104428000,0.0324,0.013523,0.002678,0.000431,0.061350
104429000,0.0324,0.013523,0.002678,0.000431,0.057236
104430000,0.0324,0.013523,0.002678,0.000431,0.056296
104431000,0.0324,0.013523,0.002678,0.000431,0.055121
104432000,0.0324,0.013523,0.002678,0.000431,0.055708
104433000,0.0324,0.013523,0.002678,0.000431,0.036081
104434000,0.0324,0.013523,0.002678,0.000431,0.031968
104435000,0.0324,0.013523,0.002678,0.000431,0.029617
104436000,0.0324,0.013523,0.002678,0.000431,0.030557
104437000,0.0324,0.013523,0.002678,0.000431,0.027619
104438000,0.0324,0.013523,0.002678,0.000431,0.023271
104439000,0.0324,0.013523,0.002678,0.000431,0.018922
104440000,0.0324,0.013523,0.002678,0.000431,0.019980
104441000,0.0324,0.013523,0.002678,0.000431,0.021743
104442000,0.0324,0.013523,0.002678,0.000431,0.016924
104443000,0.0324,0.013523,0.002678,0.000431,0.023153
104444000,0.0324,0.013523,0.002678,0.000431,0.015866
104445000,0.0324,0.013523,0.002678,0.000431,0.010225
104446000,0.0324,0.013523,0.002678,0.000431,0.008580
104447000,0.0324,0.013523,0.002678,0.000431,0.007639
104448000,0.0324,0.013523,0.002678,0.000431,0.011400
104449000,0.0324,0.013523,0.002678,0.000431,0.007874
104450000,0.0324,0.013523,0.002678,0.000431,0.008109
104451000,0.0324,0.013523,0.002678,0.000431,0.006934
104452000,0.0324,0.013523,0.002678,0.000431,0.007052
104453000,0.0324,0.013523,0.002678,0.000431,0.006464
104454000,0.0324,0.013523,0.002678,0.000431,0.006699
104455000,0.0324,0.013523,0.002678,0.000431,0.004349
104456000,0.0324,0.013523,0.002678,0.000431,0.006699
104457000,0.0324,0.013523,0.002678,0.000431,0.004936
104458000,0.0324,0.013523,0.002678,0.000431,0.002703
104459000,0.0324,0.013523,0.002678,0.000431,0.003996
104460000,0.0324,0.013523,0.002678,0.000431,0.001645
104461000,0.0324,0.013523,0.002678,0.000431,0.001645
104462000,0.0324,0.013523,0.002678,0.000431,0.001998
104463000,0.0324,0.013523,0.002678,0.000431,0.001645
104464000,0.0324,0.013523,0.002678,0.000431,0.001998
104465000,0.0324,0.013523,0.002678,0.000431,0.003173
104466000,0.0324,0.013523,0.002678,0.000431,0.000823
104467000,0.0324,0.013523,0.002678,0.000431,0.000823
104468000,0.0324,0.013523,0.002678,0.000431,0.000823
104469000,0.0324,0.013523,0.002678,0.000431,0.000705
104470000,0.0324,0.013523,0.002678,0.000431,0.000940
104471000,0.0324,0.013523,0.002678,0.000431,0.001645
104472000,0.0324,0.013523,0.002678,0.000431,0.472698
104473000,0.0324,0.013523,0.002678,0.000431,0.730908
104474000,0.0324,0.013523,0.002678,0.000431,0.182991
104475000,0.0324,0.013523,0.002678,0.000431,0.142914
104476000,0.0324,0.013523,0.002678,0.000431,0.305103
104477000,0.0324,0.013523,0.002678,0.000431,0.547681
104478000,0.0324,0.013523,0.002678,0.000431,0.260678
104479000,0.0324,0.013523,0.002678,0.000431,0.336131
104480000,0.0324,0.013523,0.002678,0.000431,0.138213
104481000,0.0324,0.013523,0.002678,0.000431,0.179936
104482000,0.0324,0.013523,0.002678,0.000431,0.082975
104483000,0.0324,0.013523,0.002678,0.000431,0.493266
104484000,0.0324,0.013523,0.002678,0.000431,0.222716
104485000,0.0324,0.013523,0.002678,0.000431,0.159838
104486000,0.0324,0.013523,0.002678,0.000431,0.129869
104487000,0.0324,0.013523,0.002678,0.000431,0.117763
104488000,0.0324,0.013523,0.002678,0.000431,0.113180
104489000,0.0324,0.013523,0.002678,0.000431,0.096021
104490000,0.0324,0.013523,0.002678,0.000431,0.089792
104491000,0.0324,0.013523,0.002678,0.000431,0.073103
104492000,0.0324,0.013523,0.002678,0.000431,0.066874
104493000,0.0324,0.013523,0.002678,0.000431,0.065463
104494000,0.0324,0.013523,0.002678,0.000431,0.057354
104495000,0.0324,0.013523,0.002678,0.000431,0.052418
104496000,0.0324,0.013523,0.002678,0.000431,0.047951
104497000,0.0324,0.013523,0.002678,0.000431,0.040547
104498000,0.0324,0.013523,0.002678,0.000431,0.040430
104499000,0.0324,0.013523,0.002678,0.000431,0.032438
104500000,0.0324,0.013523,0.002678,0.000431,0.028559
104501000,0.0324,0.013523,0.002678,0.000431,0.025974
104502000,0.0324,0.013523,0.002678,0.000431,0.027384
104503000,0.0324,0.013523,0.002678,0.000431,0.025034
104504000,0.0324,0.013523,0.002678,0.000431,0.022918
104505000,0.0324,0.013523,0.002678,0.000431,0.015044
104506000,0.0324,0.013523,0.002678,0.000431,0.015279
104507000,0.0324,0.013523,0.002678,0.000431,0.018922
104508000,0.0324,0.013523,0.002678,0.000431,0.014809
104509000,0.0324,0.013523,0.002678,0.000431,0.013751
104510000,0.0324,0.013523,0.002678,0.000431,0.013868
104511000,0.0324,0.013523,0.002678,0.000431,0.012576
104512000,0.0324,0.013523,0.002678,0.000431,0.009050
104513000,0.0324,0.013523,0.002678,0.000431,0.011400
104514000,0.0324,0.013523,0.002678,0.000431,0.010930
104515000,0.0324,0.013523,0.002678,0.000431,0.012340
104516000,0.0324,0.013523,0.002678,0.000431,0.006464
104517000,0.0324,0.013523,0.002678,0.000431,0.010813
104518000,0.0324,0.013523,0.002678,0.000431,0.005054
104519000,0.0324,0.013523,0.002678,0.000431,0.003291
104520000,0.0324,0.013523,0.002678,0.000431,0.003056
104521000,0.0324,0.013523,0.002678,0.000431,0.003173
104522000,0.0324,0.013523,0.002678,0.000431,0.003526
104523000,0.0324,0.013523,0.002678,0.000431,0.004701
104524000,0.0324,0.013523,0.002678,0.000431,0.004701
104525000,0.0324,0.013523,0.002678,0.000431,0.003056
104526000,0.0324,0.013523,0.002678,0.000431,0.002586
104527000,0.0324,0.013523,0.002678,0.000431,0.001528
104528000,0.0324,0.013523,0.002678,0.000431,0.001880
104529000,0.0324,0.013523,0.002678,0.000431,0.003408
104530000,0.0324,0.013523,0.002678,0.000431,0.000940
104531000,0.0324,0.013523,0.002678,0.000431,0.000940
104532000,0.0324,0.013523,0.002678,0.000431,0.000705
104533000,0.0324,0.013523,0.002678,0.000431,0.000940
104534000,0.0324,0.013523,0.002678,0.000431,0.000705
104535000,0.0324,0.013523,0.002678,0.000431,0.000940
104536000,0.0324,0.013523,0.002678,0.000431,0.000823
104537000,0.0324,0.013523,0.002678,0.000431,0.000823
104538000,0.0324,0.013523,0.002678,0.000431,0.000823
104539000,0.0324,0.013523,0.002678,0.000431,0.000823
104540000,0.0324,0.013523,0.002678,0.000431,0.000940
104541000,0.0324,0.013523,0.002678,0.000431,0.000705
104542000,0.0324,0.013523,0.002678,0.000431,0.000940
104543000,0.0324,0.013523,0.002678,0.000431,0.000823
104544000,0.0324,0.013523,0.002678,0.000431,0.000823
104545000,0.0324,0.013523,0.002678,0.000431,0.000705
104546000,0.0324,0.013523,0.002678,0.000431,0.000823
104547000,0.0324,0.013523,0.002678,0.000431,0.000940
104548000,0.0324,0.013523,0.002678,0.000431,0.000823
104549000,0.0324,0.013523,0.002678,0.000431,0.000823
104550000,0.0324,0.013523,0.002678,0.000431,0.000823
104551000,0.0324,0.013523,0.002678,0.000431,0.000705
104552000,0.0324,0.013523,0.002678,0.000431,0.000940
104553000,0.0324,0.013523,0.002678,0.000431,0.000940
104554000,0.0324,0.013523,0.002678,0.000431,0.000705
104555000,0.0324,0.013523,0.002678,0.000431,0.000940
104556000,0.0324,0.013523,0.002678,0.000431,0.000705
104557000,0.0324,0.013523,0.002678,0.000431,0.000940
104558000,0.0324,0.013523,0.002678,0.000431,0.000823
104559000,0.0324,0.013523,0.002678,0.000431,0.000823
104560000,0.0324,0.013523,0.002678,0.000431,0.000940
104561000,0.0324,0.013523,0.002678,0.000431,0.000705
104562000,0.0324,0.013523,0.002678,0.000431,0.000940
104563000,0.0324,0.013523,0.002678,0.000431,0.000940
104564000,0.0324,0.013523,0.002678,0.000431,0.000940
104565000,0.0324,0.013523,0.002678,0.000431,0.107538
104566000,0.0324,0.013523,0.002678,0.000431,0.635827
104567000,0.0324,0.013523,0.002678,0.000431,0.554615
104568000,0.0324,0.013523,0.002678,0.000431,0.141386
104569000,0.0324,0.013523,0.002678,0.000431,0.135980
104570000,0.0324,0.013523,0.002678,0.000431,0.604095
104571000,0.0324,0.013523,0.002678,0.000431,0.271843
104572000,0.0324,0.013523,0.002678,0.000431,0.280070
104573000,0.0324,0.013523,0.002678,0.000431,0.244459
104574000,0.0324,0.013523,0.002678,0.000431,0.150671
104575000,0.0324,0.013523,0.002678,0.000431,0.159603
104576000,0.0324,0.013523,0.002678,0.000431,0.150083
104577000,0.0324,0.013523,0.002678,0.000431,0.449780
104578000,0.0324,0.013523,0.002678,0.000431,0.129634
104579000,0.0324,0.013523,0.002678,0.000431,0.098254
104580000,0.0324,0.013523,0.002678,0.000431,0.088616
104581000,0.0324,0.013523,0.002678,0.000431,0.077569
104582000,0.0324,0.013523,0.002678,0.000431,0.068284
104583000,0.0324,0.013523,0.002678,0.000431,0.064405
104584000,0.0324,0.013523,0.002678,0.000431,0.062290
104585000,0.0324,0.013523,0.002678,0.000431,0.051830
104586000,0.0324,0.013523,0.002678,0.000431,0.046424
104587000,0.0324,0.013523,0.002678,0.000431,0.042193
104588000,0.0324,0.013523,0.002678,0.000431,0.040430
104589000,0.0324,0.013523,0.002678,0.000431,0.039607
104590000,0.0324,0.013523,0.002678,0.000431,0.033143
104591000,0.0324,0.013523,0.002678,0.000431,0.023976
104592000,0.0324,0.013523,0.002678,0.000431,0.019980
104593000,0.0324,0.013523,0.002678,0.000431,0.018805
104594000,0.0324,0.013523,0.002678,0.000431,0.016101
104595000,0.0324,0.013523,0.002678,0.000431,0.014809
104596000,0.0324,0.013523,0.002678,0.000431,0.013281
104597000,0.0324,0.013523,0.002678,0.000431,0.011988
104598000,0.0324,0.013523,0.002678,0.000431,0.008462
104599000,0.0324,0.013523,0.002678,0.000431,0.006111
104600000,0.0324,0.013523,0.002678,0.000431,0.007169
104601000,0.0324,0.013523,0.002678,0.000431,0.004113
104602000,0.0324,0.013523,0.002678,0.000431,0.006229
104603000,0.0324,0.013523,0.002678,0.000431,0.002703
104604000,0.0324,0.013523,0.002678,0.000431,0.002703
104605000,0.0324,0.013523,0.002678,0.000431,0.002233
104606000,0.0324,0.013523,0.002678,0.000431,0.002703
104607000,0.0324,0.013523,0.002678,0.000431,0.002351
104608000,0.0324,0.013523,0.002678,0.000431,0.004584
104609000,0.0324,0.013523,0.002678,0.000431,0.001880
104610000,0.0324,0.013523,0.002678,0.000431,0.004349
104611000,0.0324,0.013523,0.002678,0.000431,0.001058
104612000,0.0324,0.013523,0.002678,0.000431,0.000705
104613000,0.0324,0.013523,0.002678,0.000431,0.000940
104614000,0.0324,0.013523,0.002678,0.000431,0.000823
104615000,0.0324,0.013523,0.002678,0.000431,0.000823
104616000,0.0324,0.013523,0.002678,0.000431,0.000940
104617000,0.0324,0.013523,0.002678,0.000431,0.000940
104618000,0.0324,0.013523,0.002678,0.000431,0.000940
104619000,0.0324,0.013523,0.002678,0.000431,0.000940
104620000,0.0324,0.013523,0.002678,0.000431,0.000823
104621000,0.0324,0.013523,0.002678,0.000431,0.000823
104622000,0.0324,0.013523,0.002678,0.000431,0.000940
104623000,0.0324,0.013523,0.002678,0.000431,0.000823
104624000,0.0324,0.013523,0.002678,0.000431,0.000823
104625000,0.0324,0.013523,0.002678,0.000431,0.000940
104626000,0.0324,0.013523,0.002678,0.000431,0.000940
104627000,0.0324,0.013523,0.002678,0.000431,0.000940
104628000,0.0324,0.013523,0.002678,0.000431,0.000705
104629000,0.0324,0.013523,0.002678,0.000431,0.212608
104630000,0.0324,0.013523,0.002678,0.000431,0.576358
104631000,0.0324,0.013523,0.002678,0.000431,0.455069
104632000,0.0324,0.013523,0.002678,0.000431,0.133865
104633000,0.0324,0.013523,0.002678,0.000431,0.142679
104634000,0.0324,0.013523,0.002678,0.000431,0.611734
104635000,0.0324,0.013523,0.002678,0.000431,0.273723
104636000,0.0324,0.013523,0.002678,0.000431,0.255389
104637000,0.0324,0.013523,0.002678,0.000431,0.258444
104638000,0.0324,0.013523,0.002678,0.000431,0.143502
104639000,0.0324,0.013523,0.002678,0.000431,0.165127
104640000,0.0324,0.013523,0.002678,0.000431,0.135980
104641000,0.0324,0.013523,0.002678,0.000431,0.484451
104642000,0.0324,0.013523,0.002678,0.000431,0.206497
104643000,0.0324,0.013523,0.002678,0.000431,0.178173
104644000,0.0324,0.013523,0.002678,0.000431,0.153139
104645000,0.0324,0.013523,0.002678,0.000431,0.137038
104646000,0.0324,0.013523,0.002678,0.000431,0.125050
104647000,0.0324,0.013523,0.002678,0.000431,0.107303
104648000,0.0324,0.013523,0.002678,0.000431,0.102014
104649000,0.0324,0.013523,0.002678,0.000431,0.089792
104650000,0.0324,0.013523,0.002678,0.000431,0.082740
104651000,0.0324,0.013523,0.002678,0.000431,0.073573
104652000,0.0324,0.013523,0.002678,0.000431,0.066638
104653000,0.0324,0.013523,0.002678,0.000431,0.062407
104654000,0.0324,0.013523,0.002678,0.000431,0.056884
104655000,0.0324,0.013523,0.002678,0.000431,0.050890
104656000,0.0324,0.013523,0.002678,0.000431,0.050420
104657000,0.0324,0.013523,0.002678,0.000431,0.038079
104658000,0.0324,0.013523,0.002678,0.000431,0.041017
104659000,0.0324,0.013523,0.002678,0.000431,0.035023
104660000,0.0324,0.013523,0.002678,0.000431,0.030792
104661000,0.0324,0.013523,0.002678,0.000431,0.024798
104662000,0.0324,0.013523,0.002678,0.000431,0.028559
104663000,0.0324,0.013523,0.002678,0.000431,0.020215
104664000,0.0324,0.013523,0.002678,0.000431,0.022683
104665000,0.0324,0.013523,0.002678,0.000431,0.018805
104666000,0.0324,0.013523,0.002678,0.000431,0.023858
104667000,0.0324,0.013523,0.002678,0.000431,0.016101
104668000,0.0324,0.013523,0.002678,0.000431,0.020097
104669000,0.0324,0.013523,0.002678,0.000431,0.016336
104670000,0.0324,0.013523,0.002678,0.000431,0.010930
104671000,0.0324,0.013523,0.002678,0.000431,0.008227
104672000,0.0324,0.013523,0.002678,0.000431,0.012576
104673000,0.0324,0.013523,0.002678,0.000431,0.007522
104674000,0.0324,0.013523,0.002678,0.000431,0.010225
104675000,0.0324,0.013523,0.002678,0.000431,0.005406
104676000,0.0324,0.013523,0.002678,0.000431,0.005759
104677000,0.0324,0.013523,0.002678,0.000431,0.002586
104678000,0.0324,0.013523,0.002678,0.000431,0.002821
104679000,0.0324,0.013523,0.002678,0.000431,0.002116
104680000,0.0324,0.013523,0.002678,0.000431,0.002821
104681000,0.0324,0.013523,0.002678,0.000431,0.002233
104682000,0.0324,0.013523,0.002678,0.000431,0.002703
104683000,0.0324,0.013523,0.002678,0.000431,0.002703
104684000,0.0324,0.013523,0.002678,0.000431,0.002233
104685000,0.0324,0.013523,0.002678,0.000431,0.004819
104686000,0.0324,0.013523,0.002678,0.000431,0.004113
104687000,0.0324,0.013523,0.002678,0.000431,0.000940
104688000,0.0324,0.013523,0.002678,0.000431,0.000705
104689000,0.0324,0.013523,0.002678,0.000431,0.000940
104690000,0.0324,0.013523,0.002678,0.000431,0.000705
104691000,0.0324,0.013523,0.002678,0.000431,0.000940
104692000,0.0324,0.013523,0.002678,0.000431,0.000705
104693000,0.0324,0.013523,0.002678,0.000431,0.000940
104694000,0.0324,0.013523,0.002678,0.000431,0.000823
104695000,0.0324,0.013523,0.002678,0.000431,0.000823
104696000,0.0324,0.013523,0.002678,0.000431,0.000940
104697000,0.0324,0.013523,0.002678,0.000431,0.000705
104698000,0.0324,0.013523,0.002678,0.000431,0.000940
104699000,0.0324,0.013523,0.002678,0.000431,0.000823
104700000,0.0324,0.013523,0.002678,0.000431,0.000823
104701000,0.0324,0.013523,0.002678,0.000431,0.000705
104702000,0.0324,0.013523,0.002678,0.000431,0.012811
104703000,0.0324,0.013523,0.002678,0.000431,0.581647
104704000,0.0324,0.013523,0.002678,0.000431,0.641469
104705000,0.0324,0.013523,0.002678,0.000431,0.156430
104706000,0.0324,0.013523,0.002678,0.000431,0.130691
104707000,0.0324,0.013523,0.002678,0.000431,0.404179
104708000,0.0324,0.013523,0.002678,0.000431,0.451308
104709000,0.0324,0.013523,0.002678,0.000431,0.268904
104710000,0.0324,0.013523,0.002678,0.000431,0.281480
104711000,0.0324,0.013523,0.002678,0.000431,0.137508
104712000,0.0324,0.013523,0.002678,0.000431,0.149026
104713000,0.0324,0.013523,0.002678,0.000431,0.111182
104714000,0.0324,0.013523,0.002678,0.000431,0.438263
104715000,0.0324,0.013523,0.002678,0.000431,0.319089
104716000,0.0324,0.013523,0.002678,0.000431,0.208613
104717000,0.0324,0.013523,0.002678,0.000431,0.171944
104718000,0.0324,0.013523,0.002678,0.000431,0.169946
104719000,0.0324,0.013523,0.002678,0.000431,0.134452
104720000,0.0324,0.013523,0.002678,0.000431,0.128223
104721000,0.0324,0.013523,0.002678,0.000431,0.111887
104722000,0.0324,0.013523,0.002678,0.000431,0.106128
104723000,0.0324,0.013523,0.002678,0.000431,0.087558
104724000,0.0324,0.013523,0.002678,0.000431,0.091202
104725000,0.0324,0.013523,0.002678,0.000431,0.085208
104726000,0.0324,0.013523,0.002678,0.000431,0.071927
104727000,0.0324,0.013523,0.002678,0.000431,0.067814
104728000,0.0324,0.013523,0.002678,0.000431,0.061585
104729000,0.0324,0.013523,0.002678,0.000431,0.053005
104730000,0.0324,0.013523,0.002678,0.000431,0.051007
104731000,0.0324,0.013523,0.002678,0.000431,0.043250
104732000,0.0324,0.013523,0.002678,0.000431,0.039842
104733000,0.0324,0.013523,0.002678,0.000431,0.038197
104734000,0.0324,0.013523,0.002678,0.000431,0.032673
104735000,0.0324,0.013523,0.002678,0.000431,0.035729
104736000,0.0324,0.013523,0.002678,0.000431,0.024798
104737000,0.0324,0.013523,0.002678,0.000431,0.025386
104738000,0.0324,0.013523,0.002678,0.000431,0.030910
104739000,0.0324,0.013523,0.002678,0.000431,0.025856
104740000,0.0324,0.013523,0.002678,0.000431,0.017747
104741000,0.0324,0.013523,0.002678,0.000431,0.022918
104742000,0.0324,0.013523,0.002678,0.000431,0.017747
104743000,0.0324,0.013523,0.002678,0.000431,0.015279
104744000,0.0324,0.013523,0.002678,0.000431,0.017982
104745000,0.0324,0.013523,0.002678,0.000431,0.014926
104746000,0.0324,0.013523,0.002678,0.000431,0.015044
104747000,0.0324,0.013523,0.002678,0.000431,0.013986
104748000,0.0324,0.013523,0.002678,0.000431,0.015514
104749000,0.0324,0.013523,0.002678,0.000431,0.013986
104750000,0.0324,0.013523,0.002678,0.000431,0.010813
104751000,0.0324,0.013523,0.002678,0.000431,0.011400
104752000,0.0324,0.013523,0.002678,0.000431,0.011165
104753000,0.0324,0.013523,0.002678,0.000431,0.011870
104754000,0.0324,0.013523,0.002678,0.000431,0.011870
104755000,0.0324,0.013523,0.002678,0.000431,0.010813
104756000,0.0324,0.013523,0.002678,0.000431,0.008697
104757000,0.0324,0.013523,0.002678,0.000431,0.008462
104758000,0.0324,0.013523,0.002678,0.000431,0.008345
104759000,0.0324,0.013523,0.002678,0.000431,0.008580
104760000,0.0324,0.013523,0.002678,0.000431,0.009520
104761000,0.0324,0.013523,0.002678,0.000431,0.009872
104762000,0.0324,0.013523,0.002678,0.000431,0.009872
104763000,0.0324,0.013523,0.002678,0.000431,0.008345
104764000,0.0324,0.013523,0.002678,0.000431,0.008815
104765000,0.0324,0.013523,0.002678,0.000431,0.005759
104766000,0.0324,0.013523,0.002678,0.000431,0.003408
104767000,0.0324,0.013523,0.002678,0.000431,0.003408
104768000,0.0324,0.013523,0.002678,0.000431,0.005994
104769000,0.0324,0.013523,0.002678,0.000431,0.002468
104770000,0.0324,0.013523,0.002678,0.000431,0.002703
104771000,0.0324,0.013523,0.002678,0.000431,0.002351
104772000,0.0324,0.013523,0.002678,0.000431,0.002586
104773000,0.0324,0.013523,0.002678,0.000431,0.003878
104774000,0.0324,0.013523,0.002678,0.000431,0.001528
104775000,0.0324,0.013523,0.002678,0.000431,0.001880
104776000,0.0324,0.013523,0.002678,0.000431,0.001645
104777000,0.0324,0.013523,0.002678,0.000431,0.001645
104778000,0.0324,0.013523,0.002678,0.000431,0.001763
104779000,0.0324,0.013523,0.002678,0.000431,0.002821
104780000,0.0324,0.013523,0.002678,0.000431,0.002586
104781000,0.0324,0.013523,0.002678,0.000431,0.000823
104782000,0.0324,0.013523,0.002678,0.000431,0.000823
104783000,0.0324,0.013523,0.002678,0.000431,0.000940
104784000,0.0324,0.013523,0.002678,0.000431,0.000705
104785000,0.0324,0.013523,0.002678,0.000431,0.000940
104786000,0.0324,0.013523,0.002678,0.000431,0.000823
104787000,0.0324,0.013523,0.002678,0.000431,0.000823
104788000,0.0324,0.013523,0.002678,0.000431,0.000823
104789000,0.0324,0.013523,0.002678,0.000431,0.001880
104790000,0.0324,0.013523,0.002678,0.000431,0.485391
104791000,0.0324,0.013523,0.002678,0.000431,0.691418
104792000,0.0324,0.013523,0.002678,0.000431,0.237289
104793000,0.0324,0.013523,0.002678,0.000431,0.133394
104794000,0.0324,0.013523,0.002678,0.000431,0.250335
104795000,0.0324,0.013523,0.002678,0.000431,0.540395
104796000,0.0324,0.013523,0.002678,0.000431,0.242108
104797000,0.0324,0.013523,0.002678,0.000431,0.355053
104798000,0.0324,0.013523,0.002678,0.000431,0.157135
104799000,0.0324,0.013523,0.002678,0.000431,0.153139
104800000,0.0324,0.013523,0.002678,0.000431,0.115765
104801000,0.0324,0.013523,0.002678,0.000431,0.422279
104802000,0.0324,0.013523,0.002678,0.000431,0.272783
104803000,0.0324,0.013523,0.002678,0.000431,0.150319
104804000,0.0324,0.013523,0.002678,0.000431,0.136450
104805000,0.0324,0.013523,0.002678,0.000431,0.118586
104806000,0.0324,0.013523,0.002678,0.000431,0.092965
104807000,0.0324,0.013523,0.002678,0.000431,0.096608
104808000,0.0324,0.013523,0.002678,0.000431,0.063583
104809000,0.0324,0.013523,0.002678,0.000431,0.063818
104810000,0.0324,0.013523,0.002678,0.000431,0.050067
104811000,0.0324,0.013523,0.002678,0.000431,0.051477
104812000,0.0324,0.013523,0.002678,0.000431,0.034788
104813000,0.0324,0.013523,0.002678,0.000431,0.026091
104814000,0.0324,0.013523,0.002678,0.000431,0.027854
104815000,0.0324,0.013523,0.002678,0.000431,0.024916
104816000,0.0324,0.013523,0.002678,0.000431,0.024798
104817000,0.0324,0.013523,0.002678,0.000431,0.024681
104818000,0.0324,0.013523,0.002678,0.000431,0.021390
104819000,0.0324,0.013523,0.002678,0.000431,0.022800
104820000,0.0324,0.013523,0.002678,0.000431,0.020685
104821000,0.0324,0.013523,0.002678,0.000431,0.017512
104822000,0.0324,0.013523,0.002678,0.000431,0.015044
104823000,0.0324,0.013523,0.002678,0.000431,0.014691
104824000,0.0324,0.013523,0.002678,0.000431,0.017042
104825000,0.0324,0.013523,0.002678,0.000431,0.014338
104826000,0.0324,0.013523,0.002678,0.000431,0.010930
104827000,0.0324,0.013523,0.002678,0.000431,0.010107
104828000,0.0324,0.013523,0.002678,0.000431,0.013398
104829000,0.0324,0.013523,0.002678,0.000431,0.009520
104830000,0.0324,0.013523,0.002678,0.000431,0.011870
104831000,0.0324,0.013523,0.002678,0.000431,0.012811
104832000,0.0324,0.013523,0.002678,0.000431,0.008227
104833000,0.0324,0.013523,0.002678,0.000431,0.010107
104834000,0.0324,0.013523,0.002678,0.000431,0.009755
104835000,0.0324,0.013523,0.002678,0.000431,0.006464
104836000,0.0324,0.013523,0.002678,0.000431,0.006229
104837000,0.0324,0.013523,0.002678,0.000431,0.006111
104838000,0.0324,0.013523,0.002678,0.000431,0.007052
104839000,0.0324,0.013523,0.002678,0.000431,0.005641
104840000,0.0324,0.013523,0.002678,0.000431,0.009872
104841000,0.0324,0.013523,0.002678,0.000431,0.003878
104842000,0.0324,0.013523,0.002678,0.000431,0.004466
104843000,0.0324,0.013523,0.002678,0.000431,0.003291
104844000,0.0324,0.013523,0.002678,0.000431,0.003878
104845000,0.0324,0.013523,0.002678,0.000431,0.004349
104846000,0.0324,0.013523,0.002678,0.000431,0.003408
104847000,0.0324,0.013523,0.002678,0.000431,0.003526
104848000,0.0324,0.013523,0.002678,0.000431,0.002821
104849000,0.0324,0.013523,0.002678,0.000431,0.002703
104850000,0.0324,0.013523,0.002678,0.000431,0.003173
104851000,0.0324,0.013523,0.002678,0.000431,0.002468
104852000,0.0324,0.013523,0.002678,0.000431,0.002703
104853000,0.0324,0.013523,0.002678,0.000431,0.003056
104854000,0.0324,0.013523,0.002678,0.000431,0.003643
104855000,0.0324,0.013523,0.002678,0.000431,0.001880
104856000,0.0324,0.013523,0.002678,0.000431,0.004349
104857000,0.0324,0.013523,0.002678,0.000431,0.000940
104858000,0.0324,0.013523,0.002678,0.000431,0.000705
104859000,0.0324,0.013523,0.002678,0.000431,0.000940
104860000,0.0324,0.013523,0.002678,0.000431,0.000823
104861000,0.0324,0.013523,0.002678,0.000431,0.000823
104862000,0.0324,0.013523,0.002678,0.000431,0.000823
104863000,0.0324,0.013523,0.002678,0.000431,0.000823
104864000,0.0324,0.013523,0.002678,0.000431,0.000940
104865000,0.0324,0.013523,0.002678,0.000431,0.000705
104866000,0.0324,0.013523,0.002678,0.000431,0.000940
104867000,0.0324,0.013523,0.002678,0.000431,0.073338
104868000,0.0324,0.013523,0.002678,0.000431,0.637708
104869000,0.0324,0.013523,0.002678,0.000431,0.565428
104870000,0.0324,0.013523,0.002678,0.000431,0.145735
104871000,0.0324,0.013523,0.002678,0.000431,0.136803
104872000,0.0324,0.013523,0.002678,0.000431,0.595163
104873000,0.0324,0.013523,0.002678,0.000431,0.224244
104874000,0.0324,0.013523,0.002678,0.000431,0.279129
104875000,0.0324,0.013523,0.002678,0.000431,0.296641
104876000,0.0324,0.013523,0.002678,0.000431,0.147615
104877000,0.0324,0.013523,0.002678,0.000431,0.172296
104878000,0.0324,0.013523,0.002678,0.000431,0.095315
104879000,0.0324,0.013523,0.002678,0.000431,0.485156
104880000,0.0324,0.013523,0.002678,0.000431,0.231060
104881000,0.0324,0.013523,0.002678,0.000431,0.171826
104882000,0.0324,0.013523,0.002678,0.000431,0.144090
104883000,0.0324,0.013523,0.002678,0.000431,0.136215
104884000,0.0324,0.013523,0.002678,0.000431,0.114472
104885000,0.0324,0.013523,0.002678,0.000431,0.100487
104886000,0.0324,0.013523,0.002678,0.000431,0.096843
104887000,0.0324,0.013523,0.002678,0.000431,0.089204
104888000,0.0324,0.013523,0.002678,0.000431,0.069224
104889000,0.0324,0.013523,0.002678,0.000431,0.062290
104890000,0.0324,0.013523,0.002678,0.000431,0.064288
104891000,0.0324,0.013523,0.002678,0.000431,0.049127
104892000,0.0324,0.013523,0.002678,0.000431,0.048187
104893000,0.0324,0.013523,0.002678,0.000431,0.034553
104894000,0.0324,0.013523,0.002678,0.000431,0.043603
104895000,0.0324,0.013523,0.002678,0.000431,0.023506
104896000,0.0324,0.013523,0.002678,0.000431,0.026209
104897000,0.0324,0.013523,0.002678,0.000431,0.020567
104898000,0.0324,0.013523,0.002678,0.000431,0.017394
104899000,0.0324,0.013523,0.002678,0.000431,0.015396
104900000,0.0324,0.013523,0.002678,0.000431,0.020920
104901000,0.0324,0.013523,0.002678,0.000431,0.012223
104902000,0.0324,0.013523,0.002678,0.000431,0.006347
104903000,0.0324,0.013523,0.002678,0.000431,0.007757
104904000,0.0324,0.013523,0.002678,0.000431,0.005994
104905000,0.0324,0.013523,0.002678,0.000431,0.004584
104906000,0.0324,0.013523,0.002678,0.000431,0.005289
104907000,0.0324,0.013523,0.002678,0.000431,0.004701
104908000,0.0324,0.013523,0.002678,0.000431,0.005641
104909000,0.0324,0.013523,0.002678,0.000431,0.004584
104910000,0.0324,0.013523,0.002678,0.000431,0.005054
104911000,0.0324,0.013523,0.002678,0.000431,0.006817
104912000,0.0324,0.013523,0.002678,0.000431,0.004231
104913000,0.0324,0.013523,0.002678,0.000431,0.004466
104914000,0.0324,0.013523,0.002678,0.000431,0.003761
104915000,0.0324,0.013523,0.002678,0.000431,0.007052
104916000,0.0324,0.013523,0.002678,0.000431,0.005759
104917000,0.0324,0.013523,0.002678,0.000431,0.002468
104918000,0.0324,0.013523,0.002678,0.000431,0.002586
104919000,0.0324,0.013523,0.002678,0.000431,0.002468
104920000,0.0324,0.013523,0.002678,0.000431,0.002233
104921000,0.0324,0.013523,0.002678,0.000431,0.002586
104922000,0.0324,0.013523,0.002678,0.000431,0.002586
104923000,0.0324,0.013523,0.002678,0.000431,0.002468
104924000,0.0324,0.013523,0.002678,0.000431,0.002586
104925000,0.0324,0.013523,0.002678,0.000431,0.002468
104926000,0.0324,0.013523,0.002678,0.000431,0.002233
104927000,0.0324,0.013523,0.002678,0.000431,0.002821
104928000,0.0324,0.013523,0.002678,0.000431,0.005406
104929000,0.0324,0.013523,0.002678,0.000431,0.001763
104930000,0.0324,0.013523,0.002678,0.000431,0.001528
104931000,0.0324,0.013523,0.002678,0.000431,0.001528
104932000,0.0324,0.013523,0.002678,0.000431,0.001880
104933000,0.0324,0.013523,0.002678,0.000431,0.001528
104934000,0.0324,0.013523,0.002678,0.000431,0.000823
104935000,0.0324,0.013523,0.002678,0.000431,0.000823
104936000,0.0324,0.013523,0.002678,0.000431,0.000940
104937000,0.0324,0.013523,0.002678,0.000431,0.000823
104938000,0.0324,0.013523,0.002678,0.000431,0.000940
104939000,0.0324,0.013523,0.002678,0.000431,0.000823
104940000,0.0324,0.013523,0.002678,0.000431,0.000940
104941000,0.0324,0.013523,0.002678,0.000431,0.000705
104942000,0.0324,0.013523,0.002678,0.000431,0.000940
104943000,0.0324,0.013523,0.002678,0.000431,0.000823
104944000,0.0324,0.013523,0.002678,0.000431,0.000823
104945000,0.0324,0.013523,0.002678,0.000431,0.000940
104946000,0.0324,0.013523,0.002678,0.000431,0.000823
104947000,0.0324,0.013523,0.002678,0.000431,0.000823
104948000,0.0324,0.013523,0.002678,0.000431,0.000940
104949000,0.0324,0.013523,0.002678,0.000431,0.000705
104950000,0.0324,0.013523,0.002678,0.000431,0.000940
104951000,0.0324,0.013523,0.002678,0.000431,0.000823
104952000,0.0324,0.013523,0.002678,0.000431,0.000823
104953000,0.0324,0.013523,0.002678,0.000431,0.000940
104954000,0.0324,0.013523,0.002678,0.000431,0.000823
104955000,0.0324,0.013523,0.002678,0.000431,0.000823
104956000,0.0324,0.013523,0.002678,0.000431,0.000940
104957000,0.0324,0.013523,0.002678,0.000431,0.000705
104958000,0.0324,0.013523,0.002678,0.000431,0.000940
104959000,0.0324,0.013523,0.002678,0.000431,0.000823
104960000,0.0324,0.013523,0.002678,0.000431,0.000823
104961000,0.0324,0.013523,0.002678,0.000431,0.000940
104962000,0.0324,0.013523,0.002678,0.000431,0.000823
104963000,0.0324,0.013523,0.002678,0.000431,0.000823
104964000,0.0324,0.013523,0.002678,0.000431,0.000823
104965000,0.0324,0.013523,0.002678,0.000431,0.000823
104966000,0.0324,0.013523,0.002678,0.000431,0.000940
104967000,0.0324,0.013523,0.002678,0.000431,0.000823
104968000,0.0324,0.013523,0.002678,0.000431,0.000823
104969000,0.0324,0.013523,0.002678,0.000431,0.070752
104970000,0.0324,0.013523,0.002678,0.000431,0.606328
104971000,0.0324,0.013523,0.002678,0.000431,0.609619
104972000,0.0324,0.013523,0.002678,0.000431,0.135510
104973000,0.0324,0.013523,0.002678,0.000431,0.141621
104974000,0.0324,0.013523,0.002678,0.000431,0.670498
104975000,0.0324,0.013523,0.002678,0.000431,0.269727
104976000,0.0324,0.013523,0.002678,0.000431,0.277484
104977000,0.0324,0.013523,0.002678,0.000431,0.253626
104978000,0.0324,0.013523,0.002678,0.000431,0.145852
104979000,0.0324,0.013523,0.002678,0.000431,0.112710
104980000,0.0324,0.013523,0.002678,0.000431,0.345885
104981000,0.0324,0.013523,0.002678,0.000431,0.379851
104982000,0.0324,0.013523,0.002678,0.000431,0.175352
104983000,0.0324,0.013523,0.002678,0.000431,0.151611
104984000,0.0324,0.013523,0.002678,0.000431,0.131044
104985000,0.0324,0.013523,0.002678,0.000431,0.113415
104986000,0.0324,0.013523,0.002678,0.000431,0.083563
104987000,0.0324,0.013523,0.002678,0.000431,0.081212
104988000,0.0324,0.013523,0.002678,0.000431,0.073690
104989000,0.0324,0.013523,0.002678,0.000431,0.078274
104990000,0.0324,0.013523,0.002678,0.000431,0.059469
104991000,0.0324,0.013523,0.002678,0.000431,0.060409
104992000,0.0324,0.013523,0.002678,0.000431,0.053240
104993000,0.0324,0.013523,0.002678,0.000431,0.037727
104994000,0.0324,0.013523,0.002678,0.000431,0.028089
104995000,0.0324,0.013523,0.002678,0.000431,0.031380
104996000,0.0324,0.013523,0.002678,0.000431,0.026209
104997000,0.0324,0.013523,0.002678,0.000431,0.030205
104998000,0.0324,0.013523,0.002678,0.000431,0.023741
104999000,0.0324,0.013523,0.002678,0.000431,0.027031
