Cycle,Area(mm^2),PeakDynamic(W),SubthresholdLeakage(W),GateLeakage(W),RunTimeDynamic(W)
7000000,0.0324,0.013523,0.002678,0.000431,0.576358
7001000,0.0324,0.013523,0.002678,0.000431,0.133630
7002000,0.0324,0.013523,0.002678,0.000431,0.133630
7003000,0.0324,0.013523,0.002678,0.000431,0.548269
7004000,0.0324,0.013523,0.002678,0.000431,0.261970
7005000,0.0324,0.013523,0.002678,0.000431,0.253743
7006000,0.0324,0.013523,0.002678,0.000431,0.287239
7007000,0.0324,0.013523,0.002678,0.000431,0.147380
7008000,0.0324,0.013523,0.002678,0.000431,0.179113
7009000,0.0324,0.013523,0.002678,0.000431,0.095550
7010000,0.0324,0.013523,0.002678,0.000431,0.513598
7011000,0.0324,0.013523,0.002678,0.000431,0.115060
7012000,0.0324,0.013523,0.002678,0.000431,0.067696
7013000,0.0324,0.013523,0.002678,0.000431,0.047716
7014000,0.0324,0.013523,0.002678,0.000431,0.034318
7015000,0.0324,0.013523,0.002678,0.000431,0.025151
7016000,0.0324,0.013523,0.002678,0.000431,0.016924
7017000,0.0324,0.013523,0.002678,0.000431,0.007169
7018000,0.0324,0.013523,0.002678,0.000431,0.007522
7019000,0.0324,0.013523,0.002678,0.000431,0.003996
7020000,0.0324,0.013523,0.002678,0.000431,0.003408
7021000,0.0324,0.013523,0.002678,0.000431,0.000823
7022000,0.0324,0.013523,0.002678,0.000431,0.000940
7023000,0.0324,0.013523,0.002678,0.000431,0.000823
7024000,0.0324,0.013523,0.002678,0.000431,0.000940
7025000,0.0324,0.013523,0.002678,0.000431,0.000823
7026000,0.0324,0.013523,0.002678,0.000431,0.000940
7027000,0.0324,0.013523,0.002678,0.000431,0.000823
7028000,0.0324,0.013523,0.002678,0.000431,0.000823
7029000,0.0324,0.013523,0.002678,0.000431,0.000940
7030000,0.0324,0.013523,0.002678,0.000431,0.000940
7031000,0.0324,0.013523,0.002678,0.000431,0.000823
7032000,0.0324,0.013523,0.002678,0.000431,0.000940
7033000,0.0324,0.013523,0.002678,0.000431,0.000823
7034000,0.0324,0.013523,0.002678,0.000431,0.000940
7035000,0.0324,0.013523,0.002678,0.000431,0.000940
7036000,0.0324,0.013523,0.002678,0.000431,0.000705
7037000,0.0324,0.013523,0.002678,0.000431,0.000940
7038000,0.0324,0.013523,0.002678,0.000431,0.000940
7039000,0.0324,0.013523,0.002678,0.000431,0.000940
7040000,0.0324,0.013523,0.002678,0.000431,0.000705
7041000,0.0324,0.013523,0.002678,0.000431,0.000940
7042000,0.0324,0.013523,0.002678,0.000431,0.000940
7043000,0.0324,0.013523,0.002678,0.000431,0.000823
7044000,0.0324,0.013523,0.002678,0.000431,0.000823
7045000,0.0324,0.013523,0.002678,0.000431,0.000940
7046000,0.0324,0.013523,0.002678,0.000431,0.000940
7047000,0.0324,0.013523,0.002678,0.000431,0.000823
7048000,0.0324,0.013523,0.002678,0.000431,0.000823
7049000,0.0324,0.013523,0.002678,0.000431,0.000940
7050000,0.0324,0.013523,0.002678,0.000431,0.000823
7051000,0.0324,0.013523,0.002678,0.000431,0.000940
7052000,0.0324,0.013523,0.002678,0.000431,0.000823
7053000,0.0324,0.013523,0.002678,0.000431,0.221776
7054000,0.0324,0.013523,0.002678,0.000431,0.573890
7055000,0.0324,0.013523,0.002678,0.000431,0.449780
7056000,0.0324,0.013523,0.002678,0.000431,0.133982
7057000,0.0324,0.013523,0.002678,0.000431,0.133394
7058000,0.0324,0.013523,0.002678,0.000431,0.565311
7059000,0.0324,0.013523,0.002678,0.000431,0.232588
7060000,0.0324,0.013523,0.002678,0.000431,0.282420
7061000,0.0324,0.013523,0.002678,0.000431,0.192394
7062000,0.0324,0.013523,0.002678,0.000431,0.153022
7063000,0.0324,0.013523,0.002678,0.000431,0.165127
7064000,0.0324,0.013523,0.002678,0.000431,0.188633
7065000,0.0324,0.013523,0.002678,0.000431,0.437792
7066000,0.0324,0.013523,0.002678,0.000431,0.079449
7067000,0.0324,0.013523,0.002678,0.000431,0.058882
7068000,0.0324,0.013523,0.002678,0.000431,0.047246
7069000,0.0324,0.013523,0.002678,0.000431,0.025386
7070000,0.0324,0.013523,0.002678,0.000431,0.022213
7071000,0.0324,0.013523,0.002678,0.000431,0.014809
7072000,0.0324,0.013523,0.002678,0.000431,0.012458
7073000,0.0324,0.013523,0.002678,0.000431,0.009755
7074000,0.0324,0.013523,0.002678,0.000431,0.010342
7075000,0.0324,0.013523,0.002678,0.000431,0.010695
7076000,0.0324,0.013523,0.002678,0.000431,0.006699
7077000,0.0324,0.013523,0.002678,0.000431,0.007874
7078000,0.0324,0.013523,0.002678,0.000431,0.006229
7079000,0.0324,0.013523,0.002678,0.000431,0.003526
7080000,0.0324,0.013523,0.002678,0.000431,0.003408
7081000,0.0324,0.013523,0.002678,0.000431,0.003643
7082000,0.0324,0.013523,0.002678,0.000431,0.003173
7083000,0.0324,0.013523,0.002678,0.000431,0.007169
7084000,0.0324,0.013523,0.002678,0.000431,0.001645
7085000,0.0324,0.013523,0.002678,0.000431,0.003408
7086000,0.0324,0.013523,0.002678,0.000431,0.000823
7087000,0.0324,0.013523,0.002678,0.000431,0.000823
7088000,0.0324,0.013523,0.002678,0.000431,0.000823
7089000,0.0324,0.013523,0.002678,0.000431,0.000823
7090000,0.0324,0.013523,0.002678,0.000431,0.000823
7091000,0.0324,0.013523,0.002678,0.000431,0.000940
7092000,0.0324,0.013523,0.002678,0.000431,0.000823
7093000,0.0324,0.013523,0.002678,0.000431,0.000823
7094000,0.0324,0.013523,0.002678,0.000431,0.000823
7095000,0.0324,0.013523,0.002678,0.000431,0.000705
7096000,0.0324,0.013523,0.002678,0.000431,0.000940
7097000,0.0324,0.013523,0.002678,0.000431,0.000940
7098000,0.0324,0.013523,0.002678,0.000431,0.000705
7099000,0.0324,0.013523,0.002678,0.000431,0.000940
7100000,0.0324,0.013523,0.002678,0.000431,0.000705
7101000,0.0324,0.013523,0.002678,0.000431,0.000940
7102000,0.0324,0.013523,0.002678,0.000431,0.007404
7103000,0.0324,0.013523,0.002678,0.000431,0.521355
7104000,0.0324,0.013523,0.002678,0.000431,0.613380
7105000,0.0324,0.013523,0.002678,0.000431,0.134805
7106000,0.0324,0.013523,0.002678,0.000431,0.132219
7107000,0.0324,0.013523,0.002678,0.000431,0.495146
7108000,0.0324,0.013523,0.002678,0.000431,0.264086
7109000,0.0324,0.013523,0.002678,0.000431,0.303928
7110000,0.0324,0.013523,0.002678,0.000431,0.267847
7111000,0.0324,0.013523,0.002678,0.000431,0.141621
7112000,0.0324,0.013523,0.002678,0.000431,0.165950
7113000,0.0324,0.013523,0.002678,0.000431,0.105775
7114000,0.0324,0.013523,0.002678,0.000431,0.466587
7115000,0.0324,0.013523,0.002678,0.000431,0.154197
7116000,0.0324,0.013523,0.002678,0.000431,0.062995
7117000,0.0324,0.013523,0.002678,0.000431,0.050420
7118000,0.0324,0.013523,0.002678,0.000431,0.033731
7119000,0.0324,0.013523,0.002678,0.000431,0.027031
7120000,0.0324,0.013523,0.002678,0.000431,0.013516
7121000,0.0324,0.013523,0.002678,0.000431,0.011870
7122000,0.0324,0.013523,0.002678,0.000431,0.006347
7123000,0.0324,0.013523,0.002678,0.000431,0.007287
7124000,0.0324,0.013523,0.002678,0.000431,0.007052
7125000,0.0324,0.013523,0.002678,0.000431,0.004231
7126000,0.0324,0.013523,0.002678,0.000431,0.004466
7127000,0.0324,0.013523,0.002678,0.000431,0.007757
7128000,0.0324,0.013523,0.002678,0.000431,0.002821
7129000,0.0324,0.013523,0.002678,0.000431,0.002586
7130000,0.0324,0.013523,0.002678,0.000431,0.002821
7131000,0.0324,0.013523,0.002678,0.000431,0.002468
7132000,0.0324,0.013523,0.002678,0.000431,0.002586
7133000,0.0324,0.013523,0.002678,0.000431,0.002703
7134000,0.0324,0.013523,0.002678,0.000431,0.003643
7135000,0.0324,0.013523,0.002678,0.000431,0.001763
7136000,0.0324,0.013523,0.002678,0.000431,0.001528
7137000,0.0324,0.013523,0.002678,0.000431,0.001880
7138000,0.0324,0.013523,0.002678,0.000431,0.003996
7139000,0.0324,0.013523,0.002678,0.000431,0.000940
7140000,0.0324,0.013523,0.002678,0.000431,0.000823
7141000,0.0324,0.013523,0.002678,0.000431,0.000940
7142000,0.0324,0.013523,0.002678,0.000431,0.000940
7143000,0.0324,0.013523,0.002678,0.000431,0.000823
7144000,0.0324,0.013523,0.002678,0.000431,0.000823
7145000,0.0324,0.013523,0.002678,0.000431,0.000940
7146000,0.0324,0.013523,0.002678,0.000431,0.000823
7147000,0.0324,0.013523,0.002678,0.000431,0.000940
7148000,0.0324,0.013523,0.002678,0.000431,0.000823
7149000,0.0324,0.013523,0.002678,0.000431,0.000940
7150000,0.0324,0.013523,0.002678,0.000431,0.000823
7151000,0.0324,0.013523,0.002678,0.000431,0.000823
7152000,0.0324,0.013523,0.002678,0.000431,0.000940
7153000,0.0324,0.013523,0.002678,0.000431,0.000940
7154000,0.0324,0.013523,0.002678,0.000431,0.000823
7155000,0.0324,0.013523,0.002678,0.000431,0.000823
7156000,0.0324,0.013523,0.002678,0.000431,0.000940
7157000,0.0324,0.013523,0.002678,0.000431,0.000940
7158000,0.0324,0.013523,0.002678,0.000431,0.018569
7159000,0.0324,0.013523,0.002678,0.000431,0.565193
7160000,0.0324,0.013523,0.002678,0.000431,0.576711
7161000,0.0324,0.013523,0.002678,0.000431,0.131632
7162000,0.0324,0.013523,0.002678,0.000431,0.134452
7163000,0.0324,0.013523,0.002678,0.000431,0.555086
7164000,0.0324,0.013523,0.002678,0.000431,0.259267
7165000,0.0324,0.013523,0.002678,0.000431,0.279952
7166000,0.0324,0.013523,0.002678,0.000431,0.276544
7167000,0.0324,0.013523,0.002678,0.000431,0.139153
7168000,0.0324,0.013523,0.002678,0.000431,0.168535
7169000,0.0324,0.013523,0.002678,0.000431,0.155372
7170000,0.0324,0.013523,0.002678,0.000431,0.478340
7171000,0.0324,0.013523,0.002678,0.000431,0.085678
7172000,0.0324,0.013523,0.002678,0.000431,0.060057
7173000,0.0324,0.013523,0.002678,0.000431,0.045131
7174000,0.0324,0.013523,0.002678,0.000431,0.032203
7175000,0.0324,0.013523,0.002678,0.000431,0.024798
7176000,0.0324,0.013523,0.002678,0.000431,0.023976
7177000,0.0324,0.013523,0.002678,0.000431,0.025856
7178000,0.0324,0.013523,0.002678,0.000431,0.011400
7179000,0.0324,0.013523,0.002678,0.000431,0.006699
7180000,0.0324,0.013523,0.002678,0.000431,0.008345
7181000,0.0324,0.013523,0.002678,0.000431,0.004231
7182000,0.0324,0.013523,0.002678,0.000431,0.004819
7183000,0.0324,0.013523,0.002678,0.000431,0.003996
7184000,0.0324,0.013523,0.002678,0.000431,0.003291
7185000,0.0324,0.013523,0.002678,0.000431,0.003408
7186000,0.0324,0.013523,0.002678,0.000431,0.000823
7187000,0.0324,0.013523,0.002678,0.000431,0.000940
7188000,0.0324,0.013523,0.002678,0.000431,0.000823
7189000,0.0324,0.013523,0.002678,0.000431,0.001763
7190000,0.0324,0.013523,0.002678,0.000431,0.277602
7191000,0.0324,0.013523,0.002678,0.000431,0.708107
7192000,0.0324,0.013523,0.002678,0.000431,0.272548
7193000,0.0324,0.013523,0.002678,0.000431,0.134805
7194000,0.0324,0.013523,0.002678,0.000431,0.266319
7195000,0.0324,0.013523,0.002678,0.000431,0.532520
7196000,0.0324,0.013523,0.002678,0.000431,0.231178
7197000,0.0324,0.013523,0.002678,0.000431,0.307689
7198000,0.0324,0.013523,0.002678,0.000431,0.149496
7199000,0.0324,0.013523,0.002678,0.000431,0.159603
7200000,0.0324,0.013523,0.002678,0.000431,0.105893
7201000,0.0324,0.013523,0.002678,0.000431,0.461181
7202000,0.0324,0.013523,0.002678,0.000431,0.171121
7203000,0.0324,0.013523,0.002678,0.000431,0.073690
7204000,0.0324,0.013523,0.002678,0.000431,0.046306
7205000,0.0324,0.013523,0.002678,0.000431,0.029735
7206000,0.0324,0.013523,0.002678,0.000431,0.024211
7207000,0.0324,0.013523,0.002678,0.000431,0.024211
7208000,0.0324,0.013523,0.002678,0.000431,0.007992
7209000,0.0324,0.013523,0.002678,0.000431,0.004936
7210000,0.0324,0.013523,0.002678,0.000431,0.004584
7211000,0.0324,0.013523,0.002678,0.000431,0.004349
7212000,0.0324,0.013523,0.002678,0.000431,0.004819
7213000,0.0324,0.013523,0.002678,0.000431,0.003408
7214000,0.0324,0.013523,0.002678,0.000431,0.002703
7215000,0.0324,0.013523,0.002678,0.000431,0.004231
7216000,0.0324,0.013523,0.002678,0.000431,0.003996
7217000,0.0324,0.013523,0.002678,0.000431,0.000823
7218000,0.0324,0.013523,0.002678,0.000431,0.001058
7219000,0.0324,0.013523,0.002678,0.000431,0.235056
7220000,0.0324,0.013523,0.002678,0.000431,0.688833
7221000,0.0324,0.013523,0.002678,0.000431,0.314976
7222000,0.0324,0.013523,0.002678,0.000431,0.133982
7223000,0.0324,0.013523,0.002678,0.000431,0.168653
7224000,0.0324,0.013523,0.002678,0.000431,0.550737
7225000,0.0324,0.013523,0.002678,0.000431,0.247632
7226000,0.0324,0.013523,0.002678,0.000431,0.360812
7227000,0.0324,0.013523,0.002678,0.000431,0.193334
7228000,0.0324,0.013523,0.002678,0.000431,0.149026
7229000,0.0324,0.013523,0.002678,0.000431,0.115295
7230000,0.0324,0.013523,0.002678,0.000431,0.438263
7231000,0.0324,0.013523,0.002678,0.000431,0.173119
7232000,0.0324,0.013523,0.002678,0.000431,0.055473
7233000,0.0324,0.013523,0.002678,0.000431,0.045248
7234000,0.0324,0.013523,0.002678,0.000431,0.034671
7235000,0.0324,0.013523,0.002678,0.000431,0.019040
7236000,0.0324,0.013523,0.002678,0.000431,0.023506
7237000,0.0324,0.013523,0.002678,0.000431,0.013868
7238000,0.0324,0.013523,0.002678,0.000431,0.014691
7239000,0.0324,0.013523,0.002678,0.000431,0.011988
7240000,0.0324,0.013523,0.002678,0.000431,0.011283
7241000,0.0324,0.013523,0.002678,0.000431,0.007404
7242000,0.0324,0.013523,0.002678,0.000431,0.004936
7243000,0.0324,0.013523,0.002678,0.000431,0.003761
7244000,0.0324,0.013523,0.002678,0.000431,0.004819
7245000,0.0324,0.013523,0.002678,0.000431,0.003761
7246000,0.0324,0.013523,0.002678,0.000431,0.000823
7247000,0.0324,0.013523,0.002678,0.000431,0.000940
7248000,0.0324,0.013523,0.002678,0.000431,0.000823
7249000,0.0324,0.013523,0.002678,0.000431,0.000940
7250000,0.0324,0.013523,0.002678,0.000431,0.000823
7251000,0.0324,0.013523,0.002678,0.000431,0.001763
7252000,0.0324,0.013523,0.002678,0.000431,0.391604
7253000,0.0324,0.013523,0.002678,0.000431,0.696942
7254000,0.0324,0.013523,0.002678,0.000431,0.139623
7255000,0.0324,0.013523,0.002678,0.000431,0.135863
7256000,0.0324,0.013523,0.002678,0.000431,0.220953
7257000,0.0324,0.013523,0.002678,0.000431,0.566368
7258000,0.0324,0.013523,0.002678,0.000431,0.243283
7259000,0.0324,0.013523,0.002678,0.000431,0.295113
7260000,0.0324,0.013523,0.002678,0.000431,0.166185
7261000,0.0324,0.013523,0.002678,0.000431,0.156195
7262000,0.0324,0.013523,0.002678,0.000431,0.131867
7263000,0.0324,0.013523,0.002678,0.000431,0.271608
7264000,0.0324,0.013523,0.002678,0.000431,0.366100
7265000,0.0324,0.013523,0.002678,0.000431,0.083915
7266000,0.0324,0.013523,0.002678,0.000431,0.053828
7267000,0.0324,0.013523,0.002678,0.000431,0.034083
7268000,0.0324,0.013523,0.002678,0.000431,0.029147
7269000,0.0324,0.013523,0.002678,0.000431,0.019510
7270000,0.0324,0.013523,0.002678,0.000431,0.012576
7271000,0.0324,0.013523,0.002678,0.000431,0.012458
7272000,0.0324,0.013523,0.002678,0.000431,0.011400
7273000,0.0324,0.013523,0.002678,0.000431,0.004819
7274000,0.0324,0.013523,0.002678,0.000431,0.003996
7275000,0.0324,0.013523,0.002678,0.000431,0.004113
7276000,0.0324,0.013523,0.002678,0.000431,0.005759
7277000,0.0324,0.013523,0.002678,0.000431,0.003996
7278000,0.0324,0.013523,0.002678,0.000431,0.000705
7279000,0.0324,0.013523,0.002678,0.000431,0.000940
7280000,0.0324,0.013523,0.002678,0.000431,0.000705
7281000,0.0324,0.013523,0.002678,0.000431,0.000940
7282000,0.0324,0.013523,0.002678,0.000431,0.000823
7283000,0.0324,0.013523,0.002678,0.000431,0.000823
7284000,0.0324,0.013523,0.002678,0.000431,0.000705
7285000,0.0324,0.013523,0.002678,0.000431,0.000940
7286000,0.0324,0.013523,0.002678,0.000431,0.000940
7287000,0.0324,0.013523,0.002678,0.000431,0.000940
7288000,0.0324,0.013523,0.002678,0.000431,0.199328
7289000,0.0324,0.013523,0.002678,0.000431,0.514186
7290000,0.0324,0.013523,0.002678,0.000431,0.507017
7291000,0.0324,0.013523,0.002678,0.000431,0.133512
7292000,0.0324,0.013523,0.002678,0.000431,0.162306
7293000,0.0324,0.013523,0.002678,0.000431,0.634065
7294000,0.0324,0.013523,0.002678,0.000431,0.235997
7295000,0.0324,0.013523,0.002678,0.000431,0.324495
7296000,0.0324,0.013523,0.002678,0.000431,0.179113
7297000,0.0324,0.013523,0.002678,0.000431,0.157840
7298000,0.0324,0.013523,0.002678,0.000431,0.109066
7299000,0.0324,0.013523,0.002678,0.000431,0.440731
7300000,0.0324,0.013523,0.002678,0.000431,0.171709
7301000,0.0324,0.013523,0.002678,0.000431,0.063465
7302000,0.0324,0.013523,0.002678,0.000431,0.047716
7303000,0.0324,0.013523,0.002678,0.000431,0.040312
7304000,0.0324,0.013523,0.002678,0.000431,0.023858
7305000,0.0324,0.013523,0.002678,0.000431,0.017747
7306000,0.0324,0.013523,0.002678,0.000431,0.016336
7307000,0.0324,0.013523,0.002678,0.000431,0.012458
7308000,0.0324,0.013523,0.002678,0.000431,0.006817
7309000,0.0324,0.013523,0.002678,0.000431,0.006229
7310000,0.0324,0.013523,0.002678,0.000431,0.007874
7311000,0.0324,0.013523,0.002678,0.000431,0.006347
7312000,0.0324,0.013523,0.002678,0.000431,0.004113
7313000,0.0324,0.013523,0.002678,0.000431,0.004349
7314000,0.0324,0.013523,0.002678,0.000431,0.004349
7315000,0.0324,0.013523,0.002678,0.000431,0.005054
7316000,0.0324,0.013523,0.002678,0.000431,0.004466
7317000,0.0324,0.013523,0.002678,0.000431,0.001763
7318000,0.0324,0.013523,0.002678,0.000431,0.002468
7319000,0.0324,0.013523,0.002678,0.000431,0.001880
7320000,0.0324,0.013523,0.002678,0.000431,0.000940
7321000,0.0324,0.013523,0.002678,0.000431,0.000940
7322000,0.0324,0.013523,0.002678,0.000431,0.000823
7323000,0.0324,0.013523,0.002678,0.000431,0.000823
7324000,0.0324,0.013523,0.002678,0.000431,0.000940
7325000,0.0324,0.013523,0.002678,0.000431,0.000940
7326000,0.0324,0.013523,0.002678,0.000431,0.000823
7327000,0.0324,0.013523,0.002678,0.000431,0.000823
7328000,0.0324,0.013523,0.002678,0.000431,0.000940
7329000,0.0324,0.013523,0.002678,0.000431,0.000823
7330000,0.0324,0.013523,0.002678,0.000431,0.000940
7331000,0.0324,0.013523,0.002678,0.000431,0.000823
7332000,0.0324,0.013523,0.002678,0.000431,0.000940
7333000,0.0324,0.013523,0.002678,0.000431,0.000823
7334000,0.0324,0.013523,0.002678,0.000431,0.000823
7335000,0.0324,0.013523,0.002678,0.000431,0.000940
7336000,0.0324,0.013523,0.002678,0.000431,0.000940
7337000,0.0324,0.013523,0.002678,0.000431,0.000823
7338000,0.0324,0.013523,0.002678,0.000431,0.000823
7339000,0.0324,0.013523,0.002678,0.000431,0.000940
7340000,0.0324,0.013523,0.002678,0.000431,0.000940
7341000,0.0324,0.013523,0.002678,0.000431,0.000705
7342000,0.0324,0.013523,0.002678,0.000431,0.000940
7343000,0.0324,0.013523,0.002678,0.000431,0.000940
7344000,0.0324,0.013523,0.002678,0.000431,0.002116
7345000,0.0324,0.013523,0.002678,0.000431,0.460240
7346000,0.0324,0.013523,0.002678,0.000431,0.664857
7347000,0.0324,0.013523,0.002678,0.000431,0.133512
7348000,0.0324,0.013523,0.002678,0.000431,0.132572
7349000,0.0324,0.013523,0.002678,0.000431,0.429095
7350000,0.0324,0.013523,0.002678,0.000431,0.383024
7351000,0.0324,0.013523,0.002678,0.000431,0.229415
7352000,0.0324,0.013523,0.002678,0.000431,0.316033
7353000,0.0324,0.013523,0.002678,0.000431,0.141386
7354000,0.0324,0.013523,0.002678,0.000431,0.158193
7355000,0.0324,0.013523,0.002678,0.000431,0.111534
7356000,0.0324,0.013523,0.002678,0.000431,0.445197
7357000,0.0324,0.013523,0.002678,0.000431,0.195567
7358000,0.0324,0.013523,0.002678,0.000431,0.067344
7359000,0.0324,0.013523,0.002678,0.000431,0.041605
7360000,0.0324,0.013523,0.002678,0.000431,0.028442
7361000,0.0324,0.013523,0.002678,0.000431,0.021508
7362000,0.0324,0.013523,0.002678,0.000431,0.012576
7363000,0.0324,0.013523,0.002678,0.000431,0.016219
7364000,0.0324,0.013523,0.002678,0.000431,0.011165
7365000,0.0324,0.013523,0.002678,0.000431,0.006817
7366000,0.0324,0.013523,0.002678,0.000431,0.006111
7367000,0.0324,0.013523,0.002678,0.000431,0.004936
7368000,0.0324,0.013523,0.002678,0.000431,0.002586
7369000,0.0324,0.013523,0.002678,0.000431,0.002586
7370000,0.0324,0.013523,0.002678,0.000431,0.002233
7371000,0.0324,0.013523,0.002678,0.000431,0.002821
7372000,0.0324,0.013523,0.002678,0.000431,0.002468
7373000,0.0324,0.013523,0.002678,0.000431,0.002586
7374000,0.0324,0.013523,0.002678,0.000431,0.002468
7375000,0.0324,0.013523,0.002678,0.000431,0.002468
7376000,0.0324,0.013523,0.002678,0.000431,0.002586
7377000,0.0324,0.013523,0.002678,0.000431,0.002586
7378000,0.0324,0.013523,0.002678,0.000431,0.002468
7379000,0.0324,0.013523,0.002678,0.000431,0.002586
7380000,0.0324,0.013523,0.002678,0.000431,0.002468
7381000,0.0324,0.013523,0.002678,0.000431,0.002586
7382000,0.0324,0.013523,0.002678,0.000431,0.002351
7383000,0.0324,0.013523,0.002678,0.000431,0.002586
7384000,0.0324,0.013523,0.002678,0.000431,0.002468
7385000,0.0324,0.013523,0.002678,0.000431,0.002703
7386000,0.0324,0.013523,0.002678,0.000431,0.002586
7387000,0.0324,0.013523,0.002678,0.000431,0.002351
7388000,0.0324,0.013523,0.002678,0.000431,0.002586
7389000,0.0324,0.013523,0.002678,0.000431,0.002468
7390000,0.0324,0.013523,0.002678,0.000431,0.002821
7391000,0.0324,0.013523,0.002678,0.000431,0.002233
7392000,0.0324,0.013523,0.002678,0.000431,0.002586
7393000,0.0324,0.013523,0.002678,0.000431,0.002703
7394000,0.0324,0.013523,0.002678,0.000431,0.002233
7395000,0.0324,0.013523,0.002678,0.000431,0.002586
7396000,0.0324,0.013523,0.002678,0.000431,0.002586
7397000,0.0324,0.013523,0.002678,0.000431,0.002703
7398000,0.0324,0.013523,0.002678,0.000431,0.002233
7399000,0.0324,0.013523,0.002678,0.000431,0.002586
7400000,0.0324,0.013523,0.002678,0.000431,0.002821
7401000,0.0324,0.013523,0.002678,0.000431,0.002351
7402000,0.0324,0.013523,0.002678,0.000431,0.002351
7403000,0.0324,0.013523,0.002678,0.000431,0.002821
7404000,0.0324,0.013523,0.002678,0.000431,0.002586
7405000,0.0324,0.013523,0.002678,0.000431,0.002351
7406000,0.0324,0.013523,0.002678,0.000431,0.002351
7407000,0.0324,0.013523,0.002678,0.000431,0.002821
7408000,0.0324,0.013523,0.002678,0.000431,0.002468
7409000,0.0324,0.013523,0.002678,0.000431,0.002468
7410000,0.0324,0.013523,0.002678,0.000431,0.002586
7411000,0.0324,0.013523,0.002678,0.000431,0.002468
7412000,0.0324,0.013523,0.002678,0.000431,0.002586
7413000,0.0324,0.013523,0.002678,0.000431,0.002351
7414000,0.0324,0.013523,0.002678,0.000431,0.003996
7415000,0.0324,0.013523,0.002678,0.000431,0.001645
7416000,0.0324,0.013523,0.002678,0.000431,0.001645
7417000,0.0324,0.013523,0.002678,0.000431,0.001645
7418000,0.0324,0.013523,0.002678,0.000431,0.001645
7419000,0.0324,0.013523,0.002678,0.000431,0.001645
7420000,0.0324,0.013523,0.002678,0.000431,0.001645
7421000,0.0324,0.013523,0.002678,0.000431,0.001645
7422000,0.0324,0.013523,0.002678,0.000431,0.001880
7423000,0.0324,0.013523,0.002678,0.000431,0.001410
7424000,0.0324,0.013523,0.002678,0.000431,0.002233
7425000,0.0324,0.013523,0.002678,0.000431,0.406883
7426000,0.0324,0.013523,0.002678,0.000431,0.702583
7427000,0.0324,0.013523,0.002678,0.000431,0.138918
7428000,0.0324,0.013523,0.002678,0.000431,0.135392
7429000,0.0324,0.013523,0.002678,0.000431,0.309569
7430000,0.0324,0.013523,0.002678,0.000431,0.439790
7431000,0.0324,0.013523,0.002678,0.000431,0.269610
7432000,0.0324,0.013523,0.002678,0.000431,0.293938
7433000,0.0324,0.013523,0.002678,0.000431,0.145030
7434000,0.0324,0.013523,0.002678,0.000431,0.141504
7435000,0.0324,0.013523,0.002678,0.000431,0.134217
7436000,0.0324,0.013523,0.002678,0.000431,0.322497
7437000,0.0324,0.013523,0.002678,0.000431,0.331782
7438000,0.0324,0.013523,0.002678,0.000431,0.094728
7439000,0.0324,0.013523,0.002678,0.000431,0.069577
7440000,0.0324,0.013523,0.002678,0.000431,0.041252
7441000,0.0324,0.013523,0.002678,0.000431,0.026091
7442000,0.0324,0.013523,0.002678,0.000431,0.028677
7443000,0.0324,0.013523,0.002678,0.000431,0.020567
7444000,0.0324,0.013523,0.002678,0.000431,0.012105
7445000,0.0324,0.013523,0.002678,0.000431,0.009285
7446000,0.0324,0.013523,0.002678,0.000431,0.009285
7447000,0.0324,0.013523,0.002678,0.000431,0.008697
7448000,0.0324,0.013523,0.002678,0.000431,0.004701
7449000,0.0324,0.013523,0.002678,0.000431,0.000940
7450000,0.0324,0.013523,0.002678,0.000431,0.071692
7451000,0.0324,0.013523,0.002678,0.000431,0.633359
7452000,0.0324,0.013523,0.002678,0.000431,0.530052
7453000,0.0324,0.013523,0.002678,0.000431,0.134687
7454000,0.0324,0.013523,0.002678,0.000431,0.133512
7455000,0.0324,0.013523,0.002678,0.000431,0.564958
7456000,0.0324,0.013523,0.002678,0.000431,0.222951
7457000,0.0324,0.013523,0.002678,0.000431,0.314740
7458000,0.0324,0.013523,0.002678,0.000431,0.211316
7459000,0.0324,0.013523,0.002678,0.000431,0.147263
7460000,0.0324,0.013523,0.002678,0.000431,0.142914
7461000,0.0324,0.013523,0.002678,0.000431,0.245516
7462000,0.0324,0.013523,0.002678,0.000431,0.411231
7463000,0.0324,0.013523,0.002678,0.000431,0.101779
7464000,0.0324,0.013523,0.002678,0.000431,0.070634
7465000,0.0324,0.013523,0.002678,0.000431,0.058647
7466000,0.0324,0.013523,0.002678,0.000431,0.045601
7467000,0.0324,0.013523,0.002678,0.000431,0.024563
7468000,0.0324,0.013523,0.002678,0.000431,0.018217
7469000,0.0324,0.013523,0.002678,0.000431,0.021273
7470000,0.0324,0.013523,0.002678,0.000431,0.013281
7471000,0.0324,0.013523,0.002678,0.000431,0.009285
7472000,0.0324,0.013523,0.002678,0.000431,0.006229
7473000,0.0324,0.013523,0.002678,0.000431,0.006464
7474000,0.0324,0.013523,0.002678,0.000431,0.008462
7475000,0.0324,0.013523,0.002678,0.000431,0.008109
7476000,0.0324,0.013523,0.002678,0.000431,0.008815
7477000,0.0324,0.013523,0.002678,0.000431,0.002938
7478000,0.0324,0.013523,0.002678,0.000431,0.001880
7479000,0.0324,0.013523,0.002678,0.000431,0.003996
7480000,0.0324,0.013523,0.002678,0.000431,0.001058
7481000,0.0324,0.013523,0.002678,0.000431,0.000823
7482000,0.0324,0.013523,0.002678,0.000431,0.003408
7483000,0.0324,0.013523,0.002678,0.000431,0.494324
7484000,0.0324,0.013523,0.002678,0.000431,0.673907
7485000,0.0324,0.013523,0.002678,0.000431,0.134452
7486000,0.0324,0.013523,0.002678,0.000431,0.133512
7487000,0.0324,0.013523,0.002678,0.000431,0.449310
7488000,0.0324,0.013523,0.002678,0.000431,0.315211
7489000,0.0324,0.013523,0.002678,0.000431,0.264086
7490000,0.0324,0.013523,0.002678,0.000431,0.285829
7491000,0.0324,0.013523,0.002678,0.000431,0.146440
7492000,0.0324,0.013523,0.002678,0.000431,0.170651
7493000,0.0324,0.013523,0.002678,0.000431,0.094023
7494000,0.0324,0.013523,0.002678,0.000431,0.419576
7495000,0.0324,0.013523,0.002678,0.000431,0.244929
7496000,0.0324,0.013523,0.002678,0.000431,0.078039
7497000,0.0324,0.013523,0.002678,0.000431,0.053123
7498000,0.0324,0.013523,0.002678,0.000431,0.049244
7499000,0.0324,0.013523,0.002678,0.000431,0.040195
7500000,0.0324,0.013523,0.002678,0.000431,0.024328
7501000,0.0324,0.013523,0.002678,0.000431,0.015044
7502000,0.0324,0.013523,0.002678,0.000431,0.019510
7503000,0.0324,0.013523,0.002678,0.000431,0.016454
7504000,0.0324,0.013523,0.002678,0.000431,0.009167
7505000,0.0324,0.013523,0.002678,0.000431,0.013046
7506000,0.0324,0.013523,0.002678,0.000431,0.006699
7507000,0.0324,0.013523,0.002678,0.000431,0.009050
7508000,0.0324,0.013523,0.002678,0.000431,0.000823
7509000,0.0324,0.013523,0.002678,0.000431,0.000940
7510000,0.0324,0.013523,0.002678,0.000431,0.053005
7511000,0.0324,0.013523,0.002678,0.000431,0.574830
7512000,0.0324,0.013523,0.002678,0.000431,0.576946
7513000,0.0324,0.013523,0.002678,0.000431,0.132102
7514000,0.0324,0.013523,0.002678,0.000431,0.133512
7515000,0.0324,0.013523,0.002678,0.000431,0.574360
7516000,0.0324,0.013523,0.002678,0.000431,0.266319
7517000,0.0324,0.013523,0.002678,0.000431,0.251040
7518000,0.0324,0.013523,0.002678,0.000431,0.255859
7519000,0.0324,0.013523,0.002678,0.000431,0.147380
7520000,0.0324,0.013523,0.002678,0.000431,0.155255
7521000,0.0324,0.013523,0.002678,0.000431,0.210728
7522000,0.0324,0.013523,0.002678,0.000431,0.438263
7523000,0.0324,0.013523,0.002678,0.000431,0.099899
7524000,0.0324,0.013523,0.002678,0.000431,0.074160
7525000,0.0324,0.013523,0.002678,0.000431,0.057824
7526000,0.0324,0.013523,0.002678,0.000431,0.032320
7527000,0.0324,0.013523,0.002678,0.000431,0.029265
7528000,0.0324,0.013523,0.002678,0.000431,0.020802
7529000,0.0324,0.013523,0.002678,0.000431,0.016454
7530000,0.0324,0.013523,0.002678,0.000431,0.011048
7531000,0.0324,0.013523,0.002678,0.000431,0.009990
7532000,0.0324,0.013523,0.002678,0.000431,0.006934
7533000,0.0324,0.013523,0.002678,0.000431,0.006347
7534000,0.0324,0.013523,0.002678,0.000431,0.005171
7535000,0.0324,0.013523,0.002678,0.000431,0.341419
7536000,0.0324,0.013523,0.002678,0.000431,0.720330
7537000,0.0324,0.013523,0.002678,0.000431,0.219073
7538000,0.0324,0.013523,0.002678,0.000431,0.133512
7539000,0.0324,0.013523,0.002678,0.000431,0.254096
7540000,0.0324,0.013523,0.002678,0.000431,0.547329
7541000,0.0324,0.013523,0.002678,0.000431,0.253273
7542000,0.0324,0.013523,0.002678,0.000431,0.292528
7543000,0.0324,0.013523,0.002678,0.000431,0.146910
7544000,0.0324,0.013523,0.002678,0.000431,0.167243
7545000,0.0324,0.013523,0.002678,0.000431,0.104718
7546000,0.0324,0.013523,0.002678,0.000431,0.496792
7547000,0.0324,0.013523,0.002678,0.000431,0.164892
7548000,0.0324,0.013523,0.002678,0.000431,0.098606
7549000,0.0324,0.013523,0.002678,0.000431,0.076746
7550000,0.0324,0.013523,0.002678,0.000431,0.045483
7551000,0.0324,0.013523,0.002678,0.000431,0.037256
7552000,0.0324,0.013523,0.002678,0.000431,0.026444
7553000,0.0324,0.013523,0.002678,0.000431,0.029265
7554000,0.0324,0.013523,0.002678,0.000431,0.020332
7555000,0.0324,0.013523,0.002678,0.000431,0.015279
7556000,0.0324,0.013523,0.002678,0.000431,0.010578
7557000,0.0324,0.013523,0.002678,0.000431,0.010695
7558000,0.0324,0.013523,0.002678,0.000431,0.010225
7559000,0.0324,0.013523,0.002678,0.000431,0.004349
7560000,0.0324,0.013523,0.002678,0.000431,0.009402
7561000,0.0324,0.013523,0.002678,0.000431,0.002821
7562000,0.0324,0.013523,0.002678,0.000431,0.002351
7563000,0.0324,0.013523,0.002678,0.000431,0.002586
7564000,0.0324,0.013523,0.002678,0.000431,0.004466
7565000,0.0324,0.013523,0.002678,0.000431,0.001645
7566000,0.0324,0.013523,0.002678,0.000431,0.001763
7567000,0.0324,0.013523,0.002678,0.000431,0.003056
7568000,0.0324,0.013523,0.002678,0.000431,0.000705
7569000,0.0324,0.013523,0.002678,0.000431,0.000940
7570000,0.0324,0.013523,0.002678,0.000431,0.000940
7571000,0.0324,0.013523,0.002678,0.000431,0.000705
7572000,0.0324,0.013523,0.002678,0.000431,0.000940
7573000,0.0324,0.013523,0.002678,0.000431,0.000705
7574000,0.0324,0.013523,0.002678,0.000431,0.000940
7575000,0.0324,0.013523,0.002678,0.000431,0.000940
7576000,0.0324,0.013523,0.002678,0.000431,0.025856
7577000,0.0324,0.013523,0.002678,0.000431,0.624310
7578000,0.0324,0.013523,0.002678,0.000431,0.578591
7579000,0.0324,0.013523,0.002678,0.000431,0.133042
7580000,0.0324,0.013523,0.002678,0.000431,0.134922
7581000,0.0324,0.013523,0.002678,0.000431,0.537456
7582000,0.0324,0.013523,0.002678,0.000431,0.237877
7583000,0.0324,0.013523,0.002678,0.000431,0.279482
7584000,0.0324,0.013523,0.002678,0.000431,0.286064
7585000,0.0324,0.013523,0.002678,0.000431,0.148438
7586000,0.0324,0.013523,0.002678,0.000431,0.149026
7587000,0.0324,0.013523,0.002678,0.000431,0.215547
7588000,0.0324,0.013523,0.002678,0.000431,0.441671
7589000,0.0324,0.013523,0.002678,0.000431,0.088499
7590000,0.0324,0.013523,0.002678,0.000431,0.067109
7591000,0.0324,0.013523,0.002678,0.000431,0.050067
7592000,0.0324,0.013523,0.002678,0.000431,0.033848
7593000,0.0324,0.013523,0.002678,0.000431,0.025386
7594000,0.0324,0.013523,0.002678,0.000431,0.021978
7595000,0.0324,0.013523,0.002678,0.000431,0.014691
7596000,0.0324,0.013523,0.002678,0.000431,0.013516
7597000,0.0324,0.013523,0.002678,0.000431,0.011870
7598000,0.0324,0.013523,0.002678,0.000431,0.008227
7599000,0.0324,0.013523,0.002678,0.000431,0.007404
7600000,0.0324,0.013523,0.002678,0.000431,0.003173
7601000,0.0324,0.013523,0.002678,0.000431,0.006934
7602000,0.0324,0.013523,0.002678,0.000431,0.002586
7603000,0.0324,0.013523,0.002678,0.000431,0.002468
7604000,0.0324,0.013523,0.002678,0.000431,0.002468
7605000,0.0324,0.013523,0.002678,0.000431,0.002351
7606000,0.0324,0.013523,0.002678,0.000431,0.001645
7607000,0.0324,0.013523,0.002678,0.000431,0.001880
7608000,0.0324,0.013523,0.002678,0.000431,0.001763
7609000,0.0324,0.013523,0.002678,0.000431,0.001763
7610000,0.0324,0.013523,0.002678,0.000431,0.003878
7611000,0.0324,0.013523,0.002678,0.000431,0.002116
7612000,0.0324,0.013523,0.002678,0.000431,0.442376
7613000,0.0324,0.013523,0.002678,0.000431,0.715394
7614000,0.0324,0.013523,0.002678,0.000431,0.138213
7615000,0.0324,0.013523,0.002678,0.000431,0.133982
7616000,0.0324,0.013523,0.002678,0.000431,0.413347
7617000,0.0324,0.013523,0.002678,0.000431,0.311097
7618000,0.0324,0.013523,0.002678,0.000431,0.233293
7619000,0.0324,0.013523,0.002678,0.000431,0.302988
7620000,0.0324,0.013523,0.002678,0.000431,0.141034
7621000,0.0324,0.013523,0.002678,0.000431,0.165245
7622000,0.0324,0.013523,0.002678,0.000431,0.124815
7623000,0.0324,0.013523,0.002678,0.000431,0.328021
7624000,0.0324,0.013523,0.002678,0.000431,0.334133
7625000,0.0324,0.013523,0.002678,0.000431,0.104130
7626000,0.0324,0.013523,0.002678,0.000431,0.075101
7627000,0.0324,0.013523,0.002678,0.000431,0.048657
7628000,0.0324,0.013523,0.002678,0.000431,0.038549
7629000,0.0324,0.013523,0.002678,0.000431,0.029500
7630000,0.0324,0.013523,0.002678,0.000431,0.020215
7631000,0.0324,0.013523,0.002678,0.000431,0.014809
7632000,0.0324,0.013523,0.002678,0.000431,0.013986
7633000,0.0324,0.013523,0.002678,0.000431,0.008697
7634000,0.0324,0.013523,0.002678,0.000431,0.008462
7635000,0.0324,0.013523,0.002678,0.000431,0.005289
7636000,0.0324,0.013523,0.002678,0.000431,0.009402
7637000,0.0324,0.013523,0.002678,0.000431,0.003643
7638000,0.0324,0.013523,0.002678,0.000431,0.000705
7639000,0.0324,0.013523,0.002678,0.000431,0.000940
7640000,0.0324,0.013523,0.002678,0.000431,0.000823
7641000,0.0324,0.013523,0.002678,0.000431,0.000823
7642000,0.0324,0.013523,0.002678,0.000431,0.000940
7643000,0.0324,0.013523,0.002678,0.000431,0.155137
7644000,0.0324,0.013523,0.002678,0.000431,0.582470
7645000,0.0324,0.013523,0.002678,0.000431,0.509015
7646000,0.0324,0.013523,0.002678,0.000431,0.133512
7647000,0.0324,0.013523,0.002678,0.000431,0.134922
7648000,0.0324,0.013523,0.002678,0.000431,0.557789
7649000,0.0324,0.013523,0.002678,0.000431,0.238112
7650000,0.0324,0.013523,0.002678,0.000431,0.282303
7651000,0.0324,0.013523,0.002678,0.000431,0.243048
7652000,0.0324,0.013523,0.002678,0.000431,0.145030
7653000,0.0324,0.013523,0.002678,0.000431,0.151729
7654000,0.0324,0.013523,0.002678,0.000431,0.218955
7655000,0.0324,0.013523,0.002678,0.000431,0.408645
7656000,0.0324,0.013523,0.002678,0.000431,0.092260
7657000,0.0324,0.013523,0.002678,0.000431,0.063583
7658000,0.0324,0.013523,0.002678,0.000431,0.042428
7659000,0.0324,0.013523,0.002678,0.000431,0.032673
7660000,0.0324,0.013523,0.002678,0.000431,0.021743
7661000,0.0324,0.013523,0.002678,0.000431,0.012576
7662000,0.0324,0.013523,0.002678,0.000431,0.010695
7663000,0.0324,0.013523,0.002678,0.000431,0.009755
7664000,0.0324,0.013523,0.002678,0.000431,0.011048
7665000,0.0324,0.013523,0.002678,0.000431,0.010107
7666000,0.0324,0.013523,0.002678,0.000431,0.005289
7667000,0.0324,0.013523,0.002678,0.000431,0.007169
7668000,0.0324,0.013523,0.002678,0.000431,0.005171
7669000,0.0324,0.013523,0.002678,0.000431,0.003408
7670000,0.0324,0.013523,0.002678,0.000431,0.003291
7671000,0.0324,0.013523,0.002678,0.000431,0.003291
7672000,0.0324,0.013523,0.002678,0.000431,0.003408
7673000,0.0324,0.013523,0.002678,0.000431,0.004231
7674000,0.0324,0.013523,0.002678,0.000431,0.003878
7675000,0.0324,0.013523,0.002678,0.000431,0.002351
7676000,0.0324,0.013523,0.002678,0.000431,0.002351
7677000,0.0324,0.013523,0.002678,0.000431,0.004349
7678000,0.0324,0.013523,0.002678,0.000431,0.001175
7679000,0.0324,0.013523,0.002678,0.000431,0.001880
7680000,0.0324,0.013523,0.002678,0.000431,0.001293
7681000,0.0324,0.013523,0.002678,0.000431,0.001763
7682000,0.0324,0.013523,0.002678,0.000431,0.001880
7683000,0.0324,0.013523,0.002678,0.000431,0.001175
7684000,0.0324,0.013523,0.002678,0.000431,0.001880
7685000,0.0324,0.013523,0.002678,0.000431,0.001293
7686000,0.0324,0.013523,0.002678,0.000431,0.001763
7687000,0.0324,0.013523,0.002678,0.000431,0.001645
7688000,0.0324,0.013523,0.002678,0.000431,0.001410
7689000,0.0324,0.013523,0.002678,0.000431,0.001645
7690000,0.0324,0.013523,0.002678,0.000431,0.001528
7691000,0.0324,0.013523,0.002678,0.000431,0.001528
7692000,0.0324,0.013523,0.002678,0.000431,0.001645
7693000,0.0324,0.013523,0.002678,0.000431,0.001645
7694000,0.0324,0.013523,0.002678,0.000431,0.001410
7695000,0.0324,0.013523,0.002678,0.000431,0.001645
7696000,0.0324,0.013523,0.002678,0.000431,0.001645
7697000,0.0324,0.013523,0.002678,0.000431,0.001645
7698000,0.0324,0.013523,0.002678,0.000431,0.001410
7699000,0.0324,0.013523,0.002678,0.000431,0.001645
7700000,0.0324,0.013523,0.002678,0.000431,0.001410
7701000,0.0324,0.013523,0.002678,0.000431,0.001645
7702000,0.0324,0.013523,0.002678,0.000431,0.001880
7703000,0.0324,0.013523,0.002678,0.000431,0.001175
7704000,0.0324,0.013523,0.002678,0.000431,0.001880
7705000,0.0324,0.013523,0.002678,0.000431,0.001410
7706000,0.0324,0.013523,0.002678,0.000431,0.001645
7707000,0.0324,0.013523,0.002678,0.000431,0.001645
7708000,0.0324,0.013523,0.002678,0.000431,0.001410
7709000,0.0324,0.013523,0.002678,0.000431,0.001645
7710000,0.0324,0.013523,0.002678,0.000431,0.001645
7711000,0.0324,0.013523,0.002678,0.000431,0.001410
7712000,0.0324,0.013523,0.002678,0.000431,0.001645
7713000,0.0324,0.013523,0.002678,0.000431,0.001645
7714000,0.0324,0.013523,0.002678,0.000431,0.001410
7715000,0.0324,0.013523,0.002678,0.000431,0.001880
7716000,0.0324,0.013523,0.002678,0.000431,0.001410
7717000,0.0324,0.013523,0.002678,0.000431,0.001645
7718000,0.0324,0.013523,0.002678,0.000431,0.001293
7719000,0.0324,0.013523,0.002678,0.000431,0.001763
7720000,0.0324,0.013523,0.002678,0.000431,0.001880
7721000,0.0324,0.013523,0.002678,0.000431,0.001175
7722000,0.0324,0.013523,0.002678,0.000431,0.001880
7723000,0.0324,0.013523,0.002678,0.000431,0.001293
7724000,0.0324,0.013523,0.002678,0.000431,0.001763
7725000,0.0324,0.013523,0.002678,0.000431,0.001645
7726000,0.0324,0.013523,0.002678,0.000431,0.001410
7727000,0.0324,0.013523,0.002678,0.000431,0.001645
7728000,0.0324,0.013523,0.002678,0.000431,0.001528
7729000,0.0324,0.013523,0.002678,0.000431,0.001528
7730000,0.0324,0.013523,0.002678,0.000431,0.001645
7731000,0.0324,0.013523,0.002678,0.000431,0.001645
7732000,0.0324,0.013523,0.002678,0.000431,0.001410
7733000,0.0324,0.013523,0.002678,0.000431,0.001645
7734000,0.0324,0.013523,0.002678,0.000431,0.001645
7735000,0.0324,0.013523,0.002678,0.000431,0.001645
7736000,0.0324,0.013523,0.002678,0.000431,0.001410
7737000,0.0324,0.013523,0.002678,0.000431,0.001645
7738000,0.0324,0.013523,0.002678,0.000431,0.001410
7739000,0.0324,0.013523,0.002678,0.000431,0.001645
7740000,0.0324,0.013523,0.002678,0.000431,0.001410
7741000,0.0324,0.013523,0.002678,0.000431,0.001645
7742000,0.0324,0.013523,0.002678,0.000431,0.214724
7743000,0.0324,0.013523,0.002678,0.000431,0.620431
7744000,0.0324,0.013523,0.002678,0.000431,0.406883
7745000,0.0324,0.013523,0.002678,0.000431,0.132689
7746000,0.0324,0.013523,0.002678,0.000431,0.145735
7747000,0.0324,0.013523,0.002678,0.000431,0.621959
7748000,0.0324,0.013523,0.002678,0.000431,0.245634
7749000,0.0324,0.013523,0.002678,0.000431,0.275369
7750000,0.0324,0.013523,0.002678,0.000431,0.198153
7751000,0.0324,0.013523,0.002678,0.000431,0.145735
7752000,0.0324,0.013523,0.002678,0.000431,0.144677
7753000,0.0324,0.013523,0.002678,0.000431,0.236702
7754000,0.0324,0.013523,0.002678,0.000431,0.408175
7755000,0.0324,0.013523,0.002678,0.000431,0.089909
7756000,0.0324,0.013523,0.002678,0.000431,0.077216
7757000,0.0324,0.013523,0.002678,0.000431,0.057354
7758000,0.0324,0.013523,0.002678,0.000431,0.047129
7759000,0.0324,0.013523,0.002678,0.000431,0.040195
7760000,0.0324,0.013523,0.002678,0.000431,0.023741
7761000,0.0324,0.013523,0.002678,0.000431,0.021625
7762000,0.0324,0.013523,0.002678,0.000431,0.015984
7763000,0.0324,0.013523,0.002678,0.000431,0.017747
7764000,0.0324,0.013523,0.002678,0.000431,0.013163
7765000,0.0324,0.013523,0.002678,0.000431,0.012223
7766000,0.0324,0.013523,0.002678,0.000431,0.011753
7767000,0.0324,0.013523,0.002678,0.000431,0.003761
7768000,0.0324,0.013523,0.002678,0.000431,0.002468
7769000,0.0324,0.013523,0.002678,0.000431,0.003878
7770000,0.0324,0.013523,0.002678,0.000431,0.001763
7771000,0.0324,0.013523,0.002678,0.000431,0.001528
7772000,0.0324,0.013523,0.002678,0.000431,0.001645
7773000,0.0324,0.013523,0.002678,0.000431,0.001528
7774000,0.0324,0.013523,0.002678,0.000431,0.001528
7775000,0.0324,0.013523,0.002678,0.000431,0.001528
7776000,0.0324,0.013523,0.002678,0.000431,0.000940
7777000,0.0324,0.013523,0.002678,0.000431,0.000823
7778000,0.0324,0.013523,0.002678,0.000431,0.000823
7779000,0.0324,0.013523,0.002678,0.000431,0.000940
7780000,0.0324,0.013523,0.002678,0.000431,0.000940
7781000,0.0324,0.013523,0.002678,0.000431,0.000705
7782000,0.0324,0.013523,0.002678,0.000431,0.000940
7783000,0.0324,0.013523,0.002678,0.000431,0.000940
7784000,0.0324,0.013523,0.002678,0.000431,0.000940
7785000,0.0324,0.013523,0.002678,0.000431,0.000705
7786000,0.0324,0.013523,0.002678,0.000431,0.000940
7787000,0.0324,0.013523,0.002678,0.000431,0.000940
7788000,0.0324,0.013523,0.002678,0.000431,0.000823
7789000,0.0324,0.013523,0.002678,0.000431,0.000823
7790000,0.0324,0.013523,0.002678,0.000431,0.071105
7791000,0.0324,0.013523,0.002678,0.000431,0.581529
7792000,0.0324,0.013523,0.002678,0.000431,0.559317
7793000,0.0324,0.013523,0.002678,0.000431,0.134922
7794000,0.0324,0.013523,0.002678,0.000431,0.132807
7795000,0.0324,0.013523,0.002678,0.000431,0.548504
7796000,0.0324,0.013523,0.002678,0.000431,0.245399
7797000,0.0324,0.013523,0.002678,0.000431,0.258327
7798000,0.0324,0.013523,0.002678,0.000431,0.274311
7799000,0.0324,0.013523,0.002678,0.000431,0.141034
7800000,0.0324,0.013523,0.002678,0.000431,0.190278
7801000,0.0324,0.013523,0.002678,0.000431,0.092025
7802000,0.0324,0.013523,0.002678,0.000431,0.506546
7803000,0.0324,0.013523,0.002678,0.000431,0.122817
7804000,0.0324,0.013523,0.002678,0.000431,0.067344
7805000,0.0324,0.013523,0.002678,0.000431,0.047481
7806000,0.0324,0.013523,0.002678,0.000431,0.034553
7807000,0.0324,0.013523,0.002678,0.000431,0.024916
7808000,0.0324,0.013523,0.002678,0.000431,0.019040
7809000,0.0324,0.013523,0.002678,0.000431,0.014456
7810000,0.0324,0.013523,0.002678,0.000431,0.010342
7811000,0.0324,0.013523,0.002678,0.000431,0.012223
7812000,0.0324,0.013523,0.002678,0.000431,0.008227
7813000,0.0324,0.013523,0.002678,0.000431,0.009050
7814000,0.0324,0.013523,0.002678,0.000431,0.002703
7815000,0.0324,0.013523,0.002678,0.000431,0.002938
7816000,0.0324,0.013523,0.002678,0.000431,0.003761
7817000,0.0324,0.013523,0.002678,0.000431,0.003526
7818000,0.0324,0.013523,0.002678,0.000431,0.001763
7819000,0.0324,0.013523,0.002678,0.000431,0.001880
7820000,0.0324,0.013523,0.002678,0.000431,0.001880
7821000,0.0324,0.013523,0.002678,0.000431,0.001763
7822000,0.0324,0.013523,0.002678,0.000431,0.002351
7823000,0.0324,0.013523,0.002678,0.000431,0.001645
7824000,0.0324,0.013523,0.002678,0.000431,0.001763
7825000,0.0324,0.013523,0.002678,0.000431,0.004466
7826000,0.0324,0.013523,0.002678,0.000431,0.000940
7827000,0.0324,0.013523,0.002678,0.000431,0.001410
7828000,0.0324,0.013523,0.002678,0.000431,0.001058
7829000,0.0324,0.013523,0.002678,0.000431,0.072750
7830000,0.0324,0.013523,0.002678,0.000431,0.621019
7831000,0.0324,0.013523,0.002678,0.000431,0.523353
7832000,0.0324,0.013523,0.002678,0.000431,0.134805
7833000,0.0324,0.013523,0.002678,0.000431,0.134100
7834000,0.0324,0.013523,0.002678,0.000431,0.565076
7835000,0.0324,0.013523,0.002678,0.000431,0.228945
7836000,0.0324,0.013523,0.002678,0.000431,0.281833
7837000,0.0324,0.013523,0.002678,0.000431,0.246927
7838000,0.0324,0.013523,0.002678,0.000431,0.148203
7839000,0.0324,0.013523,0.002678,0.000431,0.152081
7840000,0.0324,0.013523,0.002678,0.000431,0.222246
7841000,0.0324,0.013523,0.002678,0.000431,0.389841
7842000,0.0324,0.013523,0.002678,0.000431,0.068049
7843000,0.0324,0.013523,0.002678,0.000431,0.055708
7844000,0.0324,0.013523,0.002678,0.000431,0.033496
7845000,0.0324,0.013523,0.002678,0.000431,0.029970
7846000,0.0324,0.013523,0.002678,0.000431,0.023388
7847000,0.0324,0.013523,0.002678,0.000431,0.014809
7848000,0.0324,0.013523,0.002678,0.000431,0.015396
7849000,0.0324,0.013523,0.002678,0.000431,0.011400
7850000,0.0324,0.013523,0.002678,0.000431,0.006582
7851000,0.0324,0.013523,0.002678,0.000431,0.004584
7852000,0.0324,0.013523,0.002678,0.000431,0.004349
7853000,0.0324,0.013523,0.002678,0.000431,0.007522
7854000,0.0324,0.013523,0.002678,0.000431,0.004231
7855000,0.0324,0.013523,0.002678,0.000431,0.001645
7856000,0.0324,0.013523,0.002678,0.000431,0.001763
7857000,0.0324,0.013523,0.002678,0.000431,0.001763
7858000,0.0324,0.013523,0.002678,0.000431,0.001880
7859000,0.0324,0.013523,0.002678,0.000431,0.001410
7860000,0.0324,0.013523,0.002678,0.000431,0.003173
7861000,0.0324,0.013523,0.002678,0.000431,0.000940
7862000,0.0324,0.013523,0.002678,0.000431,0.000823
7863000,0.0324,0.013523,0.002678,0.000431,0.000823
7864000,0.0324,0.013523,0.002678,0.000431,0.000940
7865000,0.0324,0.013523,0.002678,0.000431,0.000940
7866000,0.0324,0.013523,0.002678,0.000431,0.000823
7867000,0.0324,0.013523,0.002678,0.000431,0.000823
7868000,0.0324,0.013523,0.002678,0.000431,0.001763
7869000,0.0324,0.013523,0.002678,0.000431,0.385610
7870000,0.0324,0.013523,0.002678,0.000431,0.700585
7871000,0.0324,0.013523,0.002678,0.000431,0.141974
7872000,0.0324,0.013523,0.002678,0.000431,0.135392
7873000,0.0324,0.013523,0.002678,0.000431,0.158310
7874000,0.0324,0.013523,0.002678,0.000431,0.569071
7875000,0.0324,0.013523,0.002678,0.000431,0.275133
7876000,0.0324,0.013523,0.002678,0.000431,0.247984
7877000,0.0324,0.013523,0.002678,0.000431,0.200856
7878000,0.0324,0.013523,0.002678,0.000431,0.147145
7879000,0.0324,0.013523,0.002678,0.000431,0.171004
7880000,0.0324,0.013523,0.002678,0.000431,0.145265
7881000,0.0324,0.013523,0.002678,0.000431,0.472228
7882000,0.0324,0.013523,0.002678,0.000431,0.083327
7883000,0.0324,0.013523,0.002678,0.000431,0.069577
7884000,0.0324,0.013523,0.002678,0.000431,0.040900
7885000,0.0324,0.013523,0.002678,0.000431,0.038079
7886000,0.0324,0.013523,0.002678,0.000431,0.019745
7887000,0.0324,0.013523,0.002678,0.000431,0.018922
7888000,0.0324,0.013523,0.002678,0.000431,0.014456
7889000,0.0324,0.013523,0.002678,0.000431,0.009990
7890000,0.0324,0.013523,0.002678,0.000431,0.005171
7891000,0.0324,0.013523,0.002678,0.000431,0.007404
7892000,0.0324,0.013523,0.002678,0.000431,0.003056
7893000,0.0324,0.013523,0.002678,0.000431,0.003173
7894000,0.0324,0.013523,0.002678,0.000431,0.000823
7895000,0.0324,0.013523,0.002678,0.000431,0.000940
7896000,0.0324,0.013523,0.002678,0.000431,0.000823
7897000,0.0324,0.013523,0.002678,0.000431,0.000940
7898000,0.0324,0.013523,0.002678,0.000431,0.000823
7899000,0.0324,0.013523,0.002678,0.000431,0.000940
7900000,0.0324,0.013523,0.002678,0.000431,0.000823
7901000,0.0324,0.013523,0.002678,0.000431,0.000823
7902000,0.0324,0.013523,0.002678,0.000431,0.000940
7903000,0.0324,0.013523,0.002678,0.000431,0.000940
7904000,0.0324,0.013523,0.002678,0.000431,0.000705
7905000,0.0324,0.013523,0.002678,0.000431,0.000940
7906000,0.0324,0.013523,0.002678,0.000431,0.000940
7907000,0.0324,0.013523,0.002678,0.000431,0.000940
7908000,0.0324,0.013523,0.002678,0.000431,0.000705
7909000,0.0324,0.013523,0.002678,0.000431,0.013868
7910000,0.0324,0.013523,0.002678,0.000431,0.550149
7911000,0.0324,0.013523,0.002678,0.000431,0.586818
7912000,0.0324,0.013523,0.002678,0.000431,0.134452
7913000,0.0324,0.013523,0.002678,0.000431,0.134452
7914000,0.0324,0.013523,0.002678,0.000431,0.487154
7915000,0.0324,0.013523,0.002678,0.000431,0.252568
7916000,0.0324,0.013523,0.002678,0.000431,0.237995
7917000,0.0324,0.013523,0.002678,0.000431,0.298639
7918000,0.0324,0.013523,0.002678,0.000431,0.145500
7919000,0.0324,0.013523,0.002678,0.000431,0.139623
7920000,0.0324,0.013523,0.002678,0.000431,0.161484
7921000,0.0324,0.013523,0.002678,0.000431,0.228827
7922000,0.0324,0.013523,0.002678,0.000431,0.433561
7923000,0.0324,0.013523,0.002678,0.000431,0.130926
7924000,0.0324,0.013523,0.002678,0.000431,0.090614
7925000,0.0324,0.013523,0.002678,0.000431,0.076041
7926000,0.0324,0.013523,0.002678,0.000431,0.056296
7927000,0.0324,0.013523,0.002678,0.000431,0.041370
7928000,0.0324,0.013523,0.002678,0.000431,0.035023
7929000,0.0324,0.013523,0.002678,0.000431,0.024681
7930000,0.0324,0.013523,0.002678,0.000431,0.018099
7931000,0.0324,0.013523,0.002678,0.000431,0.016924
7932000,0.0324,0.013523,0.002678,0.000431,0.007169
7933000,0.0324,0.013523,0.002678,0.000431,0.006817
7934000,0.0324,0.013523,0.002678,0.000431,0.006817
7935000,0.0324,0.013523,0.002678,0.000431,0.004466
7936000,0.0324,0.013523,0.002678,0.000431,0.003878
7937000,0.0324,0.013523,0.002678,0.000431,0.003291
7938000,0.0324,0.013523,0.002678,0.000431,0.003761
7939000,0.0324,0.013523,0.002678,0.000431,0.005876
7940000,0.0324,0.013523,0.002678,0.000431,0.002938
7941000,0.0324,0.013523,0.002678,0.000431,0.002351
7942000,0.0324,0.013523,0.002678,0.000431,0.002938
7943000,0.0324,0.013523,0.002678,0.000431,0.002821
7944000,0.0324,0.013523,0.002678,0.000431,0.004466
7945000,0.0324,0.013523,0.002678,0.000431,0.001880
7946000,0.0324,0.013523,0.002678,0.000431,0.001645
7947000,0.0324,0.013523,0.002678,0.000431,0.001880
7948000,0.0324,0.013523,0.002678,0.000431,0.001645
7949000,0.0324,0.013523,0.002678,0.000431,0.001645
7950000,0.0324,0.013523,0.002678,0.000431,0.005054
7951000,0.0324,0.013523,0.002678,0.000431,0.000823
7952000,0.0324,0.013523,0.002678,0.000431,0.000823
7953000,0.0324,0.013523,0.002678,0.000431,0.000940
7954000,0.0324,0.013523,0.002678,0.000431,0.000940
7955000,0.0324,0.013523,0.002678,0.000431,0.000940
7956000,0.0324,0.013523,0.002678,0.000431,0.000705
7957000,0.0324,0.013523,0.002678,0.000431,0.000940
7958000,0.0324,0.013523,0.002678,0.000431,0.000940
7959000,0.0324,0.013523,0.002678,0.000431,0.000823
7960000,0.0324,0.013523,0.002678,0.000431,0.000823
7961000,0.0324,0.013523,0.002678,0.000431,0.000940
7962000,0.0324,0.013523,0.002678,0.000431,0.000940
7963000,0.0324,0.013523,0.002678,0.000431,0.000823
7964000,0.0324,0.013523,0.002678,0.000431,0.071927
7965000,0.0324,0.013523,0.002678,0.000431,0.647345
7966000,0.0324,0.013523,0.002678,0.000431,0.535458
7967000,0.0324,0.013523,0.002678,0.000431,0.137743
7968000,0.0324,0.013523,0.002678,0.000431,0.146440
7969000,0.0324,0.013523,0.002678,0.000431,0.630069
7970000,0.0324,0.013523,0.002678,0.000431,0.230590
7971000,0.0324,0.013523,0.002678,0.000431,0.292763
7972000,0.0324,0.013523,0.002678,0.000431,0.192159
7973000,0.0324,0.013523,0.002678,0.000431,0.153609
7974000,0.0324,0.013523,0.002678,0.000431,0.119644
7975000,0.0324,0.013523,0.002678,0.000431,0.351762
7976000,0.0324,0.013523,0.002678,0.000431,0.287827
7977000,0.0324,0.013523,0.002678,0.000431,0.082505
7978000,0.0324,0.013523,0.002678,0.000431,0.052770
7979000,0.0324,0.013523,0.002678,0.000431,0.046424
7980000,0.0324,0.013523,0.002678,0.000431,0.028442
7981000,0.0324,0.013523,0.002678,0.000431,0.021390
7982000,0.0324,0.013523,0.002678,0.000431,0.018922
7983000,0.0324,0.013523,0.002678,0.000431,0.013633
7984000,0.0324,0.013523,0.002678,0.000431,0.006817
7985000,0.0324,0.013523,0.002678,0.000431,0.006347
7986000,0.0324,0.013523,0.002678,0.000431,0.007757
7987000,0.0324,0.013523,0.002678,0.000431,0.004466
7988000,0.0324,0.013523,0.002678,0.000431,0.003173
7989000,0.0324,0.013523,0.002678,0.000431,0.002938
7990000,0.0324,0.013523,0.002678,0.000431,0.005171
7991000,0.0324,0.013523,0.002678,0.000431,0.001998
7992000,0.0324,0.013523,0.002678,0.000431,0.001998
7993000,0.0324,0.013523,0.002678,0.000431,0.002468
7994000,0.0324,0.013523,0.002678,0.000431,0.002351
7995000,0.0324,0.013523,0.002678,0.000431,0.001998
7996000,0.0324,0.013523,0.002678,0.000431,0.002468
7997000,0.0324,0.013523,0.002678,0.000431,0.002233
7998000,0.0324,0.013523,0.002678,0.000431,0.002116
7999000,0.0324,0.013523,0.002678,0.000431,0.002351
