Cycle,Area(mm^2),PeakDynamic(W),SubthresholdLeakage(W),GateLeakage(W),RunTimeDynamic(W)
81000000,0.0324,0.013523,0.002678,0.000431,0.167008
81001000,0.0324,0.013523,0.002678,0.000431,0.144207
81002000,0.0324,0.013523,0.002678,0.000431,0.141621
81003000,0.0324,0.013523,0.002678,0.000431,0.109771
81004000,0.0324,0.013523,0.002678,0.000431,0.077451
81005000,0.0324,0.013523,0.002678,0.000431,0.073808
81006000,0.0324,0.013523,0.002678,0.000431,0.055003
81007000,0.0324,0.013523,0.002678,0.000431,0.037021
81008000,0.0324,0.013523,0.002678,0.000431,0.039842
81009000,0.0324,0.013523,0.002678,0.000431,0.032790
81010000,0.0324,0.013523,0.002678,0.000431,0.023976
81011000,0.0324,0.013523,0.002678,0.000431,0.021625
81012000,0.0324,0.013523,0.002678,0.000431,0.018922
81013000,0.0324,0.013523,0.002678,0.000431,0.019980
81014000,0.0324,0.013523,0.002678,0.000431,0.019862
81015000,0.0324,0.013523,0.002678,0.000431,0.015161
81016000,0.0324,0.013523,0.002678,0.000431,0.015396
81017000,0.0324,0.013523,0.002678,0.000431,0.016924
81018000,0.0324,0.013523,0.002678,0.000431,0.014573
81019000,0.0324,0.013523,0.002678,0.000431,0.012693
81020000,0.0324,0.013523,0.002678,0.000431,0.011870
81021000,0.0324,0.013523,0.002678,0.000431,0.011048
81022000,0.0324,0.013523,0.002678,0.000431,0.008697
81023000,0.0324,0.013523,0.002678,0.000431,0.010578
81024000,0.0324,0.013523,0.002678,0.000431,0.008462
81025000,0.0324,0.013523,0.002678,0.000431,0.004936
81026000,0.0324,0.013523,0.002678,0.000431,0.006347
81027000,0.0324,0.013523,0.002678,0.000431,0.010578
81028000,0.0324,0.013523,0.002678,0.000431,0.001880
81029000,0.0324,0.013523,0.002678,0.000431,0.002703
81030000,0.0324,0.013523,0.002678,0.000431,0.000705
81031000,0.0324,0.013523,0.002678,0.000431,0.000940
81032000,0.0324,0.013523,0.002678,0.000431,0.072985
81033000,0.0324,0.013523,0.002678,0.000431,0.914252
81034000,0.0324,0.013523,0.002678,0.000431,0.524881
81035000,0.0324,0.013523,0.002678,0.000431,0.144795
81036000,0.0324,0.013523,0.002678,0.000431,0.428743
81037000,0.0324,0.013523,0.002678,0.000431,0.272078
81038000,0.0324,0.013523,0.002678,0.000431,0.305691
81039000,0.0324,0.013523,0.002678,0.000431,0.222951
81040000,0.0324,0.013523,0.002678,0.000431,0.194274
81041000,0.0324,0.013523,0.002678,0.000431,0.084268
81042000,0.0324,0.013523,0.002678,0.000431,0.596691
81043000,0.0324,0.013523,0.002678,0.000431,0.304751
81044000,0.0324,0.013523,0.002678,0.000431,0.208965
81045000,0.0324,0.013523,0.002678,0.000431,0.197682
81046000,0.0324,0.013523,0.002678,0.000431,0.139388
81047000,0.0324,0.013523,0.002678,0.000431,0.116588
81048000,0.0324,0.013523,0.002678,0.000431,0.125050
81049000,0.0324,0.013523,0.002678,0.000431,0.081682
81050000,0.0324,0.013523,0.002678,0.000431,0.063230
81051000,0.0324,0.013523,0.002678,0.000431,0.057706
81052000,0.0324,0.013523,0.002678,0.000431,0.061820
81053000,0.0324,0.013523,0.002678,0.000431,0.035258
81054000,0.0324,0.013523,0.002678,0.000431,0.017042
81055000,0.0324,0.013523,0.002678,0.000431,0.014573
81056000,0.0324,0.013523,0.002678,0.000431,0.015631
81057000,0.0324,0.013523,0.002678,0.000431,0.020685
81058000,0.0324,0.013523,0.002678,0.000431,0.013633
81059000,0.0324,0.013523,0.002678,0.000431,0.007992
81060000,0.0324,0.013523,0.002678,0.000431,0.006464
81061000,0.0324,0.013523,0.002678,0.000431,0.005641
81062000,0.0324,0.013523,0.002678,0.000431,0.006347
81063000,0.0324,0.013523,0.002678,0.000431,0.005876
81064000,0.0324,0.013523,0.002678,0.000431,0.009167
81065000,0.0324,0.013523,0.002678,0.000431,0.005171
81066000,0.0324,0.013523,0.002678,0.000431,0.009167
81067000,0.0324,0.013523,0.002678,0.000431,0.003878
81068000,0.0324,0.013523,0.002678,0.000431,0.004819
81069000,0.0324,0.013523,0.002678,0.000431,0.002703
81070000,0.0324,0.013523,0.002678,0.000431,0.002351
81071000,0.0324,0.013523,0.002678,0.000431,0.002586
81072000,0.0324,0.013523,0.002678,0.000431,0.002468
81073000,0.0324,0.013523,0.002678,0.000431,0.002586
81074000,0.0324,0.013523,0.002678,0.000431,0.002586
81075000,0.0324,0.013523,0.002678,0.000431,0.002468
81076000,0.0324,0.013523,0.002678,0.000431,0.002586
81077000,0.0324,0.013523,0.002678,0.000431,0.002468
81078000,0.0324,0.013523,0.002678,0.000431,0.002586
81079000,0.0324,0.013523,0.002678,0.000431,0.004231
81080000,0.0324,0.013523,0.002678,0.000431,0.001763
81081000,0.0324,0.013523,0.002678,0.000431,0.001763
81082000,0.0324,0.013523,0.002678,0.000431,0.001645
81083000,0.0324,0.013523,0.002678,0.000431,0.001645
81084000,0.0324,0.013523,0.002678,0.000431,0.001763
81085000,0.0324,0.013523,0.002678,0.000431,0.001763
81086000,0.0324,0.013523,0.002678,0.000431,0.001528
81087000,0.0324,0.013523,0.002678,0.000431,0.001763
81088000,0.0324,0.013523,0.002678,0.000431,0.001528
81089000,0.0324,0.013523,0.002678,0.000431,0.001763
81090000,0.0324,0.013523,0.002678,0.000431,0.001880
81091000,0.0324,0.013523,0.002678,0.000431,0.002821
81092000,0.0324,0.013523,0.002678,0.000431,0.000823
81093000,0.0324,0.013523,0.002678,0.000431,0.000823
81094000,0.0324,0.013523,0.002678,0.000431,0.000940
81095000,0.0324,0.013523,0.002678,0.000431,0.000705
81096000,0.0324,0.013523,0.002678,0.000431,0.000940
81097000,0.0324,0.013523,0.002678,0.000431,0.000705
81098000,0.0324,0.013523,0.002678,0.000431,0.000823
81099000,0.0324,0.013523,0.002678,0.000431,0.000940
81100000,0.0324,0.013523,0.002678,0.000431,0.000823
81101000,0.0324,0.013523,0.002678,0.000431,0.000823
81102000,0.0324,0.013523,0.002678,0.000431,0.000823
81103000,0.0324,0.013523,0.002678,0.000431,0.000823
81104000,0.0324,0.013523,0.002678,0.000431,0.000823
81105000,0.0324,0.013523,0.002678,0.000431,0.000940
81106000,0.0324,0.013523,0.002678,0.000431,0.000823
81107000,0.0324,0.013523,0.002678,0.000431,0.000823
81108000,0.0324,0.013523,0.002678,0.000431,0.000705
81109000,0.0324,0.013523,0.002678,0.000431,0.000940
81110000,0.0324,0.013523,0.002678,0.000431,0.000940
81111000,0.0324,0.013523,0.002678,0.000431,0.000705
81112000,0.0324,0.013523,0.002678,0.000431,0.017512
81113000,0.0324,0.013523,0.002678,0.000431,0.848553
81114000,0.0324,0.013523,0.002678,0.000431,0.577886
81115000,0.0324,0.013523,0.002678,0.000431,0.172061
81116000,0.0324,0.013523,0.002678,0.000431,0.229768
81117000,0.0324,0.013523,0.002678,0.000431,0.560962
81118000,0.0324,0.013523,0.002678,0.000431,0.274311
81119000,0.0324,0.013523,0.002678,0.000431,0.273958
81120000,0.0324,0.013523,0.002678,0.000431,0.192864
81121000,0.0324,0.013523,0.002678,0.000431,0.084268
81122000,0.0324,0.013523,0.002678,0.000431,0.596103
81123000,0.0324,0.013523,0.002678,0.000431,0.328374
81124000,0.0324,0.013523,0.002678,0.000431,0.243283
81125000,0.0324,0.013523,0.002678,0.000431,0.199445
81126000,0.0324,0.013523,0.002678,0.000431,0.167595
81127000,0.0324,0.013523,0.002678,0.000431,0.145265
81128000,0.0324,0.013523,0.002678,0.000431,0.124227
81129000,0.0324,0.013523,0.002678,0.000431,0.090144
81130000,0.0324,0.013523,0.002678,0.000431,0.065111
81131000,0.0324,0.013523,0.002678,0.000431,0.064523
81132000,0.0324,0.013523,0.002678,0.000431,0.046894
81133000,0.0324,0.013523,0.002678,0.000431,0.059587
81134000,0.0324,0.013523,0.002678,0.000431,0.038314
81135000,0.0324,0.013523,0.002678,0.000431,0.036081
81136000,0.0324,0.013523,0.002678,0.000431,0.038667
81137000,0.0324,0.013523,0.002678,0.000431,0.021038
81138000,0.0324,0.013523,0.002678,0.000431,0.028324
81139000,0.0324,0.013523,0.002678,0.000431,0.013281
81140000,0.0324,0.013523,0.002678,0.000431,0.009402
81141000,0.0324,0.013523,0.002678,0.000431,0.008227
81142000,0.0324,0.013523,0.002678,0.000431,0.007287
81143000,0.0324,0.013523,0.002678,0.000431,0.006111
81144000,0.0324,0.013523,0.002678,0.000431,0.000940
81145000,0.0324,0.013523,0.002678,0.000431,0.000705
81146000,0.0324,0.013523,0.002678,0.000431,0.000823
81147000,0.0324,0.013523,0.002678,0.000431,0.000823
81148000,0.0324,0.013523,0.002678,0.000431,0.000940
81149000,0.0324,0.013523,0.002678,0.000431,0.000940
81150000,0.0324,0.013523,0.002678,0.000431,0.000940
81151000,0.0324,0.013523,0.002678,0.000431,0.000940
81152000,0.0324,0.013523,0.002678,0.000431,0.000940
81153000,0.0324,0.013523,0.002678,0.000431,0.209670
81154000,0.0324,0.013523,0.002678,0.000431,0.830454
81155000,0.0324,0.013523,0.002678,0.000431,0.499612
81156000,0.0324,0.013523,0.002678,0.000431,0.158310
81157000,0.0324,0.013523,0.002678,0.000431,0.531933
81158000,0.0324,0.013523,0.002678,0.000431,0.282655
81159000,0.0324,0.013523,0.002678,0.000431,0.356698
81160000,0.0324,0.013523,0.002678,0.000431,0.169006
81161000,0.0324,0.013523,0.002678,0.000431,0.127988
81162000,0.0324,0.013523,0.002678,0.000431,0.279482
81163000,0.0324,0.013523,0.002678,0.000431,0.569777
81164000,0.0324,0.013523,0.002678,0.000431,0.213666
81165000,0.0324,0.013523,0.002678,0.000431,0.181699
81166000,0.0324,0.013523,0.002678,0.000431,0.128341
81167000,0.0324,0.013523,0.002678,0.000431,0.115883
81168000,0.0324,0.013523,0.002678,0.000431,0.096843
81169000,0.0324,0.013523,0.002678,0.000431,0.084385
81170000,0.0324,0.013523,0.002678,0.000431,0.067344
81171000,0.0324,0.013523,0.002678,0.000431,0.043603
81172000,0.0324,0.013523,0.002678,0.000431,0.039137
81173000,0.0324,0.013523,0.002678,0.000431,0.027737
81174000,0.0324,0.013523,0.002678,0.000431,0.031850
81175000,0.0324,0.013523,0.002678,0.000431,0.026796
81176000,0.0324,0.013523,0.002678,0.000431,0.014221
81177000,0.0324,0.013523,0.002678,0.000431,0.014573
81178000,0.0324,0.013523,0.002678,0.000431,0.012105
81179000,0.0324,0.013523,0.002678,0.000431,0.009755
81180000,0.0324,0.013523,0.002678,0.000431,0.008580
81181000,0.0324,0.013523,0.002678,0.000431,0.008227
81182000,0.0324,0.013523,0.002678,0.000431,0.008580
81183000,0.0324,0.013523,0.002678,0.000431,0.009637
81184000,0.0324,0.013523,0.002678,0.000431,0.002586
81185000,0.0324,0.013523,0.002678,0.000431,0.005171
81186000,0.0324,0.013523,0.002678,0.000431,0.001528
81187000,0.0324,0.013523,0.002678,0.000431,0.001880
81188000,0.0324,0.013523,0.002678,0.000431,0.001763
81189000,0.0324,0.013523,0.002678,0.000431,0.001645
81190000,0.0324,0.013523,0.002678,0.000431,0.001645
81191000,0.0324,0.013523,0.002678,0.000431,0.001763
81192000,0.0324,0.013523,0.002678,0.000431,0.001763
81193000,0.0324,0.013523,0.002678,0.000431,0.001528
81194000,0.0324,0.013523,0.002678,0.000431,0.001880
81195000,0.0324,0.013523,0.002678,0.000431,0.001645
81196000,0.0324,0.013523,0.002678,0.000431,0.004819
81197000,0.0324,0.013523,0.002678,0.000431,0.000940
81198000,0.0324,0.013523,0.002678,0.000431,0.000940
81199000,0.0324,0.013523,0.002678,0.000431,0.000823
81200000,0.0324,0.013523,0.002678,0.000431,0.000823
81201000,0.0324,0.013523,0.002678,0.000431,0.000823
81202000,0.0324,0.013523,0.002678,0.000431,0.000823
81203000,0.0324,0.013523,0.002678,0.000431,0.000940
81204000,0.0324,0.013523,0.002678,0.000431,0.000940
81205000,0.0324,0.013523,0.002678,0.000431,0.002703
81206000,0.0324,0.013523,0.002678,0.000431,0.498437
81207000,0.0324,0.013523,0.002678,0.000431,0.766871
81208000,0.0324,0.013523,0.002678,0.000431,0.299227
81209000,0.0324,0.013523,0.002678,0.000431,0.147145
81210000,0.0324,0.013523,0.002678,0.000431,0.564840
81211000,0.0324,0.013523,0.002678,0.000431,0.270315
81212000,0.0324,0.013523,0.002678,0.000431,0.304868
81213000,0.0324,0.013523,0.002678,0.000431,0.198270
81214000,0.0324,0.013523,0.002678,0.000431,0.185107
81215000,0.0324,0.013523,0.002678,0.000431,0.091319
81216000,0.0324,0.013523,0.002678,0.000431,0.580824
81217000,0.0324,0.013523,0.002678,0.000431,0.273606
81218000,0.0324,0.013523,0.002678,0.000431,0.178525
81219000,0.0324,0.013523,0.002678,0.000431,0.175117
81220000,0.0324,0.013523,0.002678,0.000431,0.149143
81221000,0.0324,0.013523,0.002678,0.000431,0.112710
81222000,0.0324,0.013523,0.002678,0.000431,0.085443
81223000,0.0324,0.013523,0.002678,0.000431,0.069342
81224000,0.0324,0.013523,0.002678,0.000431,0.069577
81225000,0.0324,0.013523,0.002678,0.000431,0.048657
81226000,0.0324,0.013523,0.002678,0.000431,0.040782
81227000,0.0324,0.013523,0.002678,0.000431,0.028912
81228000,0.0324,0.013523,0.002678,0.000431,0.016924
81229000,0.0324,0.013523,0.002678,0.000431,0.025269
81230000,0.0324,0.013523,0.002678,0.000431,0.010107
81231000,0.0324,0.013523,0.002678,0.000431,0.009402
81232000,0.0324,0.013523,0.002678,0.000431,0.009872
81233000,0.0324,0.013523,0.002678,0.000431,0.009167
81234000,0.0324,0.013523,0.002678,0.000431,0.010342
81235000,0.0324,0.013523,0.002678,0.000431,0.014103
81236000,0.0324,0.013523,0.002678,0.000431,0.009167
81237000,0.0324,0.013523,0.002678,0.000431,0.006934
81238000,0.0324,0.013523,0.002678,0.000431,0.006934
81239000,0.0324,0.013523,0.002678,0.000431,0.005994
81240000,0.0324,0.013523,0.002678,0.000431,0.008345
81241000,0.0324,0.013523,0.002678,0.000431,0.005641
81242000,0.0324,0.013523,0.002678,0.000431,0.005994
81243000,0.0324,0.013523,0.002678,0.000431,0.005524
81244000,0.0324,0.013523,0.002678,0.000431,0.005994
81245000,0.0324,0.013523,0.002678,0.000431,0.008345
81246000,0.0324,0.013523,0.002678,0.000431,0.007169
81247000,0.0324,0.013523,0.002678,0.000431,0.005054
81248000,0.0324,0.013523,0.002678,0.000431,0.003526
81249000,0.0324,0.013523,0.002678,0.000431,0.003408
81250000,0.0324,0.013523,0.002678,0.000431,0.003056
81251000,0.0324,0.013523,0.002678,0.000431,0.003643
81252000,0.0324,0.013523,0.002678,0.000431,0.002821
81253000,0.0324,0.013523,0.002678,0.000431,0.003408
81254000,0.0324,0.013523,0.002678,0.000431,0.002938
81255000,0.0324,0.013523,0.002678,0.000431,0.002586
81256000,0.0324,0.013523,0.002678,0.000431,0.003643
81257000,0.0324,0.013523,0.002678,0.000431,0.003526
81258000,0.0324,0.013523,0.002678,0.000431,0.002821
81259000,0.0324,0.013523,0.002678,0.000431,0.006464
81260000,0.0324,0.013523,0.002678,0.000431,0.001645
81261000,0.0324,0.013523,0.002678,0.000431,0.001763
81262000,0.0324,0.013523,0.002678,0.000431,0.001763
81263000,0.0324,0.013523,0.002678,0.000431,0.001645
81264000,0.0324,0.013523,0.002678,0.000431,0.001763
81265000,0.0324,0.013523,0.002678,0.000431,0.001528
81266000,0.0324,0.013523,0.002678,0.000431,0.001763
81267000,0.0324,0.013523,0.002678,0.000431,0.003408
81268000,0.0324,0.013523,0.002678,0.000431,0.000940
81269000,0.0324,0.013523,0.002678,0.000431,0.000940
81270000,0.0324,0.013523,0.002678,0.000431,0.000940
81271000,0.0324,0.013523,0.002678,0.000431,0.000823
81272000,0.0324,0.013523,0.002678,0.000431,0.003173
81273000,0.0324,0.013523,0.002678,0.000431,0.600099
81274000,0.0324,0.013523,0.002678,0.000431,0.709400
81275000,0.0324,0.013523,0.002678,0.000431,0.209553
81276000,0.0324,0.013523,0.002678,0.000431,0.148438
81277000,0.0324,0.013523,0.002678,0.000431,0.560022
81278000,0.0324,0.013523,0.002678,0.000431,0.261618
81279000,0.0324,0.013523,0.002678,0.000431,0.320147
81280000,0.0324,0.013523,0.002678,0.000431,0.154667
81281000,0.0324,0.013523,0.002678,0.000431,0.176997
81282000,0.0324,0.013523,0.002678,0.000431,0.134805
81283000,0.0324,0.013523,0.002678,0.000431,0.596573
81284000,0.0324,0.013523,0.002678,0.000431,0.225772
81285000,0.0324,0.013523,0.002678,0.000431,0.166302
81286000,0.0324,0.013523,0.002678,0.000431,0.148908
81287000,0.0324,0.013523,0.002678,0.000431,0.117646
81288000,0.0324,0.013523,0.002678,0.000431,0.090144
81289000,0.0324,0.013523,0.002678,0.000431,0.079096
81290000,0.0324,0.013523,0.002678,0.000431,0.053828
81291000,0.0324,0.013523,0.002678,0.000431,0.048187
81292000,0.0324,0.013523,0.002678,0.000431,0.032673
81293000,0.0324,0.013523,0.002678,0.000431,0.035258
81294000,0.0324,0.013523,0.002678,0.000431,0.030675
81295000,0.0324,0.013523,0.002678,0.000431,0.026914
81296000,0.0324,0.013523,0.002678,0.000431,0.033613
81297000,0.0324,0.013523,0.002678,0.000431,0.016101
81298000,0.0324,0.013523,0.002678,0.000431,0.011518
81299000,0.0324,0.013523,0.002678,0.000431,0.014338
81300000,0.0324,0.013523,0.002678,0.000431,0.010107
81301000,0.0324,0.013523,0.002678,0.000431,0.008815
81302000,0.0324,0.013523,0.002678,0.000431,0.005289
81303000,0.0324,0.013523,0.002678,0.000431,0.005994
81304000,0.0324,0.013523,0.002678,0.000431,0.005171
81305000,0.0324,0.013523,0.002678,0.000431,0.005171
81306000,0.0324,0.013523,0.002678,0.000431,0.003056
81307000,0.0324,0.013523,0.002678,0.000431,0.002703
81308000,0.0324,0.013523,0.002678,0.000431,0.002351
81309000,0.0324,0.013523,0.002678,0.000431,0.004113
81310000,0.0324,0.013523,0.002678,0.000431,0.002938
81311000,0.0324,0.013523,0.002678,0.000431,0.001880
81312000,0.0324,0.013523,0.002678,0.000431,0.003761
81313000,0.0324,0.013523,0.002678,0.000431,0.000823
81314000,0.0324,0.013523,0.002678,0.000431,0.000823
81315000,0.0324,0.013523,0.002678,0.000431,0.000823
81316000,0.0324,0.013523,0.002678,0.000431,0.000940
81317000,0.0324,0.013523,0.002678,0.000431,0.000705
81318000,0.0324,0.013523,0.002678,0.000431,0.000940
81319000,0.0324,0.013523,0.002678,0.000431,0.000823
81320000,0.0324,0.013523,0.002678,0.000431,0.000823
81321000,0.0324,0.013523,0.002678,0.000431,0.000823
81322000,0.0324,0.013523,0.002678,0.000431,0.000823
81323000,0.0324,0.013523,0.002678,0.000431,0.000823
81324000,0.0324,0.013523,0.002678,0.000431,0.000823
81325000,0.0324,0.013523,0.002678,0.000431,0.000823
81326000,0.0324,0.013523,0.002678,0.000431,0.000823
81327000,0.0324,0.013523,0.002678,0.000431,0.000940
81328000,0.0324,0.013523,0.002678,0.000431,0.000940
81329000,0.0324,0.013523,0.002678,0.000431,0.000823
81330000,0.0324,0.013523,0.002678,0.000431,0.000940
81331000,0.0324,0.013523,0.002678,0.000431,0.000823
81332000,0.0324,0.013523,0.002678,0.000431,0.000940
81333000,0.0324,0.013523,0.002678,0.000431,0.014338
81334000,0.0324,0.013523,0.002678,0.000431,0.779212
81335000,0.0324,0.013523,0.002678,0.000431,0.623017
81336000,0.0324,0.013523,0.002678,0.000431,0.147733
81337000,0.0324,0.013523,0.002678,0.000431,0.186400
81338000,0.0324,0.013523,0.002678,0.000431,0.562607
81339000,0.0324,0.013523,0.002678,0.000431,0.264438
81340000,0.0324,0.013523,0.002678,0.000431,0.294643
81341000,0.0324,0.013523,0.002678,0.000431,0.169476
81342000,0.0324,0.013523,0.002678,0.000431,0.106128
81343000,0.0324,0.013523,0.002678,0.000431,0.547446
81344000,0.0324,0.013523,0.002678,0.000431,0.349764
81345000,0.0324,0.013523,0.002678,0.000431,0.228592
81346000,0.0324,0.013523,0.002678,0.000431,0.195097
81347000,0.0324,0.013523,0.002678,0.000431,0.167713
81348000,0.0324,0.013523,0.002678,0.000431,0.120114
81349000,0.0324,0.013523,0.002678,0.000431,0.110829
81350000,0.0324,0.013523,0.002678,0.000431,0.078039
81351000,0.0324,0.013523,0.002678,0.000431,0.070047
81352000,0.0324,0.013523,0.002678,0.000431,0.044426
81353000,0.0324,0.013523,0.002678,0.000431,0.020685
81354000,0.0324,0.013523,0.002678,0.000431,0.026091
81355000,0.0324,0.013523,0.002678,0.000431,0.026444
81356000,0.0324,0.013523,0.002678,0.000431,0.015749
81357000,0.0324,0.013523,0.002678,0.000431,0.011048
81358000,0.0324,0.013523,0.002678,0.000431,0.012693
81359000,0.0324,0.013523,0.002678,0.000431,0.010225
81360000,0.0324,0.013523,0.002678,0.000431,0.010930
81361000,0.0324,0.013523,0.002678,0.000431,0.010107
81362000,0.0324,0.013523,0.002678,0.000431,0.012223
81363000,0.0324,0.013523,0.002678,0.000431,0.004701
81364000,0.0324,0.013523,0.002678,0.000431,0.004701
81365000,0.0324,0.013523,0.002678,0.000431,0.005171
81366000,0.0324,0.013523,0.002678,0.000431,0.003996
81367000,0.0324,0.013523,0.002678,0.000431,0.009167
81368000,0.0324,0.013523,0.002678,0.000431,0.011753
81369000,0.0324,0.013523,0.002678,0.000431,0.001293
81370000,0.0324,0.013523,0.002678,0.000431,0.001763
81371000,0.0324,0.013523,0.002678,0.000431,0.000940
81372000,0.0324,0.013523,0.002678,0.000431,0.000823
81373000,0.0324,0.013523,0.002678,0.000431,0.000940
81374000,0.0324,0.013523,0.002678,0.000431,0.000823
81375000,0.0324,0.013523,0.002678,0.000431,0.304398
81376000,0.0324,0.013523,0.002678,0.000431,0.867946
81377000,0.0324,0.013523,0.002678,0.000431,0.392662
81378000,0.0324,0.013523,0.002678,0.000431,0.177350
81379000,0.0324,0.013523,0.002678,0.000431,0.575183
81380000,0.0324,0.013523,0.002678,0.000431,0.289824
81381000,0.0324,0.013523,0.002678,0.000431,0.331077
81382000,0.0324,0.013523,0.002678,0.000431,0.163012
81383000,0.0324,0.013523,0.002678,0.000431,0.145265
81384000,0.0324,0.013523,0.002678,0.000431,0.244224
81385000,0.0324,0.013523,0.002678,0.000431,0.542040
81386000,0.0324,0.013523,0.002678,0.000431,0.194862
81387000,0.0324,0.013523,0.002678,0.000431,0.150436
81388000,0.0324,0.013523,0.002678,0.000431,0.138213
81389000,0.0324,0.013523,0.002678,0.000431,0.117058
81390000,0.0324,0.013523,0.002678,0.000431,0.098841
81391000,0.0324,0.013523,0.002678,0.000431,0.088499
81392000,0.0324,0.013523,0.002678,0.000431,0.077569
81393000,0.0324,0.013523,0.002678,0.000431,0.063348
81394000,0.0324,0.013523,0.002678,0.000431,0.048422
81395000,0.0324,0.013523,0.002678,0.000431,0.037609
81396000,0.0324,0.013523,0.002678,0.000431,0.039372
81397000,0.0324,0.013523,0.002678,0.000431,0.023271
81398000,0.0324,0.013523,0.002678,0.000431,0.014809
81399000,0.0324,0.013523,0.002678,0.000431,0.013751
81400000,0.0324,0.013523,0.002678,0.000431,0.009285
81401000,0.0324,0.013523,0.002678,0.000431,0.006817
81402000,0.0324,0.013523,0.002678,0.000431,0.008109
81403000,0.0324,0.013523,0.002678,0.000431,0.006817
81404000,0.0324,0.013523,0.002678,0.000431,0.007169
81405000,0.0324,0.013523,0.002678,0.000431,0.004819
81406000,0.0324,0.013523,0.002678,0.000431,0.005994
81407000,0.0324,0.013523,0.002678,0.000431,0.005289
81408000,0.0324,0.013523,0.002678,0.000431,0.005994
81409000,0.0324,0.013523,0.002678,0.000431,0.008932
81410000,0.0324,0.013523,0.002678,0.000431,0.009167
81411000,0.0324,0.013523,0.002678,0.000431,0.003761
81412000,0.0324,0.013523,0.002678,0.000431,0.000823
81413000,0.0324,0.013523,0.002678,0.000431,0.000823
81414000,0.0324,0.013523,0.002678,0.000431,0.000940
81415000,0.0324,0.013523,0.002678,0.000431,0.000940
81416000,0.0324,0.013523,0.002678,0.000431,0.015514
81417000,0.0324,0.013523,0.002678,0.000431,0.843735
81418000,0.0324,0.013523,0.002678,0.000431,0.552618
81419000,0.0324,0.013523,0.002678,0.000431,0.143854
81420000,0.0324,0.013523,0.002678,0.000431,0.166420
81421000,0.0324,0.013523,0.002678,0.000431,0.546389
81422000,0.0324,0.013523,0.002678,0.000431,0.317091
81423000,0.0324,0.013523,0.002678,0.000431,0.269962
81424000,0.0324,0.013523,0.002678,0.000431,0.147145
81425000,0.0324,0.013523,0.002678,0.000431,0.153257
81426000,0.0324,0.013523,0.002678,0.000431,0.226124
81427000,0.0324,0.013523,0.002678,0.000431,0.584115
81428000,0.0324,0.013523,0.002678,0.000431,0.247514
81429000,0.0324,0.013523,0.002678,0.000431,0.185342
81430000,0.0324,0.013523,0.002678,0.000431,0.150083
81431000,0.0324,0.013523,0.002678,0.000431,0.127636
81432000,0.0324,0.013523,0.002678,0.000431,0.100134
81433000,0.0324,0.013523,0.002678,0.000431,0.069224
81434000,0.0324,0.013523,0.002678,0.000431,0.042663
81435000,0.0324,0.013523,0.002678,0.000431,0.044896
81436000,0.0324,0.013523,0.002678,0.000431,0.025974
81437000,0.0324,0.013523,0.002678,0.000431,0.029029
81438000,0.0324,0.013523,0.002678,0.000431,0.014456
81439000,0.0324,0.013523,0.002678,0.000431,0.011635
81440000,0.0324,0.013523,0.002678,0.000431,0.004701
81441000,0.0324,0.013523,0.002678,0.000431,0.007169
81442000,0.0324,0.013523,0.002678,0.000431,0.006347
81443000,0.0324,0.013523,0.002678,0.000431,0.002703
81444000,0.0324,0.013523,0.002678,0.000431,0.003408
81445000,0.0324,0.013523,0.002678,0.000431,0.002586
81446000,0.0324,0.013523,0.002678,0.000431,0.001763
81447000,0.0324,0.013523,0.002678,0.000431,0.001645
81448000,0.0324,0.013523,0.002678,0.000431,0.001645
81449000,0.0324,0.013523,0.002678,0.000431,0.005289
81450000,0.0324,0.013523,0.002678,0.000431,0.000940
81451000,0.0324,0.013523,0.002678,0.000431,0.000940
81452000,0.0324,0.013523,0.002678,0.000431,0.000823
81453000,0.0324,0.013523,0.002678,0.000431,0.000823
81454000,0.0324,0.013523,0.002678,0.000431,0.000705
81455000,0.0324,0.013523,0.002678,0.000431,0.000940
81456000,0.0324,0.013523,0.002678,0.000431,0.000940
81457000,0.0324,0.013523,0.002678,0.000431,0.000705
81458000,0.0324,0.013523,0.002678,0.000431,0.000940
81459000,0.0324,0.013523,0.002678,0.000431,0.000705
81460000,0.0324,0.013523,0.002678,0.000431,0.000940
81461000,0.0324,0.013523,0.002678,0.000431,0.000823
81462000,0.0324,0.013523,0.002678,0.000431,0.000823
81463000,0.0324,0.013523,0.002678,0.000431,0.000940
81464000,0.0324,0.013523,0.002678,0.000431,0.000705
81465000,0.0324,0.013523,0.002678,0.000431,0.000705
81466000,0.0324,0.013523,0.002678,0.000431,0.000940
81467000,0.0324,0.013523,0.002678,0.000431,0.000823
81468000,0.0324,0.013523,0.002678,0.000431,0.000823
81469000,0.0324,0.013523,0.002678,0.000431,0.000940
81470000,0.0324,0.013523,0.002678,0.000431,0.000705
81471000,0.0324,0.013523,0.002678,0.000431,0.022683
81472000,0.0324,0.013523,0.002678,0.000431,0.917190
81473000,0.0324,0.013523,0.002678,0.000431,0.538162
81474000,0.0324,0.013523,0.002678,0.000431,0.162424
81475000,0.0324,0.013523,0.002678,0.000431,0.179348
81476000,0.0324,0.013523,0.002678,0.000431,0.528172
81477000,0.0324,0.013523,0.002678,0.000431,0.271725
81478000,0.0324,0.013523,0.002678,0.000431,0.280892
81479000,0.0324,0.013523,0.002678,0.000431,0.158075
81480000,0.0324,0.013523,0.002678,0.000431,0.125285
81481000,0.0324,0.013523,0.002678,0.000431,0.365513
81482000,0.0324,0.013523,0.002678,0.000431,0.551560
81483000,0.0324,0.013523,0.002678,0.000431,0.277954
81484000,0.0324,0.013523,0.002678,0.000431,0.232588
81485000,0.0324,0.013523,0.002678,0.000431,0.200738
81486000,0.0324,0.013523,0.002678,0.000431,0.143384
81487000,0.0324,0.013523,0.002678,0.000431,0.107773
81488000,0.0324,0.013523,0.002678,0.000431,0.093082
81489000,0.0324,0.013523,0.002678,0.000431,0.076981
81490000,0.0324,0.013523,0.002678,0.000431,0.051007
81491000,0.0324,0.013523,0.002678,0.000431,0.039725
81492000,0.0324,0.013523,0.002678,0.000431,0.029382
81493000,0.0324,0.013523,0.002678,0.000431,0.026209
81494000,0.0324,0.013523,0.002678,0.000431,0.019510
81495000,0.0324,0.013523,0.002678,0.000431,0.010695
81496000,0.0324,0.013523,0.002678,0.000431,0.009755
81497000,0.0324,0.013523,0.002678,0.000431,0.004819
81498000,0.0324,0.013523,0.002678,0.000431,0.004466
81499000,0.0324,0.013523,0.002678,0.000431,0.004701
81500000,0.0324,0.013523,0.002678,0.000431,0.008109
81501000,0.0324,0.013523,0.002678,0.000431,0.004231
81502000,0.0324,0.013523,0.002678,0.000431,0.003526
81503000,0.0324,0.013523,0.002678,0.000431,0.001763
81504000,0.0324,0.013523,0.002678,0.000431,0.001998
81505000,0.0324,0.013523,0.002678,0.000431,0.001880
81506000,0.0324,0.013523,0.002678,0.000431,0.001880
81507000,0.0324,0.013523,0.002678,0.000431,0.002116
81508000,0.0324,0.013523,0.002678,0.000431,0.001763
81509000,0.0324,0.013523,0.002678,0.000431,0.002351
81510000,0.0324,0.013523,0.002678,0.000431,0.001998
81511000,0.0324,0.013523,0.002678,0.000431,0.002468
81512000,0.0324,0.013523,0.002678,0.000431,0.005641
81513000,0.0324,0.013523,0.002678,0.000431,0.587053
81514000,0.0324,0.013523,0.002678,0.000431,0.839621
81515000,0.0324,0.013523,0.002678,0.000431,0.222363
81516000,0.0324,0.013523,0.002678,0.000431,0.175352
81517000,0.0324,0.013523,0.002678,0.000431,0.573773
81518000,0.0324,0.013523,0.002678,0.000431,0.287591
81519000,0.0324,0.013523,0.002678,0.000431,0.288414
81520000,0.0324,0.013523,0.002678,0.000431,0.180876
81521000,0.0324,0.013523,0.002678,0.000431,0.086501
81522000,0.0324,0.013523,0.002678,0.000431,0.612204
81523000,0.0324,0.013523,0.002678,0.000431,0.306984
81524000,0.0324,0.013523,0.002678,0.000431,0.228475
81525000,0.0324,0.013523,0.002678,0.000431,0.187575
81526000,0.0324,0.013523,0.002678,0.000431,0.159486
81527000,0.0324,0.013523,0.002678,0.000431,0.135745
81528000,0.0324,0.013523,0.002678,0.000431,0.092847
81529000,0.0324,0.013523,0.002678,0.000431,0.083680
81530000,0.0324,0.013523,0.002678,0.000431,0.062878
81531000,0.0324,0.013523,0.002678,0.000431,0.046071
81532000,0.0324,0.013523,0.002678,0.000431,0.031850
81533000,0.0324,0.013523,0.002678,0.000431,0.027384
81534000,0.0324,0.013523,0.002678,0.000431,0.013046
81535000,0.0324,0.013523,0.002678,0.000431,0.008815
81536000,0.0324,0.013523,0.002678,0.000431,0.001763
81537000,0.0324,0.013523,0.002678,0.000431,0.004584
81538000,0.0324,0.013523,0.002678,0.000431,0.001058
81539000,0.0324,0.013523,0.002678,0.000431,0.273723
81540000,0.0324,0.013523,0.002678,0.000431,0.813060
81541000,0.0324,0.013523,0.002678,0.000431,0.455774
81542000,0.0324,0.013523,0.002678,0.000431,0.167008
81543000,0.0324,0.013523,0.002678,0.000431,0.562490
81544000,0.0324,0.013523,0.002678,0.000431,0.293938
81545000,0.0324,0.013523,0.002678,0.000431,0.299814
81546000,0.0324,0.013523,0.002678,0.000431,0.152199
81547000,0.0324,0.013523,0.002678,0.000431,0.155725
81548000,0.0324,0.013523,0.002678,0.000431,0.228592
81549000,0.0324,0.013523,0.002678,0.000431,0.561315
81550000,0.0324,0.013523,0.002678,0.000431,0.254919
81551000,0.0324,0.013523,0.002678,0.000431,0.204264
81552000,0.0324,0.013523,0.002678,0.000431,0.175822
81553000,0.0324,0.013523,0.002678,0.000431,0.141504
81554000,0.0324,0.013523,0.002678,0.000431,0.126108
81555000,0.0324,0.013523,0.002678,0.000431,0.108243
81556000,0.0324,0.013523,0.002678,0.000431,0.087088
81557000,0.0324,0.013523,0.002678,0.000431,0.066638
81558000,0.0324,0.013523,0.002678,0.000431,0.054298
81559000,0.0324,0.013523,0.002678,0.000431,0.049949
81560000,0.0324,0.013523,0.002678,0.000431,0.041605
81561000,0.0324,0.013523,0.002678,0.000431,0.037256
81562000,0.0324,0.013523,0.002678,0.000431,0.026444
81563000,0.0324,0.013523,0.002678,0.000431,0.023858
81564000,0.0324,0.013523,0.002678,0.000431,0.017159
81565000,0.0324,0.013523,0.002678,0.000431,0.006464
81566000,0.0324,0.013523,0.002678,0.000431,0.006699
81567000,0.0324,0.013523,0.002678,0.000431,0.010813
81568000,0.0324,0.013523,0.002678,0.000431,0.003643
81569000,0.0324,0.013523,0.002678,0.000431,0.005289
81570000,0.0324,0.013523,0.002678,0.000431,0.003878
81571000,0.0324,0.013523,0.002678,0.000431,0.001763
81572000,0.0324,0.013523,0.002678,0.000431,0.001880
81573000,0.0324,0.013523,0.002678,0.000431,0.001998
81574000,0.0324,0.013523,0.002678,0.000431,0.002233
81575000,0.0324,0.013523,0.002678,0.000431,0.003408
81576000,0.0324,0.013523,0.002678,0.000431,0.001058
81577000,0.0324,0.013523,0.002678,0.000431,0.000940
81578000,0.0324,0.013523,0.002678,0.000431,0.000823
81579000,0.0324,0.013523,0.002678,0.000431,0.000823
81580000,0.0324,0.013523,0.002678,0.000431,0.000940
81581000,0.0324,0.013523,0.002678,0.000431,0.114120
81582000,0.0324,0.013523,0.002678,0.000431,0.897680
81583000,0.0324,0.013523,0.002678,0.000431,0.500435
81584000,0.0324,0.013523,0.002678,0.000431,0.192276
81585000,0.0324,0.013523,0.002678,0.000431,0.449428
81586000,0.0324,0.013523,0.002678,0.000431,0.360694
81587000,0.0324,0.013523,0.002678,0.000431,0.360224
81588000,0.0324,0.013523,0.002678,0.000431,0.201678
81589000,0.0324,0.013523,0.002678,0.000431,0.134217
81590000,0.0324,0.013523,0.002678,0.000431,0.246574
81591000,0.0324,0.013523,0.002678,0.000431,0.530992
81592000,0.0324,0.013523,0.002678,0.000431,0.193451
81593000,0.0324,0.013523,0.002678,0.000431,0.151846
81594000,0.0324,0.013523,0.002678,0.000431,0.121994
81595000,0.0324,0.013523,0.002678,0.000431,0.117176
81596000,0.0324,0.013523,0.002678,0.000431,0.091554
81597000,0.0324,0.013523,0.002678,0.000431,0.078509
81598000,0.0324,0.013523,0.002678,0.000431,0.065346
81599000,0.0324,0.013523,0.002678,0.000431,0.043838
81600000,0.0324,0.013523,0.002678,0.000431,0.029617
81601000,0.0324,0.013523,0.002678,0.000431,0.029852
81602000,0.0324,0.013523,0.002678,0.000431,0.025856
81603000,0.0324,0.013523,0.002678,0.000431,0.013398
81604000,0.0324,0.013523,0.002678,0.000431,0.016924
81605000,0.0324,0.013523,0.002678,0.000431,0.012811
81606000,0.0324,0.013523,0.002678,0.000431,0.011635
81607000,0.0324,0.013523,0.002678,0.000431,0.009167
81608000,0.0324,0.013523,0.002678,0.000431,0.010578
81609000,0.0324,0.013523,0.002678,0.000431,0.010342
81610000,0.0324,0.013523,0.002678,0.000431,0.009637
81611000,0.0324,0.013523,0.002678,0.000431,0.005524
81612000,0.0324,0.013523,0.002678,0.000431,0.006229
81613000,0.0324,0.013523,0.002678,0.000431,0.005994
81614000,0.0324,0.013523,0.002678,0.000431,0.005171
81615000,0.0324,0.013523,0.002678,0.000431,0.005759
81616000,0.0324,0.013523,0.002678,0.000431,0.006111
81617000,0.0324,0.013523,0.002678,0.000431,0.006464
81618000,0.0324,0.013523,0.002678,0.000431,0.006347
81619000,0.0324,0.013523,0.002678,0.000431,0.005289
81620000,0.0324,0.013523,0.002678,0.000431,0.004231
81621000,0.0324,0.013523,0.002678,0.000431,0.004701
81622000,0.0324,0.013523,0.002678,0.000431,0.002233
81623000,0.0324,0.013523,0.002678,0.000431,0.001410
81624000,0.0324,0.013523,0.002678,0.000431,0.001998
81625000,0.0324,0.013523,0.002678,0.000431,0.001998
81626000,0.0324,0.013523,0.002678,0.000431,0.001763
81627000,0.0324,0.013523,0.002678,0.000431,0.001998
81628000,0.0324,0.013523,0.002678,0.000431,0.001645
81629000,0.0324,0.013523,0.002678,0.000431,0.001645
81630000,0.0324,0.013523,0.002678,0.000431,0.003056
81631000,0.0324,0.013523,0.002678,0.000431,0.003173
81632000,0.0324,0.013523,0.002678,0.000431,0.571069
81633000,0.0324,0.013523,0.002678,0.000431,0.736667
81634000,0.0324,0.013523,0.002678,0.000431,0.184284
81635000,0.0324,0.013523,0.002678,0.000431,0.136568
81636000,0.0324,0.013523,0.002678,0.000431,0.501140
81637000,0.0324,0.013523,0.002678,0.000431,0.241168
81638000,0.0324,0.013523,0.002678,0.000431,0.287239
81639000,0.0324,0.013523,0.002678,0.000431,0.193922
81640000,0.0324,0.013523,0.002678,0.000431,0.164304
81641000,0.0324,0.013523,0.002678,0.000431,0.119409
81642000,0.0324,0.013523,0.002678,0.000431,0.493148
81643000,0.0324,0.013523,0.002678,0.000431,0.386903
81644000,0.0324,0.013523,0.002678,0.000431,0.232353
81645000,0.0324,0.013523,0.002678,0.000431,0.205439
81646000,0.0324,0.013523,0.002678,0.000431,0.158898
81647000,0.0324,0.013523,0.002678,0.000431,0.121994
81648000,0.0324,0.013523,0.002678,0.000431,0.097901
81649000,0.0324,0.013523,0.002678,0.000431,0.083915
81650000,0.0324,0.013523,0.002678,0.000431,0.084620
81651000,0.0324,0.013523,0.002678,0.000431,0.077569
81652000,0.0324,0.013523,0.002678,0.000431,0.032790
81653000,0.0324,0.013523,0.002678,0.000431,0.043603
81654000,0.0324,0.013523,0.002678,0.000431,0.031380
81655000,0.0324,0.013523,0.002678,0.000431,0.016454
81656000,0.0324,0.013523,0.002678,0.000431,0.015161
81657000,0.0324,0.013523,0.002678,0.000431,0.013751
81658000,0.0324,0.013523,0.002678,0.000431,0.011400
81659000,0.0324,0.013523,0.002678,0.000431,0.010107
81660000,0.0324,0.013523,0.002678,0.000431,0.007992
81661000,0.0324,0.013523,0.002678,0.000431,0.014809
81662000,0.0324,0.013523,0.002678,0.000431,0.014338
81663000,0.0324,0.013523,0.002678,0.000431,0.005406
81664000,0.0324,0.013523,0.002678,0.000431,0.003408
81665000,0.0324,0.013523,0.002678,0.000431,0.003643
81666000,0.0324,0.013523,0.002678,0.000431,0.003526
81667000,0.0324,0.013523,0.002678,0.000431,0.003408
81668000,0.0324,0.013523,0.002678,0.000431,0.003643
81669000,0.0324,0.013523,0.002678,0.000431,0.004349
81670000,0.0324,0.013523,0.002678,0.000431,0.004113
81671000,0.0324,0.013523,0.002678,0.000431,0.001763
81672000,0.0324,0.013523,0.002678,0.000431,0.001528
81673000,0.0324,0.013523,0.002678,0.000431,0.001880
81674000,0.0324,0.013523,0.002678,0.000431,0.001410
81675000,0.0324,0.013523,0.002678,0.000431,0.001763
81676000,0.0324,0.013523,0.002678,0.000431,0.001763
81677000,0.0324,0.013523,0.002678,0.000431,0.001645
81678000,0.0324,0.013523,0.002678,0.000431,0.001763
81679000,0.0324,0.013523,0.002678,0.000431,0.001763
81680000,0.0324,0.013523,0.002678,0.000431,0.001645
81681000,0.0324,0.013523,0.002678,0.000431,0.001763
81682000,0.0324,0.013523,0.002678,0.000431,0.001880
81683000,0.0324,0.013523,0.002678,0.000431,0.001763
81684000,0.0324,0.013523,0.002678,0.000431,0.003878
81685000,0.0324,0.013523,0.002678,0.000431,0.000705
81686000,0.0324,0.013523,0.002678,0.000431,0.000940
81687000,0.0324,0.013523,0.002678,0.000431,0.000940
81688000,0.0324,0.013523,0.002678,0.000431,0.000705
81689000,0.0324,0.013523,0.002678,0.000431,0.269610
81690000,0.0324,0.013523,0.002678,0.000431,0.805891
81691000,0.0324,0.013523,0.002678,0.000431,0.461298
81692000,0.0324,0.013523,0.002678,0.000431,0.143972
81693000,0.0324,0.013523,0.002678,0.000431,0.510307
81694000,0.0324,0.013523,0.002678,0.000431,0.257034
81695000,0.0324,0.013523,0.002678,0.000431,0.353760
81696000,0.0324,0.013523,0.002678,0.000431,0.180171
81697000,0.0324,0.013523,0.002678,0.000431,0.151729
81698000,0.0324,0.013523,0.002678,0.000431,0.215194
81699000,0.0324,0.013523,0.002678,0.000431,0.579649
81700000,0.0324,0.013523,0.002678,0.000431,0.275251
81701000,0.0324,0.013523,0.002678,0.000431,0.217310
81702000,0.0324,0.013523,0.002678,0.000431,0.167595
81703000,0.0324,0.013523,0.002678,0.000431,0.148791
81704000,0.0324,0.013523,0.002678,0.000431,0.138801
81705000,0.0324,0.013523,0.002678,0.000431,0.094375
81706000,0.0324,0.013523,0.002678,0.000431,0.086031
81707000,0.0324,0.013523,0.002678,0.000431,0.058764
81708000,0.0324,0.013523,0.002678,0.000431,0.038549
81709000,0.0324,0.013523,0.002678,0.000431,0.029970
81710000,0.0324,0.013523,0.002678,0.000431,0.031733
81711000,0.0324,0.013523,0.002678,0.000431,0.022565
81712000,0.0324,0.013523,0.002678,0.000431,0.010342
81713000,0.0324,0.013523,0.002678,0.000431,0.011165
81714000,0.0324,0.013523,0.002678,0.000431,0.019040
81715000,0.0324,0.013523,0.002678,0.000431,0.007169
81716000,0.0324,0.013523,0.002678,0.000431,0.006934
81717000,0.0324,0.013523,0.002678,0.000431,0.008697
81718000,0.0324,0.013523,0.002678,0.000431,0.013281
81719000,0.0324,0.013523,0.002678,0.000431,0.007287
81720000,0.0324,0.013523,0.002678,0.000431,0.006347
81721000,0.0324,0.013523,0.002678,0.000431,0.007639
81722000,0.0324,0.013523,0.002678,0.000431,0.003878
81723000,0.0324,0.013523,0.002678,0.000431,0.004819
81724000,0.0324,0.013523,0.002678,0.000431,0.003526
81725000,0.0324,0.013523,0.002678,0.000431,0.004584
81726000,0.0324,0.013523,0.002678,0.000431,0.003761
81727000,0.0324,0.013523,0.002678,0.000431,0.003526
81728000,0.0324,0.013523,0.002678,0.000431,0.004701
81729000,0.0324,0.013523,0.002678,0.000431,0.003526
81730000,0.0324,0.013523,0.002678,0.000431,0.004231
81731000,0.0324,0.013523,0.002678,0.000431,0.003878
81732000,0.0324,0.013523,0.002678,0.000431,0.003878
81733000,0.0324,0.013523,0.002678,0.000431,0.004466
81734000,0.0324,0.013523,0.002678,0.000431,0.004701
81735000,0.0324,0.013523,0.002678,0.000431,0.004231
81736000,0.0324,0.013523,0.002678,0.000431,0.004466
81737000,0.0324,0.013523,0.002678,0.000431,0.003173
81738000,0.0324,0.013523,0.002678,0.000431,0.003878
81739000,0.0324,0.013523,0.002678,0.000431,0.004584
81740000,0.0324,0.013523,0.002678,0.000431,0.003878
81741000,0.0324,0.013523,0.002678,0.000431,0.004466
81742000,0.0324,0.013523,0.002678,0.000431,0.003056
81743000,0.0324,0.013523,0.002678,0.000431,0.005406
81744000,0.0324,0.013523,0.002678,0.000431,0.004936
81745000,0.0324,0.013523,0.002678,0.000431,0.005054
81746000,0.0324,0.013523,0.002678,0.000431,0.005759
81747000,0.0324,0.013523,0.002678,0.000431,0.235997
81748000,0.0324,0.013523,0.002678,0.000431,0.856428
81749000,0.0324,0.013523,0.002678,0.000431,0.487037
81750000,0.0324,0.013523,0.002678,0.000431,0.143384
81751000,0.0324,0.013523,0.002678,0.000431,0.546741
81752000,0.0324,0.013523,0.002678,0.000431,0.316151
81753000,0.0324,0.013523,0.002678,0.000431,0.372564
81754000,0.0324,0.013523,0.002678,0.000431,0.159486
81755000,0.0324,0.013523,0.002678,0.000431,0.104365
81756000,0.0324,0.013523,0.002678,0.000431,0.529582
81757000,0.0324,0.013523,0.002678,0.000431,0.349646
81758000,0.0324,0.013523,0.002678,0.000431,0.216487
81759000,0.0324,0.013523,0.002678,0.000431,0.164892
81760000,0.0324,0.013523,0.002678,0.000431,0.148673
81761000,0.0324,0.013523,0.002678,0.000431,0.117528
81762000,0.0324,0.013523,0.002678,0.000431,0.095550
81763000,0.0324,0.013523,0.002678,0.000431,0.080742
81764000,0.0324,0.013523,0.002678,0.000431,0.044426
81765000,0.0324,0.013523,0.002678,0.000431,0.036081
81766000,0.0324,0.013523,0.002678,0.000431,0.029617
81767000,0.0324,0.013523,0.002678,0.000431,0.028794
81768000,0.0324,0.013523,0.002678,0.000431,0.019392
81769000,0.0324,0.013523,0.002678,0.000431,0.020685
81770000,0.0324,0.013523,0.002678,0.000431,0.016689
81771000,0.0324,0.013523,0.002678,0.000431,0.008580
81772000,0.0324,0.013523,0.002678,0.000431,0.009285
81773000,0.0324,0.013523,0.002678,0.000431,0.008462
81774000,0.0324,0.013523,0.002678,0.000431,0.009402
81775000,0.0324,0.013523,0.002678,0.000431,0.007874
81776000,0.0324,0.013523,0.002678,0.000431,0.008109
81777000,0.0324,0.013523,0.002678,0.000431,0.007052
81778000,0.0324,0.013523,0.002678,0.000431,0.016219
81779000,0.0324,0.013523,0.002678,0.000431,0.003643
81780000,0.0324,0.013523,0.002678,0.000431,0.004936
81781000,0.0324,0.013523,0.002678,0.000431,0.002233
81782000,0.0324,0.013523,0.002678,0.000431,0.003291
81783000,0.0324,0.013523,0.002678,0.000431,0.002468
81784000,0.0324,0.013523,0.002678,0.000431,0.003173
81785000,0.0324,0.013523,0.002678,0.000431,0.002468
81786000,0.0324,0.013523,0.002678,0.000431,0.002703
81787000,0.0324,0.013523,0.002678,0.000431,0.003291
81788000,0.0324,0.013523,0.002678,0.000431,0.002351
81789000,0.0324,0.013523,0.002678,0.000431,0.005759
81790000,0.0324,0.013523,0.002678,0.000431,0.001645
81791000,0.0324,0.013523,0.002678,0.000431,0.001763
81792000,0.0324,0.013523,0.002678,0.000431,0.004113
81793000,0.0324,0.013523,0.002678,0.000431,0.002116
81794000,0.0324,0.013523,0.002678,0.000431,0.397598
81795000,0.0324,0.013523,0.002678,0.000431,0.814823
81796000,0.0324,0.013523,0.002678,0.000431,0.334133
81797000,0.0324,0.013523,0.002678,0.000431,0.137626
81798000,0.0324,0.013523,0.002678,0.000431,0.564958
81799000,0.0324,0.013523,0.002678,0.000431,0.269257
81800000,0.0324,0.013523,0.002678,0.000431,0.334485
81801000,0.0324,0.013523,0.002678,0.000431,0.158075
81802000,0.0324,0.013523,0.002678,0.000431,0.134452
81803000,0.0324,0.013523,0.002678,0.000431,0.260090
81804000,0.0324,0.013523,0.002678,0.000431,0.555556
81805000,0.0324,0.013523,0.002678,0.000431,0.201091
81806000,0.0324,0.013523,0.002678,0.000431,0.157253
81807000,0.0324,0.013523,0.002678,0.000431,0.148791
81808000,0.0324,0.013523,0.002678,0.000431,0.129751
81809000,0.0324,0.013523,0.002678,0.000431,0.100016
81810000,0.0324,0.013523,0.002678,0.000431,0.065933
81811000,0.0324,0.013523,0.002678,0.000431,0.057001
81812000,0.0324,0.013523,0.002678,0.000431,0.062525
81813000,0.0324,0.013523,0.002678,0.000431,0.052065
81814000,0.0324,0.013523,0.002678,0.000431,0.045836
81815000,0.0324,0.013523,0.002678,0.000431,0.038197
81816000,0.0324,0.013523,0.002678,0.000431,0.030087
81817000,0.0324,0.013523,0.002678,0.000431,0.032085
81818000,0.0324,0.013523,0.002678,0.000431,0.019510
81819000,0.0324,0.013523,0.002678,0.000431,0.019275
81820000,0.0324,0.013523,0.002678,0.000431,0.012340
81821000,0.0324,0.013523,0.002678,0.000431,0.016924
81822000,0.0324,0.013523,0.002678,0.000431,0.021155
81823000,0.0324,0.013523,0.002678,0.000431,0.008462
81824000,0.0324,0.013523,0.002678,0.000431,0.022330
81825000,0.0324,0.013523,0.002678,0.000431,0.004113
81826000,0.0324,0.013523,0.002678,0.000431,0.004466
81827000,0.0324,0.013523,0.002678,0.000431,0.005289
81828000,0.0324,0.013523,0.002678,0.000431,0.004584
81829000,0.0324,0.013523,0.002678,0.000431,0.003408
81830000,0.0324,0.013523,0.002678,0.000431,0.003056
81831000,0.0324,0.013523,0.002678,0.000431,0.003291
81832000,0.0324,0.013523,0.002678,0.000431,0.003291
81833000,0.0324,0.013523,0.002678,0.000431,0.007992
81834000,0.0324,0.013523,0.002678,0.000431,0.001645
81835000,0.0324,0.013523,0.002678,0.000431,0.001645
81836000,0.0324,0.013523,0.002678,0.000431,0.001645
81837000,0.0324,0.013523,0.002678,0.000431,0.001410
81838000,0.0324,0.013523,0.002678,0.000431,0.001645
81839000,0.0324,0.013523,0.002678,0.000431,0.001645
81840000,0.0324,0.013523,0.002678,0.000431,0.001763
81841000,0.0324,0.013523,0.002678,0.000431,0.001528
81842000,0.0324,0.013523,0.002678,0.000431,0.001528
81843000,0.0324,0.013523,0.002678,0.000431,0.060409
81844000,0.0324,0.013523,0.002678,0.000431,0.856545
81845000,0.0324,0.013523,0.002678,0.000431,0.547799
81846000,0.0324,0.013523,0.002678,0.000431,0.137743
81847000,0.0324,0.013523,0.002678,0.000431,0.190513
81848000,0.0324,0.013523,0.002678,0.000431,0.476577
81849000,0.0324,0.013523,0.002678,0.000431,0.255036
81850000,0.0324,0.013523,0.002678,0.000431,0.302518
81851000,0.0324,0.013523,0.002678,0.000431,0.157605
81852000,0.0324,0.013523,0.002678,0.000431,0.130339
81853000,0.0324,0.013523,0.002678,0.000431,0.331194
81854000,0.0324,0.013523,0.002678,0.000431,0.504548
81855000,0.0324,0.013523,0.002678,0.000431,0.226712
81856000,0.0324,0.013523,0.002678,0.000431,0.191571
81857000,0.0324,0.013523,0.002678,0.000431,0.163364
81858000,0.0324,0.013523,0.002678,0.000431,0.117058
81859000,0.0324,0.013523,0.002678,0.000431,0.110947
81860000,0.0324,0.013523,0.002678,0.000431,0.068754
81861000,0.0324,0.013523,0.002678,0.000431,0.052183
81862000,0.0324,0.013523,0.002678,0.000431,0.055356
81863000,0.0324,0.013523,0.002678,0.000431,0.053828
81864000,0.0324,0.013523,0.002678,0.000431,0.033848
81865000,0.0324,0.013523,0.002678,0.000431,0.025386
81866000,0.0324,0.013523,0.002678,0.000431,0.023976
81867000,0.0324,0.013523,0.002678,0.000431,0.020920
81868000,0.0324,0.013523,0.002678,0.000431,0.016689
81869000,0.0324,0.013523,0.002678,0.000431,0.011518
81870000,0.0324,0.013523,0.002678,0.000431,0.009050
81871000,0.0324,0.013523,0.002678,0.000431,0.013163
81872000,0.0324,0.013523,0.002678,0.000431,0.009167
81873000,0.0324,0.013523,0.002678,0.000431,0.008109
81874000,0.0324,0.013523,0.002678,0.000431,0.003996
81875000,0.0324,0.013523,0.002678,0.000431,0.005759
81876000,0.0324,0.013523,0.002678,0.000431,0.001763
81877000,0.0324,0.013523,0.002678,0.000431,0.001645
81878000,0.0324,0.013523,0.002678,0.000431,0.001645
81879000,0.0324,0.013523,0.002678,0.000431,0.001645
81880000,0.0324,0.013523,0.002678,0.000431,0.001645
81881000,0.0324,0.013523,0.002678,0.000431,0.001645
81882000,0.0324,0.013523,0.002678,0.000431,0.001645
81883000,0.0324,0.013523,0.002678,0.000431,0.001410
81884000,0.0324,0.013523,0.002678,0.000431,0.001645
81885000,0.0324,0.013523,0.002678,0.000431,0.001645
81886000,0.0324,0.013523,0.002678,0.000431,0.001645
81887000,0.0324,0.013523,0.002678,0.000431,0.001645
81888000,0.0324,0.013523,0.002678,0.000431,0.001410
81889000,0.0324,0.013523,0.002678,0.000431,0.002351
81890000,0.0324,0.013523,0.002678,0.000431,0.421103
81891000,0.0324,0.013523,0.002678,0.000431,0.813883
81892000,0.0324,0.013523,0.002678,0.000431,0.320264
81893000,0.0324,0.013523,0.002678,0.000431,0.159251
81894000,0.0324,0.013523,0.002678,0.000431,0.572480
81895000,0.0324,0.013523,0.002678,0.000431,0.285358
81896000,0.0324,0.013523,0.002678,0.000431,0.317209
81897000,0.0324,0.013523,0.002678,0.000431,0.165480
81898000,0.0324,0.013523,0.002678,0.000431,0.120584
81899000,0.0324,0.013523,0.002678,0.000431,0.367393
81900000,0.0324,0.013523,0.002678,0.000431,0.512423
81901000,0.0324,0.013523,0.002678,0.000431,0.191806
81902000,0.0324,0.013523,0.002678,0.000431,0.182169
81903000,0.0324,0.013523,0.002678,0.000431,0.151024
81904000,0.0324,0.013523,0.002678,0.000431,0.118939
81905000,0.0324,0.013523,0.002678,0.000431,0.118351
81906000,0.0324,0.013523,0.002678,0.000431,0.101544
81907000,0.0324,0.013523,0.002678,0.000431,0.082740
81908000,0.0324,0.013523,0.002678,0.000431,0.051830
81909000,0.0324,0.013523,0.002678,0.000431,0.057471
81910000,0.0324,0.013523,0.002678,0.000431,0.032790
81911000,0.0324,0.013523,0.002678,0.000431,0.037256
81912000,0.0324,0.013523,0.002678,0.000431,0.029852
81913000,0.0324,0.013523,0.002678,0.000431,0.022213
81914000,0.0324,0.013523,0.002678,0.000431,0.022800
81915000,0.0324,0.013523,0.002678,0.000431,0.022213
81916000,0.0324,0.013523,0.002678,0.000431,0.013986
81917000,0.0324,0.013523,0.002678,0.000431,0.028442
81918000,0.0324,0.013523,0.002678,0.000431,0.011635
81919000,0.0324,0.013523,0.002678,0.000431,0.006699
81920000,0.0324,0.013523,0.002678,0.000431,0.005406
81921000,0.0324,0.013523,0.002678,0.000431,0.009167
81922000,0.0324,0.013523,0.002678,0.000431,0.007874
81923000,0.0324,0.013523,0.002678,0.000431,0.003173
81924000,0.0324,0.013523,0.002678,0.000431,0.003056
81925000,0.0324,0.013523,0.002678,0.000431,0.003408
81926000,0.0324,0.013523,0.002678,0.000431,0.003408
81927000,0.0324,0.013523,0.002678,0.000431,0.003291
81928000,0.0324,0.013523,0.002678,0.000431,0.004936
81929000,0.0324,0.013523,0.002678,0.000431,0.002586
81930000,0.0324,0.013523,0.002678,0.000431,0.002468
81931000,0.0324,0.013523,0.002678,0.000431,0.002586
81932000,0.0324,0.013523,0.002678,0.000431,0.002233
81933000,0.0324,0.013523,0.002678,0.000431,0.002586
81934000,0.0324,0.013523,0.002678,0.000431,0.002233
81935000,0.0324,0.013523,0.002678,0.000431,0.004231
81936000,0.0324,0.013523,0.002678,0.000431,0.002938
81937000,0.0324,0.013523,0.002678,0.000431,0.266671
81938000,0.0324,0.013523,0.002678,0.000431,0.842795
81939000,0.0324,0.013523,0.002678,0.000431,0.458360
81940000,0.0324,0.013523,0.002678,0.000431,0.141151
81941000,0.0324,0.013523,0.002678,0.000431,0.539219
81942000,0.0324,0.013523,0.002678,0.000431,0.268552
81943000,0.0324,0.013523,0.002678,0.000431,0.373152
81944000,0.0324,0.013523,0.002678,0.000431,0.159603
81945000,0.0324,0.013523,0.002678,0.000431,0.126460
81946000,0.0324,0.013523,0.002678,0.000431,0.303340
81947000,0.0324,0.013523,0.002678,0.000431,0.550972
81948000,0.0324,0.013523,0.002678,0.000431,0.242931
81949000,0.0324,0.013523,0.002678,0.000431,0.212021
81950000,0.0324,0.013523,0.002678,0.000431,0.178760
81951000,0.0324,0.013523,0.002678,0.000431,0.148556
81952000,0.0324,0.013523,0.002678,0.000431,0.115530
81953000,0.0324,0.013523,0.002678,0.000431,0.102132
81954000,0.0324,0.013523,0.002678,0.000431,0.069342
81955000,0.0324,0.013523,0.002678,0.000431,0.057236
81956000,0.0324,0.013523,0.002678,0.000431,0.057706
81957000,0.0324,0.013523,0.002678,0.000431,0.027619
81958000,0.0324,0.013523,0.002678,0.000431,0.026914
81959000,0.0324,0.013523,0.002678,0.000431,0.017394
81960000,0.0324,0.013523,0.002678,0.000431,0.014809
81961000,0.0324,0.013523,0.002678,0.000431,0.012693
81962000,0.0324,0.013523,0.002678,0.000431,0.011635
81963000,0.0324,0.013523,0.002678,0.000431,0.013046
81964000,0.0324,0.013523,0.002678,0.000431,0.011870
81965000,0.0324,0.013523,0.002678,0.000431,0.011518
81966000,0.0324,0.013523,0.002678,0.000431,0.008580
81967000,0.0324,0.013523,0.002678,0.000431,0.011518
81968000,0.0324,0.013523,0.002678,0.000431,0.006582
81969000,0.0324,0.013523,0.002678,0.000431,0.003878
81970000,0.0324,0.013523,0.002678,0.000431,0.003526
81971000,0.0324,0.013523,0.002678,0.000431,0.010107
81972000,0.0324,0.013523,0.002678,0.000431,0.005054
81973000,0.0324,0.013523,0.002678,0.000431,0.003761
81974000,0.0324,0.013523,0.002678,0.000431,0.645112
81975000,0.0324,0.013523,0.002678,0.000431,0.745011
81976000,0.0324,0.013523,0.002678,0.000431,0.195332
81977000,0.0324,0.013523,0.002678,0.000431,0.162071
81978000,0.0324,0.013523,0.002678,0.000431,0.562020
81979000,0.0324,0.013523,0.002678,0.000431,0.276309
81980000,0.0324,0.013523,0.002678,0.000431,0.314388
81981000,0.0324,0.013523,0.002678,0.000431,0.157253
81982000,0.0324,0.013523,0.002678,0.000431,0.103542
81983000,0.0324,0.013523,0.002678,0.000431,0.472698
81984000,0.0324,0.013523,0.002678,0.000431,0.444139
81985000,0.0324,0.013523,0.002678,0.000431,0.245516
81986000,0.0324,0.013523,0.002678,0.000431,0.229885
81987000,0.0324,0.013523,0.002678,0.000431,0.179230
81988000,0.0324,0.013523,0.002678,0.000431,0.151259
81989000,0.0324,0.013523,0.002678,0.000431,0.116588
81990000,0.0324,0.013523,0.002678,0.000431,0.088734
81991000,0.0324,0.013523,0.002678,0.000431,0.090967
81992000,0.0324,0.013523,0.002678,0.000431,0.065933
81993000,0.0324,0.013523,0.002678,0.000431,0.039725
81994000,0.0324,0.013523,0.002678,0.000431,0.045131
81995000,0.0324,0.013523,0.002678,0.000431,0.039960
81996000,0.0324,0.013523,0.002678,0.000431,0.023506
81997000,0.0324,0.013523,0.002678,0.000431,0.016219
81998000,0.0324,0.013523,0.002678,0.000431,0.008580
81999000,0.0324,0.013523,0.002678,0.000431,0.007522
