Cycle,Area(mm^2),PeakDynamic(W),SubthresholdLeakage(W),GateLeakage(W),RunTimeDynamic(W)
75000000,0.0324,0.013523,0.002678,0.000431,0.280657
75001000,0.0324,0.013523,0.002678,0.000431,0.227300
75002000,0.0324,0.013523,0.002678,0.000431,0.190983
75003000,0.0324,0.013523,0.002678,0.000431,0.146558
75004000,0.0324,0.013523,0.002678,0.000431,0.125285
75005000,0.0324,0.013523,0.002678,0.000431,0.101427
75006000,0.0324,0.013523,0.002678,0.000431,0.074395
75007000,0.0324,0.013523,0.002678,0.000431,0.057471
75008000,0.0324,0.013523,0.002678,0.000431,0.041017
75009000,0.0324,0.013523,0.002678,0.000431,0.024211
75010000,0.0324,0.013523,0.002678,0.000431,0.021390
75011000,0.0324,0.013523,0.002678,0.000431,0.010578
75012000,0.0324,0.013523,0.002678,0.000431,0.010578
75013000,0.0324,0.013523,0.002678,0.000431,0.010107
75014000,0.0324,0.013523,0.002678,0.000431,0.002703
75015000,0.0324,0.013523,0.002678,0.000431,0.002468
75016000,0.0324,0.013523,0.002678,0.000431,0.002821
75017000,0.0324,0.013523,0.002678,0.000431,0.004936
75018000,0.0324,0.013523,0.002678,0.000431,0.001880
75019000,0.0324,0.013523,0.002678,0.000431,0.001763
75020000,0.0324,0.013523,0.002678,0.000431,0.001645
75021000,0.0324,0.013523,0.002678,0.000431,0.001880
75022000,0.0324,0.013523,0.002678,0.000431,0.002821
75023000,0.0324,0.013523,0.002678,0.000431,0.002468
75024000,0.0324,0.013523,0.002678,0.000431,0.000823
75025000,0.0324,0.013523,0.002678,0.000431,0.000823
75026000,0.0324,0.013523,0.002678,0.000431,0.000823
75027000,0.0324,0.013523,0.002678,0.000431,0.000823
75028000,0.0324,0.013523,0.002678,0.000431,0.000940
75029000,0.0324,0.013523,0.002678,0.000431,0.000705
75030000,0.0324,0.013523,0.002678,0.000431,0.000940
75031000,0.0324,0.013523,0.002678,0.000431,0.000823
75032000,0.0324,0.013523,0.002678,0.000431,0.000823
75033000,0.0324,0.013523,0.002678,0.000431,0.000823
75034000,0.0324,0.013523,0.002678,0.000431,0.000823
75035000,0.0324,0.013523,0.002678,0.000431,0.000823
75036000,0.0324,0.013523,0.002678,0.000431,0.000823
75037000,0.0324,0.013523,0.002678,0.000431,0.000940
75038000,0.0324,0.013523,0.002678,0.000431,0.000705
75039000,0.0324,0.013523,0.002678,0.000431,0.000940
75040000,0.0324,0.013523,0.002678,0.000431,0.000705
75041000,0.0324,0.013523,0.002678,0.000431,0.000940
75042000,0.0324,0.013523,0.002678,0.000431,0.000940
75043000,0.0324,0.013523,0.002678,0.000431,0.000705
75044000,0.0324,0.013523,0.002678,0.000431,0.000940
75045000,0.0324,0.013523,0.002678,0.000431,0.000705
75046000,0.0324,0.013523,0.002678,0.000431,0.000940
75047000,0.0324,0.013523,0.002678,0.000431,0.000823
75048000,0.0324,0.013523,0.002678,0.000431,0.000823
75049000,0.0324,0.013523,0.002678,0.000431,0.000823
75050000,0.0324,0.013523,0.002678,0.000431,0.000823
75051000,0.0324,0.013523,0.002678,0.000431,0.000940
75052000,0.0324,0.013523,0.002678,0.000431,0.000705
75053000,0.0324,0.013523,0.002678,0.000431,0.000940
75054000,0.0324,0.013523,0.002678,0.000431,0.000823
75055000,0.0324,0.013523,0.002678,0.000431,0.000705
75056000,0.0324,0.013523,0.002678,0.000431,0.000940
75057000,0.0324,0.013523,0.002678,0.000431,0.000823
75058000,0.0324,0.013523,0.002678,0.000431,0.000823
75059000,0.0324,0.013523,0.002678,0.000431,0.000823
75060000,0.0324,0.013523,0.002678,0.000431,0.000823
75061000,0.0324,0.013523,0.002678,0.000431,0.000823
75062000,0.0324,0.013523,0.002678,0.000431,0.000940
75063000,0.0324,0.013523,0.002678,0.000431,0.000823
75064000,0.0324,0.013523,0.002678,0.000431,0.000823
75065000,0.0324,0.013523,0.002678,0.000431,0.000705
75066000,0.0324,0.013523,0.002678,0.000431,0.000940
75067000,0.0324,0.013523,0.002678,0.000431,0.000940
75068000,0.0324,0.013523,0.002678,0.000431,0.000705
75069000,0.0324,0.013523,0.002678,0.000431,0.000940
75070000,0.0324,0.013523,0.002678,0.000431,0.000705
75071000,0.0324,0.013523,0.002678,0.000431,0.000940
75072000,0.0324,0.013523,0.002678,0.000431,0.000823
75073000,0.0324,0.013523,0.002678,0.000431,0.000823
75074000,0.0324,0.013523,0.002678,0.000431,0.000940
75075000,0.0324,0.013523,0.002678,0.000431,0.000705
75076000,0.0324,0.013523,0.002678,0.000431,0.000940
75077000,0.0324,0.013523,0.002678,0.000431,0.000705
75078000,0.0324,0.013523,0.002678,0.000431,0.000940
75079000,0.0324,0.013523,0.002678,0.000431,0.000823
75080000,0.0324,0.013523,0.002678,0.000431,0.000823
75081000,0.0324,0.013523,0.002678,0.000431,0.000823
75082000,0.0324,0.013523,0.002678,0.000431,0.000823
75083000,0.0324,0.013523,0.002678,0.000431,0.000940
75084000,0.0324,0.013523,0.002678,0.000431,0.000705
75085000,0.0324,0.013523,0.002678,0.000431,0.000940
75086000,0.0324,0.013523,0.002678,0.000431,0.000823
75087000,0.0324,0.013523,0.002678,0.000431,0.000823
75088000,0.0324,0.013523,0.002678,0.000431,0.000940
75089000,0.0324,0.013523,0.002678,0.000431,0.000940
75090000,0.0324,0.013523,0.002678,0.000431,0.257504
75091000,0.0324,0.013523,0.002678,0.000431,0.794255
75092000,0.0324,0.013523,0.002678,0.000431,0.439908
75093000,0.0324,0.013523,0.002678,0.000431,0.139388
75094000,0.0324,0.013523,0.002678,0.000431,0.509015
75095000,0.0324,0.013523,0.002678,0.000431,0.266319
75096000,0.0324,0.013523,0.002678,0.000431,0.324260
75097000,0.0324,0.013523,0.002678,0.000431,0.149848
75098000,0.0324,0.013523,0.002678,0.000431,0.124580
75099000,0.0324,0.013523,0.002678,0.000431,0.352349
75100000,0.0324,0.013523,0.002678,0.000431,0.473639
75101000,0.0324,0.013523,0.002678,0.000431,0.223304
75102000,0.0324,0.013523,0.002678,0.000431,0.221658
75103000,0.0324,0.013523,0.002678,0.000431,0.180523
75104000,0.0324,0.013523,0.002678,0.000431,0.152669
75105000,0.0324,0.013523,0.002678,0.000431,0.122347
75106000,0.0324,0.013523,0.002678,0.000431,0.119761
75107000,0.0324,0.013523,0.002678,0.000431,0.084503
75108000,0.0324,0.013523,0.002678,0.000431,0.071457
75109000,0.0324,0.013523,0.002678,0.000431,0.056884
75110000,0.0324,0.013523,0.002678,0.000431,0.038197
75111000,0.0324,0.013523,0.002678,0.000431,0.029617
75112000,0.0324,0.013523,0.002678,0.000431,0.028794
75113000,0.0324,0.013523,0.002678,0.000431,0.017159
75114000,0.0324,0.013523,0.002678,0.000431,0.019510
75115000,0.0324,0.013523,0.002678,0.000431,0.009520
75116000,0.0324,0.013523,0.002678,0.000431,0.018217
75117000,0.0324,0.013523,0.002678,0.000431,0.008580
75118000,0.0324,0.013523,0.002678,0.000431,0.003878
75119000,0.0324,0.013523,0.002678,0.000431,0.007169
75120000,0.0324,0.013523,0.002678,0.000431,0.003291
75121000,0.0324,0.013523,0.002678,0.000431,0.003056
75122000,0.0324,0.013523,0.002678,0.000431,0.003056
75123000,0.0324,0.013523,0.002678,0.000431,0.002938
75124000,0.0324,0.013523,0.002678,0.000431,0.002586
75125000,0.0324,0.013523,0.002678,0.000431,0.002468
75126000,0.0324,0.013523,0.002678,0.000431,0.002703
75127000,0.0324,0.013523,0.002678,0.000431,0.002468
75128000,0.0324,0.013523,0.002678,0.000431,0.002586
75129000,0.0324,0.013523,0.002678,0.000431,0.002586
75130000,0.0324,0.013523,0.002678,0.000431,0.002468
75131000,0.0324,0.013523,0.002678,0.000431,0.002703
75132000,0.0324,0.013523,0.002678,0.000431,0.002351
75133000,0.0324,0.013523,0.002678,0.000431,0.002821
75134000,0.0324,0.013523,0.002678,0.000431,0.002351
75135000,0.0324,0.013523,0.002678,0.000431,0.002586
75136000,0.0324,0.013523,0.002678,0.000431,0.002351
75137000,0.0324,0.013523,0.002678,0.000431,0.002703
75138000,0.0324,0.013523,0.002678,0.000431,0.004466
75139000,0.0324,0.013523,0.002678,0.000431,0.001645
75140000,0.0324,0.013523,0.002678,0.000431,0.001880
75141000,0.0324,0.013523,0.002678,0.000431,0.003761
75142000,0.0324,0.013523,0.002678,0.000431,0.287239
75143000,0.0324,0.013523,0.002678,0.000431,0.795901
75144000,0.0324,0.013523,0.002678,0.000431,0.399948
75145000,0.0324,0.013523,0.002678,0.000431,0.138566
75146000,0.0324,0.013523,0.002678,0.000431,0.476577
75147000,0.0324,0.013523,0.002678,0.000431,0.242108
75148000,0.0324,0.013523,0.002678,0.000431,0.320734
75149000,0.0324,0.013523,0.002678,0.000431,0.164539
75150000,0.0324,0.013523,0.002678,0.000431,0.185342
75151000,0.0324,0.013523,0.002678,0.000431,0.113767
75152000,0.0324,0.013523,0.002678,0.000431,0.595985
75153000,0.0324,0.013523,0.002678,0.000431,0.227652
75154000,0.0324,0.013523,0.002678,0.000431,0.177938
75155000,0.0324,0.013523,0.002678,0.000431,0.166185
75156000,0.0324,0.013523,0.002678,0.000431,0.169946
75157000,0.0324,0.013523,0.002678,0.000431,0.107186
75158000,0.0324,0.013523,0.002678,0.000431,0.090379
75159000,0.0324,0.013523,0.002678,0.000431,0.080624
75160000,0.0324,0.013523,0.002678,0.000431,0.072397
75161000,0.0324,0.013523,0.002678,0.000431,0.064053
75162000,0.0324,0.013523,0.002678,0.000431,0.057471
75163000,0.0324,0.013523,0.002678,0.000431,0.052535
75164000,0.0324,0.013523,0.002678,0.000431,0.053710
75165000,0.0324,0.013523,0.002678,0.000431,0.054768
75166000,0.0324,0.013523,0.002678,0.000431,0.042193
75167000,0.0324,0.013523,0.002678,0.000431,0.028324
75168000,0.0324,0.013523,0.002678,0.000431,0.019392
75169000,0.0324,0.013523,0.002678,0.000431,0.016101
75170000,0.0324,0.013523,0.002678,0.000431,0.017042
75171000,0.0324,0.013523,0.002678,0.000431,0.011870
75172000,0.0324,0.013523,0.002678,0.000431,0.015396
75173000,0.0324,0.013523,0.002678,0.000431,0.011165
75174000,0.0324,0.013523,0.002678,0.000431,0.008697
75175000,0.0324,0.013523,0.002678,0.000431,0.009872
75176000,0.0324,0.013523,0.002678,0.000431,0.011283
75177000,0.0324,0.013523,0.002678,0.000431,0.006699
75178000,0.0324,0.013523,0.002678,0.000431,0.004466
75179000,0.0324,0.013523,0.002678,0.000431,0.006347
75180000,0.0324,0.013523,0.002678,0.000431,0.002703
75181000,0.0324,0.013523,0.002678,0.000431,0.002233
75182000,0.0324,0.013523,0.002678,0.000431,0.002233
75183000,0.0324,0.013523,0.002678,0.000431,0.007639
75184000,0.0324,0.013523,0.002678,0.000431,0.000940
75185000,0.0324,0.013523,0.002678,0.000431,0.000940
75186000,0.0324,0.013523,0.002678,0.000431,0.000823
75187000,0.0324,0.013523,0.002678,0.000431,0.000823
75188000,0.0324,0.013523,0.002678,0.000431,0.000705
75189000,0.0324,0.013523,0.002678,0.000431,0.000940
75190000,0.0324,0.013523,0.002678,0.000431,0.000940
75191000,0.0324,0.013523,0.002678,0.000431,0.000705
75192000,0.0324,0.013523,0.002678,0.000431,0.000940
75193000,0.0324,0.013523,0.002678,0.000431,0.000705
75194000,0.0324,0.013523,0.002678,0.000431,0.000940
75195000,0.0324,0.013523,0.002678,0.000431,0.000823
75196000,0.0324,0.013523,0.002678,0.000431,0.000823
75197000,0.0324,0.013523,0.002678,0.000431,0.000940
75198000,0.0324,0.013523,0.002678,0.000431,0.000705
75199000,0.0324,0.013523,0.002678,0.000431,0.000940
75200000,0.0324,0.013523,0.002678,0.000431,0.000823
75201000,0.0324,0.013523,0.002678,0.000431,0.000823
75202000,0.0324,0.013523,0.002678,0.000431,0.000823
75203000,0.0324,0.013523,0.002678,0.000431,0.000823
75204000,0.0324,0.013523,0.002678,0.000431,0.000823
75205000,0.0324,0.013523,0.002678,0.000431,0.000823
75206000,0.0324,0.013523,0.002678,0.000431,0.000940
75207000,0.0324,0.013523,0.002678,0.000431,0.000705
75208000,0.0324,0.013523,0.002678,0.000431,0.000940
75209000,0.0324,0.013523,0.002678,0.000431,0.000823
75210000,0.0324,0.013523,0.002678,0.000431,0.000823
75211000,0.0324,0.013523,0.002678,0.000431,0.000705
75212000,0.0324,0.013523,0.002678,0.000431,0.000940
75213000,0.0324,0.013523,0.002678,0.000431,0.000940
75214000,0.0324,0.013523,0.002678,0.000431,0.000705
75215000,0.0324,0.013523,0.002678,0.000431,0.000940
75216000,0.0324,0.013523,0.002678,0.000431,0.000705
75217000,0.0324,0.013523,0.002678,0.000431,0.000940
75218000,0.0324,0.013523,0.002678,0.000431,0.000823
75219000,0.0324,0.013523,0.002678,0.000431,0.000823
75220000,0.0324,0.013523,0.002678,0.000431,0.000940
75221000,0.0324,0.013523,0.002678,0.000431,0.000705
75222000,0.0324,0.013523,0.002678,0.000431,0.000940
75223000,0.0324,0.013523,0.002678,0.000431,0.000823
75224000,0.0324,0.013523,0.002678,0.000431,0.000823
75225000,0.0324,0.013523,0.002678,0.000431,0.000823
75226000,0.0324,0.013523,0.002678,0.000431,0.000823
75227000,0.0324,0.013523,0.002678,0.000431,0.000823
75228000,0.0324,0.013523,0.002678,0.000431,0.000823
75229000,0.0324,0.013523,0.002678,0.000431,0.000940
75230000,0.0324,0.013523,0.002678,0.000431,0.000705
75231000,0.0324,0.013523,0.002678,0.000431,0.000823
75232000,0.0324,0.013523,0.002678,0.000431,0.000940
75233000,0.0324,0.013523,0.002678,0.000431,0.000823
75234000,0.0324,0.013523,0.002678,0.000431,0.000823
75235000,0.0324,0.013523,0.002678,0.000431,0.000823
75236000,0.0324,0.013523,0.002678,0.000431,0.000705
75237000,0.0324,0.013523,0.002678,0.000431,0.000940
75238000,0.0324,0.013523,0.002678,0.000431,0.000940
75239000,0.0324,0.013523,0.002678,0.000431,0.000705
75240000,0.0324,0.013523,0.002678,0.000431,0.000940
75241000,0.0324,0.013523,0.002678,0.000431,0.000705
75242000,0.0324,0.013523,0.002678,0.000431,0.000940
75243000,0.0324,0.013523,0.002678,0.000431,0.000940
75244000,0.0324,0.013523,0.002678,0.000431,0.000705
75245000,0.0324,0.013523,0.002678,0.000431,0.000940
75246000,0.0324,0.013523,0.002678,0.000431,0.000705
75247000,0.0324,0.013523,0.002678,0.000431,0.000940
75248000,0.0324,0.013523,0.002678,0.000431,0.000823
75249000,0.0324,0.013523,0.002678,0.000431,0.000823
75250000,0.0324,0.013523,0.002678,0.000431,0.000823
75251000,0.0324,0.013523,0.002678,0.000431,0.000823
75252000,0.0324,0.013523,0.002678,0.000431,0.000705
75253000,0.0324,0.013523,0.002678,0.000431,0.000940
75254000,0.0324,0.013523,0.002678,0.000431,0.000823
75255000,0.0324,0.013523,0.002678,0.000431,0.000823
75256000,0.0324,0.013523,0.002678,0.000431,0.000823
75257000,0.0324,0.013523,0.002678,0.000431,0.000823
75258000,0.0324,0.013523,0.002678,0.000431,0.000940
75259000,0.0324,0.013523,0.002678,0.000431,0.000823
75260000,0.0324,0.013523,0.002678,0.000431,0.000823
75261000,0.0324,0.013523,0.002678,0.000431,0.000823
75262000,0.0324,0.013523,0.002678,0.000431,0.000823
75263000,0.0324,0.013523,0.002678,0.000431,0.000940
75264000,0.0324,0.013523,0.002678,0.000431,0.000940
75265000,0.0324,0.013523,0.002678,0.000431,0.000940
75266000,0.0324,0.013523,0.002678,0.000431,0.000940
75267000,0.0324,0.013523,0.002678,0.000431,0.028442
75268000,0.0324,0.013523,0.002678,0.000431,0.849964
75269000,0.0324,0.013523,0.002678,0.000431,0.524646
75270000,0.0324,0.013523,0.002678,0.000431,0.138096
75271000,0.0324,0.013523,0.002678,0.000431,0.200386
75272000,0.0324,0.013523,0.002678,0.000431,0.458242
75273000,0.0324,0.013523,0.002678,0.000431,0.257152
75274000,0.0324,0.013523,0.002678,0.000431,0.279717
75275000,0.0324,0.013523,0.002678,0.000431,0.162306
75276000,0.0324,0.013523,0.002678,0.000431,0.113767
75277000,0.0324,0.013523,0.002678,0.000431,0.463649
75278000,0.0324,0.013523,0.002678,0.000431,0.351644
75279000,0.0324,0.013523,0.002678,0.000431,0.214136
75280000,0.0324,0.013523,0.002678,0.000431,0.171826
75281000,0.0324,0.013523,0.002678,0.000431,0.139976
75282000,0.0324,0.013523,0.002678,0.000431,0.099664
75283000,0.0324,0.013523,0.002678,0.000431,0.075336
75284000,0.0324,0.013523,0.002678,0.000431,0.072985
75285000,0.0324,0.013523,0.002678,0.000431,0.055121
75286000,0.0324,0.013523,0.002678,0.000431,0.033848
75287000,0.0324,0.013523,0.002678,0.000431,0.026679
75288000,0.0324,0.013523,0.002678,0.000431,0.032555
75289000,0.0324,0.013523,0.002678,0.000431,0.021860
75290000,0.0324,0.013523,0.002678,0.000431,0.021508
75291000,0.0324,0.013523,0.002678,0.000431,0.010225
75292000,0.0324,0.013523,0.002678,0.000431,0.012576
75293000,0.0324,0.013523,0.002678,0.000431,0.015044
75294000,0.0324,0.013523,0.002678,0.000431,0.005406
75295000,0.0324,0.013523,0.002678,0.000431,0.005641
75296000,0.0324,0.013523,0.002678,0.000431,0.001763
75297000,0.0324,0.013523,0.002678,0.000431,0.001763
75298000,0.0324,0.013523,0.002678,0.000431,0.002468
75299000,0.0324,0.013523,0.002678,0.000431,0.002116
75300000,0.0324,0.013523,0.002678,0.000431,0.000823
75301000,0.0324,0.013523,0.002678,0.000431,0.000823
75302000,0.0324,0.013523,0.002678,0.000431,0.000823
75303000,0.0324,0.013523,0.002678,0.000431,0.000940
75304000,0.0324,0.013523,0.002678,0.000431,0.000705
75305000,0.0324,0.013523,0.002678,0.000431,0.000940
75306000,0.0324,0.013523,0.002678,0.000431,0.000823
75307000,0.0324,0.013523,0.002678,0.000431,0.000823
75308000,0.0324,0.013523,0.002678,0.000431,0.000705
75309000,0.0324,0.013523,0.002678,0.000431,0.000940
75310000,0.0324,0.013523,0.002678,0.000431,0.000940
75311000,0.0324,0.013523,0.002678,0.000431,0.000705
75312000,0.0324,0.013523,0.002678,0.000431,0.000940
75313000,0.0324,0.013523,0.002678,0.000431,0.013516
75314000,0.0324,0.013523,0.002678,0.000431,0.733611
75315000,0.0324,0.013523,0.002678,0.000431,0.613732
75316000,0.0324,0.013523,0.002678,0.000431,0.159251
75317000,0.0324,0.013523,0.002678,0.000431,0.177703
75318000,0.0324,0.013523,0.002678,0.000431,0.545448
75319000,0.0324,0.013523,0.002678,0.000431,0.296994
75320000,0.0324,0.013523,0.002678,0.000431,0.308276
75321000,0.0324,0.013523,0.002678,0.000431,0.180758
75322000,0.0324,0.013523,0.002678,0.000431,0.084620
75323000,0.0324,0.013523,0.002678,0.000431,0.591637
75324000,0.0324,0.013523,0.002678,0.000431,0.322732
75325000,0.0324,0.013523,0.002678,0.000431,0.230238
75326000,0.0324,0.013523,0.002678,0.000431,0.185577
75327000,0.0324,0.013523,0.002678,0.000431,0.170651
75328000,0.0324,0.013523,0.002678,0.000431,0.123640
75329000,0.0324,0.013523,0.002678,0.000431,0.112357
75330000,0.0324,0.013523,0.002678,0.000431,0.073573
75331000,0.0324,0.013523,0.002678,0.000431,0.046541
75332000,0.0324,0.013523,0.002678,0.000431,0.045718
75333000,0.0324,0.013523,0.002678,0.000431,0.034906
75334000,0.0324,0.013523,0.002678,0.000431,0.017394
75335000,0.0324,0.013523,0.002678,0.000431,0.018569
75336000,0.0324,0.013523,0.002678,0.000431,0.022448
75337000,0.0324,0.013523,0.002678,0.000431,0.013398
75338000,0.0324,0.013523,0.002678,0.000431,0.006347
75339000,0.0324,0.013523,0.002678,0.000431,0.003878
75340000,0.0324,0.013523,0.002678,0.000431,0.004466
75341000,0.0324,0.013523,0.002678,0.000431,0.004113
75342000,0.0324,0.013523,0.002678,0.000431,0.006229
75343000,0.0324,0.013523,0.002678,0.000431,0.003408
75344000,0.0324,0.013523,0.002678,0.000431,0.002821
75345000,0.0324,0.013523,0.002678,0.000431,0.003643
75346000,0.0324,0.013523,0.002678,0.000431,0.002233
75347000,0.0324,0.013523,0.002678,0.000431,0.002586
75348000,0.0324,0.013523,0.002678,0.000431,0.001998
75349000,0.0324,0.013523,0.002678,0.000431,0.004936
75350000,0.0324,0.013523,0.002678,0.000431,0.004466
75351000,0.0324,0.013523,0.002678,0.000431,0.642527
75352000,0.0324,0.013523,0.002678,0.000431,0.755706
75353000,0.0324,0.013523,0.002678,0.000431,0.171944
75354000,0.0324,0.013523,0.002678,0.000431,0.143854
75355000,0.0324,0.013523,0.002678,0.000431,0.567896
75356000,0.0324,0.013523,0.002678,0.000431,0.264909
75357000,0.0324,0.013523,0.002678,0.000431,0.285241
75358000,0.0324,0.013523,0.002678,0.000431,0.155842
75359000,0.0324,0.013523,0.002678,0.000431,0.117998
75360000,0.0324,0.013523,0.002678,0.000431,0.463531
75361000,0.0324,0.013523,0.002678,0.000431,0.387490
75362000,0.0324,0.013523,0.002678,0.000431,0.233058
75363000,0.0324,0.013523,0.002678,0.000431,0.198740
75364000,0.0324,0.013523,0.002678,0.000431,0.183814
75365000,0.0324,0.013523,0.002678,0.000431,0.123992
75366000,0.0324,0.013523,0.002678,0.000431,0.126460
75367000,0.0324,0.013523,0.002678,0.000431,0.098371
75368000,0.0324,0.013523,0.002678,0.000431,0.061350
75369000,0.0324,0.013523,0.002678,0.000431,0.045248
75370000,0.0324,0.013523,0.002678,0.000431,0.031262
75371000,0.0324,0.013523,0.002678,0.000431,0.023153
75372000,0.0324,0.013523,0.002678,0.000431,0.017394
75373000,0.0324,0.013523,0.002678,0.000431,0.023976
75374000,0.0324,0.013523,0.002678,0.000431,0.011518
75375000,0.0324,0.013523,0.002678,0.000431,0.008462
75376000,0.0324,0.013523,0.002678,0.000431,0.003408
75377000,0.0324,0.013523,0.002678,0.000431,0.003173
75378000,0.0324,0.013523,0.002678,0.000431,0.006464
75379000,0.0324,0.013523,0.002678,0.000431,0.002586
75380000,0.0324,0.013523,0.002678,0.000431,0.002351
75381000,0.0324,0.013523,0.002678,0.000431,0.002351
75382000,0.0324,0.013523,0.002678,0.000431,0.007404
75383000,0.0324,0.013523,0.002678,0.000431,0.000823
75384000,0.0324,0.013523,0.002678,0.000431,0.000940
75385000,0.0324,0.013523,0.002678,0.000431,0.000823
75386000,0.0324,0.013523,0.002678,0.000431,0.000823
75387000,0.0324,0.013523,0.002678,0.000431,0.268434
75388000,0.0324,0.013523,0.002678,0.000431,0.762993
75389000,0.0324,0.013523,0.002678,0.000431,0.458360
75390000,0.0324,0.013523,0.002678,0.000431,0.141386
75391000,0.0324,0.013523,0.002678,0.000431,0.544038
75392000,0.0324,0.013523,0.002678,0.000431,0.260090
75393000,0.0324,0.013523,0.002678,0.000431,0.329784
75394000,0.0324,0.013523,0.002678,0.000431,0.171709
75395000,0.0324,0.013523,0.002678,0.000431,0.131514
75396000,0.0324,0.013523,0.002678,0.000431,0.254684
75397000,0.0324,0.013523,0.002678,0.000431,0.558611
75398000,0.0324,0.013523,0.002678,0.000431,0.234234
75399000,0.0324,0.013523,0.002678,0.000431,0.201326
75400000,0.0324,0.013523,0.002678,0.000431,0.167948
75401000,0.0324,0.013523,0.002678,0.000431,0.124227
75402000,0.0324,0.013523,0.002678,0.000431,0.088969
75403000,0.0324,0.013523,0.002678,0.000431,0.070634
75404000,0.0324,0.013523,0.002678,0.000431,0.068872
75405000,0.0324,0.013523,0.002678,0.000431,0.041252
75406000,0.0324,0.013523,0.002678,0.000431,0.046541
75407000,0.0324,0.013523,0.002678,0.000431,0.031262
75408000,0.0324,0.013523,0.002678,0.000431,0.031733
75409000,0.0324,0.013523,0.002678,0.000431,0.020450
75410000,0.0324,0.013523,0.002678,0.000431,0.018569
75411000,0.0324,0.013523,0.002678,0.000431,0.022448
75412000,0.0324,0.013523,0.002678,0.000431,0.011988
75413000,0.0324,0.013523,0.002678,0.000431,0.010695
75414000,0.0324,0.013523,0.002678,0.000431,0.017277
75415000,0.0324,0.013523,0.002678,0.000431,0.007404
75416000,0.0324,0.013523,0.002678,0.000431,0.006934
75417000,0.0324,0.013523,0.002678,0.000431,0.007052
75418000,0.0324,0.013523,0.002678,0.000431,0.009167
75419000,0.0324,0.013523,0.002678,0.000431,0.006111
75420000,0.0324,0.013523,0.002678,0.000431,0.007287
75421000,0.0324,0.013523,0.002678,0.000431,0.006699
75422000,0.0324,0.013523,0.002678,0.000431,0.003643
75423000,0.0324,0.013523,0.002678,0.000431,0.003291
75424000,0.0324,0.013523,0.002678,0.000431,0.003291
75425000,0.0324,0.013523,0.002678,0.000431,0.003291
75426000,0.0324,0.013523,0.002678,0.000431,0.003526
75427000,0.0324,0.013523,0.002678,0.000431,0.002586
75428000,0.0324,0.013523,0.002678,0.000431,0.001880
75429000,0.0324,0.013523,0.002678,0.000431,0.064523
75430000,0.0324,0.013523,0.002678,0.000431,0.855723
75431000,0.0324,0.013523,0.002678,0.000431,0.541217
75432000,0.0324,0.013523,0.002678,0.000431,0.151024
75433000,0.0324,0.013523,0.002678,0.000431,0.265261
75434000,0.0324,0.013523,0.002678,0.000431,0.470818
75435000,0.0324,0.013523,0.002678,0.000431,0.271843
75436000,0.0324,0.013523,0.002678,0.000431,0.247044
75437000,0.0324,0.013523,0.002678,0.000431,0.166655
75438000,0.0324,0.013523,0.002678,0.000431,0.108361
75439000,0.0324,0.013523,0.002678,0.000431,0.527114
75440000,0.0324,0.013523,0.002678,0.000431,0.316268
75441000,0.0324,0.013523,0.002678,0.000431,0.202971
75442000,0.0324,0.013523,0.002678,0.000431,0.179230
75443000,0.0324,0.013523,0.002678,0.000431,0.137626
75444000,0.0324,0.013523,0.002678,0.000431,0.108126
75445000,0.0324,0.013523,0.002678,0.000431,0.095198
75446000,0.0324,0.013523,0.002678,0.000431,0.066638
75447000,0.0324,0.013523,0.002678,0.000431,0.059822
75448000,0.0324,0.013523,0.002678,0.000431,0.040900
75449000,0.0324,0.013523,0.002678,0.000431,0.028442
75450000,0.0324,0.013523,0.002678,0.000431,0.030792
75451000,0.0324,0.013523,0.002678,0.000431,0.016807
75452000,0.0324,0.013523,0.002678,0.000431,0.017864
75453000,0.0324,0.013523,0.002678,0.000431,0.016689
75454000,0.0324,0.013523,0.002678,0.000431,0.018099
75455000,0.0324,0.013523,0.002678,0.000431,0.012576
75456000,0.0324,0.013523,0.002678,0.000431,0.009637
75457000,0.0324,0.013523,0.002678,0.000431,0.005876
75458000,0.0324,0.013523,0.002678,0.000431,0.001763
75459000,0.0324,0.013523,0.002678,0.000431,0.004936
75460000,0.0324,0.013523,0.002678,0.000431,0.000823
75461000,0.0324,0.013523,0.002678,0.000431,0.000940
75462000,0.0324,0.013523,0.002678,0.000431,0.000705
75463000,0.0324,0.013523,0.002678,0.000431,0.000940
75464000,0.0324,0.013523,0.002678,0.000431,0.000705
75465000,0.0324,0.013523,0.002678,0.000431,0.000940
75466000,0.0324,0.013523,0.002678,0.000431,0.068636
75467000,0.0324,0.013523,0.002678,0.000431,0.834568
75468000,0.0324,0.013523,0.002678,0.000431,0.542275
75469000,0.0324,0.013523,0.002678,0.000431,0.143619
75470000,0.0324,0.013523,0.002678,0.000431,0.303693
75471000,0.0324,0.013523,0.002678,0.000431,0.397833
75472000,0.0324,0.013523,0.002678,0.000431,0.281715
75473000,0.0324,0.013523,0.002678,0.000431,0.257034
75474000,0.0324,0.013523,0.002678,0.000431,0.171591
75475000,0.0324,0.013523,0.002678,0.000431,0.113650
75476000,0.0324,0.013523,0.002678,0.000431,0.510072
75477000,0.0324,0.013523,0.002678,0.000431,0.334015
75478000,0.0324,0.013523,0.002678,0.000431,0.212608
75479000,0.0324,0.013523,0.002678,0.000431,0.186047
75480000,0.0324,0.013523,0.002678,0.000431,0.146910
75481000,0.0324,0.013523,0.002678,0.000431,0.116118
75482000,0.0324,0.013523,0.002678,0.000431,0.101897
75483000,0.0324,0.013523,0.002678,0.000431,0.075453
75484000,0.0324,0.013523,0.002678,0.000431,0.055708
75485000,0.0324,0.013523,0.002678,0.000431,0.035023
75486000,0.0324,0.013523,0.002678,0.000431,0.023976
75487000,0.0324,0.013523,0.002678,0.000431,0.023976
75488000,0.0324,0.013523,0.002678,0.000431,0.020802
75489000,0.0324,0.013523,0.002678,0.000431,0.018569
75490000,0.0324,0.013523,0.002678,0.000431,0.015396
75491000,0.0324,0.013523,0.002678,0.000431,0.010930
75492000,0.0324,0.013523,0.002678,0.000431,0.009637
75493000,0.0324,0.013523,0.002678,0.000431,0.005406
75494000,0.0324,0.013523,0.002678,0.000431,0.001645
75495000,0.0324,0.013523,0.002678,0.000431,0.172296
75496000,0.0324,0.013523,0.002678,0.000431,0.826693
75497000,0.0324,0.013523,0.002678,0.000431,0.487742
75498000,0.0324,0.013523,0.002678,0.000431,0.144090
75499000,0.0324,0.013523,0.002678,0.000431,0.489152
75500000,0.0324,0.013523,0.002678,0.000431,0.247984
75501000,0.0324,0.013523,0.002678,0.000431,0.364102
75502000,0.0324,0.013523,0.002678,0.000431,0.178995
75503000,0.0324,0.013523,0.002678,0.000431,0.149848
75504000,0.0324,0.013523,0.002678,0.000431,0.244106
75505000,0.0324,0.013523,0.002678,0.000431,0.509485
75506000,0.0324,0.013523,0.002678,0.000431,0.200150
75507000,0.0324,0.013523,0.002678,0.000431,0.181934
75508000,0.0324,0.013523,0.002678,0.000431,0.145500
75509000,0.0324,0.013523,0.002678,0.000431,0.127165
75510000,0.0324,0.013523,0.002678,0.000431,0.106481
75511000,0.0324,0.013523,0.002678,0.000431,0.093435
75512000,0.0324,0.013523,0.002678,0.000431,0.072632
75513000,0.0324,0.013523,0.002678,0.000431,0.056884
75514000,0.0324,0.013523,0.002678,0.000431,0.042310
75515000,0.0324,0.013523,0.002678,0.000431,0.039372
75516000,0.0324,0.013523,0.002678,0.000431,0.033848
75517000,0.0324,0.013523,0.002678,0.000431,0.023858
75518000,0.0324,0.013523,0.002678,0.000431,0.032673
75519000,0.0324,0.013523,0.002678,0.000431,0.021625
75520000,0.0324,0.013523,0.002678,0.000431,0.028677
75521000,0.0324,0.013523,0.002678,0.000431,0.025739
75522000,0.0324,0.013523,0.002678,0.000431,0.016807
75523000,0.0324,0.013523,0.002678,0.000431,0.016101
75524000,0.0324,0.013523,0.002678,0.000431,0.015279
75525000,0.0324,0.013523,0.002678,0.000431,0.016219
75526000,0.0324,0.013523,0.002678,0.000431,0.010930
75527000,0.0324,0.013523,0.002678,0.000431,0.010695
75528000,0.0324,0.013523,0.002678,0.000431,0.014691
75529000,0.0324,0.013523,0.002678,0.000431,0.008462
75530000,0.0324,0.013523,0.002678,0.000431,0.010930
75531000,0.0324,0.013523,0.002678,0.000431,0.006934
75532000,0.0324,0.013523,0.002678,0.000431,0.007757
75533000,0.0324,0.013523,0.002678,0.000431,0.007404
75534000,0.0324,0.013523,0.002678,0.000431,0.007287
75535000,0.0324,0.013523,0.002678,0.000431,0.008109
75536000,0.0324,0.013523,0.002678,0.000431,0.007287
75537000,0.0324,0.013523,0.002678,0.000431,0.007757
75538000,0.0324,0.013523,0.002678,0.000431,0.007169
75539000,0.0324,0.013523,0.002678,0.000431,0.005759
75540000,0.0324,0.013523,0.002678,0.000431,0.002821
75541000,0.0324,0.013523,0.002678,0.000431,0.002938
75542000,0.0324,0.013523,0.002678,0.000431,0.003173
75543000,0.0324,0.013523,0.002678,0.000431,0.002468
75544000,0.0324,0.013523,0.002678,0.000431,0.003173
75545000,0.0324,0.013523,0.002678,0.000431,0.003291
75546000,0.0324,0.013523,0.002678,0.000431,0.002586
75547000,0.0324,0.013523,0.002678,0.000431,0.003408
75548000,0.0324,0.013523,0.002678,0.000431,0.002351
75549000,0.0324,0.013523,0.002678,0.000431,0.003408
75550000,0.0324,0.013523,0.002678,0.000431,0.002821
75551000,0.0324,0.013523,0.002678,0.000431,0.004819
75552000,0.0324,0.013523,0.002678,0.000431,0.002586
75553000,0.0324,0.013523,0.002678,0.000431,0.002116
75554000,0.0324,0.013523,0.002678,0.000431,0.002233
75555000,0.0324,0.013523,0.002678,0.000431,0.002938
75556000,0.0324,0.013523,0.002678,0.000431,0.002116
75557000,0.0324,0.013523,0.002678,0.000431,0.002586
75558000,0.0324,0.013523,0.002678,0.000431,0.002351
75559000,0.0324,0.013523,0.002678,0.000431,0.001998
75560000,0.0324,0.013523,0.002678,0.000431,0.002116
75561000,0.0324,0.013523,0.002678,0.000431,0.002468
75562000,0.0324,0.013523,0.002678,0.000431,0.002703
75563000,0.0324,0.013523,0.002678,0.000431,0.002586
75564000,0.0324,0.013523,0.002678,0.000431,0.002233
75565000,0.0324,0.013523,0.002678,0.000431,0.002351
75566000,0.0324,0.013523,0.002678,0.000431,0.002351
75567000,0.0324,0.013523,0.002678,0.000431,0.002233
75568000,0.0324,0.013523,0.002678,0.000431,0.002938
75569000,0.0324,0.013523,0.002678,0.000431,0.002938
75570000,0.0324,0.013523,0.002678,0.000431,0.002586
75571000,0.0324,0.013523,0.002678,0.000431,0.002351
75572000,0.0324,0.013523,0.002678,0.000431,0.002468
75573000,0.0324,0.013523,0.002678,0.000431,0.001998
75574000,0.0324,0.013523,0.002678,0.000431,0.002233
75575000,0.0324,0.013523,0.002678,0.000431,0.002351
75576000,0.0324,0.013523,0.002678,0.000431,0.001645
75577000,0.0324,0.013523,0.002678,0.000431,0.002703
75578000,0.0324,0.013523,0.002678,0.000431,0.001528
75579000,0.0324,0.013523,0.002678,0.000431,0.002586
75580000,0.0324,0.013523,0.002678,0.000431,0.001998
75581000,0.0324,0.013523,0.002678,0.000431,0.001998
75582000,0.0324,0.013523,0.002678,0.000431,0.002468
75583000,0.0324,0.013523,0.002678,0.000431,0.001763
75584000,0.0324,0.013523,0.002678,0.000431,0.002586
75585000,0.0324,0.013523,0.002678,0.000431,0.001763
75586000,0.0324,0.013523,0.002678,0.000431,0.001880
75587000,0.0324,0.013523,0.002678,0.000431,0.001410
75588000,0.0324,0.013523,0.002678,0.000431,0.000823
75589000,0.0324,0.013523,0.002678,0.000431,0.001880
75590000,0.0324,0.013523,0.002678,0.000431,0.428978
75591000,0.0324,0.013523,0.002678,0.000431,0.803893
75592000,0.0324,0.013523,0.002678,0.000431,0.211433
75593000,0.0324,0.013523,0.002678,0.000431,0.138213
75594000,0.0324,0.013523,0.002678,0.000431,0.490445
75595000,0.0324,0.013523,0.002678,0.000431,0.275956
75596000,0.0324,0.013523,0.002678,0.000431,0.307219
75597000,0.0324,0.013523,0.002678,0.000431,0.159368
75598000,0.0324,0.013523,0.002678,0.000431,0.183814
75599000,0.0324,0.013523,0.002678,0.000431,0.108243
75600000,0.0324,0.013523,0.002678,0.000431,0.590932
75601000,0.0324,0.013523,0.002678,0.000431,0.205439
75602000,0.0324,0.013523,0.002678,0.000431,0.172296
75603000,0.0324,0.013523,0.002678,0.000431,0.147145
75604000,0.0324,0.013523,0.002678,0.000431,0.114120
75605000,0.0324,0.013523,0.002678,0.000431,0.101897
75606000,0.0324,0.013523,0.002678,0.000431,0.061467
75607000,0.0324,0.013523,0.002678,0.000431,0.055473
75608000,0.0324,0.013523,0.002678,0.000431,0.043838
75609000,0.0324,0.013523,0.002678,0.000431,0.028324
75610000,0.0324,0.013523,0.002678,0.000431,0.015866
75611000,0.0324,0.013523,0.002678,0.000431,0.016101
75612000,0.0324,0.013523,0.002678,0.000431,0.010813
75613000,0.0324,0.013523,0.002678,0.000431,0.011048
75614000,0.0324,0.013523,0.002678,0.000431,0.006699
75615000,0.0324,0.013523,0.002678,0.000431,0.007757
75616000,0.0324,0.013523,0.002678,0.000431,0.012693
75617000,0.0324,0.013523,0.002678,0.000431,0.002821
75618000,0.0324,0.013523,0.002678,0.000431,0.004349
75619000,0.0324,0.013523,0.002678,0.000431,0.001763
75620000,0.0324,0.013523,0.002678,0.000431,0.001410
75621000,0.0324,0.013523,0.002678,0.000431,0.001880
75622000,0.0324,0.013523,0.002678,0.000431,0.001763
75623000,0.0324,0.013523,0.002678,0.000431,0.001528
75624000,0.0324,0.013523,0.002678,0.000431,0.001763
75625000,0.0324,0.013523,0.002678,0.000431,0.001763
75626000,0.0324,0.013523,0.002678,0.000431,0.004349
75627000,0.0324,0.013523,0.002678,0.000431,0.000705
75628000,0.0324,0.013523,0.002678,0.000431,0.000940
75629000,0.0324,0.013523,0.002678,0.000431,0.000823
75630000,0.0324,0.013523,0.002678,0.000431,0.000823
75631000,0.0324,0.013523,0.002678,0.000431,0.000823
75632000,0.0324,0.013523,0.002678,0.000431,0.000823
75633000,0.0324,0.013523,0.002678,0.000431,0.000705
75634000,0.0324,0.013523,0.002678,0.000431,0.000940
75635000,0.0324,0.013523,0.002678,0.000431,0.000940
75636000,0.0324,0.013523,0.002678,0.000431,0.000705
75637000,0.0324,0.013523,0.002678,0.000431,0.000940
75638000,0.0324,0.013523,0.002678,0.000431,0.000705
75639000,0.0324,0.013523,0.002678,0.000431,0.000940
75640000,0.0324,0.013523,0.002678,0.000431,0.000705
75641000,0.0324,0.013523,0.002678,0.000431,0.000940
75642000,0.0324,0.013523,0.002678,0.000431,0.000705
75643000,0.0324,0.013523,0.002678,0.000431,0.000940
75644000,0.0324,0.013523,0.002678,0.000431,0.000823
75645000,0.0324,0.013523,0.002678,0.000431,0.000823
75646000,0.0324,0.013523,0.002678,0.000431,0.000940
75647000,0.0324,0.013523,0.002678,0.000431,0.000705
75648000,0.0324,0.013523,0.002678,0.000431,0.000940
75649000,0.0324,0.013523,0.002678,0.000431,0.000705
75650000,0.0324,0.013523,0.002678,0.000431,0.000940
75651000,0.0324,0.013523,0.002678,0.000431,0.000705
75652000,0.0324,0.013523,0.002678,0.000431,0.000823
75653000,0.0324,0.013523,0.002678,0.000431,0.000823
75654000,0.0324,0.013523,0.002678,0.000431,0.000823
75655000,0.0324,0.013523,0.002678,0.000431,0.000823
75656000,0.0324,0.013523,0.002678,0.000431,0.000940
75657000,0.0324,0.013523,0.002678,0.000431,0.000705
75658000,0.0324,0.013523,0.002678,0.000431,0.000705
75659000,0.0324,0.013523,0.002678,0.000431,0.000940
75660000,0.0324,0.013523,0.002678,0.000431,0.000940
75661000,0.0324,0.013523,0.002678,0.000431,0.000705
75662000,0.0324,0.013523,0.002678,0.000431,0.000940
75663000,0.0324,0.013523,0.002678,0.000431,0.000705
75664000,0.0324,0.013523,0.002678,0.000431,0.000823
75665000,0.0324,0.013523,0.002678,0.000431,0.000823
75666000,0.0324,0.013523,0.002678,0.000431,0.000940
75667000,0.0324,0.013523,0.002678,0.000431,0.000705
75668000,0.0324,0.013523,0.002678,0.000431,0.000705
75669000,0.0324,0.013523,0.002678,0.000431,0.000940
75670000,0.0324,0.013523,0.002678,0.000431,0.000705
75671000,0.0324,0.013523,0.002678,0.000431,0.072750
75672000,0.0324,0.013523,0.002678,0.000431,0.817409
75673000,0.0324,0.013523,0.002678,0.000431,0.514186
75674000,0.0324,0.013523,0.002678,0.000431,0.145852
75675000,0.0324,0.013523,0.002678,0.000431,0.346943
75676000,0.0324,0.013523,0.002678,0.000431,0.383730
75677000,0.0324,0.013523,0.002678,0.000431,0.314153
75678000,0.0324,0.013523,0.002678,0.000431,0.247514
75679000,0.0324,0.013523,0.002678,0.000431,0.183226
75680000,0.0324,0.013523,0.002678,0.000431,0.092260
75681000,0.0324,0.013523,0.002678,0.000431,0.620549
75682000,0.0324,0.013523,0.002678,0.000431,0.251628
75683000,0.0324,0.013523,0.002678,0.000431,0.194509
75684000,0.0324,0.013523,0.002678,0.000431,0.179348
75685000,0.0324,0.013523,0.002678,0.000431,0.132102
75686000,0.0324,0.013523,0.002678,0.000431,0.100134
75687000,0.0324,0.013523,0.002678,0.000431,0.082152
75688000,0.0324,0.013523,0.002678,0.000431,0.071927
75689000,0.0324,0.013523,0.002678,0.000431,0.057001
75690000,0.0324,0.013523,0.002678,0.000431,0.029970
75691000,0.0324,0.013523,0.002678,0.000431,0.027384
75692000,0.0324,0.013523,0.002678,0.000431,0.019392
75693000,0.0324,0.013523,0.002678,0.000431,0.016219
75694000,0.0324,0.013523,0.002678,0.000431,0.013868
75695000,0.0324,0.013523,0.002678,0.000431,0.004584
75696000,0.0324,0.013523,0.002678,0.000431,0.004113
75697000,0.0324,0.013523,0.002678,0.000431,0.004936
75698000,0.0324,0.013523,0.002678,0.000431,0.003878
75699000,0.0324,0.013523,0.002678,0.000431,0.002703
75700000,0.0324,0.013523,0.002678,0.000431,0.003526
75701000,0.0324,0.013523,0.002678,0.000431,0.004936
75702000,0.0324,0.013523,0.002678,0.000431,0.001763
75703000,0.0324,0.013523,0.002678,0.000431,0.001528
75704000,0.0324,0.013523,0.002678,0.000431,0.001880
75705000,0.0324,0.013523,0.002678,0.000431,0.001410
75706000,0.0324,0.013523,0.002678,0.000431,0.004701
75707000,0.0324,0.013523,0.002678,0.000431,0.000940
75708000,0.0324,0.013523,0.002678,0.000431,0.000823
75709000,0.0324,0.013523,0.002678,0.000431,0.000823
75710000,0.0324,0.013523,0.002678,0.000431,0.000823
75711000,0.0324,0.013523,0.002678,0.000431,0.000705
75712000,0.0324,0.013523,0.002678,0.000431,0.000940
75713000,0.0324,0.013523,0.002678,0.000431,0.000940
75714000,0.0324,0.013523,0.002678,0.000431,0.000705
75715000,0.0324,0.013523,0.002678,0.000431,0.000823
75716000,0.0324,0.013523,0.002678,0.000431,0.302400
75717000,0.0324,0.013523,0.002678,0.000431,0.814588
75718000,0.0324,0.013523,0.002678,0.000431,0.408645
75719000,0.0324,0.013523,0.002678,0.000431,0.154197
75720000,0.0324,0.013523,0.002678,0.000431,0.600451
75721000,0.0324,0.013523,0.002678,0.000431,0.267612
75722000,0.0324,0.013523,0.002678,0.000431,0.307571
75723000,0.0324,0.013523,0.002678,0.000431,0.165362
75724000,0.0324,0.013523,0.002678,0.000431,0.104247
75725000,0.0324,0.013523,0.002678,0.000431,0.579649
75726000,0.0324,0.013523,0.002678,0.000431,0.340479
75727000,0.0324,0.013523,0.002678,0.000431,0.226007
75728000,0.0324,0.013523,0.002678,0.000431,0.191336
75729000,0.0324,0.013523,0.002678,0.000431,0.148086
75730000,0.0324,0.013523,0.002678,0.000431,0.133982
75731000,0.0324,0.013523,0.002678,0.000431,0.102955
75732000,0.0324,0.013523,0.002678,0.000431,0.081800
75733000,0.0324,0.013523,0.002678,0.000431,0.053358
75734000,0.0324,0.013523,0.002678,0.000431,0.053945
75735000,0.0324,0.013523,0.002678,0.000431,0.037491
75736000,0.0324,0.013523,0.002678,0.000431,0.040665
75737000,0.0324,0.013523,0.002678,0.000431,0.018334
75738000,0.0324,0.013523,0.002678,0.000431,0.019392
75739000,0.0324,0.013523,0.002678,0.000431,0.013516
75740000,0.0324,0.013523,0.002678,0.000431,0.026444
75741000,0.0324,0.013523,0.002678,0.000431,0.010342
75742000,0.0324,0.013523,0.002678,0.000431,0.012576
75743000,0.0324,0.013523,0.002678,0.000431,0.010342
75744000,0.0324,0.013523,0.002678,0.000431,0.008345
75745000,0.0324,0.013523,0.002678,0.000431,0.008227
75746000,0.0324,0.013523,0.002678,0.000431,0.006111
75747000,0.0324,0.013523,0.002678,0.000431,0.008815
75748000,0.0324,0.013523,0.002678,0.000431,0.005171
75749000,0.0324,0.013523,0.002678,0.000431,0.004231
75750000,0.0324,0.013523,0.002678,0.000431,0.001175
75751000,0.0324,0.013523,0.002678,0.000431,0.015514
75752000,0.0324,0.013523,0.002678,0.000431,0.892744
75753000,0.0324,0.013523,0.002678,0.000431,0.577181
75754000,0.0324,0.013523,0.002678,0.000431,0.146323
75755000,0.0324,0.013523,0.002678,0.000431,0.159486
75756000,0.0324,0.013523,0.002678,0.000431,0.566838
75757000,0.0324,0.013523,0.002678,0.000431,0.266436
75758000,0.0324,0.013523,0.002678,0.000431,0.274663
75759000,0.0324,0.013523,0.002678,0.000431,0.160896
75760000,0.0324,0.013523,0.002678,0.000431,0.106598
75761000,0.0324,0.013523,0.002678,0.000431,0.441788
75762000,0.0324,0.013523,0.002678,0.000431,0.367981
75763000,0.0324,0.013523,0.002678,0.000431,0.197800
75764000,0.0324,0.013523,0.002678,0.000431,0.178643
75765000,0.0324,0.013523,0.002678,0.000431,0.146675
75766000,0.0324,0.013523,0.002678,0.000431,0.121759
75767000,0.0324,0.013523,0.002678,0.000431,0.091907
75768000,0.0324,0.013523,0.002678,0.000431,0.080037
75769000,0.0324,0.013523,0.002678,0.000431,0.058529
75770000,0.0324,0.013523,0.002678,0.000431,0.047246
75771000,0.0324,0.013523,0.002678,0.000431,0.051477
75772000,0.0324,0.013523,0.002678,0.000431,0.032673
75773000,0.0324,0.013523,0.002678,0.000431,0.021625
75774000,0.0324,0.013523,0.002678,0.000431,0.018922
75775000,0.0324,0.013523,0.002678,0.000431,0.011400
75776000,0.0324,0.013523,0.002678,0.000431,0.003291
75777000,0.0324,0.013523,0.002678,0.000431,0.001645
75778000,0.0324,0.013523,0.002678,0.000431,0.004231
75779000,0.0324,0.013523,0.002678,0.000431,0.000940
75780000,0.0324,0.013523,0.002678,0.000431,0.000823
75781000,0.0324,0.013523,0.002678,0.000431,0.000940
75782000,0.0324,0.013523,0.002678,0.000431,0.000705
75783000,0.0324,0.013523,0.002678,0.000431,0.000940
75784000,0.0324,0.013523,0.002678,0.000431,0.000705
75785000,0.0324,0.013523,0.002678,0.000431,0.000823
75786000,0.0324,0.013523,0.002678,0.000431,0.000823
75787000,0.0324,0.013523,0.002678,0.000431,0.015279
75788000,0.0324,0.013523,0.002678,0.000431,0.774511
75789000,0.0324,0.013523,0.002678,0.000431,0.585760
75790000,0.0324,0.013523,0.002678,0.000431,0.140094
75791000,0.0324,0.013523,0.002678,0.000431,0.153492
75792000,0.0324,0.013523,0.002678,0.000431,0.566956
75793000,0.0324,0.013523,0.002678,0.000431,0.258680
75794000,0.0324,0.013523,0.002678,0.000431,0.307101
75795000,0.0324,0.013523,0.002678,0.000431,0.150906
75796000,0.0324,0.013523,0.002678,0.000431,0.109301
75797000,0.0324,0.013523,0.002678,0.000431,0.435442
75798000,0.0324,0.013523,0.002678,0.000431,0.363515
75799000,0.0324,0.013523,0.002678,0.000431,0.190983
75800000,0.0324,0.013523,0.002678,0.000431,0.144677
75801000,0.0324,0.013523,0.002678,0.000431,0.120936
75802000,0.0324,0.013523,0.002678,0.000431,0.116588
75803000,0.0324,0.013523,0.002678,0.000431,0.081800
75804000,0.0324,0.013523,0.002678,0.000431,0.073808
75805000,0.0324,0.013523,0.002678,0.000431,0.061467
75806000,0.0324,0.013523,0.002678,0.000431,0.050772
75807000,0.0324,0.013523,0.002678,0.000431,0.034788
75808000,0.0324,0.013523,0.002678,0.000431,0.034788
75809000,0.0324,0.013523,0.002678,0.000431,0.014338
75810000,0.0324,0.013523,0.002678,0.000431,0.011165
75811000,0.0324,0.013523,0.002678,0.000431,0.020097
75812000,0.0324,0.013523,0.002678,0.000431,0.013398
75813000,0.0324,0.013523,0.002678,0.000431,0.011635
75814000,0.0324,0.013523,0.002678,0.000431,0.004701
75815000,0.0324,0.013523,0.002678,0.000431,0.004701
75816000,0.0324,0.013523,0.002678,0.000431,0.008345
75817000,0.0324,0.013523,0.002678,0.000431,0.005289
75818000,0.0324,0.013523,0.002678,0.000431,0.003056
75819000,0.0324,0.013523,0.002678,0.000431,0.003526
75820000,0.0324,0.013523,0.002678,0.000431,0.003056
75821000,0.0324,0.013523,0.002678,0.000431,0.002586
75822000,0.0324,0.013523,0.002678,0.000431,0.002351
75823000,0.0324,0.013523,0.002678,0.000431,0.003173
75824000,0.0324,0.013523,0.002678,0.000431,0.002703
75825000,0.0324,0.013523,0.002678,0.000431,0.002468
75826000,0.0324,0.013523,0.002678,0.000431,0.002821
75827000,0.0324,0.013523,0.002678,0.000431,0.002938
75828000,0.0324,0.013523,0.002678,0.000431,0.002233
75829000,0.0324,0.013523,0.002678,0.000431,0.002821
75830000,0.0324,0.013523,0.002678,0.000431,0.003056
75831000,0.0324,0.013523,0.002678,0.000431,0.002468
75832000,0.0324,0.013523,0.002678,0.000431,0.002586
75833000,0.0324,0.013523,0.002678,0.000431,0.002938
75834000,0.0324,0.013523,0.002678,0.000431,0.002703
75835000,0.0324,0.013523,0.002678,0.000431,0.001645
75836000,0.0324,0.013523,0.002678,0.000431,0.001175
75837000,0.0324,0.013523,0.002678,0.000431,0.002351
75838000,0.0324,0.013523,0.002678,0.000431,0.587876
75839000,0.0324,0.013523,0.002678,0.000431,0.742190
75840000,0.0324,0.013523,0.002678,0.000431,0.148086
75841000,0.0324,0.013523,0.002678,0.000431,0.136803
75842000,0.0324,0.013523,0.002678,0.000431,0.516419
75843000,0.0324,0.013523,0.002678,0.000431,0.229415
75844000,0.0324,0.013523,0.002678,0.000431,0.379499
75845000,0.0324,0.013523,0.002678,0.000431,0.157840
75846000,0.0324,0.013523,0.002678,0.000431,0.130574
75847000,0.0324,0.013523,0.002678,0.000431,0.300167
75848000,0.0324,0.013523,0.002678,0.000431,0.488447
75849000,0.0324,0.013523,0.002678,0.000431,0.208377
75850000,0.0324,0.013523,0.002678,0.000431,0.204029
75851000,0.0324,0.013523,0.002678,0.000431,0.180641
75852000,0.0324,0.013523,0.002678,0.000431,0.140446
75853000,0.0324,0.013523,0.002678,0.000431,0.103660
75854000,0.0324,0.013523,0.002678,0.000431,0.100722
75855000,0.0324,0.013523,0.002678,0.000431,0.078509
75856000,0.0324,0.013523,0.002678,0.000431,0.064758
75857000,0.0324,0.013523,0.002678,0.000431,0.058176
75858000,0.0324,0.013523,0.002678,0.000431,0.043368
75859000,0.0324,0.013523,0.002678,0.000431,0.041605
75860000,0.0324,0.013523,0.002678,0.000431,0.029147
75861000,0.0324,0.013523,0.002678,0.000431,0.028442
75862000,0.0324,0.013523,0.002678,0.000431,0.028207
75863000,0.0324,0.013523,0.002678,0.000431,0.023741
75864000,0.0324,0.013523,0.002678,0.000431,0.022448
75865000,0.0324,0.013523,0.002678,0.000431,0.023388
75866000,0.0324,0.013523,0.002678,0.000431,0.022213
75867000,0.0324,0.013523,0.002678,0.000431,0.020097
75868000,0.0324,0.013523,0.002678,0.000431,0.015984
75869000,0.0324,0.013523,0.002678,0.000431,0.018569
75870000,0.0324,0.013523,0.002678,0.000431,0.019745
75871000,0.0324,0.013523,0.002678,0.000431,0.015749
75872000,0.0324,0.013523,0.002678,0.000431,0.014338
75873000,0.0324,0.013523,0.002678,0.000431,0.013046
75874000,0.0324,0.013523,0.002678,0.000431,0.010695
75875000,0.0324,0.013523,0.002678,0.000431,0.010578
75876000,0.0324,0.013523,0.002678,0.000431,0.011048
75877000,0.0324,0.013523,0.002678,0.000431,0.012105
75878000,0.0324,0.013523,0.002678,0.000431,0.007757
75879000,0.0324,0.013523,0.002678,0.000431,0.007639
75880000,0.0324,0.013523,0.002678,0.000431,0.007052
75881000,0.0324,0.013523,0.002678,0.000431,0.007874
75882000,0.0324,0.013523,0.002678,0.000431,0.006817
75883000,0.0324,0.013523,0.002678,0.000431,0.014103
75884000,0.0324,0.013523,0.002678,0.000431,0.005524
75885000,0.0324,0.013523,0.002678,0.000431,0.005406
75886000,0.0324,0.013523,0.002678,0.000431,0.004936
75887000,0.0324,0.013523,0.002678,0.000431,0.006582
75888000,0.0324,0.013523,0.002678,0.000431,0.003643
75889000,0.0324,0.013523,0.002678,0.000431,0.003056
75890000,0.0324,0.013523,0.002678,0.000431,0.002938
75891000,0.0324,0.013523,0.002678,0.000431,0.002586
75892000,0.0324,0.013523,0.002678,0.000431,0.003056
75893000,0.0324,0.013523,0.002678,0.000431,0.002586
75894000,0.0324,0.013523,0.002678,0.000431,0.002938
75895000,0.0324,0.013523,0.002678,0.000431,0.002468
75896000,0.0324,0.013523,0.002678,0.000431,0.004349
75897000,0.0324,0.013523,0.002678,0.000431,0.004936
75898000,0.0324,0.013523,0.002678,0.000431,0.589286
75899000,0.0324,0.013523,0.002678,0.000431,0.765344
75900000,0.0324,0.013523,0.002678,0.000431,0.149731
75901000,0.0324,0.013523,0.002678,0.000431,0.137273
75902000,0.0324,0.013523,0.002678,0.000431,0.521708
75903000,0.0324,0.013523,0.002678,0.000431,0.249630
75904000,0.0324,0.013523,0.002678,0.000431,0.351174
75905000,0.0324,0.013523,0.002678,0.000431,0.156783
75906000,0.0324,0.013523,0.002678,0.000431,0.139271
75907000,0.0324,0.013523,0.002678,0.000431,0.241285
75908000,0.0324,0.013523,0.002678,0.000431,0.555203
75909000,0.0324,0.013523,0.002678,0.000431,0.221423
75910000,0.0324,0.013523,0.002678,0.000431,0.200973
75911000,0.0324,0.013523,0.002678,0.000431,0.175235
75912000,0.0324,0.013523,0.002678,0.000431,0.147968
75913000,0.0324,0.013523,0.002678,0.000431,0.116823
75914000,0.0324,0.013523,0.002678,0.000431,0.101074
75915000,0.0324,0.013523,0.002678,0.000431,0.076981
75916000,0.0324,0.013523,0.002678,0.000431,0.064405
75917000,0.0324,0.013523,0.002678,0.000431,0.033613
75918000,0.0324,0.013523,0.002678,0.000431,0.037139
75919000,0.0324,0.013523,0.002678,0.000431,0.022330
75920000,0.0324,0.013523,0.002678,0.000431,0.022565
75921000,0.0324,0.013523,0.002678,0.000431,0.011400
75922000,0.0324,0.013523,0.002678,0.000431,0.014103
75923000,0.0324,0.013523,0.002678,0.000431,0.004936
75924000,0.0324,0.013523,0.002678,0.000431,0.005759
75925000,0.0324,0.013523,0.002678,0.000431,0.005524
75926000,0.0324,0.013523,0.002678,0.000431,0.005406
75927000,0.0324,0.013523,0.002678,0.000431,0.005876
75928000,0.0324,0.013523,0.002678,0.000431,0.007874
75929000,0.0324,0.013523,0.002678,0.000431,0.004701
75930000,0.0324,0.013523,0.002678,0.000431,0.004466
75931000,0.0324,0.013523,0.002678,0.000431,0.001880
75932000,0.0324,0.013523,0.002678,0.000431,0.003996
75933000,0.0324,0.013523,0.002678,0.000431,0.000823
75934000,0.0324,0.013523,0.002678,0.000431,0.000940
75935000,0.0324,0.013523,0.002678,0.000431,0.000705
75936000,0.0324,0.013523,0.002678,0.000431,0.000940
75937000,0.0324,0.013523,0.002678,0.000431,0.000823
75938000,0.0324,0.013523,0.002678,0.000431,0.000823
75939000,0.0324,0.013523,0.002678,0.000431,0.000823
75940000,0.0324,0.013523,0.002678,0.000431,0.000823
75941000,0.0324,0.013523,0.002678,0.000431,0.000823
75942000,0.0324,0.013523,0.002678,0.000431,0.000823
75943000,0.0324,0.013523,0.002678,0.000431,0.000940
75944000,0.0324,0.013523,0.002678,0.000431,0.000705
75945000,0.0324,0.013523,0.002678,0.000431,0.000823
75946000,0.0324,0.013523,0.002678,0.000431,0.000940
75947000,0.0324,0.013523,0.002678,0.000431,0.000823
75948000,0.0324,0.013523,0.002678,0.000431,0.000823
75949000,0.0324,0.013523,0.002678,0.000431,0.000823
75950000,0.0324,0.013523,0.002678,0.000431,0.000705
75951000,0.0324,0.013523,0.002678,0.000431,0.000940
75952000,0.0324,0.013523,0.002678,0.000431,0.071575
75953000,0.0324,0.013523,0.002678,0.000431,0.834685
75954000,0.0324,0.013523,0.002678,0.000431,0.541217
75955000,0.0324,0.013523,0.002678,0.000431,0.138213
75956000,0.0324,0.013523,0.002678,0.000431,0.354583
75957000,0.0324,0.013523,0.002678,0.000431,0.378206
75958000,0.0324,0.013523,0.002678,0.000431,0.300285
75959000,0.0324,0.013523,0.002678,0.000431,0.222246
75960000,0.0324,0.013523,0.002678,0.000431,0.188750
75961000,0.0324,0.013523,0.002678,0.000431,0.095198
75962000,0.0324,0.013523,0.002678,0.000431,0.561315
75963000,0.0324,0.013523,0.002678,0.000431,0.250923
75964000,0.0324,0.013523,0.002678,0.000431,0.208613
75965000,0.0324,0.013523,0.002678,0.000431,0.176410
75966000,0.0324,0.013523,0.002678,0.000431,0.162306
75967000,0.0324,0.013523,0.002678,0.000431,0.125990
75968000,0.0324,0.013523,0.002678,0.000431,0.105658
75969000,0.0324,0.013523,0.002678,0.000431,0.083445
75970000,0.0324,0.013523,0.002678,0.000431,0.072045
75971000,0.0324,0.013523,0.002678,0.000431,0.051007
75972000,0.0324,0.013523,0.002678,0.000431,0.043015
75973000,0.0324,0.013523,0.002678,0.000431,0.046894
75974000,0.0324,0.013523,0.002678,0.000431,0.034671
75975000,0.0324,0.013523,0.002678,0.000431,0.025034
75976000,0.0324,0.013523,0.002678,0.000431,0.017042
75977000,0.0324,0.013523,0.002678,0.000431,0.027854
75978000,0.0324,0.013523,0.002678,0.000431,0.013986
75979000,0.0324,0.013523,0.002678,0.000431,0.020567
75980000,0.0324,0.013523,0.002678,0.000431,0.003643
75981000,0.0324,0.013523,0.002678,0.000431,0.001763
75982000,0.0324,0.013523,0.002678,0.000431,0.005289
75983000,0.0324,0.013523,0.002678,0.000431,0.344005
75984000,0.0324,0.013523,0.002678,0.000431,0.831629
75985000,0.0324,0.013523,0.002678,0.000431,0.301460
75986000,0.0324,0.013523,0.002678,0.000431,0.137508
75987000,0.0324,0.013523,0.002678,0.000431,0.497027
75988000,0.0324,0.013523,0.002678,0.000431,0.256094
75989000,0.0324,0.013523,0.002678,0.000431,0.321910
75990000,0.0324,0.013523,0.002678,0.000431,0.177350
75991000,0.0324,0.013523,0.002678,0.000431,0.174999
75992000,0.0324,0.013523,0.002678,0.000431,0.129986
75993000,0.0324,0.013523,0.002678,0.000431,0.542510
75994000,0.0324,0.013523,0.002678,0.000431,0.205557
75995000,0.0324,0.013523,0.002678,0.000431,0.179583
75996000,0.0324,0.013523,0.002678,0.000431,0.158663
75997000,0.0324,0.013523,0.002678,0.000431,0.137861
75998000,0.0324,0.013523,0.002678,0.000431,0.107538
75999000,0.0324,0.013523,0.002678,0.000431,0.088851
