Cycle,Area(mm^2),PeakDynamic(W),SubthresholdLeakage(W),GateLeakage(W),RunTimeDynamic(W)
13000000,0.0324,0.013523,0.002678,0.000431,0.010813
13001000,0.0324,0.013523,0.002678,0.000431,0.010930
13002000,0.0324,0.013523,0.002678,0.000431,0.006699
13003000,0.0324,0.013523,0.002678,0.000431,0.008109
13004000,0.0324,0.013523,0.002678,0.000431,0.003291
13005000,0.0324,0.013523,0.002678,0.000431,0.004584
13006000,0.0324,0.013523,0.002678,0.000431,0.003643
13007000,0.0324,0.013523,0.002678,0.000431,0.002586
13008000,0.0324,0.013523,0.002678,0.000431,0.002468
13009000,0.0324,0.013523,0.002678,0.000431,0.003878
13010000,0.0324,0.013523,0.002678,0.000431,0.003056
13011000,0.0324,0.013523,0.002678,0.000431,0.002468
13012000,0.0324,0.013523,0.002678,0.000431,0.001880
13013000,0.0324,0.013523,0.002678,0.000431,0.000940
13014000,0.0324,0.013523,0.002678,0.000431,0.000940
13015000,0.0324,0.013523,0.002678,0.000431,0.000705
13016000,0.0324,0.013523,0.002678,0.000431,0.000940
13017000,0.0324,0.013523,0.002678,0.000431,0.000940
13018000,0.0324,0.013523,0.002678,0.000431,0.000823
13019000,0.0324,0.013523,0.002678,0.000431,0.000940
13020000,0.0324,0.013523,0.002678,0.000431,0.000823
13021000,0.0324,0.013523,0.002678,0.000431,0.000940
13022000,0.0324,0.013523,0.002678,0.000431,0.000823
13023000,0.0324,0.013523,0.002678,0.000431,0.000823
13024000,0.0324,0.013523,0.002678,0.000431,0.000940
13025000,0.0324,0.013523,0.002678,0.000431,0.000940
13026000,0.0324,0.013523,0.002678,0.000431,0.000823
13027000,0.0324,0.013523,0.002678,0.000431,0.000823
13028000,0.0324,0.013523,0.002678,0.000431,0.000940
13029000,0.0324,0.013523,0.002678,0.000431,0.000940
13030000,0.0324,0.013523,0.002678,0.000431,0.000705
13031000,0.0324,0.013523,0.002678,0.000431,0.000940
13032000,0.0324,0.013523,0.002678,0.000431,0.000940
13033000,0.0324,0.013523,0.002678,0.000431,0.000940
13034000,0.0324,0.013523,0.002678,0.000431,0.000705
13035000,0.0324,0.013523,0.002678,0.000431,0.002821
13036000,0.0324,0.013523,0.002678,0.000431,0.458948
13037000,0.0324,0.013523,0.002678,0.000431,0.774628
13038000,0.0324,0.013523,0.002678,0.000431,0.194509
13039000,0.0324,0.013523,0.002678,0.000431,0.133982
13040000,0.0324,0.013523,0.002678,0.000431,0.194744
13041000,0.0324,0.013523,0.002678,0.000431,0.549679
13042000,0.0324,0.013523,0.002678,0.000431,0.272313
13043000,0.0324,0.013523,0.002678,0.000431,0.314976
13044000,0.0324,0.013523,0.002678,0.000431,0.171826
13045000,0.0324,0.013523,0.002678,0.000431,0.145735
13046000,0.0324,0.013523,0.002678,0.000431,0.111769
13047000,0.0324,0.013523,0.002678,0.000431,0.396188
13048000,0.0324,0.013523,0.002678,0.000431,0.374092
13049000,0.0324,0.013523,0.002678,0.000431,0.172531
13050000,0.0324,0.013523,0.002678,0.000431,0.130456
13051000,0.0324,0.013523,0.002678,0.000431,0.109301
13052000,0.0324,0.013523,0.002678,0.000431,0.092142
13053000,0.0324,0.013523,0.002678,0.000431,0.066051
13054000,0.0324,0.013523,0.002678,0.000431,0.046541
13055000,0.0324,0.013523,0.002678,0.000431,0.035258
13056000,0.0324,0.013523,0.002678,0.000431,0.033848
13057000,0.0324,0.013523,0.002678,0.000431,0.030910
13058000,0.0324,0.013523,0.002678,0.000431,0.026679
13059000,0.0324,0.013523,0.002678,0.000431,0.020097
13060000,0.0324,0.013523,0.002678,0.000431,0.014926
13061000,0.0324,0.013523,0.002678,0.000431,0.007757
13062000,0.0324,0.013523,0.002678,0.000431,0.007757
13063000,0.0324,0.013523,0.002678,0.000431,0.007992
13064000,0.0324,0.013523,0.002678,0.000431,0.009872
13065000,0.0324,0.013523,0.002678,0.000431,0.009167
13066000,0.0324,0.013523,0.002678,0.000431,0.005759
13067000,0.0324,0.013523,0.002678,0.000431,0.009755
13068000,0.0324,0.013523,0.002678,0.000431,0.005171
13069000,0.0324,0.013523,0.002678,0.000431,0.004819
13070000,0.0324,0.013523,0.002678,0.000431,0.006817
13071000,0.0324,0.013523,0.002678,0.000431,0.005524
13072000,0.0324,0.013523,0.002678,0.000431,0.004701
13073000,0.0324,0.013523,0.002678,0.000431,0.003996
13074000,0.0324,0.013523,0.002678,0.000431,0.004231
13075000,0.0324,0.013523,0.002678,0.000431,0.004113
13076000,0.0324,0.013523,0.002678,0.000431,0.004349
13077000,0.0324,0.013523,0.002678,0.000431,0.004466
13078000,0.0324,0.013523,0.002678,0.000431,0.003996
13079000,0.0324,0.013523,0.002678,0.000431,0.004466
13080000,0.0324,0.013523,0.002678,0.000431,0.004113
13081000,0.0324,0.013523,0.002678,0.000431,0.004113
13082000,0.0324,0.013523,0.002678,0.000431,0.004349
13083000,0.0324,0.013523,0.002678,0.000431,0.004466
13084000,0.0324,0.013523,0.002678,0.000431,0.004349
13085000,0.0324,0.013523,0.002678,0.000431,0.003996
13086000,0.0324,0.013523,0.002678,0.000431,0.004349
13087000,0.0324,0.013523,0.002678,0.000431,0.004231
13088000,0.0324,0.013523,0.002678,0.000431,0.005994
13089000,0.0324,0.013523,0.002678,0.000431,0.004349
13090000,0.0324,0.013523,0.002678,0.000431,0.001645
13091000,0.0324,0.013523,0.002678,0.000431,0.002116
13092000,0.0324,0.013523,0.002678,0.000431,0.001763
13093000,0.0324,0.013523,0.002678,0.000431,0.001998
13094000,0.0324,0.013523,0.002678,0.000431,0.001645
13095000,0.0324,0.013523,0.002678,0.000431,0.005171
13096000,0.0324,0.013523,0.002678,0.000431,0.489152
13097000,0.0324,0.013523,0.002678,0.000431,0.776156
13098000,0.0324,0.013523,0.002678,0.000431,0.169946
13099000,0.0324,0.013523,0.002678,0.000431,0.134100
13100000,0.0324,0.013523,0.002678,0.000431,0.261030
13101000,0.0324,0.013523,0.002678,0.000431,0.515244
13102000,0.0324,0.013523,0.002678,0.000431,0.259502
13103000,0.0324,0.013523,0.002678,0.000431,0.324965
13104000,0.0324,0.013523,0.002678,0.000431,0.176645
13105000,0.0324,0.013523,0.002678,0.000431,0.145852
13106000,0.0324,0.013523,0.002678,0.000431,0.109066
13107000,0.0324,0.013523,0.002678,0.000431,0.381614
13108000,0.0324,0.013523,0.002678,0.000431,0.330254
13109000,0.0324,0.013523,0.002678,0.000431,0.129869
13110000,0.0324,0.013523,0.002678,0.000431,0.114472
13111000,0.0324,0.013523,0.002678,0.000431,0.082857
13112000,0.0324,0.013523,0.002678,0.000431,0.055121
13113000,0.0324,0.013523,0.002678,0.000431,0.065463
13114000,0.0324,0.013523,0.002678,0.000431,0.041252
13115000,0.0324,0.013523,0.002678,0.000431,0.035846
13116000,0.0324,0.013523,0.002678,0.000431,0.027502
13117000,0.0324,0.013523,0.002678,0.000431,0.017982
13118000,0.0324,0.013523,0.002678,0.000431,0.017629
13119000,0.0324,0.013523,0.002678,0.000431,0.017747
13120000,0.0324,0.013523,0.002678,0.000431,0.013163
13121000,0.0324,0.013523,0.002678,0.000431,0.012223
13122000,0.0324,0.013523,0.002678,0.000431,0.011165
13123000,0.0324,0.013523,0.002678,0.000431,0.011048
13124000,0.0324,0.013523,0.002678,0.000431,0.008227
13125000,0.0324,0.013523,0.002678,0.000431,0.004936
13126000,0.0324,0.013523,0.002678,0.000431,0.004113
13127000,0.0324,0.013523,0.002678,0.000431,0.004466
13128000,0.0324,0.013523,0.002678,0.000431,0.003643
13129000,0.0324,0.013523,0.002678,0.000431,0.004466
13130000,0.0324,0.013523,0.002678,0.000431,0.004466
13131000,0.0324,0.013523,0.002678,0.000431,0.005406
13132000,0.0324,0.013523,0.002678,0.000431,0.005759
13133000,0.0324,0.013523,0.002678,0.000431,0.002351
13134000,0.0324,0.013523,0.002678,0.000431,0.002586
13135000,0.0324,0.013523,0.002678,0.000431,0.002586
13136000,0.0324,0.013523,0.002678,0.000431,0.002351
13137000,0.0324,0.013523,0.002678,0.000431,0.002586
13138000,0.0324,0.013523,0.002678,0.000431,0.002351
13139000,0.0324,0.013523,0.002678,0.000431,0.002703
13140000,0.0324,0.013523,0.002678,0.000431,0.002233
13141000,0.0324,0.013523,0.002678,0.000431,0.002586
13142000,0.0324,0.013523,0.002678,0.000431,0.002703
13143000,0.0324,0.013523,0.002678,0.000431,0.003056
13144000,0.0324,0.013523,0.002678,0.000431,0.002821
13145000,0.0324,0.013523,0.002678,0.000431,0.001645
13146000,0.0324,0.013523,0.002678,0.000431,0.001880
13147000,0.0324,0.013523,0.002678,0.000431,0.001410
13148000,0.0324,0.013523,0.002678,0.000431,0.001645
13149000,0.0324,0.013523,0.002678,0.000431,0.001880
13150000,0.0324,0.013523,0.002678,0.000431,0.001645
13151000,0.0324,0.013523,0.002678,0.000431,0.001410
13152000,0.0324,0.013523,0.002678,0.000431,0.001763
13153000,0.0324,0.013523,0.002678,0.000431,0.001763
13154000,0.0324,0.013523,0.002678,0.000431,0.001645
13155000,0.0324,0.013523,0.002678,0.000431,0.001410
13156000,0.0324,0.013523,0.002678,0.000431,0.001880
13157000,0.0324,0.013523,0.002678,0.000431,0.001645
13158000,0.0324,0.013523,0.002678,0.000431,0.001645
13159000,0.0324,0.013523,0.002678,0.000431,0.001645
13160000,0.0324,0.013523,0.002678,0.000431,0.001645
13161000,0.0324,0.013523,0.002678,0.000431,0.001763
13162000,0.0324,0.013523,0.002678,0.000431,0.254919
13163000,0.0324,0.013523,0.002678,0.000431,0.728205
13164000,0.0324,0.013523,0.002678,0.000431,0.355640
13165000,0.0324,0.013523,0.002678,0.000431,0.133042
13166000,0.0324,0.013523,0.002678,0.000431,0.148321
13167000,0.0324,0.013523,0.002678,0.000431,0.639118
13168000,0.0324,0.013523,0.002678,0.000431,0.240933
13169000,0.0324,0.013523,0.002678,0.000431,0.260442
13170000,0.0324,0.013523,0.002678,0.000431,0.224831
13171000,0.0324,0.013523,0.002678,0.000431,0.143502
13172000,0.0324,0.013523,0.002678,0.000431,0.160426
13173000,0.0324,0.013523,0.002678,0.000431,0.146088
13174000,0.0324,0.013523,0.002678,0.000431,0.537456
13175000,0.0324,0.013523,0.002678,0.000431,0.199093
13176000,0.0324,0.013523,0.002678,0.000431,0.154315
13177000,0.0324,0.013523,0.002678,0.000431,0.109771
13178000,0.0324,0.013523,0.002678,0.000431,0.085443
13179000,0.0324,0.013523,0.002678,0.000431,0.066874
13180000,0.0324,0.013523,0.002678,0.000431,0.053593
13181000,0.0324,0.013523,0.002678,0.000431,0.040195
13182000,0.0324,0.013523,0.002678,0.000431,0.031498
13183000,0.0324,0.013523,0.002678,0.000431,0.039137
13184000,0.0324,0.013523,0.002678,0.000431,0.022565
13185000,0.0324,0.013523,0.002678,0.000431,0.018452
13186000,0.0324,0.013523,0.002678,0.000431,0.017394
13187000,0.0324,0.013523,0.002678,0.000431,0.018922
13188000,0.0324,0.013523,0.002678,0.000431,0.016454
13189000,0.0324,0.013523,0.002678,0.000431,0.016454
13190000,0.0324,0.013523,0.002678,0.000431,0.011870
13191000,0.0324,0.013523,0.002678,0.000431,0.007992
13192000,0.0324,0.013523,0.002678,0.000431,0.007404
13193000,0.0324,0.013523,0.002678,0.000431,0.010107
13194000,0.0324,0.013523,0.002678,0.000431,0.009285
13195000,0.0324,0.013523,0.002678,0.000431,0.008109
13196000,0.0324,0.013523,0.002678,0.000431,0.005054
13197000,0.0324,0.013523,0.002678,0.000431,0.006464
13198000,0.0324,0.013523,0.002678,0.000431,0.005641
13199000,0.0324,0.013523,0.002678,0.000431,0.008227
13200000,0.0324,0.013523,0.002678,0.000431,0.003173
13201000,0.0324,0.013523,0.002678,0.000431,0.003291
13202000,0.0324,0.013523,0.002678,0.000431,0.003056
13203000,0.0324,0.013523,0.002678,0.000431,0.003291
13204000,0.0324,0.013523,0.002678,0.000431,0.003761
13205000,0.0324,0.013523,0.002678,0.000431,0.003056
13206000,0.0324,0.013523,0.002678,0.000431,0.003056
13207000,0.0324,0.013523,0.002678,0.000431,0.003291
13208000,0.0324,0.013523,0.002678,0.000431,0.003526
13209000,0.0324,0.013523,0.002678,0.000431,0.003291
13210000,0.0324,0.013523,0.002678,0.000431,0.003056
13211000,0.0324,0.013523,0.002678,0.000431,0.003761
13212000,0.0324,0.013523,0.002678,0.000431,0.002821
13213000,0.0324,0.013523,0.002678,0.000431,0.004936
13214000,0.0324,0.013523,0.002678,0.000431,0.001410
13215000,0.0324,0.013523,0.002678,0.000431,0.001645
13216000,0.0324,0.013523,0.002678,0.000431,0.001645
13217000,0.0324,0.013523,0.002678,0.000431,0.001410
13218000,0.0324,0.013523,0.002678,0.000431,0.001645
13219000,0.0324,0.013523,0.002678,0.000431,0.001645
13220000,0.0324,0.013523,0.002678,0.000431,0.001410
13221000,0.0324,0.013523,0.002678,0.000431,0.001645
13222000,0.0324,0.013523,0.002678,0.000431,0.001645
13223000,0.0324,0.013523,0.002678,0.000431,0.001880
13224000,0.0324,0.013523,0.002678,0.000431,0.001410
13225000,0.0324,0.013523,0.002678,0.000431,0.001645
13226000,0.0324,0.013523,0.002678,0.000431,0.001880
13227000,0.0324,0.013523,0.002678,0.000431,0.001645
13228000,0.0324,0.013523,0.002678,0.000431,0.001410
13229000,0.0324,0.013523,0.002678,0.000431,0.001763
13230000,0.0324,0.013523,0.002678,0.000431,0.001763
13231000,0.0324,0.013523,0.002678,0.000431,0.001645
13232000,0.0324,0.013523,0.002678,0.000431,0.001410
13233000,0.0324,0.013523,0.002678,0.000431,0.001645
13234000,0.0324,0.013523,0.002678,0.000431,0.001410
13235000,0.0324,0.013523,0.002678,0.000431,0.001645
13236000,0.0324,0.013523,0.002678,0.000431,0.001645
13237000,0.0324,0.013523,0.002678,0.000431,0.001410
13238000,0.0324,0.013523,0.002678,0.000431,0.001645
13239000,0.0324,0.013523,0.002678,0.000431,0.001645
13240000,0.0324,0.013523,0.002678,0.000431,0.001410
13241000,0.0324,0.013523,0.002678,0.000431,0.001880
13242000,0.0324,0.013523,0.002678,0.000431,0.001645
13243000,0.0324,0.013523,0.002678,0.000431,0.001528
13244000,0.0324,0.013523,0.002678,0.000431,0.001645
13245000,0.0324,0.013523,0.002678,0.000431,0.001763
13246000,0.0324,0.013523,0.002678,0.000431,0.001763
13247000,0.0324,0.013523,0.002678,0.000431,0.260913
13248000,0.0324,0.013523,0.002678,0.000431,0.770750
13249000,0.0324,0.013523,0.002678,0.000431,0.397010
13250000,0.0324,0.013523,0.002678,0.000431,0.133042
13251000,0.0324,0.013523,0.002678,0.000431,0.146088
13252000,0.0324,0.013523,0.002678,0.000431,0.638413
13253000,0.0324,0.013523,0.002678,0.000431,0.252568
13254000,0.0324,0.013523,0.002678,0.000431,0.256329
13255000,0.0324,0.013523,0.002678,0.000431,0.217780
13256000,0.0324,0.013523,0.002678,0.000431,0.147380
13257000,0.0324,0.013523,0.002678,0.000431,0.157605
13258000,0.0324,0.013523,0.002678,0.000431,0.170768
13259000,0.0324,0.013523,0.002678,0.000431,0.511483
13260000,0.0324,0.013523,0.002678,0.000431,0.168535
13261000,0.0324,0.013523,0.002678,0.000431,0.133042
13262000,0.0324,0.013523,0.002678,0.000431,0.109301
13263000,0.0324,0.013523,0.002678,0.000431,0.075571
13264000,0.0324,0.013523,0.002678,0.000431,0.076276
13265000,0.0324,0.013523,0.002678,0.000431,0.065346
13266000,0.0324,0.013523,0.002678,0.000431,0.047716
13267000,0.0324,0.013523,0.002678,0.000431,0.050890
13268000,0.0324,0.013523,0.002678,0.000431,0.034906
13269000,0.0324,0.013523,0.002678,0.000431,0.027149
13270000,0.0324,0.013523,0.002678,0.000431,0.027149
13271000,0.0324,0.013523,0.002678,0.000431,0.031262
13272000,0.0324,0.013523,0.002678,0.000431,0.016807
13273000,0.0324,0.013523,0.002678,0.000431,0.018687
13274000,0.0324,0.013523,0.002678,0.000431,0.014926
13275000,0.0324,0.013523,0.002678,0.000431,0.015044
13276000,0.0324,0.013523,0.002678,0.000431,0.015866
13277000,0.0324,0.013523,0.002678,0.000431,0.013281
13278000,0.0324,0.013523,0.002678,0.000431,0.012340
13279000,0.0324,0.013523,0.002678,0.000431,0.009050
13280000,0.0324,0.013523,0.002678,0.000431,0.007052
13281000,0.0324,0.013523,0.002678,0.000431,0.005289
13282000,0.0324,0.013523,0.002678,0.000431,0.004936
13283000,0.0324,0.013523,0.002678,0.000431,0.004584
13284000,0.0324,0.013523,0.002678,0.000431,0.005171
13285000,0.0324,0.013523,0.002678,0.000431,0.007052
13286000,0.0324,0.013523,0.002678,0.000431,0.004113
13287000,0.0324,0.013523,0.002678,0.000431,0.003878
13288000,0.0324,0.013523,0.002678,0.000431,0.003878
13289000,0.0324,0.013523,0.002678,0.000431,0.004231
13290000,0.0324,0.013523,0.002678,0.000431,0.005994
13291000,0.0324,0.013523,0.002678,0.000431,0.003291
13292000,0.0324,0.013523,0.002678,0.000431,0.002821
13293000,0.0324,0.013523,0.002678,0.000431,0.003761
13294000,0.0324,0.013523,0.002678,0.000431,0.001880
13295000,0.0324,0.013523,0.002678,0.000431,0.001293
13296000,0.0324,0.013523,0.002678,0.000431,0.001763
13297000,0.0324,0.013523,0.002678,0.000431,0.001645
13298000,0.0324,0.013523,0.002678,0.000431,0.001410
13299000,0.0324,0.013523,0.002678,0.000431,0.001645
13300000,0.0324,0.013523,0.002678,0.000431,0.001528
13301000,0.0324,0.013523,0.002678,0.000431,0.001528
13302000,0.0324,0.013523,0.002678,0.000431,0.001645
13303000,0.0324,0.013523,0.002678,0.000431,0.001645
13304000,0.0324,0.013523,0.002678,0.000431,0.001410
13305000,0.0324,0.013523,0.002678,0.000431,0.001645
13306000,0.0324,0.013523,0.002678,0.000431,0.001645
13307000,0.0324,0.013523,0.002678,0.000431,0.001645
13308000,0.0324,0.013523,0.002678,0.000431,0.001410
13309000,0.0324,0.013523,0.002678,0.000431,0.001645
13310000,0.0324,0.013523,0.002678,0.000431,0.001763
13311000,0.0324,0.013523,0.002678,0.000431,0.001528
13312000,0.0324,0.013523,0.002678,0.000431,0.001645
13313000,0.0324,0.013523,0.002678,0.000431,0.001645
13314000,0.0324,0.013523,0.002678,0.000431,0.001880
13315000,0.0324,0.013523,0.002678,0.000431,0.001293
13316000,0.0324,0.013523,0.002678,0.000431,0.001763
13317000,0.0324,0.013523,0.002678,0.000431,0.001763
13318000,0.0324,0.013523,0.002678,0.000431,0.002351
13319000,0.0324,0.013523,0.002678,0.000431,0.330254
13320000,0.0324,0.013523,0.002678,0.000431,0.774511
13321000,0.0324,0.013523,0.002678,0.000431,0.309804
13322000,0.0324,0.013523,0.002678,0.000431,0.132572
13323000,0.0324,0.013523,0.002678,0.000431,0.167713
13324000,0.0324,0.013523,0.002678,0.000431,0.603625
13325000,0.0324,0.013523,0.002678,0.000431,0.252333
13326000,0.0324,0.013523,0.002678,0.000431,0.242696
13327000,0.0324,0.013523,0.002678,0.000431,0.187457
13328000,0.0324,0.013523,0.002678,0.000431,0.145147
13329000,0.0324,0.013523,0.002678,0.000431,0.170886
13330000,0.0324,0.013523,0.002678,0.000431,0.150554
13331000,0.0324,0.013523,0.002678,0.000431,0.505371
13332000,0.0324,0.013523,0.002678,0.000431,0.189338
13333000,0.0324,0.013523,0.002678,0.000431,0.126578
13334000,0.0324,0.013523,0.002678,0.000431,0.100839
13335000,0.0324,0.013523,0.002678,0.000431,0.072515
13336000,0.0324,0.013523,0.002678,0.000431,0.064170
13337000,0.0324,0.013523,0.002678,0.000431,0.045248
13338000,0.0324,0.013523,0.002678,0.000431,0.036669
13339000,0.0324,0.013523,0.002678,0.000431,0.032085
13340000,0.0324,0.013523,0.002678,0.000431,0.025739
13341000,0.0324,0.013523,0.002678,0.000431,0.027031
13342000,0.0324,0.013523,0.002678,0.000431,0.024328
13343000,0.0324,0.013523,0.002678,0.000431,0.018569
13344000,0.0324,0.013523,0.002678,0.000431,0.016101
13345000,0.0324,0.013523,0.002678,0.000431,0.019392
13346000,0.0324,0.013523,0.002678,0.000431,0.015279
13347000,0.0324,0.013523,0.002678,0.000431,0.009637
13348000,0.0324,0.013523,0.002678,0.000431,0.008932
13349000,0.0324,0.013523,0.002678,0.000431,0.008227
13350000,0.0324,0.013523,0.002678,0.000431,0.007874
13351000,0.0324,0.013523,0.002678,0.000431,0.009402
13352000,0.0324,0.013523,0.002678,0.000431,0.006817
13353000,0.0324,0.013523,0.002678,0.000431,0.006699
13354000,0.0324,0.013523,0.002678,0.000431,0.009755
13355000,0.0324,0.013523,0.002678,0.000431,0.004466
13356000,0.0324,0.013523,0.002678,0.000431,0.003996
13357000,0.0324,0.013523,0.002678,0.000431,0.006464
13358000,0.0324,0.013523,0.002678,0.000431,0.005759
13359000,0.0324,0.013523,0.002678,0.000431,0.003878
13360000,0.0324,0.013523,0.002678,0.000431,0.001645
13361000,0.0324,0.013523,0.002678,0.000431,0.001645
13362000,0.0324,0.013523,0.002678,0.000431,0.001880
13363000,0.0324,0.013523,0.002678,0.000431,0.001528
13364000,0.0324,0.013523,0.002678,0.000431,0.001763
13365000,0.0324,0.013523,0.002678,0.000431,0.003878
13366000,0.0324,0.013523,0.002678,0.000431,0.000705
13367000,0.0324,0.013523,0.002678,0.000431,0.000940
13368000,0.0324,0.013523,0.002678,0.000431,0.000823
13369000,0.0324,0.013523,0.002678,0.000431,0.000823
13370000,0.0324,0.013523,0.002678,0.000431,0.000823
13371000,0.0324,0.013523,0.002678,0.000431,0.000823
13372000,0.0324,0.013523,0.002678,0.000431,0.000823
13373000,0.0324,0.013523,0.002678,0.000431,0.000823
13374000,0.0324,0.013523,0.002678,0.000431,0.000823
13375000,0.0324,0.013523,0.002678,0.000431,0.000823
13376000,0.0324,0.013523,0.002678,0.000431,0.000823
13377000,0.0324,0.013523,0.002678,0.000431,0.000940
13378000,0.0324,0.013523,0.002678,0.000431,0.000823
13379000,0.0324,0.013523,0.002678,0.000431,0.000823
13380000,0.0324,0.013523,0.002678,0.000431,0.000823
13381000,0.0324,0.013523,0.002678,0.000431,0.000940
13382000,0.0324,0.013523,0.002678,0.000431,0.000823
13383000,0.0324,0.013523,0.002678,0.000431,0.000823
13384000,0.0324,0.013523,0.002678,0.000431,0.072515
13385000,0.0324,0.013523,0.002678,0.000431,0.666972
13386000,0.0324,0.013523,0.002678,0.000431,0.593282
13387000,0.0324,0.013523,0.002678,0.000431,0.133512
13388000,0.0324,0.013523,0.002678,0.000431,0.132572
13389000,0.0324,0.013523,0.002678,0.000431,0.550737
13390000,0.0324,0.013523,0.002678,0.000431,0.229533
13391000,0.0324,0.013523,0.002678,0.000431,0.274781
13392000,0.0324,0.013523,0.002678,0.000431,0.271843
13393000,0.0324,0.013523,0.002678,0.000431,0.140211
13394000,0.0324,0.013523,0.002678,0.000431,0.153257
13395000,0.0324,0.013523,0.002678,0.000431,0.115178
13396000,0.0324,0.013523,0.002678,0.000431,0.383847
13397000,0.0324,0.013523,0.002678,0.000431,0.378441
13398000,0.0324,0.013523,0.002678,0.000431,0.196272
13399000,0.0324,0.013523,0.002678,0.000431,0.148908
13400000,0.0324,0.013523,0.002678,0.000431,0.100252
13401000,0.0324,0.013523,0.002678,0.000431,0.105423
13402000,0.0324,0.013523,0.002678,0.000431,0.083210
13403000,0.0324,0.013523,0.002678,0.000431,0.066991
13404000,0.0324,0.013523,0.002678,0.000431,0.055473
13405000,0.0324,0.013523,0.002678,0.000431,0.051477
13406000,0.0324,0.013523,0.002678,0.000431,0.037844
13407000,0.0324,0.013523,0.002678,0.000431,0.035258
13408000,0.0324,0.013523,0.002678,0.000431,0.027031
13409000,0.0324,0.013523,0.002678,0.000431,0.028559
13410000,0.0324,0.013523,0.002678,0.000431,0.016454
13411000,0.0324,0.013523,0.002678,0.000431,0.019745
13412000,0.0324,0.013523,0.002678,0.000431,0.015631
13413000,0.0324,0.013523,0.002678,0.000431,0.017277
13414000,0.0324,0.013523,0.002678,0.000431,0.017159
13415000,0.0324,0.013523,0.002678,0.000431,0.016571
13416000,0.0324,0.013523,0.002678,0.000431,0.014573
13417000,0.0324,0.013523,0.002678,0.000431,0.016101
13418000,0.0324,0.013523,0.002678,0.000431,0.013986
13419000,0.0324,0.013523,0.002678,0.000431,0.013633
13420000,0.0324,0.013523,0.002678,0.000431,0.013281
13421000,0.0324,0.013523,0.002678,0.000431,0.012340
13422000,0.0324,0.013523,0.002678,0.000431,0.008109
13423000,0.0324,0.013523,0.002678,0.000431,0.009520
13424000,0.0324,0.013523,0.002678,0.000431,0.012105
13425000,0.0324,0.013523,0.002678,0.000431,0.012105
13426000,0.0324,0.013523,0.002678,0.000431,0.006229
13427000,0.0324,0.013523,0.002678,0.000431,0.006699
13428000,0.0324,0.013523,0.002678,0.000431,0.006229
13429000,0.0324,0.013523,0.002678,0.000431,0.006347
13430000,0.0324,0.013523,0.002678,0.000431,0.006817
13431000,0.0324,0.013523,0.002678,0.000431,0.005876
13432000,0.0324,0.013523,0.002678,0.000431,0.003173
13433000,0.0324,0.013523,0.002678,0.000431,0.003056
13434000,0.0324,0.013523,0.002678,0.000431,0.003291
13435000,0.0324,0.013523,0.002678,0.000431,0.003056
13436000,0.0324,0.013523,0.002678,0.000431,0.003056
13437000,0.0324,0.013523,0.002678,0.000431,0.003291
13438000,0.0324,0.013523,0.002678,0.000431,0.003173
13439000,0.0324,0.013523,0.002678,0.000431,0.003056
13440000,0.0324,0.013523,0.002678,0.000431,0.002938
13441000,0.0324,0.013523,0.002678,0.000431,0.003291
13442000,0.0324,0.013523,0.002678,0.000431,0.005054
13443000,0.0324,0.013523,0.002678,0.000431,0.004349
13444000,0.0324,0.013523,0.002678,0.000431,0.002703
13445000,0.0324,0.013523,0.002678,0.000431,0.001998
13446000,0.0324,0.013523,0.002678,0.000431,0.002351
13447000,0.0324,0.013523,0.002678,0.000431,0.002468
13448000,0.0324,0.013523,0.002678,0.000431,0.002233
13449000,0.0324,0.013523,0.002678,0.000431,0.002351
13450000,0.0324,0.013523,0.002678,0.000431,0.002468
13451000,0.0324,0.013523,0.002678,0.000431,0.002351
13452000,0.0324,0.013523,0.002678,0.000431,0.002468
13453000,0.0324,0.013523,0.002678,0.000431,0.003996
13454000,0.0324,0.013523,0.002678,0.000431,0.001645
13455000,0.0324,0.013523,0.002678,0.000431,0.001763
13456000,0.0324,0.013523,0.002678,0.000431,0.001058
13457000,0.0324,0.013523,0.002678,0.000431,0.000940
13458000,0.0324,0.013523,0.002678,0.000431,0.000940
13459000,0.0324,0.013523,0.002678,0.000431,0.000705
13460000,0.0324,0.013523,0.002678,0.000431,0.000940
13461000,0.0324,0.013523,0.002678,0.000431,0.000705
13462000,0.0324,0.013523,0.002678,0.000431,0.000940
13463000,0.0324,0.013523,0.002678,0.000431,0.000823
13464000,0.0324,0.013523,0.002678,0.000431,0.000823
13465000,0.0324,0.013523,0.002678,0.000431,0.000823
13466000,0.0324,0.013523,0.002678,0.000431,0.000823
13467000,0.0324,0.013523,0.002678,0.000431,0.000940
13468000,0.0324,0.013523,0.002678,0.000431,0.000823
13469000,0.0324,0.013523,0.002678,0.000431,0.000823
13470000,0.0324,0.013523,0.002678,0.000431,0.000823
13471000,0.0324,0.013523,0.002678,0.000431,0.000823
13472000,0.0324,0.013523,0.002678,0.000431,0.000823
13473000,0.0324,0.013523,0.002678,0.000431,0.000823
13474000,0.0324,0.013523,0.002678,0.000431,0.000940
13475000,0.0324,0.013523,0.002678,0.000431,0.000705
13476000,0.0324,0.013523,0.002678,0.000431,0.000823
13477000,0.0324,0.013523,0.002678,0.000431,0.000940
13478000,0.0324,0.013523,0.002678,0.000431,0.000823
13479000,0.0324,0.013523,0.002678,0.000431,0.000823
13480000,0.0324,0.013523,0.002678,0.000431,0.000823
13481000,0.0324,0.013523,0.002678,0.000431,0.000705
13482000,0.0324,0.013523,0.002678,0.000431,0.000940
13483000,0.0324,0.013523,0.002678,0.000431,0.000940
13484000,0.0324,0.013523,0.002678,0.000431,0.000705
13485000,0.0324,0.013523,0.002678,0.000431,0.000940
13486000,0.0324,0.013523,0.002678,0.000431,0.000705
13487000,0.0324,0.013523,0.002678,0.000431,0.000940
13488000,0.0324,0.013523,0.002678,0.000431,0.000940
13489000,0.0324,0.013523,0.002678,0.000431,0.000705
13490000,0.0324,0.013523,0.002678,0.000431,0.000940
13491000,0.0324,0.013523,0.002678,0.000431,0.000705
13492000,0.0324,0.013523,0.002678,0.000431,0.000940
13493000,0.0324,0.013523,0.002678,0.000431,0.000823
13494000,0.0324,0.013523,0.002678,0.000431,0.000823
13495000,0.0324,0.013523,0.002678,0.000431,0.000823
13496000,0.0324,0.013523,0.002678,0.000431,0.000823
13497000,0.0324,0.013523,0.002678,0.000431,0.000823
13498000,0.0324,0.013523,0.002678,0.000431,0.000823
13499000,0.0324,0.013523,0.002678,0.000431,0.000940
13500000,0.0324,0.013523,0.002678,0.000431,0.000705
13501000,0.0324,0.013523,0.002678,0.000431,0.002233
13502000,0.0324,0.013523,0.002678,0.000431,0.457772
13503000,0.0324,0.013523,0.002678,0.000431,0.776274
13504000,0.0324,0.013523,0.002678,0.000431,0.196272
13505000,0.0324,0.013523,0.002678,0.000431,0.134570
13506000,0.0324,0.013523,0.002678,0.000431,0.232118
13507000,0.0324,0.013523,0.002678,0.000431,0.524411
13508000,0.0324,0.013523,0.002678,0.000431,0.253508
13509000,0.0324,0.013523,0.002678,0.000431,0.369038
13510000,0.0324,0.013523,0.002678,0.000431,0.162541
13511000,0.0324,0.013523,0.002678,0.000431,0.151611
13512000,0.0324,0.013523,0.002678,0.000431,0.106245
13513000,0.0324,0.013523,0.002678,0.000431,0.477987
13514000,0.0324,0.013523,0.002678,0.000431,0.230003
13515000,0.0324,0.013523,0.002678,0.000431,0.121759
13516000,0.0324,0.013523,0.002678,0.000431,0.096021
13517000,0.0324,0.013523,0.002678,0.000431,0.065228
13518000,0.0324,0.013523,0.002678,0.000431,0.063465
13519000,0.0324,0.013523,0.002678,0.000431,0.054533
13520000,0.0324,0.013523,0.002678,0.000431,0.041840
13521000,0.0324,0.013523,0.002678,0.000431,0.030440
13522000,0.0324,0.013523,0.002678,0.000431,0.022565
13523000,0.0324,0.013523,0.002678,0.000431,0.020097
13524000,0.0324,0.013523,0.002678,0.000431,0.027972
13525000,0.0324,0.013523,0.002678,0.000431,0.009637
13526000,0.0324,0.013523,0.002678,0.000431,0.007522
13527000,0.0324,0.013523,0.002678,0.000431,0.011635
13528000,0.0324,0.013523,0.002678,0.000431,0.007052
13529000,0.0324,0.013523,0.002678,0.000431,0.005994
13530000,0.0324,0.013523,0.002678,0.000431,0.005876
13531000,0.0324,0.013523,0.002678,0.000431,0.007992
13532000,0.0324,0.013523,0.002678,0.000431,0.005171
13533000,0.0324,0.013523,0.002678,0.000431,0.007404
13534000,0.0324,0.013523,0.002678,0.000431,0.003996
13535000,0.0324,0.013523,0.002678,0.000431,0.003996
13536000,0.0324,0.013523,0.002678,0.000431,0.004349
13537000,0.0324,0.013523,0.002678,0.000431,0.003878
13538000,0.0324,0.013523,0.002678,0.000431,0.004113
13539000,0.0324,0.013523,0.002678,0.000431,0.003878
13540000,0.0324,0.013523,0.002678,0.000431,0.005289
13541000,0.0324,0.013523,0.002678,0.000431,0.002703
13542000,0.0324,0.013523,0.002678,0.000431,0.002468
13543000,0.0324,0.013523,0.002678,0.000431,0.002703
13544000,0.0324,0.013523,0.002678,0.000431,0.002351
13545000,0.0324,0.013523,0.002678,0.000431,0.004113
13546000,0.0324,0.013523,0.002678,0.000431,0.001763
13547000,0.0324,0.013523,0.002678,0.000431,0.001528
13548000,0.0324,0.013523,0.002678,0.000431,0.001763
13549000,0.0324,0.013523,0.002678,0.000431,0.001528
13550000,0.0324,0.013523,0.002678,0.000431,0.001880
13551000,0.0324,0.013523,0.002678,0.000431,0.001528
13552000,0.0324,0.013523,0.002678,0.000431,0.001645
13553000,0.0324,0.013523,0.002678,0.000431,0.001645
13554000,0.0324,0.013523,0.002678,0.000431,0.001998
13555000,0.0324,0.013523,0.002678,0.000431,0.001528
13556000,0.0324,0.013523,0.002678,0.000431,0.001645
13557000,0.0324,0.013523,0.002678,0.000431,0.001880
13558000,0.0324,0.013523,0.002678,0.000431,0.001645
13559000,0.0324,0.013523,0.002678,0.000431,0.002703
13560000,0.0324,0.013523,0.002678,0.000431,0.000823
13561000,0.0324,0.013523,0.002678,0.000431,0.000823
13562000,0.0324,0.013523,0.002678,0.000431,0.000823
13563000,0.0324,0.013523,0.002678,0.000431,0.000940
13564000,0.0324,0.013523,0.002678,0.000431,0.015631
13565000,0.0324,0.013523,0.002678,0.000431,0.636415
13566000,0.0324,0.013523,0.002678,0.000431,0.617728
13567000,0.0324,0.013523,0.002678,0.000431,0.135392
13568000,0.0324,0.013523,0.002678,0.000431,0.131632
13569000,0.0324,0.013523,0.002678,0.000431,0.488095
13570000,0.0324,0.013523,0.002678,0.000431,0.311332
13571000,0.0324,0.013523,0.002678,0.000431,0.302635
13572000,0.0324,0.013523,0.002678,0.000431,0.294408
13573000,0.0324,0.013523,0.002678,0.000431,0.144325
13574000,0.0324,0.013523,0.002678,0.000431,0.147263
13575000,0.0324,0.013523,0.002678,0.000431,0.116823
13576000,0.0324,0.013523,0.002678,0.000431,0.452719
13577000,0.0324,0.013523,0.002678,0.000431,0.295466
13578000,0.0324,0.013523,0.002678,0.000431,0.161366
13579000,0.0324,0.013523,0.002678,0.000431,0.114472
13580000,0.0324,0.013523,0.002678,0.000431,0.098841
13581000,0.0324,0.013523,0.002678,0.000431,0.086971
13582000,0.0324,0.013523,0.002678,0.000431,0.071457
13583000,0.0324,0.013523,0.002678,0.000431,0.067109
13584000,0.0324,0.013523,0.002678,0.000431,0.045483
13585000,0.0324,0.013523,0.002678,0.000431,0.041487
13586000,0.0324,0.013523,0.002678,0.000431,0.044661
13587000,0.0324,0.013523,0.002678,0.000431,0.021155
13588000,0.0324,0.013523,0.002678,0.000431,0.021038
13589000,0.0324,0.013523,0.002678,0.000431,0.024093
13590000,0.0324,0.013523,0.002678,0.000431,0.017277
13591000,0.0324,0.013523,0.002678,0.000431,0.016101
13592000,0.0324,0.013523,0.002678,0.000431,0.013868
13593000,0.0324,0.013523,0.002678,0.000431,0.009872
13594000,0.0324,0.013523,0.002678,0.000431,0.012811
13595000,0.0324,0.013523,0.002678,0.000431,0.009520
13596000,0.0324,0.013523,0.002678,0.000431,0.005406
13597000,0.0324,0.013523,0.002678,0.000431,0.002586
13598000,0.0324,0.013523,0.002678,0.000431,0.002586
13599000,0.0324,0.013523,0.002678,0.000431,0.002468
13600000,0.0324,0.013523,0.002678,0.000431,0.002586
13601000,0.0324,0.013523,0.002678,0.000431,0.002586
13602000,0.0324,0.013523,0.002678,0.000431,0.002586
13603000,0.0324,0.013523,0.002678,0.000431,0.002468
13604000,0.0324,0.013523,0.002678,0.000431,0.006817
13605000,0.0324,0.013523,0.002678,0.000431,0.000940
13606000,0.0324,0.013523,0.002678,0.000431,0.000705
13607000,0.0324,0.013523,0.002678,0.000431,0.000940
13608000,0.0324,0.013523,0.002678,0.000431,0.000705
13609000,0.0324,0.013523,0.002678,0.000431,0.000940
13610000,0.0324,0.013523,0.002678,0.000431,0.000940
13611000,0.0324,0.013523,0.002678,0.000431,0.000705
13612000,0.0324,0.013523,0.002678,0.000431,0.000940
13613000,0.0324,0.013523,0.002678,0.000431,0.000705
13614000,0.0324,0.013523,0.002678,0.000431,0.000940
13615000,0.0324,0.013523,0.002678,0.000431,0.182991
13616000,0.0324,0.013523,0.002678,0.000431,0.674494
13617000,0.0324,0.013523,0.002678,0.000431,0.533225
13618000,0.0324,0.013523,0.002678,0.000431,0.134100
13619000,0.0324,0.013523,0.002678,0.000431,0.132924
13620000,0.0324,0.013523,0.002678,0.000431,0.629481
13621000,0.0324,0.013523,0.002678,0.000431,0.241991
13622000,0.0324,0.013523,0.002678,0.000431,0.239640
13623000,0.0324,0.013523,0.002678,0.000431,0.239993
13624000,0.0324,0.013523,0.002678,0.000431,0.145030
13625000,0.0324,0.013523,0.002678,0.000431,0.186165
13626000,0.0324,0.013523,0.002678,0.000431,0.100252
13627000,0.0324,0.013523,0.002678,0.000431,0.523706
13628000,0.0324,0.013523,0.002678,0.000431,0.222128
13629000,0.0324,0.013523,0.002678,0.000431,0.144560
13630000,0.0324,0.013523,0.002678,0.000431,0.121994
13631000,0.0324,0.013523,0.002678,0.000431,0.106363
13632000,0.0324,0.013523,0.002678,0.000431,0.080859
13633000,0.0324,0.013523,0.002678,0.000431,0.075101
13634000,0.0324,0.013523,0.002678,0.000431,0.047599
13635000,0.0324,0.013523,0.002678,0.000431,0.055943
13636000,0.0324,0.013523,0.002678,0.000431,0.043603
13637000,0.0324,0.013523,0.002678,0.000431,0.028089
13638000,0.0324,0.013523,0.002678,0.000431,0.024681
13639000,0.0324,0.013523,0.002678,0.000431,0.023741
13640000,0.0324,0.013523,0.002678,0.000431,0.019510
13641000,0.0324,0.013523,0.002678,0.000431,0.020332
13642000,0.0324,0.013523,0.002678,0.000431,0.014338
13643000,0.0324,0.013523,0.002678,0.000431,0.016571
13644000,0.0324,0.013523,0.002678,0.000431,0.015044
13645000,0.0324,0.013523,0.002678,0.000431,0.011870
13646000,0.0324,0.013523,0.002678,0.000431,0.010813
13647000,0.0324,0.013523,0.002678,0.000431,0.010813
13648000,0.0324,0.013523,0.002678,0.000431,0.011048
13649000,0.0324,0.013523,0.002678,0.000431,0.011165
13650000,0.0324,0.013523,0.002678,0.000431,0.010342
13651000,0.0324,0.013523,0.002678,0.000431,0.012693
13652000,0.0324,0.013523,0.002678,0.000431,0.011988
13653000,0.0324,0.013523,0.002678,0.000431,0.008227
13654000,0.0324,0.013523,0.002678,0.000431,0.008580
13655000,0.0324,0.013523,0.002678,0.000431,0.009872
13656000,0.0324,0.013523,0.002678,0.000431,0.007874
13657000,0.0324,0.013523,0.002678,0.000431,0.008462
13658000,0.0324,0.013523,0.002678,0.000431,0.008462
13659000,0.0324,0.013523,0.002678,0.000431,0.009637
13660000,0.0324,0.013523,0.002678,0.000431,0.006347
13661000,0.0324,0.013523,0.002678,0.000431,0.007757
13662000,0.0324,0.013523,0.002678,0.000431,0.003761
13663000,0.0324,0.013523,0.002678,0.000431,0.002938
13664000,0.0324,0.013523,0.002678,0.000431,0.003643
13665000,0.0324,0.013523,0.002678,0.000431,0.003408
13666000,0.0324,0.013523,0.002678,0.000431,0.003408
13667000,0.0324,0.013523,0.002678,0.000431,0.007287
13668000,0.0324,0.013523,0.002678,0.000431,0.002938
13669000,0.0324,0.013523,0.002678,0.000431,0.000940
13670000,0.0324,0.013523,0.002678,0.000431,0.000823
13671000,0.0324,0.013523,0.002678,0.000431,0.000823
13672000,0.0324,0.013523,0.002678,0.000431,0.000940
13673000,0.0324,0.013523,0.002678,0.000431,0.000823
13674000,0.0324,0.013523,0.002678,0.000431,0.000940
13675000,0.0324,0.013523,0.002678,0.000431,0.000823
13676000,0.0324,0.013523,0.002678,0.000431,0.000940
13677000,0.0324,0.013523,0.002678,0.000431,0.000823
13678000,0.0324,0.013523,0.002678,0.000431,0.000823
13679000,0.0324,0.013523,0.002678,0.000431,0.000940
13680000,0.0324,0.013523,0.002678,0.000431,0.000940
13681000,0.0324,0.013523,0.002678,0.000431,0.000705
13682000,0.0324,0.013523,0.002678,0.000431,0.000940
13683000,0.0324,0.013523,0.002678,0.000431,0.000940
13684000,0.0324,0.013523,0.002678,0.000431,0.000940
13685000,0.0324,0.013523,0.002678,0.000431,0.000705
13686000,0.0324,0.013523,0.002678,0.000431,0.000940
13687000,0.0324,0.013523,0.002678,0.000431,0.000940
13688000,0.0324,0.013523,0.002678,0.000431,0.000823
13689000,0.0324,0.013523,0.002678,0.000431,0.000823
13690000,0.0324,0.013523,0.002678,0.000431,0.000940
13691000,0.0324,0.013523,0.002678,0.000431,0.000940
13692000,0.0324,0.013523,0.002678,0.000431,0.000823
13693000,0.0324,0.013523,0.002678,0.000431,0.000823
13694000,0.0324,0.013523,0.002678,0.000431,0.000940
13695000,0.0324,0.013523,0.002678,0.000431,0.000823
13696000,0.0324,0.013523,0.002678,0.000431,0.000940
13697000,0.0324,0.013523,0.002678,0.000431,0.072397
13698000,0.0324,0.013523,0.002678,0.000431,0.720918
13699000,0.0324,0.013523,0.002678,0.000431,0.557436
13700000,0.0324,0.013523,0.002678,0.000431,0.134452
13701000,0.0324,0.013523,0.002678,0.000431,0.133042
13702000,0.0324,0.013523,0.002678,0.000431,0.556143
13703000,0.0324,0.013523,0.002678,0.000431,0.242226
13704000,0.0324,0.013523,0.002678,0.000431,0.281127
13705000,0.0324,0.013523,0.002678,0.000431,0.289237
13706000,0.0324,0.013523,0.002678,0.000431,0.149731
13707000,0.0324,0.013523,0.002678,0.000431,0.172649
13708000,0.0324,0.013523,0.002678,0.000431,0.097431
13709000,0.0324,0.013523,0.002678,0.000431,0.528759
13710000,0.0324,0.013523,0.002678,0.000431,0.204852
13711000,0.0324,0.013523,0.002678,0.000431,0.129046
13712000,0.0324,0.013523,0.002678,0.000431,0.088734
13713000,0.0324,0.013523,0.002678,0.000431,0.083563
13714000,0.0324,0.013523,0.002678,0.000431,0.072162
13715000,0.0324,0.013523,0.002678,0.000431,0.056649
13716000,0.0324,0.013523,0.002678,0.000431,0.043133
13717000,0.0324,0.013523,0.002678,0.000431,0.033731
13718000,0.0324,0.013523,0.002678,0.000431,0.024093
13719000,0.0324,0.013523,0.002678,0.000431,0.020097
13720000,0.0324,0.013523,0.002678,0.000431,0.019980
13721000,0.0324,0.013523,0.002678,0.000431,0.021508
13722000,0.0324,0.013523,0.002678,0.000431,0.015749
13723000,0.0324,0.013523,0.002678,0.000431,0.012458
13724000,0.0324,0.013523,0.002678,0.000431,0.005406
13725000,0.0324,0.013523,0.002678,0.000431,0.005289
13726000,0.0324,0.013523,0.002678,0.000431,0.006229
13727000,0.0324,0.013523,0.002678,0.000431,0.005054
13728000,0.0324,0.013523,0.002678,0.000431,0.004349
13729000,0.0324,0.013523,0.002678,0.000431,0.003526
13730000,0.0324,0.013523,0.002678,0.000431,0.003643
13731000,0.0324,0.013523,0.002678,0.000431,0.003291
13732000,0.0324,0.013523,0.002678,0.000431,0.004701
13733000,0.0324,0.013523,0.002678,0.000431,0.004349
13734000,0.0324,0.013523,0.002678,0.000431,0.002703
13735000,0.0324,0.013523,0.002678,0.000431,0.002351
13736000,0.0324,0.013523,0.002678,0.000431,0.002586
13737000,0.0324,0.013523,0.002678,0.000431,0.002468
13738000,0.0324,0.013523,0.002678,0.000431,0.002703
13739000,0.0324,0.013523,0.002678,0.000431,0.002586
13740000,0.0324,0.013523,0.002678,0.000431,0.002351
13741000,0.0324,0.013523,0.002678,0.000431,0.002703
13742000,0.0324,0.013523,0.002678,0.000431,0.005289
13743000,0.0324,0.013523,0.002678,0.000431,0.001763
13744000,0.0324,0.013523,0.002678,0.000431,0.001645
13745000,0.0324,0.013523,0.002678,0.000431,0.001880
13746000,0.0324,0.013523,0.002678,0.000431,0.001763
13747000,0.0324,0.013523,0.002678,0.000431,0.001645
13748000,0.0324,0.013523,0.002678,0.000431,0.001763
13749000,0.0324,0.013523,0.002678,0.000431,0.004584
13750000,0.0324,0.013523,0.002678,0.000431,0.000940
13751000,0.0324,0.013523,0.002678,0.000431,0.000823
13752000,0.0324,0.013523,0.002678,0.000431,0.000823
13753000,0.0324,0.013523,0.002678,0.000431,0.000940
13754000,0.0324,0.013523,0.002678,0.000431,0.000823
13755000,0.0324,0.013523,0.002678,0.000431,0.000940
13756000,0.0324,0.013523,0.002678,0.000431,0.000823
13757000,0.0324,0.013523,0.002678,0.000431,0.000940
13758000,0.0324,0.013523,0.002678,0.000431,0.000823
13759000,0.0324,0.013523,0.002678,0.000431,0.000823
13760000,0.0324,0.013523,0.002678,0.000431,0.000940
13761000,0.0324,0.013523,0.002678,0.000431,0.071340
13762000,0.0324,0.013523,0.002678,0.000431,0.669323
13763000,0.0324,0.013523,0.002678,0.000431,0.598336
13764000,0.0324,0.013523,0.002678,0.000431,0.133512
13765000,0.0324,0.013523,0.002678,0.000431,0.133042
13766000,0.0324,0.013523,0.002678,0.000431,0.536399
13767000,0.0324,0.013523,0.002678,0.000431,0.240933
13768000,0.0324,0.013523,0.002678,0.000431,0.236819
13769000,0.0324,0.013523,0.002678,0.000431,0.310157
13770000,0.0324,0.013523,0.002678,0.000431,0.140799
13771000,0.0324,0.013523,0.002678,0.000431,0.158781
13772000,0.0324,0.013523,0.002678,0.000431,0.117881
13773000,0.0324,0.013523,0.002678,0.000431,0.449310
13774000,0.0324,0.013523,0.002678,0.000431,0.272313
13775000,0.0324,0.013523,0.002678,0.000431,0.137155
13776000,0.0324,0.013523,0.002678,0.000431,0.112474
13777000,0.0324,0.013523,0.002678,0.000431,0.082270
13778000,0.0324,0.013523,0.002678,0.000431,0.064641
13779000,0.0324,0.013523,0.002678,0.000431,0.060409
13780000,0.0324,0.013523,0.002678,0.000431,0.051007
13781000,0.0324,0.013523,0.002678,0.000431,0.036434
13782000,0.0324,0.013523,0.002678,0.000431,0.033848
13783000,0.0324,0.013523,0.002678,0.000431,0.031145
13784000,0.0324,0.013523,0.002678,0.000431,0.029382
13785000,0.0324,0.013523,0.002678,0.000431,0.025974
13786000,0.0324,0.013523,0.002678,0.000431,0.017864
13787000,0.0324,0.013523,0.002678,0.000431,0.025974
13788000,0.0324,0.013523,0.002678,0.000431,0.014573
13789000,0.0324,0.013523,0.002678,0.000431,0.016454
13790000,0.0324,0.013523,0.002678,0.000431,0.011400
13791000,0.0324,0.013523,0.002678,0.000431,0.017042
13792000,0.0324,0.013523,0.002678,0.000431,0.008697
13793000,0.0324,0.013523,0.002678,0.000431,0.007639
13794000,0.0324,0.013523,0.002678,0.000431,0.008462
13795000,0.0324,0.013523,0.002678,0.000431,0.007874
13796000,0.0324,0.013523,0.002678,0.000431,0.008580
13797000,0.0324,0.013523,0.002678,0.000431,0.008345
13798000,0.0324,0.013523,0.002678,0.000431,0.007287
13799000,0.0324,0.013523,0.002678,0.000431,0.009520
13800000,0.0324,0.013523,0.002678,0.000431,0.010813
13801000,0.0324,0.013523,0.002678,0.000431,0.005406
13802000,0.0324,0.013523,0.002678,0.000431,0.004819
13803000,0.0324,0.013523,0.002678,0.000431,0.006699
13804000,0.0324,0.013523,0.002678,0.000431,0.004701
13805000,0.0324,0.013523,0.002678,0.000431,0.004231
13806000,0.0324,0.013523,0.002678,0.000431,0.005289
13807000,0.0324,0.013523,0.002678,0.000431,0.004701
13808000,0.0324,0.013523,0.002678,0.000431,0.001763
13809000,0.0324,0.013523,0.002678,0.000431,0.001528
13810000,0.0324,0.013523,0.002678,0.000431,0.002821
13811000,0.0324,0.013523,0.002678,0.000431,0.000705
13812000,0.0324,0.013523,0.002678,0.000431,0.000940
13813000,0.0324,0.013523,0.002678,0.000431,0.000940
13814000,0.0324,0.013523,0.002678,0.000431,0.000705
13815000,0.0324,0.013523,0.002678,0.000431,0.000940
13816000,0.0324,0.013523,0.002678,0.000431,0.000705
13817000,0.0324,0.013523,0.002678,0.000431,0.000940
13818000,0.0324,0.013523,0.002678,0.000431,0.000940
13819000,0.0324,0.013523,0.002678,0.000431,0.000705
13820000,0.0324,0.013523,0.002678,0.000431,0.000940
13821000,0.0324,0.013523,0.002678,0.000431,0.000705
13822000,0.0324,0.013523,0.002678,0.000431,0.000940
13823000,0.0324,0.013523,0.002678,0.000431,0.000823
13824000,0.0324,0.013523,0.002678,0.000431,0.000823
13825000,0.0324,0.013523,0.002678,0.000431,0.000823
13826000,0.0324,0.013523,0.002678,0.000431,0.000823
13827000,0.0324,0.013523,0.002678,0.000431,0.000823
13828000,0.0324,0.013523,0.002678,0.000431,0.000823
13829000,0.0324,0.013523,0.002678,0.000431,0.000940
13830000,0.0324,0.013523,0.002678,0.000431,0.000705
13831000,0.0324,0.013523,0.002678,0.000431,0.000940
13832000,0.0324,0.013523,0.002678,0.000431,0.000823
13833000,0.0324,0.013523,0.002678,0.000431,0.000823
13834000,0.0324,0.013523,0.002678,0.000431,0.000705
13835000,0.0324,0.013523,0.002678,0.000431,0.000940
13836000,0.0324,0.013523,0.002678,0.000431,0.000940
13837000,0.0324,0.013523,0.002678,0.000431,0.000705
13838000,0.0324,0.013523,0.002678,0.000431,0.000940
13839000,0.0324,0.013523,0.002678,0.000431,0.000705
13840000,0.0324,0.013523,0.002678,0.000431,0.000940
13841000,0.0324,0.013523,0.002678,0.000431,0.000823
13842000,0.0324,0.013523,0.002678,0.000431,0.000823
13843000,0.0324,0.013523,0.002678,0.000431,0.000940
13844000,0.0324,0.013523,0.002678,0.000431,0.000705
13845000,0.0324,0.013523,0.002678,0.000431,0.000940
13846000,0.0324,0.013523,0.002678,0.000431,0.000823
13847000,0.0324,0.013523,0.002678,0.000431,0.000823
13848000,0.0324,0.013523,0.002678,0.000431,0.000823
13849000,0.0324,0.013523,0.002678,0.000431,0.000823
13850000,0.0324,0.013523,0.002678,0.000431,0.000823
13851000,0.0324,0.013523,0.002678,0.000431,0.000823
13852000,0.0324,0.013523,0.002678,0.000431,0.000940
13853000,0.0324,0.013523,0.002678,0.000431,0.000705
13854000,0.0324,0.013523,0.002678,0.000431,0.000823
13855000,0.0324,0.013523,0.002678,0.000431,0.000940
13856000,0.0324,0.013523,0.002678,0.000431,0.000823
13857000,0.0324,0.013523,0.002678,0.000431,0.000823
13858000,0.0324,0.013523,0.002678,0.000431,0.000823
13859000,0.0324,0.013523,0.002678,0.000431,0.000705
13860000,0.0324,0.013523,0.002678,0.000431,0.000940
13861000,0.0324,0.013523,0.002678,0.000431,0.000940
13862000,0.0324,0.013523,0.002678,0.000431,0.000705
13863000,0.0324,0.013523,0.002678,0.000431,0.000940
13864000,0.0324,0.013523,0.002678,0.000431,0.000705
13865000,0.0324,0.013523,0.002678,0.000431,0.000940
13866000,0.0324,0.013523,0.002678,0.000431,0.000823
13867000,0.0324,0.013523,0.002678,0.000431,0.000823
13868000,0.0324,0.013523,0.002678,0.000431,0.000940
13869000,0.0324,0.013523,0.002678,0.000431,0.000705
13870000,0.0324,0.013523,0.002678,0.000431,0.000940
13871000,0.0324,0.013523,0.002678,0.000431,0.000823
13872000,0.0324,0.013523,0.002678,0.000431,0.000823
13873000,0.0324,0.013523,0.002678,0.000431,0.000823
13874000,0.0324,0.013523,0.002678,0.000431,0.000823
13875000,0.0324,0.013523,0.002678,0.000431,0.000823
13876000,0.0324,0.013523,0.002678,0.000431,0.000823
13877000,0.0324,0.013523,0.002678,0.000431,0.000940
13878000,0.0324,0.013523,0.002678,0.000431,0.000705
13879000,0.0324,0.013523,0.002678,0.000431,0.000940
13880000,0.0324,0.013523,0.002678,0.000431,0.000823
13881000,0.0324,0.013523,0.002678,0.000431,0.000823
13882000,0.0324,0.013523,0.002678,0.000431,0.000705
13883000,0.0324,0.013523,0.002678,0.000431,0.000940
13884000,0.0324,0.013523,0.002678,0.000431,0.000940
13885000,0.0324,0.013523,0.002678,0.000431,0.000705
13886000,0.0324,0.013523,0.002678,0.000431,0.000940
13887000,0.0324,0.013523,0.002678,0.000431,0.000705
13888000,0.0324,0.013523,0.002678,0.000431,0.000940
13889000,0.0324,0.013523,0.002678,0.000431,0.000823
13890000,0.0324,0.013523,0.002678,0.000431,0.000823
13891000,0.0324,0.013523,0.002678,0.000431,0.000823
13892000,0.0324,0.013523,0.002678,0.000431,0.000823
13893000,0.0324,0.013523,0.002678,0.000431,0.000940
13894000,0.0324,0.013523,0.002678,0.000431,0.000705
13895000,0.0324,0.013523,0.002678,0.000431,0.000940
13896000,0.0324,0.013523,0.002678,0.000431,0.000705
13897000,0.0324,0.013523,0.002678,0.000431,0.000940
13898000,0.0324,0.013523,0.002678,0.000431,0.000823
13899000,0.0324,0.013523,0.002678,0.000431,0.000823
13900000,0.0324,0.013523,0.002678,0.000431,0.000705
13901000,0.0324,0.013523,0.002678,0.000431,0.000940
13902000,0.0324,0.013523,0.002678,0.000431,0.011283
13903000,0.0324,0.013523,0.002678,0.000431,0.592460
13904000,0.0324,0.013523,0.002678,0.000431,0.675199
13905000,0.0324,0.013523,0.002678,0.000431,0.132807
13906000,0.0324,0.013523,0.002678,0.000431,0.133982
13907000,0.0324,0.013523,0.002678,0.000431,0.361282
13908000,0.0324,0.013523,0.002678,0.000431,0.394660
13909000,0.0324,0.013523,0.002678,0.000431,0.233881
13910000,0.0324,0.013523,0.002678,0.000431,0.332840
13911000,0.0324,0.013523,0.002678,0.000431,0.167478
13912000,0.0324,0.013523,0.002678,0.000431,0.147733
13913000,0.0324,0.013523,0.002678,0.000431,0.132454
13914000,0.0324,0.013523,0.002678,0.000431,0.303223
13915000,0.0324,0.013523,0.002678,0.000431,0.445432
13916000,0.0324,0.013523,0.002678,0.000431,0.178055
13917000,0.0324,0.013523,0.002678,0.000431,0.145852
13918000,0.0324,0.013523,0.002678,0.000431,0.103777
13919000,0.0324,0.013523,0.002678,0.000431,0.084973
13920000,0.0324,0.013523,0.002678,0.000431,0.079802
13921000,0.0324,0.013523,0.002678,0.000431,0.062055
13922000,0.0324,0.013523,0.002678,0.000431,0.056296
13923000,0.0324,0.013523,0.002678,0.000431,0.045366
13924000,0.0324,0.013523,0.002678,0.000431,0.038314
13925000,0.0324,0.013523,0.002678,0.000431,0.024798
13926000,0.0324,0.013523,0.002678,0.000431,0.026914
13927000,0.0324,0.013523,0.002678,0.000431,0.023741
13928000,0.0324,0.013523,0.002678,0.000431,0.018805
13929000,0.0324,0.013523,0.002678,0.000431,0.008580
13930000,0.0324,0.013523,0.002678,0.000431,0.009050
13931000,0.0324,0.013523,0.002678,0.000431,0.011518
13932000,0.0324,0.013523,0.002678,0.000431,0.008109
13933000,0.0324,0.013523,0.002678,0.000431,0.008462
13934000,0.0324,0.013523,0.002678,0.000431,0.008462
13935000,0.0324,0.013523,0.002678,0.000431,0.006817
13936000,0.0324,0.013523,0.002678,0.000431,0.009990
13937000,0.0324,0.013523,0.002678,0.000431,0.007639
13938000,0.0324,0.013523,0.002678,0.000431,0.004584
13939000,0.0324,0.013523,0.002678,0.000431,0.005171
13940000,0.0324,0.013523,0.002678,0.000431,0.004349
13941000,0.0324,0.013523,0.002678,0.000431,0.004584
13942000,0.0324,0.013523,0.002678,0.000431,0.004349
13943000,0.0324,0.013523,0.002678,0.000431,0.003643
13944000,0.0324,0.013523,0.002678,0.000431,0.003526
13945000,0.0324,0.013523,0.002678,0.000431,0.003761
13946000,0.0324,0.013523,0.002678,0.000431,0.005876
13947000,0.0324,0.013523,0.002678,0.000431,0.004819
13948000,0.0324,0.013523,0.002678,0.000431,0.001645
13949000,0.0324,0.013523,0.002678,0.000431,0.001645
13950000,0.0324,0.013523,0.002678,0.000431,0.001763
13951000,0.0324,0.013523,0.002678,0.000431,0.001645
13952000,0.0324,0.013523,0.002678,0.000431,0.001763
13953000,0.0324,0.013523,0.002678,0.000431,0.001645
13954000,0.0324,0.013523,0.002678,0.000431,0.001880
13955000,0.0324,0.013523,0.002678,0.000431,0.001645
13956000,0.0324,0.013523,0.002678,0.000431,0.001645
13957000,0.0324,0.013523,0.002678,0.000431,0.001763
13958000,0.0324,0.013523,0.002678,0.000431,0.001645
13959000,0.0324,0.013523,0.002678,0.000431,0.001763
13960000,0.0324,0.013523,0.002678,0.000431,0.001763
13961000,0.0324,0.013523,0.002678,0.000431,0.001645
13962000,0.0324,0.013523,0.002678,0.000431,0.001880
13963000,0.0324,0.013523,0.002678,0.000431,0.001410
13964000,0.0324,0.013523,0.002678,0.000431,0.001880
13965000,0.0324,0.013523,0.002678,0.000431,0.001763
13966000,0.0324,0.013523,0.002678,0.000431,0.001645
13967000,0.0324,0.013523,0.002678,0.000431,0.004819
13968000,0.0324,0.013523,0.002678,0.000431,0.000823
13969000,0.0324,0.013523,0.002678,0.000431,0.000940
13970000,0.0324,0.013523,0.002678,0.000431,0.000823
13971000,0.0324,0.013523,0.002678,0.000431,0.000823
13972000,0.0324,0.013523,0.002678,0.000431,0.000940
13973000,0.0324,0.013523,0.002678,0.000431,0.000940
13974000,0.0324,0.013523,0.002678,0.000431,0.026209
13975000,0.0324,0.013523,0.002678,0.000431,0.717274
13976000,0.0324,0.013523,0.002678,0.000431,0.626190
13977000,0.0324,0.013523,0.002678,0.000431,0.133277
13978000,0.0324,0.013523,0.002678,0.000431,0.133982
13979000,0.0324,0.013523,0.002678,0.000431,0.521590
13980000,0.0324,0.013523,0.002678,0.000431,0.244694
13981000,0.0324,0.013523,0.002678,0.000431,0.271490
13982000,0.0324,0.013523,0.002678,0.000431,0.314153
13983000,0.0324,0.013523,0.002678,0.000431,0.139741
13984000,0.0324,0.013523,0.002678,0.000431,0.145030
13985000,0.0324,0.013523,0.002678,0.000431,0.125285
13986000,0.0324,0.013523,0.002678,0.000431,0.333075
13987000,0.0324,0.013523,0.002678,0.000431,0.356933
13988000,0.0324,0.013523,0.002678,0.000431,0.124345
13989000,0.0324,0.013523,0.002678,0.000431,0.090379
13990000,0.0324,0.013523,0.002678,0.000431,0.084150
13991000,0.0324,0.013523,0.002678,0.000431,0.061232
13992000,0.0324,0.013523,0.002678,0.000431,0.061350
13993000,0.0324,0.013523,0.002678,0.000431,0.043720
13994000,0.0324,0.013523,0.002678,0.000431,0.035846
13995000,0.0324,0.013523,0.002678,0.000431,0.027502
13996000,0.0324,0.013523,0.002678,0.000431,0.024446
13997000,0.0324,0.013523,0.002678,0.000431,0.026914
13998000,0.0324,0.013523,0.002678,0.000431,0.015984
13999000,0.0324,0.013523,0.002678,0.000431,0.012693
