Cycle,Area(mm^2),PeakDynamic(W),SubthresholdLeakage(W),GateLeakage(W),RunTimeDynamic(W)
73000000,0.0324,0.013523,0.002678,0.000431,0.004466
73001000,0.0324,0.013523,0.002678,0.000431,0.003996
73002000,0.0324,0.013523,0.002678,0.000431,0.006699
73003000,0.0324,0.013523,0.002678,0.000431,0.002821
73004000,0.0324,0.013523,0.002678,0.000431,0.001410
73005000,0.0324,0.013523,0.002678,0.000431,0.001645
73006000,0.0324,0.013523,0.002678,0.000431,0.001880
73007000,0.0324,0.013523,0.002678,0.000431,0.001175
73008000,0.0324,0.013523,0.002678,0.000431,0.001880
73009000,0.0324,0.013523,0.002678,0.000431,0.001410
73010000,0.0324,0.013523,0.002678,0.000431,0.001645
73011000,0.0324,0.013523,0.002678,0.000431,0.001410
73012000,0.0324,0.013523,0.002678,0.000431,0.001645
73013000,0.0324,0.013523,0.002678,0.000431,0.001410
73014000,0.0324,0.013523,0.002678,0.000431,0.001645
73015000,0.0324,0.013523,0.002678,0.000431,0.001645
73016000,0.0324,0.013523,0.002678,0.000431,0.001410
73017000,0.0324,0.013523,0.002678,0.000431,0.001880
73018000,0.0324,0.013523,0.002678,0.000431,0.001175
73019000,0.0324,0.013523,0.002678,0.000431,0.001880
73020000,0.0324,0.013523,0.002678,0.000431,0.001410
73021000,0.0324,0.013523,0.002678,0.000431,0.001645
73022000,0.0324,0.013523,0.002678,0.000431,0.001880
73023000,0.0324,0.013523,0.002678,0.000431,0.095315
73024000,0.0324,0.013523,0.002678,0.000431,0.869238
73025000,0.0324,0.013523,0.002678,0.000431,0.499377
73026000,0.0324,0.013523,0.002678,0.000431,0.146793
73027000,0.0324,0.013523,0.002678,0.000431,0.518299
73028000,0.0324,0.013523,0.002678,0.000431,0.303575
73029000,0.0324,0.013523,0.002678,0.000431,0.322380
73030000,0.0324,0.013523,0.002678,0.000431,0.168418
73031000,0.0324,0.013523,0.002678,0.000431,0.145382
73032000,0.0324,0.013523,0.002678,0.000431,0.242226
73033000,0.0324,0.013523,0.002678,0.000431,0.531580
73034000,0.0324,0.013523,0.002678,0.000431,0.195332
73035000,0.0324,0.013523,0.002678,0.000431,0.169476
73036000,0.0324,0.013523,0.002678,0.000431,0.139859
73037000,0.0324,0.013523,0.002678,0.000431,0.123287
73038000,0.0324,0.013523,0.002678,0.000431,0.089439
73039000,0.0324,0.013523,0.002678,0.000431,0.084620
73040000,0.0324,0.013523,0.002678,0.000431,0.057824
73041000,0.0324,0.013523,0.002678,0.000431,0.045601
73042000,0.0324,0.013523,0.002678,0.000431,0.047129
73043000,0.0324,0.013523,0.002678,0.000431,0.036786
73044000,0.0324,0.013523,0.002678,0.000431,0.027737
73045000,0.0324,0.013523,0.002678,0.000431,0.028207
73046000,0.0324,0.013523,0.002678,0.000431,0.016689
73047000,0.0324,0.013523,0.002678,0.000431,0.020685
73048000,0.0324,0.013523,0.002678,0.000431,0.017277
73049000,0.0324,0.013523,0.002678,0.000431,0.009637
73050000,0.0324,0.013523,0.002678,0.000431,0.015866
73051000,0.0324,0.013523,0.002678,0.000431,0.012458
73052000,0.0324,0.013523,0.002678,0.000431,0.007052
73053000,0.0324,0.013523,0.002678,0.000431,0.006699
73054000,0.0324,0.013523,0.002678,0.000431,0.004113
73055000,0.0324,0.013523,0.002678,0.000431,0.003761
73056000,0.0324,0.013523,0.002678,0.000431,0.003526
73057000,0.0324,0.013523,0.002678,0.000431,0.003643
73058000,0.0324,0.013523,0.002678,0.000431,0.007287
73059000,0.0324,0.013523,0.002678,0.000431,0.001880
73060000,0.0324,0.013523,0.002678,0.000431,0.002233
73061000,0.0324,0.013523,0.002678,0.000431,0.004701
73062000,0.0324,0.013523,0.002678,0.000431,0.000940
73063000,0.0324,0.013523,0.002678,0.000431,0.000705
73064000,0.0324,0.013523,0.002678,0.000431,0.000940
73065000,0.0324,0.013523,0.002678,0.000431,0.000940
73066000,0.0324,0.013523,0.002678,0.000431,0.000940
73067000,0.0324,0.013523,0.002678,0.000431,0.003291
73068000,0.0324,0.013523,0.002678,0.000431,0.609971
73069000,0.0324,0.013523,0.002678,0.000431,0.732906
73070000,0.0324,0.013523,0.002678,0.000431,0.145500
73071000,0.0324,0.013523,0.002678,0.000431,0.138213
73072000,0.0324,0.013523,0.002678,0.000431,0.510895
73073000,0.0324,0.013523,0.002678,0.000431,0.261853
73074000,0.0324,0.013523,0.002678,0.000431,0.334368
73075000,0.0324,0.013523,0.002678,0.000431,0.152199
73076000,0.0324,0.013523,0.002678,0.000431,0.149848
73077000,0.0324,0.013523,0.002678,0.000431,0.231766
73078000,0.0324,0.013523,0.002678,0.000431,0.552500
73079000,0.0324,0.013523,0.002678,0.000431,0.253391
73080000,0.0324,0.013523,0.002678,0.000431,0.234821
73081000,0.0324,0.013523,0.002678,0.000431,0.170533
73082000,0.0324,0.013523,0.002678,0.000431,0.158898
73083000,0.0324,0.013523,0.002678,0.000431,0.127165
73084000,0.0324,0.013523,0.002678,0.000431,0.074395
73085000,0.0324,0.013523,0.002678,0.000431,0.075218
73086000,0.0324,0.013523,0.002678,0.000431,0.053828
73087000,0.0324,0.013523,0.002678,0.000431,0.059234
73088000,0.0324,0.013523,0.002678,0.000431,0.040900
73089000,0.0324,0.013523,0.002678,0.000431,0.029970
73090000,0.0324,0.013523,0.002678,0.000431,0.024798
73091000,0.0324,0.013523,0.002678,0.000431,0.021508
73092000,0.0324,0.013523,0.002678,0.000431,0.015866
73093000,0.0324,0.013523,0.002678,0.000431,0.021743
73094000,0.0324,0.013523,0.002678,0.000431,0.008580
73095000,0.0324,0.013523,0.002678,0.000431,0.004466
73096000,0.0324,0.013523,0.002678,0.000431,0.003761
73097000,0.0324,0.013523,0.002678,0.000431,0.004349
73098000,0.0324,0.013523,0.002678,0.000431,0.003996
73099000,0.0324,0.013523,0.002678,0.000431,0.003408
73100000,0.0324,0.013523,0.002678,0.000431,0.006347
73101000,0.0324,0.013523,0.002678,0.000431,0.006347
73102000,0.0324,0.013523,0.002678,0.000431,0.003878
73103000,0.0324,0.013523,0.002678,0.000431,0.001058
73104000,0.0324,0.013523,0.002678,0.000431,0.000823
73105000,0.0324,0.013523,0.002678,0.000431,0.001175
73106000,0.0324,0.013523,0.002678,0.000431,0.017864
73107000,0.0324,0.013523,0.002678,0.000431,0.882284
73108000,0.0324,0.013523,0.002678,0.000431,0.533695
73109000,0.0324,0.013523,0.002678,0.000431,0.149026
73110000,0.0324,0.013523,0.002678,0.000431,0.304045
73111000,0.0324,0.013523,0.002678,0.000431,0.457185
73112000,0.0324,0.013523,0.002678,0.000431,0.320147
73113000,0.0324,0.013523,0.002678,0.000431,0.220365
73114000,0.0324,0.013523,0.002678,0.000431,0.156900
73115000,0.0324,0.013523,0.002678,0.000431,0.179466
73116000,0.0324,0.013523,0.002678,0.000431,0.566721
73117000,0.0324,0.013523,0.002678,0.000431,0.216722
73118000,0.0324,0.013523,0.002678,0.000431,0.188515
73119000,0.0324,0.013523,0.002678,0.000431,0.174412
73120000,0.0324,0.013523,0.002678,0.000431,0.145970
73121000,0.0324,0.013523,0.002678,0.000431,0.131279
73122000,0.0324,0.013523,0.002678,0.000431,0.118821
73123000,0.0324,0.013523,0.002678,0.000431,0.098489
73124000,0.0324,0.013523,0.002678,0.000431,0.069577
73125000,0.0324,0.013523,0.002678,0.000431,0.069812
73126000,0.0324,0.013523,0.002678,0.000431,0.042545
73127000,0.0324,0.013523,0.002678,0.000431,0.047129
73128000,0.0324,0.013523,0.002678,0.000431,0.037139
73129000,0.0324,0.013523,0.002678,0.000431,0.035141
73130000,0.0324,0.013523,0.002678,0.000431,0.020450
73131000,0.0324,0.013523,0.002678,0.000431,0.019862
73132000,0.0324,0.013523,0.002678,0.000431,0.023153
73133000,0.0324,0.013523,0.002678,0.000431,0.016689
73134000,0.0324,0.013523,0.002678,0.000431,0.019275
73135000,0.0324,0.013523,0.002678,0.000431,0.014456
73136000,0.0324,0.013523,0.002678,0.000431,0.018687
73137000,0.0324,0.013523,0.002678,0.000431,0.016101
73138000,0.0324,0.013523,0.002678,0.000431,0.013751
73139000,0.0324,0.013523,0.002678,0.000431,0.015396
73140000,0.0324,0.013523,0.002678,0.000431,0.011753
73141000,0.0324,0.013523,0.002678,0.000431,0.014103
73142000,0.0324,0.013523,0.002678,0.000431,0.008697
73143000,0.0324,0.013523,0.002678,0.000431,0.010225
73144000,0.0324,0.013523,0.002678,0.000431,0.007992
73145000,0.0324,0.013523,0.002678,0.000431,0.011283
73146000,0.0324,0.013523,0.002678,0.000431,0.004936
73147000,0.0324,0.013523,0.002678,0.000431,0.004113
73148000,0.0324,0.013523,0.002678,0.000431,0.003291
73149000,0.0324,0.013523,0.002678,0.000431,0.004349
73150000,0.0324,0.013523,0.002678,0.000431,0.002821
73151000,0.0324,0.013523,0.002678,0.000431,0.002821
73152000,0.0324,0.013523,0.002678,0.000431,0.002586
73153000,0.0324,0.013523,0.002678,0.000431,0.002703
73154000,0.0324,0.013523,0.002678,0.000431,0.002821
73155000,0.0324,0.013523,0.002678,0.000431,0.005054
73156000,0.0324,0.013523,0.002678,0.000431,0.020332
73157000,0.0324,0.013523,0.002678,0.000431,0.839856
73158000,0.0324,0.013523,0.002678,0.000431,0.544626
73159000,0.0324,0.013523,0.002678,0.000431,0.143149
73160000,0.0324,0.013523,0.002678,0.000431,0.193099
73161000,0.0324,0.013523,0.002678,0.000431,0.551560
73162000,0.0324,0.013523,0.002678,0.000431,0.272078
73163000,0.0324,0.013523,0.002678,0.000431,0.285829
73164000,0.0324,0.013523,0.002678,0.000431,0.150201
73165000,0.0324,0.013523,0.002678,0.000431,0.108714
73166000,0.0324,0.013523,0.002678,0.000431,0.469878
73167000,0.0324,0.013523,0.002678,0.000431,0.369038
73168000,0.0324,0.013523,0.002678,0.000431,0.227887
73169000,0.0324,0.013523,0.002678,0.000431,0.189220
73170000,0.0324,0.013523,0.002678,0.000431,0.155372
73171000,0.0324,0.013523,0.002678,0.000431,0.137978
73172000,0.0324,0.013523,0.002678,0.000431,0.105775
73173000,0.0324,0.013523,0.002678,0.000431,0.083798
73174000,0.0324,0.013523,0.002678,0.000431,0.066168
73175000,0.0324,0.013523,0.002678,0.000431,0.060880
73176000,0.0324,0.013523,0.002678,0.000431,0.045601
73177000,0.0324,0.013523,0.002678,0.000431,0.034671
73178000,0.0324,0.013523,0.002678,0.000431,0.031850
73179000,0.0324,0.013523,0.002678,0.000431,0.043133
73180000,0.0324,0.013523,0.002678,0.000431,0.025504
73181000,0.0324,0.013523,0.002678,0.000431,0.026796
73182000,0.0324,0.013523,0.002678,0.000431,0.019392
73183000,0.0324,0.013523,0.002678,0.000431,0.010695
73184000,0.0324,0.013523,0.002678,0.000431,0.011753
73185000,0.0324,0.013523,0.002678,0.000431,0.008227
73186000,0.0324,0.013523,0.002678,0.000431,0.009990
73187000,0.0324,0.013523,0.002678,0.000431,0.008109
73188000,0.0324,0.013523,0.002678,0.000431,0.009167
73189000,0.0324,0.013523,0.002678,0.000431,0.005994
73190000,0.0324,0.013523,0.002678,0.000431,0.005759
73191000,0.0324,0.013523,0.002678,0.000431,0.006347
73192000,0.0324,0.013523,0.002678,0.000431,0.005876
73193000,0.0324,0.013523,0.002678,0.000431,0.004701
73194000,0.0324,0.013523,0.002678,0.000431,0.007169
73195000,0.0324,0.013523,0.002678,0.000431,0.005876
73196000,0.0324,0.013523,0.002678,0.000431,0.001645
73197000,0.0324,0.013523,0.002678,0.000431,0.072397
73198000,0.0324,0.013523,0.002678,0.000431,0.842560
73199000,0.0324,0.013523,0.002678,0.000431,0.530640
73200000,0.0324,0.013523,0.002678,0.000431,0.141739
73201000,0.0324,0.013523,0.002678,0.000431,0.348118
73202000,0.0324,0.013523,0.002678,0.000431,0.412054
73203000,0.0324,0.013523,0.002678,0.000431,0.283713
73204000,0.0324,0.013523,0.002678,0.000431,0.208260
73205000,0.0324,0.013523,0.002678,0.000431,0.164539
73206000,0.0324,0.013523,0.002678,0.000431,0.103895
73207000,0.0324,0.013523,0.002678,0.000431,0.544508
73208000,0.0324,0.013523,0.002678,0.000431,0.308747
73209000,0.0324,0.013523,0.002678,0.000431,0.209788
73210000,0.0324,0.013523,0.002678,0.000431,0.197682
73211000,0.0324,0.013523,0.002678,0.000431,0.142797
73212000,0.0324,0.013523,0.002678,0.000431,0.136568
73213000,0.0324,0.013523,0.002678,0.000431,0.121994
73214000,0.0324,0.013523,0.002678,0.000431,0.075806
73215000,0.0324,0.013523,0.002678,0.000431,0.080507
73216000,0.0324,0.013523,0.002678,0.000431,0.054768
73217000,0.0324,0.013523,0.002678,0.000431,0.054063
73218000,0.0324,0.013523,0.002678,0.000431,0.041605
73219000,0.0324,0.013523,0.002678,0.000431,0.038784
73220000,0.0324,0.013523,0.002678,0.000431,0.041135
73221000,0.0324,0.013523,0.002678,0.000431,0.029500
73222000,0.0324,0.013523,0.002678,0.000431,0.024916
73223000,0.0324,0.013523,0.002678,0.000431,0.028794
73224000,0.0324,0.013523,0.002678,0.000431,0.022448
73225000,0.0324,0.013523,0.002678,0.000431,0.023153
73226000,0.0324,0.013523,0.002678,0.000431,0.015396
73227000,0.0324,0.013523,0.002678,0.000431,0.014809
73228000,0.0324,0.013523,0.002678,0.000431,0.012458
73229000,0.0324,0.013523,0.002678,0.000431,0.015749
73230000,0.0324,0.013523,0.002678,0.000431,0.009755
73231000,0.0324,0.013523,0.002678,0.000431,0.008697
73232000,0.0324,0.013523,0.002678,0.000431,0.009755
73233000,0.0324,0.013523,0.002678,0.000431,0.011048
73234000,0.0324,0.013523,0.002678,0.000431,0.004936
73235000,0.0324,0.013523,0.002678,0.000431,0.004819
73236000,0.0324,0.013523,0.002678,0.000431,0.003526
73237000,0.0324,0.013523,0.002678,0.000431,0.002233
73238000,0.0324,0.013523,0.002678,0.000431,0.001645
73239000,0.0324,0.013523,0.002678,0.000431,0.001763
73240000,0.0324,0.013523,0.002678,0.000431,0.001645
73241000,0.0324,0.013523,0.002678,0.000431,0.001645
73242000,0.0324,0.013523,0.002678,0.000431,0.001528
73243000,0.0324,0.013523,0.002678,0.000431,0.001763
73244000,0.0324,0.013523,0.002678,0.000431,0.001880
73245000,0.0324,0.013523,0.002678,0.000431,0.001410
73246000,0.0324,0.013523,0.002678,0.000431,0.001645
73247000,0.0324,0.013523,0.002678,0.000431,0.001410
73248000,0.0324,0.013523,0.002678,0.000431,0.001880
73249000,0.0324,0.013523,0.002678,0.000431,0.001763
73250000,0.0324,0.013523,0.002678,0.000431,0.001528
73251000,0.0324,0.013523,0.002678,0.000431,0.001645
73252000,0.0324,0.013523,0.002678,0.000431,0.001645
73253000,0.0324,0.013523,0.002678,0.000431,0.001645
73254000,0.0324,0.013523,0.002678,0.000431,0.001528
73255000,0.0324,0.013523,0.002678,0.000431,0.001763
73256000,0.0324,0.013523,0.002678,0.000431,0.001880
73257000,0.0324,0.013523,0.002678,0.000431,0.001645
73258000,0.0324,0.013523,0.002678,0.000431,0.004113
73259000,0.0324,0.013523,0.002678,0.000431,0.559434
73260000,0.0324,0.013523,0.002678,0.000431,0.782268
73261000,0.0324,0.013523,0.002678,0.000431,0.170768
73262000,0.0324,0.013523,0.002678,0.000431,0.140564
73263000,0.0324,0.013523,0.002678,0.000431,0.576476
73264000,0.0324,0.013523,0.002678,0.000431,0.246809
73265000,0.0324,0.013523,0.002678,0.000431,0.325788
73266000,0.0324,0.013523,0.002678,0.000431,0.163364
73267000,0.0324,0.013523,0.002678,0.000431,0.110594
73268000,0.0324,0.013523,0.002678,0.000431,0.497497
73269000,0.0324,0.013523,0.002678,0.000431,0.319207
73270000,0.0324,0.013523,0.002678,0.000431,0.225184
73271000,0.0324,0.013523,0.002678,0.000431,0.202854
73272000,0.0324,0.013523,0.002678,0.000431,0.168535
73273000,0.0324,0.013523,0.002678,0.000431,0.125755
73274000,0.0324,0.013523,0.002678,0.000431,0.107068
73275000,0.0324,0.013523,0.002678,0.000431,0.078156
73276000,0.0324,0.013523,0.002678,0.000431,0.069577
73277000,0.0324,0.013523,0.002678,0.000431,0.043956
73278000,0.0324,0.013523,0.002678,0.000431,0.039489
73279000,0.0324,0.013523,0.002678,0.000431,0.033260
73280000,0.0324,0.013523,0.002678,0.000431,0.022213
73281000,0.0324,0.013523,0.002678,0.000431,0.018334
73282000,0.0324,0.013523,0.002678,0.000431,0.017982
73283000,0.0324,0.013523,0.002678,0.000431,0.016689
73284000,0.0324,0.013523,0.002678,0.000431,0.014809
73285000,0.0324,0.013523,0.002678,0.000431,0.007287
73286000,0.0324,0.013523,0.002678,0.000431,0.008227
73287000,0.0324,0.013523,0.002678,0.000431,0.010225
73288000,0.0324,0.013523,0.002678,0.000431,0.006934
73289000,0.0324,0.013523,0.002678,0.000431,0.004231
73290000,0.0324,0.013523,0.002678,0.000431,0.001763
73291000,0.0324,0.013523,0.002678,0.000431,0.001645
73292000,0.0324,0.013523,0.002678,0.000431,0.001880
73293000,0.0324,0.013523,0.002678,0.000431,0.001763
73294000,0.0324,0.013523,0.002678,0.000431,0.004349
73295000,0.0324,0.013523,0.002678,0.000431,0.491033
73296000,0.0324,0.013523,0.002678,0.000431,0.771808
73297000,0.0324,0.013523,0.002678,0.000431,0.235879
73298000,0.0324,0.013523,0.002678,0.000431,0.137390
73299000,0.0324,0.013523,0.002678,0.000431,0.525704
73300000,0.0324,0.013523,0.002678,0.000431,0.282890
73301000,0.0324,0.013523,0.002678,0.000431,0.343065
73302000,0.0324,0.013523,0.002678,0.000431,0.162071
73303000,0.0324,0.013523,0.002678,0.000431,0.124815
73304000,0.0324,0.013523,0.002678,0.000431,0.277249
73305000,0.0324,0.013523,0.002678,0.000431,0.502080
73306000,0.0324,0.013523,0.002678,0.000431,0.200621
73307000,0.0324,0.013523,0.002678,0.000431,0.186047
73308000,0.0324,0.013523,0.002678,0.000431,0.147380
73309000,0.0324,0.013523,0.002678,0.000431,0.130456
73310000,0.0324,0.013523,0.002678,0.000431,0.103660
73311000,0.0324,0.013523,0.002678,0.000431,0.088851
73312000,0.0324,0.013523,0.002678,0.000431,0.092730
73313000,0.0324,0.013523,0.002678,0.000431,0.077216
73314000,0.0324,0.013523,0.002678,0.000431,0.053005
73315000,0.0324,0.013523,0.002678,0.000431,0.053240
73316000,0.0324,0.013523,0.002678,0.000431,0.033260
73317000,0.0324,0.013523,0.002678,0.000431,0.030440
73318000,0.0324,0.013523,0.002678,0.000431,0.029852
73319000,0.0324,0.013523,0.002678,0.000431,0.020097
73320000,0.0324,0.013523,0.002678,0.000431,0.014926
73321000,0.0324,0.013523,0.002678,0.000431,0.013633
73322000,0.0324,0.013523,0.002678,0.000431,0.014103
73323000,0.0324,0.013523,0.002678,0.000431,0.018805
73324000,0.0324,0.013523,0.002678,0.000431,0.011165
73325000,0.0324,0.013523,0.002678,0.000431,0.008697
73326000,0.0324,0.013523,0.002678,0.000431,0.009990
73327000,0.0324,0.013523,0.002678,0.000431,0.004936
73328000,0.0324,0.013523,0.002678,0.000431,0.005171
73329000,0.0324,0.013523,0.002678,0.000431,0.004936
73330000,0.0324,0.013523,0.002678,0.000431,0.003761
73331000,0.0324,0.013523,0.002678,0.000431,0.005289
73332000,0.0324,0.013523,0.002678,0.000431,0.001998
73333000,0.0324,0.013523,0.002678,0.000431,0.002233
73334000,0.0324,0.013523,0.002678,0.000431,0.001763
73335000,0.0324,0.013523,0.002678,0.000431,0.002233
73336000,0.0324,0.013523,0.002678,0.000431,0.001880
73337000,0.0324,0.013523,0.002678,0.000431,0.003996
73338000,0.0324,0.013523,0.002678,0.000431,0.001058
73339000,0.0324,0.013523,0.002678,0.000431,0.000823
73340000,0.0324,0.013523,0.002678,0.000431,0.000823
73341000,0.0324,0.013523,0.002678,0.000431,0.000823
73342000,0.0324,0.013523,0.002678,0.000431,0.000823
73343000,0.0324,0.013523,0.002678,0.000431,0.000705
73344000,0.0324,0.013523,0.002678,0.000431,0.000940
73345000,0.0324,0.013523,0.002678,0.000431,0.000823
73346000,0.0324,0.013523,0.002678,0.000431,0.000823
73347000,0.0324,0.013523,0.002678,0.000431,0.000705
73348000,0.0324,0.013523,0.002678,0.000431,0.000940
73349000,0.0324,0.013523,0.002678,0.000431,0.000940
73350000,0.0324,0.013523,0.002678,0.000431,0.000705
73351000,0.0324,0.013523,0.002678,0.000431,0.000940
73352000,0.0324,0.013523,0.002678,0.000431,0.000705
73353000,0.0324,0.013523,0.002678,0.000431,0.000940
73354000,0.0324,0.013523,0.002678,0.000431,0.000823
73355000,0.0324,0.013523,0.002678,0.000431,0.000823
73356000,0.0324,0.013523,0.002678,0.000431,0.000940
73357000,0.0324,0.013523,0.002678,0.000431,0.000705
73358000,0.0324,0.013523,0.002678,0.000431,0.000940
73359000,0.0324,0.013523,0.002678,0.000431,0.000823
73360000,0.0324,0.013523,0.002678,0.000431,0.000823
73361000,0.0324,0.013523,0.002678,0.000431,0.000823
73362000,0.0324,0.013523,0.002678,0.000431,0.000823
73363000,0.0324,0.013523,0.002678,0.000431,0.000823
73364000,0.0324,0.013523,0.002678,0.000431,0.000823
73365000,0.0324,0.013523,0.002678,0.000431,0.000940
73366000,0.0324,0.013523,0.002678,0.000431,0.000705
73367000,0.0324,0.013523,0.002678,0.000431,0.000940
73368000,0.0324,0.013523,0.002678,0.000431,0.000823
73369000,0.0324,0.013523,0.002678,0.000431,0.000823
73370000,0.0324,0.013523,0.002678,0.000431,0.000705
73371000,0.0324,0.013523,0.002678,0.000431,0.000940
73372000,0.0324,0.013523,0.002678,0.000431,0.000940
73373000,0.0324,0.013523,0.002678,0.000431,0.000705
73374000,0.0324,0.013523,0.002678,0.000431,0.000940
73375000,0.0324,0.013523,0.002678,0.000431,0.000705
73376000,0.0324,0.013523,0.002678,0.000431,0.000940
73377000,0.0324,0.013523,0.002678,0.000431,0.000823
73378000,0.0324,0.013523,0.002678,0.000431,0.000823
73379000,0.0324,0.013523,0.002678,0.000431,0.000940
73380000,0.0324,0.013523,0.002678,0.000431,0.123522
73381000,0.0324,0.013523,0.002678,0.000431,0.835273
73382000,0.0324,0.013523,0.002678,0.000431,0.485862
73383000,0.0324,0.013523,0.002678,0.000431,0.142797
73384000,0.0324,0.013523,0.002678,0.000431,0.518182
73385000,0.0324,0.013523,0.002678,0.000431,0.267847
73386000,0.0324,0.013523,0.002678,0.000431,0.337658
73387000,0.0324,0.013523,0.002678,0.000431,0.173001
73388000,0.0324,0.013523,0.002678,0.000431,0.147145
73389000,0.0324,0.013523,0.002678,0.000431,0.240580
73390000,0.0324,0.013523,0.002678,0.000431,0.520415
73391000,0.0324,0.013523,0.002678,0.000431,0.179466
73392000,0.0324,0.013523,0.002678,0.000431,0.160661
73393000,0.0324,0.013523,0.002678,0.000431,0.134100
73394000,0.0324,0.013523,0.002678,0.000431,0.120819
73395000,0.0324,0.013523,0.002678,0.000431,0.111299
73396000,0.0324,0.013523,0.002678,0.000431,0.099194
73397000,0.0324,0.013523,0.002678,0.000431,0.094728
73398000,0.0324,0.013523,0.002678,0.000431,0.069459
73399000,0.0324,0.013523,0.002678,0.000431,0.062172
73400000,0.0324,0.013523,0.002678,0.000431,0.061937
73401000,0.0324,0.013523,0.002678,0.000431,0.043368
73402000,0.0324,0.013523,0.002678,0.000431,0.049009
73403000,0.0324,0.013523,0.002678,0.000431,0.042898
73404000,0.0324,0.013523,0.002678,0.000431,0.036669
73405000,0.0324,0.013523,0.002678,0.000431,0.031968
73406000,0.0324,0.013523,0.002678,0.000431,0.031498
73407000,0.0324,0.013523,0.002678,0.000431,0.021625
73408000,0.0324,0.013523,0.002678,0.000431,0.022095
73409000,0.0324,0.013523,0.002678,0.000431,0.019040
73410000,0.0324,0.013523,0.002678,0.000431,0.024328
73411000,0.0324,0.013523,0.002678,0.000431,0.021743
73412000,0.0324,0.013523,0.002678,0.000431,0.015749
73413000,0.0324,0.013523,0.002678,0.000431,0.016689
73414000,0.0324,0.013523,0.002678,0.000431,0.009402
73415000,0.0324,0.013523,0.002678,0.000431,0.010460
73416000,0.0324,0.013523,0.002678,0.000431,0.012576
73417000,0.0324,0.013523,0.002678,0.000431,0.005406
73418000,0.0324,0.013523,0.002678,0.000431,0.002233
73419000,0.0324,0.013523,0.002678,0.000431,0.002468
73420000,0.0324,0.013523,0.002678,0.000431,0.365395
73421000,0.0324,0.013523,0.002678,0.000431,0.789202
73422000,0.0324,0.013523,0.002678,0.000431,0.307924
73423000,0.0324,0.013523,0.002678,0.000431,0.145852
73424000,0.0324,0.013523,0.002678,0.000431,0.583410
73425000,0.0324,0.013523,0.002678,0.000431,0.254096
73426000,0.0324,0.013523,0.002678,0.000431,0.324965
73427000,0.0324,0.013523,0.002678,0.000431,0.157488
73428000,0.0324,0.013523,0.002678,0.000431,0.122817
73429000,0.0324,0.013523,0.002678,0.000431,0.354818
73430000,0.0324,0.013523,0.002678,0.000431,0.470583
73431000,0.0324,0.013523,0.002678,0.000431,0.224244
73432000,0.0324,0.013523,0.002678,0.000431,0.194627
73433000,0.0324,0.013523,0.002678,0.000431,0.149613
73434000,0.0324,0.013523,0.002678,0.000431,0.129869
73435000,0.0324,0.013523,0.002678,0.000431,0.086383
73436000,0.0324,0.013523,0.002678,0.000431,0.087088
73437000,0.0324,0.013523,0.002678,0.000431,0.063113
73438000,0.0324,0.013523,0.002678,0.000431,0.058999
73439000,0.0324,0.013523,0.002678,0.000431,0.041723
73440000,0.0324,0.013523,0.002678,0.000431,0.032790
73441000,0.0324,0.013523,0.002678,0.000431,0.030910
73442000,0.0324,0.013523,0.002678,0.000431,0.025269
73443000,0.0324,0.013523,0.002678,0.000431,0.022800
73444000,0.0324,0.013523,0.002678,0.000431,0.020332
73445000,0.0324,0.013523,0.002678,0.000431,0.023271
73446000,0.0324,0.013523,0.002678,0.000431,0.012811
73447000,0.0324,0.013523,0.002678,0.000431,0.013868
73448000,0.0324,0.013523,0.002678,0.000431,0.013281
73449000,0.0324,0.013523,0.002678,0.000431,0.007874
73450000,0.0324,0.013523,0.002678,0.000431,0.003996
73451000,0.0324,0.013523,0.002678,0.000431,0.006699
73452000,0.0324,0.013523,0.002678,0.000431,0.005994
73453000,0.0324,0.013523,0.002678,0.000431,0.480573
73454000,0.0324,0.013523,0.002678,0.000431,0.802365
73455000,0.0324,0.013523,0.002678,0.000431,0.238582
73456000,0.0324,0.013523,0.002678,0.000431,0.139506
73457000,0.0324,0.013523,0.002678,0.000431,0.549444
73458000,0.0324,0.013523,0.002678,0.000431,0.255976
73459000,0.0324,0.013523,0.002678,0.000431,0.314976
73460000,0.0324,0.013523,0.002678,0.000431,0.165597
73461000,0.0324,0.013523,0.002678,0.000431,0.132572
73462000,0.0324,0.013523,0.002678,0.000431,0.269727
73463000,0.0324,0.013523,0.002678,0.000431,0.511600
73464000,0.0324,0.013523,0.002678,0.000431,0.199915
73465000,0.0324,0.013523,0.002678,0.000431,0.188163
73466000,0.0324,0.013523,0.002678,0.000431,0.147733
73467000,0.0324,0.013523,0.002678,0.000431,0.121172
73468000,0.0324,0.013523,0.002678,0.000431,0.114825
73469000,0.0324,0.013523,0.002678,0.000431,0.092142
73470000,0.0324,0.013523,0.002678,0.000431,0.063230
73471000,0.0324,0.013523,0.002678,0.000431,0.050302
73472000,0.0324,0.013523,0.002678,0.000431,0.043368
73473000,0.0324,0.013523,0.002678,0.000431,0.044896
73474000,0.0324,0.013523,0.002678,0.000431,0.023388
73475000,0.0324,0.013523,0.002678,0.000431,0.026326
73476000,0.0324,0.013523,0.002678,0.000431,0.018922
73477000,0.0324,0.013523,0.002678,0.000431,0.017394
73478000,0.0324,0.013523,0.002678,0.000431,0.017394
73479000,0.0324,0.013523,0.002678,0.000431,0.013046
73480000,0.0324,0.013523,0.002678,0.000431,0.008109
73481000,0.0324,0.013523,0.002678,0.000431,0.007522
73482000,0.0324,0.013523,0.002678,0.000431,0.003996
73483000,0.0324,0.013523,0.002678,0.000431,0.004466
73484000,0.0324,0.013523,0.002678,0.000431,0.001880
73485000,0.0324,0.013523,0.002678,0.000431,0.001645
73486000,0.0324,0.013523,0.002678,0.000431,0.001880
73487000,0.0324,0.013523,0.002678,0.000431,0.001645
73488000,0.0324,0.013523,0.002678,0.000431,0.003643
73489000,0.0324,0.013523,0.002678,0.000431,0.000823
73490000,0.0324,0.013523,0.002678,0.000431,0.000823
73491000,0.0324,0.013523,0.002678,0.000431,0.000940
73492000,0.0324,0.013523,0.002678,0.000431,0.000940
73493000,0.0324,0.013523,0.002678,0.000431,0.000823
73494000,0.0324,0.013523,0.002678,0.000431,0.000823
73495000,0.0324,0.013523,0.002678,0.000431,0.000940
73496000,0.0324,0.013523,0.002678,0.000431,0.000940
73497000,0.0324,0.013523,0.002678,0.000431,0.000823
73498000,0.0324,0.013523,0.002678,0.000431,0.000823
73499000,0.0324,0.013523,0.002678,0.000431,0.014809
73500000,0.0324,0.013523,0.002678,0.000431,0.783325
73501000,0.0324,0.013523,0.002678,0.000431,0.585173
73502000,0.0324,0.013523,0.002678,0.000431,0.137508
73503000,0.0324,0.013523,0.002678,0.000431,0.180406
73504000,0.0324,0.013523,0.002678,0.000431,0.597161
73505000,0.0324,0.013523,0.002678,0.000431,0.277249
73506000,0.0324,0.013523,0.002678,0.000431,0.231295
73507000,0.0324,0.013523,0.002678,0.000431,0.155842
73508000,0.0324,0.013523,0.002678,0.000431,0.123170
73509000,0.0324,0.013523,0.002678,0.000431,0.343300
73510000,0.0324,0.013523,0.002678,0.000431,0.471993
73511000,0.0324,0.013523,0.002678,0.000431,0.213549
73512000,0.0324,0.013523,0.002678,0.000431,0.181346
73513000,0.0324,0.013523,0.002678,0.000431,0.164304
73514000,0.0324,0.013523,0.002678,0.000431,0.123640
73515000,0.0324,0.013523,0.002678,0.000431,0.093670
73516000,0.0324,0.013523,0.002678,0.000431,0.076276
73517000,0.0324,0.013523,0.002678,0.000431,0.058412
73518000,0.0324,0.013523,0.002678,0.000431,0.055826
73519000,0.0324,0.013523,0.002678,0.000431,0.039960
73520000,0.0324,0.013523,0.002678,0.000431,0.025621
73521000,0.0324,0.013523,0.002678,0.000431,0.023271
73522000,0.0324,0.013523,0.002678,0.000431,0.022683
73523000,0.0324,0.013523,0.002678,0.000431,0.018099
73524000,0.0324,0.013523,0.002678,0.000431,0.012340
73525000,0.0324,0.013523,0.002678,0.000431,0.009285
73526000,0.0324,0.013523,0.002678,0.000431,0.009167
73527000,0.0324,0.013523,0.002678,0.000431,0.005641
73528000,0.0324,0.013523,0.002678,0.000431,0.005759
73529000,0.0324,0.013523,0.002678,0.000431,0.005994
73530000,0.0324,0.013523,0.002678,0.000431,0.005406
73531000,0.0324,0.013523,0.002678,0.000431,0.005054
73532000,0.0324,0.013523,0.002678,0.000431,0.002351
73533000,0.0324,0.013523,0.002678,0.000431,0.001880
73534000,0.0324,0.013523,0.002678,0.000431,0.004701
73535000,0.0324,0.013523,0.002678,0.000431,0.000940
73536000,0.0324,0.013523,0.002678,0.000431,0.000705
73537000,0.0324,0.013523,0.002678,0.000431,0.000940
73538000,0.0324,0.013523,0.002678,0.000431,0.000823
73539000,0.0324,0.013523,0.002678,0.000431,0.000823
73540000,0.0324,0.013523,0.002678,0.000431,0.000940
73541000,0.0324,0.013523,0.002678,0.000431,0.000705
73542000,0.0324,0.013523,0.002678,0.000431,0.000940
73543000,0.0324,0.013523,0.002678,0.000431,0.071810
73544000,0.0324,0.013523,0.002678,0.000431,0.827046
73545000,0.0324,0.013523,0.002678,0.000431,0.544038
73546000,0.0324,0.013523,0.002678,0.000431,0.140916
73547000,0.0324,0.013523,0.002678,0.000431,0.315798
73548000,0.0324,0.013523,0.002678,0.000431,0.381496
73549000,0.0324,0.013523,0.002678,0.000431,0.256094
73550000,0.0324,0.013523,0.002678,0.000431,0.260325
73551000,0.0324,0.013523,0.002678,0.000431,0.171944
73552000,0.0324,0.013523,0.002678,0.000431,0.110476
73553000,0.0324,0.013523,0.002678,0.000431,0.410643
73554000,0.0324,0.013523,0.002678,0.000431,0.384905
73555000,0.0324,0.013523,0.002678,0.000431,0.185342
73556000,0.0324,0.013523,0.002678,0.000431,0.163599
73557000,0.0324,0.013523,0.002678,0.000431,0.133512
73558000,0.0324,0.013523,0.002678,0.000431,0.113532
73559000,0.0324,0.013523,0.002678,0.000431,0.090967
73560000,0.0324,0.013523,0.002678,0.000431,0.084503
73561000,0.0324,0.013523,0.002678,0.000431,0.054416
73562000,0.0324,0.013523,0.002678,0.000431,0.056766
73563000,0.0324,0.013523,0.002678,0.000431,0.042780
73564000,0.0324,0.013523,0.002678,0.000431,0.047951
73565000,0.0324,0.013523,0.002678,0.000431,0.037844
73566000,0.0324,0.013523,0.002678,0.000431,0.032438
73567000,0.0324,0.013523,0.002678,0.000431,0.023506
73568000,0.0324,0.013523,0.002678,0.000431,0.024681
73569000,0.0324,0.013523,0.002678,0.000431,0.027502
73570000,0.0324,0.013523,0.002678,0.000431,0.020097
73571000,0.0324,0.013523,0.002678,0.000431,0.022448
73572000,0.0324,0.013523,0.002678,0.000431,0.018569
73573000,0.0324,0.013523,0.002678,0.000431,0.020332
73574000,0.0324,0.013523,0.002678,0.000431,0.020920
73575000,0.0324,0.013523,0.002678,0.000431,0.014573
73576000,0.0324,0.013523,0.002678,0.000431,0.014573
73577000,0.0324,0.013523,0.002678,0.000431,0.014103
73578000,0.0324,0.013523,0.002678,0.000431,0.015279
73579000,0.0324,0.013523,0.002678,0.000431,0.010342
73580000,0.0324,0.013523,0.002678,0.000431,0.009872
73581000,0.0324,0.013523,0.002678,0.000431,0.011988
73582000,0.0324,0.013523,0.002678,0.000431,0.006229
73583000,0.0324,0.013523,0.002678,0.000431,0.004349
73584000,0.0324,0.013523,0.002678,0.000431,0.002586
73585000,0.0324,0.013523,0.002678,0.000431,0.002821
73586000,0.0324,0.013523,0.002678,0.000431,0.002821
73587000,0.0324,0.013523,0.002678,0.000431,0.002233
73588000,0.0324,0.013523,0.002678,0.000431,0.003056
73589000,0.0324,0.013523,0.002678,0.000431,0.002586
73590000,0.0324,0.013523,0.002678,0.000431,0.002938
73591000,0.0324,0.013523,0.002678,0.000431,0.004231
73592000,0.0324,0.013523,0.002678,0.000431,0.005054
73593000,0.0324,0.013523,0.002678,0.000431,0.582587
73594000,0.0324,0.013523,0.002678,0.000431,0.741838
73595000,0.0324,0.013523,0.002678,0.000431,0.143737
73596000,0.0324,0.013523,0.002678,0.000431,0.140799
73597000,0.0324,0.013523,0.002678,0.000431,0.527702
73598000,0.0324,0.013523,0.002678,0.000431,0.274663
73599000,0.0324,0.013523,0.002678,0.000431,0.300285
73600000,0.0324,0.013523,0.002678,0.000431,0.161954
73601000,0.0324,0.013523,0.002678,0.000431,0.149496
73602000,0.0324,0.013523,0.002678,0.000431,0.239875
73603000,0.0324,0.013523,0.002678,0.000431,0.530522
73604000,0.0324,0.013523,0.002678,0.000431,0.201561
73605000,0.0324,0.013523,0.002678,0.000431,0.179701
73606000,0.0324,0.013523,0.002678,0.000431,0.144560
73607000,0.0324,0.013523,0.002678,0.000431,0.110829
73608000,0.0324,0.013523,0.002678,0.000431,0.102132
73609000,0.0324,0.013523,0.002678,0.000431,0.074983
73610000,0.0324,0.013523,0.002678,0.000431,0.058647
73611000,0.0324,0.013523,0.002678,0.000431,0.035141
73612000,0.0324,0.013523,0.002678,0.000431,0.018334
73613000,0.0324,0.013523,0.002678,0.000431,0.017747
73614000,0.0324,0.013523,0.002678,0.000431,0.016807
73615000,0.0324,0.013523,0.002678,0.000431,0.021860
73616000,0.0324,0.013523,0.002678,0.000431,0.005054
73617000,0.0324,0.013523,0.002678,0.000431,0.003526
73618000,0.0324,0.013523,0.002678,0.000431,0.005289
73619000,0.0324,0.013523,0.002678,0.000431,0.003056
73620000,0.0324,0.013523,0.002678,0.000431,0.005524
73621000,0.0324,0.013523,0.002678,0.000431,0.001998
73622000,0.0324,0.013523,0.002678,0.000431,0.001528
73623000,0.0324,0.013523,0.002678,0.000431,0.002233
73624000,0.0324,0.013523,0.002678,0.000431,0.001645
73625000,0.0324,0.013523,0.002678,0.000431,0.001880
73626000,0.0324,0.013523,0.002678,0.000431,0.001763
73627000,0.0324,0.013523,0.002678,0.000431,0.001528
73628000,0.0324,0.013523,0.002678,0.000431,0.001763
73629000,0.0324,0.013523,0.002678,0.000431,0.001998
73630000,0.0324,0.013523,0.002678,0.000431,0.004936
73631000,0.0324,0.013523,0.002678,0.000431,0.585408
73632000,0.0324,0.013523,0.002678,0.000431,0.774981
73633000,0.0324,0.013523,0.002678,0.000431,0.144912
73634000,0.0324,0.013523,0.002678,0.000431,0.141739
73635000,0.0324,0.013523,0.002678,0.000431,0.539572
73636000,0.0324,0.013523,0.002678,0.000431,0.263498
73637000,0.0324,0.013523,0.002678,0.000431,0.387490
73638000,0.0324,0.013523,0.002678,0.000431,0.154550
73639000,0.0324,0.013523,0.002678,0.000431,0.105070
73640000,0.0324,0.013523,0.002678,0.000431,0.398068
73641000,0.0324,0.013523,0.002678,0.000431,0.406530
73642000,0.0324,0.013523,0.002678,0.000431,0.150201
73643000,0.0324,0.013523,0.002678,0.000431,0.120349
73644000,0.0324,0.013523,0.002678,0.000431,0.092495
73645000,0.0324,0.013523,0.002678,0.000431,0.089556
73646000,0.0324,0.013523,0.002678,0.000431,0.069929
73647000,0.0324,0.013523,0.002678,0.000431,0.064405
73648000,0.0324,0.013523,0.002678,0.000431,0.044073
73649000,0.0324,0.013523,0.002678,0.000431,0.027737
73650000,0.0324,0.013523,0.002678,0.000431,0.015749
73651000,0.0324,0.013523,0.002678,0.000431,0.014338
73652000,0.0324,0.013523,0.002678,0.000431,0.011048
73653000,0.0324,0.013523,0.002678,0.000431,0.010695
73654000,0.0324,0.013523,0.002678,0.000431,0.017159
73655000,0.0324,0.013523,0.002678,0.000431,0.008697
73656000,0.0324,0.013523,0.002678,0.000431,0.008109
73657000,0.0324,0.013523,0.002678,0.000431,0.012576
73658000,0.0324,0.013523,0.002678,0.000431,0.008697
73659000,0.0324,0.013523,0.002678,0.000431,0.005524
73660000,0.0324,0.013523,0.002678,0.000431,0.003878
73661000,0.0324,0.013523,0.002678,0.000431,0.005994
73662000,0.0324,0.013523,0.002678,0.000431,0.002821
73663000,0.0324,0.013523,0.002678,0.000431,0.004819
73664000,0.0324,0.013523,0.002678,0.000431,0.004701
73665000,0.0324,0.013523,0.002678,0.000431,0.000940
73666000,0.0324,0.013523,0.002678,0.000431,0.000823
73667000,0.0324,0.013523,0.002678,0.000431,0.000823
73668000,0.0324,0.013523,0.002678,0.000431,0.000823
73669000,0.0324,0.013523,0.002678,0.000431,0.000823
73670000,0.0324,0.013523,0.002678,0.000431,0.000823
73671000,0.0324,0.013523,0.002678,0.000431,0.000940
73672000,0.0324,0.013523,0.002678,0.000431,0.000705
73673000,0.0324,0.013523,0.002678,0.000431,0.000823
73674000,0.0324,0.013523,0.002678,0.000431,0.000940
73675000,0.0324,0.013523,0.002678,0.000431,0.002468
73676000,0.0324,0.013523,0.002678,0.000431,0.573420
73677000,0.0324,0.013523,0.002678,0.000431,0.758644
73678000,0.0324,0.013523,0.002678,0.000431,0.145617
73679000,0.0324,0.013523,0.002678,0.000431,0.143619
73680000,0.0324,0.013523,0.002678,0.000431,0.554380
73681000,0.0324,0.013523,0.002678,0.000431,0.253038
73682000,0.0324,0.013523,0.002678,0.000431,0.291117
73683000,0.0324,0.013523,0.002678,0.000431,0.155372
73684000,0.0324,0.013523,0.002678,0.000431,0.120466
73685000,0.0324,0.013523,0.002678,0.000431,0.489035
73686000,0.0324,0.013523,0.002678,0.000431,0.388548
73687000,0.0324,0.013523,0.002678,0.000431,0.235174
73688000,0.0324,0.013523,0.002678,0.000431,0.208848
73689000,0.0324,0.013523,0.002678,0.000431,0.178055
73690000,0.0324,0.013523,0.002678,0.000431,0.143619
73691000,0.0324,0.013523,0.002678,0.000431,0.098606
73692000,0.0324,0.013523,0.002678,0.000431,0.100604
73693000,0.0324,0.013523,0.002678,0.000431,0.067109
73694000,0.0324,0.013523,0.002678,0.000431,0.049479
73695000,0.0324,0.013523,0.002678,0.000431,0.025269
73696000,0.0324,0.013523,0.002678,0.000431,0.016689
73697000,0.0324,0.013523,0.002678,0.000431,0.015866
73698000,0.0324,0.013523,0.002678,0.000431,0.012693
73699000,0.0324,0.013523,0.002678,0.000431,0.014338
73700000,0.0324,0.013523,0.002678,0.000431,0.015514
73701000,0.0324,0.013523,0.002678,0.000431,0.010460
73702000,0.0324,0.013523,0.002678,0.000431,0.010107
73703000,0.0324,0.013523,0.002678,0.000431,0.010930
73704000,0.0324,0.013523,0.002678,0.000431,0.016101
73705000,0.0324,0.013523,0.002678,0.000431,0.010930
73706000,0.0324,0.013523,0.002678,0.000431,0.006347
73707000,0.0324,0.013523,0.002678,0.000431,0.008580
73708000,0.0324,0.013523,0.002678,0.000431,0.010695
73709000,0.0324,0.013523,0.002678,0.000431,0.006582
73710000,0.0324,0.013523,0.002678,0.000431,0.002703
73711000,0.0324,0.013523,0.002678,0.000431,0.008580
73712000,0.0324,0.013523,0.002678,0.000431,0.002938
73713000,0.0324,0.013523,0.002678,0.000431,0.505136
73714000,0.0324,0.013523,0.002678,0.000431,0.886750
73715000,0.0324,0.013523,0.002678,0.000431,0.179348
73716000,0.0324,0.013523,0.002678,0.000431,0.140094
73717000,0.0324,0.013523,0.002678,0.000431,0.472111
73718000,0.0324,0.013523,0.002678,0.000431,0.267024
73719000,0.0324,0.013523,0.002678,0.000431,0.257034
73720000,0.0324,0.013523,0.002678,0.000431,0.167713
73721000,0.0324,0.013523,0.002678,0.000431,0.114237
73722000,0.0324,0.013523,0.002678,0.000431,0.547094
73723000,0.0324,0.013523,0.002678,0.000431,0.333780
73724000,0.0324,0.013523,0.002678,0.000431,0.216017
73725000,0.0324,0.013523,0.002678,0.000431,0.173119
73726000,0.0324,0.013523,0.002678,0.000431,0.141386
73727000,0.0324,0.013523,0.002678,0.000431,0.120701
73728000,0.0324,0.013523,0.002678,0.000431,0.101544
73729000,0.0324,0.013523,0.002678,0.000431,0.062290
73730000,0.0324,0.013523,0.002678,0.000431,0.061350
73731000,0.0324,0.013523,0.002678,0.000431,0.034671
73732000,0.0324,0.013523,0.002678,0.000431,0.032673
73733000,0.0324,0.013523,0.002678,0.000431,0.022918
73734000,0.0324,0.013523,0.002678,0.000431,0.011635
73735000,0.0324,0.013523,0.002678,0.000431,0.009167
73736000,0.0324,0.013523,0.002678,0.000431,0.002938
73737000,0.0324,0.013523,0.002678,0.000431,0.002586
73738000,0.0324,0.013523,0.002678,0.000431,0.002821
73739000,0.0324,0.013523,0.002678,0.000431,0.010695
73740000,0.0324,0.013523,0.002678,0.000431,0.735491
73741000,0.0324,0.013523,0.002678,0.000431,0.716099
73742000,0.0324,0.013523,0.002678,0.000431,0.142209
73743000,0.0324,0.013523,0.002678,0.000431,0.229180
73744000,0.0324,0.013523,0.002678,0.000431,0.535341
73745000,0.0324,0.013523,0.002678,0.000431,0.299109
73746000,0.0324,0.013523,0.002678,0.000431,0.241638
73747000,0.0324,0.013523,0.002678,0.000431,0.140446
73748000,0.0324,0.013523,0.002678,0.000431,0.229415
73749000,0.0324,0.013523,0.002678,0.000431,0.545213
73750000,0.0324,0.013523,0.002678,0.000431,0.216957
73751000,0.0324,0.013523,0.002678,0.000431,0.202619
73752000,0.0324,0.013523,0.002678,0.000431,0.156077
73753000,0.0324,0.013523,0.002678,0.000431,0.129163
73754000,0.0324,0.013523,0.002678,0.000431,0.098019
73755000,0.0324,0.013523,0.002678,0.000431,0.086383
73756000,0.0324,0.013523,0.002678,0.000431,0.053828
73757000,0.0324,0.013523,0.002678,0.000431,0.053710
73758000,0.0324,0.013523,0.002678,0.000431,0.049009
73759000,0.0324,0.013523,0.002678,0.000431,0.049479
73760000,0.0324,0.013523,0.002678,0.000431,0.033143
73761000,0.0324,0.013523,0.002678,0.000431,0.038432
73762000,0.0324,0.013523,0.002678,0.000431,0.030792
73763000,0.0324,0.013523,0.002678,0.000431,0.025034
73764000,0.0324,0.013523,0.002678,0.000431,0.022565
73765000,0.0324,0.013523,0.002678,0.000431,0.017864
73766000,0.0324,0.013523,0.002678,0.000431,0.018334
73767000,0.0324,0.013523,0.002678,0.000431,0.015866
73768000,0.0324,0.013523,0.002678,0.000431,0.013281
73769000,0.0324,0.013523,0.002678,0.000431,0.020685
73770000,0.0324,0.013523,0.002678,0.000431,0.012105
73771000,0.0324,0.013523,0.002678,0.000431,0.007874
73772000,0.0324,0.013523,0.002678,0.000431,0.011635
73773000,0.0324,0.013523,0.002678,0.000431,0.006699
73774000,0.0324,0.013523,0.002678,0.000431,0.009872
73775000,0.0324,0.013523,0.002678,0.000431,0.004349
73776000,0.0324,0.013523,0.002678,0.000431,0.009520
73777000,0.0324,0.013523,0.002678,0.000431,0.003878
73778000,0.0324,0.013523,0.002678,0.000431,0.003643
73779000,0.0324,0.013523,0.002678,0.000431,0.004819
73780000,0.0324,0.013523,0.002678,0.000431,0.004466
73781000,0.0324,0.013523,0.002678,0.000431,0.002351
73782000,0.0324,0.013523,0.002678,0.000431,0.003408
73783000,0.0324,0.013523,0.002678,0.000431,0.014456
73784000,0.0324,0.013523,0.002678,0.000431,0.859954
73785000,0.0324,0.013523,0.002678,0.000431,0.542745
73786000,0.0324,0.013523,0.002678,0.000431,0.137978
73787000,0.0324,0.013523,0.002678,0.000431,0.151024
73788000,0.0324,0.013523,0.002678,0.000431,0.506546
73789000,0.0324,0.013523,0.002678,0.000431,0.262205
73790000,0.0324,0.013523,0.002678,0.000431,0.270315
73791000,0.0324,0.013523,0.002678,0.000431,0.153374
73792000,0.0324,0.013523,0.002678,0.000431,0.137273
73793000,0.0324,0.013523,0.002678,0.000431,0.322850
73794000,0.0324,0.013523,0.002678,0.000431,0.488682
73795000,0.0324,0.013523,0.002678,0.000431,0.211316
73796000,0.0324,0.013523,0.002678,0.000431,0.173001
73797000,0.0324,0.013523,0.002678,0.000431,0.161249
73798000,0.0324,0.013523,0.002678,0.000431,0.133042
73799000,0.0324,0.013523,0.002678,0.000431,0.096256
73800000,0.0324,0.013523,0.002678,0.000431,0.089674
73801000,0.0324,0.013523,0.002678,0.000431,0.082270
73802000,0.0324,0.013523,0.002678,0.000431,0.060292
73803000,0.0324,0.013523,0.002678,0.000431,0.043250
73804000,0.0324,0.013523,0.002678,0.000431,0.035729
73805000,0.0324,0.013523,0.002678,0.000431,0.029500
73806000,0.0324,0.013523,0.002678,0.000431,0.037139
73807000,0.0324,0.013523,0.002678,0.000431,0.022800
73808000,0.0324,0.013523,0.002678,0.000431,0.017982
73809000,0.0324,0.013523,0.002678,0.000431,0.010342
73810000,0.0324,0.013523,0.002678,0.000431,0.016571
73811000,0.0324,0.013523,0.002678,0.000431,0.008815
73812000,0.0324,0.013523,0.002678,0.000431,0.008697
73813000,0.0324,0.013523,0.002678,0.000431,0.006111
73814000,0.0324,0.013523,0.002678,0.000431,0.003878
73815000,0.0324,0.013523,0.002678,0.000431,0.004466
73816000,0.0324,0.013523,0.002678,0.000431,0.004466
73817000,0.0324,0.013523,0.002678,0.000431,0.006817
73818000,0.0324,0.013523,0.002678,0.000431,0.003526
73819000,0.0324,0.013523,0.002678,0.000431,0.003291
73820000,0.0324,0.013523,0.002678,0.000431,0.003173
73821000,0.0324,0.013523,0.002678,0.000431,0.003526
73822000,0.0324,0.013523,0.002678,0.000431,0.004584
73823000,0.0324,0.013523,0.002678,0.000431,0.002351
73824000,0.0324,0.013523,0.002678,0.000431,0.002351
73825000,0.0324,0.013523,0.002678,0.000431,0.002233
73826000,0.0324,0.013523,0.002678,0.000431,0.002468
73827000,0.0324,0.013523,0.002678,0.000431,0.001998
73828000,0.0324,0.013523,0.002678,0.000431,0.002586
73829000,0.0324,0.013523,0.002678,0.000431,0.002233
73830000,0.0324,0.013523,0.002678,0.000431,0.005054
73831000,0.0324,0.013523,0.002678,0.000431,0.001880
73832000,0.0324,0.013523,0.002678,0.000431,0.001058
73833000,0.0324,0.013523,0.002678,0.000431,0.001763
73834000,0.0324,0.013523,0.002678,0.000431,0.001410
73835000,0.0324,0.013523,0.002678,0.000431,0.001410
73836000,0.0324,0.013523,0.002678,0.000431,0.001293
73837000,0.0324,0.013523,0.002678,0.000431,0.001880
73838000,0.0324,0.013523,0.002678,0.000431,0.001998
73839000,0.0324,0.013523,0.002678,0.000431,0.002703
73840000,0.0324,0.013523,0.002678,0.000431,0.001293
73841000,0.0324,0.013523,0.002678,0.000431,0.014103
73842000,0.0324,0.013523,0.002678,0.000431,0.867005
73843000,0.0324,0.013523,0.002678,0.000431,0.537926
73844000,0.0324,0.013523,0.002678,0.000431,0.137626
73845000,0.0324,0.013523,0.002678,0.000431,0.174529
73846000,0.0324,0.013523,0.002678,0.000431,0.495734
73847000,0.0324,0.013523,0.002678,0.000431,0.270197
73848000,0.0324,0.013523,0.002678,0.000431,0.242226
73849000,0.0324,0.013523,0.002678,0.000431,0.148203
73850000,0.0324,0.013523,0.002678,0.000431,0.138331
73851000,0.0324,0.013523,0.002678,0.000431,0.312742
73852000,0.0324,0.013523,0.002678,0.000431,0.517359
73853000,0.0324,0.013523,0.002678,0.000431,0.215429
73854000,0.0324,0.013523,0.002678,0.000431,0.199093
73855000,0.0324,0.013523,0.002678,0.000431,0.156783
73856000,0.0324,0.013523,0.002678,0.000431,0.105658
73857000,0.0324,0.013523,0.002678,0.000431,0.093317
73858000,0.0324,0.013523,0.002678,0.000431,0.076628
73859000,0.0324,0.013523,0.002678,0.000431,0.044543
73860000,0.0324,0.013523,0.002678,0.000431,0.039725
73861000,0.0324,0.013523,0.002678,0.000431,0.037609
73862000,0.0324,0.013523,0.002678,0.000431,0.027267
73863000,0.0324,0.013523,0.002678,0.000431,0.013986
73864000,0.0324,0.013523,0.002678,0.000431,0.012928
73865000,0.0324,0.013523,0.002678,0.000431,0.006817
73866000,0.0324,0.013523,0.002678,0.000431,0.007874
73867000,0.0324,0.013523,0.002678,0.000431,0.006582
73868000,0.0324,0.013523,0.002678,0.000431,0.009167
73869000,0.0324,0.013523,0.002678,0.000431,0.005524
73870000,0.0324,0.013523,0.002678,0.000431,0.344005
73871000,0.0324,0.013523,0.002678,0.000431,0.885927
73872000,0.0324,0.013523,0.002678,0.000431,0.279364
73873000,0.0324,0.013523,0.002678,0.000431,0.153022
73874000,0.0324,0.013523,0.002678,0.000431,0.551677
73875000,0.0324,0.013523,0.002678,0.000431,0.275016
73876000,0.0324,0.013523,0.002678,0.000431,0.298874
73877000,0.0324,0.013523,0.002678,0.000431,0.158781
73878000,0.0324,0.013523,0.002678,0.000431,0.110594
73879000,0.0324,0.013523,0.002678,0.000431,0.491268
73880000,0.0324,0.013523,0.002678,0.000431,0.385140
73881000,0.0324,0.013523,0.002678,0.000431,0.204852
73882000,0.0324,0.013523,0.002678,0.000431,0.162541
73883000,0.0324,0.013523,0.002678,0.000431,0.138918
73884000,0.0324,0.013523,0.002678,0.000431,0.123992
73885000,0.0324,0.013523,0.002678,0.000431,0.093670
73886000,0.0324,0.013523,0.002678,0.000431,0.079684
73887000,0.0324,0.013523,0.002678,0.000431,0.057824
73888000,0.0324,0.013523,0.002678,0.000431,0.044543
73889000,0.0324,0.013523,0.002678,0.000431,0.039372
73890000,0.0324,0.013523,0.002678,0.000431,0.025621
73891000,0.0324,0.013523,0.002678,0.000431,0.023506
73892000,0.0324,0.013523,0.002678,0.000431,0.010578
73893000,0.0324,0.013523,0.002678,0.000431,0.017159
73894000,0.0324,0.013523,0.002678,0.000431,0.008345
73895000,0.0324,0.013523,0.002678,0.000431,0.010460
73896000,0.0324,0.013523,0.002678,0.000431,0.008697
73897000,0.0324,0.013523,0.002678,0.000431,0.009872
73898000,0.0324,0.013523,0.002678,0.000431,0.008462
73899000,0.0324,0.013523,0.002678,0.000431,0.010342
73900000,0.0324,0.013523,0.002678,0.000431,0.008109
73901000,0.0324,0.013523,0.002678,0.000431,0.010342
73902000,0.0324,0.013523,0.002678,0.000431,0.006111
73903000,0.0324,0.013523,0.002678,0.000431,0.005406
73904000,0.0324,0.013523,0.002678,0.000431,0.004113
73905000,0.0324,0.013523,0.002678,0.000431,0.003056
73906000,0.0324,0.013523,0.002678,0.000431,0.006934
73907000,0.0324,0.013523,0.002678,0.000431,0.004936
73908000,0.0324,0.013523,0.002678,0.000431,0.493971
73909000,0.0324,0.013523,0.002678,0.000431,0.875467
73910000,0.0324,0.013523,0.002678,0.000431,0.182991
73911000,0.0324,0.013523,0.002678,0.000431,0.148556
73912000,0.0324,0.013523,0.002678,0.000431,0.539572
73913000,0.0324,0.013523,0.002678,0.000431,0.271960
73914000,0.0324,0.013523,0.002678,0.000431,0.302635
73915000,0.0324,0.013523,0.002678,0.000431,0.148203
73916000,0.0324,0.013523,0.002678,0.000431,0.128811
73917000,0.0324,0.013523,0.002678,0.000431,0.325318
73918000,0.0324,0.013523,0.002678,0.000431,0.479985
73919000,0.0324,0.013523,0.002678,0.000431,0.182286
73920000,0.0324,0.013523,0.002678,0.000431,0.165362
73921000,0.0324,0.013523,0.002678,0.000431,0.135275
73922000,0.0324,0.013523,0.002678,0.000431,0.113297
73923000,0.0324,0.013523,0.002678,0.000431,0.086501
73924000,0.0324,0.013523,0.002678,0.000431,0.066991
73925000,0.0324,0.013523,0.002678,0.000431,0.060997
73926000,0.0324,0.013523,0.002678,0.000431,0.048892
73927000,0.0324,0.013523,0.002678,0.000431,0.034906
73928000,0.0324,0.013523,0.002678,0.000431,0.027972
73929000,0.0324,0.013523,0.002678,0.000431,0.015866
73930000,0.0324,0.013523,0.002678,0.000431,0.017864
73931000,0.0324,0.013523,0.002678,0.000431,0.004701
73932000,0.0324,0.013523,0.002678,0.000431,0.005876
73933000,0.0324,0.013523,0.002678,0.000431,0.008580
73934000,0.0324,0.013523,0.002678,0.000431,0.000940
73935000,0.0324,0.013523,0.002678,0.000431,0.000940
73936000,0.0324,0.013523,0.002678,0.000431,0.002351
73937000,0.0324,0.013523,0.002678,0.000431,0.600216
73938000,0.0324,0.013523,0.002678,0.000431,0.750300
73939000,0.0324,0.013523,0.002678,0.000431,0.148908
73940000,0.0324,0.013523,0.002678,0.000431,0.141621
73941000,0.0324,0.013523,0.002678,0.000431,0.521590
73942000,0.0324,0.013523,0.002678,0.000431,0.264909
73943000,0.0324,0.013523,0.002678,0.000431,0.298992
73944000,0.0324,0.013523,0.002678,0.000431,0.155255
73945000,0.0324,0.013523,0.002678,0.000431,0.144677
73946000,0.0324,0.013523,0.002678,0.000431,0.234821
73947000,0.0324,0.013523,0.002678,0.000431,0.621254
73948000,0.0324,0.013523,0.002678,0.000431,0.249630
73949000,0.0324,0.013523,0.002678,0.000431,0.222716
73950000,0.0324,0.013523,0.002678,0.000431,0.180406
73951000,0.0324,0.013523,0.002678,0.000431,0.147498
73952000,0.0324,0.013523,0.002678,0.000431,0.106716
73953000,0.0324,0.013523,0.002678,0.000431,0.087911
73954000,0.0324,0.013523,0.002678,0.000431,0.064405
73955000,0.0324,0.013523,0.002678,0.000431,0.060057
73956000,0.0324,0.013523,0.002678,0.000431,0.034201
73957000,0.0324,0.013523,0.002678,0.000431,0.021860
73958000,0.0324,0.013523,0.002678,0.000431,0.017394
73959000,0.0324,0.013523,0.002678,0.000431,0.017159
73960000,0.0324,0.013523,0.002678,0.000431,0.019745
73961000,0.0324,0.013523,0.002678,0.000431,0.015161
73962000,0.0324,0.013523,0.002678,0.000431,0.012223
73963000,0.0324,0.013523,0.002678,0.000431,0.008932
73964000,0.0324,0.013523,0.002678,0.000431,0.006111
73965000,0.0324,0.013523,0.002678,0.000431,0.003761
73966000,0.0324,0.013523,0.002678,0.000431,0.003996
73967000,0.0324,0.013523,0.002678,0.000431,0.003761
73968000,0.0324,0.013523,0.002678,0.000431,0.003643
73969000,0.0324,0.013523,0.002678,0.000431,0.006934
73970000,0.0324,0.013523,0.002678,0.000431,0.006464
73971000,0.0324,0.013523,0.002678,0.000431,0.751945
73972000,0.0324,0.013523,0.002678,0.000431,0.722798
73973000,0.0324,0.013523,0.002678,0.000431,0.135863
73974000,0.0324,0.013523,0.002678,0.000431,0.147968
73975000,0.0324,0.013523,0.002678,0.000431,0.503843
73976000,0.0324,0.013523,0.002678,0.000431,0.272548
73977000,0.0324,0.013523,0.002678,0.000431,0.305221
73978000,0.0324,0.013523,0.002678,0.000431,0.158193
73979000,0.0324,0.013523,0.002678,0.000431,0.104012
73980000,0.0324,0.013523,0.002678,0.000431,0.552265
73981000,0.0324,0.013523,0.002678,0.000431,0.300872
73982000,0.0324,0.013523,0.002678,0.000431,0.204382
73983000,0.0324,0.013523,0.002678,0.000431,0.182639
73984000,0.0324,0.013523,0.002678,0.000431,0.159838
73985000,0.0324,0.013523,0.002678,0.000431,0.132219
73986000,0.0324,0.013523,0.002678,0.000431,0.105305
73987000,0.0324,0.013523,0.002678,0.000431,0.096256
73988000,0.0324,0.013523,0.002678,0.000431,0.069812
73989000,0.0324,0.013523,0.002678,0.000431,0.055591
73990000,0.0324,0.013523,0.002678,0.000431,0.049009
73991000,0.0324,0.013523,0.002678,0.000431,0.047951
73992000,0.0324,0.013523,0.002678,0.000431,0.028794
73993000,0.0324,0.013523,0.002678,0.000431,0.032203
73994000,0.0324,0.013523,0.002678,0.000431,0.025151
73995000,0.0324,0.013523,0.002678,0.000431,0.006934
73996000,0.0324,0.013523,0.002678,0.000431,0.013633
73997000,0.0324,0.013523,0.002678,0.000431,0.006817
73998000,0.0324,0.013523,0.002678,0.000431,0.007052
73999000,0.0324,0.013523,0.002678,0.000431,0.004584
