Cycle,Area(mm^2),PeakDynamic(W),SubthresholdLeakage(W),GateLeakage(W),RunTimeDynamic(W)
79000000,0.0324,0.013523,0.002678,0.000431,0.000823
79001000,0.0324,0.013523,0.002678,0.000431,0.000823
79002000,0.0324,0.013523,0.002678,0.000431,0.000823
79003000,0.0324,0.013523,0.002678,0.000431,0.000823
79004000,0.0324,0.013523,0.002678,0.000431,0.000940
79005000,0.0324,0.013523,0.002678,0.000431,0.109184
79006000,0.0324,0.013523,0.002678,0.000431,0.859954
79007000,0.0324,0.013523,0.002678,0.000431,0.498084
79008000,0.0324,0.013523,0.002678,0.000431,0.137743
79009000,0.0324,0.013523,0.002678,0.000431,0.453424
79010000,0.0324,0.013523,0.002678,0.000431,0.322262
79011000,0.0324,0.013523,0.002678,0.000431,0.269727
79012000,0.0324,0.013523,0.002678,0.000431,0.221776
79013000,0.0324,0.013523,0.002678,0.000431,0.184637
79014000,0.0324,0.013523,0.002678,0.000431,0.088851
79015000,0.0324,0.013523,0.002678,0.000431,0.557671
79016000,0.0324,0.013523,0.002678,0.000431,0.271373
79017000,0.0324,0.013523,0.002678,0.000431,0.208260
79018000,0.0324,0.013523,0.002678,0.000431,0.178878
79019000,0.0324,0.013523,0.002678,0.000431,0.150789
79020000,0.0324,0.013523,0.002678,0.000431,0.142327
79021000,0.0324,0.013523,0.002678,0.000431,0.099899
79022000,0.0324,0.013523,0.002678,0.000431,0.076981
79023000,0.0324,0.013523,0.002678,0.000431,0.070752
79024000,0.0324,0.013523,0.002678,0.000431,0.050420
79025000,0.0324,0.013523,0.002678,0.000431,0.031027
79026000,0.0324,0.013523,0.002678,0.000431,0.032085
79027000,0.0324,0.013523,0.002678,0.000431,0.022800
79028000,0.0324,0.013523,0.002678,0.000431,0.023036
79029000,0.0324,0.013523,0.002678,0.000431,0.008227
79030000,0.0324,0.013523,0.002678,0.000431,0.009050
79031000,0.0324,0.013523,0.002678,0.000431,0.006934
79032000,0.0324,0.013523,0.002678,0.000431,0.001645
79033000,0.0324,0.013523,0.002678,0.000431,0.001763
79034000,0.0324,0.013523,0.002678,0.000431,0.001880
79035000,0.0324,0.013523,0.002678,0.000431,0.198505
79036000,0.0324,0.013523,0.002678,0.000431,0.771690
79037000,0.0324,0.013523,0.002678,0.000431,0.503138
79038000,0.0324,0.013523,0.002678,0.000431,0.136333
79039000,0.0324,0.013523,0.002678,0.000431,0.418753
79040000,0.0324,0.013523,0.002678,0.000431,0.300049
79041000,0.0324,0.013523,0.002678,0.000431,0.283243
79042000,0.0324,0.013523,0.002678,0.000431,0.267377
79043000,0.0324,0.013523,0.002678,0.000431,0.149966
79044000,0.0324,0.013523,0.002678,0.000431,0.116353
79045000,0.0324,0.013523,0.002678,0.000431,0.460828
79046000,0.0324,0.013523,0.002678,0.000431,0.335778
79047000,0.0324,0.013523,0.002678,0.000431,0.163129
79048000,0.0324,0.013523,0.002678,0.000431,0.130339
79049000,0.0324,0.013523,0.002678,0.000431,0.100604
79050000,0.0324,0.013523,0.002678,0.000431,0.086383
79051000,0.0324,0.013523,0.002678,0.000431,0.083327
79052000,0.0324,0.013523,0.002678,0.000431,0.052770
79053000,0.0324,0.013523,0.002678,0.000431,0.054768
79054000,0.0324,0.013523,0.002678,0.000431,0.040900
79055000,0.0324,0.013523,0.002678,0.000431,0.032438
79056000,0.0324,0.013523,0.002678,0.000431,0.035141
79057000,0.0324,0.013523,0.002678,0.000431,0.024798
79058000,0.0324,0.013523,0.002678,0.000431,0.016336
79059000,0.0324,0.013523,0.002678,0.000431,0.028677
79060000,0.0324,0.013523,0.002678,0.000431,0.006582
79061000,0.0324,0.013523,0.002678,0.000431,0.009285
79062000,0.0324,0.013523,0.002678,0.000431,0.013868
79063000,0.0324,0.013523,0.002678,0.000431,0.071575
79064000,0.0324,0.013523,0.002678,0.000431,0.806596
79065000,0.0324,0.013523,0.002678,0.000431,0.535693
79066000,0.0324,0.013523,0.002678,0.000431,0.137273
79067000,0.0324,0.013523,0.002678,0.000431,0.236467
79068000,0.0324,0.013523,0.002678,0.000431,0.435677
79069000,0.0324,0.013523,0.002678,0.000431,0.228592
79070000,0.0324,0.013523,0.002678,0.000431,0.290177
79071000,0.0324,0.013523,0.002678,0.000431,0.156430
79072000,0.0324,0.013523,0.002678,0.000431,0.163482
79073000,0.0324,0.013523,0.002678,0.000431,0.180641
79074000,0.0324,0.013523,0.002678,0.000431,0.584468
79075000,0.0324,0.013523,0.002678,0.000431,0.229768
79076000,0.0324,0.013523,0.002678,0.000431,0.195567
79077000,0.0324,0.013523,0.002678,0.000431,0.158898
79078000,0.0324,0.013523,0.002678,0.000431,0.129986
79079000,0.0324,0.013523,0.002678,0.000431,0.117411
79080000,0.0324,0.013523,0.002678,0.000431,0.105070
79081000,0.0324,0.013523,0.002678,0.000431,0.066991
79082000,0.0324,0.013523,0.002678,0.000431,0.055003
79083000,0.0324,0.013523,0.002678,0.000431,0.042898
79084000,0.0324,0.013523,0.002678,0.000431,0.037609
79085000,0.0324,0.013523,0.002678,0.000431,0.025151
79086000,0.0324,0.013523,0.002678,0.000431,0.025386
79087000,0.0324,0.013523,0.002678,0.000431,0.024563
79088000,0.0324,0.013523,0.002678,0.000431,0.020097
79089000,0.0324,0.013523,0.002678,0.000431,0.011988
79090000,0.0324,0.013523,0.002678,0.000431,0.010813
79091000,0.0324,0.013523,0.002678,0.000431,0.019392
79092000,0.0324,0.013523,0.002678,0.000431,0.010695
79093000,0.0324,0.013523,0.002678,0.000431,0.006817
79094000,0.0324,0.013523,0.002678,0.000431,0.007757
79095000,0.0324,0.013523,0.002678,0.000431,0.007639
79096000,0.0324,0.013523,0.002678,0.000431,0.009990
79097000,0.0324,0.013523,0.002678,0.000431,0.005759
79098000,0.0324,0.013523,0.002678,0.000431,0.002938
79099000,0.0324,0.013523,0.002678,0.000431,0.005641
79100000,0.0324,0.013523,0.002678,0.000431,0.001998
79101000,0.0324,0.013523,0.002678,0.000431,0.006817
79102000,0.0324,0.013523,0.002678,0.000431,0.000823
79103000,0.0324,0.013523,0.002678,0.000431,0.000940
79104000,0.0324,0.013523,0.002678,0.000431,0.000940
79105000,0.0324,0.013523,0.002678,0.000431,0.000705
79106000,0.0324,0.013523,0.002678,0.000431,0.000940
79107000,0.0324,0.013523,0.002678,0.000431,0.000705
79108000,0.0324,0.013523,0.002678,0.000431,0.000940
79109000,0.0324,0.013523,0.002678,0.000431,0.000823
79110000,0.0324,0.013523,0.002678,0.000431,0.000823
79111000,0.0324,0.013523,0.002678,0.000431,0.000823
79112000,0.0324,0.013523,0.002678,0.000431,0.000823
79113000,0.0324,0.013523,0.002678,0.000431,0.000823
79114000,0.0324,0.013523,0.002678,0.000431,0.000823
79115000,0.0324,0.013523,0.002678,0.000431,0.000940
79116000,0.0324,0.013523,0.002678,0.000431,0.000940
79117000,0.0324,0.013523,0.002678,0.000431,0.062290
79118000,0.0324,0.013523,0.002678,0.000431,0.850787
79119000,0.0324,0.013523,0.002678,0.000431,0.539102
79120000,0.0324,0.013523,0.002678,0.000431,0.145617
79121000,0.0324,0.013523,0.002678,0.000431,0.236937
79122000,0.0324,0.013523,0.002678,0.000431,0.479985
79123000,0.0324,0.013523,0.002678,0.000431,0.331547
79124000,0.0324,0.013523,0.002678,0.000431,0.245869
79125000,0.0324,0.013523,0.002678,0.000431,0.184167
79126000,0.0324,0.013523,0.002678,0.000431,0.088969
79127000,0.0324,0.013523,0.002678,0.000431,0.611852
79128000,0.0324,0.013523,0.002678,0.000431,0.238465
79129000,0.0324,0.013523,0.002678,0.000431,0.176292
79130000,0.0324,0.013523,0.002678,0.000431,0.150671
79131000,0.0324,0.013523,0.002678,0.000431,0.127753
79132000,0.0324,0.013523,0.002678,0.000431,0.102367
79133000,0.0324,0.013523,0.002678,0.000431,0.083798
79134000,0.0324,0.013523,0.002678,0.000431,0.082857
79135000,0.0324,0.013523,0.002678,0.000431,0.067461
79136000,0.0324,0.013523,0.002678,0.000431,0.056061
79137000,0.0324,0.013523,0.002678,0.000431,0.046541
79138000,0.0324,0.013523,0.002678,0.000431,0.036786
79139000,0.0324,0.013523,0.002678,0.000431,0.031615
79140000,0.0324,0.013523,0.002678,0.000431,0.024093
79141000,0.0324,0.013523,0.002678,0.000431,0.023036
79142000,0.0324,0.013523,0.002678,0.000431,0.022213
79143000,0.0324,0.013523,0.002678,0.000431,0.019980
79144000,0.0324,0.013523,0.002678,0.000431,0.018334
79145000,0.0324,0.013523,0.002678,0.000431,0.021155
79146000,0.0324,0.013523,0.002678,0.000431,0.016101
79147000,0.0324,0.013523,0.002678,0.000431,0.011283
79148000,0.0324,0.013523,0.002678,0.000431,0.017747
79149000,0.0324,0.013523,0.002678,0.000431,0.014456
79150000,0.0324,0.013523,0.002678,0.000431,0.010813
79151000,0.0324,0.013523,0.002678,0.000431,0.017042
79152000,0.0324,0.013523,0.002678,0.000431,0.007404
79153000,0.0324,0.013523,0.002678,0.000431,0.009990
79154000,0.0324,0.013523,0.002678,0.000431,0.008462
79155000,0.0324,0.013523,0.002678,0.000431,0.008345
79156000,0.0324,0.013523,0.002678,0.000431,0.009520
79157000,0.0324,0.013523,0.002678,0.000431,0.006464
79158000,0.0324,0.013523,0.002678,0.000431,0.008462
79159000,0.0324,0.013523,0.002678,0.000431,0.006934
79160000,0.0324,0.013523,0.002678,0.000431,0.006347
79161000,0.0324,0.013523,0.002678,0.000431,0.008109
79162000,0.0324,0.013523,0.002678,0.000431,0.009285
79163000,0.0324,0.013523,0.002678,0.000431,0.008345
79164000,0.0324,0.013523,0.002678,0.000431,0.005289
79165000,0.0324,0.013523,0.002678,0.000431,0.005054
79166000,0.0324,0.013523,0.002678,0.000431,0.005876
79167000,0.0324,0.013523,0.002678,0.000431,0.005054
79168000,0.0324,0.013523,0.002678,0.000431,0.005641
79169000,0.0324,0.013523,0.002678,0.000431,0.005054
79170000,0.0324,0.013523,0.002678,0.000431,0.005876
79171000,0.0324,0.013523,0.002678,0.000431,0.005406
79172000,0.0324,0.013523,0.002678,0.000431,0.005054
79173000,0.0324,0.013523,0.002678,0.000431,0.005759
79174000,0.0324,0.013523,0.002678,0.000431,0.005406
79175000,0.0324,0.013523,0.002678,0.000431,0.010578
79176000,0.0324,0.013523,0.002678,0.000431,0.003526
79177000,0.0324,0.013523,0.002678,0.000431,0.015044
79178000,0.0324,0.013523,0.002678,0.000431,0.834568
79179000,0.0324,0.013523,0.002678,0.000431,0.576123
79180000,0.0324,0.013523,0.002678,0.000431,0.150083
79181000,0.0324,0.013523,0.002678,0.000431,0.146558
79182000,0.0324,0.013523,0.002678,0.000431,0.545096
79183000,0.0324,0.013523,0.002678,0.000431,0.239640
79184000,0.0324,0.013523,0.002678,0.000431,0.331900
79185000,0.0324,0.013523,0.002678,0.000431,0.151964
79186000,0.0324,0.013523,0.002678,0.000431,0.148203
79187000,0.0324,0.013523,0.002678,0.000431,0.246927
79188000,0.0324,0.013523,0.002678,0.000431,0.620196
79189000,0.0324,0.013523,0.002678,0.000431,0.236467
79190000,0.0324,0.013523,0.002678,0.000431,0.214959
79191000,0.0324,0.013523,0.002678,0.000431,0.173119
79192000,0.0324,0.013523,0.002678,0.000431,0.132689
79193000,0.0324,0.013523,0.002678,0.000431,0.123287
79194000,0.0324,0.013523,0.002678,0.000431,0.109771
79195000,0.0324,0.013523,0.002678,0.000431,0.067344
79196000,0.0324,0.013523,0.002678,0.000431,0.051007
79197000,0.0324,0.013523,0.002678,0.000431,0.035494
79198000,0.0324,0.013523,0.002678,0.000431,0.032320
79199000,0.0324,0.013523,0.002678,0.000431,0.024563
79200000,0.0324,0.013523,0.002678,0.000431,0.018452
79201000,0.0324,0.013523,0.002678,0.000431,0.019980
79202000,0.0324,0.013523,0.002678,0.000431,0.022683
79203000,0.0324,0.013523,0.002678,0.000431,0.013986
79204000,0.0324,0.013523,0.002678,0.000431,0.012811
79205000,0.0324,0.013523,0.002678,0.000431,0.014573
79206000,0.0324,0.013523,0.002678,0.000431,0.016571
79207000,0.0324,0.013523,0.002678,0.000431,0.004584
79208000,0.0324,0.013523,0.002678,0.000431,0.011165
79209000,0.0324,0.013523,0.002678,0.000431,0.002586
79210000,0.0324,0.013523,0.002678,0.000431,0.001763
79211000,0.0324,0.013523,0.002678,0.000431,0.001528
79212000,0.0324,0.013523,0.002678,0.000431,0.001528
79213000,0.0324,0.013523,0.002678,0.000431,0.001645
79214000,0.0324,0.013523,0.002678,0.000431,0.001763
79215000,0.0324,0.013523,0.002678,0.000431,0.005876
79216000,0.0324,0.013523,0.002678,0.000431,0.605505
79217000,0.0324,0.013523,0.002678,0.000431,0.778977
79218000,0.0324,0.013523,0.002678,0.000431,0.235879
79219000,0.0324,0.013523,0.002678,0.000431,0.146205
79220000,0.0324,0.013523,0.002678,0.000431,0.540747
79221000,0.0324,0.013523,0.002678,0.000431,0.241050
79222000,0.0324,0.013523,0.002678,0.000431,0.343182
79223000,0.0324,0.013523,0.002678,0.000431,0.160896
79224000,0.0324,0.013523,0.002678,0.000431,0.141269
79225000,0.0324,0.013523,0.002678,0.000431,0.252451
79226000,0.0324,0.013523,0.002678,0.000431,0.578944
79227000,0.0324,0.013523,0.002678,0.000431,0.218837
79228000,0.0324,0.013523,0.002678,0.000431,0.190866
79229000,0.0324,0.013523,0.002678,0.000431,0.161719
79230000,0.0324,0.013523,0.002678,0.000431,0.136098
79231000,0.0324,0.013523,0.002678,0.000431,0.109654
79232000,0.0324,0.013523,0.002678,0.000431,0.094375
79233000,0.0324,0.013523,0.002678,0.000431,0.077334
79234000,0.0324,0.013523,0.002678,0.000431,0.071340
79235000,0.0324,0.013523,0.002678,0.000431,0.055473
79236000,0.0324,0.013523,0.002678,0.000431,0.044073
79237000,0.0324,0.013523,0.002678,0.000431,0.036199
79238000,0.0324,0.013523,0.002678,0.000431,0.038079
79239000,0.0324,0.013523,0.002678,0.000431,0.030910
79240000,0.0324,0.013523,0.002678,0.000431,0.028559
79241000,0.0324,0.013523,0.002678,0.000431,0.016807
79242000,0.0324,0.013523,0.002678,0.000431,0.016689
79243000,0.0324,0.013523,0.002678,0.000431,0.016336
79244000,0.0324,0.013523,0.002678,0.000431,0.010578
79245000,0.0324,0.013523,0.002678,0.000431,0.008462
79246000,0.0324,0.013523,0.002678,0.000431,0.011048
79247000,0.0324,0.013523,0.002678,0.000431,0.006817
79248000,0.0324,0.013523,0.002678,0.000431,0.014926
79249000,0.0324,0.013523,0.002678,0.000431,0.006699
79250000,0.0324,0.013523,0.002678,0.000431,0.003408
79251000,0.0324,0.013523,0.002678,0.000431,0.005289
79252000,0.0324,0.013523,0.002678,0.000431,0.010930
79253000,0.0324,0.013523,0.002678,0.000431,0.676140
79254000,0.0324,0.013523,0.002678,0.000431,0.726089
79255000,0.0324,0.013523,0.002678,0.000431,0.191571
79256000,0.0324,0.013523,0.002678,0.000431,0.141857
79257000,0.0324,0.013523,0.002678,0.000431,0.545448
79258000,0.0324,0.013523,0.002678,0.000431,0.238230
79259000,0.0324,0.013523,0.002678,0.000431,0.357286
79260000,0.0324,0.013523,0.002678,0.000431,0.155607
79261000,0.0324,0.013523,0.002678,0.000431,0.166537
79262000,0.0324,0.013523,0.002678,0.000431,0.170651
79263000,0.0324,0.013523,0.002678,0.000431,0.579179
79264000,0.0324,0.013523,0.002678,0.000431,0.234234
79265000,0.0324,0.013523,0.002678,0.000431,0.198740
79266000,0.0324,0.013523,0.002678,0.000431,0.174647
79267000,0.0324,0.013523,0.002678,0.000431,0.155960
79268000,0.0324,0.013523,0.002678,0.000431,0.107421
79269000,0.0324,0.013523,0.002678,0.000431,0.109889
79270000,0.0324,0.013523,0.002678,0.000431,0.091437
79271000,0.0324,0.013523,0.002678,0.000431,0.068636
79272000,0.0324,0.013523,0.002678,0.000431,0.047599
79273000,0.0324,0.013523,0.002678,0.000431,0.040430
79274000,0.0324,0.013523,0.002678,0.000431,0.026209
79275000,0.0324,0.013523,0.002678,0.000431,0.015044
79276000,0.0324,0.013523,0.002678,0.000431,0.007874
79277000,0.0324,0.013523,0.002678,0.000431,0.010342
79278000,0.0324,0.013523,0.002678,0.000431,0.006582
79279000,0.0324,0.013523,0.002678,0.000431,0.009520
79280000,0.0324,0.013523,0.002678,0.000431,0.009167
79281000,0.0324,0.013523,0.002678,0.000431,0.003761
79282000,0.0324,0.013523,0.002678,0.000431,0.074043
79283000,0.0324,0.013523,0.002678,0.000431,0.833157
79284000,0.0324,0.013523,0.002678,0.000431,0.552147
79285000,0.0324,0.013523,0.002678,0.000431,0.137743
79286000,0.0324,0.013523,0.002678,0.000431,0.292998
79287000,0.0324,0.013523,0.002678,0.000431,0.414522
79288000,0.0324,0.013523,0.002678,0.000431,0.275486
79289000,0.0324,0.013523,0.002678,0.000431,0.273606
79290000,0.0324,0.013523,0.002678,0.000431,0.171591
79291000,0.0324,0.013523,0.002678,0.000431,0.120466
79292000,0.0324,0.013523,0.002678,0.000431,0.505254
79293000,0.0324,0.013523,0.002678,0.000431,0.321675
79294000,0.0324,0.013523,0.002678,0.000431,0.176410
79295000,0.0324,0.013523,0.002678,0.000431,0.157018
79296000,0.0324,0.013523,0.002678,0.000431,0.142327
79297000,0.0324,0.013523,0.002678,0.000431,0.116823
79298000,0.0324,0.013523,0.002678,0.000431,0.099664
79299000,0.0324,0.013523,0.002678,0.000431,0.071927
79300000,0.0324,0.013523,0.002678,0.000431,0.052888
79301000,0.0324,0.013523,0.002678,0.000431,0.039137
79302000,0.0324,0.013523,0.002678,0.000431,0.051830
79303000,0.0324,0.013523,0.002678,0.000431,0.032790
79304000,0.0324,0.013523,0.002678,0.000431,0.019157
79305000,0.0324,0.013523,0.002678,0.000431,0.019980
79306000,0.0324,0.013523,0.002678,0.000431,0.007404
79307000,0.0324,0.013523,0.002678,0.000431,0.008109
79308000,0.0324,0.013523,0.002678,0.000431,0.008932
79309000,0.0324,0.013523,0.002678,0.000431,0.005759
79310000,0.0324,0.013523,0.002678,0.000431,0.007052
79311000,0.0324,0.013523,0.002678,0.000431,0.008815
79312000,0.0324,0.013523,0.002678,0.000431,0.008815
79313000,0.0324,0.013523,0.002678,0.000431,0.004349
79314000,0.0324,0.013523,0.002678,0.000431,0.004349
79315000,0.0324,0.013523,0.002678,0.000431,0.003996
79316000,0.0324,0.013523,0.002678,0.000431,0.005289
79317000,0.0324,0.013523,0.002678,0.000431,0.004231
79318000,0.0324,0.013523,0.002678,0.000431,0.006464
79319000,0.0324,0.013523,0.002678,0.000431,0.004701
79320000,0.0324,0.013523,0.002678,0.000431,0.006582
79321000,0.0324,0.013523,0.002678,0.000431,0.000940
79322000,0.0324,0.013523,0.002678,0.000431,0.002351
79323000,0.0324,0.013523,0.002678,0.000431,0.368216
79324000,0.0324,0.013523,0.002678,0.000431,0.835038
79325000,0.0324,0.013523,0.002678,0.000431,0.292293
79326000,0.0324,0.013523,0.002678,0.000431,0.140681
79327000,0.0324,0.013523,0.002678,0.000431,0.562020
79328000,0.0324,0.013523,0.002678,0.000431,0.248337
79329000,0.0324,0.013523,0.002678,0.000431,0.307806
79330000,0.0324,0.013523,0.002678,0.000431,0.144795
79331000,0.0324,0.013523,0.002678,0.000431,0.178878
79332000,0.0324,0.013523,0.002678,0.000431,0.153139
79333000,0.0324,0.013523,0.002678,0.000431,0.549914
79334000,0.0324,0.013523,0.002678,0.000431,0.216722
79335000,0.0324,0.013523,0.002678,0.000431,0.171004
79336000,0.0324,0.013523,0.002678,0.000431,0.158546
79337000,0.0324,0.013523,0.002678,0.000431,0.141621
79338000,0.0324,0.013523,0.002678,0.000431,0.115765
79339000,0.0324,0.013523,0.002678,0.000431,0.091672
79340000,0.0324,0.013523,0.002678,0.000431,0.075453
79341000,0.0324,0.013523,0.002678,0.000431,0.069107
79342000,0.0324,0.013523,0.002678,0.000431,0.049949
79343000,0.0324,0.013523,0.002678,0.000431,0.049127
79344000,0.0324,0.013523,0.002678,0.000431,0.046071
79345000,0.0324,0.013523,0.002678,0.000431,0.038902
79346000,0.0324,0.013523,0.002678,0.000431,0.030792
79347000,0.0324,0.013523,0.002678,0.000431,0.026679
79348000,0.0324,0.013523,0.002678,0.000431,0.027502
79349000,0.0324,0.013523,0.002678,0.000431,0.022095
79350000,0.0324,0.013523,0.002678,0.000431,0.011400
79351000,0.0324,0.013523,0.002678,0.000431,0.013163
79352000,0.0324,0.013523,0.002678,0.000431,0.016219
79353000,0.0324,0.013523,0.002678,0.000431,0.010107
79354000,0.0324,0.013523,0.002678,0.000431,0.008227
79355000,0.0324,0.013523,0.002678,0.000431,0.009285
79356000,0.0324,0.013523,0.002678,0.000431,0.008345
79357000,0.0324,0.013523,0.002678,0.000431,0.011518
79358000,0.0324,0.013523,0.002678,0.000431,0.008932
79359000,0.0324,0.013523,0.002678,0.000431,0.008462
79360000,0.0324,0.013523,0.002678,0.000431,0.007169
79361000,0.0324,0.013523,0.002678,0.000431,0.005759
79362000,0.0324,0.013523,0.002678,0.000431,0.008109
79363000,0.0324,0.013523,0.002678,0.000431,0.005171
79364000,0.0324,0.013523,0.002678,0.000431,0.004349
79365000,0.0324,0.013523,0.002678,0.000431,0.004819
79366000,0.0324,0.013523,0.002678,0.000431,0.004584
79367000,0.0324,0.013523,0.002678,0.000431,0.004936
79368000,0.0324,0.013523,0.002678,0.000431,0.006229
79369000,0.0324,0.013523,0.002678,0.000431,0.006934
79370000,0.0324,0.013523,0.002678,0.000431,0.002233
79371000,0.0324,0.013523,0.002678,0.000431,0.002821
79372000,0.0324,0.013523,0.002678,0.000431,0.001880
79373000,0.0324,0.013523,0.002678,0.000431,0.004349
79374000,0.0324,0.013523,0.002678,0.000431,0.000823
79375000,0.0324,0.013523,0.002678,0.000431,0.000823
79376000,0.0324,0.013523,0.002678,0.000431,0.001058
79377000,0.0324,0.013523,0.002678,0.000431,0.000823
79378000,0.0324,0.013523,0.002678,0.000431,0.001058
79379000,0.0324,0.013523,0.002678,0.000431,0.000823
79380000,0.0324,0.013523,0.002678,0.000431,0.000940
79381000,0.0324,0.013523,0.002678,0.000431,0.001058
79382000,0.0324,0.013523,0.002678,0.000431,0.000823
79383000,0.0324,0.013523,0.002678,0.000431,0.000940
79384000,0.0324,0.013523,0.002678,0.000431,0.000940
79385000,0.0324,0.013523,0.002678,0.000431,0.000940
79386000,0.0324,0.013523,0.002678,0.000431,0.000940
79387000,0.0324,0.013523,0.002678,0.000431,0.000940
79388000,0.0324,0.013523,0.002678,0.000431,0.000940
79389000,0.0324,0.013523,0.002678,0.000431,0.000940
79390000,0.0324,0.013523,0.002678,0.000431,0.000823
79391000,0.0324,0.013523,0.002678,0.000431,0.001058
79392000,0.0324,0.013523,0.002678,0.000431,0.000940
79393000,0.0324,0.013523,0.002678,0.000431,0.000823
79394000,0.0324,0.013523,0.002678,0.000431,0.001058
79395000,0.0324,0.013523,0.002678,0.000431,0.000705
79396000,0.0324,0.013523,0.002678,0.000431,0.001175
79397000,0.0324,0.013523,0.002678,0.000431,0.000823
79398000,0.0324,0.013523,0.002678,0.000431,0.000940
79399000,0.0324,0.013523,0.002678,0.000431,0.000940
79400000,0.0324,0.013523,0.002678,0.000431,0.000823
79401000,0.0324,0.013523,0.002678,0.000431,0.001175
79402000,0.0324,0.013523,0.002678,0.000431,0.000940
79403000,0.0324,0.013523,0.002678,0.000431,0.001410
79404000,0.0324,0.013523,0.002678,0.000431,0.000940
79405000,0.0324,0.013523,0.002678,0.000431,0.175352
79406000,0.0324,0.013523,0.002678,0.000431,0.737724
79407000,0.0324,0.013523,0.002678,0.000431,0.495499
79408000,0.0324,0.013523,0.002678,0.000431,0.137273
79409000,0.0324,0.013523,0.002678,0.000431,0.404885
79410000,0.0324,0.013523,0.002678,0.000431,0.407705
79411000,0.0324,0.013523,0.002678,0.000431,0.252451
79412000,0.0324,0.013523,0.002678,0.000431,0.241755
79413000,0.0324,0.013523,0.002678,0.000431,0.160779
79414000,0.0324,0.013523,0.002678,0.000431,0.116000
79415000,0.0324,0.013523,0.002678,0.000431,0.507252
79416000,0.0324,0.013523,0.002678,0.000431,0.340714
79417000,0.0324,0.013523,0.002678,0.000431,0.218485
79418000,0.0324,0.013523,0.002678,0.000431,0.195214
79419000,0.0324,0.013523,0.002678,0.000431,0.154785
79420000,0.0324,0.013523,0.002678,0.000431,0.136685
79421000,0.0324,0.013523,0.002678,0.000431,0.104953
79422000,0.0324,0.013523,0.002678,0.000431,0.103190
79423000,0.0324,0.013523,0.002678,0.000431,0.066521
79424000,0.0324,0.013523,0.002678,0.000431,0.059704
79425000,0.0324,0.013523,0.002678,0.000431,0.047599
79426000,0.0324,0.013523,0.002678,0.000431,0.030792
79427000,0.0324,0.013523,0.002678,0.000431,0.035964
79428000,0.0324,0.013523,0.002678,0.000431,0.030675
79429000,0.0324,0.013523,0.002678,0.000431,0.024211
79430000,0.0324,0.013523,0.002678,0.000431,0.013751
79431000,0.0324,0.013523,0.002678,0.000431,0.012340
79432000,0.0324,0.013523,0.002678,0.000431,0.013986
79433000,0.0324,0.013523,0.002678,0.000431,0.006934
79434000,0.0324,0.013523,0.002678,0.000431,0.007522
79435000,0.0324,0.013523,0.002678,0.000431,0.004936
79436000,0.0324,0.013523,0.002678,0.000431,0.004466
79437000,0.0324,0.013523,0.002678,0.000431,0.003878
79438000,0.0324,0.013523,0.002678,0.000431,0.004349
79439000,0.0324,0.013523,0.002678,0.000431,0.003761
79440000,0.0324,0.013523,0.002678,0.000431,0.004113
79441000,0.0324,0.013523,0.002678,0.000431,0.004466
79442000,0.0324,0.013523,0.002678,0.000431,0.005524
79443000,0.0324,0.013523,0.002678,0.000431,0.005054
79444000,0.0324,0.013523,0.002678,0.000431,0.003173
79445000,0.0324,0.013523,0.002678,0.000431,0.003291
79446000,0.0324,0.013523,0.002678,0.000431,0.003291
79447000,0.0324,0.013523,0.002678,0.000431,0.003056
79448000,0.0324,0.013523,0.002678,0.000431,0.003643
79449000,0.0324,0.013523,0.002678,0.000431,0.002938
79450000,0.0324,0.013523,0.002678,0.000431,0.002821
79451000,0.0324,0.013523,0.002678,0.000431,0.003173
79452000,0.0324,0.013523,0.002678,0.000431,0.003173
79453000,0.0324,0.013523,0.002678,0.000431,0.003408
79454000,0.0324,0.013523,0.002678,0.000431,0.003173
79455000,0.0324,0.013523,0.002678,0.000431,0.003291
79456000,0.0324,0.013523,0.002678,0.000431,0.003173
79457000,0.0324,0.013523,0.002678,0.000431,0.003408
79458000,0.0324,0.013523,0.002678,0.000431,0.003056
79459000,0.0324,0.013523,0.002678,0.000431,0.002938
79460000,0.0324,0.013523,0.002678,0.000431,0.007404
79461000,0.0324,0.013523,0.002678,0.000431,0.001293
79462000,0.0324,0.013523,0.002678,0.000431,0.001763
79463000,0.0324,0.013523,0.002678,0.000431,0.001528
79464000,0.0324,0.013523,0.002678,0.000431,0.001528
79465000,0.0324,0.013523,0.002678,0.000431,0.000940
79466000,0.0324,0.013523,0.002678,0.000431,0.001058
79467000,0.0324,0.013523,0.002678,0.000431,0.262440
79468000,0.0324,0.013523,0.002678,0.000431,0.789084
79469000,0.0324,0.013523,0.002678,0.000431,0.437792
79470000,0.0324,0.013523,0.002678,0.000431,0.145265
79471000,0.0324,0.013523,0.002678,0.000431,0.533108
79472000,0.0324,0.013523,0.002678,0.000431,0.272078
79473000,0.0324,0.013523,0.002678,0.000431,0.348706
79474000,0.0324,0.013523,0.002678,0.000431,0.173237
79475000,0.0324,0.013523,0.002678,0.000431,0.137155
79476000,0.0324,0.013523,0.002678,0.000431,0.243518
79477000,0.0324,0.013523,0.002678,0.000431,0.543685
79478000,0.0324,0.013523,0.002678,0.000431,0.186870
79479000,0.0324,0.013523,0.002678,0.000431,0.157605
79480000,0.0324,0.013523,0.002678,0.000431,0.137626
79481000,0.0324,0.013523,0.002678,0.000431,0.128576
79482000,0.0324,0.013523,0.002678,0.000431,0.104247
79483000,0.0324,0.013523,0.002678,0.000431,0.090732
79484000,0.0324,0.013523,0.002678,0.000431,0.066286
79485000,0.0324,0.013523,0.002678,0.000431,0.068519
79486000,0.0324,0.013523,0.002678,0.000431,0.056296
79487000,0.0324,0.013523,0.002678,0.000431,0.048657
79488000,0.0324,0.013523,0.002678,0.000431,0.051007
79489000,0.0324,0.013523,0.002678,0.000431,0.039372
79490000,0.0324,0.013523,0.002678,0.000431,0.036551
79491000,0.0324,0.013523,0.002678,0.000431,0.032555
79492000,0.0324,0.013523,0.002678,0.000431,0.027972
79493000,0.0324,0.013523,0.002678,0.000431,0.019040
79494000,0.0324,0.013523,0.002678,0.000431,0.019510
79495000,0.0324,0.013523,0.002678,0.000431,0.007052
79496000,0.0324,0.013523,0.002678,0.000431,0.008932
79497000,0.0324,0.013523,0.002678,0.000431,0.007522
79498000,0.0324,0.013523,0.002678,0.000431,0.008345
79499000,0.0324,0.013523,0.002678,0.000431,0.007639
79500000,0.0324,0.013523,0.002678,0.000431,0.009402
79501000,0.0324,0.013523,0.002678,0.000431,0.007287
79502000,0.0324,0.013523,0.002678,0.000431,0.008345
79503000,0.0324,0.013523,0.002678,0.000431,0.008109
79504000,0.0324,0.013523,0.002678,0.000431,0.009520
79505000,0.0324,0.013523,0.002678,0.000431,0.006934
79506000,0.0324,0.013523,0.002678,0.000431,0.006347
79507000,0.0324,0.013523,0.002678,0.000431,0.006934
79508000,0.0324,0.013523,0.002678,0.000431,0.005759
79509000,0.0324,0.013523,0.002678,0.000431,0.008109
79510000,0.0324,0.013523,0.002678,0.000431,0.005171
79511000,0.0324,0.013523,0.002678,0.000431,0.005054
79512000,0.0324,0.013523,0.002678,0.000431,0.005289
79513000,0.0324,0.013523,0.002678,0.000431,0.005289
79514000,0.0324,0.013523,0.002678,0.000431,0.004936
79515000,0.0324,0.013523,0.002678,0.000431,0.005524
79516000,0.0324,0.013523,0.002678,0.000431,0.005289
79517000,0.0324,0.013523,0.002678,0.000431,0.004936
79518000,0.0324,0.013523,0.002678,0.000431,0.005759
79519000,0.0324,0.013523,0.002678,0.000431,0.004231
79520000,0.0324,0.013523,0.002678,0.000431,0.005876
79521000,0.0324,0.013523,0.002678,0.000431,0.006699
79522000,0.0324,0.013523,0.002678,0.000431,0.004466
79523000,0.0324,0.013523,0.002678,0.000431,0.004819
79524000,0.0324,0.013523,0.002678,0.000431,0.002821
79525000,0.0324,0.013523,0.002678,0.000431,0.006934
79526000,0.0324,0.013523,0.002678,0.000431,0.002351
79527000,0.0324,0.013523,0.002678,0.000431,0.003056
79528000,0.0324,0.013523,0.002678,0.000431,0.003056
79529000,0.0324,0.013523,0.002678,0.000431,0.002351
79530000,0.0324,0.013523,0.002678,0.000431,0.003291
79531000,0.0324,0.013523,0.002678,0.000431,0.002821
79532000,0.0324,0.013523,0.002678,0.000431,0.002351
79533000,0.0324,0.013523,0.002678,0.000431,0.002116
79534000,0.0324,0.013523,0.002678,0.000431,0.001998
79535000,0.0324,0.013523,0.002678,0.000431,0.003996
79536000,0.0324,0.013523,0.002678,0.000431,0.002586
79537000,0.0324,0.013523,0.002678,0.000431,0.002938
79538000,0.0324,0.013523,0.002678,0.000431,0.003056
79539000,0.0324,0.013523,0.002678,0.000431,0.002586
79540000,0.0324,0.013523,0.002678,0.000431,0.003056
79541000,0.0324,0.013523,0.002678,0.000431,0.002938
79542000,0.0324,0.013523,0.002678,0.000431,0.002468
79543000,0.0324,0.013523,0.002678,0.000431,0.003291
79544000,0.0324,0.013523,0.002678,0.000431,0.002821
79545000,0.0324,0.013523,0.002678,0.000431,0.002586
79546000,0.0324,0.013523,0.002678,0.000431,0.003408
79547000,0.0324,0.013523,0.002678,0.000431,0.001998
79548000,0.0324,0.013523,0.002678,0.000431,0.003761
79549000,0.0324,0.013523,0.002678,0.000431,0.002116
79550000,0.0324,0.013523,0.002678,0.000431,0.002116
79551000,0.0324,0.013523,0.002678,0.000431,0.003056
79552000,0.0324,0.013523,0.002678,0.000431,0.083210
79553000,0.0324,0.013523,0.002678,0.000431,0.866770
79554000,0.0324,0.013523,0.002678,0.000431,0.497379
79555000,0.0324,0.013523,0.002678,0.000431,0.138448
79556000,0.0324,0.013523,0.002678,0.000431,0.424982
79557000,0.0324,0.013523,0.002678,0.000431,0.276426
79558000,0.0324,0.013523,0.002678,0.000431,0.301107
79559000,0.0324,0.013523,0.002678,0.000431,0.258562
79560000,0.0324,0.013523,0.002678,0.000431,0.176645
79561000,0.0324,0.013523,0.002678,0.000431,0.101074
79562000,0.0324,0.013523,0.002678,0.000431,0.531697
79563000,0.0324,0.013523,0.002678,0.000431,0.299579
79564000,0.0324,0.013523,0.002678,0.000431,0.205204
79565000,0.0324,0.013523,0.002678,0.000431,0.163599
79566000,0.0324,0.013523,0.002678,0.000431,0.160661
79567000,0.0324,0.013523,0.002678,0.000431,0.128693
79568000,0.0324,0.013523,0.002678,0.000431,0.112474
79569000,0.0324,0.013523,0.002678,0.000431,0.101427
79570000,0.0324,0.013523,0.002678,0.000431,0.077569
79571000,0.0324,0.013523,0.002678,0.000431,0.082387
79572000,0.0324,0.013523,0.002678,0.000431,0.048187
79573000,0.0324,0.013523,0.002678,0.000431,0.041958
79574000,0.0324,0.013523,0.002678,0.000431,0.035141
79575000,0.0324,0.013523,0.002678,0.000431,0.028677
79576000,0.0324,0.013523,0.002678,0.000431,0.026796
79577000,0.0324,0.013523,0.002678,0.000431,0.018687
79578000,0.0324,0.013523,0.002678,0.000431,0.019862
79579000,0.0324,0.013523,0.002678,0.000431,0.016454
79580000,0.0324,0.013523,0.002678,0.000431,0.020450
79581000,0.0324,0.013523,0.002678,0.000431,0.017159
79582000,0.0324,0.013523,0.002678,0.000431,0.013398
79583000,0.0324,0.013523,0.002678,0.000431,0.014103
79584000,0.0324,0.013523,0.002678,0.000431,0.008109
79585000,0.0324,0.013523,0.002678,0.000431,0.007874
79586000,0.0324,0.013523,0.002678,0.000431,0.009990
79587000,0.0324,0.013523,0.002678,0.000431,0.004349
79588000,0.0324,0.013523,0.002678,0.000431,0.004701
79589000,0.0324,0.013523,0.002678,0.000431,0.005641
79590000,0.0324,0.013523,0.002678,0.000431,0.004936
79591000,0.0324,0.013523,0.002678,0.000431,0.003173
79592000,0.0324,0.013523,0.002678,0.000431,0.003408
79593000,0.0324,0.013523,0.002678,0.000431,0.003173
79594000,0.0324,0.013523,0.002678,0.000431,0.003291
79595000,0.0324,0.013523,0.002678,0.000431,0.003408
79596000,0.0324,0.013523,0.002678,0.000431,0.003408
79597000,0.0324,0.013523,0.002678,0.000431,0.003173
79598000,0.0324,0.013523,0.002678,0.000431,0.003643
79599000,0.0324,0.013523,0.002678,0.000431,0.002938
79600000,0.0324,0.013523,0.002678,0.000431,0.003408
79601000,0.0324,0.013523,0.002678,0.000431,0.003526
79602000,0.0324,0.013523,0.002678,0.000431,0.003408
79603000,0.0324,0.013523,0.002678,0.000431,0.003056
79604000,0.0324,0.013523,0.002678,0.000431,0.003173
79605000,0.0324,0.013523,0.002678,0.000431,0.005759
79606000,0.0324,0.013523,0.002678,0.000431,0.002468
79607000,0.0324,0.013523,0.002678,0.000431,0.002468
79608000,0.0324,0.013523,0.002678,0.000431,0.002468
79609000,0.0324,0.013523,0.002678,0.000431,0.002351
79610000,0.0324,0.013523,0.002678,0.000431,0.002586
79611000,0.0324,0.013523,0.002678,0.000431,0.002468
79612000,0.0324,0.013523,0.002678,0.000431,0.002468
79613000,0.0324,0.013523,0.002678,0.000431,0.002821
79614000,0.0324,0.013523,0.002678,0.000431,0.002116
79615000,0.0324,0.013523,0.002678,0.000431,0.002586
79616000,0.0324,0.013523,0.002678,0.000431,0.002586
79617000,0.0324,0.013523,0.002678,0.000431,0.002586
79618000,0.0324,0.013523,0.002678,0.000431,0.002351
79619000,0.0324,0.013523,0.002678,0.000431,0.002351
79620000,0.0324,0.013523,0.002678,0.000431,0.002821
79621000,0.0324,0.013523,0.002678,0.000431,0.002468
79622000,0.0324,0.013523,0.002678,0.000431,0.002233
79623000,0.0324,0.013523,0.002678,0.000431,0.002586
79624000,0.0324,0.013523,0.002678,0.000431,0.002586
79625000,0.0324,0.013523,0.002678,0.000431,0.002586
79626000,0.0324,0.013523,0.002678,0.000431,0.002116
79627000,0.0324,0.013523,0.002678,0.000431,0.002821
79628000,0.0324,0.013523,0.002678,0.000431,0.002468
79629000,0.0324,0.013523,0.002678,0.000431,0.002468
79630000,0.0324,0.013523,0.002678,0.000431,0.002468
79631000,0.0324,0.013523,0.002678,0.000431,0.002468
79632000,0.0324,0.013523,0.002678,0.000431,0.002468
79633000,0.0324,0.013523,0.002678,0.000431,0.002468
79634000,0.0324,0.013523,0.002678,0.000431,0.002586
79635000,0.0324,0.013523,0.002678,0.000431,0.002351
79636000,0.0324,0.013523,0.002678,0.000431,0.002586
79637000,0.0324,0.013523,0.002678,0.000431,0.002468
79638000,0.0324,0.013523,0.002678,0.000431,0.002468
79639000,0.0324,0.013523,0.002678,0.000431,0.003408
79640000,0.0324,0.013523,0.002678,0.000431,0.012576
79641000,0.0324,0.013523,0.002678,0.000431,0.724444
79642000,0.0324,0.013523,0.002678,0.000431,0.652987
79643000,0.0324,0.013523,0.002678,0.000431,0.148908
79644000,0.0324,0.013523,0.002678,0.000431,0.183814
79645000,0.0324,0.013523,0.002678,0.000431,0.614437
79646000,0.0324,0.013523,0.002678,0.000431,0.266201
79647000,0.0324,0.013523,0.002678,0.000431,0.272900
79648000,0.0324,0.013523,0.002678,0.000431,0.150906
79649000,0.0324,0.013523,0.002678,0.000431,0.117411
79650000,0.0324,0.013523,0.002678,0.000431,0.369626
79651000,0.0324,0.013523,0.002678,0.000431,0.467527
79652000,0.0324,0.013523,0.002678,0.000431,0.189926
79653000,0.0324,0.013523,0.002678,0.000431,0.165715
79654000,0.0324,0.013523,0.002678,0.000431,0.150319
79655000,0.0324,0.013523,0.002678,0.000431,0.132102
79656000,0.0324,0.013523,0.002678,0.000431,0.101192
79657000,0.0324,0.013523,0.002678,0.000431,0.092025
79658000,0.0324,0.013523,0.002678,0.000431,0.063935
79659000,0.0324,0.013523,0.002678,0.000431,0.058294
79660000,0.0324,0.013523,0.002678,0.000431,0.031145
79661000,0.0324,0.013523,0.002678,0.000431,0.040312
79662000,0.0324,0.013523,0.002678,0.000431,0.036904
79663000,0.0324,0.013523,0.002678,0.000431,0.019157
79664000,0.0324,0.013523,0.002678,0.000431,0.024093
79665000,0.0324,0.013523,0.002678,0.000431,0.016101
79666000,0.0324,0.013523,0.002678,0.000431,0.021155
79667000,0.0324,0.013523,0.002678,0.000431,0.013398
79668000,0.0324,0.013523,0.002678,0.000431,0.011283
79669000,0.0324,0.013523,0.002678,0.000431,0.012223
79670000,0.0324,0.013523,0.002678,0.000431,0.011400
79671000,0.0324,0.013523,0.002678,0.000431,0.009637
79672000,0.0324,0.013523,0.002678,0.000431,0.010225
79673000,0.0324,0.013523,0.002678,0.000431,0.009520
79674000,0.0324,0.013523,0.002678,0.000431,0.010107
79675000,0.0324,0.013523,0.002678,0.000431,0.011518
79676000,0.0324,0.013523,0.002678,0.000431,0.014573
79677000,0.0324,0.013523,0.002678,0.000431,0.010930
79678000,0.0324,0.013523,0.002678,0.000431,0.006229
79679000,0.0324,0.013523,0.002678,0.000431,0.005641
79680000,0.0324,0.013523,0.002678,0.000431,0.012105
79681000,0.0324,0.013523,0.002678,0.000431,0.007522
79682000,0.0324,0.013523,0.002678,0.000431,0.001998
79683000,0.0324,0.013523,0.002678,0.000431,0.001998
79684000,0.0324,0.013523,0.002678,0.000431,0.001880
79685000,0.0324,0.013523,0.002678,0.000431,0.005054
79686000,0.0324,0.013523,0.002678,0.000431,0.000823
79687000,0.0324,0.013523,0.002678,0.000431,0.001293
79688000,0.0324,0.013523,0.002678,0.000431,0.001175
79689000,0.0324,0.013523,0.002678,0.000431,0.000940
79690000,0.0324,0.013523,0.002678,0.000431,0.001410
79691000,0.0324,0.013523,0.002678,0.000431,0.000823
79692000,0.0324,0.013523,0.002678,0.000431,0.001058
79693000,0.0324,0.013523,0.002678,0.000431,0.001293
79694000,0.0324,0.013523,0.002678,0.000431,0.001058
79695000,0.0324,0.013523,0.002678,0.000431,0.001175
79696000,0.0324,0.013523,0.002678,0.000431,0.001058
79697000,0.0324,0.013523,0.002678,0.000431,0.000940
79698000,0.0324,0.013523,0.002678,0.000431,0.001410
79699000,0.0324,0.013523,0.002678,0.000431,0.000823
79700000,0.0324,0.013523,0.002678,0.000431,0.001410
79701000,0.0324,0.013523,0.002678,0.000431,0.001058
79702000,0.0324,0.013523,0.002678,0.000431,0.000940
79703000,0.0324,0.013523,0.002678,0.000431,0.001410
79704000,0.0324,0.013523,0.002678,0.000431,0.000823
79705000,0.0324,0.013523,0.002678,0.000431,0.001410
79706000,0.0324,0.013523,0.002678,0.000431,0.000940
79707000,0.0324,0.013523,0.002678,0.000431,0.001058
79708000,0.0324,0.013523,0.002678,0.000431,0.001293
79709000,0.0324,0.013523,0.002678,0.000431,0.000823
79710000,0.0324,0.013523,0.002678,0.000431,0.001528
79711000,0.0324,0.013523,0.002678,0.000431,0.000823
79712000,0.0324,0.013523,0.002678,0.000431,0.001058
79713000,0.0324,0.013523,0.002678,0.000431,0.001410
79714000,0.0324,0.013523,0.002678,0.000431,0.000823
79715000,0.0324,0.013523,0.002678,0.000431,0.001293
79716000,0.0324,0.013523,0.002678,0.000431,0.001058
79717000,0.0324,0.013523,0.002678,0.000431,0.000940
79718000,0.0324,0.013523,0.002678,0.000431,0.001410
79719000,0.0324,0.013523,0.002678,0.000431,0.000940
79720000,0.0324,0.013523,0.002678,0.000431,0.000940
79721000,0.0324,0.013523,0.002678,0.000431,0.055121
79722000,0.0324,0.013523,0.002678,0.000431,0.863127
79723000,0.0324,0.013523,0.002678,0.000431,0.554028
79724000,0.0324,0.013523,0.002678,0.000431,0.137273
79725000,0.0324,0.013523,0.002678,0.000431,0.285829
79726000,0.0324,0.013523,0.002678,0.000431,0.436617
79727000,0.0324,0.013523,0.002678,0.000431,0.324495
79728000,0.0324,0.013523,0.002678,0.000431,0.247749
79729000,0.0324,0.013523,0.002678,0.000431,0.187810
79730000,0.0324,0.013523,0.002678,0.000431,0.085443
79731000,0.0324,0.013523,0.002678,0.000431,0.612909
79732000,0.0324,0.013523,0.002678,0.000431,0.228827
79733000,0.0324,0.013523,0.002678,0.000431,0.164187
79734000,0.0324,0.013523,0.002678,0.000431,0.141504
79735000,0.0324,0.013523,0.002678,0.000431,0.098841
79736000,0.0324,0.013523,0.002678,0.000431,0.091554
79737000,0.0324,0.013523,0.002678,0.000431,0.061702
79738000,0.0324,0.013523,0.002678,0.000431,0.055003
79739000,0.0324,0.013523,0.002678,0.000431,0.048539
79740000,0.0324,0.013523,0.002678,0.000431,0.041135
79741000,0.0324,0.013523,0.002678,0.000431,0.023506
79742000,0.0324,0.013523,0.002678,0.000431,0.021978
79743000,0.0324,0.013523,0.002678,0.000431,0.014103
79744000,0.0324,0.013523,0.002678,0.000431,0.009167
79745000,0.0324,0.013523,0.002678,0.000431,0.012928
79746000,0.0324,0.013523,0.002678,0.000431,0.012928
79747000,0.0324,0.013523,0.002678,0.000431,0.005641
79748000,0.0324,0.013523,0.002678,0.000431,0.006582
79749000,0.0324,0.013523,0.002678,0.000431,0.007287
79750000,0.0324,0.013523,0.002678,0.000431,0.004936
79751000,0.0324,0.013523,0.002678,0.000431,0.005289
79752000,0.0324,0.013523,0.002678,0.000431,0.005524
79753000,0.0324,0.013523,0.002678,0.000431,0.006347
79754000,0.0324,0.013523,0.002678,0.000431,0.002703
79755000,0.0324,0.013523,0.002678,0.000431,0.001645
79756000,0.0324,0.013523,0.002678,0.000431,0.001880
79757000,0.0324,0.013523,0.002678,0.000431,0.129399
79758000,0.0324,0.013523,0.002678,0.000431,0.861599
79759000,0.0324,0.013523,0.002678,0.000431,0.470818
79760000,0.0324,0.013523,0.002678,0.000431,0.157370
79761000,0.0324,0.013523,0.002678,0.000431,0.507839
79762000,0.0324,0.013523,0.002678,0.000431,0.292175
79763000,0.0324,0.013523,0.002678,0.000431,0.322497
79764000,0.0324,0.013523,0.002678,0.000431,0.169946
79765000,0.0324,0.013523,0.002678,0.000431,0.163012
79766000,0.0324,0.013523,0.002678,0.000431,0.181581
79767000,0.0324,0.013523,0.002678,0.000431,0.544861
79768000,0.0324,0.013523,0.002678,0.000431,0.216017
79769000,0.0324,0.013523,0.002678,0.000431,0.170651
79770000,0.0324,0.013523,0.002678,0.000431,0.131279
79771000,0.0324,0.013523,0.002678,0.000431,0.113180
79772000,0.0324,0.013523,0.002678,0.000431,0.097431
79773000,0.0324,0.013523,0.002678,0.000431,0.087911
79774000,0.0324,0.013523,0.002678,0.000431,0.064170
79775000,0.0324,0.013523,0.002678,0.000431,0.054651
79776000,0.0324,0.013523,0.002678,0.000431,0.034201
79777000,0.0324,0.013523,0.002678,0.000431,0.021390
79778000,0.0324,0.013523,0.002678,0.000431,0.023623
79779000,0.0324,0.013523,0.002678,0.000431,0.020802
79780000,0.0324,0.013523,0.002678,0.000431,0.011753
79781000,0.0324,0.013523,0.002678,0.000431,0.015279
79782000,0.0324,0.013523,0.002678,0.000431,0.010813
79783000,0.0324,0.013523,0.002678,0.000431,0.010107
79784000,0.0324,0.013523,0.002678,0.000431,0.010578
79785000,0.0324,0.013523,0.002678,0.000431,0.009520
79786000,0.0324,0.013523,0.002678,0.000431,0.011283
79787000,0.0324,0.013523,0.002678,0.000431,0.007992
79788000,0.0324,0.013523,0.002678,0.000431,0.008109
79789000,0.0324,0.013523,0.002678,0.000431,0.007874
79790000,0.0324,0.013523,0.002678,0.000431,0.007287
79791000,0.0324,0.013523,0.002678,0.000431,0.015514
79792000,0.0324,0.013523,0.002678,0.000431,0.008109
79793000,0.0324,0.013523,0.002678,0.000431,0.004819
79794000,0.0324,0.013523,0.002678,0.000431,0.001880
79795000,0.0324,0.013523,0.002678,0.000431,0.001998
79796000,0.0324,0.013523,0.002678,0.000431,0.001763
79797000,0.0324,0.013523,0.002678,0.000431,0.001880
79798000,0.0324,0.013523,0.002678,0.000431,0.001880
79799000,0.0324,0.013523,0.002678,0.000431,0.001880
79800000,0.0324,0.013523,0.002678,0.000431,0.001880
79801000,0.0324,0.013523,0.002678,0.000431,0.001880
79802000,0.0324,0.013523,0.002678,0.000431,0.001880
79803000,0.0324,0.013523,0.002678,0.000431,0.001763
79804000,0.0324,0.013523,0.002678,0.000431,0.001998
79805000,0.0324,0.013523,0.002678,0.000431,0.001645
79806000,0.0324,0.013523,0.002678,0.000431,0.002116
79807000,0.0324,0.013523,0.002678,0.000431,0.001645
79808000,0.0324,0.013523,0.002678,0.000431,0.001998
79809000,0.0324,0.013523,0.002678,0.000431,0.001880
79810000,0.0324,0.013523,0.002678,0.000431,0.001528
79811000,0.0324,0.013523,0.002678,0.000431,0.005406
79812000,0.0324,0.013523,0.002678,0.000431,0.000823
79813000,0.0324,0.013523,0.002678,0.000431,0.001058
79814000,0.0324,0.013523,0.002678,0.000431,0.000940
79815000,0.0324,0.013523,0.002678,0.000431,0.000823
79816000,0.0324,0.013523,0.002678,0.000431,0.001058
79817000,0.0324,0.013523,0.002678,0.000431,0.000823
79818000,0.0324,0.013523,0.002678,0.000431,0.001058
79819000,0.0324,0.013523,0.002678,0.000431,0.000823
79820000,0.0324,0.013523,0.002678,0.000431,0.001175
79821000,0.0324,0.013523,0.002678,0.000431,0.001293
79822000,0.0324,0.013523,0.002678,0.000431,0.001293
79823000,0.0324,0.013523,0.002678,0.000431,0.015279
79824000,0.0324,0.013523,0.002678,0.000431,0.738077
79825000,0.0324,0.013523,0.002678,0.000431,0.589874
79826000,0.0324,0.013523,0.002678,0.000431,0.136450
79827000,0.0324,0.013523,0.002678,0.000431,0.138096
79828000,0.0324,0.013523,0.002678,0.000431,0.546271
79829000,0.0324,0.013523,0.002678,0.000431,0.265849
79830000,0.0324,0.013523,0.002678,0.000431,0.322850
79831000,0.0324,0.013523,0.002678,0.000431,0.151611
79832000,0.0324,0.013523,0.002678,0.000431,0.162777
79833000,0.0324,0.013523,0.002678,0.000431,0.149848
79834000,0.0324,0.013523,0.002678,0.000431,0.598218
79835000,0.0324,0.013523,0.002678,0.000431,0.214489
79836000,0.0324,0.013523,0.002678,0.000431,0.167830
79837000,0.0324,0.013523,0.002678,0.000431,0.145030
79838000,0.0324,0.013523,0.002678,0.000431,0.127871
79839000,0.0324,0.013523,0.002678,0.000431,0.095550
79840000,0.0324,0.013523,0.002678,0.000431,0.084385
79841000,0.0324,0.013523,0.002678,0.000431,0.071457
79842000,0.0324,0.013523,0.002678,0.000431,0.065228
79843000,0.0324,0.013523,0.002678,0.000431,0.055708
79844000,0.0324,0.013523,0.002678,0.000431,0.063348
79845000,0.0324,0.013523,0.002678,0.000431,0.038667
79846000,0.0324,0.013523,0.002678,0.000431,0.037139
79847000,0.0324,0.013523,0.002678,0.000431,0.031733
79848000,0.0324,0.013523,0.002678,0.000431,0.024328
79849000,0.0324,0.013523,0.002678,0.000431,0.020802
79850000,0.0324,0.013523,0.002678,0.000431,0.025856
79851000,0.0324,0.013523,0.002678,0.000431,0.014809
79852000,0.0324,0.013523,0.002678,0.000431,0.008815
79853000,0.0324,0.013523,0.002678,0.000431,0.007287
79854000,0.0324,0.013523,0.002678,0.000431,0.008109
79855000,0.0324,0.013523,0.002678,0.000431,0.004701
79856000,0.0324,0.013523,0.002678,0.000431,0.004819
79857000,0.0324,0.013523,0.002678,0.000431,0.003996
79858000,0.0324,0.013523,0.002678,0.000431,0.004113
79859000,0.0324,0.013523,0.002678,0.000431,0.003878
79860000,0.0324,0.013523,0.002678,0.000431,0.004819
79861000,0.0324,0.013523,0.002678,0.000431,0.003761
79862000,0.0324,0.013523,0.002678,0.000431,0.003996
79863000,0.0324,0.013523,0.002678,0.000431,0.003291
79864000,0.0324,0.013523,0.002678,0.000431,0.002938
79865000,0.0324,0.013523,0.002678,0.000431,0.005171
79866000,0.0324,0.013523,0.002678,0.000431,0.002586
79867000,0.0324,0.013523,0.002678,0.000431,0.002116
79868000,0.0324,0.013523,0.002678,0.000431,0.002586
79869000,0.0324,0.013523,0.002678,0.000431,0.002351
79870000,0.0324,0.013523,0.002678,0.000431,0.002351
79871000,0.0324,0.013523,0.002678,0.000431,0.001880
79872000,0.0324,0.013523,0.002678,0.000431,0.007169
79873000,0.0324,0.013523,0.002678,0.000431,0.000823
79874000,0.0324,0.013523,0.002678,0.000431,0.000940
79875000,0.0324,0.013523,0.002678,0.000431,0.000823
79876000,0.0324,0.013523,0.002678,0.000431,0.000823
79877000,0.0324,0.013523,0.002678,0.000431,0.000823
79878000,0.0324,0.013523,0.002678,0.000431,0.000823
79879000,0.0324,0.013523,0.002678,0.000431,0.000940
79880000,0.0324,0.013523,0.002678,0.000431,0.000705
79881000,0.0324,0.013523,0.002678,0.000431,0.000940
79882000,0.0324,0.013523,0.002678,0.000431,0.000823
79883000,0.0324,0.013523,0.002678,0.000431,0.000823
79884000,0.0324,0.013523,0.002678,0.000431,0.000823
79885000,0.0324,0.013523,0.002678,0.000431,0.000823
79886000,0.0324,0.013523,0.002678,0.000431,0.000823
79887000,0.0324,0.013523,0.002678,0.000431,0.000823
79888000,0.0324,0.013523,0.002678,0.000431,0.000823
79889000,0.0324,0.013523,0.002678,0.000431,0.000823
79890000,0.0324,0.013523,0.002678,0.000431,0.000940
79891000,0.0324,0.013523,0.002678,0.000431,0.000823
79892000,0.0324,0.013523,0.002678,0.000431,0.000823
79893000,0.0324,0.013523,0.002678,0.000431,0.000705
79894000,0.0324,0.013523,0.002678,0.000431,0.000940
79895000,0.0324,0.013523,0.002678,0.000431,0.000940
79896000,0.0324,0.013523,0.002678,0.000431,0.000705
79897000,0.0324,0.013523,0.002678,0.000431,0.000940
79898000,0.0324,0.013523,0.002678,0.000431,0.000705
79899000,0.0324,0.013523,0.002678,0.000431,0.003173
79900000,0.0324,0.013523,0.002678,0.000431,0.431681
79901000,0.0324,0.013523,0.002678,0.000431,0.801777
79902000,0.0324,0.013523,0.002678,0.000431,0.273841
79903000,0.0324,0.013523,0.002678,0.000431,0.138213
79904000,0.0324,0.013523,0.002678,0.000431,0.485744
79905000,0.0324,0.013523,0.002678,0.000431,0.245164
79906000,0.0324,0.013523,0.002678,0.000431,0.339186
79907000,0.0324,0.013523,0.002678,0.000431,0.149613
79908000,0.0324,0.013523,0.002678,0.000431,0.189103
79909000,0.0324,0.013523,0.002678,0.000431,0.126108
79910000,0.0324,0.013523,0.002678,0.000431,0.583057
79911000,0.0324,0.013523,0.002678,0.000431,0.214842
79912000,0.0324,0.013523,0.002678,0.000431,0.165362
79913000,0.0324,0.013523,0.002678,0.000431,0.145617
79914000,0.0324,0.013523,0.002678,0.000431,0.136098
79915000,0.0324,0.013523,0.002678,0.000431,0.099429
79916000,0.0324,0.013523,0.002678,0.000431,0.075806
79917000,0.0324,0.013523,0.002678,0.000431,0.081094
79918000,0.0324,0.013523,0.002678,0.000431,0.064053
79919000,0.0324,0.013523,0.002678,0.000431,0.044308
79920000,0.0324,0.013523,0.002678,0.000431,0.028089
79921000,0.0324,0.013523,0.002678,0.000431,0.024563
79922000,0.0324,0.013523,0.002678,0.000431,0.029970
79923000,0.0324,0.013523,0.002678,0.000431,0.014926
79924000,0.0324,0.013523,0.002678,0.000431,0.017982
79925000,0.0324,0.013523,0.002678,0.000431,0.017277
79926000,0.0324,0.013523,0.002678,0.000431,0.009402
79927000,0.0324,0.013523,0.002678,0.000431,0.007404
79928000,0.0324,0.013523,0.002678,0.000431,0.012576
79929000,0.0324,0.013523,0.002678,0.000431,0.005641
79930000,0.0324,0.013523,0.002678,0.000431,0.003643
79931000,0.0324,0.013523,0.002678,0.000431,0.003526
79932000,0.0324,0.013523,0.002678,0.000431,0.003173
79933000,0.0324,0.013523,0.002678,0.000431,0.002938
79934000,0.0324,0.013523,0.002678,0.000431,0.003291
79935000,0.0324,0.013523,0.002678,0.000431,0.003173
79936000,0.0324,0.013523,0.002678,0.000431,0.003173
79937000,0.0324,0.013523,0.002678,0.000431,0.003173
79938000,0.0324,0.013523,0.002678,0.000431,0.003291
79939000,0.0324,0.013523,0.002678,0.000431,0.002938
79940000,0.0324,0.013523,0.002678,0.000431,0.003173
79941000,0.0324,0.013523,0.002678,0.000431,0.003291
79942000,0.0324,0.013523,0.002678,0.000431,0.003291
79943000,0.0324,0.013523,0.002678,0.000431,0.002821
79944000,0.0324,0.013523,0.002678,0.000431,0.003408
79945000,0.0324,0.013523,0.002678,0.000431,0.003056
79946000,0.0324,0.013523,0.002678,0.000431,0.003056
79947000,0.0324,0.013523,0.002678,0.000431,0.003643
79948000,0.0324,0.013523,0.002678,0.000431,0.002468
79949000,0.0324,0.013523,0.002678,0.000431,0.003291
79950000,0.0324,0.013523,0.002678,0.000431,0.003291
79951000,0.0324,0.013523,0.002678,0.000431,0.003056
79952000,0.0324,0.013523,0.002678,0.000431,0.003291
79953000,0.0324,0.013523,0.002678,0.000431,0.002821
79954000,0.0324,0.013523,0.002678,0.000431,0.003291
79955000,0.0324,0.013523,0.002678,0.000431,0.003173
79956000,0.0324,0.013523,0.002678,0.000431,0.003056
79957000,0.0324,0.013523,0.002678,0.000431,0.003173
79958000,0.0324,0.013523,0.002678,0.000431,0.003291
79959000,0.0324,0.013523,0.002678,0.000431,0.002938
79960000,0.0324,0.013523,0.002678,0.000431,0.003526
79961000,0.0324,0.013523,0.002678,0.000431,0.002703
79962000,0.0324,0.013523,0.002678,0.000431,0.002468
79963000,0.0324,0.013523,0.002678,0.000431,0.002351
79964000,0.0324,0.013523,0.002678,0.000431,0.001763
79965000,0.0324,0.013523,0.002678,0.000431,0.003643
79966000,0.0324,0.013523,0.002678,0.000431,0.002821
79967000,0.0324,0.013523,0.002678,0.000431,0.000940
79968000,0.0324,0.013523,0.002678,0.000431,0.000940
79969000,0.0324,0.013523,0.002678,0.000431,0.000940
79970000,0.0324,0.013523,0.002678,0.000431,0.000823
79971000,0.0324,0.013523,0.002678,0.000431,0.001058
79972000,0.0324,0.013523,0.002678,0.000431,0.000940
79973000,0.0324,0.013523,0.002678,0.000431,0.000940
79974000,0.0324,0.013523,0.002678,0.000431,0.000940
79975000,0.0324,0.013523,0.002678,0.000431,0.000823
79976000,0.0324,0.013523,0.002678,0.000431,0.001058
79977000,0.0324,0.013523,0.002678,0.000431,0.000823
79978000,0.0324,0.013523,0.002678,0.000431,0.001058
79979000,0.0324,0.013523,0.002678,0.000431,0.000823
79980000,0.0324,0.013523,0.002678,0.000431,0.000823
79981000,0.0324,0.013523,0.002678,0.000431,0.001175
79982000,0.0324,0.013523,0.002678,0.000431,0.000705
79983000,0.0324,0.013523,0.002678,0.000431,0.001058
79984000,0.0324,0.013523,0.002678,0.000431,0.000940
79985000,0.0324,0.013523,0.002678,0.000431,0.000823
79986000,0.0324,0.013523,0.002678,0.000431,0.001058
79987000,0.0324,0.013523,0.002678,0.000431,0.000823
79988000,0.0324,0.013523,0.002678,0.000431,0.001058
79989000,0.0324,0.013523,0.002678,0.000431,0.000823
79990000,0.0324,0.013523,0.002678,0.000431,0.000940
79991000,0.0324,0.013523,0.002678,0.000431,0.001058
79992000,0.0324,0.013523,0.002678,0.000431,0.000823
79993000,0.0324,0.013523,0.002678,0.000431,0.000940
79994000,0.0324,0.013523,0.002678,0.000431,0.000940
79995000,0.0324,0.013523,0.002678,0.000431,0.000940
79996000,0.0324,0.013523,0.002678,0.000431,0.000940
79997000,0.0324,0.013523,0.002678,0.000431,0.000940
79998000,0.0324,0.013523,0.002678,0.000431,0.000940
79999000,0.0324,0.013523,0.002678,0.000431,0.000940
