Cycle,Area(mm^2),PeakDynamic(W),SubthresholdLeakage(W),GateLeakage(W),RunTimeDynamic(W)
33000000,0.0324,0.013523,0.002678,0.000431,0.001410
33001000,0.0324,0.013523,0.002678,0.000431,0.001880
33002000,0.0324,0.013523,0.002678,0.000431,0.001645
33003000,0.0324,0.013523,0.002678,0.000431,0.001645
33004000,0.0324,0.013523,0.002678,0.000431,0.001410
33005000,0.0324,0.013523,0.002678,0.000431,0.001880
33006000,0.0324,0.013523,0.002678,0.000431,0.001645
33007000,0.0324,0.013523,0.002678,0.000431,0.001645
33008000,0.0324,0.013523,0.002678,0.000431,0.001410
33009000,0.0324,0.013523,0.002678,0.000431,0.001763
33010000,0.0324,0.013523,0.002678,0.000431,0.001763
33011000,0.0324,0.013523,0.002678,0.000431,0.001645
33012000,0.0324,0.013523,0.002678,0.000431,0.001410
33013000,0.0324,0.013523,0.002678,0.000431,0.001880
33014000,0.0324,0.013523,0.002678,0.000431,0.001645
33015000,0.0324,0.013523,0.002678,0.000431,0.001645
33016000,0.0324,0.013523,0.002678,0.000431,0.002233
33017000,0.0324,0.013523,0.002678,0.000431,0.430976
33018000,0.0324,0.013523,0.002678,0.000431,0.713984
33019000,0.0324,0.013523,0.002678,0.000431,0.184049
33020000,0.0324,0.013523,0.002678,0.000431,0.133042
33021000,0.0324,0.013523,0.002678,0.000431,0.241991
33022000,0.0324,0.013523,0.002678,0.000431,0.593517
33023000,0.0324,0.013523,0.002678,0.000431,0.260913
33024000,0.0324,0.013523,0.002678,0.000431,0.338246
33025000,0.0324,0.013523,0.002678,0.000431,0.147850
33026000,0.0324,0.013523,0.002678,0.000431,0.150319
33027000,0.0324,0.013523,0.002678,0.000431,0.098724
33028000,0.0324,0.013523,0.002678,0.000431,0.464589
33029000,0.0324,0.013523,0.002678,0.000431,0.215077
33030000,0.0324,0.013523,0.002678,0.000431,0.143384
33031000,0.0324,0.013523,0.002678,0.000431,0.115883
33032000,0.0324,0.013523,0.002678,0.000431,0.104835
33033000,0.0324,0.013523,0.002678,0.000431,0.081212
33034000,0.0324,0.013523,0.002678,0.000431,0.069107
33035000,0.0324,0.013523,0.002678,0.000431,0.062760
33036000,0.0324,0.013523,0.002678,0.000431,0.053240
33037000,0.0324,0.013523,0.002678,0.000431,0.047599
33038000,0.0324,0.013523,0.002678,0.000431,0.044778
33039000,0.0324,0.013523,0.002678,0.000431,0.037609
33040000,0.0324,0.013523,0.002678,0.000431,0.027031
33041000,0.0324,0.013523,0.002678,0.000431,0.029265
33042000,0.0324,0.013523,0.002678,0.000431,0.023153
33043000,0.0324,0.013523,0.002678,0.000431,0.020685
33044000,0.0324,0.013523,0.002678,0.000431,0.014221
33045000,0.0324,0.013523,0.002678,0.000431,0.019392
33046000,0.0324,0.013523,0.002678,0.000431,0.010342
33047000,0.0324,0.013523,0.002678,0.000431,0.007169
33048000,0.0324,0.013523,0.002678,0.000431,0.008462
33049000,0.0324,0.013523,0.002678,0.000431,0.009167
33050000,0.0324,0.013523,0.002678,0.000431,0.003643
33051000,0.0324,0.013523,0.002678,0.000431,0.002586
33052000,0.0324,0.013523,0.002678,0.000431,0.002468
33053000,0.0324,0.013523,0.002678,0.000431,0.002586
33054000,0.0324,0.013523,0.002678,0.000431,0.002468
33055000,0.0324,0.013523,0.002678,0.000431,0.002703
33056000,0.0324,0.013523,0.002678,0.000431,0.002351
33057000,0.0324,0.013523,0.002678,0.000431,0.004113
33058000,0.0324,0.013523,0.002678,0.000431,0.001880
33059000,0.0324,0.013523,0.002678,0.000431,0.004231
33060000,0.0324,0.013523,0.002678,0.000431,0.001058
33061000,0.0324,0.013523,0.002678,0.000431,0.000705
33062000,0.0324,0.013523,0.002678,0.000431,0.000940
33063000,0.0324,0.013523,0.002678,0.000431,0.001645
33064000,0.0324,0.013523,0.002678,0.000431,0.287239
33065000,0.0324,0.013523,0.002678,0.000431,0.685777
33066000,0.0324,0.013523,0.002678,0.000431,0.351057
33067000,0.0324,0.013523,0.002678,0.000431,0.136215
33068000,0.0324,0.013523,0.002678,0.000431,0.173589
33069000,0.0324,0.013523,0.002678,0.000431,0.638413
33070000,0.0324,0.013523,0.002678,0.000431,0.278777
33071000,0.0324,0.013523,0.002678,0.000431,0.245634
33072000,0.0324,0.013523,0.002678,0.000431,0.198623
33073000,0.0324,0.013523,0.002678,0.000431,0.144442
33074000,0.0324,0.013523,0.002678,0.000431,0.143972
33075000,0.0324,0.013523,0.002678,0.000431,0.234116
33076000,0.0324,0.013523,0.002678,0.000431,0.422984
33077000,0.0324,0.013523,0.002678,0.000431,0.167948
33078000,0.0324,0.013523,0.002678,0.000431,0.136450
33079000,0.0324,0.013523,0.002678,0.000431,0.123992
33080000,0.0324,0.013523,0.002678,0.000431,0.103660
33081000,0.0324,0.013523,0.002678,0.000431,0.092495
33082000,0.0324,0.013523,0.002678,0.000431,0.089674
33083000,0.0324,0.013523,0.002678,0.000431,0.072515
33084000,0.0324,0.013523,0.002678,0.000431,0.065933
33085000,0.0324,0.013523,0.002678,0.000431,0.056531
33086000,0.0324,0.013523,0.002678,0.000431,0.047951
33087000,0.0324,0.013523,0.002678,0.000431,0.041605
33088000,0.0324,0.013523,0.002678,0.000431,0.039489
33089000,0.0324,0.013523,0.002678,0.000431,0.036434
33090000,0.0324,0.013523,0.002678,0.000431,0.027619
33091000,0.0324,0.013523,0.002678,0.000431,0.030205
33092000,0.0324,0.013523,0.002678,0.000431,0.033143
33093000,0.0324,0.013523,0.002678,0.000431,0.028677
33094000,0.0324,0.013523,0.002678,0.000431,0.020685
33095000,0.0324,0.013523,0.002678,0.000431,0.021743
33096000,0.0324,0.013523,0.002678,0.000431,0.015514
33097000,0.0324,0.013523,0.002678,0.000431,0.018687
33098000,0.0324,0.013523,0.002678,0.000431,0.011988
33099000,0.0324,0.013523,0.002678,0.000431,0.008462
33100000,0.0324,0.013523,0.002678,0.000431,0.006229
33101000,0.0324,0.013523,0.002678,0.000431,0.005994
33102000,0.0324,0.013523,0.002678,0.000431,0.008697
33103000,0.0324,0.013523,0.002678,0.000431,0.005171
33104000,0.0324,0.013523,0.002678,0.000431,0.003173
33105000,0.0324,0.013523,0.002678,0.000431,0.003408
33106000,0.0324,0.013523,0.002678,0.000431,0.002703
33107000,0.0324,0.013523,0.002678,0.000431,0.002586
33108000,0.0324,0.013523,0.002678,0.000431,0.002468
33109000,0.0324,0.013523,0.002678,0.000431,0.002586
33110000,0.0324,0.013523,0.002678,0.000431,0.002468
33111000,0.0324,0.013523,0.002678,0.000431,0.002351
33112000,0.0324,0.013523,0.002678,0.000431,0.002703
33113000,0.0324,0.013523,0.002678,0.000431,0.003996
33114000,0.0324,0.013523,0.002678,0.000431,0.001645
33115000,0.0324,0.013523,0.002678,0.000431,0.003173
33116000,0.0324,0.013523,0.002678,0.000431,0.000705
33117000,0.0324,0.013523,0.002678,0.000431,0.000940
33118000,0.0324,0.013523,0.002678,0.000431,0.000823
33119000,0.0324,0.013523,0.002678,0.000431,0.000823
33120000,0.0324,0.013523,0.002678,0.000431,0.000823
33121000,0.0324,0.013523,0.002678,0.000431,0.000823
33122000,0.0324,0.013523,0.002678,0.000431,0.000940
33123000,0.0324,0.013523,0.002678,0.000431,0.000823
33124000,0.0324,0.013523,0.002678,0.000431,0.000823
33125000,0.0324,0.013523,0.002678,0.000431,0.000823
33126000,0.0324,0.013523,0.002678,0.000431,0.000823
33127000,0.0324,0.013523,0.002678,0.000431,0.000823
33128000,0.0324,0.013523,0.002678,0.000431,0.000823
33129000,0.0324,0.013523,0.002678,0.000431,0.000823
33130000,0.0324,0.013523,0.002678,0.000431,0.000823
33131000,0.0324,0.013523,0.002678,0.000431,0.000940
33132000,0.0324,0.013523,0.002678,0.000431,0.000705
33133000,0.0324,0.013523,0.002678,0.000431,0.000940
33134000,0.0324,0.013523,0.002678,0.000431,0.000705
33135000,0.0324,0.013523,0.002678,0.000431,0.000940
33136000,0.0324,0.013523,0.002678,0.000431,0.000940
33137000,0.0324,0.013523,0.002678,0.000431,0.000705
33138000,0.0324,0.013523,0.002678,0.000431,0.000940
33139000,0.0324,0.013523,0.002678,0.000431,0.000705
33140000,0.0324,0.013523,0.002678,0.000431,0.000940
33141000,0.0324,0.013523,0.002678,0.000431,0.000823
33142000,0.0324,0.013523,0.002678,0.000431,0.000823
33143000,0.0324,0.013523,0.002678,0.000431,0.000823
33144000,0.0324,0.013523,0.002678,0.000431,0.000823
33145000,0.0324,0.013523,0.002678,0.000431,0.000940
33146000,0.0324,0.013523,0.002678,0.000431,0.000705
33147000,0.0324,0.013523,0.002678,0.000431,0.000940
33148000,0.0324,0.013523,0.002678,0.000431,0.000940
33149000,0.0324,0.013523,0.002678,0.000431,0.000705
33150000,0.0324,0.013523,0.002678,0.000431,0.000940
33151000,0.0324,0.013523,0.002678,0.000431,0.000705
33152000,0.0324,0.013523,0.002678,0.000431,0.000940
33153000,0.0324,0.013523,0.002678,0.000431,0.000940
33154000,0.0324,0.013523,0.002678,0.000431,0.000823
33155000,0.0324,0.013523,0.002678,0.000431,0.000823
33156000,0.0324,0.013523,0.002678,0.000431,0.003291
33157000,0.0324,0.013523,0.002678,0.000431,0.515479
33158000,0.0324,0.013523,0.002678,0.000431,0.727147
33159000,0.0324,0.013523,0.002678,0.000431,0.137273
33160000,0.0324,0.013523,0.002678,0.000431,0.133042
33161000,0.0324,0.013523,0.002678,0.000431,0.219308
33162000,0.0324,0.013523,0.002678,0.000431,0.515596
33163000,0.0324,0.013523,0.002678,0.000431,0.245986
33164000,0.0324,0.013523,0.002678,0.000431,0.321205
33165000,0.0324,0.013523,0.002678,0.000431,0.193804
33166000,0.0324,0.013523,0.002678,0.000431,0.144560
33167000,0.0324,0.013523,0.002678,0.000431,0.145852
33168000,0.0324,0.013523,0.002678,0.000431,0.228827
33169000,0.0324,0.013523,0.002678,0.000431,0.422984
33170000,0.0324,0.013523,0.002678,0.000431,0.137155
33171000,0.0324,0.013523,0.002678,0.000431,0.105423
33172000,0.0324,0.013523,0.002678,0.000431,0.087794
33173000,0.0324,0.013523,0.002678,0.000431,0.090732
33174000,0.0324,0.013523,0.002678,0.000431,0.074748
33175000,0.0324,0.013523,0.002678,0.000431,0.060880
33176000,0.0324,0.013523,0.002678,0.000431,0.061702
33177000,0.0324,0.013523,0.002678,0.000431,0.043250
33178000,0.0324,0.013523,0.002678,0.000431,0.037256
33179000,0.0324,0.013523,0.002678,0.000431,0.034788
33180000,0.0324,0.013523,0.002678,0.000431,0.023036
33181000,0.0324,0.013523,0.002678,0.000431,0.023976
33182000,0.0324,0.013523,0.002678,0.000431,0.026209
33183000,0.0324,0.013523,0.002678,0.000431,0.021625
33184000,0.0324,0.013523,0.002678,0.000431,0.016219
33185000,0.0324,0.013523,0.002678,0.000431,0.014338
33186000,0.0324,0.013523,0.002678,0.000431,0.019862
33187000,0.0324,0.013523,0.002678,0.000431,0.014221
33188000,0.0324,0.013523,0.002678,0.000431,0.011518
33189000,0.0324,0.013523,0.002678,0.000431,0.009167
33190000,0.0324,0.013523,0.002678,0.000431,0.010225
33191000,0.0324,0.013523,0.002678,0.000431,0.008345
33192000,0.0324,0.013523,0.002678,0.000431,0.007169
33193000,0.0324,0.013523,0.002678,0.000431,0.012223
33194000,0.0324,0.013523,0.002678,0.000431,0.007992
33195000,0.0324,0.013523,0.002678,0.000431,0.007757
33196000,0.0324,0.013523,0.002678,0.000431,0.003761
33197000,0.0324,0.013523,0.002678,0.000431,0.003056
33198000,0.0324,0.013523,0.002678,0.000431,0.003526
33199000,0.0324,0.013523,0.002678,0.000431,0.005641
33200000,0.0324,0.013523,0.002678,0.000431,0.002468
33201000,0.0324,0.013523,0.002678,0.000431,0.002586
33202000,0.0324,0.013523,0.002678,0.000431,0.004113
33203000,0.0324,0.013523,0.002678,0.000431,0.001058
33204000,0.0324,0.013523,0.002678,0.000431,0.000823
33205000,0.0324,0.013523,0.002678,0.000431,0.000823
33206000,0.0324,0.013523,0.002678,0.000431,0.000823
33207000,0.0324,0.013523,0.002678,0.000431,0.000823
33208000,0.0324,0.013523,0.002678,0.000431,0.000940
33209000,0.0324,0.013523,0.002678,0.000431,0.000705
33210000,0.0324,0.013523,0.002678,0.000431,0.000940
33211000,0.0324,0.013523,0.002678,0.000431,0.000823
33212000,0.0324,0.013523,0.002678,0.000431,0.000823
33213000,0.0324,0.013523,0.002678,0.000431,0.000823
33214000,0.0324,0.013523,0.002678,0.000431,0.000823
33215000,0.0324,0.013523,0.002678,0.000431,0.000940
33216000,0.0324,0.013523,0.002678,0.000431,0.000705
33217000,0.0324,0.013523,0.002678,0.000431,0.000823
33218000,0.0324,0.013523,0.002678,0.000431,0.000823
33219000,0.0324,0.013523,0.002678,0.000431,0.000940
33220000,0.0324,0.013523,0.002678,0.000431,0.000823
33221000,0.0324,0.013523,0.002678,0.000431,0.000823
33222000,0.0324,0.013523,0.002678,0.000431,0.000705
33223000,0.0324,0.013523,0.002678,0.000431,0.000940
33224000,0.0324,0.013523,0.002678,0.000431,0.000940
33225000,0.0324,0.013523,0.002678,0.000431,0.000705
33226000,0.0324,0.013523,0.002678,0.000431,0.000940
33227000,0.0324,0.013523,0.002678,0.000431,0.000705
33228000,0.0324,0.013523,0.002678,0.000431,0.000940
33229000,0.0324,0.013523,0.002678,0.000431,0.000823
33230000,0.0324,0.013523,0.002678,0.000431,0.000823
33231000,0.0324,0.013523,0.002678,0.000431,0.000940
33232000,0.0324,0.013523,0.002678,0.000431,0.000705
33233000,0.0324,0.013523,0.002678,0.000431,0.000940
33234000,0.0324,0.013523,0.002678,0.000431,0.000823
33235000,0.0324,0.013523,0.002678,0.000431,0.000823
33236000,0.0324,0.013523,0.002678,0.000431,0.000823
33237000,0.0324,0.013523,0.002678,0.000431,0.000823
33238000,0.0324,0.013523,0.002678,0.000431,0.000823
33239000,0.0324,0.013523,0.002678,0.000431,0.000823
33240000,0.0324,0.013523,0.002678,0.000431,0.000940
33241000,0.0324,0.013523,0.002678,0.000431,0.000705
33242000,0.0324,0.013523,0.002678,0.000431,0.000940
33243000,0.0324,0.013523,0.002678,0.000431,0.000823
33244000,0.0324,0.013523,0.002678,0.000431,0.000823
33245000,0.0324,0.013523,0.002678,0.000431,0.000823
33246000,0.0324,0.013523,0.002678,0.000431,0.000823
33247000,0.0324,0.013523,0.002678,0.000431,0.000823
33248000,0.0324,0.013523,0.002678,0.000431,0.000823
33249000,0.0324,0.013523,0.002678,0.000431,0.000940
33250000,0.0324,0.013523,0.002678,0.000431,0.000940
33251000,0.0324,0.013523,0.002678,0.000431,0.000823
33252000,0.0324,0.013523,0.002678,0.000431,0.000823
33253000,0.0324,0.013523,0.002678,0.000431,0.000823
33254000,0.0324,0.013523,0.002678,0.000431,0.000823
33255000,0.0324,0.013523,0.002678,0.000431,0.001998
33256000,0.0324,0.013523,0.002678,0.000431,0.409468
33257000,0.0324,0.013523,0.002678,0.000431,0.699058
33258000,0.0324,0.013523,0.002678,0.000431,0.215077
33259000,0.0324,0.013523,0.002678,0.000431,0.133630
33260000,0.0324,0.013523,0.002678,0.000431,0.184284
33261000,0.0324,0.013523,0.002678,0.000431,0.569777
33262000,0.0324,0.013523,0.002678,0.000431,0.291940
33263000,0.0324,0.013523,0.002678,0.000431,0.297346
33264000,0.0324,0.013523,0.002678,0.000431,0.188633
33265000,0.0324,0.013523,0.002678,0.000431,0.146205
33266000,0.0324,0.013523,0.002678,0.000431,0.118468
33267000,0.0324,0.013523,0.002678,0.000431,0.318149
33268000,0.0324,0.013523,0.002678,0.000431,0.342242
33269000,0.0324,0.013523,0.002678,0.000431,0.133630
33270000,0.0324,0.013523,0.002678,0.000431,0.116118
33271000,0.0324,0.013523,0.002678,0.000431,0.098254
33272000,0.0324,0.013523,0.002678,0.000431,0.097313
33273000,0.0324,0.013523,0.002678,0.000431,0.078744
33274000,0.0324,0.013523,0.002678,0.000431,0.067109
33275000,0.0324,0.013523,0.002678,0.000431,0.061350
33276000,0.0324,0.013523,0.002678,0.000431,0.057589
33277000,0.0324,0.013523,0.002678,0.000431,0.047951
33278000,0.0324,0.013523,0.002678,0.000431,0.039372
33279000,0.0324,0.013523,0.002678,0.000431,0.038197
33280000,0.0324,0.013523,0.002678,0.000431,0.031968
33281000,0.0324,0.013523,0.002678,0.000431,0.025504
33282000,0.0324,0.013523,0.002678,0.000431,0.022565
33283000,0.0324,0.013523,0.002678,0.000431,0.021155
33284000,0.0324,0.013523,0.002678,0.000431,0.021390
33285000,0.0324,0.013523,0.002678,0.000431,0.019510
33286000,0.0324,0.013523,0.002678,0.000431,0.018922
33287000,0.0324,0.013523,0.002678,0.000431,0.020802
33288000,0.0324,0.013523,0.002678,0.000431,0.017159
33289000,0.0324,0.013523,0.002678,0.000431,0.020450
33290000,0.0324,0.013523,0.002678,0.000431,0.017159
33291000,0.0324,0.013523,0.002678,0.000431,0.014103
33292000,0.0324,0.013523,0.002678,0.000431,0.018569
33293000,0.0324,0.013523,0.002678,0.000431,0.015631
33294000,0.0324,0.013523,0.002678,0.000431,0.011635
33295000,0.0324,0.013523,0.002678,0.000431,0.014456
33296000,0.0324,0.013523,0.002678,0.000431,0.013868
33297000,0.0324,0.013523,0.002678,0.000431,0.011283
33298000,0.0324,0.013523,0.002678,0.000431,0.009637
33299000,0.0324,0.013523,0.002678,0.000431,0.007404
33300000,0.0324,0.013523,0.002678,0.000431,0.006934
33301000,0.0324,0.013523,0.002678,0.000431,0.007874
33302000,0.0324,0.013523,0.002678,0.000431,0.009050
33303000,0.0324,0.013523,0.002678,0.000431,0.006464
33304000,0.0324,0.013523,0.002678,0.000431,0.006582
33305000,0.0324,0.013523,0.002678,0.000431,0.007992
33306000,0.0324,0.013523,0.002678,0.000431,0.005171
33307000,0.0324,0.013523,0.002678,0.000431,0.004701
33308000,0.0324,0.013523,0.002678,0.000431,0.005171
33309000,0.0324,0.013523,0.002678,0.000431,0.005524
33310000,0.0324,0.013523,0.002678,0.000431,0.004819
33311000,0.0324,0.013523,0.002678,0.000431,0.007404
33312000,0.0324,0.013523,0.002678,0.000431,0.003996
33313000,0.0324,0.013523,0.002678,0.000431,0.004466
33314000,0.0324,0.013523,0.002678,0.000431,0.004113
33315000,0.0324,0.013523,0.002678,0.000431,0.003878
33316000,0.0324,0.013523,0.002678,0.000431,0.004349
33317000,0.0324,0.013523,0.002678,0.000431,0.003996
33318000,0.0324,0.013523,0.002678,0.000431,0.004231
33319000,0.0324,0.013523,0.002678,0.000431,0.004231
33320000,0.0324,0.013523,0.002678,0.000431,0.004113
33321000,0.0324,0.013523,0.002678,0.000431,0.003996
33322000,0.0324,0.013523,0.002678,0.000431,0.004231
33323000,0.0324,0.013523,0.002678,0.000431,0.004466
33324000,0.0324,0.013523,0.002678,0.000431,0.005171
33325000,0.0324,0.013523,0.002678,0.000431,0.004819
33326000,0.0324,0.013523,0.002678,0.000431,0.003291
33327000,0.0324,0.013523,0.002678,0.000431,0.001058
33328000,0.0324,0.013523,0.002678,0.000431,0.000823
33329000,0.0324,0.013523,0.002678,0.000431,0.000823
33330000,0.0324,0.013523,0.002678,0.000431,0.000940
33331000,0.0324,0.013523,0.002678,0.000431,0.000940
33332000,0.0324,0.013523,0.002678,0.000431,0.000823
33333000,0.0324,0.013523,0.002678,0.000431,0.000940
33334000,0.0324,0.013523,0.002678,0.000431,0.000823
33335000,0.0324,0.013523,0.002678,0.000431,0.000940
33336000,0.0324,0.013523,0.002678,0.000431,0.000940
33337000,0.0324,0.013523,0.002678,0.000431,0.000823
33338000,0.0324,0.013523,0.002678,0.000431,0.000823
33339000,0.0324,0.013523,0.002678,0.000431,0.000940
33340000,0.0324,0.013523,0.002678,0.000431,0.000940
33341000,0.0324,0.013523,0.002678,0.000431,0.000940
33342000,0.0324,0.013523,0.002678,0.000431,0.000940
33343000,0.0324,0.013523,0.002678,0.000431,0.000940
33344000,0.0324,0.013523,0.002678,0.000431,0.257504
33345000,0.0324,0.013523,0.002678,0.000431,0.668148
33346000,0.0324,0.013523,0.002678,0.000431,0.374915
33347000,0.0324,0.013523,0.002678,0.000431,0.130691
33348000,0.0324,0.013523,0.002678,0.000431,0.138566
33349000,0.0324,0.013523,0.002678,0.000431,0.613615
33350000,0.0324,0.013523,0.002678,0.000431,0.217780
33351000,0.0324,0.013523,0.002678,0.000431,0.326258
33352000,0.0324,0.013523,0.002678,0.000431,0.270902
33353000,0.0324,0.013523,0.002678,0.000431,0.143149
33354000,0.0324,0.013523,0.002678,0.000431,0.141857
33355000,0.0324,0.013523,0.002678,0.000431,0.198035
33356000,0.0324,0.013523,0.002678,0.000431,0.419811
33357000,0.0324,0.013523,0.002678,0.000431,0.147733
33358000,0.0324,0.013523,0.002678,0.000431,0.125990
33359000,0.0324,0.013523,0.002678,0.000431,0.105423
33360000,0.0324,0.013523,0.002678,0.000431,0.093552
33361000,0.0324,0.013523,0.002678,0.000431,0.081565
33362000,0.0324,0.013523,0.002678,0.000431,0.075806
33363000,0.0324,0.013523,0.002678,0.000431,0.065228
33364000,0.0324,0.013523,0.002678,0.000431,0.058294
33365000,0.0324,0.013523,0.002678,0.000431,0.047129
33366000,0.0324,0.013523,0.002678,0.000431,0.045483
33367000,0.0324,0.013523,0.002678,0.000431,0.034436
33368000,0.0324,0.013523,0.002678,0.000431,0.032320
33369000,0.0324,0.013523,0.002678,0.000431,0.030322
33370000,0.0324,0.013523,0.002678,0.000431,0.027267
33371000,0.0324,0.013523,0.002678,0.000431,0.026561
33372000,0.0324,0.013523,0.002678,0.000431,0.017512
33373000,0.0324,0.013523,0.002678,0.000431,0.016219
33374000,0.0324,0.013523,0.002678,0.000431,0.015866
33375000,0.0324,0.013523,0.002678,0.000431,0.016454
33376000,0.0324,0.013523,0.002678,0.000431,0.013751
33377000,0.0324,0.013523,0.002678,0.000431,0.014691
33378000,0.0324,0.013523,0.002678,0.000431,0.014573
33379000,0.0324,0.013523,0.002678,0.000431,0.012576
33380000,0.0324,0.013523,0.002678,0.000431,0.011518
33381000,0.0324,0.013523,0.002678,0.000431,0.010107
33382000,0.0324,0.013523,0.002678,0.000431,0.009990
33383000,0.0324,0.013523,0.002678,0.000431,0.012458
33384000,0.0324,0.013523,0.002678,0.000431,0.009167
33385000,0.0324,0.013523,0.002678,0.000431,0.006934
33386000,0.0324,0.013523,0.002678,0.000431,0.005406
33387000,0.0324,0.013523,0.002678,0.000431,0.006229
33388000,0.0324,0.013523,0.002678,0.000431,0.005994
33389000,0.0324,0.013523,0.002678,0.000431,0.008697
33390000,0.0324,0.013523,0.002678,0.000431,0.004466
33391000,0.0324,0.013523,0.002678,0.000431,0.004113
33392000,0.0324,0.013523,0.002678,0.000431,0.004231
33393000,0.0324,0.013523,0.002678,0.000431,0.005289
33394000,0.0324,0.013523,0.002678,0.000431,0.003408
33395000,0.0324,0.013523,0.002678,0.000431,0.003526
33396000,0.0324,0.013523,0.002678,0.000431,0.003173
33397000,0.0324,0.013523,0.002678,0.000431,0.003526
33398000,0.0324,0.013523,0.002678,0.000431,0.003291
33399000,0.0324,0.013523,0.002678,0.000431,0.005054
33400000,0.0324,0.013523,0.002678,0.000431,0.004349
33401000,0.0324,0.013523,0.002678,0.000431,0.002468
33402000,0.0324,0.013523,0.002678,0.000431,0.002586
33403000,0.0324,0.013523,0.002678,0.000431,0.002703
33404000,0.0324,0.013523,0.002678,0.000431,0.002351
33405000,0.0324,0.013523,0.002678,0.000431,0.002586
33406000,0.0324,0.013523,0.002678,0.000431,0.002468
33407000,0.0324,0.013523,0.002678,0.000431,0.004466
33408000,0.0324,0.013523,0.002678,0.000431,0.003761
33409000,0.0324,0.013523,0.002678,0.000431,0.001763
33410000,0.0324,0.013523,0.002678,0.000431,0.001645
33411000,0.0324,0.013523,0.002678,0.000431,0.001880
33412000,0.0324,0.013523,0.002678,0.000431,0.001763
33413000,0.0324,0.013523,0.002678,0.000431,0.001528
33414000,0.0324,0.013523,0.002678,0.000431,0.001880
33415000,0.0324,0.013523,0.002678,0.000431,0.001645
33416000,0.0324,0.013523,0.002678,0.000431,0.001880
33417000,0.0324,0.013523,0.002678,0.000431,0.001645
33418000,0.0324,0.013523,0.002678,0.000431,0.001763
33419000,0.0324,0.013523,0.002678,0.000431,0.003291
33420000,0.0324,0.013523,0.002678,0.000431,0.000705
33421000,0.0324,0.013523,0.002678,0.000431,0.000940
33422000,0.0324,0.013523,0.002678,0.000431,0.000823
33423000,0.0324,0.013523,0.002678,0.000431,0.000823
33424000,0.0324,0.013523,0.002678,0.000431,0.000823
33425000,0.0324,0.013523,0.002678,0.000431,0.000823
33426000,0.0324,0.013523,0.002678,0.000431,0.000823
33427000,0.0324,0.013523,0.002678,0.000431,0.000823
33428000,0.0324,0.013523,0.002678,0.000431,0.000940
33429000,0.0324,0.013523,0.002678,0.000431,0.000823
33430000,0.0324,0.013523,0.002678,0.000431,0.000823
33431000,0.0324,0.013523,0.002678,0.000431,0.000823
33432000,0.0324,0.013523,0.002678,0.000431,0.000823
33433000,0.0324,0.013523,0.002678,0.000431,0.000705
33434000,0.0324,0.013523,0.002678,0.000431,0.000940
33435000,0.0324,0.013523,0.002678,0.000431,0.000940
33436000,0.0324,0.013523,0.002678,0.000431,0.000705
33437000,0.0324,0.013523,0.002678,0.000431,0.000940
33438000,0.0324,0.013523,0.002678,0.000431,0.000705
33439000,0.0324,0.013523,0.002678,0.000431,0.000940
33440000,0.0324,0.013523,0.002678,0.000431,0.000940
33441000,0.0324,0.013523,0.002678,0.000431,0.000705
33442000,0.0324,0.013523,0.002678,0.000431,0.000940
33443000,0.0324,0.013523,0.002678,0.000431,0.000705
33444000,0.0324,0.013523,0.002678,0.000431,0.000823
33445000,0.0324,0.013523,0.002678,0.000431,0.000823
33446000,0.0324,0.013523,0.002678,0.000431,0.000940
33447000,0.0324,0.013523,0.002678,0.000431,0.000705
33448000,0.0324,0.013523,0.002678,0.000431,0.000940
33449000,0.0324,0.013523,0.002678,0.000431,0.000705
33450000,0.0324,0.013523,0.002678,0.000431,0.000940
33451000,0.0324,0.013523,0.002678,0.000431,0.000823
33452000,0.0324,0.013523,0.002678,0.000431,0.000823
33453000,0.0324,0.013523,0.002678,0.000431,0.000823
33454000,0.0324,0.013523,0.002678,0.000431,0.000823
33455000,0.0324,0.013523,0.002678,0.000431,0.000823
33456000,0.0324,0.013523,0.002678,0.000431,0.050067
33457000,0.0324,0.013523,0.002678,0.000431,0.572245
33458000,0.0324,0.013523,0.002678,0.000431,0.610324
33459000,0.0324,0.013523,0.002678,0.000431,0.131632
33460000,0.0324,0.013523,0.002678,0.000431,0.134922
33461000,0.0324,0.013523,0.002678,0.000431,0.603507
33462000,0.0324,0.013523,0.002678,0.000431,0.239757
33463000,0.0324,0.013523,0.002678,0.000431,0.233646
33464000,0.0324,0.013523,0.002678,0.000431,0.292175
33465000,0.0324,0.013523,0.002678,0.000431,0.147028
33466000,0.0324,0.013523,0.002678,0.000431,0.151024
33467000,0.0324,0.013523,0.002678,0.000431,0.109654
33468000,0.0324,0.013523,0.002678,0.000431,0.371389
33469000,0.0324,0.013523,0.002678,0.000431,0.320382
33470000,0.0324,0.013523,0.002678,0.000431,0.145030
33471000,0.0324,0.013523,0.002678,0.000431,0.124110
33472000,0.0324,0.013523,0.002678,0.000431,0.109889
33473000,0.0324,0.013523,0.002678,0.000431,0.093435
33474000,0.0324,0.013523,0.002678,0.000431,0.092965
33475000,0.0324,0.013523,0.002678,0.000431,0.070869
33476000,0.0324,0.013523,0.002678,0.000431,0.064288
33477000,0.0324,0.013523,0.002678,0.000431,0.056531
33478000,0.0324,0.013523,0.002678,0.000431,0.057824
33479000,0.0324,0.013523,0.002678,0.000431,0.040195
33480000,0.0324,0.013523,0.002678,0.000431,0.037609
33481000,0.0324,0.013523,0.002678,0.000431,0.030322
33482000,0.0324,0.013523,0.002678,0.000431,0.032908
33483000,0.0324,0.013523,0.002678,0.000431,0.025504
33484000,0.0324,0.013523,0.002678,0.000431,0.020685
33485000,0.0324,0.013523,0.002678,0.000431,0.014691
33486000,0.0324,0.013523,0.002678,0.000431,0.017159
33487000,0.0324,0.013523,0.002678,0.000431,0.018452
33488000,0.0324,0.013523,0.002678,0.000431,0.016807
33489000,0.0324,0.013523,0.002678,0.000431,0.007639
33490000,0.0324,0.013523,0.002678,0.000431,0.010695
33491000,0.0324,0.013523,0.002678,0.000431,0.006934
33492000,0.0324,0.013523,0.002678,0.000431,0.011048
33493000,0.0324,0.013523,0.002678,0.000431,0.005406
33494000,0.0324,0.013523,0.002678,0.000431,0.009285
33495000,0.0324,0.013523,0.002678,0.000431,0.007052
33496000,0.0324,0.013523,0.002678,0.000431,0.002468
33497000,0.0324,0.013523,0.002678,0.000431,0.003643
33498000,0.0324,0.013523,0.002678,0.000431,0.003173
33499000,0.0324,0.013523,0.002678,0.000431,0.001763
33500000,0.0324,0.013523,0.002678,0.000431,0.001880
33501000,0.0324,0.013523,0.002678,0.000431,0.001645
33502000,0.0324,0.013523,0.002678,0.000431,0.001880
33503000,0.0324,0.013523,0.002678,0.000431,0.001763
33504000,0.0324,0.013523,0.002678,0.000431,0.003408
33505000,0.0324,0.013523,0.002678,0.000431,0.000823
33506000,0.0324,0.013523,0.002678,0.000431,0.000940
33507000,0.0324,0.013523,0.002678,0.000431,0.000940
33508000,0.0324,0.013523,0.002678,0.000431,0.000705
33509000,0.0324,0.013523,0.002678,0.000431,0.000940
33510000,0.0324,0.013523,0.002678,0.000431,0.000705
33511000,0.0324,0.013523,0.002678,0.000431,0.000940
33512000,0.0324,0.013523,0.002678,0.000431,0.000823
33513000,0.0324,0.013523,0.002678,0.000431,0.000823
33514000,0.0324,0.013523,0.002678,0.000431,0.000940
33515000,0.0324,0.013523,0.002678,0.000431,0.000705
33516000,0.0324,0.013523,0.002678,0.000431,0.000940
33517000,0.0324,0.013523,0.002678,0.000431,0.000823
33518000,0.0324,0.013523,0.002678,0.000431,0.000823
33519000,0.0324,0.013523,0.002678,0.000431,0.000823
33520000,0.0324,0.013523,0.002678,0.000431,0.000823
33521000,0.0324,0.013523,0.002678,0.000431,0.000940
33522000,0.0324,0.013523,0.002678,0.000431,0.000705
33523000,0.0324,0.013523,0.002678,0.000431,0.000940
33524000,0.0324,0.013523,0.002678,0.000431,0.000823
33525000,0.0324,0.013523,0.002678,0.000431,0.000705
33526000,0.0324,0.013523,0.002678,0.000431,0.000940
33527000,0.0324,0.013523,0.002678,0.000431,0.000823
33528000,0.0324,0.013523,0.002678,0.000431,0.000823
33529000,0.0324,0.013523,0.002678,0.000431,0.000823
33530000,0.0324,0.013523,0.002678,0.000431,0.000823
33531000,0.0324,0.013523,0.002678,0.000431,0.000823
33532000,0.0324,0.013523,0.002678,0.000431,0.000940
33533000,0.0324,0.013523,0.002678,0.000431,0.000823
33534000,0.0324,0.013523,0.002678,0.000431,0.000823
33535000,0.0324,0.013523,0.002678,0.000431,0.000705
33536000,0.0324,0.013523,0.002678,0.000431,0.000940
33537000,0.0324,0.013523,0.002678,0.000431,0.000940
33538000,0.0324,0.013523,0.002678,0.000431,0.000705
33539000,0.0324,0.013523,0.002678,0.000431,0.000940
33540000,0.0324,0.013523,0.002678,0.000431,0.000705
33541000,0.0324,0.013523,0.002678,0.000431,0.000940
33542000,0.0324,0.013523,0.002678,0.000431,0.000940
33543000,0.0324,0.013523,0.002678,0.000431,0.000823
33544000,0.0324,0.013523,0.002678,0.000431,0.000940
33545000,0.0324,0.013523,0.002678,0.000431,0.000823
33546000,0.0324,0.013523,0.002678,0.000431,0.003056
33547000,0.0324,0.013523,0.002678,0.000431,0.448017
33548000,0.0324,0.013523,0.002678,0.000431,0.758644
33549000,0.0324,0.013523,0.002678,0.000431,0.141269
33550000,0.0324,0.013523,0.002678,0.000431,0.133512
33551000,0.0324,0.013523,0.002678,0.000431,0.218955
33552000,0.0324,0.013523,0.002678,0.000431,0.589286
33553000,0.0324,0.013523,0.002678,0.000431,0.240110
33554000,0.0324,0.013523,0.002678,0.000431,0.322850
33555000,0.0324,0.013523,0.002678,0.000431,0.171591
33556000,0.0324,0.013523,0.002678,0.000431,0.149143
33557000,0.0324,0.013523,0.002678,0.000431,0.109301
33558000,0.0324,0.013523,0.002678,0.000431,0.356110
33559000,0.0324,0.013523,0.002678,0.000431,0.322615
33560000,0.0324,0.013523,0.002678,0.000431,0.125050
33561000,0.0324,0.013523,0.002678,0.000431,0.105893
33562000,0.0324,0.013523,0.002678,0.000431,0.095903
33563000,0.0324,0.013523,0.002678,0.000431,0.077216
33564000,0.0324,0.013523,0.002678,0.000431,0.068989
33565000,0.0324,0.013523,0.002678,0.000431,0.050890
33566000,0.0324,0.013523,0.002678,0.000431,0.042898
33567000,0.0324,0.013523,0.002678,0.000431,0.039019
33568000,0.0324,0.013523,0.002678,0.000431,0.046424
33569000,0.0324,0.013523,0.002678,0.000431,0.027502
33570000,0.0324,0.013523,0.002678,0.000431,0.024328
33571000,0.0324,0.013523,0.002678,0.000431,0.025034
33572000,0.0324,0.013523,0.002678,0.000431,0.025151
33573000,0.0324,0.013523,0.002678,0.000431,0.019275
33574000,0.0324,0.013523,0.002678,0.000431,0.013516
33575000,0.0324,0.013523,0.002678,0.000431,0.015396
33576000,0.0324,0.013523,0.002678,0.000431,0.010225
33577000,0.0324,0.013523,0.002678,0.000431,0.007169
33578000,0.0324,0.013523,0.002678,0.000431,0.007287
33579000,0.0324,0.013523,0.002678,0.000431,0.006699
33580000,0.0324,0.013523,0.002678,0.000431,0.007169
33581000,0.0324,0.013523,0.002678,0.000431,0.007404
33582000,0.0324,0.013523,0.002678,0.000431,0.004466
33583000,0.0324,0.013523,0.002678,0.000431,0.004231
33584000,0.0324,0.013523,0.002678,0.000431,0.004349
33585000,0.0324,0.013523,0.002678,0.000431,0.004466
33586000,0.0324,0.013523,0.002678,0.000431,0.004349
33587000,0.0324,0.013523,0.002678,0.000431,0.004231
33588000,0.0324,0.013523,0.002678,0.000431,0.004113
33589000,0.0324,0.013523,0.002678,0.000431,0.004584
33590000,0.0324,0.013523,0.002678,0.000431,0.004466
33591000,0.0324,0.013523,0.002678,0.000431,0.007052
33592000,0.0324,0.013523,0.002678,0.000431,0.002821
33593000,0.0324,0.013523,0.002678,0.000431,0.004701
33594000,0.0324,0.013523,0.002678,0.000431,0.001880
33595000,0.0324,0.013523,0.002678,0.000431,0.001645
33596000,0.0324,0.013523,0.002678,0.000431,0.001645
33597000,0.0324,0.013523,0.002678,0.000431,0.001880
33598000,0.0324,0.013523,0.002678,0.000431,0.001763
33599000,0.0324,0.013523,0.002678,0.000431,0.001880
33600000,0.0324,0.013523,0.002678,0.000431,0.002468
33601000,0.0324,0.013523,0.002678,0.000431,0.001998
33602000,0.0324,0.013523,0.002678,0.000431,0.000940
33603000,0.0324,0.013523,0.002678,0.000431,0.001645
33604000,0.0324,0.013523,0.002678,0.000431,0.349881
33605000,0.0324,0.013523,0.002678,0.000431,0.687657
33606000,0.0324,0.013523,0.002678,0.000431,0.281362
33607000,0.0324,0.013523,0.002678,0.000431,0.135275
33608000,0.0324,0.013523,0.002678,0.000431,0.182286
33609000,0.0324,0.013523,0.002678,0.000431,0.599981
33610000,0.0324,0.013523,0.002678,0.000431,0.301695
33611000,0.0324,0.013523,0.002678,0.000431,0.254684
33612000,0.0324,0.013523,0.002678,0.000431,0.206850
33613000,0.0324,0.013523,0.002678,0.000431,0.147028
33614000,0.0324,0.013523,0.002678,0.000431,0.133630
33615000,0.0324,0.013523,0.002678,0.000431,0.250335
33616000,0.0324,0.013523,0.002678,0.000431,0.380556
33617000,0.0324,0.013523,0.002678,0.000431,0.128576
33618000,0.0324,0.013523,0.002678,0.000431,0.111887
33619000,0.0324,0.013523,0.002678,0.000431,0.087794
33620000,0.0324,0.013523,0.002678,0.000431,0.071575
33621000,0.0324,0.013523,0.002678,0.000431,0.065698
33622000,0.0324,0.013523,0.002678,0.000431,0.057471
33623000,0.0324,0.013523,0.002678,0.000431,0.059469
33624000,0.0324,0.013523,0.002678,0.000431,0.058059
33625000,0.0324,0.013523,0.002678,0.000431,0.044308
33626000,0.0324,0.013523,0.002678,0.000431,0.034788
33627000,0.0324,0.013523,0.002678,0.000431,0.027149
33628000,0.0324,0.013523,0.002678,0.000431,0.029029
33629000,0.0324,0.013523,0.002678,0.000431,0.026326
33630000,0.0324,0.013523,0.002678,0.000431,0.023506
33631000,0.0324,0.013523,0.002678,0.000431,0.020097
33632000,0.0324,0.013523,0.002678,0.000431,0.019745
33633000,0.0324,0.013523,0.002678,0.000431,0.019627
33634000,0.0324,0.013523,0.002678,0.000431,0.012458
33635000,0.0324,0.013523,0.002678,0.000431,0.010342
33636000,0.0324,0.013523,0.002678,0.000431,0.010225
33637000,0.0324,0.013523,0.002678,0.000431,0.007169
33638000,0.0324,0.013523,0.002678,0.000431,0.005289
33639000,0.0324,0.013523,0.002678,0.000431,0.002351
33640000,0.0324,0.013523,0.002678,0.000431,0.004113
33641000,0.0324,0.013523,0.002678,0.000431,0.001998
33642000,0.0324,0.013523,0.002678,0.000431,0.001645
33643000,0.0324,0.013523,0.002678,0.000431,0.001645
33644000,0.0324,0.013523,0.002678,0.000431,0.001645
33645000,0.0324,0.013523,0.002678,0.000431,0.001645
33646000,0.0324,0.013523,0.002678,0.000431,0.001763
33647000,0.0324,0.013523,0.002678,0.000431,0.001645
33648000,0.0324,0.013523,0.002678,0.000431,0.001645
33649000,0.0324,0.013523,0.002678,0.000431,0.001645
33650000,0.0324,0.013523,0.002678,0.000431,0.001763
33651000,0.0324,0.013523,0.002678,0.000431,0.001528
33652000,0.0324,0.013523,0.002678,0.000431,0.001763
33653000,0.0324,0.013523,0.002678,0.000431,0.001763
33654000,0.0324,0.013523,0.002678,0.000431,0.001528
33655000,0.0324,0.013523,0.002678,0.000431,0.001763
33656000,0.0324,0.013523,0.002678,0.000431,0.001645
33657000,0.0324,0.013523,0.002678,0.000431,0.001645
33658000,0.0324,0.013523,0.002678,0.000431,0.001528
33659000,0.0324,0.013523,0.002678,0.000431,0.001880
33660000,0.0324,0.013523,0.002678,0.000431,0.001763
33661000,0.0324,0.013523,0.002678,0.000431,0.001528
33662000,0.0324,0.013523,0.002678,0.000431,0.001645
33663000,0.0324,0.013523,0.002678,0.000431,0.001645
33664000,0.0324,0.013523,0.002678,0.000431,0.001880
33665000,0.0324,0.013523,0.002678,0.000431,0.001528
33666000,0.0324,0.013523,0.002678,0.000431,0.001763
33667000,0.0324,0.013523,0.002678,0.000431,0.003878
33668000,0.0324,0.013523,0.002678,0.000431,0.017277
33669000,0.0324,0.013523,0.002678,0.000431,0.591284
33670000,0.0324,0.013523,0.002678,0.000431,0.603742
33671000,0.0324,0.013523,0.002678,0.000431,0.133042
33672000,0.0324,0.013523,0.002678,0.000431,0.132572
33673000,0.0324,0.013523,0.002678,0.000431,0.528524
33674000,0.0324,0.013523,0.002678,0.000431,0.246457
33675000,0.0324,0.013523,0.002678,0.000431,0.288532
33676000,0.0324,0.013523,0.002678,0.000431,0.291940
33677000,0.0324,0.013523,0.002678,0.000431,0.146205
33678000,0.0324,0.013523,0.002678,0.000431,0.144207
33679000,0.0324,0.013523,0.002678,0.000431,0.123875
33680000,0.0324,0.013523,0.002678,0.000431,0.313800
33681000,0.0324,0.013523,0.002678,0.000431,0.329667
33682000,0.0324,0.013523,0.002678,0.000431,0.111064
33683000,0.0324,0.013523,0.002678,0.000431,0.086266
33684000,0.0324,0.013523,0.002678,0.000431,0.076041
33685000,0.0324,0.013523,0.002678,0.000431,0.071105
33686000,0.0324,0.013523,0.002678,0.000431,0.056649
33687000,0.0324,0.013523,0.002678,0.000431,0.046424
33688000,0.0324,0.013523,0.002678,0.000431,0.041840
33689000,0.0324,0.013523,0.002678,0.000431,0.035023
33690000,0.0324,0.013523,0.002678,0.000431,0.032555
33691000,0.0324,0.013523,0.002678,0.000431,0.025856
33692000,0.0324,0.013523,0.002678,0.000431,0.028324
33693000,0.0324,0.013523,0.002678,0.000431,0.019157
33694000,0.0324,0.013523,0.002678,0.000431,0.015044
33695000,0.0324,0.013523,0.002678,0.000431,0.012811
33696000,0.0324,0.013523,0.002678,0.000431,0.012928
33697000,0.0324,0.013523,0.002678,0.000431,0.008109
33698000,0.0324,0.013523,0.002678,0.000431,0.008462
33699000,0.0324,0.013523,0.002678,0.000431,0.008109
33700000,0.0324,0.013523,0.002678,0.000431,0.010342
33701000,0.0324,0.013523,0.002678,0.000431,0.007404
33702000,0.0324,0.013523,0.002678,0.000431,0.008697
33703000,0.0324,0.013523,0.002678,0.000431,0.006699
33704000,0.0324,0.013523,0.002678,0.000431,0.006699
33705000,0.0324,0.013523,0.002678,0.000431,0.006582
33706000,0.0324,0.013523,0.002678,0.000431,0.006934
33707000,0.0324,0.013523,0.002678,0.000431,0.006464
33708000,0.0324,0.013523,0.002678,0.000431,0.007992
33709000,0.0324,0.013523,0.002678,0.000431,0.005641
33710000,0.0324,0.013523,0.002678,0.000431,0.008345
33711000,0.0324,0.013523,0.002678,0.000431,0.007404
33712000,0.0324,0.013523,0.002678,0.000431,0.003408
33713000,0.0324,0.013523,0.002678,0.000431,0.002938
33714000,0.0324,0.013523,0.002678,0.000431,0.002703
33715000,0.0324,0.013523,0.002678,0.000431,0.003643
33716000,0.0324,0.013523,0.002678,0.000431,0.004113
33717000,0.0324,0.013523,0.002678,0.000431,0.002233
33718000,0.0324,0.013523,0.002678,0.000431,0.000823
33719000,0.0324,0.013523,0.002678,0.000431,0.000940
33720000,0.0324,0.013523,0.002678,0.000431,0.000823
33721000,0.0324,0.013523,0.002678,0.000431,0.000823
33722000,0.0324,0.013523,0.002678,0.000431,0.000940
33723000,0.0324,0.013523,0.002678,0.000431,0.000823
33724000,0.0324,0.013523,0.002678,0.000431,0.074043
33725000,0.0324,0.013523,0.002678,0.000431,0.606445
33726000,0.0324,0.013523,0.002678,0.000431,0.555908
33727000,0.0324,0.013523,0.002678,0.000431,0.136685
33728000,0.0324,0.013523,0.002678,0.000431,0.133277
33729000,0.0324,0.013523,0.002678,0.000431,0.641586
33730000,0.0324,0.013523,0.002678,0.000431,0.253743
33731000,0.0324,0.013523,0.002678,0.000431,0.275839
33732000,0.0324,0.013523,0.002678,0.000431,0.272078
33733000,0.0324,0.013523,0.002678,0.000431,0.146675
33734000,0.0324,0.013523,0.002678,0.000431,0.141151
33735000,0.0324,0.013523,0.002678,0.000431,0.214371
33736000,0.0324,0.013523,0.002678,0.000431,0.440378
33737000,0.0324,0.013523,0.002678,0.000431,0.160191
33738000,0.0324,0.013523,0.002678,0.000431,0.145500
33739000,0.0324,0.013523,0.002678,0.000431,0.111769
33740000,0.0324,0.013523,0.002678,0.000431,0.103660
33741000,0.0324,0.013523,0.002678,0.000431,0.092965
33742000,0.0324,0.013523,0.002678,0.000431,0.088029
33743000,0.0324,0.013523,0.002678,0.000431,0.073455
33744000,0.0324,0.013523,0.002678,0.000431,0.060292
33745000,0.0324,0.013523,0.002678,0.000431,0.060174
33746000,0.0324,0.013523,0.002678,0.000431,0.048187
33747000,0.0324,0.013523,0.002678,0.000431,0.047246
33748000,0.0324,0.013523,0.002678,0.000431,0.045836
33749000,0.0324,0.013523,0.002678,0.000431,0.035494
33750000,0.0324,0.013523,0.002678,0.000431,0.034906
33751000,0.0324,0.013523,0.002678,0.000431,0.030087
33752000,0.0324,0.013523,0.002678,0.000431,0.026914
33753000,0.0324,0.013523,0.002678,0.000431,0.025504
33754000,0.0324,0.013523,0.002678,0.000431,0.024916
33755000,0.0324,0.013523,0.002678,0.000431,0.022330
33756000,0.0324,0.013523,0.002678,0.000431,0.013516
33757000,0.0324,0.013523,0.002678,0.000431,0.014573
33758000,0.0324,0.013523,0.002678,0.000431,0.012811
33759000,0.0324,0.013523,0.002678,0.000431,0.014456
33760000,0.0324,0.013523,0.002678,0.000431,0.009520
33761000,0.0324,0.013523,0.002678,0.000431,0.009520
33762000,0.0324,0.013523,0.002678,0.000431,0.012223
33763000,0.0324,0.013523,0.002678,0.000431,0.008462
33764000,0.0324,0.013523,0.002678,0.000431,0.011283
33765000,0.0324,0.013523,0.002678,0.000431,0.008109
33766000,0.0324,0.013523,0.002678,0.000431,0.008227
33767000,0.0324,0.013523,0.002678,0.000431,0.006464
33768000,0.0324,0.013523,0.002678,0.000431,0.004113
33769000,0.0324,0.013523,0.002678,0.000431,0.005289
33770000,0.0324,0.013523,0.002678,0.000431,0.004701
33771000,0.0324,0.013523,0.002678,0.000431,0.003526
33772000,0.0324,0.013523,0.002678,0.000431,0.005524
33773000,0.0324,0.013523,0.002678,0.000431,0.002703
33774000,0.0324,0.013523,0.002678,0.000431,0.002703
33775000,0.0324,0.013523,0.002678,0.000431,0.002586
33776000,0.0324,0.013523,0.002678,0.000431,0.002586
33777000,0.0324,0.013523,0.002678,0.000431,0.004936
33778000,0.0324,0.013523,0.002678,0.000431,0.001763
33779000,0.0324,0.013523,0.002678,0.000431,0.001645
33780000,0.0324,0.013523,0.002678,0.000431,0.001880
33781000,0.0324,0.013523,0.002678,0.000431,0.001763
33782000,0.0324,0.013523,0.002678,0.000431,0.001763
33783000,0.0324,0.013523,0.002678,0.000431,0.001645
33784000,0.0324,0.013523,0.002678,0.000431,0.003878
33785000,0.0324,0.013523,0.002678,0.000431,0.001058
33786000,0.0324,0.013523,0.002678,0.000431,0.000940
33787000,0.0324,0.013523,0.002678,0.000431,0.000823
33788000,0.0324,0.013523,0.002678,0.000431,0.000823
33789000,0.0324,0.013523,0.002678,0.000431,0.000940
33790000,0.0324,0.013523,0.002678,0.000431,0.000940
33791000,0.0324,0.013523,0.002678,0.000431,0.000705
33792000,0.0324,0.013523,0.002678,0.000431,0.000940
33793000,0.0324,0.013523,0.002678,0.000431,0.000940
33794000,0.0324,0.013523,0.002678,0.000431,0.000940
33795000,0.0324,0.013523,0.002678,0.000431,0.000823
33796000,0.0324,0.013523,0.002678,0.000431,0.000823
33797000,0.0324,0.013523,0.002678,0.000431,0.000940
33798000,0.0324,0.013523,0.002678,0.000431,0.000940
33799000,0.0324,0.013523,0.002678,0.000431,0.000823
33800000,0.0324,0.013523,0.002678,0.000431,0.000823
33801000,0.0324,0.013523,0.002678,0.000431,0.000940
33802000,0.0324,0.013523,0.002678,0.000431,0.000940
33803000,0.0324,0.013523,0.002678,0.000431,0.152787
33804000,0.0324,0.013523,0.002678,0.000431,0.614672
33805000,0.0324,0.013523,0.002678,0.000431,0.556261
33806000,0.0324,0.013523,0.002678,0.000431,0.133982
33807000,0.0324,0.013523,0.002678,0.000431,0.135980
33808000,0.0324,0.013523,0.002678,0.000431,0.578474
33809000,0.0324,0.013523,0.002678,0.000431,0.249395
33810000,0.0324,0.013523,0.002678,0.000431,0.253038
33811000,0.0324,0.013523,0.002678,0.000431,0.306513
33812000,0.0324,0.013523,0.002678,0.000431,0.143854
33813000,0.0324,0.013523,0.002678,0.000431,0.180171
33814000,0.0324,0.013523,0.002678,0.000431,0.092025
33815000,0.0324,0.013523,0.002678,0.000431,0.474344
33816000,0.0324,0.013523,0.002678,0.000431,0.184402
33817000,0.0324,0.013523,0.002678,0.000431,0.123992
33818000,0.0324,0.013523,0.002678,0.000431,0.100722
33819000,0.0324,0.013523,0.002678,0.000431,0.085325
33820000,0.0324,0.013523,0.002678,0.000431,0.074748
33821000,0.0324,0.013523,0.002678,0.000431,0.070399
33822000,0.0324,0.013523,0.002678,0.000431,0.062055
33823000,0.0324,0.013523,0.002678,0.000431,0.056178
33824000,0.0324,0.013523,0.002678,0.000431,0.042075
33825000,0.0324,0.013523,0.002678,0.000431,0.041017
33826000,0.0324,0.013523,0.002678,0.000431,0.035494
33827000,0.0324,0.013523,0.002678,0.000431,0.032203
33828000,0.0324,0.013523,0.002678,0.000431,0.034201
33829000,0.0324,0.013523,0.002678,0.000431,0.026091
33830000,0.0324,0.013523,0.002678,0.000431,0.020450
33831000,0.0324,0.013523,0.002678,0.000431,0.026091
33832000,0.0324,0.013523,0.002678,0.000431,0.016689
33833000,0.0324,0.013523,0.002678,0.000431,0.013633
33834000,0.0324,0.013523,0.002678,0.000431,0.016336
33835000,0.0324,0.013523,0.002678,0.000431,0.013046
33836000,0.0324,0.013523,0.002678,0.000431,0.010930
33837000,0.0324,0.013523,0.002678,0.000431,0.009755
33838000,0.0324,0.013523,0.002678,0.000431,0.010107
33839000,0.0324,0.013523,0.002678,0.000431,0.013163
33840000,0.0324,0.013523,0.002678,0.000431,0.004113
33841000,0.0324,0.013523,0.002678,0.000431,0.004113
33842000,0.0324,0.013523,0.002678,0.000431,0.004113
33843000,0.0324,0.013523,0.002678,0.000431,0.003643
33844000,0.0324,0.013523,0.002678,0.000431,0.003526
33845000,0.0324,0.013523,0.002678,0.000431,0.003408
33846000,0.0324,0.013523,0.002678,0.000431,0.004819
33847000,0.0324,0.013523,0.002678,0.000431,0.002586
33848000,0.0324,0.013523,0.002678,0.000431,0.002586
33849000,0.0324,0.013523,0.002678,0.000431,0.002468
33850000,0.0324,0.013523,0.002678,0.000431,0.002468
33851000,0.0324,0.013523,0.002678,0.000431,0.002586
33852000,0.0324,0.013523,0.002678,0.000431,0.004349
33853000,0.0324,0.013523,0.002678,0.000431,0.001645
33854000,0.0324,0.013523,0.002678,0.000431,0.001528
33855000,0.0324,0.013523,0.002678,0.000431,0.001645
33856000,0.0324,0.013523,0.002678,0.000431,0.001880
33857000,0.0324,0.013523,0.002678,0.000431,0.001645
33858000,0.0324,0.013523,0.002678,0.000431,0.001528
33859000,0.0324,0.013523,0.002678,0.000431,0.002586
33860000,0.0324,0.013523,0.002678,0.000431,0.001645
33861000,0.0324,0.013523,0.002678,0.000431,0.000940
33862000,0.0324,0.013523,0.002678,0.000431,0.000940
33863000,0.0324,0.013523,0.002678,0.000431,0.000705
33864000,0.0324,0.013523,0.002678,0.000431,0.000940
33865000,0.0324,0.013523,0.002678,0.000431,0.000705
33866000,0.0324,0.013523,0.002678,0.000431,0.000940
33867000,0.0324,0.013523,0.002678,0.000431,0.000823
33868000,0.0324,0.013523,0.002678,0.000431,0.000823
33869000,0.0324,0.013523,0.002678,0.000431,0.000823
33870000,0.0324,0.013523,0.002678,0.000431,0.000823
33871000,0.0324,0.013523,0.002678,0.000431,0.000940
33872000,0.0324,0.013523,0.002678,0.000431,0.000705
33873000,0.0324,0.013523,0.002678,0.000431,0.000940
33874000,0.0324,0.013523,0.002678,0.000431,0.000823
33875000,0.0324,0.013523,0.002678,0.000431,0.000823
33876000,0.0324,0.013523,0.002678,0.000431,0.000823
33877000,0.0324,0.013523,0.002678,0.000431,0.000823
33878000,0.0324,0.013523,0.002678,0.000431,0.000823
33879000,0.0324,0.013523,0.002678,0.000431,0.000823
33880000,0.0324,0.013523,0.002678,0.000431,0.000823
33881000,0.0324,0.013523,0.002678,0.000431,0.000823
33882000,0.0324,0.013523,0.002678,0.000431,0.000940
33883000,0.0324,0.013523,0.002678,0.000431,0.000823
33884000,0.0324,0.013523,0.002678,0.000431,0.000823
33885000,0.0324,0.013523,0.002678,0.000431,0.000705
33886000,0.0324,0.013523,0.002678,0.000431,0.000940
33887000,0.0324,0.013523,0.002678,0.000431,0.000940
33888000,0.0324,0.013523,0.002678,0.000431,0.000705
33889000,0.0324,0.013523,0.002678,0.000431,0.000940
33890000,0.0324,0.013523,0.002678,0.000431,0.000705
33891000,0.0324,0.013523,0.002678,0.000431,0.000940
33892000,0.0324,0.013523,0.002678,0.000431,0.000823
33893000,0.0324,0.013523,0.002678,0.000431,0.000823
33894000,0.0324,0.013523,0.002678,0.000431,0.000940
33895000,0.0324,0.013523,0.002678,0.000431,0.000705
33896000,0.0324,0.013523,0.002678,0.000431,0.000940
33897000,0.0324,0.013523,0.002678,0.000431,0.000823
33898000,0.0324,0.013523,0.002678,0.000431,0.000823
33899000,0.0324,0.013523,0.002678,0.000431,0.000823
33900000,0.0324,0.013523,0.002678,0.000431,0.000823
33901000,0.0324,0.013523,0.002678,0.000431,0.000823
33902000,0.0324,0.013523,0.002678,0.000431,0.000823
33903000,0.0324,0.013523,0.002678,0.000431,0.000940
33904000,0.0324,0.013523,0.002678,0.000431,0.000705
33905000,0.0324,0.013523,0.002678,0.000431,0.000940
33906000,0.0324,0.013523,0.002678,0.000431,0.000823
33907000,0.0324,0.013523,0.002678,0.000431,0.000823
33908000,0.0324,0.013523,0.002678,0.000431,0.000705
33909000,0.0324,0.013523,0.002678,0.000431,0.000940
33910000,0.0324,0.013523,0.002678,0.000431,0.000940
33911000,0.0324,0.013523,0.002678,0.000431,0.000705
33912000,0.0324,0.013523,0.002678,0.000431,0.000940
33913000,0.0324,0.013523,0.002678,0.000431,0.000705
33914000,0.0324,0.013523,0.002678,0.000431,0.000940
33915000,0.0324,0.013523,0.002678,0.000431,0.000823
33916000,0.0324,0.013523,0.002678,0.000431,0.000823
33917000,0.0324,0.013523,0.002678,0.000431,0.000940
33918000,0.0324,0.013523,0.002678,0.000431,0.000705
33919000,0.0324,0.013523,0.002678,0.000431,0.000940
33920000,0.0324,0.013523,0.002678,0.000431,0.000823
33921000,0.0324,0.013523,0.002678,0.000431,0.000823
33922000,0.0324,0.013523,0.002678,0.000431,0.000823
33923000,0.0324,0.013523,0.002678,0.000431,0.000823
33924000,0.0324,0.013523,0.002678,0.000431,0.000823
33925000,0.0324,0.013523,0.002678,0.000431,0.000823
33926000,0.0324,0.013523,0.002678,0.000431,0.000940
33927000,0.0324,0.013523,0.002678,0.000431,0.000705
33928000,0.0324,0.013523,0.002678,0.000431,0.000823
33929000,0.0324,0.013523,0.002678,0.000431,0.000823
33930000,0.0324,0.013523,0.002678,0.000431,0.000940
33931000,0.0324,0.013523,0.002678,0.000431,0.000705
33932000,0.0324,0.013523,0.002678,0.000431,0.000940
33933000,0.0324,0.013523,0.002678,0.000431,0.000705
33934000,0.0324,0.013523,0.002678,0.000431,0.000940
33935000,0.0324,0.013523,0.002678,0.000431,0.000823
33936000,0.0324,0.013523,0.002678,0.000431,0.000823
33937000,0.0324,0.013523,0.002678,0.000431,0.000940
33938000,0.0324,0.013523,0.002678,0.000431,0.000705
33939000,0.0324,0.013523,0.002678,0.000431,0.000940
33940000,0.0324,0.013523,0.002678,0.000431,0.000823
33941000,0.0324,0.013523,0.002678,0.000431,0.000823
33942000,0.0324,0.013523,0.002678,0.000431,0.000823
33943000,0.0324,0.013523,0.002678,0.000431,0.000823
33944000,0.0324,0.013523,0.002678,0.000431,0.000823
33945000,0.0324,0.013523,0.002678,0.000431,0.000823
33946000,0.0324,0.013523,0.002678,0.000431,0.000940
33947000,0.0324,0.013523,0.002678,0.000431,0.000705
33948000,0.0324,0.013523,0.002678,0.000431,0.000823
33949000,0.0324,0.013523,0.002678,0.000431,0.000940
33950000,0.0324,0.013523,0.002678,0.000431,0.000823
33951000,0.0324,0.013523,0.002678,0.000431,0.000823
33952000,0.0324,0.013523,0.002678,0.000431,0.000823
33953000,0.0324,0.013523,0.002678,0.000431,0.000823
33954000,0.0324,0.013523,0.002678,0.000431,0.000823
33955000,0.0324,0.013523,0.002678,0.000431,0.000940
33956000,0.0324,0.013523,0.002678,0.000431,0.000823
33957000,0.0324,0.013523,0.002678,0.000431,0.000823
33958000,0.0324,0.013523,0.002678,0.000431,0.000705
33959000,0.0324,0.013523,0.002678,0.000431,0.000940
33960000,0.0324,0.013523,0.002678,0.000431,0.000940
33961000,0.0324,0.013523,0.002678,0.000431,0.004113
33962000,0.0324,0.013523,0.002678,0.000431,0.511248
33963000,0.0324,0.013523,0.002678,0.000431,0.667090
33964000,0.0324,0.013523,0.002678,0.000431,0.147733
33965000,0.0324,0.013523,0.002678,0.000431,0.157605
33966000,0.0324,0.013523,0.002678,0.000431,0.283243
33967000,0.0324,0.013523,0.002678,0.000431,0.506546
33968000,0.0324,0.013523,0.002678,0.000431,0.242461
33969000,0.0324,0.013523,0.002678,0.000431,0.377265
33970000,0.0324,0.013523,0.002678,0.000431,0.169358
33971000,0.0324,0.013523,0.002678,0.000431,0.144442
33972000,0.0324,0.013523,0.002678,0.000431,0.104483
33973000,0.0324,0.013523,0.002678,0.000431,0.444139
33974000,0.0324,0.013523,0.002678,0.000431,0.232706
33975000,0.0324,0.013523,0.002678,0.000431,0.133747
33976000,0.0324,0.013523,0.002678,0.000431,0.105658
33977000,0.0324,0.013523,0.002678,0.000431,0.082152
33978000,0.0324,0.013523,0.002678,0.000431,0.076158
33979000,0.0324,0.013523,0.002678,0.000431,0.065228
33980000,0.0324,0.013523,0.002678,0.000431,0.057236
33981000,0.0324,0.013523,0.002678,0.000431,0.045131
33982000,0.0324,0.013523,0.002678,0.000431,0.042545
33983000,0.0324,0.013523,0.002678,0.000431,0.039019
33984000,0.0324,0.013523,0.002678,0.000431,0.035964
33985000,0.0324,0.013523,0.002678,0.000431,0.025856
33986000,0.0324,0.013523,0.002678,0.000431,0.028207
33987000,0.0324,0.013523,0.002678,0.000431,0.029500
33988000,0.0324,0.013523,0.002678,0.000431,0.024681
33989000,0.0324,0.013523,0.002678,0.000431,0.019745
33990000,0.0324,0.013523,0.002678,0.000431,0.015866
33991000,0.0324,0.013523,0.002678,0.000431,0.012811
33992000,0.0324,0.013523,0.002678,0.000431,0.017982
33993000,0.0324,0.013523,0.002678,0.000431,0.012811
33994000,0.0324,0.013523,0.002678,0.000431,0.012223
33995000,0.0324,0.013523,0.002678,0.000431,0.007287
33996000,0.0324,0.013523,0.002678,0.000431,0.012340
33997000,0.0324,0.013523,0.002678,0.000431,0.007052
33998000,0.0324,0.013523,0.002678,0.000431,0.003878
33999000,0.0324,0.013523,0.002678,0.000431,0.005171
