Cycle,Area(mm^2),PeakDynamic(W),SubthresholdLeakage(W),GateLeakage(W),RunTimeDynamic(W)
136000000,0.0324,0.013523,0.002678,0.000431,0.149143
136001000,0.0324,0.013523,0.002678,0.000431,0.112004
136002000,0.0324,0.013523,0.002678,0.000431,0.092730
136003000,0.0324,0.013523,0.002678,0.000431,0.075688
136004000,0.0324,0.013523,0.002678,0.000431,0.064523
136005000,0.0324,0.013523,0.002678,0.000431,0.057236
136006000,0.0324,0.013523,0.002678,0.000431,0.048422
136007000,0.0324,0.013523,0.002678,0.000431,0.033613
136008000,0.0324,0.013523,0.002678,0.000431,0.028089
136009000,0.0324,0.013523,0.002678,0.000431,0.024211
136010000,0.0324,0.013523,0.002678,0.000431,0.016807
136011000,0.0324,0.013523,0.002678,0.000431,0.010695
136012000,0.0324,0.013523,0.002678,0.000431,0.012928
136013000,0.0324,0.013523,0.002678,0.000431,0.011988
136014000,0.0324,0.013523,0.002678,0.000431,0.009637
136015000,0.0324,0.013523,0.002678,0.000431,0.011753
136016000,0.0324,0.013523,0.002678,0.000431,0.005524
136017000,0.0324,0.013523,0.002678,0.000431,0.005641
136018000,0.0324,0.013523,0.002678,0.000431,0.007522
136019000,0.0324,0.013523,0.002678,0.000431,0.003056
136020000,0.0324,0.013523,0.002678,0.000431,0.003173
136021000,0.0324,0.013523,0.002678,0.000431,0.006699
136022000,0.0324,0.013523,0.002678,0.000431,0.002703
136023000,0.0324,0.013523,0.002678,0.000431,0.002233
136024000,0.0324,0.013523,0.002678,0.000431,0.002468
136025000,0.0324,0.013523,0.002678,0.000431,0.001998
136026000,0.0324,0.013523,0.002678,0.000431,0.002703
136027000,0.0324,0.013523,0.002678,0.000431,0.001998
136028000,0.0324,0.013523,0.002678,0.000431,0.002821
136029000,0.0324,0.013523,0.002678,0.000431,0.002351
136030000,0.0324,0.013523,0.002678,0.000431,0.002468
136031000,0.0324,0.013523,0.002678,0.000431,0.001998
136032000,0.0324,0.013523,0.002678,0.000431,0.002703
136033000,0.0324,0.013523,0.002678,0.000431,0.002351
136034000,0.0324,0.013523,0.002678,0.000431,0.002351
136035000,0.0324,0.013523,0.002678,0.000431,0.002468
136036000,0.0324,0.013523,0.002678,0.000431,0.002351
136037000,0.0324,0.013523,0.002678,0.000431,0.002468
136038000,0.0324,0.013523,0.002678,0.000431,0.002468
136039000,0.0324,0.013523,0.002678,0.000431,0.002116
136040000,0.0324,0.013523,0.002678,0.000431,0.004231
136041000,0.0324,0.013523,0.002678,0.000431,0.003761
136042000,0.0324,0.013523,0.002678,0.000431,0.001645
136043000,0.0324,0.013523,0.002678,0.000431,0.001410
136044000,0.0324,0.013523,0.002678,0.000431,0.001058
136045000,0.0324,0.013523,0.002678,0.000431,0.000940
136046000,0.0324,0.013523,0.002678,0.000431,0.000940
136047000,0.0324,0.013523,0.002678,0.000431,0.295936
136048000,0.0324,0.013523,0.002678,0.000431,0.804128
136049000,0.0324,0.013523,0.002678,0.000431,0.344123
136050000,0.0324,0.013523,0.002678,0.000431,0.138683
136051000,0.0324,0.013523,0.002678,0.000431,0.513011
136052000,0.0324,0.013523,0.002678,0.000431,0.332722
136053000,0.0324,0.013523,0.002678,0.000431,0.308511
136054000,0.0324,0.013523,0.002678,0.000431,0.225772
136055000,0.0324,0.013523,0.002678,0.000431,0.182991
136056000,0.0324,0.013523,0.002678,0.000431,0.085561
136057000,0.0324,0.013523,0.002678,0.000431,0.584468
136058000,0.0324,0.013523,0.002678,0.000431,0.322967
136059000,0.0324,0.013523,0.002678,0.000431,0.230708
136060000,0.0324,0.013523,0.002678,0.000431,0.212138
136061000,0.0324,0.013523,0.002678,0.000431,0.171591
136062000,0.0324,0.013523,0.002678,0.000431,0.131044
136063000,0.0324,0.013523,0.002678,0.000431,0.130456
136064000,0.0324,0.013523,0.002678,0.000431,0.103190
136065000,0.0324,0.013523,0.002678,0.000431,0.092142
136066000,0.0324,0.013523,0.002678,0.000431,0.076746
136067000,0.0324,0.013523,0.002678,0.000431,0.055591
136068000,0.0324,0.013523,0.002678,0.000431,0.043133
136069000,0.0324,0.013523,0.002678,0.000431,0.039137
136070000,0.0324,0.013523,0.002678,0.000431,0.029970
136071000,0.0324,0.013523,0.002678,0.000431,0.013633
136072000,0.0324,0.013523,0.002678,0.000431,0.015749
136073000,0.0324,0.013523,0.002678,0.000431,0.016689
136074000,0.0324,0.013523,0.002678,0.000431,0.012693
136075000,0.0324,0.013523,0.002678,0.000431,0.011870
136076000,0.0324,0.013523,0.002678,0.000431,0.008462
136077000,0.0324,0.013523,0.002678,0.000431,0.007874
136078000,0.0324,0.013523,0.002678,0.000431,0.014573
136079000,0.0324,0.013523,0.002678,0.000431,0.011400
136080000,0.0324,0.013523,0.002678,0.000431,0.009167
136081000,0.0324,0.013523,0.002678,0.000431,0.006111
136082000,0.0324,0.013523,0.002678,0.000431,0.001058
136083000,0.0324,0.013523,0.002678,0.000431,0.000705
136084000,0.0324,0.013523,0.002678,0.000431,0.000940
136085000,0.0324,0.013523,0.002678,0.000431,0.000823
136086000,0.0324,0.013523,0.002678,0.000431,0.000823
136087000,0.0324,0.013523,0.002678,0.000431,0.000940
136088000,0.0324,0.013523,0.002678,0.000431,0.000705
136089000,0.0324,0.013523,0.002678,0.000431,0.000940
136090000,0.0324,0.013523,0.002678,0.000431,0.000823
136091000,0.0324,0.013523,0.002678,0.000431,0.006111
136092000,0.0324,0.013523,0.002678,0.000431,0.705052
136093000,0.0324,0.013523,0.002678,0.000431,0.696942
136094000,0.0324,0.013523,0.002678,0.000431,0.182639
136095000,0.0324,0.013523,0.002678,0.000431,0.148908
136096000,0.0324,0.013523,0.002678,0.000431,0.579061
136097000,0.0324,0.013523,0.002678,0.000431,0.249630
136098000,0.0324,0.013523,0.002678,0.000431,0.341302
136099000,0.0324,0.013523,0.002678,0.000431,0.166067
136100000,0.0324,0.013523,0.002678,0.000431,0.166302
136101000,0.0324,0.013523,0.002678,0.000431,0.157018
136102000,0.0324,0.013523,0.002678,0.000431,0.574478
136103000,0.0324,0.013523,0.002678,0.000431,0.268904
136104000,0.0324,0.013523,0.002678,0.000431,0.206262
136105000,0.0324,0.013523,0.002678,0.000431,0.188045
136106000,0.0324,0.013523,0.002678,0.000431,0.159486
136107000,0.0324,0.013523,0.002678,0.000431,0.113767
136108000,0.0324,0.013523,0.002678,0.000431,0.110829
136109000,0.0324,0.013523,0.002678,0.000431,0.081800
136110000,0.0324,0.013523,0.002678,0.000431,0.069929
136111000,0.0324,0.013523,0.002678,0.000431,0.060762
136112000,0.0324,0.013523,0.002678,0.000431,0.044073
136113000,0.0324,0.013523,0.002678,0.000431,0.033613
136114000,0.0324,0.013523,0.002678,0.000431,0.035729
136115000,0.0324,0.013523,0.002678,0.000431,0.025504
136116000,0.0324,0.013523,0.002678,0.000431,0.020450
136117000,0.0324,0.013523,0.002678,0.000431,0.013986
136118000,0.0324,0.013523,0.002678,0.000431,0.012458
136119000,0.0324,0.013523,0.002678,0.000431,0.009755
136120000,0.0324,0.013523,0.002678,0.000431,0.006934
136121000,0.0324,0.013523,0.002678,0.000431,0.004936
136122000,0.0324,0.013523,0.002678,0.000431,0.005759
136123000,0.0324,0.013523,0.002678,0.000431,0.006817
136124000,0.0324,0.013523,0.002678,0.000431,0.003761
136125000,0.0324,0.013523,0.002678,0.000431,0.005054
136126000,0.0324,0.013523,0.002678,0.000431,0.004819
136127000,0.0324,0.013523,0.002678,0.000431,0.002233
136128000,0.0324,0.013523,0.002678,0.000431,0.004113
136129000,0.0324,0.013523,0.002678,0.000431,0.003761
136130000,0.0324,0.013523,0.002678,0.000431,0.001645
136131000,0.0324,0.013523,0.002678,0.000431,0.001410
136132000,0.0324,0.013523,0.002678,0.000431,0.001293
136133000,0.0324,0.013523,0.002678,0.000431,0.001175
136134000,0.0324,0.013523,0.002678,0.000431,0.000940
136135000,0.0324,0.013523,0.002678,0.000431,0.001175
136136000,0.0324,0.013523,0.002678,0.000431,0.000823
136137000,0.0324,0.013523,0.002678,0.000431,0.001175
136138000,0.0324,0.013523,0.002678,0.000431,0.008580
136139000,0.0324,0.013523,0.002678,0.000431,0.699528
136140000,0.0324,0.013523,0.002678,0.000431,0.687187
136141000,0.0324,0.013523,0.002678,0.000431,0.180406
136142000,0.0324,0.013523,0.002678,0.000431,0.148556
136143000,0.0324,0.013523,0.002678,0.000431,0.569542
136144000,0.0324,0.013523,0.002678,0.000431,0.261265
136145000,0.0324,0.013523,0.002678,0.000431,0.341067
136146000,0.0324,0.013523,0.002678,0.000431,0.158310
136147000,0.0324,0.013523,0.002678,0.000431,0.163952
136148000,0.0324,0.013523,0.002678,0.000431,0.167830
136149000,0.0324,0.013523,0.002678,0.000431,0.552147
136150000,0.0324,0.013523,0.002678,0.000431,0.295466
136151000,0.0324,0.013523,0.002678,0.000431,0.226242
136152000,0.0324,0.013523,0.002678,0.000431,0.199445
136153000,0.0324,0.013523,0.002678,0.000431,0.164304
136154000,0.0324,0.013523,0.002678,0.000431,0.144442
136155000,0.0324,0.013523,0.002678,0.000431,0.123757
136156000,0.0324,0.013523,0.002678,0.000431,0.090262
136157000,0.0324,0.013523,0.002678,0.000431,0.101309
136158000,0.0324,0.013523,0.002678,0.000431,0.054768
136159000,0.0324,0.013523,0.002678,0.000431,0.050185
136160000,0.0324,0.013523,0.002678,0.000431,0.051242
136161000,0.0324,0.013523,0.002678,0.000431,0.035258
136162000,0.0324,0.013523,0.002678,0.000431,0.025269
136163000,0.0324,0.013523,0.002678,0.000431,0.017159
136164000,0.0324,0.013523,0.002678,0.000431,0.022565
136165000,0.0324,0.013523,0.002678,0.000431,0.022448
136166000,0.0324,0.013523,0.002678,0.000431,0.011988
136167000,0.0324,0.013523,0.002678,0.000431,0.008227
136168000,0.0324,0.013523,0.002678,0.000431,0.008815
136169000,0.0324,0.013523,0.002678,0.000431,0.006817
136170000,0.0324,0.013523,0.002678,0.000431,0.005524
136171000,0.0324,0.013523,0.002678,0.000431,0.006229
136172000,0.0324,0.013523,0.002678,0.000431,0.006934
136173000,0.0324,0.013523,0.002678,0.000431,0.009285
136174000,0.0324,0.013523,0.002678,0.000431,0.003408
136175000,0.0324,0.013523,0.002678,0.000431,0.004584
136176000,0.0324,0.013523,0.002678,0.000431,0.003173
136177000,0.0324,0.013523,0.002678,0.000431,0.004113
136178000,0.0324,0.013523,0.002678,0.000431,0.003526
136179000,0.0324,0.013523,0.002678,0.000431,0.005171
136180000,0.0324,0.013523,0.002678,0.000431,0.002468
136181000,0.0324,0.013523,0.002678,0.000431,0.001763
136182000,0.0324,0.013523,0.002678,0.000431,0.001528
136183000,0.0324,0.013523,0.002678,0.000431,0.001763
136184000,0.0324,0.013523,0.002678,0.000431,0.004819
136185000,0.0324,0.013523,0.002678,0.000431,0.000940
136186000,0.0324,0.013523,0.002678,0.000431,0.000940
136187000,0.0324,0.013523,0.002678,0.000431,0.000705
136188000,0.0324,0.013523,0.002678,0.000431,0.000823
136189000,0.0324,0.013523,0.002678,0.000431,0.000940
136190000,0.0324,0.013523,0.002678,0.000431,0.000823
136191000,0.0324,0.013523,0.002678,0.000431,0.000823
136192000,0.0324,0.013523,0.002678,0.000431,0.000823
136193000,0.0324,0.013523,0.002678,0.000431,0.000705
136194000,0.0324,0.013523,0.002678,0.000431,0.000940
136195000,0.0324,0.013523,0.002678,0.000431,0.000940
136196000,0.0324,0.013523,0.002678,0.000431,0.000705
136197000,0.0324,0.013523,0.002678,0.000431,0.000940
136198000,0.0324,0.013523,0.002678,0.000431,0.000705
136199000,0.0324,0.013523,0.002678,0.000431,0.000940
136200000,0.0324,0.013523,0.002678,0.000431,0.000823
136201000,0.0324,0.013523,0.002678,0.000431,0.000823
136202000,0.0324,0.013523,0.002678,0.000431,0.000940
136203000,0.0324,0.013523,0.002678,0.000431,0.000705
136204000,0.0324,0.013523,0.002678,0.000431,0.000940
136205000,0.0324,0.013523,0.002678,0.000431,0.000705
136206000,0.0324,0.013523,0.002678,0.000431,0.000940
136207000,0.0324,0.013523,0.002678,0.000431,0.000705
136208000,0.0324,0.013523,0.002678,0.000431,0.000823
136209000,0.0324,0.013523,0.002678,0.000431,0.000823
136210000,0.0324,0.013523,0.002678,0.000431,0.000940
136211000,0.0324,0.013523,0.002678,0.000431,0.000823
136212000,0.0324,0.013523,0.002678,0.000431,0.000823
136213000,0.0324,0.013523,0.002678,0.000431,0.000823
136214000,0.0324,0.013523,0.002678,0.000431,0.000823
136215000,0.0324,0.013523,0.002678,0.000431,0.000705
136216000,0.0324,0.013523,0.002678,0.000431,0.000940
136217000,0.0324,0.013523,0.002678,0.000431,0.000705
136218000,0.0324,0.013523,0.002678,0.000431,0.273488
136219000,0.0324,0.013523,0.002678,0.000431,0.811885
136220000,0.0324,0.013523,0.002678,0.000431,0.430623
136221000,0.0324,0.013523,0.002678,0.000431,0.140564
136222000,0.0324,0.013523,0.002678,0.000431,0.435324
136223000,0.0324,0.013523,0.002678,0.000431,0.308511
136224000,0.0324,0.013523,0.002678,0.000431,0.285711
136225000,0.0324,0.013523,0.002678,0.000431,0.292998
136226000,0.0324,0.013523,0.002678,0.000431,0.156900
136227000,0.0324,0.013523,0.002678,0.000431,0.106716
136228000,0.0324,0.013523,0.002678,0.000431,0.422631
136229000,0.0324,0.013523,0.002678,0.000431,0.401006
136230000,0.0324,0.013523,0.002678,0.000431,0.217192
136231000,0.0324,0.013523,0.002678,0.000431,0.182286
136232000,0.0324,0.013523,0.002678,0.000431,0.150671
136233000,0.0324,0.013523,0.002678,0.000431,0.129399
136234000,0.0324,0.013523,0.002678,0.000431,0.108714
136235000,0.0324,0.013523,0.002678,0.000431,0.094610
136236000,0.0324,0.013523,0.002678,0.000431,0.065346
136237000,0.0324,0.013523,0.002678,0.000431,0.070399
136238000,0.0324,0.013523,0.002678,0.000431,0.058176
136239000,0.0324,0.013523,0.002678,0.000431,0.057001
136240000,0.0324,0.013523,0.002678,0.000431,0.052300
136241000,0.0324,0.013523,0.002678,0.000431,0.030440
136242000,0.0324,0.013523,0.002678,0.000431,0.040782
136243000,0.0324,0.013523,0.002678,0.000431,0.033025
136244000,0.0324,0.013523,0.002678,0.000431,0.027267
136245000,0.0324,0.013523,0.002678,0.000431,0.017512
136246000,0.0324,0.013523,0.002678,0.000431,0.013398
136247000,0.0324,0.013523,0.002678,0.000431,0.007169
136248000,0.0324,0.013523,0.002678,0.000431,0.010813
136249000,0.0324,0.013523,0.002678,0.000431,0.004466
136250000,0.0324,0.013523,0.002678,0.000431,0.005171
136251000,0.0324,0.013523,0.002678,0.000431,0.005406
136252000,0.0324,0.013523,0.002678,0.000431,0.005994
136253000,0.0324,0.013523,0.002678,0.000431,0.003761
136254000,0.0324,0.013523,0.002678,0.000431,0.003878
136255000,0.0324,0.013523,0.002678,0.000431,0.002821
136256000,0.0324,0.013523,0.002678,0.000431,0.002351
136257000,0.0324,0.013523,0.002678,0.000431,0.007169
136258000,0.0324,0.013523,0.002678,0.000431,0.001528
136259000,0.0324,0.013523,0.002678,0.000431,0.000823
136260000,0.0324,0.013523,0.002678,0.000431,0.002821
136261000,0.0324,0.013523,0.002678,0.000431,0.530522
136262000,0.0324,0.013523,0.002678,0.000431,0.759820
136263000,0.0324,0.013523,0.002678,0.000431,0.210140
136264000,0.0324,0.013523,0.002678,0.000431,0.138918
136265000,0.0324,0.013523,0.002678,0.000431,0.562255
136266000,0.0324,0.013523,0.002678,0.000431,0.230355
136267000,0.0324,0.013523,0.002678,0.000431,0.340127
136268000,0.0324,0.013523,0.002678,0.000431,0.210258
136269000,0.0324,0.013523,0.002678,0.000431,0.190161
136270000,0.0324,0.013523,0.002678,0.000431,0.084503
136271000,0.0324,0.013523,0.002678,0.000431,0.568954
136272000,0.0324,0.013523,0.002678,0.000431,0.342477
136273000,0.0324,0.013523,0.002678,0.000431,0.232353
136274000,0.0324,0.013523,0.002678,0.000431,0.206497
136275000,0.0324,0.013523,0.002678,0.000431,0.199680
136276000,0.0324,0.013523,0.002678,0.000431,0.154432
136277000,0.0324,0.013523,0.002678,0.000431,0.133865
136278000,0.0324,0.013523,0.002678,0.000431,0.115765
136279000,0.0324,0.013523,0.002678,0.000431,0.104012
136280000,0.0324,0.013523,0.002678,0.000431,0.086501
136281000,0.0324,0.013523,0.002678,0.000431,0.070164
136282000,0.0324,0.013523,0.002678,0.000431,0.072515
136283000,0.0324,0.013523,0.002678,0.000431,0.066521
136284000,0.0324,0.013523,0.002678,0.000431,0.042193
136285000,0.0324,0.013523,0.002678,0.000431,0.035964
136286000,0.0324,0.013523,0.002678,0.000431,0.033731
136287000,0.0324,0.013523,0.002678,0.000431,0.030440
136288000,0.0324,0.013523,0.002678,0.000431,0.027149
136289000,0.0324,0.013523,0.002678,0.000431,0.022448
136290000,0.0324,0.013523,0.002678,0.000431,0.025034
136291000,0.0324,0.013523,0.002678,0.000431,0.017159
136292000,0.0324,0.013523,0.002678,0.000431,0.014338
136293000,0.0324,0.013523,0.002678,0.000431,0.018687
136294000,0.0324,0.013523,0.002678,0.000431,0.015514
136295000,0.0324,0.013523,0.002678,0.000431,0.007404
136296000,0.0324,0.013523,0.002678,0.000431,0.009637
136297000,0.0324,0.013523,0.002678,0.000431,0.006817
136298000,0.0324,0.013523,0.002678,0.000431,0.013398
136299000,0.0324,0.013523,0.002678,0.000431,0.003291
136300000,0.0324,0.013523,0.002678,0.000431,0.001645
136301000,0.0324,0.013523,0.002678,0.000431,0.002938
136302000,0.0324,0.013523,0.002678,0.000431,0.002351
136303000,0.0324,0.013523,0.002678,0.000431,0.000940
136304000,0.0324,0.013523,0.002678,0.000431,0.000940
136305000,0.0324,0.013523,0.002678,0.000431,0.000705
136306000,0.0324,0.013523,0.002678,0.000431,0.000940
136307000,0.0324,0.013523,0.002678,0.000431,0.000705
136308000,0.0324,0.013523,0.002678,0.000431,0.000940
136309000,0.0324,0.013523,0.002678,0.000431,0.000705
136310000,0.0324,0.013523,0.002678,0.000431,0.000823
136311000,0.0324,0.013523,0.002678,0.000431,0.000823
136312000,0.0324,0.013523,0.002678,0.000431,0.000705
136313000,0.0324,0.013523,0.002678,0.000431,0.000940
136314000,0.0324,0.013523,0.002678,0.000431,0.167830
136315000,0.0324,0.013523,0.002678,0.000431,0.794255
136316000,0.0324,0.013523,0.002678,0.000431,0.523353
136317000,0.0324,0.013523,0.002678,0.000431,0.148086
136318000,0.0324,0.013523,0.002678,0.000431,0.312155
136319000,0.0324,0.013523,0.002678,0.000431,0.473168
136320000,0.0324,0.013523,0.002678,0.000431,0.318266
136321000,0.0324,0.013523,0.002678,0.000431,0.304633
136322000,0.0324,0.013523,0.002678,0.000431,0.148673
136323000,0.0324,0.013523,0.002678,0.000431,0.106010
136324000,0.0324,0.013523,0.002678,0.000431,0.523823
136325000,0.0324,0.013523,0.002678,0.000431,0.344123
136326000,0.0324,0.013523,0.002678,0.000431,0.238700
136327000,0.0324,0.013523,0.002678,0.000431,0.191571
136328000,0.0324,0.013523,0.002678,0.000431,0.165480
136329000,0.0324,0.013523,0.002678,0.000431,0.134570
136330000,0.0324,0.013523,0.002678,0.000431,0.113297
136331000,0.0324,0.013523,0.002678,0.000431,0.101427
136332000,0.0324,0.013523,0.002678,0.000431,0.087911
136333000,0.0324,0.013523,0.002678,0.000431,0.069694
136334000,0.0324,0.013523,0.002678,0.000431,0.065698
136335000,0.0324,0.013523,0.002678,0.000431,0.055356
136336000,0.0324,0.013523,0.002678,0.000431,0.040900
136337000,0.0324,0.013523,0.002678,0.000431,0.034436
136338000,0.0324,0.013523,0.002678,0.000431,0.026914
136339000,0.0324,0.013523,0.002678,0.000431,0.039372
136340000,0.0324,0.013523,0.002678,0.000431,0.023741
136341000,0.0324,0.013523,0.002678,0.000431,0.022918
136342000,0.0324,0.013523,0.002678,0.000431,0.021038
136343000,0.0324,0.013523,0.002678,0.000431,0.017629
136344000,0.0324,0.013523,0.002678,0.000431,0.014926
136345000,0.0324,0.013523,0.002678,0.000431,0.017042
136346000,0.0324,0.013523,0.002678,0.000431,0.015631
136347000,0.0324,0.013523,0.002678,0.000431,0.024681
136348000,0.0324,0.013523,0.002678,0.000431,0.010578
136349000,0.0324,0.013523,0.002678,0.000431,0.008815
136350000,0.0324,0.013523,0.002678,0.000431,0.009402
136351000,0.0324,0.013523,0.002678,0.000431,0.009050
136352000,0.0324,0.013523,0.002678,0.000431,0.005524
136353000,0.0324,0.013523,0.002678,0.000431,0.007169
136354000,0.0324,0.013523,0.002678,0.000431,0.003291
136355000,0.0324,0.013523,0.002678,0.000431,0.003526
136356000,0.0324,0.013523,0.002678,0.000431,0.003056
136357000,0.0324,0.013523,0.002678,0.000431,0.006464
136358000,0.0324,0.013523,0.002678,0.000431,0.002351
136359000,0.0324,0.013523,0.002678,0.000431,0.002586
136360000,0.0324,0.013523,0.002678,0.000431,0.002468
136361000,0.0324,0.013523,0.002678,0.000431,0.002468
136362000,0.0324,0.013523,0.002678,0.000431,0.004936
136363000,0.0324,0.013523,0.002678,0.000431,0.001645
136364000,0.0324,0.013523,0.002678,0.000431,0.001645
136365000,0.0324,0.013523,0.002678,0.000431,0.001763
136366000,0.0324,0.013523,0.002678,0.000431,0.003996
136367000,0.0324,0.013523,0.002678,0.000431,0.000823
136368000,0.0324,0.013523,0.002678,0.000431,0.000705
136369000,0.0324,0.013523,0.002678,0.000431,0.000940
136370000,0.0324,0.013523,0.002678,0.000431,0.000705
136371000,0.0324,0.013523,0.002678,0.000431,0.000940
136372000,0.0324,0.013523,0.002678,0.000431,0.062525
136373000,0.0324,0.013523,0.002678,0.000431,0.826693
136374000,0.0324,0.013523,0.002678,0.000431,0.577181
136375000,0.0324,0.013523,0.002678,0.000431,0.141269
136376000,0.0324,0.013523,0.002678,0.000431,0.182639
136377000,0.0324,0.013523,0.002678,0.000431,0.541687
136378000,0.0324,0.013523,0.002678,0.000431,0.287591
136379000,0.0324,0.013523,0.002678,0.000431,0.340009
136380000,0.0324,0.013523,0.002678,0.000431,0.151611
136381000,0.0324,0.013523,0.002678,0.000431,0.121054
136382000,0.0324,0.013523,0.002678,0.000431,0.340949
136383000,0.0324,0.013523,0.002678,0.000431,0.478927
136384000,0.0324,0.013523,0.002678,0.000431,0.249160
136385000,0.0324,0.013523,0.002678,0.000431,0.194392
136386000,0.0324,0.013523,0.002678,0.000431,0.175587
136387000,0.0324,0.013523,0.002678,0.000431,0.142914
136388000,0.0324,0.013523,0.002678,0.000431,0.122699
136389000,0.0324,0.013523,0.002678,0.000431,0.111064
136390000,0.0324,0.013523,0.002678,0.000431,0.084973
136391000,0.0324,0.013523,0.002678,0.000431,0.063465
136392000,0.0324,0.013523,0.002678,0.000431,0.053710
136393000,0.0324,0.013523,0.002678,0.000431,0.055121
136394000,0.0324,0.013523,0.002678,0.000431,0.042780
136395000,0.0324,0.013523,0.002678,0.000431,0.030205
136396000,0.0324,0.013523,0.002678,0.000431,0.038432
136397000,0.0324,0.013523,0.002678,0.000431,0.030675
136398000,0.0324,0.013523,0.002678,0.000431,0.023506
136399000,0.0324,0.013523,0.002678,0.000431,0.025504
136400000,0.0324,0.013523,0.002678,0.000431,0.023623
136401000,0.0324,0.013523,0.002678,0.000431,0.014926
136402000,0.0324,0.013523,0.002678,0.000431,0.013986
136403000,0.0324,0.013523,0.002678,0.000431,0.013163
136404000,0.0324,0.013523,0.002678,0.000431,0.007874
136405000,0.0324,0.013523,0.002678,0.000431,0.008697
136406000,0.0324,0.013523,0.002678,0.000431,0.006229
136407000,0.0324,0.013523,0.002678,0.000431,0.004936
136408000,0.0324,0.013523,0.002678,0.000431,0.004819
136409000,0.0324,0.013523,0.002678,0.000431,0.005406
136410000,0.0324,0.013523,0.002678,0.000431,0.004701
136411000,0.0324,0.013523,0.002678,0.000431,0.010578
136412000,0.0324,0.013523,0.002678,0.000431,0.003056
136413000,0.0324,0.013523,0.002678,0.000431,0.003643
136414000,0.0324,0.013523,0.002678,0.000431,0.004349
136415000,0.0324,0.013523,0.002678,0.000431,0.003996
136416000,0.0324,0.013523,0.002678,0.000431,0.003643
136417000,0.0324,0.013523,0.002678,0.000431,0.002821
136418000,0.0324,0.013523,0.002678,0.000431,0.001763
136419000,0.0324,0.013523,0.002678,0.000431,0.001645
136420000,0.0324,0.013523,0.002678,0.000431,0.001645
136421000,0.0324,0.013523,0.002678,0.000431,0.001645
136422000,0.0324,0.013523,0.002678,0.000431,0.001645
136423000,0.0324,0.013523,0.002678,0.000431,0.001645
136424000,0.0324,0.013523,0.002678,0.000431,0.001763
136425000,0.0324,0.013523,0.002678,0.000431,0.001645
136426000,0.0324,0.013523,0.002678,0.000431,0.001645
136427000,0.0324,0.013523,0.002678,0.000431,0.001528
136428000,0.0324,0.013523,0.002678,0.000431,0.001880
136429000,0.0324,0.013523,0.002678,0.000431,0.001763
136430000,0.0324,0.013523,0.002678,0.000431,0.001528
136431000,0.0324,0.013523,0.002678,0.000431,0.001763
136432000,0.0324,0.013523,0.002678,0.000431,0.001410
136433000,0.0324,0.013523,0.002678,0.000431,0.001880
136434000,0.0324,0.013523,0.002678,0.000431,0.001645
136435000,0.0324,0.013523,0.002678,0.000431,0.001645
136436000,0.0324,0.013523,0.002678,0.000431,0.001880
136437000,0.0324,0.013523,0.002678,0.000431,0.001528
136438000,0.0324,0.013523,0.002678,0.000431,0.003291
136439000,0.0324,0.013523,0.002678,0.000431,0.002586
136440000,0.0324,0.013523,0.002678,0.000431,0.000705
136441000,0.0324,0.013523,0.002678,0.000431,0.000940
136442000,0.0324,0.013523,0.002678,0.000431,0.000705
136443000,0.0324,0.013523,0.002678,0.000431,0.000940
136444000,0.0324,0.013523,0.002678,0.000431,0.000823
136445000,0.0324,0.013523,0.002678,0.000431,0.000823
136446000,0.0324,0.013523,0.002678,0.000431,0.000823
136447000,0.0324,0.013523,0.002678,0.000431,0.000823
136448000,0.0324,0.013523,0.002678,0.000431,0.000940
136449000,0.0324,0.013523,0.002678,0.000431,0.000705
136450000,0.0324,0.013523,0.002678,0.000431,0.000940
136451000,0.0324,0.013523,0.002678,0.000431,0.000823
136452000,0.0324,0.013523,0.002678,0.000431,0.000823
136453000,0.0324,0.013523,0.002678,0.000431,0.000940
136454000,0.0324,0.013523,0.002678,0.000431,0.000705
136455000,0.0324,0.013523,0.002678,0.000431,0.000823
136456000,0.0324,0.013523,0.002678,0.000431,0.000823
136457000,0.0324,0.013523,0.002678,0.000431,0.000940
136458000,0.0324,0.013523,0.002678,0.000431,0.000705
136459000,0.0324,0.013523,0.002678,0.000431,0.000940
136460000,0.0324,0.013523,0.002678,0.000431,0.000705
136461000,0.0324,0.013523,0.002678,0.000431,0.000940
136462000,0.0324,0.013523,0.002678,0.000431,0.000823
136463000,0.0324,0.013523,0.002678,0.000431,0.000823
136464000,0.0324,0.013523,0.002678,0.000431,0.000823
136465000,0.0324,0.013523,0.002678,0.000431,0.000823
136466000,0.0324,0.013523,0.002678,0.000431,0.000823
136467000,0.0324,0.013523,0.002678,0.000431,0.000823
136468000,0.0324,0.013523,0.002678,0.000431,0.000705
136469000,0.0324,0.013523,0.002678,0.000431,0.000940
136470000,0.0324,0.013523,0.002678,0.000431,0.000705
136471000,0.0324,0.013523,0.002678,0.000431,0.000940
136472000,0.0324,0.013523,0.002678,0.000431,0.120231
136473000,0.0324,0.013523,0.002678,0.000431,0.835978
136474000,0.0324,0.013523,0.002678,0.000431,0.521473
136475000,0.0324,0.013523,0.002678,0.000431,0.153022
136476000,0.0324,0.013523,0.002678,0.000431,0.261618
136477000,0.0324,0.013523,0.002678,0.000431,0.471288
136478000,0.0324,0.013523,0.002678,0.000431,0.240345
136479000,0.0324,0.013523,0.002678,0.000431,0.312037
136480000,0.0324,0.013523,0.002678,0.000431,0.150319
136481000,0.0324,0.013523,0.002678,0.000431,0.159133
136482000,0.0324,0.013523,0.002678,0.000431,0.225889
136483000,0.0324,0.013523,0.002678,0.000431,0.541335
136484000,0.0324,0.013523,0.002678,0.000431,0.271255
136485000,0.0324,0.013523,0.002678,0.000431,0.208965
136486000,0.0324,0.013523,0.002678,0.000431,0.176410
136487000,0.0324,0.013523,0.002678,0.000431,0.171826
136488000,0.0324,0.013523,0.002678,0.000431,0.133982
136489000,0.0324,0.013523,0.002678,0.000431,0.100957
136490000,0.0324,0.013523,0.002678,0.000431,0.085561
136491000,0.0324,0.013523,0.002678,0.000431,0.062172
136492000,0.0324,0.013523,0.002678,0.000431,0.058764
136493000,0.0324,0.013523,0.002678,0.000431,0.057354
136494000,0.0324,0.013523,0.002678,0.000431,0.046071
136495000,0.0324,0.013523,0.002678,0.000431,0.036316
136496000,0.0324,0.013523,0.002678,0.000431,0.038314
136497000,0.0324,0.013523,0.002678,0.000431,0.030440
136498000,0.0324,0.013523,0.002678,0.000431,0.022448
136499000,0.0324,0.013523,0.002678,0.000431,0.019862
136500000,0.0324,0.013523,0.002678,0.000431,0.020920
136501000,0.0324,0.013523,0.002678,0.000431,0.016219
136502000,0.0324,0.013523,0.002678,0.000431,0.017747
136503000,0.0324,0.013523,0.002678,0.000431,0.015161
136504000,0.0324,0.013523,0.002678,0.000431,0.013751
136505000,0.0324,0.013523,0.002678,0.000431,0.014926
136506000,0.0324,0.013523,0.002678,0.000431,0.016336
136507000,0.0324,0.013523,0.002678,0.000431,0.018687
136508000,0.0324,0.013523,0.002678,0.000431,0.013163
136509000,0.0324,0.013523,0.002678,0.000431,0.011283
136510000,0.0324,0.013523,0.002678,0.000431,0.012458
136511000,0.0324,0.013523,0.002678,0.000431,0.010695
136512000,0.0324,0.013523,0.002678,0.000431,0.009872
136513000,0.0324,0.013523,0.002678,0.000431,0.009872
136514000,0.0324,0.013523,0.002678,0.000431,0.009637
136515000,0.0324,0.013523,0.002678,0.000431,0.012693
136516000,0.0324,0.013523,0.002678,0.000431,0.010930
136517000,0.0324,0.013523,0.002678,0.000431,0.007639
136518000,0.0324,0.013523,0.002678,0.000431,0.007639
136519000,0.0324,0.013523,0.002678,0.000431,0.010930
136520000,0.0324,0.013523,0.002678,0.000431,0.005406
136521000,0.0324,0.013523,0.002678,0.000431,0.008345
136522000,0.0324,0.013523,0.002678,0.000431,0.004466
136523000,0.0324,0.013523,0.002678,0.000431,0.007287
136524000,0.0324,0.013523,0.002678,0.000431,0.003878
136525000,0.0324,0.013523,0.002678,0.000431,0.004584
136526000,0.0324,0.013523,0.002678,0.000431,0.002938
136527000,0.0324,0.013523,0.002678,0.000431,0.002468
136528000,0.0324,0.013523,0.002678,0.000431,0.004701
136529000,0.0324,0.013523,0.002678,0.000431,0.000940
136530000,0.0324,0.013523,0.002678,0.000431,0.000823
136531000,0.0324,0.013523,0.002678,0.000431,0.000823
136532000,0.0324,0.013523,0.002678,0.000431,0.000823
136533000,0.0324,0.013523,0.002678,0.000431,0.000940
136534000,0.0324,0.013523,0.002678,0.000431,0.000705
136535000,0.0324,0.013523,0.002678,0.000431,0.000940
136536000,0.0324,0.013523,0.002678,0.000431,0.000823
136537000,0.0324,0.013523,0.002678,0.000431,0.000823
136538000,0.0324,0.013523,0.002678,0.000431,0.000705
136539000,0.0324,0.013523,0.002678,0.000431,0.000940
136540000,0.0324,0.013523,0.002678,0.000431,0.000940
136541000,0.0324,0.013523,0.002678,0.000431,0.000705
136542000,0.0324,0.013523,0.002678,0.000431,0.000940
136543000,0.0324,0.013523,0.002678,0.000431,0.000705
136544000,0.0324,0.013523,0.002678,0.000431,0.000940
136545000,0.0324,0.013523,0.002678,0.000431,0.000823
136546000,0.0324,0.013523,0.002678,0.000431,0.000823
136547000,0.0324,0.013523,0.002678,0.000431,0.000940
136548000,0.0324,0.013523,0.002678,0.000431,0.003056
136549000,0.0324,0.013523,0.002678,0.000431,0.606445
136550000,0.0324,0.013523,0.002678,0.000431,0.749595
136551000,0.0324,0.013523,0.002678,0.000431,0.175352
136552000,0.0324,0.013523,0.002678,0.000431,0.154902
136553000,0.0324,0.013523,0.002678,0.000431,0.557084
136554000,0.0324,0.013523,0.002678,0.000431,0.332840
136555000,0.0324,0.013523,0.002678,0.000431,0.300755
136556000,0.0324,0.013523,0.002678,0.000431,0.149966
136557000,0.0324,0.013523,0.002678,0.000431,0.140094
136558000,0.0324,0.013523,0.002678,0.000431,0.238347
136559000,0.0324,0.013523,0.002678,0.000431,0.542040
136560000,0.0324,0.013523,0.002678,0.000431,0.238347
136561000,0.0324,0.013523,0.002678,0.000431,0.212844
136562000,0.0324,0.013523,0.002678,0.000431,0.171474
136563000,0.0324,0.013523,0.002678,0.000431,0.139859
136564000,0.0324,0.013523,0.002678,0.000431,0.132924
136565000,0.0324,0.013523,0.002678,0.000431,0.108714
136566000,0.0324,0.013523,0.002678,0.000431,0.102837
136567000,0.0324,0.013523,0.002678,0.000431,0.084738
136568000,0.0324,0.013523,0.002678,0.000431,0.080859
136569000,0.0324,0.013523,0.002678,0.000431,0.075688
136570000,0.0324,0.013523,0.002678,0.000431,0.056296
136571000,0.0324,0.013523,0.002678,0.000431,0.052300
136572000,0.0324,0.013523,0.002678,0.000431,0.037139
136573000,0.0324,0.013523,0.002678,0.000431,0.041958
136574000,0.0324,0.013523,0.002678,0.000431,0.027031
136575000,0.0324,0.013523,0.002678,0.000431,0.031380
136576000,0.0324,0.013523,0.002678,0.000431,0.024328
136577000,0.0324,0.013523,0.002678,0.000431,0.022800
136578000,0.0324,0.013523,0.002678,0.000431,0.025034
136579000,0.0324,0.013523,0.002678,0.000431,0.022800
136580000,0.0324,0.013523,0.002678,0.000431,0.022800
136581000,0.0324,0.013523,0.002678,0.000431,0.017747
136582000,0.0324,0.013523,0.002678,0.000431,0.017864
136583000,0.0324,0.013523,0.002678,0.000431,0.011753
136584000,0.0324,0.013523,0.002678,0.000431,0.013516
136585000,0.0324,0.013523,0.002678,0.000431,0.010342
136586000,0.0324,0.013523,0.002678,0.000431,0.007874
136587000,0.0324,0.013523,0.002678,0.000431,0.005406
136588000,0.0324,0.013523,0.002678,0.000431,0.006111
136589000,0.0324,0.013523,0.002678,0.000431,0.007287
136590000,0.0324,0.013523,0.002678,0.000431,0.007287
136591000,0.0324,0.013523,0.002678,0.000431,0.005171
136592000,0.0324,0.013523,0.002678,0.000431,0.006817
136593000,0.0324,0.013523,0.002678,0.000431,0.006582
136594000,0.0324,0.013523,0.002678,0.000431,0.003761
136595000,0.0324,0.013523,0.002678,0.000431,0.004349
136596000,0.0324,0.013523,0.002678,0.000431,0.006699
136597000,0.0324,0.013523,0.002678,0.000431,0.002703
136598000,0.0324,0.013523,0.002678,0.000431,0.003291
136599000,0.0324,0.013523,0.002678,0.000431,0.003291
136600000,0.0324,0.013523,0.002678,0.000431,0.003291
136601000,0.0324,0.013523,0.002678,0.000431,0.003291
136602000,0.0324,0.013523,0.002678,0.000431,0.002468
136603000,0.0324,0.013523,0.002678,0.000431,0.002586
136604000,0.0324,0.013523,0.002678,0.000431,0.002351
136605000,0.0324,0.013523,0.002678,0.000431,0.002586
136606000,0.0324,0.013523,0.002678,0.000431,0.002468
136607000,0.0324,0.013523,0.002678,0.000431,0.002586
136608000,0.0324,0.013523,0.002678,0.000431,0.002468
136609000,0.0324,0.013523,0.002678,0.000431,0.002703
136610000,0.0324,0.013523,0.002678,0.000431,0.002351
136611000,0.0324,0.013523,0.002678,0.000431,0.002586
136612000,0.0324,0.013523,0.002678,0.000431,0.002586
136613000,0.0324,0.013523,0.002678,0.000431,0.002116
136614000,0.0324,0.013523,0.002678,0.000431,0.001880
136615000,0.0324,0.013523,0.002678,0.000431,0.001763
136616000,0.0324,0.013523,0.002678,0.000431,0.003408
136617000,0.0324,0.013523,0.002678,0.000431,0.002703
136618000,0.0324,0.013523,0.002678,0.000431,0.068754
136619000,0.0324,0.013523,0.002678,0.000431,0.811532
136620000,0.0324,0.013523,0.002678,0.000431,0.576241
136621000,0.0324,0.013523,0.002678,0.000431,0.144677
136622000,0.0324,0.013523,0.002678,0.000431,0.193686
136623000,0.0324,0.013523,0.002678,0.000431,0.568954
136624000,0.0324,0.013523,0.002678,0.000431,0.331429
136625000,0.0324,0.013523,0.002678,0.000431,0.269375
136626000,0.0324,0.013523,0.002678,0.000431,0.149496
136627000,0.0324,0.013523,0.002678,0.000431,0.123875
136628000,0.0324,0.013523,0.002678,0.000431,0.312742
136629000,0.0324,0.013523,0.002678,0.000431,0.503256
136630000,0.0324,0.013523,0.002678,0.000431,0.241873
136631000,0.0324,0.013523,0.002678,0.000431,0.239052
136632000,0.0324,0.013523,0.002678,0.000431,0.204146
136633000,0.0324,0.013523,0.002678,0.000431,0.180406
136634000,0.0324,0.013523,0.002678,0.000431,0.139036
136635000,0.0324,0.013523,0.002678,0.000431,0.112827
136636000,0.0324,0.013523,0.002678,0.000431,0.090849
136637000,0.0324,0.013523,0.002678,0.000431,0.085913
136638000,0.0324,0.013523,0.002678,0.000431,0.066403
136639000,0.0324,0.013523,0.002678,0.000431,0.052300
136640000,0.0324,0.013523,0.002678,0.000431,0.051595
136641000,0.0324,0.013523,0.002678,0.000431,0.048892
136642000,0.0324,0.013523,0.002678,0.000431,0.041487
136643000,0.0324,0.013523,0.002678,0.000431,0.047951
136644000,0.0324,0.013523,0.002678,0.000431,0.035376
136645000,0.0324,0.013523,0.002678,0.000431,0.037844
136646000,0.0324,0.013523,0.002678,0.000431,0.024328
136647000,0.0324,0.013523,0.002678,0.000431,0.016689
136648000,0.0324,0.013523,0.002678,0.000431,0.017864
136649000,0.0324,0.013523,0.002678,0.000431,0.011283
136650000,0.0324,0.013523,0.002678,0.000431,0.010225
136651000,0.0324,0.013523,0.002678,0.000431,0.014691
136652000,0.0324,0.013523,0.002678,0.000431,0.012105
136653000,0.0324,0.013523,0.002678,0.000431,0.009285
136654000,0.0324,0.013523,0.002678,0.000431,0.003996
136655000,0.0324,0.013523,0.002678,0.000431,0.004349
136656000,0.0324,0.013523,0.002678,0.000431,0.006464
136657000,0.0324,0.013523,0.002678,0.000431,0.005054
136658000,0.0324,0.013523,0.002678,0.000431,0.001528
136659000,0.0324,0.013523,0.002678,0.000431,0.001880
136660000,0.0324,0.013523,0.002678,0.000431,0.001645
136661000,0.0324,0.013523,0.002678,0.000431,0.001880
136662000,0.0324,0.013523,0.002678,0.000431,0.001410
136663000,0.0324,0.013523,0.002678,0.000431,0.001880
136664000,0.0324,0.013523,0.002678,0.000431,0.001763
136665000,0.0324,0.013523,0.002678,0.000431,0.001645
136666000,0.0324,0.013523,0.002678,0.000431,0.001645
136667000,0.0324,0.013523,0.002678,0.000431,0.001763
136668000,0.0324,0.013523,0.002678,0.000431,0.001763
136669000,0.0324,0.013523,0.002678,0.000431,0.001645
136670000,0.0324,0.013523,0.002678,0.000431,0.001763
136671000,0.0324,0.013523,0.002678,0.000431,0.001645
136672000,0.0324,0.013523,0.002678,0.000431,0.005759
136673000,0.0324,0.013523,0.002678,0.000431,0.000940
136674000,0.0324,0.013523,0.002678,0.000431,0.000823
136675000,0.0324,0.013523,0.002678,0.000431,0.000705
136676000,0.0324,0.013523,0.002678,0.000431,0.000823
136677000,0.0324,0.013523,0.002678,0.000431,0.000705
136678000,0.0324,0.013523,0.002678,0.000431,0.000940
136679000,0.0324,0.013523,0.002678,0.000431,0.000940
136680000,0.0324,0.013523,0.002678,0.000431,0.000705
136681000,0.0324,0.013523,0.002678,0.000431,0.000940
136682000,0.0324,0.013523,0.002678,0.000431,0.000705
136683000,0.0324,0.013523,0.002678,0.000431,0.000940
136684000,0.0324,0.013523,0.002678,0.000431,0.000940
136685000,0.0324,0.013523,0.002678,0.000431,0.000705
136686000,0.0324,0.013523,0.002678,0.000431,0.000940
136687000,0.0324,0.013523,0.002678,0.000431,0.000705
136688000,0.0324,0.013523,0.002678,0.000431,0.000940
136689000,0.0324,0.013523,0.002678,0.000431,0.000705
136690000,0.0324,0.013523,0.002678,0.000431,0.000940
136691000,0.0324,0.013523,0.002678,0.000431,0.000705
136692000,0.0324,0.013523,0.002678,0.000431,0.016454
136693000,0.0324,0.013523,0.002678,0.000431,0.750535
136694000,0.0324,0.013523,0.002678,0.000431,0.660978
136695000,0.0324,0.013523,0.002678,0.000431,0.158310
136696000,0.0324,0.013523,0.002678,0.000431,0.153257
136697000,0.0324,0.013523,0.002678,0.000431,0.573067
136698000,0.0324,0.013523,0.002678,0.000431,0.274781
136699000,0.0324,0.013523,0.002678,0.000431,0.320734
136700000,0.0324,0.013523,0.002678,0.000431,0.161836
136701000,0.0324,0.013523,0.002678,0.000431,0.158075
136702000,0.0324,0.013523,0.002678,0.000431,0.202031
136703000,0.0324,0.013523,0.002678,0.000431,0.555556
136704000,0.0324,0.013523,0.002678,0.000431,0.280892
136705000,0.0324,0.013523,0.002678,0.000431,0.241285
136706000,0.0324,0.013523,0.002678,0.000431,0.220953
136707000,0.0324,0.013523,0.002678,0.000431,0.202736
136708000,0.0324,0.013523,0.002678,0.000431,0.146440
136709000,0.0324,0.013523,0.002678,0.000431,0.137155
136710000,0.0324,0.013523,0.002678,0.000431,0.112474
136711000,0.0324,0.013523,0.002678,0.000431,0.119879
136712000,0.0324,0.013523,0.002678,0.000431,0.104365
136713000,0.0324,0.013523,0.002678,0.000431,0.065346
136714000,0.0324,0.013523,0.002678,0.000431,0.064523
136715000,0.0324,0.013523,0.002678,0.000431,0.049244
136716000,0.0324,0.013523,0.002678,0.000431,0.036904
136717000,0.0324,0.013523,0.002678,0.000431,0.027149
136718000,0.0324,0.013523,0.002678,0.000431,0.029147
136719000,0.0324,0.013523,0.002678,0.000431,0.022800
136720000,0.0324,0.013523,0.002678,0.000431,0.023036
136721000,0.0324,0.013523,0.002678,0.000431,0.020685
136722000,0.0324,0.013523,0.002678,0.000431,0.013281
136723000,0.0324,0.013523,0.002678,0.000431,0.015396
136724000,0.0324,0.013523,0.002678,0.000431,0.021155
136725000,0.0324,0.013523,0.002678,0.000431,0.013281
136726000,0.0324,0.013523,0.002678,0.000431,0.011753
136727000,0.0324,0.013523,0.002678,0.000431,0.009520
136728000,0.0324,0.013523,0.002678,0.000431,0.008345
136729000,0.0324,0.013523,0.002678,0.000431,0.006582
136730000,0.0324,0.013523,0.002678,0.000431,0.005876
136731000,0.0324,0.013523,0.002678,0.000431,0.007052
136732000,0.0324,0.013523,0.002678,0.000431,0.008462
136733000,0.0324,0.013523,0.002678,0.000431,0.004231
136734000,0.0324,0.013523,0.002678,0.000431,0.003526
136735000,0.0324,0.013523,0.002678,0.000431,0.003761
136736000,0.0324,0.013523,0.002678,0.000431,0.003761
136737000,0.0324,0.013523,0.002678,0.000431,0.003761
136738000,0.0324,0.013523,0.002678,0.000431,0.004113
136739000,0.0324,0.013523,0.002678,0.000431,0.003056
136740000,0.0324,0.013523,0.002678,0.000431,0.004113
136741000,0.0324,0.013523,0.002678,0.000431,0.005054
136742000,0.0324,0.013523,0.002678,0.000431,0.004466
136743000,0.0324,0.013523,0.002678,0.000431,0.003173
136744000,0.0324,0.013523,0.002678,0.000431,0.002938
136745000,0.0324,0.013523,0.002678,0.000431,0.003878
136746000,0.0324,0.013523,0.002678,0.000431,0.003408
136747000,0.0324,0.013523,0.002678,0.000431,0.001645
136748000,0.0324,0.013523,0.002678,0.000431,0.003643
136749000,0.0324,0.013523,0.002678,0.000431,0.000940
136750000,0.0324,0.013523,0.002678,0.000431,0.000705
136751000,0.0324,0.013523,0.002678,0.000431,0.000940
136752000,0.0324,0.013523,0.002678,0.000431,0.000823
136753000,0.0324,0.013523,0.002678,0.000431,0.000823
136754000,0.0324,0.013523,0.002678,0.000431,0.000823
136755000,0.0324,0.013523,0.002678,0.000431,0.000823
136756000,0.0324,0.013523,0.002678,0.000431,0.000823
136757000,0.0324,0.013523,0.002678,0.000431,0.000823
136758000,0.0324,0.013523,0.002678,0.000431,0.000940
136759000,0.0324,0.013523,0.002678,0.000431,0.000823
136760000,0.0324,0.013523,0.002678,0.000431,0.000823
136761000,0.0324,0.013523,0.002678,0.000431,0.000823
136762000,0.0324,0.013523,0.002678,0.000431,0.000823
136763000,0.0324,0.013523,0.002678,0.000431,0.000823
136764000,0.0324,0.013523,0.002678,0.000431,0.000823
136765000,0.0324,0.013523,0.002678,0.000431,0.000823
136766000,0.0324,0.013523,0.002678,0.000431,0.000823
136767000,0.0324,0.013523,0.002678,0.000431,0.000940
136768000,0.0324,0.013523,0.002678,0.000431,0.000705
136769000,0.0324,0.013523,0.002678,0.000431,0.000940
136770000,0.0324,0.013523,0.002678,0.000431,0.000705
136771000,0.0324,0.013523,0.002678,0.000431,0.000940
136772000,0.0324,0.013523,0.002678,0.000431,0.000940
136773000,0.0324,0.013523,0.002678,0.000431,0.000705
136774000,0.0324,0.013523,0.002678,0.000431,0.000940
136775000,0.0324,0.013523,0.002678,0.000431,0.000705
136776000,0.0324,0.013523,0.002678,0.000431,0.000940
136777000,0.0324,0.013523,0.002678,0.000431,0.000705
136778000,0.0324,0.013523,0.002678,0.000431,0.004231
136779000,0.0324,0.013523,0.002678,0.000431,0.712573
136780000,0.0324,0.013523,0.002678,0.000431,0.705287
136781000,0.0324,0.013523,0.002678,0.000431,0.184284
136782000,0.0324,0.013523,0.002678,0.000431,0.158193
136783000,0.0324,0.013523,0.002678,0.000431,0.606798
136784000,0.0324,0.013523,0.002678,0.000431,0.296641
136785000,0.0324,0.013523,0.002678,0.000431,0.291587
136786000,0.0324,0.013523,0.002678,0.000431,0.162541
136787000,0.0324,0.013523,0.002678,0.000431,0.105070
136788000,0.0324,0.013523,0.002678,0.000431,0.401241
136789000,0.0324,0.013523,0.002678,0.000431,0.504431
136790000,0.0324,0.013523,0.002678,0.000431,0.276426
136791000,0.0324,0.013523,0.002678,0.000431,0.244929
136792000,0.0324,0.013523,0.002678,0.000431,0.218132
136793000,0.0324,0.013523,0.002678,0.000431,0.187340
136794000,0.0324,0.013523,0.002678,0.000431,0.157488
136795000,0.0324,0.013523,0.002678,0.000431,0.119996
136796000,0.0324,0.013523,0.002678,0.000431,0.106833
136797000,0.0324,0.013523,0.002678,0.000431,0.081917
136798000,0.0324,0.013523,0.002678,0.000431,0.071340
136799000,0.0324,0.013523,0.002678,0.000431,0.062995
136800000,0.0324,0.013523,0.002678,0.000431,0.036081
136801000,0.0324,0.013523,0.002678,0.000431,0.039725
136802000,0.0324,0.013523,0.002678,0.000431,0.039019
136803000,0.0324,0.013523,0.002678,0.000431,0.027384
136804000,0.0324,0.013523,0.002678,0.000431,0.021508
136805000,0.0324,0.013523,0.002678,0.000431,0.025151
136806000,0.0324,0.013523,0.002678,0.000431,0.020450
136807000,0.0324,0.013523,0.002678,0.000431,0.012811
136808000,0.0324,0.013523,0.002678,0.000431,0.016101
136809000,0.0324,0.013523,0.002678,0.000431,0.013751
136810000,0.0324,0.013523,0.002678,0.000431,0.018922
136811000,0.0324,0.013523,0.002678,0.000431,0.004701
136812000,0.0324,0.013523,0.002678,0.000431,0.007052
136813000,0.0324,0.013523,0.002678,0.000431,0.003761
136814000,0.0324,0.013523,0.002678,0.000431,0.006934
136815000,0.0324,0.013523,0.002678,0.000431,0.005171
136816000,0.0324,0.013523,0.002678,0.000431,0.003056
136817000,0.0324,0.013523,0.002678,0.000431,0.002233
136818000,0.0324,0.013523,0.002678,0.000431,0.000940
136819000,0.0324,0.013523,0.002678,0.000431,0.015279
136820000,0.0324,0.013523,0.002678,0.000431,0.798251
136821000,0.0324,0.013523,0.002678,0.000431,0.644760
136822000,0.0324,0.013523,0.002678,0.000431,0.176057
136823000,0.0324,0.013523,0.002678,0.000431,0.162541
136824000,0.0324,0.013523,0.002678,0.000431,0.559317
136825000,0.0324,0.013523,0.002678,0.000431,0.262558
136826000,0.0324,0.013523,0.002678,0.000431,0.333898
136827000,0.0324,0.013523,0.002678,0.000431,0.169946
136828000,0.0324,0.013523,0.002678,0.000431,0.146558
136829000,0.0324,0.013523,0.002678,0.000431,0.234234
136830000,0.0324,0.013523,0.002678,0.000431,0.579531
136831000,0.0324,0.013523,0.002678,0.000431,0.270432
136832000,0.0324,0.013523,0.002678,0.000431,0.237995
136833000,0.0324,0.013523,0.002678,0.000431,0.205909
136834000,0.0324,0.013523,0.002678,0.000431,0.165362
136835000,0.0324,0.013523,0.002678,0.000431,0.133747
136836000,0.0324,0.013523,0.002678,0.000431,0.119291
136837000,0.0324,0.013523,0.002678,0.000431,0.107891
136838000,0.0324,0.013523,0.002678,0.000431,0.080037
136839000,0.0324,0.013523,0.002678,0.000431,0.070047
136840000,0.0324,0.013523,0.002678,0.000431,0.072632
136841000,0.0324,0.013523,0.002678,0.000431,0.044661
136842000,0.0324,0.013523,0.002678,0.000431,0.032555
136843000,0.0324,0.013523,0.002678,0.000431,0.035964
136844000,0.0324,0.013523,0.002678,0.000431,0.034906
136845000,0.0324,0.013523,0.002678,0.000431,0.021625
136846000,0.0324,0.013523,0.002678,0.000431,0.022918
136847000,0.0324,0.013523,0.002678,0.000431,0.016571
136848000,0.0324,0.013523,0.002678,0.000431,0.021860
136849000,0.0324,0.013523,0.002678,0.000431,0.017159
136850000,0.0324,0.013523,0.002678,0.000431,0.013398
136851000,0.0324,0.013523,0.002678,0.000431,0.012693
136852000,0.0324,0.013523,0.002678,0.000431,0.015631
136853000,0.0324,0.013523,0.002678,0.000431,0.010930
136854000,0.0324,0.013523,0.002678,0.000431,0.007992
136855000,0.0324,0.013523,0.002678,0.000431,0.011165
136856000,0.0324,0.013523,0.002678,0.000431,0.006229
136857000,0.0324,0.013523,0.002678,0.000431,0.006464
136858000,0.0324,0.013523,0.002678,0.000431,0.008815
136859000,0.0324,0.013523,0.002678,0.000431,0.007052
136860000,0.0324,0.013523,0.002678,0.000431,0.004349
136861000,0.0324,0.013523,0.002678,0.000431,0.005994
136862000,0.0324,0.013523,0.002678,0.000431,0.009050
136863000,0.0324,0.013523,0.002678,0.000431,0.003761
136864000,0.0324,0.013523,0.002678,0.000431,0.003056
136865000,0.0324,0.013523,0.002678,0.000431,0.001528
136866000,0.0324,0.013523,0.002678,0.000431,0.004349
136867000,0.0324,0.013523,0.002678,0.000431,0.000940
136868000,0.0324,0.013523,0.002678,0.000431,0.000940
136869000,0.0324,0.013523,0.002678,0.000431,0.000705
136870000,0.0324,0.013523,0.002678,0.000431,0.000823
136871000,0.0324,0.013523,0.002678,0.000431,0.295113
136872000,0.0324,0.013523,0.002678,0.000431,0.846908
136873000,0.0324,0.013523,0.002678,0.000431,0.421339
136874000,0.0324,0.013523,0.002678,0.000431,0.146440
136875000,0.0324,0.013523,0.002678,0.000431,0.548739
136876000,0.0324,0.013523,0.002678,0.000431,0.279482
136877000,0.0324,0.013523,0.002678,0.000431,0.302400
136878000,0.0324,0.013523,0.002678,0.000431,0.206497
136879000,0.0324,0.013523,0.002678,0.000431,0.184402
136880000,0.0324,0.013523,0.002678,0.000431,0.108008
136881000,0.0324,0.013523,0.002678,0.000431,0.574948
136882000,0.0324,0.013523,0.002678,0.000431,0.327316
136883000,0.0324,0.013523,0.002678,0.000431,0.242931
136884000,0.0324,0.013523,0.002678,0.000431,0.221541
136885000,0.0324,0.013523,0.002678,0.000431,0.160779
136886000,0.0324,0.013523,0.002678,0.000431,0.140916
136887000,0.0324,0.013523,0.002678,0.000431,0.127518
136888000,0.0324,0.013523,0.002678,0.000431,0.103660
136889000,0.0324,0.013523,0.002678,0.000431,0.072632
136890000,0.0324,0.013523,0.002678,0.000431,0.075218
136891000,0.0324,0.013523,0.002678,0.000431,0.057941
136892000,0.0324,0.013523,0.002678,0.000431,0.052300
136893000,0.0324,0.013523,0.002678,0.000431,0.031498
136894000,0.0324,0.013523,0.002678,0.000431,0.044896
136895000,0.0324,0.013523,0.002678,0.000431,0.019157
136896000,0.0324,0.013523,0.002678,0.000431,0.023036
136897000,0.0324,0.013523,0.002678,0.000431,0.015161
136898000,0.0324,0.013523,0.002678,0.000431,0.015279
136899000,0.0324,0.013523,0.002678,0.000431,0.003408
136900000,0.0324,0.013523,0.002678,0.000431,0.003408
136901000,0.0324,0.013523,0.002678,0.000431,0.003291
136902000,0.0324,0.013523,0.002678,0.000431,0.003408
136903000,0.0324,0.013523,0.002678,0.000431,0.006464
136904000,0.0324,0.013523,0.002678,0.000431,0.002468
136905000,0.0324,0.013523,0.002678,0.000431,0.001763
136906000,0.0324,0.013523,0.002678,0.000431,0.001645
136907000,0.0324,0.013523,0.002678,0.000431,0.001763
136908000,0.0324,0.013523,0.002678,0.000431,0.001528
136909000,0.0324,0.013523,0.002678,0.000431,0.003996
136910000,0.0324,0.013523,0.002678,0.000431,0.073338
136911000,0.0324,0.013523,0.002678,0.000431,0.882167
136912000,0.0324,0.013523,0.002678,0.000431,0.556261
136913000,0.0324,0.013523,0.002678,0.000431,0.171239
136914000,0.0324,0.013523,0.002678,0.000431,0.279129
136915000,0.0324,0.013523,0.002678,0.000431,0.521237
136916000,0.0324,0.013523,0.002678,0.000431,0.260795
136917000,0.0324,0.013523,0.002678,0.000431,0.271255
136918000,0.0324,0.013523,0.002678,0.000431,0.161601
136919000,0.0324,0.013523,0.002678,0.000431,0.116470
136920000,0.0324,0.013523,0.002678,0.000431,0.456950
136921000,0.0324,0.013523,0.002678,0.000431,0.422279
136922000,0.0324,0.013523,0.002678,0.000431,0.243753
136923000,0.0324,0.013523,0.002678,0.000431,0.214724
136924000,0.0324,0.013523,0.002678,0.000431,0.199798
136925000,0.0324,0.013523,0.002678,0.000431,0.170886
136926000,0.0324,0.013523,0.002678,0.000431,0.134805
136927000,0.0324,0.013523,0.002678,0.000431,0.104835
136928000,0.0324,0.013523,0.002678,0.000431,0.079919
136929000,0.0324,0.013523,0.002678,0.000431,0.075923
136930000,0.0324,0.013523,0.002678,0.000431,0.062760
136931000,0.0324,0.013523,0.002678,0.000431,0.047834
136932000,0.0324,0.013523,0.002678,0.000431,0.051360
136933000,0.0324,0.013523,0.002678,0.000431,0.041135
136934000,0.0324,0.013523,0.002678,0.000431,0.031027
136935000,0.0324,0.013523,0.002678,0.000431,0.024916
136936000,0.0324,0.013523,0.002678,0.000431,0.019157
136937000,0.0324,0.013523,0.002678,0.000431,0.025974
136938000,0.0324,0.013523,0.002678,0.000431,0.019745
136939000,0.0324,0.013523,0.002678,0.000431,0.017512
136940000,0.0324,0.013523,0.002678,0.000431,0.022800
136941000,0.0324,0.013523,0.002678,0.000431,0.015044
136942000,0.0324,0.013523,0.002678,0.000431,0.012811
136943000,0.0324,0.013523,0.002678,0.000431,0.011518
136944000,0.0324,0.013523,0.002678,0.000431,0.008109
136945000,0.0324,0.013523,0.002678,0.000431,0.008227
136946000,0.0324,0.013523,0.002678,0.000431,0.007992
136947000,0.0324,0.013523,0.002678,0.000431,0.010225
136948000,0.0324,0.013523,0.002678,0.000431,0.006699
136949000,0.0324,0.013523,0.002678,0.000431,0.010460
136950000,0.0324,0.013523,0.002678,0.000431,0.006347
136951000,0.0324,0.013523,0.002678,0.000431,0.004936
136952000,0.0324,0.013523,0.002678,0.000431,0.004936
136953000,0.0324,0.013523,0.002678,0.000431,0.005054
136954000,0.0324,0.013523,0.002678,0.000431,0.005171
136955000,0.0324,0.013523,0.002678,0.000431,0.004701
136956000,0.0324,0.013523,0.002678,0.000431,0.005054
136957000,0.0324,0.013523,0.002678,0.000431,0.005171
136958000,0.0324,0.013523,0.002678,0.000431,0.004936
136959000,0.0324,0.013523,0.002678,0.000431,0.004466
136960000,0.0324,0.013523,0.002678,0.000431,0.004231
136961000,0.0324,0.013523,0.002678,0.000431,0.005406
136962000,0.0324,0.013523,0.002678,0.000431,0.006582
136963000,0.0324,0.013523,0.002678,0.000431,0.002468
136964000,0.0324,0.013523,0.002678,0.000431,0.002351
136965000,0.0324,0.013523,0.002678,0.000431,0.002351
136966000,0.0324,0.013523,0.002678,0.000431,0.005171
136967000,0.0324,0.013523,0.002678,0.000431,0.001410
136968000,0.0324,0.013523,0.002678,0.000431,0.000823
136969000,0.0324,0.013523,0.002678,0.000431,0.000823
136970000,0.0324,0.013523,0.002678,0.000431,0.000940
136971000,0.0324,0.013523,0.002678,0.000431,0.000823
136972000,0.0324,0.013523,0.002678,0.000431,0.000823
136973000,0.0324,0.013523,0.002678,0.000431,0.000940
136974000,0.0324,0.013523,0.002678,0.000431,0.000705
136975000,0.0324,0.013523,0.002678,0.000431,0.287827
136976000,0.0324,0.013523,0.002678,0.000431,0.805891
136977000,0.0324,0.013523,0.002678,0.000431,0.463296
136978000,0.0324,0.013523,0.002678,0.000431,0.152669
136979000,0.0324,0.013523,0.002678,0.000431,0.493383
136980000,0.0324,0.013523,0.002678,0.000431,0.357521
136981000,0.0324,0.013523,0.002678,0.000431,0.287239
136982000,0.0324,0.013523,0.002678,0.000431,0.214489
136983000,0.0324,0.013523,0.002678,0.000431,0.180876
136984000,0.0324,0.013523,0.002678,0.000431,0.091084
136985000,0.0324,0.013523,0.002678,0.000431,0.582352
136986000,0.0324,0.013523,0.002678,0.000431,0.348471
136987000,0.0324,0.013523,0.002678,0.000431,0.240345
136988000,0.0324,0.013523,0.002678,0.000431,0.218367
136989000,0.0324,0.013523,0.002678,0.000431,0.190983
136990000,0.0324,0.013523,0.002678,0.000431,0.172414
136991000,0.0324,0.013523,0.002678,0.000431,0.138801
136992000,0.0324,0.013523,0.002678,0.000431,0.116588
136993000,0.0324,0.013523,0.002678,0.000431,0.088969
136994000,0.0324,0.013523,0.002678,0.000431,0.069577
136995000,0.0324,0.013523,0.002678,0.000431,0.045954
136996000,0.0324,0.013523,0.002678,0.000431,0.040665
136997000,0.0324,0.013523,0.002678,0.000431,0.045366
136998000,0.0324,0.013523,0.002678,0.000431,0.022095
136999000,0.0324,0.013523,0.002678,0.000431,0.025621
