Cycle,Area(mm^2),PeakDynamic(W),SubthresholdLeakage(W),GateLeakage(W),RunTimeDynamic(W)
128000000,0.0324,0.013523,0.002678,0.000431,0.131867
128001000,0.0324,0.013523,0.002678,0.000431,0.102132
128002000,0.0324,0.013523,0.002678,0.000431,0.100134
128003000,0.0324,0.013523,0.002678,0.000431,0.079802
128004000,0.0324,0.013523,0.002678,0.000431,0.055943
128005000,0.0324,0.013523,0.002678,0.000431,0.055708
128006000,0.0324,0.013523,0.002678,0.000431,0.056061
128007000,0.0324,0.013523,0.002678,0.000431,0.045013
128008000,0.0324,0.013523,0.002678,0.000431,0.032085
128009000,0.0324,0.013523,0.002678,0.000431,0.031968
128010000,0.0324,0.013523,0.002678,0.000431,0.029852
128011000,0.0324,0.013523,0.002678,0.000431,0.030910
128012000,0.0324,0.013523,0.002678,0.000431,0.022918
128013000,0.0324,0.013523,0.002678,0.000431,0.017747
128014000,0.0324,0.013523,0.002678,0.000431,0.017629
128015000,0.0324,0.013523,0.002678,0.000431,0.009637
128016000,0.0324,0.013523,0.002678,0.000431,0.012458
128017000,0.0324,0.013523,0.002678,0.000431,0.009402
128018000,0.0324,0.013523,0.002678,0.000431,0.010813
128019000,0.0324,0.013523,0.002678,0.000431,0.011988
128020000,0.0324,0.013523,0.002678,0.000431,0.009637
128021000,0.0324,0.013523,0.002678,0.000431,0.008227
128022000,0.0324,0.013523,0.002678,0.000431,0.008697
128023000,0.0324,0.013523,0.002678,0.000431,0.003996
128024000,0.0324,0.013523,0.002678,0.000431,0.001528
128025000,0.0324,0.013523,0.002678,0.000431,0.004584
128026000,0.0324,0.013523,0.002678,0.000431,0.000705
128027000,0.0324,0.013523,0.002678,0.000431,0.000940
128028000,0.0324,0.013523,0.002678,0.000431,0.000940
128029000,0.0324,0.013523,0.002678,0.000431,0.000705
128030000,0.0324,0.013523,0.002678,0.000431,0.000940
128031000,0.0324,0.013523,0.002678,0.000431,0.000705
128032000,0.0324,0.013523,0.002678,0.000431,0.000940
128033000,0.0324,0.013523,0.002678,0.000431,0.000823
128034000,0.0324,0.013523,0.002678,0.000431,0.000823
128035000,0.0324,0.013523,0.002678,0.000431,0.000940
128036000,0.0324,0.013523,0.002678,0.000431,0.001763
128037000,0.0324,0.013523,0.002678,0.000431,0.417108
128038000,0.0324,0.013523,0.002678,0.000431,0.812355
128039000,0.0324,0.013523,0.002678,0.000431,0.417930
128040000,0.0324,0.013523,0.002678,0.000431,0.187457
128041000,0.0324,0.013523,0.002678,0.000431,0.545096
128042000,0.0324,0.013523,0.002678,0.000431,0.326493
128043000,0.0324,0.013523,0.002678,0.000431,0.311097
128044000,0.0324,0.013523,0.002678,0.000431,0.197917
128045000,0.0324,0.013523,0.002678,0.000431,0.179818
128046000,0.0324,0.013523,0.002678,0.000431,0.114708
128047000,0.0324,0.013523,0.002678,0.000431,0.576711
128048000,0.0324,0.013523,0.002678,0.000431,0.408528
128049000,0.0324,0.013523,0.002678,0.000431,0.306866
128050000,0.0324,0.013523,0.002678,0.000431,0.274076
128051000,0.0324,0.013523,0.002678,0.000431,0.229180
128052000,0.0324,0.013523,0.002678,0.000431,0.203441
128053000,0.0324,0.013523,0.002678,0.000431,0.160661
128054000,0.0324,0.013523,0.002678,0.000431,0.126930
128055000,0.0324,0.013523,0.002678,0.000431,0.107891
128056000,0.0324,0.013523,0.002678,0.000431,0.103072
128057000,0.0324,0.013523,0.002678,0.000431,0.097783
128058000,0.0324,0.013523,0.002678,0.000431,0.074513
128059000,0.0324,0.013523,0.002678,0.000431,0.060880
128060000,0.0324,0.013523,0.002678,0.000431,0.058059
128061000,0.0324,0.013523,0.002678,0.000431,0.045366
128062000,0.0324,0.013523,0.002678,0.000431,0.035846
128063000,0.0324,0.013523,0.002678,0.000431,0.029265
128064000,0.0324,0.013523,0.002678,0.000431,0.019157
128065000,0.0324,0.013523,0.002678,0.000431,0.015866
128066000,0.0324,0.013523,0.002678,0.000431,0.010695
128067000,0.0324,0.013523,0.002678,0.000431,0.008227
128068000,0.0324,0.013523,0.002678,0.000431,0.007874
128069000,0.0324,0.013523,0.002678,0.000431,0.005641
128070000,0.0324,0.013523,0.002678,0.000431,0.004466
128071000,0.0324,0.013523,0.002678,0.000431,0.004231
128072000,0.0324,0.013523,0.002678,0.000431,0.006229
128073000,0.0324,0.013523,0.002678,0.000431,0.007522
128074000,0.0324,0.013523,0.002678,0.000431,0.002468
128075000,0.0324,0.013523,0.002678,0.000431,0.003996
128076000,0.0324,0.013523,0.002678,0.000431,0.007169
128077000,0.0324,0.013523,0.002678,0.000431,0.000823
128078000,0.0324,0.013523,0.002678,0.000431,0.000823
128079000,0.0324,0.013523,0.002678,0.000431,0.000823
128080000,0.0324,0.013523,0.002678,0.000431,0.000823
128081000,0.0324,0.013523,0.002678,0.000431,0.000940
128082000,0.0324,0.013523,0.002678,0.000431,0.000705
128083000,0.0324,0.013523,0.002678,0.000431,0.000940
128084000,0.0324,0.013523,0.002678,0.000431,0.000823
128085000,0.0324,0.013523,0.002678,0.000431,0.000823
128086000,0.0324,0.013523,0.002678,0.000431,0.000705
128087000,0.0324,0.013523,0.002678,0.000431,0.000940
128088000,0.0324,0.013523,0.002678,0.000431,0.000940
128089000,0.0324,0.013523,0.002678,0.000431,0.000705
128090000,0.0324,0.013523,0.002678,0.000431,0.000940
128091000,0.0324,0.013523,0.002678,0.000431,0.000705
128092000,0.0324,0.013523,0.002678,0.000431,0.000940
128093000,0.0324,0.013523,0.002678,0.000431,0.000823
128094000,0.0324,0.013523,0.002678,0.000431,0.000823
128095000,0.0324,0.013523,0.002678,0.000431,0.000940
128096000,0.0324,0.013523,0.002678,0.000431,0.000705
128097000,0.0324,0.013523,0.002678,0.000431,0.000705
128098000,0.0324,0.013523,0.002678,0.000431,0.293115
128099000,0.0324,0.013523,0.002678,0.000431,0.861011
128100000,0.0324,0.013523,0.002678,0.000431,0.463179
128101000,0.0324,0.013523,0.002678,0.000431,0.199210
128102000,0.0324,0.013523,0.002678,0.000431,0.458242
128103000,0.0324,0.013523,0.002678,0.000431,0.417813
128104000,0.0324,0.013523,0.002678,0.000431,0.310274
128105000,0.0324,0.013523,0.002678,0.000431,0.223774
128106000,0.0324,0.013523,0.002678,0.000431,0.165127
128107000,0.0324,0.013523,0.002678,0.000431,0.158898
128108000,0.0324,0.013523,0.002678,0.000431,0.576006
128109000,0.0324,0.013523,0.002678,0.000431,0.358578
128110000,0.0324,0.013523,0.002678,0.000431,0.273371
128111000,0.0324,0.013523,0.002678,0.000431,0.248572
128112000,0.0324,0.013523,0.002678,0.000431,0.227535
128113000,0.0324,0.013523,0.002678,0.000431,0.165950
128114000,0.0324,0.013523,0.002678,0.000431,0.152199
128115000,0.0324,0.013523,0.002678,0.000431,0.136450
128116000,0.0324,0.013523,0.002678,0.000431,0.103425
128117000,0.0324,0.013523,0.002678,0.000431,0.078626
128118000,0.0324,0.013523,0.002678,0.000431,0.077451
128119000,0.0324,0.013523,0.002678,0.000431,0.062878
128120000,0.0324,0.013523,0.002678,0.000431,0.061585
128121000,0.0324,0.013523,0.002678,0.000431,0.049949
128122000,0.0324,0.013523,0.002678,0.000431,0.034083
128123000,0.0324,0.013523,0.002678,0.000431,0.029382
128124000,0.0324,0.013523,0.002678,0.000431,0.054298
128125000,0.0324,0.013523,0.002678,0.000431,0.028559
128126000,0.0324,0.013523,0.002678,0.000431,0.018687
128127000,0.0324,0.013523,0.002678,0.000431,0.013281
128128000,0.0324,0.013523,0.002678,0.000431,0.010578
128129000,0.0324,0.013523,0.002678,0.000431,0.005406
128130000,0.0324,0.013523,0.002678,0.000431,0.010225
128131000,0.0324,0.013523,0.002678,0.000431,0.006817
128132000,0.0324,0.013523,0.002678,0.000431,0.003173
128133000,0.0324,0.013523,0.002678,0.000431,0.002821
128134000,0.0324,0.013523,0.002678,0.000431,0.003526
128135000,0.0324,0.013523,0.002678,0.000431,0.006699
128136000,0.0324,0.013523,0.002678,0.000431,0.001528
128137000,0.0324,0.013523,0.002678,0.000431,0.003643
128138000,0.0324,0.013523,0.002678,0.000431,0.000940
128139000,0.0324,0.013523,0.002678,0.000431,0.256682
128140000,0.0324,0.013523,0.002678,0.000431,0.820464
128141000,0.0324,0.013523,0.002678,0.000431,0.513481
128142000,0.0324,0.013523,0.002678,0.000431,0.164892
128143000,0.0324,0.013523,0.002678,0.000431,0.473051
128144000,0.0324,0.013523,0.002678,0.000431,0.417578
128145000,0.0324,0.013523,0.002678,0.000431,0.323438
128146000,0.0324,0.013523,0.002678,0.000431,0.196155
128147000,0.0324,0.013523,0.002678,0.000431,0.150906
128148000,0.0324,0.013523,0.002678,0.000431,0.191688
128149000,0.0324,0.013523,0.002678,0.000431,0.577769
128150000,0.0324,0.013523,0.002678,0.000431,0.320969
128151000,0.0324,0.013523,0.002678,0.000431,0.256917
128152000,0.0324,0.013523,0.002678,0.000431,0.219543
128153000,0.0324,0.013523,0.002678,0.000431,0.195332
128154000,0.0324,0.013523,0.002678,0.000431,0.171004
128155000,0.0324,0.013523,0.002678,0.000431,0.148086
128156000,0.0324,0.013523,0.002678,0.000431,0.123522
128157000,0.0324,0.013523,0.002678,0.000431,0.099429
128158000,0.0324,0.013523,0.002678,0.000431,0.090262
128159000,0.0324,0.013523,0.002678,0.000431,0.076276
128160000,0.0324,0.013523,0.002678,0.000431,0.080624
128161000,0.0324,0.013523,0.002678,0.000431,0.054416
128162000,0.0324,0.013523,0.002678,0.000431,0.044543
128163000,0.0324,0.013523,0.002678,0.000431,0.046189
128164000,0.0324,0.013523,0.002678,0.000431,0.024211
128165000,0.0324,0.013523,0.002678,0.000431,0.023271
128166000,0.0324,0.013523,0.002678,0.000431,0.025386
128167000,0.0324,0.013523,0.002678,0.000431,0.031733
128168000,0.0324,0.013523,0.002678,0.000431,0.015279
128169000,0.0324,0.013523,0.002678,0.000431,0.018922
128170000,0.0324,0.013523,0.002678,0.000431,0.018687
128171000,0.0324,0.013523,0.002678,0.000431,0.016571
128172000,0.0324,0.013523,0.002678,0.000431,0.017042
128173000,0.0324,0.013523,0.002678,0.000431,0.007757
128174000,0.0324,0.013523,0.002678,0.000431,0.007639
128175000,0.0324,0.013523,0.002678,0.000431,0.008227
128176000,0.0324,0.013523,0.002678,0.000431,0.006817
128177000,0.0324,0.013523,0.002678,0.000431,0.005289
128178000,0.0324,0.013523,0.002678,0.000431,0.008109
128179000,0.0324,0.013523,0.002678,0.000431,0.004466
128180000,0.0324,0.013523,0.002678,0.000431,0.005524
128181000,0.0324,0.013523,0.002678,0.000431,0.003173
128182000,0.0324,0.013523,0.002678,0.000431,0.003291
128183000,0.0324,0.013523,0.002678,0.000431,0.003173
128184000,0.0324,0.013523,0.002678,0.000431,0.003056
128185000,0.0324,0.013523,0.002678,0.000431,0.002938
128186000,0.0324,0.013523,0.002678,0.000431,0.007287
128187000,0.0324,0.013523,0.002678,0.000431,0.001645
128188000,0.0324,0.013523,0.002678,0.000431,0.001645
128189000,0.0324,0.013523,0.002678,0.000431,0.001645
128190000,0.0324,0.013523,0.002678,0.000431,0.001645
128191000,0.0324,0.013523,0.002678,0.000431,0.005759
128192000,0.0324,0.013523,0.002678,0.000431,0.000705
128193000,0.0324,0.013523,0.002678,0.000431,0.000940
128194000,0.0324,0.013523,0.002678,0.000431,0.000823
128195000,0.0324,0.013523,0.002678,0.000431,0.016454
128196000,0.0324,0.013523,0.002678,0.000431,0.882754
128197000,0.0324,0.013523,0.002678,0.000431,0.524998
128198000,0.0324,0.013523,0.002678,0.000431,0.244106
128199000,0.0324,0.013523,0.002678,0.000431,0.193216
128200000,0.0324,0.013523,0.002678,0.000431,0.598571
128201000,0.0324,0.013523,0.002678,0.000431,0.263851
128202000,0.0324,0.013523,0.002678,0.000431,0.360341
128203000,0.0324,0.013523,0.002678,0.000431,0.155490
128204000,0.0324,0.013523,0.002678,0.000431,0.152317
128205000,0.0324,0.013523,0.002678,0.000431,0.198740
128206000,0.0324,0.013523,0.002678,0.000431,0.547446
128207000,0.0324,0.013523,0.002678,0.000431,0.220130
128208000,0.0324,0.013523,0.002678,0.000431,0.188163
128209000,0.0324,0.013523,0.002678,0.000431,0.143854
128210000,0.0324,0.013523,0.002678,0.000431,0.131867
128211000,0.0324,0.013523,0.002678,0.000431,0.102132
128212000,0.0324,0.013523,0.002678,0.000431,0.083327
128213000,0.0324,0.013523,0.002678,0.000431,0.084855
128214000,0.0324,0.013523,0.002678,0.000431,0.077451
128215000,0.0324,0.013523,0.002678,0.000431,0.061937
128216000,0.0324,0.013523,0.002678,0.000431,0.043250
128217000,0.0324,0.013523,0.002678,0.000431,0.051242
128218000,0.0324,0.013523,0.002678,0.000431,0.033613
128219000,0.0324,0.013523,0.002678,0.000431,0.028089
128220000,0.0324,0.013523,0.002678,0.000431,0.023741
128221000,0.0324,0.013523,0.002678,0.000431,0.035258
128222000,0.0324,0.013523,0.002678,0.000431,0.025386
128223000,0.0324,0.013523,0.002678,0.000431,0.023271
128224000,0.0324,0.013523,0.002678,0.000431,0.013516
128225000,0.0324,0.013523,0.002678,0.000431,0.010695
128226000,0.0324,0.013523,0.002678,0.000431,0.014573
128227000,0.0324,0.013523,0.002678,0.000431,0.012576
128228000,0.0324,0.013523,0.002678,0.000431,0.016807
128229000,0.0324,0.013523,0.002678,0.000431,0.008462
128230000,0.0324,0.013523,0.002678,0.000431,0.005876
128231000,0.0324,0.013523,0.002678,0.000431,0.007639
128232000,0.0324,0.013523,0.002678,0.000431,0.009402
128233000,0.0324,0.013523,0.002678,0.000431,0.007992
128234000,0.0324,0.013523,0.002678,0.000431,0.001998
128235000,0.0324,0.013523,0.002678,0.000431,0.002351
128236000,0.0324,0.013523,0.002678,0.000431,0.001528
128237000,0.0324,0.013523,0.002678,0.000431,0.002586
128238000,0.0324,0.013523,0.002678,0.000431,0.003056
128239000,0.0324,0.013523,0.002678,0.000431,0.001763
128240000,0.0324,0.013523,0.002678,0.000431,0.016454
128241000,0.0324,0.013523,0.002678,0.000431,0.795666
128242000,0.0324,0.013523,0.002678,0.000431,0.591637
128243000,0.0324,0.013523,0.002678,0.000431,0.139976
128244000,0.0324,0.013523,0.002678,0.000431,0.142327
128245000,0.0324,0.013523,0.002678,0.000431,0.596691
128246000,0.0324,0.013523,0.002678,0.000431,0.241873
128247000,0.0324,0.013523,0.002678,0.000431,0.306043
128248000,0.0324,0.013523,0.002678,0.000431,0.192394
128249000,0.0324,0.013523,0.002678,0.000431,0.154902
128250000,0.0324,0.013523,0.002678,0.000431,0.108596
128251000,0.0324,0.013523,0.002678,0.000431,0.424512
128252000,0.0324,0.013523,0.002678,0.000431,0.506546
128253000,0.0324,0.013523,0.002678,0.000431,0.293115
128254000,0.0324,0.013523,0.002678,0.000431,0.253626
128255000,0.0324,0.013523,0.002678,0.000431,0.228357
128256000,0.0324,0.013523,0.002678,0.000431,0.196742
128257000,0.0324,0.013523,0.002678,0.000431,0.168418
128258000,0.0324,0.013523,0.002678,0.000431,0.141034
128259000,0.0324,0.013523,0.002678,0.000431,0.137390
128260000,0.0324,0.013523,0.002678,0.000431,0.105658
128261000,0.0324,0.013523,0.002678,0.000431,0.080507
128262000,0.0324,0.013523,0.002678,0.000431,0.072045
128263000,0.0324,0.013523,0.002678,0.000431,0.056766
128264000,0.0324,0.013523,0.002678,0.000431,0.062290
128265000,0.0324,0.013523,0.002678,0.000431,0.051125
128266000,0.0324,0.013523,0.002678,0.000431,0.042780
128267000,0.0324,0.013523,0.002678,0.000431,0.031850
128268000,0.0324,0.013523,0.002678,0.000431,0.035376
128269000,0.0324,0.013523,0.002678,0.000431,0.022565
128270000,0.0324,0.013523,0.002678,0.000431,0.020332
128271000,0.0324,0.013523,0.002678,0.000431,0.024916
128272000,0.0324,0.013523,0.002678,0.000431,0.009990
128273000,0.0324,0.013523,0.002678,0.000431,0.016571
128274000,0.0324,0.013523,0.002678,0.000431,0.009990
128275000,0.0324,0.013523,0.002678,0.000431,0.009755
128276000,0.0324,0.013523,0.002678,0.000431,0.011635
128277000,0.0324,0.013523,0.002678,0.000431,0.004466
128278000,0.0324,0.013523,0.002678,0.000431,0.002468
128279000,0.0324,0.013523,0.002678,0.000431,0.002586
128280000,0.0324,0.013523,0.002678,0.000431,0.004936
128281000,0.0324,0.013523,0.002678,0.000431,0.018687
128282000,0.0324,0.013523,0.002678,0.000431,0.904967
128283000,0.0324,0.013523,0.002678,0.000431,0.557319
128284000,0.0324,0.013523,0.002678,0.000431,0.214371
128285000,0.0324,0.013523,0.002678,0.000431,0.185107
128286000,0.0324,0.013523,0.002678,0.000431,0.589874
128287000,0.0324,0.013523,0.002678,0.000431,0.257269
128288000,0.0324,0.013523,0.002678,0.000431,0.355053
128289000,0.0324,0.013523,0.002678,0.000431,0.169593
128290000,0.0324,0.013523,0.002678,0.000431,0.157958
128291000,0.0324,0.013523,0.002678,0.000431,0.193216
128292000,0.0324,0.013523,0.002678,0.000431,0.581882
128293000,0.0324,0.013523,0.002678,0.000431,0.313213
128294000,0.0324,0.013523,0.002678,0.000431,0.253508
128295000,0.0324,0.013523,0.002678,0.000431,0.212608
128296000,0.0324,0.013523,0.002678,0.000431,0.177232
128297000,0.0324,0.013523,0.002678,0.000431,0.162071
128298000,0.0324,0.013523,0.002678,0.000431,0.121289
128299000,0.0324,0.013523,0.002678,0.000431,0.105188
128300000,0.0324,0.013523,0.002678,0.000431,0.081330
128301000,0.0324,0.013523,0.002678,0.000431,0.071105
128302000,0.0324,0.013523,0.002678,0.000431,0.061820
128303000,0.0324,0.013523,0.002678,0.000431,0.059704
128304000,0.0324,0.013523,0.002678,0.000431,0.044661
128305000,0.0324,0.013523,0.002678,0.000431,0.045131
128306000,0.0324,0.013523,0.002678,0.000431,0.042663
128307000,0.0324,0.013523,0.002678,0.000431,0.046541
128308000,0.0324,0.013523,0.002678,0.000431,0.025974
128309000,0.0324,0.013523,0.002678,0.000431,0.017747
128310000,0.0324,0.013523,0.002678,0.000431,0.020450
128311000,0.0324,0.013523,0.002678,0.000431,0.017159
128312000,0.0324,0.013523,0.002678,0.000431,0.026209
128313000,0.0324,0.013523,0.002678,0.000431,0.014926
128314000,0.0324,0.013523,0.002678,0.000431,0.012340
128315000,0.0324,0.013523,0.002678,0.000431,0.024681
128316000,0.0324,0.013523,0.002678,0.000431,0.010460
128317000,0.0324,0.013523,0.002678,0.000431,0.011400
128318000,0.0324,0.013523,0.002678,0.000431,0.008109
128319000,0.0324,0.013523,0.002678,0.000431,0.008462
128320000,0.0324,0.013523,0.002678,0.000431,0.009520
128321000,0.0324,0.013523,0.002678,0.000431,0.006111
128322000,0.0324,0.013523,0.002678,0.000431,0.005524
128323000,0.0324,0.013523,0.002678,0.000431,0.005994
128324000,0.0324,0.013523,0.002678,0.000431,0.007287
128325000,0.0324,0.013523,0.002678,0.000431,0.005994
128326000,0.0324,0.013523,0.002678,0.000431,0.004819
128327000,0.0324,0.013523,0.002678,0.000431,0.004584
128328000,0.0324,0.013523,0.002678,0.000431,0.003878
128329000,0.0324,0.013523,0.002678,0.000431,0.003996
128330000,0.0324,0.013523,0.002678,0.000431,0.006229
128331000,0.0324,0.013523,0.002678,0.000431,0.004936
128332000,0.0324,0.013523,0.002678,0.000431,0.003408
128333000,0.0324,0.013523,0.002678,0.000431,0.003056
128334000,0.0324,0.013523,0.002678,0.000431,0.003291
128335000,0.0324,0.013523,0.002678,0.000431,0.005406
128336000,0.0324,0.013523,0.002678,0.000431,0.004584
128337000,0.0324,0.013523,0.002678,0.000431,0.002586
128338000,0.0324,0.013523,0.002678,0.000431,0.002351
128339000,0.0324,0.013523,0.002678,0.000431,0.004349
128340000,0.0324,0.013523,0.002678,0.000431,0.001410
128341000,0.0324,0.013523,0.002678,0.000431,0.001645
128342000,0.0324,0.013523,0.002678,0.000431,0.001645
128343000,0.0324,0.013523,0.002678,0.000431,0.001645
128344000,0.0324,0.013523,0.002678,0.000431,0.001410
128345000,0.0324,0.013523,0.002678,0.000431,0.001645
128346000,0.0324,0.013523,0.002678,0.000431,0.001293
128347000,0.0324,0.013523,0.002678,0.000431,0.001763
128348000,0.0324,0.013523,0.002678,0.000431,0.001880
128349000,0.0324,0.013523,0.002678,0.000431,0.001175
128350000,0.0324,0.013523,0.002678,0.000431,0.001880
128351000,0.0324,0.013523,0.002678,0.000431,0.001293
128352000,0.0324,0.013523,0.002678,0.000431,0.001763
128353000,0.0324,0.013523,0.002678,0.000431,0.001645
128354000,0.0324,0.013523,0.002678,0.000431,0.001410
128355000,0.0324,0.013523,0.002678,0.000431,0.001645
128356000,0.0324,0.013523,0.002678,0.000431,0.001528
128357000,0.0324,0.013523,0.002678,0.000431,0.001763
128358000,0.0324,0.013523,0.002678,0.000431,0.001410
128359000,0.0324,0.013523,0.002678,0.000431,0.001645
128360000,0.0324,0.013523,0.002678,0.000431,0.001645
128361000,0.0324,0.013523,0.002678,0.000431,0.001528
128362000,0.0324,0.013523,0.002678,0.000431,0.001528
128363000,0.0324,0.013523,0.002678,0.000431,0.001645
128364000,0.0324,0.013523,0.002678,0.000431,0.001410
128365000,0.0324,0.013523,0.002678,0.000431,0.001645
128366000,0.0324,0.013523,0.002678,0.000431,0.001645
128367000,0.0324,0.013523,0.002678,0.000431,0.001410
128368000,0.0324,0.013523,0.002678,0.000431,0.001880
128369000,0.0324,0.013523,0.002678,0.000431,0.001410
128370000,0.0324,0.013523,0.002678,0.000431,0.001645
128371000,0.0324,0.013523,0.002678,0.000431,0.001528
128372000,0.0324,0.013523,0.002678,0.000431,0.001528
128373000,0.0324,0.013523,0.002678,0.000431,0.001880
128374000,0.0324,0.013523,0.002678,0.000431,0.001175
128375000,0.0324,0.013523,0.002678,0.000431,0.001880
128376000,0.0324,0.013523,0.002678,0.000431,0.001410
128377000,0.0324,0.013523,0.002678,0.000431,0.001645
128378000,0.0324,0.013523,0.002678,0.000431,0.001645
128379000,0.0324,0.013523,0.002678,0.000431,0.001410
128380000,0.0324,0.013523,0.002678,0.000431,0.001645
128381000,0.0324,0.013523,0.002678,0.000431,0.001645
128382000,0.0324,0.013523,0.002678,0.000431,0.001410
128383000,0.0324,0.013523,0.002678,0.000431,0.001645
128384000,0.0324,0.013523,0.002678,0.000431,0.001645
128385000,0.0324,0.013523,0.002678,0.000431,0.001175
128386000,0.0324,0.013523,0.002678,0.000431,0.001880
128387000,0.0324,0.013523,0.002678,0.000431,0.001293
128388000,0.0324,0.013523,0.002678,0.000431,0.001763
128389000,0.0324,0.013523,0.002678,0.000431,0.001410
128390000,0.0324,0.013523,0.002678,0.000431,0.001645
128391000,0.0324,0.013523,0.002678,0.000431,0.001645
128392000,0.0324,0.013523,0.002678,0.000431,0.001528
128393000,0.0324,0.013523,0.002678,0.000431,0.001528
128394000,0.0324,0.013523,0.002678,0.000431,0.001645
128395000,0.0324,0.013523,0.002678,0.000431,0.001410
128396000,0.0324,0.013523,0.002678,0.000431,0.001645
128397000,0.0324,0.013523,0.002678,0.000431,0.001410
128398000,0.0324,0.013523,0.002678,0.000431,0.001645
128399000,0.0324,0.013523,0.002678,0.000431,0.001645
128400000,0.0324,0.013523,0.002678,0.000431,0.001410
128401000,0.0324,0.013523,0.002678,0.000431,0.001528
128402000,0.0324,0.013523,0.002678,0.000431,0.000823
128403000,0.0324,0.013523,0.002678,0.000431,0.000823
128404000,0.0324,0.013523,0.002678,0.000431,0.278072
128405000,0.0324,0.013523,0.002678,0.000431,0.792257
128406000,0.0324,0.013523,0.002678,0.000431,0.503726
128407000,0.0324,0.013523,0.002678,0.000431,0.166772
128408000,0.0324,0.013523,0.002678,0.000431,0.368333
128409000,0.0324,0.013523,0.002678,0.000431,0.471170
128410000,0.0324,0.013523,0.002678,0.000431,0.290765
128411000,0.0324,0.013523,0.002678,0.000431,0.257739
128412000,0.0324,0.013523,0.002678,0.000431,0.167360
128413000,0.0324,0.013523,0.002678,0.000431,0.104600
128414000,0.0324,0.013523,0.002678,0.000431,0.549679
128415000,0.0324,0.013523,0.002678,0.000431,0.424629
128416000,0.0324,0.013523,0.002678,0.000431,0.311685
128417000,0.0324,0.013523,0.002678,0.000431,0.280892
128418000,0.0324,0.013523,0.002678,0.000431,0.232471
128419000,0.0324,0.013523,0.002678,0.000431,0.196037
128420000,0.0324,0.013523,0.002678,0.000431,0.154432
128421000,0.0324,0.013523,0.002678,0.000431,0.144325
128422000,0.0324,0.013523,0.002678,0.000431,0.107303
128423000,0.0324,0.013523,0.002678,0.000431,0.100487
128424000,0.0324,0.013523,0.002678,0.000431,0.082975
128425000,0.0324,0.013523,0.002678,0.000431,0.072515
128426000,0.0324,0.013523,0.002678,0.000431,0.060997
128427000,0.0324,0.013523,0.002678,0.000431,0.055473
128428000,0.0324,0.013523,0.002678,0.000431,0.041370
128429000,0.0324,0.013523,0.002678,0.000431,0.031262
128430000,0.0324,0.013523,0.002678,0.000431,0.031733
128431000,0.0324,0.013523,0.002678,0.000431,0.014338
128432000,0.0324,0.013523,0.002678,0.000431,0.020920
128433000,0.0324,0.013523,0.002678,0.000431,0.012811
128434000,0.0324,0.013523,0.002678,0.000431,0.013516
128435000,0.0324,0.013523,0.002678,0.000431,0.018099
128436000,0.0324,0.013523,0.002678,0.000431,0.009637
128437000,0.0324,0.013523,0.002678,0.000431,0.006347
128438000,0.0324,0.013523,0.002678,0.000431,0.003761
128439000,0.0324,0.013523,0.002678,0.000431,0.010930
128440000,0.0324,0.013523,0.002678,0.000431,0.002233
128441000,0.0324,0.013523,0.002678,0.000431,0.004936
128442000,0.0324,0.013523,0.002678,0.000431,0.000705
128443000,0.0324,0.013523,0.002678,0.000431,0.000940
128444000,0.0324,0.013523,0.002678,0.000431,0.000705
128445000,0.0324,0.013523,0.002678,0.000431,0.000940
128446000,0.0324,0.013523,0.002678,0.000431,0.015044
128447000,0.0324,0.013523,0.002678,0.000431,0.784853
128448000,0.0324,0.013523,0.002678,0.000431,0.646758
128449000,0.0324,0.013523,0.002678,0.000431,0.253978
128450000,0.0324,0.013523,0.002678,0.000431,0.161366
128451000,0.0324,0.013523,0.002678,0.000431,0.579884
128452000,0.0324,0.013523,0.002678,0.000431,0.284771
128453000,0.0324,0.013523,0.002678,0.000431,0.346356
128454000,0.0324,0.013523,0.002678,0.000431,0.161836
128455000,0.0324,0.013523,0.002678,0.000431,0.170298
128456000,0.0324,0.013523,0.002678,0.000431,0.168065
128457000,0.0324,0.013523,0.002678,0.000431,0.570129
128458000,0.0324,0.013523,0.002678,0.000431,0.404179
128459000,0.0324,0.013523,0.002678,0.000431,0.282890
128460000,0.0324,0.013523,0.002678,0.000431,0.253743
128461000,0.0324,0.013523,0.002678,0.000431,0.219778
128462000,0.0324,0.013523,0.002678,0.000431,0.194157
128463000,0.0324,0.013523,0.002678,0.000431,0.157253
128464000,0.0324,0.013523,0.002678,0.000431,0.128928
128465000,0.0324,0.013523,0.002678,0.000431,0.099546
128466000,0.0324,0.013523,0.002678,0.000431,0.090262
128467000,0.0324,0.013523,0.002678,0.000431,0.072280
128468000,0.0324,0.013523,0.002678,0.000431,0.068166
128469000,0.0324,0.013523,0.002678,0.000431,0.065346
128470000,0.0324,0.013523,0.002678,0.000431,0.047599
128471000,0.0324,0.013523,0.002678,0.000431,0.056061
128472000,0.0324,0.013523,0.002678,0.000431,0.041723
128473000,0.0324,0.013523,0.002678,0.000431,0.036551
128474000,0.0324,0.013523,0.002678,0.000431,0.022800
128475000,0.0324,0.013523,0.002678,0.000431,0.016219
128476000,0.0324,0.013523,0.002678,0.000431,0.016924
128477000,0.0324,0.013523,0.002678,0.000431,0.015749
128478000,0.0324,0.013523,0.002678,0.000431,0.015161
128479000,0.0324,0.013523,0.002678,0.000431,0.011283
128480000,0.0324,0.013523,0.002678,0.000431,0.008227
128481000,0.0324,0.013523,0.002678,0.000431,0.008345
128482000,0.0324,0.013523,0.002678,0.000431,0.004466
128483000,0.0324,0.013523,0.002678,0.000431,0.003996
128484000,0.0324,0.013523,0.002678,0.000431,0.004349
128485000,0.0324,0.013523,0.002678,0.000431,0.010342
128486000,0.0324,0.013523,0.002678,0.000431,0.003408
128487000,0.0324,0.013523,0.002678,0.000431,0.001763
128488000,0.0324,0.013523,0.002678,0.000431,0.001880
128489000,0.0324,0.013523,0.002678,0.000431,0.005759
128490000,0.0324,0.013523,0.002678,0.000431,0.000940
128491000,0.0324,0.013523,0.002678,0.000431,0.000940
128492000,0.0324,0.013523,0.002678,0.000431,0.000823
128493000,0.0324,0.013523,0.002678,0.000431,0.000940
128494000,0.0324,0.013523,0.002678,0.000431,0.000823
128495000,0.0324,0.013523,0.002678,0.000431,0.000940
128496000,0.0324,0.013523,0.002678,0.000431,0.000940
128497000,0.0324,0.013523,0.002678,0.000431,0.000823
128498000,0.0324,0.013523,0.002678,0.000431,0.000823
128499000,0.0324,0.013523,0.002678,0.000431,0.000940
128500000,0.0324,0.013523,0.002678,0.000431,0.000940
128501000,0.0324,0.013523,0.002678,0.000431,0.000823
128502000,0.0324,0.013523,0.002678,0.000431,0.000823
128503000,0.0324,0.013523,0.002678,0.000431,0.000940
128504000,0.0324,0.013523,0.002678,0.000431,0.001528
128505000,0.0324,0.013523,0.002678,0.000431,0.338716
128506000,0.0324,0.013523,0.002678,0.000431,0.868298
128507000,0.0324,0.013523,0.002678,0.000431,0.421456
128508000,0.0324,0.013523,0.002678,0.000431,0.193804
128509000,0.0324,0.013523,0.002678,0.000431,0.486449
128510000,0.0324,0.013523,0.002678,0.000431,0.319912
128511000,0.0324,0.013523,0.002678,0.000431,0.334250
128512000,0.0324,0.013523,0.002678,0.000431,0.217075
128513000,0.0324,0.013523,0.002678,0.000431,0.190866
128514000,0.0324,0.013523,0.002678,0.000431,0.092965
128515000,0.0324,0.013523,0.002678,0.000431,0.548151
128516000,0.0324,0.013523,0.002678,0.000431,0.369156
128517000,0.0324,0.013523,0.002678,0.000431,0.274663
128518000,0.0324,0.013523,0.002678,0.000431,0.240110
128519000,0.0324,0.013523,0.002678,0.000431,0.204029
128520000,0.0324,0.013523,0.002678,0.000431,0.178173
128521000,0.0324,0.013523,0.002678,0.000431,0.138213
128522000,0.0324,0.013523,0.002678,0.000431,0.123640
128523000,0.0324,0.013523,0.002678,0.000431,0.099546
128524000,0.0324,0.013523,0.002678,0.000431,0.085913
128525000,0.0324,0.013523,0.002678,0.000431,0.075101
128526000,0.0324,0.013523,0.002678,0.000431,0.062995
128527000,0.0324,0.013523,0.002678,0.000431,0.063583
128528000,0.0324,0.013523,0.002678,0.000431,0.048304
128529000,0.0324,0.013523,0.002678,0.000431,0.041723
128530000,0.0324,0.013523,0.002678,0.000431,0.038549
128531000,0.0324,0.013523,0.002678,0.000431,0.039137
128532000,0.0324,0.013523,0.002678,0.000431,0.031850
128533000,0.0324,0.013523,0.002678,0.000431,0.025739
128534000,0.0324,0.013523,0.002678,0.000431,0.025856
128535000,0.0324,0.013523,0.002678,0.000431,0.017747
128536000,0.0324,0.013523,0.002678,0.000431,0.022448
128537000,0.0324,0.013523,0.002678,0.000431,0.013986
128538000,0.0324,0.013523,0.002678,0.000431,0.015514
128539000,0.0324,0.013523,0.002678,0.000431,0.014103
128540000,0.0324,0.013523,0.002678,0.000431,0.012693
128541000,0.0324,0.013523,0.002678,0.000431,0.011988
128542000,0.0324,0.013523,0.002678,0.000431,0.009050
128543000,0.0324,0.013523,0.002678,0.000431,0.019157
128544000,0.0324,0.013523,0.002678,0.000431,0.008580
128545000,0.0324,0.013523,0.002678,0.000431,0.003643
128546000,0.0324,0.013523,0.002678,0.000431,0.004231
128547000,0.0324,0.013523,0.002678,0.000431,0.005759
128548000,0.0324,0.013523,0.002678,0.000431,0.002821
128549000,0.0324,0.013523,0.002678,0.000431,0.002821
128550000,0.0324,0.013523,0.002678,0.000431,0.002468
128551000,0.0324,0.013523,0.002678,0.000431,0.002586
128552000,0.0324,0.013523,0.002678,0.000431,0.002351
128553000,0.0324,0.013523,0.002678,0.000431,0.005994
128554000,0.0324,0.013523,0.002678,0.000431,0.001763
128555000,0.0324,0.013523,0.002678,0.000431,0.001528
128556000,0.0324,0.013523,0.002678,0.000431,0.001763
128557000,0.0324,0.013523,0.002678,0.000431,0.001763
128558000,0.0324,0.013523,0.002678,0.000431,0.001645
128559000,0.0324,0.013523,0.002678,0.000431,0.001645
128560000,0.0324,0.013523,0.002678,0.000431,0.001645
128561000,0.0324,0.013523,0.002678,0.000431,0.001763
128562000,0.0324,0.013523,0.002678,0.000431,0.001645
128563000,0.0324,0.013523,0.002678,0.000431,0.001645
128564000,0.0324,0.013523,0.002678,0.000431,0.001528
128565000,0.0324,0.013523,0.002678,0.000431,0.003291
128566000,0.0324,0.013523,0.002678,0.000431,0.002703
128567000,0.0324,0.013523,0.002678,0.000431,0.000940
128568000,0.0324,0.013523,0.002678,0.000431,0.000705
128569000,0.0324,0.013523,0.002678,0.000431,0.000940
128570000,0.0324,0.013523,0.002678,0.000431,0.000705
128571000,0.0324,0.013523,0.002678,0.000431,0.000940
128572000,0.0324,0.013523,0.002678,0.000431,0.000940
128573000,0.0324,0.013523,0.002678,0.000431,0.000705
128574000,0.0324,0.013523,0.002678,0.000431,0.071810
128575000,0.0324,0.013523,0.002678,0.000431,0.869591
128576000,0.0324,0.013523,0.002678,0.000431,0.540395
128577000,0.0324,0.013523,0.002678,0.000431,0.215077
128578000,0.0324,0.013523,0.002678,0.000431,0.248807
128579000,0.0324,0.013523,0.002678,0.000431,0.583762
128580000,0.0324,0.013523,0.002678,0.000431,0.321087
128581000,0.0324,0.013523,0.002678,0.000431,0.269845
128582000,0.0324,0.013523,0.002678,0.000431,0.166185
128583000,0.0324,0.013523,0.002678,0.000431,0.114825
128584000,0.0324,0.013523,0.002678,0.000431,0.490563
128585000,0.0324,0.013523,0.002678,0.000431,0.417930
128586000,0.0324,0.013523,0.002678,0.000431,0.279247
128587000,0.0324,0.013523,0.002678,0.000431,0.235644
128588000,0.0324,0.013523,0.002678,0.000431,0.196742
128589000,0.0324,0.013523,0.002678,0.000431,0.172414
128590000,0.0324,0.013523,0.002678,0.000431,0.145970
128591000,0.0324,0.013523,0.002678,0.000431,0.118468
128592000,0.0324,0.013523,0.002678,0.000431,0.104365
128593000,0.0324,0.013523,0.002678,0.000431,0.093670
128594000,0.0324,0.013523,0.002678,0.000431,0.068166
128595000,0.0324,0.013523,0.002678,0.000431,0.053945
128596000,0.0324,0.013523,0.002678,0.000431,0.056296
128597000,0.0324,0.013523,0.002678,0.000431,0.049479
128598000,0.0324,0.013523,0.002678,0.000431,0.041487
128599000,0.0324,0.013523,0.002678,0.000431,0.042663
128600000,0.0324,0.013523,0.002678,0.000431,0.032790
128601000,0.0324,0.013523,0.002678,0.000431,0.025504
128602000,0.0324,0.013523,0.002678,0.000431,0.022800
128603000,0.0324,0.013523,0.002678,0.000431,0.019040
128604000,0.0324,0.013523,0.002678,0.000431,0.012693
128605000,0.0324,0.013523,0.002678,0.000431,0.009167
128606000,0.0324,0.013523,0.002678,0.000431,0.014456
128607000,0.0324,0.013523,0.002678,0.000431,0.011165
128608000,0.0324,0.013523,0.002678,0.000431,0.011635
128609000,0.0324,0.013523,0.002678,0.000431,0.005759
128610000,0.0324,0.013523,0.002678,0.000431,0.004584
128611000,0.0324,0.013523,0.002678,0.000431,0.000940
128612000,0.0324,0.013523,0.002678,0.000431,0.000940
128613000,0.0324,0.013523,0.002678,0.000431,0.000940
128614000,0.0324,0.013523,0.002678,0.000431,0.002116
128615000,0.0324,0.013523,0.002678,0.000431,0.424747
128616000,0.0324,0.013523,0.002678,0.000431,0.819171
128617000,0.0324,0.013523,0.002678,0.000431,0.345063
128618000,0.0324,0.013523,0.002678,0.000431,0.208613
128619000,0.0324,0.013523,0.002678,0.000431,0.502198
128620000,0.0324,0.013523,0.002678,0.000431,0.315563
128621000,0.0324,0.013523,0.002678,0.000431,0.337776
128622000,0.0324,0.013523,0.002678,0.000431,0.227417
128623000,0.0324,0.013523,0.002678,0.000431,0.188633
128624000,0.0324,0.013523,0.002678,0.000431,0.086383
128625000,0.0324,0.013523,0.002678,0.000431,0.571069
128626000,0.0324,0.013523,0.002678,0.000431,0.338481
128627000,0.0324,0.013523,0.002678,0.000431,0.229297
128628000,0.0324,0.013523,0.002678,0.000431,0.225772
128629000,0.0324,0.013523,0.002678,0.000431,0.181934
128630000,0.0324,0.013523,0.002678,0.000431,0.178055
128631000,0.0324,0.013523,0.002678,0.000431,0.130339
128632000,0.0324,0.013523,0.002678,0.000431,0.117176
128633000,0.0324,0.013523,0.002678,0.000431,0.100487
128634000,0.0324,0.013523,0.002678,0.000431,0.088029
128635000,0.0324,0.013523,0.002678,0.000431,0.081565
128636000,0.0324,0.013523,0.002678,0.000431,0.065581
128637000,0.0324,0.013523,0.002678,0.000431,0.051830
128638000,0.0324,0.013523,0.002678,0.000431,0.046541
128639000,0.0324,0.013523,0.002678,0.000431,0.041135
128640000,0.0324,0.013523,0.002678,0.000431,0.041840
128641000,0.0324,0.013523,0.002678,0.000431,0.026326
128642000,0.0324,0.013523,0.002678,0.000431,0.024328
128643000,0.0324,0.013523,0.002678,0.000431,0.022683
128644000,0.0324,0.013523,0.002678,0.000431,0.029147
128645000,0.0324,0.013523,0.002678,0.000431,0.017864
128646000,0.0324,0.013523,0.002678,0.000431,0.021390
128647000,0.0324,0.013523,0.002678,0.000431,0.009990
128648000,0.0324,0.013523,0.002678,0.000431,0.012811
128649000,0.0324,0.013523,0.002678,0.000431,0.008932
128650000,0.0324,0.013523,0.002678,0.000431,0.010225
128651000,0.0324,0.013523,0.002678,0.000431,0.008815
128652000,0.0324,0.013523,0.002678,0.000431,0.009990
128653000,0.0324,0.013523,0.002678,0.000431,0.006347
128654000,0.0324,0.013523,0.002678,0.000431,0.008932
128655000,0.0324,0.013523,0.002678,0.000431,0.005759
128656000,0.0324,0.013523,0.002678,0.000431,0.004701
128657000,0.0324,0.013523,0.002678,0.000431,0.005171
128658000,0.0324,0.013523,0.002678,0.000431,0.005641
128659000,0.0324,0.013523,0.002678,0.000431,0.005289
128660000,0.0324,0.013523,0.002678,0.000431,0.005171
128661000,0.0324,0.013523,0.002678,0.000431,0.005054
128662000,0.0324,0.013523,0.002678,0.000431,0.004936
128663000,0.0324,0.013523,0.002678,0.000431,0.005054
128664000,0.0324,0.013523,0.002678,0.000431,0.005054
128665000,0.0324,0.013523,0.002678,0.000431,0.004701
128666000,0.0324,0.013523,0.002678,0.000431,0.005171
128667000,0.0324,0.013523,0.002678,0.000431,0.005054
128668000,0.0324,0.013523,0.002678,0.000431,0.005054
128669000,0.0324,0.013523,0.002678,0.000431,0.009872
128670000,0.0324,0.013523,0.002678,0.000431,0.003173
128671000,0.0324,0.013523,0.002678,0.000431,0.003996
128672000,0.0324,0.013523,0.002678,0.000431,0.003408
128673000,0.0324,0.013523,0.002678,0.000431,0.006464
128674000,0.0324,0.013523,0.002678,0.000431,0.002821
128675000,0.0324,0.013523,0.002678,0.000431,0.002703
128676000,0.0324,0.013523,0.002678,0.000431,0.002938
128677000,0.0324,0.013523,0.002678,0.000431,0.002586
128678000,0.0324,0.013523,0.002678,0.000431,0.006111
128679000,0.0324,0.013523,0.002678,0.000431,0.001528
128680000,0.0324,0.013523,0.002678,0.000431,0.001880
128681000,0.0324,0.013523,0.002678,0.000431,0.001528
128682000,0.0324,0.013523,0.002678,0.000431,0.001645
128683000,0.0324,0.013523,0.002678,0.000431,0.001763
128684000,0.0324,0.013523,0.002678,0.000431,0.001763
128685000,0.0324,0.013523,0.002678,0.000431,0.001528
128686000,0.0324,0.013523,0.002678,0.000431,0.001880
128687000,0.0324,0.013523,0.002678,0.000431,0.003761
128688000,0.0324,0.013523,0.002678,0.000431,0.000940
128689000,0.0324,0.013523,0.002678,0.000431,0.072397
128690000,0.0324,0.013523,0.002678,0.000431,0.877465
128691000,0.0324,0.013523,0.002678,0.000431,0.551442
128692000,0.0324,0.013523,0.002678,0.000431,0.163952
128693000,0.0324,0.013523,0.002678,0.000431,0.162424
128694000,0.0324,0.013523,0.002678,0.000431,0.575888
128695000,0.0324,0.013523,0.002678,0.000431,0.247632
128696000,0.0324,0.013523,0.002678,0.000431,0.337894
128697000,0.0324,0.013523,0.002678,0.000431,0.145500
128698000,0.0324,0.013523,0.002678,0.000431,0.185224
128699000,0.0324,0.013523,0.002678,0.000431,0.096491
128700000,0.0324,0.013523,0.002678,0.000431,0.568954
128701000,0.0324,0.013523,0.002678,0.000431,0.374092
128702000,0.0324,0.013523,0.002678,0.000431,0.286416
128703000,0.0324,0.013523,0.002678,0.000431,0.233528
128704000,0.0324,0.013523,0.002678,0.000431,0.192276
128705000,0.0324,0.013523,0.002678,0.000431,0.167830
128706000,0.0324,0.013523,0.002678,0.000431,0.138801
128707000,0.0324,0.013523,0.002678,0.000431,0.110476
128708000,0.0324,0.013523,0.002678,0.000431,0.089204
128709000,0.0324,0.013523,0.002678,0.000431,0.068636
128710000,0.0324,0.013523,0.002678,0.000431,0.071222
128711000,0.0324,0.013523,0.002678,0.000431,0.063230
128712000,0.0324,0.013523,0.002678,0.000431,0.046894
128713000,0.0324,0.013523,0.002678,0.000431,0.040900
128714000,0.0324,0.013523,0.002678,0.000431,0.033260
128715000,0.0324,0.013523,0.002678,0.000431,0.021155
128716000,0.0324,0.013523,0.002678,0.000431,0.024563
128717000,0.0324,0.013523,0.002678,0.000431,0.011753
128718000,0.0324,0.013523,0.002678,0.000431,0.014103
128719000,0.0324,0.013523,0.002678,0.000431,0.015161
128720000,0.0324,0.013523,0.002678,0.000431,0.015749
128721000,0.0324,0.013523,0.002678,0.000431,0.012576
128722000,0.0324,0.013523,0.002678,0.000431,0.003173
128723000,0.0324,0.013523,0.002678,0.000431,0.005994
128724000,0.0324,0.013523,0.002678,0.000431,0.002233
128725000,0.0324,0.013523,0.002678,0.000431,0.002703
128726000,0.0324,0.013523,0.002678,0.000431,0.002468
128727000,0.0324,0.013523,0.002678,0.000431,0.005171
128728000,0.0324,0.013523,0.002678,0.000431,0.001528
128729000,0.0324,0.013523,0.002678,0.000431,0.001645
128730000,0.0324,0.013523,0.002678,0.000431,0.001645
128731000,0.0324,0.013523,0.002678,0.000431,0.001645
128732000,0.0324,0.013523,0.002678,0.000431,0.001528
128733000,0.0324,0.013523,0.002678,0.000431,0.004349
128734000,0.0324,0.013523,0.002678,0.000431,0.000940
128735000,0.0324,0.013523,0.002678,0.000431,0.000940
128736000,0.0324,0.013523,0.002678,0.000431,0.000823
128737000,0.0324,0.013523,0.002678,0.000431,0.000823
128738000,0.0324,0.013523,0.002678,0.000431,0.000705
128739000,0.0324,0.013523,0.002678,0.000431,0.000940
128740000,0.0324,0.013523,0.002678,0.000431,0.000705
128741000,0.0324,0.013523,0.002678,0.000431,0.000940
128742000,0.0324,0.013523,0.002678,0.000431,0.000705
128743000,0.0324,0.013523,0.002678,0.000431,0.000940
128744000,0.0324,0.013523,0.002678,0.000431,0.000940
128745000,0.0324,0.013523,0.002678,0.000431,0.000705
128746000,0.0324,0.013523,0.002678,0.000431,0.000940
128747000,0.0324,0.013523,0.002678,0.000431,0.000705
128748000,0.0324,0.013523,0.002678,0.000431,0.000940
128749000,0.0324,0.013523,0.002678,0.000431,0.000705
128750000,0.0324,0.013523,0.002678,0.000431,0.000940
128751000,0.0324,0.013523,0.002678,0.000431,0.000823
128752000,0.0324,0.013523,0.002678,0.000431,0.000823
128753000,0.0324,0.013523,0.002678,0.000431,0.000940
128754000,0.0324,0.013523,0.002678,0.000431,0.000705
128755000,0.0324,0.013523,0.002678,0.000431,0.000940
128756000,0.0324,0.013523,0.002678,0.000431,0.000823
128757000,0.0324,0.013523,0.002678,0.000431,0.000823
128758000,0.0324,0.013523,0.002678,0.000431,0.000823
128759000,0.0324,0.013523,0.002678,0.000431,0.000823
128760000,0.0324,0.013523,0.002678,0.000431,0.000823
128761000,0.0324,0.013523,0.002678,0.000431,0.000823
128762000,0.0324,0.013523,0.002678,0.000431,0.000940
128763000,0.0324,0.013523,0.002678,0.000431,0.041723
128764000,0.0324,0.013523,0.002678,0.000431,0.881109
128765000,0.0324,0.013523,0.002678,0.000431,0.565193
128766000,0.0324,0.013523,0.002678,0.000431,0.179936
128767000,0.0324,0.013523,0.002678,0.000431,0.178643
128768000,0.0324,0.013523,0.002678,0.000431,0.600451
128769000,0.0324,0.013523,0.002678,0.000431,0.250335
128770000,0.0324,0.013523,0.002678,0.000431,0.352585
128771000,0.0324,0.013523,0.002678,0.000431,0.152434
128772000,0.0324,0.013523,0.002678,0.000431,0.148086
128773000,0.0324,0.013523,0.002678,0.000431,0.246692
128774000,0.0324,0.013523,0.002678,0.000431,0.569542
128775000,0.0324,0.013523,0.002678,0.000431,0.302753
128776000,0.0324,0.013523,0.002678,0.000431,0.260913
128777000,0.0324,0.013523,0.002678,0.000431,0.203794
128778000,0.0324,0.013523,0.002678,0.000431,0.171004
128779000,0.0324,0.013523,0.002678,0.000431,0.150083
128780000,0.0324,0.013523,0.002678,0.000431,0.119526
128781000,0.0324,0.013523,0.002678,0.000431,0.105540
128782000,0.0324,0.013523,0.002678,0.000431,0.082622
128783000,0.0324,0.013523,0.002678,0.000431,0.070869
128784000,0.0324,0.013523,0.002678,0.000431,0.061115
128785000,0.0324,0.013523,0.002678,0.000431,0.057589
128786000,0.0324,0.013523,0.002678,0.000431,0.054886
128787000,0.0324,0.013523,0.002678,0.000431,0.044308
128788000,0.0324,0.013523,0.002678,0.000431,0.040195
128789000,0.0324,0.013523,0.002678,0.000431,0.039607
128790000,0.0324,0.013523,0.002678,0.000431,0.026679
128791000,0.0324,0.013523,0.002678,0.000431,0.024328
128792000,0.0324,0.013523,0.002678,0.000431,0.022800
128793000,0.0324,0.013523,0.002678,0.000431,0.030205
128794000,0.0324,0.013523,0.002678,0.000431,0.017629
128795000,0.0324,0.013523,0.002678,0.000431,0.014338
128796000,0.0324,0.013523,0.002678,0.000431,0.010695
128797000,0.0324,0.013523,0.002678,0.000431,0.010225
128798000,0.0324,0.013523,0.002678,0.000431,0.008109
128799000,0.0324,0.013523,0.002678,0.000431,0.007404
128800000,0.0324,0.013523,0.002678,0.000431,0.009167
128801000,0.0324,0.013523,0.002678,0.000431,0.008697
128802000,0.0324,0.013523,0.002678,0.000431,0.009872
128803000,0.0324,0.013523,0.002678,0.000431,0.005054
128804000,0.0324,0.013523,0.002678,0.000431,0.004466
128805000,0.0324,0.013523,0.002678,0.000431,0.004231
128806000,0.0324,0.013523,0.002678,0.000431,0.002351
128807000,0.0324,0.013523,0.002678,0.000431,0.005641
128808000,0.0324,0.013523,0.002678,0.000431,0.001763
128809000,0.0324,0.013523,0.002678,0.000431,0.001528
128810000,0.0324,0.013523,0.002678,0.000431,0.001998
128811000,0.0324,0.013523,0.002678,0.000431,0.001528
128812000,0.0324,0.013523,0.002678,0.000431,0.001880
128813000,0.0324,0.013523,0.002678,0.000431,0.001058
128814000,0.0324,0.013523,0.002678,0.000431,0.000940
128815000,0.0324,0.013523,0.002678,0.000431,0.000705
128816000,0.0324,0.013523,0.002678,0.000431,0.000940
128817000,0.0324,0.013523,0.002678,0.000431,0.000823
128818000,0.0324,0.013523,0.002678,0.000431,0.000823
128819000,0.0324,0.013523,0.002678,0.000431,0.000940
128820000,0.0324,0.013523,0.002678,0.000431,0.000823
128821000,0.0324,0.013523,0.002678,0.000431,0.073573
128822000,0.0324,0.013523,0.002678,0.000431,0.900148
128823000,0.0324,0.013523,0.002678,0.000431,0.551090
128824000,0.0324,0.013523,0.002678,0.000431,0.168418
128825000,0.0324,0.013523,0.002678,0.000431,0.293938
128826000,0.0324,0.013523,0.002678,0.000431,0.499847
128827000,0.0324,0.013523,0.002678,0.000431,0.269845
128828000,0.0324,0.013523,0.002678,0.000431,0.303458
128829000,0.0324,0.013523,0.002678,0.000431,0.167360
128830000,0.0324,0.013523,0.002678,0.000431,0.095315
128831000,0.0324,0.013523,0.002678,0.000431,0.473639
128832000,0.0324,0.013523,0.002678,0.000431,0.438850
128833000,0.0324,0.013523,0.002678,0.000431,0.287827
128834000,0.0324,0.013523,0.002678,0.000431,0.251628
128835000,0.0324,0.013523,0.002678,0.000431,0.221776
128836000,0.0324,0.013523,0.002678,0.000431,0.189573
128837000,0.0324,0.013523,0.002678,0.000431,0.159486
128838000,0.0324,0.013523,0.002678,0.000431,0.149261
128839000,0.0324,0.013523,0.002678,0.000431,0.114237
128840000,0.0324,0.013523,0.002678,0.000431,0.082387
128841000,0.0324,0.013523,0.002678,0.000431,0.069107
128842000,0.0324,0.013523,0.002678,0.000431,0.070282
128843000,0.0324,0.013523,0.002678,0.000431,0.058412
128844000,0.0324,0.013523,0.002678,0.000431,0.056296
128845000,0.0324,0.013523,0.002678,0.000431,0.039607
128846000,0.0324,0.013523,0.002678,0.000431,0.031380
128847000,0.0324,0.013523,0.002678,0.000431,0.026796
128848000,0.0324,0.013523,0.002678,0.000431,0.015161
128849000,0.0324,0.013523,0.002678,0.000431,0.023036
128850000,0.0324,0.013523,0.002678,0.000431,0.020097
128851000,0.0324,0.013523,0.002678,0.000431,0.017982
128852000,0.0324,0.013523,0.002678,0.000431,0.013516
128853000,0.0324,0.013523,0.002678,0.000431,0.012928
128854000,0.0324,0.013523,0.002678,0.000431,0.008815
128855000,0.0324,0.013523,0.002678,0.000431,0.008580
128856000,0.0324,0.013523,0.002678,0.000431,0.007874
128857000,0.0324,0.013523,0.002678,0.000431,0.008932
128858000,0.0324,0.013523,0.002678,0.000431,0.007052
128859000,0.0324,0.013523,0.002678,0.000431,0.011988
128860000,0.0324,0.013523,0.002678,0.000431,0.009402
128861000,0.0324,0.013523,0.002678,0.000431,0.005524
128862000,0.0324,0.013523,0.002678,0.000431,0.004349
128863000,0.0324,0.013523,0.002678,0.000431,0.007522
128864000,0.0324,0.013523,0.002678,0.000431,0.004113
128865000,0.0324,0.013523,0.002678,0.000431,0.003291
128866000,0.0324,0.013523,0.002678,0.000431,0.003996
128867000,0.0324,0.013523,0.002678,0.000431,0.004349
128868000,0.0324,0.013523,0.002678,0.000431,0.005406
128869000,0.0324,0.013523,0.002678,0.000431,0.003173
128870000,0.0324,0.013523,0.002678,0.000431,0.002351
128871000,0.0324,0.013523,0.002678,0.000431,0.003056
128872000,0.0324,0.013523,0.002678,0.000431,0.003761
128873000,0.0324,0.013523,0.002678,0.000431,0.003056
128874000,0.0324,0.013523,0.002678,0.000431,0.001880
128875000,0.0324,0.013523,0.002678,0.000431,0.001645
128876000,0.0324,0.013523,0.002678,0.000431,0.001880
128877000,0.0324,0.013523,0.002678,0.000431,0.001645
128878000,0.0324,0.013523,0.002678,0.000431,0.001880
128879000,0.0324,0.013523,0.002678,0.000431,0.001645
128880000,0.0324,0.013523,0.002678,0.000431,0.003643
128881000,0.0324,0.013523,0.002678,0.000431,0.000823
128882000,0.0324,0.013523,0.002678,0.000431,0.001058
128883000,0.0324,0.013523,0.002678,0.000431,0.000940
128884000,0.0324,0.013523,0.002678,0.000431,0.000940
128885000,0.0324,0.013523,0.002678,0.000431,0.000940
128886000,0.0324,0.013523,0.002678,0.000431,0.000823
128887000,0.0324,0.013523,0.002678,0.000431,0.001058
128888000,0.0324,0.013523,0.002678,0.000431,0.000823
128889000,0.0324,0.013523,0.002678,0.000431,0.001058
128890000,0.0324,0.013523,0.002678,0.000431,0.000823
128891000,0.0324,0.013523,0.002678,0.000431,0.000823
128892000,0.0324,0.013523,0.002678,0.000431,0.001175
128893000,0.0324,0.013523,0.002678,0.000431,0.000705
128894000,0.0324,0.013523,0.002678,0.000431,0.001058
128895000,0.0324,0.013523,0.002678,0.000431,0.000940
128896000,0.0324,0.013523,0.002678,0.000431,0.000823
128897000,0.0324,0.013523,0.002678,0.000431,0.001058
128898000,0.0324,0.013523,0.002678,0.000431,0.000823
128899000,0.0324,0.013523,0.002678,0.000431,0.000940
128900000,0.0324,0.013523,0.002678,0.000431,0.000940
128901000,0.0324,0.013523,0.002678,0.000431,0.000940
128902000,0.0324,0.013523,0.002678,0.000431,0.000940
128903000,0.0324,0.013523,0.002678,0.000431,0.000940
128904000,0.0324,0.013523,0.002678,0.000431,0.000940
128905000,0.0324,0.013523,0.002678,0.000431,0.000940
128906000,0.0324,0.013523,0.002678,0.000431,0.000940
128907000,0.0324,0.013523,0.002678,0.000431,0.001175
128908000,0.0324,0.013523,0.002678,0.000431,0.000823
128909000,0.0324,0.013523,0.002678,0.000431,0.000940
128910000,0.0324,0.013523,0.002678,0.000431,0.001058
128911000,0.0324,0.013523,0.002678,0.000431,0.000705
128912000,0.0324,0.013523,0.002678,0.000431,0.001175
128913000,0.0324,0.013523,0.002678,0.000431,0.000823
128914000,0.0324,0.013523,0.002678,0.000431,0.000940
128915000,0.0324,0.013523,0.002678,0.000431,0.000940
128916000,0.0324,0.013523,0.002678,0.000431,0.000823
128917000,0.0324,0.013523,0.002678,0.000431,0.001058
128918000,0.0324,0.013523,0.002678,0.000431,0.000823
128919000,0.0324,0.013523,0.002678,0.000431,0.001058
128920000,0.0324,0.013523,0.002678,0.000431,0.000823
128921000,0.0324,0.013523,0.002678,0.000431,0.000940
128922000,0.0324,0.013523,0.002678,0.000431,0.000940
128923000,0.0324,0.013523,0.002678,0.000431,0.000940
128924000,0.0324,0.013523,0.002678,0.000431,0.001058
128925000,0.0324,0.013523,0.002678,0.000431,0.000823
128926000,0.0324,0.013523,0.002678,0.000431,0.000940
128927000,0.0324,0.013523,0.002678,0.000431,0.000940
128928000,0.0324,0.013523,0.002678,0.000431,0.000940
128929000,0.0324,0.013523,0.002678,0.000431,0.000823
128930000,0.0324,0.013523,0.002678,0.000431,0.001058
128931000,0.0324,0.013523,0.002678,0.000431,0.004466
128932000,0.0324,0.013523,0.002678,0.000431,0.693064
128933000,0.0324,0.013523,0.002678,0.000431,0.666737
128934000,0.0324,0.013523,0.002678,0.000431,0.281833
128935000,0.0324,0.013523,0.002678,0.000431,0.164657
128936000,0.0324,0.013523,0.002678,0.000431,0.540395
128937000,0.0324,0.013523,0.002678,0.000431,0.259502
128938000,0.0324,0.013523,0.002678,0.000431,0.317796
128939000,0.0324,0.013523,0.002678,0.000431,0.258915
128940000,0.0324,0.013523,0.002678,0.000431,0.152904
128941000,0.0324,0.013523,0.002678,0.000431,0.106716
128942000,0.0324,0.013523,0.002678,0.000431,0.457890
128943000,0.0324,0.013523,0.002678,0.000431,0.473404
128944000,0.0324,0.013523,0.002678,0.000431,0.296406
128945000,0.0324,0.013523,0.002678,0.000431,0.258797
128946000,0.0324,0.013523,0.002678,0.000431,0.233058
128947000,0.0324,0.013523,0.002678,0.000431,0.178173
128948000,0.0324,0.013523,0.002678,0.000431,0.152317
128949000,0.0324,0.013523,0.002678,0.000431,0.139388
128950000,0.0324,0.013523,0.002678,0.000431,0.119996
128951000,0.0324,0.013523,0.002678,0.000431,0.105423
128952000,0.0324,0.013523,0.002678,0.000431,0.077216
128953000,0.0324,0.013523,0.002678,0.000431,0.073338
128954000,0.0324,0.013523,0.002678,0.000431,0.058176
128955000,0.0324,0.013523,0.002678,0.000431,0.036316
128956000,0.0324,0.013523,0.002678,0.000431,0.031615
128957000,0.0324,0.013523,0.002678,0.000431,0.019980
128958000,0.0324,0.013523,0.002678,0.000431,0.027972
128959000,0.0324,0.013523,0.002678,0.000431,0.023623
128960000,0.0324,0.013523,0.002678,0.000431,0.021743
128961000,0.0324,0.013523,0.002678,0.000431,0.007992
128962000,0.0324,0.013523,0.002678,0.000431,0.009872
128963000,0.0324,0.013523,0.002678,0.000431,0.005994
128964000,0.0324,0.013523,0.002678,0.000431,0.005641
128965000,0.0324,0.013523,0.002678,0.000431,0.005759
128966000,0.0324,0.013523,0.002678,0.000431,0.005289
128967000,0.0324,0.013523,0.002678,0.000431,0.004936
128968000,0.0324,0.013523,0.002678,0.000431,0.005054
128969000,0.0324,0.013523,0.002678,0.000431,0.011753
128970000,0.0324,0.013523,0.002678,0.000431,0.003526
128971000,0.0324,0.013523,0.002678,0.000431,0.006699
128972000,0.0324,0.013523,0.002678,0.000431,0.002351
128973000,0.0324,0.013523,0.002678,0.000431,0.006111
128974000,0.0324,0.013523,0.002678,0.000431,0.001763
128975000,0.0324,0.013523,0.002678,0.000431,0.004584
128976000,0.0324,0.013523,0.002678,0.000431,0.000940
128977000,0.0324,0.013523,0.002678,0.000431,0.000823
128978000,0.0324,0.013523,0.002678,0.000431,0.000823
128979000,0.0324,0.013523,0.002678,0.000431,0.000823
128980000,0.0324,0.013523,0.002678,0.000431,0.000823
128981000,0.0324,0.013523,0.002678,0.000431,0.000823
128982000,0.0324,0.013523,0.002678,0.000431,0.000940
128983000,0.0324,0.013523,0.002678,0.000431,0.000823
128984000,0.0324,0.013523,0.002678,0.000431,0.000823
128985000,0.0324,0.013523,0.002678,0.000431,0.000705
128986000,0.0324,0.013523,0.002678,0.000431,0.000940
128987000,0.0324,0.013523,0.002678,0.000431,0.000940
128988000,0.0324,0.013523,0.002678,0.000431,0.000705
128989000,0.0324,0.013523,0.002678,0.000431,0.000940
128990000,0.0324,0.013523,0.002678,0.000431,0.000705
128991000,0.0324,0.013523,0.002678,0.000431,0.000940
128992000,0.0324,0.013523,0.002678,0.000431,0.000823
128993000,0.0324,0.013523,0.002678,0.000431,0.000823
128994000,0.0324,0.013523,0.002678,0.000431,0.000705
128995000,0.0324,0.013523,0.002678,0.000431,0.000940
128996000,0.0324,0.013523,0.002678,0.000431,0.000823
128997000,0.0324,0.013523,0.002678,0.000431,0.000823
128998000,0.0324,0.013523,0.002678,0.000431,0.000705
128999000,0.0324,0.013523,0.002678,0.000431,0.000940
