Cycle,Area(mm^2),PeakDynamic(W),SubthresholdLeakage(W),GateLeakage(W),RunTimeDynamic(W)
82000000,0.0324,0.013523,0.002678,0.000431,0.006817
82001000,0.0324,0.013523,0.002678,0.000431,0.007874
82002000,0.0324,0.013523,0.002678,0.000431,0.010225
82003000,0.0324,0.013523,0.002678,0.000431,0.008462
82004000,0.0324,0.013523,0.002678,0.000431,0.009520
82005000,0.0324,0.013523,0.002678,0.000431,0.005054
82006000,0.0324,0.013523,0.002678,0.000431,0.001645
82007000,0.0324,0.013523,0.002678,0.000431,0.000823
82008000,0.0324,0.013523,0.002678,0.000431,0.000940
82009000,0.0324,0.013523,0.002678,0.000431,0.003526
82010000,0.0324,0.013523,0.002678,0.000431,0.710810
82011000,0.0324,0.013523,0.002678,0.000431,0.756881
82012000,0.0324,0.013523,0.002678,0.000431,0.175235
82013000,0.0324,0.013523,0.002678,0.000431,0.186635
82014000,0.0324,0.013523,0.002678,0.000431,0.591989
82015000,0.0324,0.013523,0.002678,0.000431,0.239993
82016000,0.0324,0.013523,0.002678,0.000431,0.246809
82017000,0.0324,0.013523,0.002678,0.000431,0.162306
82018000,0.0324,0.013523,0.002678,0.000431,0.123170
82019000,0.0324,0.013523,0.002678,0.000431,0.357051
82020000,0.0324,0.013523,0.002678,0.000431,0.445902
82021000,0.0324,0.013523,0.002678,0.000431,0.173001
82022000,0.0324,0.013523,0.002678,0.000431,0.155372
82023000,0.0324,0.013523,0.002678,0.000431,0.136450
82024000,0.0324,0.013523,0.002678,0.000431,0.110829
82025000,0.0324,0.013523,0.002678,0.000431,0.080389
82026000,0.0324,0.013523,0.002678,0.000431,0.058647
82027000,0.0324,0.013523,0.002678,0.000431,0.052183
82028000,0.0324,0.013523,0.002678,0.000431,0.033496
82029000,0.0324,0.013523,0.002678,0.000431,0.019745
82030000,0.0324,0.013523,0.002678,0.000431,0.023506
82031000,0.0324,0.013523,0.002678,0.000431,0.024328
82032000,0.0324,0.013523,0.002678,0.000431,0.016454
82033000,0.0324,0.013523,0.002678,0.000431,0.012340
82034000,0.0324,0.013523,0.002678,0.000431,0.013046
82035000,0.0324,0.013523,0.002678,0.000431,0.007404
82036000,0.0324,0.013523,0.002678,0.000431,0.004349
82037000,0.0324,0.013523,0.002678,0.000431,0.003996
82038000,0.0324,0.013523,0.002678,0.000431,0.006229
82039000,0.0324,0.013523,0.002678,0.000431,0.007874
82040000,0.0324,0.013523,0.002678,0.000431,0.002233
82041000,0.0324,0.013523,0.002678,0.000431,0.002233
82042000,0.0324,0.013523,0.002678,0.000431,0.002586
82043000,0.0324,0.013523,0.002678,0.000431,0.001880
82044000,0.0324,0.013523,0.002678,0.000431,0.002586
82045000,0.0324,0.013523,0.002678,0.000431,0.002586
82046000,0.0324,0.013523,0.002678,0.000431,0.001880
82047000,0.0324,0.013523,0.002678,0.000431,0.002586
82048000,0.0324,0.013523,0.002678,0.000431,0.001763
82049000,0.0324,0.013523,0.002678,0.000431,0.001763
82050000,0.0324,0.013523,0.002678,0.000431,0.001763
82051000,0.0324,0.013523,0.002678,0.000431,0.001645
82052000,0.0324,0.013523,0.002678,0.000431,0.003056
82053000,0.0324,0.013523,0.002678,0.000431,0.002703
82054000,0.0324,0.013523,0.002678,0.000431,0.000705
82055000,0.0324,0.013523,0.002678,0.000431,0.000940
82056000,0.0324,0.013523,0.002678,0.000431,0.000940
82057000,0.0324,0.013523,0.002678,0.000431,0.000705
82058000,0.0324,0.013523,0.002678,0.000431,0.000940
82059000,0.0324,0.013523,0.002678,0.000431,0.000940
82060000,0.0324,0.013523,0.002678,0.000431,0.000940
82061000,0.0324,0.013523,0.002678,0.000431,0.000823
82062000,0.0324,0.013523,0.002678,0.000431,0.000823
82063000,0.0324,0.013523,0.002678,0.000431,0.000823
82064000,0.0324,0.013523,0.002678,0.000431,0.000823
82065000,0.0324,0.013523,0.002678,0.000431,0.000940
82066000,0.0324,0.013523,0.002678,0.000431,0.000823
82067000,0.0324,0.013523,0.002678,0.000431,0.000823
82068000,0.0324,0.013523,0.002678,0.000431,0.000940
82069000,0.0324,0.013523,0.002678,0.000431,0.000705
82070000,0.0324,0.013523,0.002678,0.000431,0.000940
82071000,0.0324,0.013523,0.002678,0.000431,0.000823
82072000,0.0324,0.013523,0.002678,0.000431,0.000823
82073000,0.0324,0.013523,0.002678,0.000431,0.000940
82074000,0.0324,0.013523,0.002678,0.000431,0.000823
82075000,0.0324,0.013523,0.002678,0.000431,0.000823
82076000,0.0324,0.013523,0.002678,0.000431,0.000940
82077000,0.0324,0.013523,0.002678,0.000431,0.005171
82078000,0.0324,0.013523,0.002678,0.000431,0.609031
82079000,0.0324,0.013523,0.002678,0.000431,0.732318
82080000,0.0324,0.013523,0.002678,0.000431,0.155255
82081000,0.0324,0.013523,0.002678,0.000431,0.139153
82082000,0.0324,0.013523,0.002678,0.000431,0.522648
82083000,0.0324,0.013523,0.002678,0.000431,0.264203
82084000,0.0324,0.013523,0.002678,0.000431,0.328021
82085000,0.0324,0.013523,0.002678,0.000431,0.153139
82086000,0.0324,0.013523,0.002678,0.000431,0.150201
82087000,0.0324,0.013523,0.002678,0.000431,0.234234
82088000,0.0324,0.013523,0.002678,0.000431,0.535458
82089000,0.0324,0.013523,0.002678,0.000431,0.202266
82090000,0.0324,0.013523,0.002678,0.000431,0.167713
82091000,0.0324,0.013523,0.002678,0.000431,0.145265
82092000,0.0324,0.013523,0.002678,0.000431,0.132689
82093000,0.0324,0.013523,0.002678,0.000431,0.119291
82094000,0.0324,0.013523,0.002678,0.000431,0.089204
82095000,0.0324,0.013523,0.002678,0.000431,0.073573
82096000,0.0324,0.013523,0.002678,0.000431,0.073573
82097000,0.0324,0.013523,0.002678,0.000431,0.069342
82098000,0.0324,0.013523,0.002678,0.000431,0.052418
82099000,0.0324,0.013523,0.002678,0.000431,0.037021
82100000,0.0324,0.013523,0.002678,0.000431,0.032790
82101000,0.0324,0.013523,0.002678,0.000431,0.022330
82102000,0.0324,0.013523,0.002678,0.000431,0.020097
82103000,0.0324,0.013523,0.002678,0.000431,0.016101
82104000,0.0324,0.013523,0.002678,0.000431,0.019157
82105000,0.0324,0.013523,0.002678,0.000431,0.016924
82106000,0.0324,0.013523,0.002678,0.000431,0.017629
82107000,0.0324,0.013523,0.002678,0.000431,0.013633
82108000,0.0324,0.013523,0.002678,0.000431,0.009402
82109000,0.0324,0.013523,0.002678,0.000431,0.014456
82110000,0.0324,0.013523,0.002678,0.000431,0.007992
82111000,0.0324,0.013523,0.002678,0.000431,0.005876
82112000,0.0324,0.013523,0.002678,0.000431,0.008345
82113000,0.0324,0.013523,0.002678,0.000431,0.005054
82114000,0.0324,0.013523,0.002678,0.000431,0.006817
82115000,0.0324,0.013523,0.002678,0.000431,0.004701
82116000,0.0324,0.013523,0.002678,0.000431,0.002468
82117000,0.0324,0.013523,0.002678,0.000431,0.002351
82118000,0.0324,0.013523,0.002678,0.000431,0.002586
82119000,0.0324,0.013523,0.002678,0.000431,0.002233
82120000,0.0324,0.013523,0.002678,0.000431,0.002468
82121000,0.0324,0.013523,0.002678,0.000431,0.002351
82122000,0.0324,0.013523,0.002678,0.000431,0.002468
82123000,0.0324,0.013523,0.002678,0.000431,0.002351
82124000,0.0324,0.013523,0.002678,0.000431,0.002468
82125000,0.0324,0.013523,0.002678,0.000431,0.002351
82126000,0.0324,0.013523,0.002678,0.000431,0.002586
82127000,0.0324,0.013523,0.002678,0.000431,0.002233
82128000,0.0324,0.013523,0.002678,0.000431,0.002468
82129000,0.0324,0.013523,0.002678,0.000431,0.002703
82130000,0.0324,0.013523,0.002678,0.000431,0.001998
82131000,0.0324,0.013523,0.002678,0.000431,0.002821
82132000,0.0324,0.013523,0.002678,0.000431,0.002586
82133000,0.0324,0.013523,0.002678,0.000431,0.002233
82134000,0.0324,0.013523,0.002678,0.000431,0.005524
82135000,0.0324,0.013523,0.002678,0.000431,0.001763
82136000,0.0324,0.013523,0.002678,0.000431,0.002233
82137000,0.0324,0.013523,0.002678,0.000431,0.001528
82138000,0.0324,0.013523,0.002678,0.000431,0.001645
82139000,0.0324,0.013523,0.002678,0.000431,0.001880
82140000,0.0324,0.013523,0.002678,0.000431,0.001410
82141000,0.0324,0.013523,0.002678,0.000431,0.001645
82142000,0.0324,0.013523,0.002678,0.000431,0.001763
82143000,0.0324,0.013523,0.002678,0.000431,0.001528
82144000,0.0324,0.013523,0.002678,0.000431,0.001528
82145000,0.0324,0.013523,0.002678,0.000431,0.002351
82146000,0.0324,0.013523,0.002678,0.000431,0.002468
82147000,0.0324,0.013523,0.002678,0.000431,0.001645
82148000,0.0324,0.013523,0.002678,0.000431,0.001410
82149000,0.0324,0.013523,0.002678,0.000431,0.001528
82150000,0.0324,0.013523,0.002678,0.000431,0.002586
82151000,0.0324,0.013523,0.002678,0.000431,0.001880
82152000,0.0324,0.013523,0.002678,0.000431,0.000705
82153000,0.0324,0.013523,0.002678,0.000431,0.072280
82154000,0.0324,0.013523,0.002678,0.000431,0.812120
82155000,0.0324,0.013523,0.002678,0.000431,0.551325
82156000,0.0324,0.013523,0.002678,0.000431,0.136803
82157000,0.0324,0.013523,0.002678,0.000431,0.282890
82158000,0.0324,0.013523,0.002678,0.000431,0.531110
82159000,0.0324,0.013523,0.002678,0.000431,0.240345
82160000,0.0324,0.013523,0.002678,0.000431,0.253743
82161000,0.0324,0.013523,0.002678,0.000431,0.158546
82162000,0.0324,0.013523,0.002678,0.000431,0.111182
82163000,0.0324,0.013523,0.002678,0.000431,0.531697
82164000,0.0324,0.013523,0.002678,0.000431,0.349646
82165000,0.0324,0.013523,0.002678,0.000431,0.221541
82166000,0.0324,0.013523,0.002678,0.000431,0.183226
82167000,0.0324,0.013523,0.002678,0.000431,0.154197
82168000,0.0324,0.013523,0.002678,0.000431,0.141621
82169000,0.0324,0.013523,0.002678,0.000431,0.110124
82170000,0.0324,0.013523,0.002678,0.000431,0.080154
82171000,0.0324,0.013523,0.002678,0.000431,0.067344
82172000,0.0324,0.013523,0.002678,0.000431,0.053123
82173000,0.0324,0.013523,0.002678,0.000431,0.039725
82174000,0.0324,0.013523,0.002678,0.000431,0.029735
82175000,0.0324,0.013523,0.002678,0.000431,0.025856
82176000,0.0324,0.013523,0.002678,0.000431,0.027267
82177000,0.0324,0.013523,0.002678,0.000431,0.015161
82178000,0.0324,0.013523,0.002678,0.000431,0.021860
82179000,0.0324,0.013523,0.002678,0.000431,0.014456
82180000,0.0324,0.013523,0.002678,0.000431,0.016689
82181000,0.0324,0.013523,0.002678,0.000431,0.014691
82182000,0.0324,0.013523,0.002678,0.000431,0.023506
82183000,0.0324,0.013523,0.002678,0.000431,0.012576
82184000,0.0324,0.013523,0.002678,0.000431,0.008580
82185000,0.0324,0.013523,0.002678,0.000431,0.007287
82186000,0.0324,0.013523,0.002678,0.000431,0.010225
82187000,0.0324,0.013523,0.002678,0.000431,0.004584
82188000,0.0324,0.013523,0.002678,0.000431,0.010342
82189000,0.0324,0.013523,0.002678,0.000431,0.004113
82190000,0.0324,0.013523,0.002678,0.000431,0.005994
82191000,0.0324,0.013523,0.002678,0.000431,0.003291
82192000,0.0324,0.013523,0.002678,0.000431,0.002351
82193000,0.0324,0.013523,0.002678,0.000431,0.003408
82194000,0.0324,0.013523,0.002678,0.000431,0.002586
82195000,0.0324,0.013523,0.002678,0.000431,0.002233
82196000,0.0324,0.013523,0.002678,0.000431,0.001880
82197000,0.0324,0.013523,0.002678,0.000431,0.003643
82198000,0.0324,0.013523,0.002678,0.000431,0.001998
82199000,0.0324,0.013523,0.002678,0.000431,0.003643
82200000,0.0324,0.013523,0.002678,0.000431,0.002351
82201000,0.0324,0.013523,0.002678,0.000431,0.004936
82202000,0.0324,0.013523,0.002678,0.000431,0.003173
82203000,0.0324,0.013523,0.002678,0.000431,0.003643
82204000,0.0324,0.013523,0.002678,0.000431,0.646758
82205000,0.0324,0.013523,0.002678,0.000431,0.763463
82206000,0.0324,0.013523,0.002678,0.000431,0.160308
82207000,0.0324,0.013523,0.002678,0.000431,0.194157
82208000,0.0324,0.013523,0.002678,0.000431,0.517477
82209000,0.0324,0.013523,0.002678,0.000431,0.236584
82210000,0.0324,0.013523,0.002678,0.000431,0.317796
82211000,0.0324,0.013523,0.002678,0.000431,0.152434
82212000,0.0324,0.013523,0.002678,0.000431,0.152787
82213000,0.0324,0.013523,0.002678,0.000431,0.216957
82214000,0.0324,0.013523,0.002678,0.000431,0.555908
82215000,0.0324,0.013523,0.002678,0.000431,0.216134
82216000,0.0324,0.013523,0.002678,0.000431,0.169828
82217000,0.0324,0.013523,0.002678,0.000431,0.133630
82218000,0.0324,0.013523,0.002678,0.000431,0.133394
82219000,0.0324,0.013523,0.002678,0.000431,0.099311
82220000,0.0324,0.013523,0.002678,0.000431,0.083092
82221000,0.0324,0.013523,0.002678,0.000431,0.066051
82222000,0.0324,0.013523,0.002678,0.000431,0.062290
82223000,0.0324,0.013523,0.002678,0.000431,0.028794
82224000,0.0324,0.013523,0.002678,0.000431,0.025974
82225000,0.0324,0.013523,0.002678,0.000431,0.017394
82226000,0.0324,0.013523,0.002678,0.000431,0.013046
82227000,0.0324,0.013523,0.002678,0.000431,0.012105
82228000,0.0324,0.013523,0.002678,0.000431,0.008932
82229000,0.0324,0.013523,0.002678,0.000431,0.007874
82230000,0.0324,0.013523,0.002678,0.000431,0.007052
82231000,0.0324,0.013523,0.002678,0.000431,0.008580
82232000,0.0324,0.013523,0.002678,0.000431,0.001880
82233000,0.0324,0.013523,0.002678,0.000431,0.001645
82234000,0.0324,0.013523,0.002678,0.000431,0.001763
82235000,0.0324,0.013523,0.002678,0.000431,0.001763
82236000,0.0324,0.013523,0.002678,0.000431,0.001645
82237000,0.0324,0.013523,0.002678,0.000431,0.001645
82238000,0.0324,0.013523,0.002678,0.000431,0.004113
82239000,0.0324,0.013523,0.002678,0.000431,0.000940
82240000,0.0324,0.013523,0.002678,0.000431,0.000823
82241000,0.0324,0.013523,0.002678,0.000431,0.000940
82242000,0.0324,0.013523,0.002678,0.000431,0.000705
82243000,0.0324,0.013523,0.002678,0.000431,0.011635
82244000,0.0324,0.013523,0.002678,0.000431,0.728910
82245000,0.0324,0.013523,0.002678,0.000431,0.663682
82246000,0.0324,0.013523,0.002678,0.000431,0.151376
82247000,0.0324,0.013523,0.002678,0.000431,0.160779
82248000,0.0324,0.013523,0.002678,0.000431,0.555203
82249000,0.0324,0.013523,0.002678,0.000431,0.239405
82250000,0.0324,0.013523,0.002678,0.000431,0.277954
82251000,0.0324,0.013523,0.002678,0.000431,0.156195
82252000,0.0324,0.013523,0.002678,0.000431,0.176057
82253000,0.0324,0.013523,0.002678,0.000431,0.173119
82254000,0.0324,0.013523,0.002678,0.000431,0.552735
82255000,0.0324,0.013523,0.002678,0.000431,0.206144
82256000,0.0324,0.013523,0.002678,0.000431,0.161601
82257000,0.0324,0.013523,0.002678,0.000431,0.153374
82258000,0.0324,0.013523,0.002678,0.000431,0.118703
82259000,0.0324,0.013523,0.002678,0.000431,0.094140
82260000,0.0324,0.013523,0.002678,0.000431,0.078979
82261000,0.0324,0.013523,0.002678,0.000431,0.046541
82262000,0.0324,0.013523,0.002678,0.000431,0.052065
82263000,0.0324,0.013523,0.002678,0.000431,0.026444
82264000,0.0324,0.013523,0.002678,0.000431,0.027737
82265000,0.0324,0.013523,0.002678,0.000431,0.021390
82266000,0.0324,0.013523,0.002678,0.000431,0.019627
82267000,0.0324,0.013523,0.002678,0.000431,0.016219
82268000,0.0324,0.013523,0.002678,0.000431,0.019275
82269000,0.0324,0.013523,0.002678,0.000431,0.007757
82270000,0.0324,0.013523,0.002678,0.000431,0.007052
82271000,0.0324,0.013523,0.002678,0.000431,0.006934
82272000,0.0324,0.013523,0.002678,0.000431,0.007639
82273000,0.0324,0.013523,0.002678,0.000431,0.006582
82274000,0.0324,0.013523,0.002678,0.000431,0.007404
82275000,0.0324,0.013523,0.002678,0.000431,0.007169
82276000,0.0324,0.013523,0.002678,0.000431,0.007874
82277000,0.0324,0.013523,0.002678,0.000431,0.007757
82278000,0.0324,0.013523,0.002678,0.000431,0.005641
82279000,0.0324,0.013523,0.002678,0.000431,0.010695
82280000,0.0324,0.013523,0.002678,0.000431,0.005641
82281000,0.0324,0.013523,0.002678,0.000431,0.010225
82282000,0.0324,0.013523,0.002678,0.000431,0.003291
82283000,0.0324,0.013523,0.002678,0.000431,0.007639
82284000,0.0324,0.013523,0.002678,0.000431,0.002233
82285000,0.0324,0.013523,0.002678,0.000431,0.577298
82286000,0.0324,0.013523,0.002678,0.000431,0.742308
82287000,0.0324,0.013523,0.002678,0.000431,0.163012
82288000,0.0324,0.013523,0.002678,0.000431,0.141269
82289000,0.0324,0.013523,0.002678,0.000431,0.526291
82290000,0.0324,0.013523,0.002678,0.000431,0.264086
82291000,0.0324,0.013523,0.002678,0.000431,0.317796
82292000,0.0324,0.013523,0.002678,0.000431,0.174294
82293000,0.0324,0.013523,0.002678,0.000431,0.188750
82294000,0.0324,0.013523,0.002678,0.000431,0.093670
82295000,0.0324,0.013523,0.002678,0.000431,0.608914
82296000,0.0324,0.013523,0.002678,0.000431,0.282890
82297000,0.0324,0.013523,0.002678,0.000431,0.192276
82298000,0.0324,0.013523,0.002678,0.000431,0.158075
82299000,0.0324,0.013523,0.002678,0.000431,0.129399
82300000,0.0324,0.013523,0.002678,0.000431,0.088734
82301000,0.0324,0.013523,0.002678,0.000431,0.084385
82302000,0.0324,0.013523,0.002678,0.000431,0.074748
82303000,0.0324,0.013523,0.002678,0.000431,0.067461
82304000,0.0324,0.013523,0.002678,0.000431,0.044778
82305000,0.0324,0.013523,0.002678,0.000431,0.025151
82306000,0.0324,0.013523,0.002678,0.000431,0.013163
82307000,0.0324,0.013523,0.002678,0.000431,0.019980
82308000,0.0324,0.013523,0.002678,0.000431,0.005171
82309000,0.0324,0.013523,0.002678,0.000431,0.002586
82310000,0.0324,0.013523,0.002678,0.000431,0.002233
82311000,0.0324,0.013523,0.002678,0.000431,0.002233
82312000,0.0324,0.013523,0.002678,0.000431,0.004113
82313000,0.0324,0.013523,0.002678,0.000431,0.001175
82314000,0.0324,0.013523,0.002678,0.000431,0.000940
82315000,0.0324,0.013523,0.002678,0.000431,0.295701
82316000,0.0324,0.013523,0.002678,0.000431,0.835273
82317000,0.0324,0.013523,0.002678,0.000431,0.426275
82318000,0.0324,0.013523,0.002678,0.000431,0.151729
82319000,0.0324,0.013523,0.002678,0.000431,0.490093
82320000,0.0324,0.013523,0.002678,0.000431,0.274076
82321000,0.0324,0.013523,0.002678,0.000431,0.324965
82322000,0.0324,0.013523,0.002678,0.000431,0.201561
82323000,0.0324,0.013523,0.002678,0.000431,0.200150
82324000,0.0324,0.013523,0.002678,0.000431,0.086031
82325000,0.0324,0.013523,0.002678,0.000431,0.589991
82326000,0.0324,0.013523,0.002678,0.000431,0.348471
82327000,0.0324,0.013523,0.002678,0.000431,0.239405
82328000,0.0324,0.013523,0.002678,0.000431,0.212491
82329000,0.0324,0.013523,0.002678,0.000431,0.173472
82330000,0.0324,0.013523,0.002678,0.000431,0.156195
82331000,0.0324,0.013523,0.002678,0.000431,0.123522
82332000,0.0324,0.013523,0.002678,0.000431,0.106598
82333000,0.0324,0.013523,0.002678,0.000431,0.076276
82334000,0.0324,0.013523,0.002678,0.000431,0.071692
82335000,0.0324,0.013523,0.002678,0.000431,0.047246
82336000,0.0324,0.013523,0.002678,0.000431,0.043603
82337000,0.0324,0.013523,0.002678,0.000431,0.043250
82338000,0.0324,0.013523,0.002678,0.000431,0.029265
82339000,0.0324,0.013523,0.002678,0.000431,0.021390
82340000,0.0324,0.013523,0.002678,0.000431,0.017747
82341000,0.0324,0.013523,0.002678,0.000431,0.018569
82342000,0.0324,0.013523,0.002678,0.000431,0.014926
82343000,0.0324,0.013523,0.002678,0.000431,0.009520
82344000,0.0324,0.013523,0.002678,0.000431,0.011753
82345000,0.0324,0.013523,0.002678,0.000431,0.010225
82346000,0.0324,0.013523,0.002678,0.000431,0.011165
82347000,0.0324,0.013523,0.002678,0.000431,0.007404
82348000,0.0324,0.013523,0.002678,0.000431,0.007404
82349000,0.0324,0.013523,0.002678,0.000431,0.011753
82350000,0.0324,0.013523,0.002678,0.000431,0.008227
82351000,0.0324,0.013523,0.002678,0.000431,0.005524
82352000,0.0324,0.013523,0.002678,0.000431,0.005524
82353000,0.0324,0.013523,0.002678,0.000431,0.005524
82354000,0.0324,0.013523,0.002678,0.000431,0.005641
82355000,0.0324,0.013523,0.002678,0.000431,0.005524
82356000,0.0324,0.013523,0.002678,0.000431,0.005641
82357000,0.0324,0.013523,0.002678,0.000431,0.005641
82358000,0.0324,0.013523,0.002678,0.000431,0.005876
82359000,0.0324,0.013523,0.002678,0.000431,0.004231
82360000,0.0324,0.013523,0.002678,0.000431,0.003643
82361000,0.0324,0.013523,0.002678,0.000431,0.006111
82362000,0.0324,0.013523,0.002678,0.000431,0.002468
82363000,0.0324,0.013523,0.002678,0.000431,0.002821
82364000,0.0324,0.013523,0.002678,0.000431,0.002116
82365000,0.0324,0.013523,0.002678,0.000431,0.005289
82366000,0.0324,0.013523,0.002678,0.000431,0.001763
82367000,0.0324,0.013523,0.002678,0.000431,0.001763
82368000,0.0324,0.013523,0.002678,0.000431,0.001763
82369000,0.0324,0.013523,0.002678,0.000431,0.005054
82370000,0.0324,0.013523,0.002678,0.000431,0.000823
82371000,0.0324,0.013523,0.002678,0.000431,0.015044
82372000,0.0324,0.013523,0.002678,0.000431,0.893919
82373000,0.0324,0.013523,0.002678,0.000431,0.588581
82374000,0.0324,0.013523,0.002678,0.000431,0.156665
82375000,0.0324,0.013523,0.002678,0.000431,0.200856
82376000,0.0324,0.013523,0.002678,0.000431,0.509837
82377000,0.0324,0.013523,0.002678,0.000431,0.321322
82378000,0.0324,0.013523,0.002678,0.000431,0.242461
82379000,0.0324,0.013523,0.002678,0.000431,0.189926
82380000,0.0324,0.013523,0.002678,0.000431,0.094258
82381000,0.0324,0.013523,0.002678,0.000431,0.584820
82382000,0.0324,0.013523,0.002678,0.000431,0.284418
82383000,0.0324,0.013523,0.002678,0.000431,0.232471
82384000,0.0324,0.013523,0.002678,0.000431,0.177703
82385000,0.0324,0.013523,0.002678,0.000431,0.150201
82386000,0.0324,0.013523,0.002678,0.000431,0.141386
82387000,0.0324,0.013523,0.002678,0.000431,0.108949
82388000,0.0324,0.013523,0.002678,0.000431,0.092965
82389000,0.0324,0.013523,0.002678,0.000431,0.084268
82390000,0.0324,0.013523,0.002678,0.000431,0.062172
82391000,0.0324,0.013523,0.002678,0.000431,0.049479
82392000,0.0324,0.013523,0.002678,0.000431,0.035023
82393000,0.0324,0.013523,0.002678,0.000431,0.025739
82394000,0.0324,0.013523,0.002678,0.000431,0.022800
82395000,0.0324,0.013523,0.002678,0.000431,0.018099
82396000,0.0324,0.013523,0.002678,0.000431,0.018452
82397000,0.0324,0.013523,0.002678,0.000431,0.014103
82398000,0.0324,0.013523,0.002678,0.000431,0.012576
82399000,0.0324,0.013523,0.002678,0.000431,0.014338
82400000,0.0324,0.013523,0.002678,0.000431,0.012928
82401000,0.0324,0.013523,0.002678,0.000431,0.009637
82402000,0.0324,0.013523,0.002678,0.000431,0.008580
82403000,0.0324,0.013523,0.002678,0.000431,0.008462
82404000,0.0324,0.013523,0.002678,0.000431,0.011870
82405000,0.0324,0.013523,0.002678,0.000431,0.004349
82406000,0.0324,0.013523,0.002678,0.000431,0.004466
82407000,0.0324,0.013523,0.002678,0.000431,0.003761
82408000,0.0324,0.013523,0.002678,0.000431,0.003056
82409000,0.0324,0.013523,0.002678,0.000431,0.003996
82410000,0.0324,0.013523,0.002678,0.000431,0.003761
82411000,0.0324,0.013523,0.002678,0.000431,0.002468
82412000,0.0324,0.013523,0.002678,0.000431,0.274428
82413000,0.0324,0.013523,0.002678,0.000431,0.820347
82414000,0.0324,0.013523,0.002678,0.000431,0.438615
82415000,0.0324,0.013523,0.002678,0.000431,0.148791
82416000,0.0324,0.013523,0.002678,0.000431,0.535576
82417000,0.0324,0.013523,0.002678,0.000431,0.259855
82418000,0.0324,0.013523,0.002678,0.000431,0.334368
82419000,0.0324,0.013523,0.002678,0.000431,0.169593
82420000,0.0324,0.013523,0.002678,0.000431,0.143737
82421000,0.0324,0.013523,0.002678,0.000431,0.229297
82422000,0.0324,0.013523,0.002678,0.000431,0.588346
82423000,0.0324,0.013523,0.002678,0.000431,0.264673
82424000,0.0324,0.013523,0.002678,0.000431,0.195214
82425000,0.0324,0.013523,0.002678,0.000431,0.178995
82426000,0.0324,0.013523,0.002678,0.000431,0.137743
82427000,0.0324,0.013523,0.002678,0.000431,0.116353
82428000,0.0324,0.013523,0.002678,0.000431,0.105305
82429000,0.0324,0.013523,0.002678,0.000431,0.066286
82430000,0.0324,0.013523,0.002678,0.000431,0.054886
82431000,0.0324,0.013523,0.002678,0.000431,0.038432
82432000,0.0324,0.013523,0.002678,0.000431,0.027149
82433000,0.0324,0.013523,0.002678,0.000431,0.019275
82434000,0.0324,0.013523,0.002678,0.000431,0.009402
82435000,0.0324,0.013523,0.002678,0.000431,0.011988
82436000,0.0324,0.013523,0.002678,0.000431,0.009050
82437000,0.0324,0.013523,0.002678,0.000431,0.009990
82438000,0.0324,0.013523,0.002678,0.000431,0.008580
82439000,0.0324,0.013523,0.002678,0.000431,0.010813
82440000,0.0324,0.013523,0.002678,0.000431,0.004231
82441000,0.0324,0.013523,0.002678,0.000431,0.006934
82442000,0.0324,0.013523,0.002678,0.000431,0.003408
82443000,0.0324,0.013523,0.002678,0.000431,0.003408
82444000,0.0324,0.013523,0.002678,0.000431,0.006111
82445000,0.0324,0.013523,0.002678,0.000431,0.004466
82446000,0.0324,0.013523,0.002678,0.000431,0.001645
82447000,0.0324,0.013523,0.002678,0.000431,0.001763
82448000,0.0324,0.013523,0.002678,0.000431,0.001645
82449000,0.0324,0.013523,0.002678,0.000431,0.001645
82450000,0.0324,0.013523,0.002678,0.000431,0.001763
82451000,0.0324,0.013523,0.002678,0.000431,0.001645
82452000,0.0324,0.013523,0.002678,0.000431,0.001763
82453000,0.0324,0.013523,0.002678,0.000431,0.001763
82454000,0.0324,0.013523,0.002678,0.000431,0.005524
82455000,0.0324,0.013523,0.002678,0.000431,0.000940
82456000,0.0324,0.013523,0.002678,0.000431,0.000823
82457000,0.0324,0.013523,0.002678,0.000431,0.000940
82458000,0.0324,0.013523,0.002678,0.000431,0.000823
82459000,0.0324,0.013523,0.002678,0.000431,0.000823
82460000,0.0324,0.013523,0.002678,0.000431,0.000705
82461000,0.0324,0.013523,0.002678,0.000431,0.000940
82462000,0.0324,0.013523,0.002678,0.000431,0.000940
82463000,0.0324,0.013523,0.002678,0.000431,0.000705
82464000,0.0324,0.013523,0.002678,0.000431,0.286299
82465000,0.0324,0.013523,0.002678,0.000431,0.862539
82466000,0.0324,0.013523,0.002678,0.000431,0.426040
82467000,0.0324,0.013523,0.002678,0.000431,0.140211
82468000,0.0324,0.013523,0.002678,0.000431,0.547916
82469000,0.0324,0.013523,0.002678,0.000431,0.253156
82470000,0.0324,0.013523,0.002678,0.000431,0.346356
82471000,0.0324,0.013523,0.002678,0.000431,0.167243
82472000,0.0324,0.013523,0.002678,0.000431,0.155137
82473000,0.0324,0.013523,0.002678,0.000431,0.199328
82474000,0.0324,0.013523,0.002678,0.000431,0.576241
82475000,0.0324,0.013523,0.002678,0.000431,0.249865
82476000,0.0324,0.013523,0.002678,0.000431,0.213784
82477000,0.0324,0.013523,0.002678,0.000431,0.186987
82478000,0.0324,0.013523,0.002678,0.000431,0.144442
82479000,0.0324,0.013523,0.002678,0.000431,0.136215
82480000,0.0324,0.013523,0.002678,0.000431,0.117293
82481000,0.0324,0.013523,0.002678,0.000431,0.100016
82482000,0.0324,0.013523,0.002678,0.000431,0.084033
82483000,0.0324,0.013523,0.002678,0.000431,0.068049
82484000,0.0324,0.013523,0.002678,0.000431,0.065346
82485000,0.0324,0.013523,0.002678,0.000431,0.054063
82486000,0.0324,0.013523,0.002678,0.000431,0.034201
82487000,0.0324,0.013523,0.002678,0.000431,0.028442
82488000,0.0324,0.013523,0.002678,0.000431,0.021743
82489000,0.0324,0.013523,0.002678,0.000431,0.015866
82490000,0.0324,0.013523,0.002678,0.000431,0.014573
82491000,0.0324,0.013523,0.002678,0.000431,0.018334
82492000,0.0324,0.013523,0.002678,0.000431,0.016689
82493000,0.0324,0.013523,0.002678,0.000431,0.006582
82494000,0.0324,0.013523,0.002678,0.000431,0.007052
82495000,0.0324,0.013523,0.002678,0.000431,0.006817
82496000,0.0324,0.013523,0.002678,0.000431,0.007052
82497000,0.0324,0.013523,0.002678,0.000431,0.014456
82498000,0.0324,0.013523,0.002678,0.000431,0.006699
82499000,0.0324,0.013523,0.002678,0.000431,0.002586
82500000,0.0324,0.013523,0.002678,0.000431,0.002351
82501000,0.0324,0.013523,0.002678,0.000431,0.002703
82502000,0.0324,0.013523,0.002678,0.000431,0.002468
82503000,0.0324,0.013523,0.002678,0.000431,0.002468
82504000,0.0324,0.013523,0.002678,0.000431,0.002821
82505000,0.0324,0.013523,0.002678,0.000431,0.002351
82506000,0.0324,0.013523,0.002678,0.000431,0.002586
82507000,0.0324,0.013523,0.002678,0.000431,0.002586
82508000,0.0324,0.013523,0.002678,0.000431,0.002233
82509000,0.0324,0.013523,0.002678,0.000431,0.002586
82510000,0.0324,0.013523,0.002678,0.000431,0.002703
82511000,0.0324,0.013523,0.002678,0.000431,0.001998
82512000,0.0324,0.013523,0.002678,0.000431,0.002821
82513000,0.0324,0.013523,0.002678,0.000431,0.002116
82514000,0.0324,0.013523,0.002678,0.000431,0.002586
82515000,0.0324,0.013523,0.002678,0.000431,0.002468
82516000,0.0324,0.013523,0.002678,0.000431,0.002233
82517000,0.0324,0.013523,0.002678,0.000431,0.002821
82518000,0.0324,0.013523,0.002678,0.000431,0.002233
82519000,0.0324,0.013523,0.002678,0.000431,0.002468
82520000,0.0324,0.013523,0.002678,0.000431,0.002468
82521000,0.0324,0.013523,0.002678,0.000431,0.001998
82522000,0.0324,0.013523,0.002678,0.000431,0.002468
82523000,0.0324,0.013523,0.002678,0.000431,0.002468
82524000,0.0324,0.013523,0.002678,0.000431,0.002351
82525000,0.0324,0.013523,0.002678,0.000431,0.002116
82526000,0.0324,0.013523,0.002678,0.000431,0.002351
82527000,0.0324,0.013523,0.002678,0.000431,0.002468
82528000,0.0324,0.013523,0.002678,0.000431,0.002468
82529000,0.0324,0.013523,0.002678,0.000431,0.001998
82530000,0.0324,0.013523,0.002678,0.000431,0.002468
82531000,0.0324,0.013523,0.002678,0.000431,0.001880
82532000,0.0324,0.013523,0.002678,0.000431,0.002586
82533000,0.0324,0.013523,0.002678,0.000431,0.002821
82534000,0.0324,0.013523,0.002678,0.000431,0.001645
82535000,0.0324,0.013523,0.002678,0.000431,0.002821
82536000,0.0324,0.013523,0.002678,0.000431,0.001880
82537000,0.0324,0.013523,0.002678,0.000431,0.002586
82538000,0.0324,0.013523,0.002678,0.000431,0.002821
82539000,0.0324,0.013523,0.002678,0.000431,0.001645
82540000,0.0324,0.013523,0.002678,0.000431,0.001998
82541000,0.0324,0.013523,0.002678,0.000431,0.002468
82542000,0.0324,0.013523,0.002678,0.000431,0.002351
82543000,0.0324,0.013523,0.002678,0.000431,0.002116
82544000,0.0324,0.013523,0.002678,0.000431,0.002468
82545000,0.0324,0.013523,0.002678,0.000431,0.002351
82546000,0.0324,0.013523,0.002678,0.000431,0.002468
82547000,0.0324,0.013523,0.002678,0.000431,0.001998
82548000,0.0324,0.013523,0.002678,0.000431,0.002468
82549000,0.0324,0.013523,0.002678,0.000431,0.002116
82550000,0.0324,0.013523,0.002678,0.000431,0.002351
82551000,0.0324,0.013523,0.002678,0.000431,0.002821
82552000,0.0324,0.013523,0.002678,0.000431,0.002351
82553000,0.0324,0.013523,0.002678,0.000431,0.002116
82554000,0.0324,0.013523,0.002678,0.000431,0.005994
82555000,0.0324,0.013523,0.002678,0.000431,0.517712
82556000,0.0324,0.013523,0.002678,0.000431,0.765461
82557000,0.0324,0.013523,0.002678,0.000431,0.270667
82558000,0.0324,0.013523,0.002678,0.000431,0.161719
82559000,0.0324,0.013523,0.002678,0.000431,0.563900
82560000,0.0324,0.013523,0.002678,0.000431,0.246222
82561000,0.0324,0.013523,0.002678,0.000431,0.326846
82562000,0.0324,0.013523,0.002678,0.000431,0.152434
82563000,0.0324,0.013523,0.002678,0.000431,0.115413
82564000,0.0324,0.013523,0.002678,0.000431,0.430858
82565000,0.0324,0.013523,0.002678,0.000431,0.445314
82566000,0.0324,0.013523,0.002678,0.000431,0.237524
82567000,0.0324,0.013523,0.002678,0.000431,0.208965
82568000,0.0324,0.013523,0.002678,0.000431,0.169828
82569000,0.0324,0.013523,0.002678,0.000431,0.143737
82570000,0.0324,0.013523,0.002678,0.000431,0.112945
82571000,0.0324,0.013523,0.002678,0.000431,0.087794
82572000,0.0324,0.013523,0.002678,0.000431,0.081917
82573000,0.0324,0.013523,0.002678,0.000431,0.059704
82574000,0.0324,0.013523,0.002678,0.000431,0.050185
82575000,0.0324,0.013523,0.002678,0.000431,0.032790
82576000,0.0324,0.013523,0.002678,0.000431,0.043956
82577000,0.0324,0.013523,0.002678,0.000431,0.025269
82578000,0.0324,0.013523,0.002678,0.000431,0.021273
82579000,0.0324,0.013523,0.002678,0.000431,0.024211
82580000,0.0324,0.013523,0.002678,0.000431,0.014573
82581000,0.0324,0.013523,0.002678,0.000431,0.006699
82582000,0.0324,0.013523,0.002678,0.000431,0.005994
82583000,0.0324,0.013523,0.002678,0.000431,0.007404
82584000,0.0324,0.013523,0.002678,0.000431,0.006934
82585000,0.0324,0.013523,0.002678,0.000431,0.007992
82586000,0.0324,0.013523,0.002678,0.000431,0.006582
82587000,0.0324,0.013523,0.002678,0.000431,0.006699
82588000,0.0324,0.013523,0.002678,0.000431,0.002468
82589000,0.0324,0.013523,0.002678,0.000431,0.004231
82590000,0.0324,0.013523,0.002678,0.000431,0.001763
82591000,0.0324,0.013523,0.002678,0.000431,0.001058
82592000,0.0324,0.013523,0.002678,0.000431,0.001410
82593000,0.0324,0.013523,0.002678,0.000431,0.001058
82594000,0.0324,0.013523,0.002678,0.000431,0.001058
82595000,0.0324,0.013523,0.002678,0.000431,0.000823
82596000,0.0324,0.013523,0.002678,0.000431,0.001175
82597000,0.0324,0.013523,0.002678,0.000431,0.000823
82598000,0.0324,0.013523,0.002678,0.000431,0.001175
82599000,0.0324,0.013523,0.002678,0.000431,0.000940
82600000,0.0324,0.013523,0.002678,0.000431,0.320499
82601000,0.0324,0.013523,0.002678,0.000431,0.833510
82602000,0.0324,0.013523,0.002678,0.000431,0.404062
82603000,0.0324,0.013523,0.002678,0.000431,0.162071
82604000,0.0324,0.013523,0.002678,0.000431,0.594928
82605000,0.0324,0.013523,0.002678,0.000431,0.289354
82606000,0.0324,0.013523,0.002678,0.000431,0.329784
82607000,0.0324,0.013523,0.002678,0.000431,0.157605
82608000,0.0324,0.013523,0.002678,0.000431,0.135628
82609000,0.0324,0.013523,0.002678,0.000431,0.242813
82610000,0.0324,0.013523,0.002678,0.000431,0.530522
82611000,0.0324,0.013523,0.002678,0.000431,0.222598
82612000,0.0324,0.013523,0.002678,0.000431,0.195567
82613000,0.0324,0.013523,0.002678,0.000431,0.180406
82614000,0.0324,0.013523,0.002678,0.000431,0.153609
82615000,0.0324,0.013523,0.002678,0.000431,0.128576
82616000,0.0324,0.013523,0.002678,0.000431,0.103307
82617000,0.0324,0.013523,0.002678,0.000431,0.095785
82618000,0.0324,0.013523,0.002678,0.000431,0.085913
82619000,0.0324,0.013523,0.002678,0.000431,0.063465
82620000,0.0324,0.013523,0.002678,0.000431,0.059234
82621000,0.0324,0.013523,0.002678,0.000431,0.037727
82622000,0.0324,0.013523,0.002678,0.000431,0.034671
82623000,0.0324,0.013523,0.002678,0.000431,0.031615
82624000,0.0324,0.013523,0.002678,0.000431,0.026209
82625000,0.0324,0.013523,0.002678,0.000431,0.027267
82626000,0.0324,0.013523,0.002678,0.000431,0.024211
82627000,0.0324,0.013523,0.002678,0.000431,0.022683
82628000,0.0324,0.013523,0.002678,0.000431,0.019745
82629000,0.0324,0.013523,0.002678,0.000431,0.021038
82630000,0.0324,0.013523,0.002678,0.000431,0.015396
82631000,0.0324,0.013523,0.002678,0.000431,0.009990
82632000,0.0324,0.013523,0.002678,0.000431,0.009872
82633000,0.0324,0.013523,0.002678,0.000431,0.012105
82634000,0.0324,0.013523,0.002678,0.000431,0.012223
82635000,0.0324,0.013523,0.002678,0.000431,0.007287
82636000,0.0324,0.013523,0.002678,0.000431,0.007639
82637000,0.0324,0.013523,0.002678,0.000431,0.010813
82638000,0.0324,0.013523,0.002678,0.000431,0.007639
82639000,0.0324,0.013523,0.002678,0.000431,0.005759
82640000,0.0324,0.013523,0.002678,0.000431,0.004819
82641000,0.0324,0.013523,0.002678,0.000431,0.001058
82642000,0.0324,0.013523,0.002678,0.000431,0.000940
82643000,0.0324,0.013523,0.002678,0.000431,0.010930
82644000,0.0324,0.013523,0.002678,0.000431,0.711281
82645000,0.0324,0.013523,0.002678,0.000431,0.672026
82646000,0.0324,0.013523,0.002678,0.000431,0.154079
82647000,0.0324,0.013523,0.002678,0.000431,0.136803
82648000,0.0324,0.013523,0.002678,0.000431,0.535811
82649000,0.0324,0.013523,0.002678,0.000431,0.278894
82650000,0.0324,0.013523,0.002678,0.000431,0.343887
82651000,0.0324,0.013523,0.002678,0.000431,0.152434
82652000,0.0324,0.013523,0.002678,0.000431,0.164187
82653000,0.0324,0.013523,0.002678,0.000431,0.155020
82654000,0.0324,0.013523,0.002678,0.000431,0.585173
82655000,0.0324,0.013523,0.002678,0.000431,0.218015
82656000,0.0324,0.013523,0.002678,0.000431,0.181816
82657000,0.0324,0.013523,0.002678,0.000431,0.134805
82658000,0.0324,0.013523,0.002678,0.000431,0.139506
82659000,0.0324,0.013523,0.002678,0.000431,0.096608
82660000,0.0324,0.013523,0.002678,0.000431,0.076746
82661000,0.0324,0.013523,0.002678,0.000431,0.048657
82662000,0.0324,0.013523,0.002678,0.000431,0.050302
82663000,0.0324,0.013523,0.002678,0.000431,0.038667
82664000,0.0324,0.013523,0.002678,0.000431,0.033260
82665000,0.0324,0.013523,0.002678,0.000431,0.032673
82666000,0.0324,0.013523,0.002678,0.000431,0.021625
82667000,0.0324,0.013523,0.002678,0.000431,0.019040
82668000,0.0324,0.013523,0.002678,0.000431,0.013868
82669000,0.0324,0.013523,0.002678,0.000431,0.017042
82670000,0.0324,0.013523,0.002678,0.000431,0.012811
82671000,0.0324,0.013523,0.002678,0.000431,0.008932
82672000,0.0324,0.013523,0.002678,0.000431,0.013633
82673000,0.0324,0.013523,0.002678,0.000431,0.003643
82674000,0.0324,0.013523,0.002678,0.000431,0.003173
82675000,0.0324,0.013523,0.002678,0.000431,0.003526
82676000,0.0324,0.013523,0.002678,0.000431,0.006699
82677000,0.0324,0.013523,0.002678,0.000431,0.002821
82678000,0.0324,0.013523,0.002678,0.000431,0.008227
82679000,0.0324,0.013523,0.002678,0.000431,0.000940
82680000,0.0324,0.013523,0.002678,0.000431,0.000705
82681000,0.0324,0.013523,0.002678,0.000431,0.000705
82682000,0.0324,0.013523,0.002678,0.000431,0.000940
82683000,0.0324,0.013523,0.002678,0.000431,0.000940
82684000,0.0324,0.013523,0.002678,0.000431,0.000705
82685000,0.0324,0.013523,0.002678,0.000431,0.000705
82686000,0.0324,0.013523,0.002678,0.000431,0.012928
82687000,0.0324,0.013523,0.002678,0.000431,0.759115
82688000,0.0324,0.013523,0.002678,0.000431,0.632537
82689000,0.0324,0.013523,0.002678,0.000431,0.135863
82690000,0.0324,0.013523,0.002678,0.000431,0.136215
82691000,0.0324,0.013523,0.002678,0.000431,0.530287
82692000,0.0324,0.013523,0.002678,0.000431,0.234939
82693000,0.0324,0.013523,0.002678,0.000431,0.351997
82694000,0.0324,0.013523,0.002678,0.000431,0.155842
82695000,0.0324,0.013523,0.002678,0.000431,0.165480
82696000,0.0324,0.013523,0.002678,0.000431,0.165950
82697000,0.0324,0.013523,0.002678,0.000431,0.542040
82698000,0.0324,0.013523,0.002678,0.000431,0.205792
82699000,0.0324,0.013523,0.002678,0.000431,0.178408
82700000,0.0324,0.013523,0.002678,0.000431,0.162777
82701000,0.0324,0.013523,0.002678,0.000431,0.131279
82702000,0.0324,0.013523,0.002678,0.000431,0.111064
82703000,0.0324,0.013523,0.002678,0.000431,0.094728
82704000,0.0324,0.013523,0.002678,0.000431,0.077216
82705000,0.0324,0.013523,0.002678,0.000431,0.066991
82706000,0.0324,0.013523,0.002678,0.000431,0.062290
82707000,0.0324,0.013523,0.002678,0.000431,0.048069
82708000,0.0324,0.013523,0.002678,0.000431,0.049479
82709000,0.0324,0.013523,0.002678,0.000431,0.050537
82710000,0.0324,0.013523,0.002678,0.000431,0.027854
82711000,0.0324,0.013523,0.002678,0.000431,0.022565
82712000,0.0324,0.013523,0.002678,0.000431,0.024211
82713000,0.0324,0.013523,0.002678,0.000431,0.019157
82714000,0.0324,0.013523,0.002678,0.000431,0.015749
82715000,0.0324,0.013523,0.002678,0.000431,0.009755
82716000,0.0324,0.013523,0.002678,0.000431,0.011400
82717000,0.0324,0.013523,0.002678,0.000431,0.011165
82718000,0.0324,0.013523,0.002678,0.000431,0.008109
82719000,0.0324,0.013523,0.002678,0.000431,0.008345
82720000,0.0324,0.013523,0.002678,0.000431,0.005054
82721000,0.0324,0.013523,0.002678,0.000431,0.005994
82722000,0.0324,0.013523,0.002678,0.000431,0.004936
82723000,0.0324,0.013523,0.002678,0.000431,0.002468
82724000,0.0324,0.013523,0.002678,0.000431,0.002586
82725000,0.0324,0.013523,0.002678,0.000431,0.002586
82726000,0.0324,0.013523,0.002678,0.000431,0.002586
82727000,0.0324,0.013523,0.002678,0.000431,0.002821
82728000,0.0324,0.013523,0.002678,0.000431,0.004349
82729000,0.0324,0.013523,0.002678,0.000431,0.003526
82730000,0.0324,0.013523,0.002678,0.000431,0.000940
82731000,0.0324,0.013523,0.002678,0.000431,0.000940
82732000,0.0324,0.013523,0.002678,0.000431,0.000823
82733000,0.0324,0.013523,0.002678,0.000431,0.000823
82734000,0.0324,0.013523,0.002678,0.000431,0.000940
82735000,0.0324,0.013523,0.002678,0.000431,0.000823
82736000,0.0324,0.013523,0.002678,0.000431,0.000940
82737000,0.0324,0.013523,0.002678,0.000431,0.001058
82738000,0.0324,0.013523,0.002678,0.000431,0.000823
82739000,0.0324,0.013523,0.002678,0.000431,0.000940
82740000,0.0324,0.013523,0.002678,0.000431,0.000823
82741000,0.0324,0.013523,0.002678,0.000431,0.000940
82742000,0.0324,0.013523,0.002678,0.000431,0.000940
82743000,0.0324,0.013523,0.002678,0.000431,0.000940
82744000,0.0324,0.013523,0.002678,0.000431,0.004819
82745000,0.0324,0.013523,0.002678,0.000431,0.664504
82746000,0.0324,0.013523,0.002678,0.000431,0.686012
82747000,0.0324,0.013523,0.002678,0.000431,0.139741
82748000,0.0324,0.013523,0.002678,0.000431,0.140916
82749000,0.0324,0.013523,0.002678,0.000431,0.553910
82750000,0.0324,0.013523,0.002678,0.000431,0.257034
82751000,0.0324,0.013523,0.002678,0.000431,0.330842
82752000,0.0324,0.013523,0.002678,0.000431,0.151259
82753000,0.0324,0.013523,0.002678,0.000431,0.147733
82754000,0.0324,0.013523,0.002678,0.000431,0.238347
82755000,0.0324,0.013523,0.002678,0.000431,0.599864
82756000,0.0324,0.013523,0.002678,0.000431,0.280775
82757000,0.0324,0.013523,0.002678,0.000431,0.225537
82758000,0.0324,0.013523,0.002678,0.000431,0.196037
82759000,0.0324,0.013523,0.002678,0.000431,0.162424
82760000,0.0324,0.013523,0.002678,0.000431,0.148438
82761000,0.0324,0.013523,0.002678,0.000431,0.099664
82762000,0.0324,0.013523,0.002678,0.000431,0.088616
82763000,0.0324,0.013523,0.002678,0.000431,0.075101
82764000,0.0324,0.013523,0.002678,0.000431,0.052653
82765000,0.0324,0.013523,0.002678,0.000431,0.037021
82766000,0.0324,0.013523,0.002678,0.000431,0.042428
82767000,0.0324,0.013523,0.002678,0.000431,0.030087
82768000,0.0324,0.013523,0.002678,0.000431,0.034788
82769000,0.0324,0.013523,0.002678,0.000431,0.028677
82770000,0.0324,0.013523,0.002678,0.000431,0.021273
82771000,0.0324,0.013523,0.002678,0.000431,0.023036
82772000,0.0324,0.013523,0.002678,0.000431,0.023741
82773000,0.0324,0.013523,0.002678,0.000431,0.025269
82774000,0.0324,0.013523,0.002678,0.000431,0.023036
82775000,0.0324,0.013523,0.002678,0.000431,0.016571
82776000,0.0324,0.013523,0.002678,0.000431,0.015514
82777000,0.0324,0.013523,0.002678,0.000431,0.015749
82778000,0.0324,0.013523,0.002678,0.000431,0.006229
82779000,0.0324,0.013523,0.002678,0.000431,0.006229
82780000,0.0324,0.013523,0.002678,0.000431,0.006582
82781000,0.0324,0.013523,0.002678,0.000431,0.005641
82782000,0.0324,0.013523,0.002678,0.000431,0.005876
82783000,0.0324,0.013523,0.002678,0.000431,0.005759
82784000,0.0324,0.013523,0.002678,0.000431,0.005406
82785000,0.0324,0.013523,0.002678,0.000431,0.008815
82786000,0.0324,0.013523,0.002678,0.000431,0.007757
82787000,0.0324,0.013523,0.002678,0.000431,0.003643
82788000,0.0324,0.013523,0.002678,0.000431,0.004113
82789000,0.0324,0.013523,0.002678,0.000431,0.003878
82790000,0.0324,0.013523,0.002678,0.000431,0.005524
82791000,0.0324,0.013523,0.002678,0.000431,0.002703
82792000,0.0324,0.013523,0.002678,0.000431,0.002586
82793000,0.0324,0.013523,0.002678,0.000431,0.002938
82794000,0.0324,0.013523,0.002678,0.000431,0.002468
82795000,0.0324,0.013523,0.002678,0.000431,0.002938
82796000,0.0324,0.013523,0.002678,0.000431,0.002586
82797000,0.0324,0.013523,0.002678,0.000431,0.002703
82798000,0.0324,0.013523,0.002678,0.000431,0.002703
82799000,0.0324,0.013523,0.002678,0.000431,0.002821
82800000,0.0324,0.013523,0.002678,0.000431,0.002821
82801000,0.0324,0.013523,0.002678,0.000431,0.002468
82802000,0.0324,0.013523,0.002678,0.000431,0.002821
82803000,0.0324,0.013523,0.002678,0.000431,0.002703
82804000,0.0324,0.013523,0.002678,0.000431,0.004584
82805000,0.0324,0.013523,0.002678,0.000431,0.004231
82806000,0.0324,0.013523,0.002678,0.000431,0.001528
82807000,0.0324,0.013523,0.002678,0.000431,0.002116
82808000,0.0324,0.013523,0.002678,0.000431,0.001763
82809000,0.0324,0.013523,0.002678,0.000431,0.001763
82810000,0.0324,0.013523,0.002678,0.000431,0.002116
82811000,0.0324,0.013523,0.002678,0.000431,0.001528
82812000,0.0324,0.013523,0.002678,0.000431,0.002233
82813000,0.0324,0.013523,0.002678,0.000431,0.001528
82814000,0.0324,0.013523,0.002678,0.000431,0.001998
82815000,0.0324,0.013523,0.002678,0.000431,0.001998
82816000,0.0324,0.013523,0.002678,0.000431,0.001645
82817000,0.0324,0.013523,0.002678,0.000431,0.001763
82818000,0.0324,0.013523,0.002678,0.000431,0.001998
82819000,0.0324,0.013523,0.002678,0.000431,0.001880
82820000,0.0324,0.013523,0.002678,0.000431,0.001880
82821000,0.0324,0.013523,0.002678,0.000431,0.001763
82822000,0.0324,0.013523,0.002678,0.000431,0.001763
82823000,0.0324,0.013523,0.002678,0.000431,0.005759
82824000,0.0324,0.013523,0.002678,0.000431,0.006934
82825000,0.0324,0.013523,0.002678,0.000431,0.749947
82826000,0.0324,0.013523,0.002678,0.000431,0.705757
82827000,0.0324,0.013523,0.002678,0.000431,0.188398
82828000,0.0324,0.013523,0.002678,0.000431,0.175352
82829000,0.0324,0.013523,0.002678,0.000431,0.599041
82830000,0.0324,0.013523,0.002678,0.000431,0.261853
82831000,0.0324,0.013523,0.002678,0.000431,0.295818
82832000,0.0324,0.013523,0.002678,0.000431,0.171239
82833000,0.0324,0.013523,0.002678,0.000431,0.107891
82834000,0.0324,0.013523,0.002678,0.000431,0.399243
82835000,0.0324,0.013523,0.002678,0.000431,0.456127
82836000,0.0324,0.013523,0.002678,0.000431,0.200856
82837000,0.0324,0.013523,0.002678,0.000431,0.178290
82838000,0.0324,0.013523,0.002678,0.000431,0.163482
82839000,0.0324,0.013523,0.002678,0.000431,0.129516
82840000,0.0324,0.013523,0.002678,0.000431,0.101427
82841000,0.0324,0.013523,0.002678,0.000431,0.084033
82842000,0.0324,0.013523,0.002678,0.000431,0.049597
82843000,0.0324,0.013523,0.002678,0.000431,0.035729
82844000,0.0324,0.013523,0.002678,0.000431,0.028089
82845000,0.0324,0.013523,0.002678,0.000431,0.033025
82846000,0.0324,0.013523,0.002678,0.000431,0.015749
82847000,0.0324,0.013523,0.002678,0.000431,0.022800
82848000,0.0324,0.013523,0.002678,0.000431,0.009637
82849000,0.0324,0.013523,0.002678,0.000431,0.010225
82850000,0.0324,0.013523,0.002678,0.000431,0.008815
82851000,0.0324,0.013523,0.002678,0.000431,0.004466
82852000,0.0324,0.013523,0.002678,0.000431,0.004701
82853000,0.0324,0.013523,0.002678,0.000431,0.003761
82854000,0.0324,0.013523,0.002678,0.000431,0.006464
82855000,0.0324,0.013523,0.002678,0.000431,0.005759
82856000,0.0324,0.013523,0.002678,0.000431,0.002938
82857000,0.0324,0.013523,0.002678,0.000431,0.002703
82858000,0.0324,0.013523,0.002678,0.000431,0.005406
82859000,0.0324,0.013523,0.002678,0.000431,0.005171
82860000,0.0324,0.013523,0.002678,0.000431,0.016101
82861000,0.0324,0.013523,0.002678,0.000431,0.886515
82862000,0.0324,0.013523,0.002678,0.000431,0.559317
82863000,0.0324,0.013523,0.002678,0.000431,0.142209
82864000,0.0324,0.013523,0.002678,0.000431,0.202854
82865000,0.0324,0.013523,0.002678,0.000431,0.538867
82866000,0.0324,0.013523,0.002678,0.000431,0.276426
82867000,0.0324,0.013523,0.002678,0.000431,0.284418
82868000,0.0324,0.013523,0.002678,0.000431,0.161954
82869000,0.0324,0.013523,0.002678,0.000431,0.108243
82870000,0.0324,0.013523,0.002678,0.000431,0.491855
82871000,0.0324,0.013523,0.002678,0.000431,0.362692
82872000,0.0324,0.013523,0.002678,0.000431,0.207437
82873000,0.0324,0.013523,0.002678,0.000431,0.180641
82874000,0.0324,0.013523,0.002678,0.000431,0.149848
82875000,0.0324,0.013523,0.002678,0.000431,0.123287
82876000,0.0324,0.013523,0.002678,0.000431,0.109184
82877000,0.0324,0.013523,0.002678,0.000431,0.069342
82878000,0.0324,0.013523,0.002678,0.000431,0.047011
82879000,0.0324,0.013523,0.002678,0.000431,0.043015
82880000,0.0324,0.013523,0.002678,0.000431,0.036199
82881000,0.0324,0.013523,0.002678,0.000431,0.024798
82882000,0.0324,0.013523,0.002678,0.000431,0.030205
82883000,0.0324,0.013523,0.002678,0.000431,0.023741
82884000,0.0324,0.013523,0.002678,0.000431,0.015396
82885000,0.0324,0.013523,0.002678,0.000431,0.014573
82886000,0.0324,0.013523,0.002678,0.000431,0.006347
82887000,0.0324,0.013523,0.002678,0.000431,0.009402
82888000,0.0324,0.013523,0.002678,0.000431,0.008932
82889000,0.0324,0.013523,0.002678,0.000431,0.008227
82890000,0.0324,0.013523,0.002678,0.000431,0.003173
82891000,0.0324,0.013523,0.002678,0.000431,0.003173
82892000,0.0324,0.013523,0.002678,0.000431,0.002351
82893000,0.0324,0.013523,0.002678,0.000431,0.002468
82894000,0.0324,0.013523,0.002678,0.000431,0.002351
82895000,0.0324,0.013523,0.002678,0.000431,0.001645
82896000,0.0324,0.013523,0.002678,0.000431,0.001645
82897000,0.0324,0.013523,0.002678,0.000431,0.001763
82898000,0.0324,0.013523,0.002678,0.000431,0.004113
82899000,0.0324,0.013523,0.002678,0.000431,0.000823
82900000,0.0324,0.013523,0.002678,0.000431,0.000823
82901000,0.0324,0.013523,0.002678,0.000431,0.000705
82902000,0.0324,0.013523,0.002678,0.000431,0.015161
82903000,0.0324,0.013523,0.002678,0.000431,0.795783
82904000,0.0324,0.013523,0.002678,0.000431,0.604330
82905000,0.0324,0.013523,0.002678,0.000431,0.150436
82906000,0.0324,0.013523,0.002678,0.000431,0.157488
82907000,0.0324,0.013523,0.002678,0.000431,0.642527
82908000,0.0324,0.013523,0.002678,0.000431,0.237995
82909000,0.0324,0.013523,0.002678,0.000431,0.316503
82910000,0.0324,0.013523,0.002678,0.000431,0.154667
82911000,0.0324,0.013523,0.002678,0.000431,0.129634
82912000,0.0324,0.013523,0.002678,0.000431,0.302282
82913000,0.0324,0.013523,0.002678,0.000431,0.471288
82914000,0.0324,0.013523,0.002678,0.000431,0.235056
82915000,0.0324,0.013523,0.002678,0.000431,0.203324
82916000,0.0324,0.013523,0.002678,0.000431,0.153609
82917000,0.0324,0.013523,0.002678,0.000431,0.124227
82918000,0.0324,0.013523,0.002678,0.000431,0.093905
82919000,0.0324,0.013523,0.002678,0.000431,0.072515
82920000,0.0324,0.013523,0.002678,0.000431,0.068049
82921000,0.0324,0.013523,0.002678,0.000431,0.037491
82922000,0.0324,0.013523,0.002678,0.000431,0.036199
82923000,0.0324,0.013523,0.002678,0.000431,0.025269
82924000,0.0324,0.013523,0.002678,0.000431,0.024093
82925000,0.0324,0.013523,0.002678,0.000431,0.010225
82926000,0.0324,0.013523,0.002678,0.000431,0.008815
82927000,0.0324,0.013523,0.002678,0.000431,0.003056
82928000,0.0324,0.013523,0.002678,0.000431,0.005289
82929000,0.0324,0.013523,0.002678,0.000431,0.002116
82930000,0.0324,0.013523,0.002678,0.000431,0.002938
82931000,0.0324,0.013523,0.002678,0.000431,0.002703
82932000,0.0324,0.013523,0.002678,0.000431,0.000705
82933000,0.0324,0.013523,0.002678,0.000431,0.003526
82934000,0.0324,0.013523,0.002678,0.000431,0.604447
82935000,0.0324,0.013523,0.002678,0.000431,0.714101
82936000,0.0324,0.013523,0.002678,0.000431,0.183109
82937000,0.0324,0.013523,0.002678,0.000431,0.142679
82938000,0.0324,0.013523,0.002678,0.000431,0.573067
82939000,0.0324,0.013523,0.002678,0.000431,0.251863
82940000,0.0324,0.013523,0.002678,0.000431,0.341067
82941000,0.0324,0.013523,0.002678,0.000431,0.247749
82942000,0.0324,0.013523,0.002678,0.000431,0.177468
82943000,0.0324,0.013523,0.002678,0.000431,0.085443
82944000,0.0324,0.013523,0.002678,0.000431,0.518182
82945000,0.0324,0.013523,0.002678,0.000431,0.244694
82946000,0.0324,0.013523,0.002678,0.000431,0.186635
82947000,0.0324,0.013523,0.002678,0.000431,0.149613
82948000,0.0324,0.013523,0.002678,0.000431,0.118116
82949000,0.0324,0.013523,0.002678,0.000431,0.105188
82950000,0.0324,0.013523,0.002678,0.000431,0.091672
82951000,0.0324,0.013523,0.002678,0.000431,0.063700
82952000,0.0324,0.013523,0.002678,0.000431,0.042310
82953000,0.0324,0.013523,0.002678,0.000431,0.041370
82954000,0.0324,0.013523,0.002678,0.000431,0.035141
82955000,0.0324,0.013523,0.002678,0.000431,0.034083
82956000,0.0324,0.013523,0.002678,0.000431,0.023506
82957000,0.0324,0.013523,0.002678,0.000431,0.018217
82958000,0.0324,0.013523,0.002678,0.000431,0.015514
82959000,0.0324,0.013523,0.002678,0.000431,0.006699
82960000,0.0324,0.013523,0.002678,0.000431,0.009990
82961000,0.0324,0.013523,0.002678,0.000431,0.005994
82962000,0.0324,0.013523,0.002678,0.000431,0.014573
82963000,0.0324,0.013523,0.002678,0.000431,0.005171
82964000,0.0324,0.013523,0.002678,0.000431,0.003056
82965000,0.0324,0.013523,0.002678,0.000431,0.004936
82966000,0.0324,0.013523,0.002678,0.000431,0.002351
82967000,0.0324,0.013523,0.002678,0.000431,0.002586
82968000,0.0324,0.013523,0.002678,0.000431,0.002233
82969000,0.0324,0.013523,0.002678,0.000431,0.002703
82970000,0.0324,0.013523,0.002678,0.000431,0.002116
82971000,0.0324,0.013523,0.002678,0.000431,0.003761
82972000,0.0324,0.013523,0.002678,0.000431,0.002821
82973000,0.0324,0.013523,0.002678,0.000431,0.001763
82974000,0.0324,0.013523,0.002678,0.000431,0.001880
82975000,0.0324,0.013523,0.002678,0.000431,0.001175
82976000,0.0324,0.013523,0.002678,0.000431,0.001410
82977000,0.0324,0.013523,0.002678,0.000431,0.014103
82978000,0.0324,0.013523,0.002678,0.000431,0.717980
82979000,0.0324,0.013523,0.002678,0.000431,0.585290
82980000,0.0324,0.013523,0.002678,0.000431,0.142914
82981000,0.0324,0.013523,0.002678,0.000431,0.137626
82982000,0.0324,0.013523,0.002678,0.000431,0.570364
82983000,0.0324,0.013523,0.002678,0.000431,0.239052
82984000,0.0324,0.013523,0.002678,0.000431,0.306866
82985000,0.0324,0.013523,0.002678,0.000431,0.249747
82986000,0.0324,0.013523,0.002678,0.000431,0.154432
82987000,0.0324,0.013523,0.002678,0.000431,0.117411
82988000,0.0324,0.013523,0.002678,0.000431,0.372212
82989000,0.0324,0.013523,0.002678,0.000431,0.452131
82990000,0.0324,0.013523,0.002678,0.000431,0.233646
82991000,0.0324,0.013523,0.002678,0.000431,0.210023
82992000,0.0324,0.013523,0.002678,0.000431,0.168770
82993000,0.0324,0.013523,0.002678,0.000431,0.161131
82994000,0.0324,0.013523,0.002678,0.000431,0.122464
82995000,0.0324,0.013523,0.002678,0.000431,0.106128
82996000,0.0324,0.013523,0.002678,0.000431,0.090967
82997000,0.0324,0.013523,0.002678,0.000431,0.073220
82998000,0.0324,0.013523,0.002678,0.000431,0.058882
82999000,0.0324,0.013523,0.002678,0.000431,0.046424
