Cycle,Area(mm^2),PeakDynamic(W),SubthresholdLeakage(W),GateLeakage(W),RunTimeDynamic(W)
106000000,0.0324,0.013523,0.002678,0.000431,0.010107
106001000,0.0324,0.013523,0.002678,0.000431,0.011048
106002000,0.0324,0.013523,0.002678,0.000431,0.011635
106003000,0.0324,0.013523,0.002678,0.000431,0.007757
106004000,0.0324,0.013523,0.002678,0.000431,0.006111
106005000,0.0324,0.013523,0.002678,0.000431,0.010813
106006000,0.0324,0.013523,0.002678,0.000431,0.006347
106007000,0.0324,0.013523,0.002678,0.000431,0.007992
106008000,0.0324,0.013523,0.002678,0.000431,0.003996
106009000,0.0324,0.013523,0.002678,0.000431,0.003996
106010000,0.0324,0.013523,0.002678,0.000431,0.007052
106011000,0.0324,0.013523,0.002678,0.000431,0.002116
106012000,0.0324,0.013523,0.002678,0.000431,0.007169
106013000,0.0324,0.013523,0.002678,0.000431,0.001058
106014000,0.0324,0.013523,0.002678,0.000431,0.000705
106015000,0.0324,0.013523,0.002678,0.000431,0.000940
106016000,0.0324,0.013523,0.002678,0.000431,0.000940
106017000,0.0324,0.013523,0.002678,0.000431,0.000940
106018000,0.0324,0.013523,0.002678,0.000431,0.000940
106019000,0.0324,0.013523,0.002678,0.000431,0.000823
106020000,0.0324,0.013523,0.002678,0.000431,0.000823
106021000,0.0324,0.013523,0.002678,0.000431,0.000940
106022000,0.0324,0.013523,0.002678,0.000431,0.000940
106023000,0.0324,0.013523,0.002678,0.000431,0.000823
106024000,0.0324,0.013523,0.002678,0.000431,0.000823
106025000,0.0324,0.013523,0.002678,0.000431,0.000940
106026000,0.0324,0.013523,0.002678,0.000431,0.000823
106027000,0.0324,0.013523,0.002678,0.000431,0.000823
106028000,0.0324,0.013523,0.002678,0.000431,0.000940
106029000,0.0324,0.013523,0.002678,0.000431,0.000705
106030000,0.0324,0.013523,0.002678,0.000431,0.015749
106031000,0.0324,0.013523,0.002678,0.000431,0.597983
106032000,0.0324,0.013523,0.002678,0.000431,0.613497
106033000,0.0324,0.013523,0.002678,0.000431,0.161954
106034000,0.0324,0.013523,0.002678,0.000431,0.131632
106035000,0.0324,0.013523,0.002678,0.000431,0.418753
106036000,0.0324,0.013523,0.002678,0.000431,0.384200
106037000,0.0324,0.013523,0.002678,0.000431,0.264791
106038000,0.0324,0.013523,0.002678,0.000431,0.361634
106039000,0.0324,0.013523,0.002678,0.000431,0.141974
106040000,0.0324,0.013523,0.002678,0.000431,0.148673
106041000,0.0324,0.013523,0.002678,0.000431,0.105423
106042000,0.0324,0.013523,0.002678,0.000431,0.475401
106043000,0.0324,0.013523,0.002678,0.000431,0.297816
106044000,0.0324,0.013523,0.002678,0.000431,0.193451
106045000,0.0324,0.013523,0.002678,0.000431,0.164775
106046000,0.0324,0.013523,0.002678,0.000431,0.136215
106047000,0.0324,0.013523,0.002678,0.000431,0.115413
106048000,0.0324,0.013523,0.002678,0.000431,0.111064
106049000,0.0324,0.013523,0.002678,0.000431,0.101427
106050000,0.0324,0.013523,0.002678,0.000431,0.086971
106051000,0.0324,0.013523,0.002678,0.000431,0.069459
106052000,0.0324,0.013523,0.002678,0.000431,0.061937
106053000,0.0324,0.013523,0.002678,0.000431,0.061350
106054000,0.0324,0.013523,0.002678,0.000431,0.054651
106055000,0.0324,0.013523,0.002678,0.000431,0.051947
106056000,0.0324,0.013523,0.002678,0.000431,0.049362
106057000,0.0324,0.013523,0.002678,0.000431,0.044661
106058000,0.0324,0.013523,0.002678,0.000431,0.032203
106059000,0.0324,0.013523,0.002678,0.000431,0.028324
106060000,0.0324,0.013523,0.002678,0.000431,0.025974
106061000,0.0324,0.013523,0.002678,0.000431,0.022918
106062000,0.0324,0.013523,0.002678,0.000431,0.026679
106063000,0.0324,0.013523,0.002678,0.000431,0.021978
106064000,0.0324,0.013523,0.002678,0.000431,0.012811
106065000,0.0324,0.013523,0.002678,0.000431,0.013516
106066000,0.0324,0.013523,0.002678,0.000431,0.015396
106067000,0.0324,0.013523,0.002678,0.000431,0.012340
106068000,0.0324,0.013523,0.002678,0.000431,0.010342
106069000,0.0324,0.013523,0.002678,0.000431,0.011870
106070000,0.0324,0.013523,0.002678,0.000431,0.008462
106071000,0.0324,0.013523,0.002678,0.000431,0.008697
106072000,0.0324,0.013523,0.002678,0.000431,0.008227
106073000,0.0324,0.013523,0.002678,0.000431,0.011518
106074000,0.0324,0.013523,0.002678,0.000431,0.011518
106075000,0.0324,0.013523,0.002678,0.000431,0.005876
106076000,0.0324,0.013523,0.002678,0.000431,0.005994
106077000,0.0324,0.013523,0.002678,0.000431,0.008462
106078000,0.0324,0.013523,0.002678,0.000431,0.005289
106079000,0.0324,0.013523,0.002678,0.000431,0.005171
106080000,0.0324,0.013523,0.002678,0.000431,0.004584
106081000,0.0324,0.013523,0.002678,0.000431,0.005406
106082000,0.0324,0.013523,0.002678,0.000431,0.004936
106083000,0.0324,0.013523,0.002678,0.000431,0.004466
106084000,0.0324,0.013523,0.002678,0.000431,0.006699
106085000,0.0324,0.013523,0.002678,0.000431,0.008462
106086000,0.0324,0.013523,0.002678,0.000431,0.001763
106087000,0.0324,0.013523,0.002678,0.000431,0.001528
106088000,0.0324,0.013523,0.002678,0.000431,0.002938
106089000,0.0324,0.013523,0.002678,0.000431,0.002351
106090000,0.0324,0.013523,0.002678,0.000431,0.000823
106091000,0.0324,0.013523,0.002678,0.000431,0.000823
106092000,0.0324,0.013523,0.002678,0.000431,0.000940
106093000,0.0324,0.013523,0.002678,0.000431,0.000940
106094000,0.0324,0.013523,0.002678,0.000431,0.000940
106095000,0.0324,0.013523,0.002678,0.000431,0.000823
106096000,0.0324,0.013523,0.002678,0.000431,0.000823
106097000,0.0324,0.013523,0.002678,0.000431,0.072280
106098000,0.0324,0.013523,0.002678,0.000431,0.684484
106099000,0.0324,0.013523,0.002678,0.000431,0.601862
106100000,0.0324,0.013523,0.002678,0.000431,0.147850
106101000,0.0324,0.013523,0.002678,0.000431,0.137626
106102000,0.0324,0.013523,0.002678,0.000431,0.611852
106103000,0.0324,0.013523,0.002678,0.000431,0.251158
106104000,0.0324,0.013523,0.002678,0.000431,0.291117
106105000,0.0324,0.013523,0.002678,0.000431,0.284183
106106000,0.0324,0.013523,0.002678,0.000431,0.147028
106107000,0.0324,0.013523,0.002678,0.000431,0.135275
106108000,0.0324,0.013523,0.002678,0.000431,0.246574
106109000,0.0324,0.013523,0.002678,0.000431,0.445902
106110000,0.0324,0.013523,0.002678,0.000431,0.181581
106111000,0.0324,0.013523,0.002678,0.000431,0.165480
106112000,0.0324,0.013523,0.002678,0.000431,0.142679
106113000,0.0324,0.013523,0.002678,0.000431,0.127988
106114000,0.0324,0.013523,0.002678,0.000431,0.116705
106115000,0.0324,0.013523,0.002678,0.000431,0.109536
106116000,0.0324,0.013523,0.002678,0.000431,0.092495
106117000,0.0324,0.013523,0.002678,0.000431,0.082035
106118000,0.0324,0.013523,0.002678,0.000431,0.075218
106119000,0.0324,0.013523,0.002678,0.000431,0.064641
106120000,0.0324,0.013523,0.002678,0.000431,0.053710
106121000,0.0324,0.013523,0.002678,0.000431,0.050185
106122000,0.0324,0.013523,0.002678,0.000431,0.043015
106123000,0.0324,0.013523,0.002678,0.000431,0.039372
106124000,0.0324,0.013523,0.002678,0.000431,0.036786
106125000,0.0324,0.013523,0.002678,0.000431,0.033848
106126000,0.0324,0.013523,0.002678,0.000431,0.031145
106127000,0.0324,0.013523,0.002678,0.000431,0.026091
106128000,0.0324,0.013523,0.002678,0.000431,0.025739
106129000,0.0324,0.013523,0.002678,0.000431,0.019627
106130000,0.0324,0.013523,0.002678,0.000431,0.021273
106131000,0.0324,0.013523,0.002678,0.000431,0.016219
106132000,0.0324,0.013523,0.002678,0.000431,0.021390
106133000,0.0324,0.013523,0.002678,0.000431,0.019040
106134000,0.0324,0.013523,0.002678,0.000431,0.016689
106135000,0.0324,0.013523,0.002678,0.000431,0.011283
106136000,0.0324,0.013523,0.002678,0.000431,0.012105
106137000,0.0324,0.013523,0.002678,0.000431,0.014221
106138000,0.0324,0.013523,0.002678,0.000431,0.008227
106139000,0.0324,0.013523,0.002678,0.000431,0.010460
106140000,0.0324,0.013523,0.002678,0.000431,0.003996
106141000,0.0324,0.013523,0.002678,0.000431,0.004466
106142000,0.0324,0.013523,0.002678,0.000431,0.003996
106143000,0.0324,0.013523,0.002678,0.000431,0.004349
106144000,0.0324,0.013523,0.002678,0.000431,0.003996
106145000,0.0324,0.013523,0.002678,0.000431,0.005289
106146000,0.0324,0.013523,0.002678,0.000431,0.004584
106147000,0.0324,0.013523,0.002678,0.000431,0.003291
106148000,0.0324,0.013523,0.002678,0.000431,0.003291
106149000,0.0324,0.013523,0.002678,0.000431,0.002703
106150000,0.0324,0.013523,0.002678,0.000431,0.002703
106151000,0.0324,0.013523,0.002678,0.000431,0.002468
106152000,0.0324,0.013523,0.002678,0.000431,0.004349
106153000,0.0324,0.013523,0.002678,0.000431,0.001645
106154000,0.0324,0.013523,0.002678,0.000431,0.001645
106155000,0.0324,0.013523,0.002678,0.000431,0.004936
106156000,0.0324,0.013523,0.002678,0.000431,0.000823
106157000,0.0324,0.013523,0.002678,0.000431,0.000940
106158000,0.0324,0.013523,0.002678,0.000431,0.000823
106159000,0.0324,0.013523,0.002678,0.000431,0.000823
106160000,0.0324,0.013523,0.002678,0.000431,0.000823
106161000,0.0324,0.013523,0.002678,0.000431,0.000823
106162000,0.0324,0.013523,0.002678,0.000431,0.000705
106163000,0.0324,0.013523,0.002678,0.000431,0.000940
106164000,0.0324,0.013523,0.002678,0.000431,0.000940
106165000,0.0324,0.013523,0.002678,0.000431,0.000705
106166000,0.0324,0.013523,0.002678,0.000431,0.000940
106167000,0.0324,0.013523,0.002678,0.000431,0.000705
106168000,0.0324,0.013523,0.002678,0.000431,0.000940
106169000,0.0324,0.013523,0.002678,0.000431,0.000823
106170000,0.0324,0.013523,0.002678,0.000431,0.000823
106171000,0.0324,0.013523,0.002678,0.000431,0.000940
106172000,0.0324,0.013523,0.002678,0.000431,0.000705
106173000,0.0324,0.013523,0.002678,0.000431,0.000940
106174000,0.0324,0.013523,0.002678,0.000431,0.000823
106175000,0.0324,0.013523,0.002678,0.000431,0.000823
106176000,0.0324,0.013523,0.002678,0.000431,0.000823
106177000,0.0324,0.013523,0.002678,0.000431,0.000823
106178000,0.0324,0.013523,0.002678,0.000431,0.000823
106179000,0.0324,0.013523,0.002678,0.000431,0.000823
106180000,0.0324,0.013523,0.002678,0.000431,0.000940
106181000,0.0324,0.013523,0.002678,0.000431,0.000705
106182000,0.0324,0.013523,0.002678,0.000431,0.000823
106183000,0.0324,0.013523,0.002678,0.000431,0.000940
106184000,0.0324,0.013523,0.002678,0.000431,0.071575
106185000,0.0324,0.013523,0.002678,0.000431,0.653809
106186000,0.0324,0.013523,0.002678,0.000431,0.580119
106187000,0.0324,0.013523,0.002678,0.000431,0.145147
106188000,0.0324,0.013523,0.002678,0.000431,0.133512
106189000,0.0324,0.013523,0.002678,0.000431,0.578121
106190000,0.0324,0.013523,0.002678,0.000431,0.253978
106191000,0.0324,0.013523,0.002678,0.000431,0.268904
106192000,0.0324,0.013523,0.002678,0.000431,0.290295
106193000,0.0324,0.013523,0.002678,0.000431,0.149496
106194000,0.0324,0.013523,0.002678,0.000431,0.162306
106195000,0.0324,0.013523,0.002678,0.000431,0.156783
106196000,0.0324,0.013523,0.002678,0.000431,0.491973
106197000,0.0324,0.013523,0.002678,0.000431,0.184872
106198000,0.0324,0.013523,0.002678,0.000431,0.167595
106199000,0.0324,0.013523,0.002678,0.000431,0.137861
106200000,0.0324,0.013523,0.002678,0.000431,0.126225
106201000,0.0324,0.013523,0.002678,0.000431,0.110829
106202000,0.0324,0.013523,0.002678,0.000431,0.099194
106203000,0.0324,0.013523,0.002678,0.000431,0.095315
106204000,0.0324,0.013523,0.002678,0.000431,0.084973
106205000,0.0324,0.013523,0.002678,0.000431,0.074513
106206000,0.0324,0.013523,0.002678,0.000431,0.068401
106207000,0.0324,0.013523,0.002678,0.000431,0.057706
106208000,0.0324,0.013523,0.002678,0.000431,0.056531
106209000,0.0324,0.013523,0.002678,0.000431,0.051242
106210000,0.0324,0.013523,0.002678,0.000431,0.049714
106211000,0.0324,0.013523,0.002678,0.000431,0.044543
106212000,0.0324,0.013523,0.002678,0.000431,0.049949
106213000,0.0324,0.013523,0.002678,0.000431,0.041252
106214000,0.0324,0.013523,0.002678,0.000431,0.036551
106215000,0.0324,0.013523,0.002678,0.000431,0.039960
106216000,0.0324,0.013523,0.002678,0.000431,0.031968
106217000,0.0324,0.013523,0.002678,0.000431,0.023858
106218000,0.0324,0.013523,0.002678,0.000431,0.023858
106219000,0.0324,0.013523,0.002678,0.000431,0.029970
106220000,0.0324,0.013523,0.002678,0.000431,0.022448
106221000,0.0324,0.013523,0.002678,0.000431,0.025856
106222000,0.0324,0.013523,0.002678,0.000431,0.016219
106223000,0.0324,0.013523,0.002678,0.000431,0.017159
106224000,0.0324,0.013523,0.002678,0.000431,0.015749
106225000,0.0324,0.013523,0.002678,0.000431,0.016336
106226000,0.0324,0.013523,0.002678,0.000431,0.011048
106227000,0.0324,0.013523,0.002678,0.000431,0.009872
106228000,0.0324,0.013523,0.002678,0.000431,0.006934
106229000,0.0324,0.013523,0.002678,0.000431,0.009285
106230000,0.0324,0.013523,0.002678,0.000431,0.009050
106231000,0.0324,0.013523,0.002678,0.000431,0.006817
106232000,0.0324,0.013523,0.002678,0.000431,0.005994
106233000,0.0324,0.013523,0.002678,0.000431,0.003291
106234000,0.0324,0.013523,0.002678,0.000431,0.005289
106235000,0.0324,0.013523,0.002678,0.000431,0.001880
106236000,0.0324,0.013523,0.002678,0.000431,0.001763
106237000,0.0324,0.013523,0.002678,0.000431,0.001528
106238000,0.0324,0.013523,0.002678,0.000431,0.003291
106239000,0.0324,0.013523,0.002678,0.000431,0.000823
106240000,0.0324,0.013523,0.002678,0.000431,0.000940
106241000,0.0324,0.013523,0.002678,0.000431,0.000823
106242000,0.0324,0.013523,0.002678,0.000431,0.000940
106243000,0.0324,0.013523,0.002678,0.000431,0.000823
106244000,0.0324,0.013523,0.002678,0.000431,0.000940
106245000,0.0324,0.013523,0.002678,0.000431,0.000823
106246000,0.0324,0.013523,0.002678,0.000431,0.000940
106247000,0.0324,0.013523,0.002678,0.000431,0.000823
106248000,0.0324,0.013523,0.002678,0.000431,0.000940
106249000,0.0324,0.013523,0.002678,0.000431,0.000823
106250000,0.0324,0.013523,0.002678,0.000431,0.000823
106251000,0.0324,0.013523,0.002678,0.000431,0.000940
106252000,0.0324,0.013523,0.002678,0.000431,0.000940
106253000,0.0324,0.013523,0.002678,0.000431,0.000940
106254000,0.0324,0.013523,0.002678,0.000431,0.000940
106255000,0.0324,0.013523,0.002678,0.000431,0.001880
106256000,0.0324,0.013523,0.002678,0.000431,0.443081
106257000,0.0324,0.013523,0.002678,0.000431,0.670616
106258000,0.0324,0.013523,0.002678,0.000431,0.254684
106259000,0.0324,0.013523,0.002678,0.000431,0.142679
106260000,0.0324,0.013523,0.002678,0.000431,0.307806
106261000,0.0324,0.013523,0.002678,0.000431,0.556261
106262000,0.0324,0.013523,0.002678,0.000431,0.285476
106263000,0.0324,0.013523,0.002678,0.000431,0.318854
106264000,0.0324,0.013523,0.002678,0.000431,0.147615
106265000,0.0324,0.013523,0.002678,0.000431,0.146910
106266000,0.0324,0.013523,0.002678,0.000431,0.174294
106267000,0.0324,0.013523,0.002678,0.000431,0.504313
106268000,0.0324,0.013523,0.002678,0.000431,0.216487
106269000,0.0324,0.013523,0.002678,0.000431,0.180641
106270000,0.0324,0.013523,0.002678,0.000431,0.170416
106271000,0.0324,0.013523,0.002678,0.000431,0.155490
106272000,0.0324,0.013523,0.002678,0.000431,0.138801
106273000,0.0324,0.013523,0.002678,0.000431,0.117646
106274000,0.0324,0.013523,0.002678,0.000431,0.100957
106275000,0.0324,0.013523,0.002678,0.000431,0.085090
106276000,0.0324,0.013523,0.002678,0.000431,0.086736
106277000,0.0324,0.013523,0.002678,0.000431,0.071810
106278000,0.0324,0.013523,0.002678,0.000431,0.069812
106279000,0.0324,0.013523,0.002678,0.000431,0.056531
106280000,0.0324,0.013523,0.002678,0.000431,0.054651
106281000,0.0324,0.013523,0.002678,0.000431,0.055356
106282000,0.0324,0.013523,0.002678,0.000431,0.045013
106283000,0.0324,0.013523,0.002678,0.000431,0.047599
106284000,0.0324,0.013523,0.002678,0.000431,0.043956
106285000,0.0324,0.013523,0.002678,0.000431,0.037727
106286000,0.0324,0.013523,0.002678,0.000431,0.033496
106287000,0.0324,0.013523,0.002678,0.000431,0.036786
106288000,0.0324,0.013523,0.002678,0.000431,0.033143
106289000,0.0324,0.013523,0.002678,0.000431,0.022330
106290000,0.0324,0.013523,0.002678,0.000431,0.023271
106291000,0.0324,0.013523,0.002678,0.000431,0.022095
106292000,0.0324,0.013523,0.002678,0.000431,0.018099
106293000,0.0324,0.013523,0.002678,0.000431,0.016689
106294000,0.0324,0.013523,0.002678,0.000431,0.012458
106295000,0.0324,0.013523,0.002678,0.000431,0.012458
106296000,0.0324,0.013523,0.002678,0.000431,0.013516
106297000,0.0324,0.013523,0.002678,0.000431,0.010578
106298000,0.0324,0.013523,0.002678,0.000431,0.015631
106299000,0.0324,0.013523,0.002678,0.000431,0.013633
106300000,0.0324,0.013523,0.002678,0.000431,0.009285
106301000,0.0324,0.013523,0.002678,0.000431,0.013751
106302000,0.0324,0.013523,0.002678,0.000431,0.007639
106303000,0.0324,0.013523,0.002678,0.000431,0.008815
106304000,0.0324,0.013523,0.002678,0.000431,0.004349
106305000,0.0324,0.013523,0.002678,0.000431,0.004231
106306000,0.0324,0.013523,0.002678,0.000431,0.003291
106307000,0.0324,0.013523,0.002678,0.000431,0.003291
106308000,0.0324,0.013523,0.002678,0.000431,0.004819
106309000,0.0324,0.013523,0.002678,0.000431,0.002586
106310000,0.0324,0.013523,0.002678,0.000431,0.002586
106311000,0.0324,0.013523,0.002678,0.000431,0.002586
106312000,0.0324,0.013523,0.002678,0.000431,0.002468
106313000,0.0324,0.013523,0.002678,0.000431,0.002468
106314000,0.0324,0.013523,0.002678,0.000431,0.002821
106315000,0.0324,0.013523,0.002678,0.000431,0.002468
106316000,0.0324,0.013523,0.002678,0.000431,0.003761
106317000,0.0324,0.013523,0.002678,0.000431,0.003291
106318000,0.0324,0.013523,0.002678,0.000431,0.001528
106319000,0.0324,0.013523,0.002678,0.000431,0.001763
106320000,0.0324,0.013523,0.002678,0.000431,0.001763
106321000,0.0324,0.013523,0.002678,0.000431,0.001645
106322000,0.0324,0.013523,0.002678,0.000431,0.001645
106323000,0.0324,0.013523,0.002678,0.000431,0.001763
106324000,0.0324,0.013523,0.002678,0.000431,0.001528
106325000,0.0324,0.013523,0.002678,0.000431,0.001763
106326000,0.0324,0.013523,0.002678,0.000431,0.001763
106327000,0.0324,0.013523,0.002678,0.000431,0.001645
106328000,0.0324,0.013523,0.002678,0.000431,0.001645
106329000,0.0324,0.013523,0.002678,0.000431,0.001645
106330000,0.0324,0.013523,0.002678,0.000431,0.001763
106331000,0.0324,0.013523,0.002678,0.000431,0.001528
106332000,0.0324,0.013523,0.002678,0.000431,0.001763
106333000,0.0324,0.013523,0.002678,0.000431,0.001645
106334000,0.0324,0.013523,0.002678,0.000431,0.001645
106335000,0.0324,0.013523,0.002678,0.000431,0.001763
106336000,0.0324,0.013523,0.002678,0.000431,0.001528
106337000,0.0324,0.013523,0.002678,0.000431,0.001763
106338000,0.0324,0.013523,0.002678,0.000431,0.004349
106339000,0.0324,0.013523,0.002678,0.000431,0.000823
106340000,0.0324,0.013523,0.002678,0.000431,0.000823
106341000,0.0324,0.013523,0.002678,0.000431,0.000705
106342000,0.0324,0.013523,0.002678,0.000431,0.000940
106343000,0.0324,0.013523,0.002678,0.000431,0.000705
106344000,0.0324,0.013523,0.002678,0.000431,0.000940
106345000,0.0324,0.013523,0.002678,0.000431,0.000823
106346000,0.0324,0.013523,0.002678,0.000431,0.000823
106347000,0.0324,0.013523,0.002678,0.000431,0.000823
106348000,0.0324,0.013523,0.002678,0.000431,0.000823
106349000,0.0324,0.013523,0.002678,0.000431,0.000705
106350000,0.0324,0.013523,0.002678,0.000431,0.000940
106351000,0.0324,0.013523,0.002678,0.000431,0.000823
106352000,0.0324,0.013523,0.002678,0.000431,0.000823
106353000,0.0324,0.013523,0.002678,0.000431,0.000823
106354000,0.0324,0.013523,0.002678,0.000431,0.000823
106355000,0.0324,0.013523,0.002678,0.000431,0.000940
106356000,0.0324,0.013523,0.002678,0.000431,0.000705
106357000,0.0324,0.013523,0.002678,0.000431,0.000940
106358000,0.0324,0.013523,0.002678,0.000431,0.000823
106359000,0.0324,0.013523,0.002678,0.000431,0.000823
106360000,0.0324,0.013523,0.002678,0.000431,0.000823
106361000,0.0324,0.013523,0.002678,0.000431,0.015984
106362000,0.0324,0.013523,0.002678,0.000431,0.703406
106363000,0.0324,0.013523,0.002678,0.000431,0.565781
106364000,0.0324,0.013523,0.002678,0.000431,0.175587
106365000,0.0324,0.013523,0.002678,0.000431,0.149848
106366000,0.0324,0.013523,0.002678,0.000431,0.622194
106367000,0.0324,0.013523,0.002678,0.000431,0.294526
106368000,0.0324,0.013523,0.002678,0.000431,0.287239
106369000,0.0324,0.013523,0.002678,0.000431,0.263263
106370000,0.0324,0.013523,0.002678,0.000431,0.151024
106371000,0.0324,0.013523,0.002678,0.000431,0.102367
106372000,0.0324,0.013523,0.002678,0.000431,0.359871
106373000,0.0324,0.013523,0.002678,0.000431,0.350822
106374000,0.0324,0.013523,0.002678,0.000431,0.156665
106375000,0.0324,0.013523,0.002678,0.000431,0.130809
106376000,0.0324,0.013523,0.002678,0.000431,0.127401
106377000,0.0324,0.013523,0.002678,0.000431,0.114708
106378000,0.0324,0.013523,0.002678,0.000431,0.104953
106379000,0.0324,0.013523,0.002678,0.000431,0.087206
106380000,0.0324,0.013523,0.002678,0.000431,0.088499
106381000,0.0324,0.013523,0.002678,0.000431,0.075806
106382000,0.0324,0.013523,0.002678,0.000431,0.069812
106383000,0.0324,0.013523,0.002678,0.000431,0.062407
106384000,0.0324,0.013523,0.002678,0.000431,0.060997
106385000,0.0324,0.013523,0.002678,0.000431,0.062407
106386000,0.0324,0.013523,0.002678,0.000431,0.049244
106387000,0.0324,0.013523,0.002678,0.000431,0.045601
106388000,0.0324,0.013523,0.002678,0.000431,0.041370
106389000,0.0324,0.013523,0.002678,0.000431,0.041487
106390000,0.0324,0.013523,0.002678,0.000431,0.041370
106391000,0.0324,0.013523,0.002678,0.000431,0.037609
106392000,0.0324,0.013523,0.002678,0.000431,0.036669
106393000,0.0324,0.013523,0.002678,0.000431,0.031733
106394000,0.0324,0.013523,0.002678,0.000431,0.031733
106395000,0.0324,0.013523,0.002678,0.000431,0.027502
106396000,0.0324,0.013523,0.002678,0.000431,0.026209
106397000,0.0324,0.013523,0.002678,0.000431,0.023153
106398000,0.0324,0.013523,0.002678,0.000431,0.023153
106399000,0.0324,0.013523,0.002678,0.000431,0.020215
106400000,0.0324,0.013523,0.002678,0.000431,0.019862
106401000,0.0324,0.013523,0.002678,0.000431,0.018099
106402000,0.0324,0.013523,0.002678,0.000431,0.022565
106403000,0.0324,0.013523,0.002678,0.000431,0.018922
106404000,0.0324,0.013523,0.002678,0.000431,0.015279
106405000,0.0324,0.013523,0.002678,0.000431,0.019040
106406000,0.0324,0.013523,0.002678,0.000431,0.012928
106407000,0.0324,0.013523,0.002678,0.000431,0.013046
106408000,0.0324,0.013523,0.002678,0.000431,0.010460
106409000,0.0324,0.013523,0.002678,0.000431,0.013633
106410000,0.0324,0.013523,0.002678,0.000431,0.011165
106411000,0.0324,0.013523,0.002678,0.000431,0.012811
106412000,0.0324,0.013523,0.002678,0.000431,0.008815
106413000,0.0324,0.013523,0.002678,0.000431,0.007287
106414000,0.0324,0.013523,0.002678,0.000431,0.004701
106415000,0.0324,0.013523,0.002678,0.000431,0.004701
106416000,0.0324,0.013523,0.002678,0.000431,0.005054
106417000,0.0324,0.013523,0.002678,0.000431,0.004819
106418000,0.0324,0.013523,0.002678,0.000431,0.007874
106419000,0.0324,0.013523,0.002678,0.000431,0.003173
106420000,0.0324,0.013523,0.002678,0.000431,0.003173
106421000,0.0324,0.013523,0.002678,0.000431,0.003173
106422000,0.0324,0.013523,0.002678,0.000431,0.003408
106423000,0.0324,0.013523,0.002678,0.000431,0.003526
106424000,0.0324,0.013523,0.002678,0.000431,0.002821
106425000,0.0324,0.013523,0.002678,0.000431,0.004584
106426000,0.0324,0.013523,0.002678,0.000431,0.003408
106427000,0.0324,0.013523,0.002678,0.000431,0.002703
106428000,0.0324,0.013523,0.002678,0.000431,0.002586
106429000,0.0324,0.013523,0.002678,0.000431,0.002116
106430000,0.0324,0.013523,0.002678,0.000431,0.002586
106431000,0.0324,0.013523,0.002678,0.000431,0.002468
106432000,0.0324,0.013523,0.002678,0.000431,0.002703
106433000,0.0324,0.013523,0.002678,0.000431,0.004113
106434000,0.0324,0.013523,0.002678,0.000431,0.001645
106435000,0.0324,0.013523,0.002678,0.000431,0.001410
106436000,0.0324,0.013523,0.002678,0.000431,0.001645
106437000,0.0324,0.013523,0.002678,0.000431,0.001645
106438000,0.0324,0.013523,0.002678,0.000431,0.001645
106439000,0.0324,0.013523,0.002678,0.000431,0.001410
106440000,0.0324,0.013523,0.002678,0.000431,0.001645
106441000,0.0324,0.013523,0.002678,0.000431,0.001410
106442000,0.0324,0.013523,0.002678,0.000431,0.001645
106443000,0.0324,0.013523,0.002678,0.000431,0.001880
106444000,0.0324,0.013523,0.002678,0.000431,0.001175
106445000,0.0324,0.013523,0.002678,0.000431,0.001880
106446000,0.0324,0.013523,0.002678,0.000431,0.001410
106447000,0.0324,0.013523,0.002678,0.000431,0.001645
106448000,0.0324,0.013523,0.002678,0.000431,0.001645
106449000,0.0324,0.013523,0.002678,0.000431,0.001410
106450000,0.0324,0.013523,0.002678,0.000431,0.001645
106451000,0.0324,0.013523,0.002678,0.000431,0.001645
106452000,0.0324,0.013523,0.002678,0.000431,0.001645
106453000,0.0324,0.013523,0.002678,0.000431,0.001410
106454000,0.0324,0.013523,0.002678,0.000431,0.001645
106455000,0.0324,0.013523,0.002678,0.000431,0.001645
106456000,0.0324,0.013523,0.002678,0.000431,0.001645
106457000,0.0324,0.013523,0.002678,0.000431,0.001410
106458000,0.0324,0.013523,0.002678,0.000431,0.001645
106459000,0.0324,0.013523,0.002678,0.000431,0.001293
106460000,0.0324,0.013523,0.002678,0.000431,0.001763
106461000,0.0324,0.013523,0.002678,0.000431,0.001880
106462000,0.0324,0.013523,0.002678,0.000431,0.001175
106463000,0.0324,0.013523,0.002678,0.000431,0.001880
106464000,0.0324,0.013523,0.002678,0.000431,0.001293
106465000,0.0324,0.013523,0.002678,0.000431,0.001763
106466000,0.0324,0.013523,0.002678,0.000431,0.001645
106467000,0.0324,0.013523,0.002678,0.000431,0.001410
106468000,0.0324,0.013523,0.002678,0.000431,0.001645
106469000,0.0324,0.013523,0.002678,0.000431,0.001528
106470000,0.0324,0.013523,0.002678,0.000431,0.003643
106471000,0.0324,0.013523,0.002678,0.000431,0.522060
106472000,0.0324,0.013523,0.002678,0.000431,0.649696
106473000,0.0324,0.013523,0.002678,0.000431,0.189573
106474000,0.0324,0.013523,0.002678,0.000431,0.145265
106475000,0.0324,0.013523,0.002678,0.000431,0.330724
106476000,0.0324,0.013523,0.002678,0.000431,0.526409
106477000,0.0324,0.013523,0.002678,0.000431,0.270902
106478000,0.0324,0.013523,0.002678,0.000431,0.324260
106479000,0.0324,0.013523,0.002678,0.000431,0.139741
106480000,0.0324,0.013523,0.002678,0.000431,0.171004
106481000,0.0324,0.013523,0.002678,0.000431,0.096726
106482000,0.0324,0.013523,0.002678,0.000431,0.494088
106483000,0.0324,0.013523,0.002678,0.000431,0.179113
106484000,0.0324,0.013523,0.002678,0.000431,0.149026
106485000,0.0324,0.013523,0.002678,0.000431,0.137861
106486000,0.0324,0.013523,0.002678,0.000431,0.114943
106487000,0.0324,0.013523,0.002678,0.000431,0.107186
106488000,0.0324,0.013523,0.002678,0.000431,0.104600
106489000,0.0324,0.013523,0.002678,0.000431,0.091790
106490000,0.0324,0.013523,0.002678,0.000431,0.083327
106491000,0.0324,0.013523,0.002678,0.000431,0.082622
106492000,0.0324,0.013523,0.002678,0.000431,0.079802
106493000,0.0324,0.013523,0.002678,0.000431,0.070047
106494000,0.0324,0.013523,0.002678,0.000431,0.060880
106495000,0.0324,0.013523,0.002678,0.000431,0.053123
106496000,0.0324,0.013523,0.002678,0.000431,0.047716
106497000,0.0324,0.013523,0.002678,0.000431,0.047481
106498000,0.0324,0.013523,0.002678,0.000431,0.045131
106499000,0.0324,0.013523,0.002678,0.000431,0.043720
106500000,0.0324,0.013523,0.002678,0.000431,0.044191
106501000,0.0324,0.013523,0.002678,0.000431,0.037962
106502000,0.0324,0.013523,0.002678,0.000431,0.036786
106503000,0.0324,0.013523,0.002678,0.000431,0.039842
106504000,0.0324,0.013523,0.002678,0.000431,0.031968
106505000,0.0324,0.013523,0.002678,0.000431,0.028207
106506000,0.0324,0.013523,0.002678,0.000431,0.029500
106507000,0.0324,0.013523,0.002678,0.000431,0.026561
106508000,0.0324,0.013523,0.002678,0.000431,0.022330
106509000,0.0324,0.013523,0.002678,0.000431,0.029147
106510000,0.0324,0.013523,0.002678,0.000431,0.021155
106511000,0.0324,0.013523,0.002678,0.000431,0.016924
106512000,0.0324,0.013523,0.002678,0.000431,0.013986
106513000,0.0324,0.013523,0.002678,0.000431,0.014809
106514000,0.0324,0.013523,0.002678,0.000431,0.015279
106515000,0.0324,0.013523,0.002678,0.000431,0.009872
106516000,0.0324,0.013523,0.002678,0.000431,0.010578
106517000,0.0324,0.013523,0.002678,0.000431,0.012928
106518000,0.0324,0.013523,0.002678,0.000431,0.008462
106519000,0.0324,0.013523,0.002678,0.000431,0.008227
106520000,0.0324,0.013523,0.002678,0.000431,0.008580
106521000,0.0324,0.013523,0.002678,0.000431,0.009050
106522000,0.0324,0.013523,0.002678,0.000431,0.009520
106523000,0.0324,0.013523,0.002678,0.000431,0.006347
106524000,0.0324,0.013523,0.002678,0.000431,0.005406
106525000,0.0324,0.013523,0.002678,0.000431,0.004466
106526000,0.0324,0.013523,0.002678,0.000431,0.004113
106527000,0.0324,0.013523,0.002678,0.000431,0.004113
106528000,0.0324,0.013523,0.002678,0.000431,0.006229
106529000,0.0324,0.013523,0.002678,0.000431,0.004936
106530000,0.0324,0.013523,0.002678,0.000431,0.004819
106531000,0.0324,0.013523,0.002678,0.000431,0.001645
106532000,0.0324,0.013523,0.002678,0.000431,0.001645
106533000,0.0324,0.013523,0.002678,0.000431,0.001763
106534000,0.0324,0.013523,0.002678,0.000431,0.003878
106535000,0.0324,0.013523,0.002678,0.000431,0.000823
106536000,0.0324,0.013523,0.002678,0.000431,0.000940
106537000,0.0324,0.013523,0.002678,0.000431,0.000705
106538000,0.0324,0.013523,0.002678,0.000431,0.000940
106539000,0.0324,0.013523,0.002678,0.000431,0.000823
106540000,0.0324,0.013523,0.002678,0.000431,0.000823
106541000,0.0324,0.013523,0.002678,0.000431,0.000823
106542000,0.0324,0.013523,0.002678,0.000431,0.000823
106543000,0.0324,0.013523,0.002678,0.000431,0.000823
106544000,0.0324,0.013523,0.002678,0.000431,0.000823
106545000,0.0324,0.013523,0.002678,0.000431,0.000940
106546000,0.0324,0.013523,0.002678,0.000431,0.000705
106547000,0.0324,0.013523,0.002678,0.000431,0.000940
106548000,0.0324,0.013523,0.002678,0.000431,0.000823
106549000,0.0324,0.013523,0.002678,0.000431,0.000823
106550000,0.0324,0.013523,0.002678,0.000431,0.000940
106551000,0.0324,0.013523,0.002678,0.000431,0.002116
106552000,0.0324,0.013523,0.002678,0.000431,0.294878
106553000,0.0324,0.013523,0.002678,0.000431,0.712691
106554000,0.0324,0.013523,0.002678,0.000431,0.297816
106555000,0.0324,0.013523,0.002678,0.000431,0.132572
106556000,0.0324,0.013523,0.002678,0.000431,0.165832
106557000,0.0324,0.013523,0.002678,0.000431,0.586348
106558000,0.0324,0.013523,0.002678,0.000431,0.279952
106559000,0.0324,0.013523,0.002678,0.000431,0.290412
106560000,0.0324,0.013523,0.002678,0.000431,0.182404
106561000,0.0324,0.013523,0.002678,0.000431,0.146910
106562000,0.0324,0.013523,0.002678,0.000431,0.128576
106563000,0.0324,0.013523,0.002678,0.000431,0.322262
106564000,0.0324,0.013523,0.002678,0.000431,0.319442
106565000,0.0324,0.013523,0.002678,0.000431,0.120584
106566000,0.0324,0.013523,0.002678,0.000431,0.112357
106567000,0.0324,0.013523,0.002678,0.000431,0.105423
106568000,0.0324,0.013523,0.002678,0.000431,0.086148
106569000,0.0324,0.013523,0.002678,0.000431,0.075218
106570000,0.0324,0.013523,0.002678,0.000431,0.063583
106571000,0.0324,0.013523,0.002678,0.000431,0.063700
106572000,0.0324,0.013523,0.002678,0.000431,0.058412
106573000,0.0324,0.013523,0.002678,0.000431,0.053710
106574000,0.0324,0.013523,0.002678,0.000431,0.050185
106575000,0.0324,0.013523,0.002678,0.000431,0.052300
106576000,0.0324,0.013523,0.002678,0.000431,0.044896
106577000,0.0324,0.013523,0.002678,0.000431,0.041958
106578000,0.0324,0.013523,0.002678,0.000431,0.043250
106579000,0.0324,0.013523,0.002678,0.000431,0.037727
106580000,0.0324,0.013523,0.002678,0.000431,0.033848
106581000,0.0324,0.013523,0.002678,0.000431,0.033613
106582000,0.0324,0.013523,0.002678,0.000431,0.027619
106583000,0.0324,0.013523,0.002678,0.000431,0.025621
106584000,0.0324,0.013523,0.002678,0.000431,0.022213
106585000,0.0324,0.013523,0.002678,0.000431,0.017982
106586000,0.0324,0.013523,0.002678,0.000431,0.017277
106587000,0.0324,0.013523,0.002678,0.000431,0.017747
106588000,0.0324,0.013523,0.002678,0.000431,0.016219
106589000,0.0324,0.013523,0.002678,0.000431,0.017159
106590000,0.0324,0.013523,0.002678,0.000431,0.015161
106591000,0.0324,0.013523,0.002678,0.000431,0.013516
106592000,0.0324,0.013523,0.002678,0.000431,0.013633
106593000,0.0324,0.013523,0.002678,0.000431,0.012576
106594000,0.0324,0.013523,0.002678,0.000431,0.011400
106595000,0.0324,0.013523,0.002678,0.000431,0.012811
106596000,0.0324,0.013523,0.002678,0.000431,0.013398
106597000,0.0324,0.013523,0.002678,0.000431,0.012458
106598000,0.0324,0.013523,0.002678,0.000431,0.009402
106599000,0.0324,0.013523,0.002678,0.000431,0.009167
106600000,0.0324,0.013523,0.002678,0.000431,0.011988
106601000,0.0324,0.013523,0.002678,0.000431,0.008109
106602000,0.0324,0.013523,0.002678,0.000431,0.008109
106603000,0.0324,0.013523,0.002678,0.000431,0.008580
106604000,0.0324,0.013523,0.002678,0.000431,0.008109
106605000,0.0324,0.013523,0.002678,0.000431,0.008109
106606000,0.0324,0.013523,0.002678,0.000431,0.007169
106607000,0.0324,0.013523,0.002678,0.000431,0.009167
106608000,0.0324,0.013523,0.002678,0.000431,0.006347
106609000,0.0324,0.013523,0.002678,0.000431,0.006229
106610000,0.0324,0.013523,0.002678,0.000431,0.007639
106611000,0.0324,0.013523,0.002678,0.000431,0.005406
106612000,0.0324,0.013523,0.002678,0.000431,0.010225
106613000,0.0324,0.013523,0.002678,0.000431,0.003408
106614000,0.0324,0.013523,0.002678,0.000431,0.003643
106615000,0.0324,0.013523,0.002678,0.000431,0.005171
106616000,0.0324,0.013523,0.002678,0.000431,0.002703
106617000,0.0324,0.013523,0.002678,0.000431,0.002351
106618000,0.0324,0.013523,0.002678,0.000431,0.002703
106619000,0.0324,0.013523,0.002678,0.000431,0.002586
106620000,0.0324,0.013523,0.002678,0.000431,0.002586
106621000,0.0324,0.013523,0.002678,0.000431,0.002586
106622000,0.0324,0.013523,0.002678,0.000431,0.002586
106623000,0.0324,0.013523,0.002678,0.000431,0.002468
106624000,0.0324,0.013523,0.002678,0.000431,0.002586
106625000,0.0324,0.013523,0.002678,0.000431,0.002586
106626000,0.0324,0.013523,0.002678,0.000431,0.002586
106627000,0.0324,0.013523,0.002678,0.000431,0.003996
106628000,0.0324,0.013523,0.002678,0.000431,0.003173
106629000,0.0324,0.013523,0.002678,0.000431,0.000940
106630000,0.0324,0.013523,0.002678,0.000431,0.063465
106631000,0.0324,0.013523,0.002678,0.000431,0.531345
106632000,0.0324,0.013523,0.002678,0.000431,0.600216
106633000,0.0324,0.013523,0.002678,0.000431,0.145147
106634000,0.0324,0.013523,0.002678,0.000431,0.137508
106635000,0.0324,0.013523,0.002678,0.000431,0.589639
106636000,0.0324,0.013523,0.002678,0.000431,0.220953
106637000,0.0324,0.013523,0.002678,0.000431,0.289237
106638000,0.0324,0.013523,0.002678,0.000431,0.328961
106639000,0.0324,0.013523,0.002678,0.000431,0.147263
106640000,0.0324,0.013523,0.002678,0.000431,0.170533
106641000,0.0324,0.013523,0.002678,0.000431,0.102485
106642000,0.0324,0.013523,0.002678,0.000431,0.478692
106643000,0.0324,0.013523,0.002678,0.000431,0.178290
106644000,0.0324,0.013523,0.002678,0.000431,0.141504
106645000,0.0324,0.013523,0.002678,0.000431,0.136450
106646000,0.0324,0.013523,0.002678,0.000431,0.110006
106647000,0.0324,0.013523,0.002678,0.000431,0.097431
106648000,0.0324,0.013523,0.002678,0.000431,0.103072
106649000,0.0324,0.013523,0.002678,0.000431,0.086971
106650000,0.0324,0.013523,0.002678,0.000431,0.088851
106651000,0.0324,0.013523,0.002678,0.000431,0.077804
106652000,0.0324,0.013523,0.002678,0.000431,0.061585
106653000,0.0324,0.013523,0.002678,0.000431,0.059469
106654000,0.0324,0.013523,0.002678,0.000431,0.060645
106655000,0.0324,0.013523,0.002678,0.000431,0.047481
106656000,0.0324,0.013523,0.002678,0.000431,0.048892
106657000,0.0324,0.013523,0.002678,0.000431,0.039372
106658000,0.0324,0.013523,0.002678,0.000431,0.035611
106659000,0.0324,0.013523,0.002678,0.000431,0.034201
106660000,0.0324,0.013523,0.002678,0.000431,0.030557
106661000,0.0324,0.013523,0.002678,0.000431,0.029029
106662000,0.0324,0.013523,0.002678,0.000431,0.028559
106663000,0.0324,0.013523,0.002678,0.000431,0.031027
106664000,0.0324,0.013523,0.002678,0.000431,0.022095
106665000,0.0324,0.013523,0.002678,0.000431,0.021978
106666000,0.0324,0.013523,0.002678,0.000431,0.018805
106667000,0.0324,0.013523,0.002678,0.000431,0.019980
106668000,0.0324,0.013523,0.002678,0.000431,0.023271
106669000,0.0324,0.013523,0.002678,0.000431,0.015631
106670000,0.0324,0.013523,0.002678,0.000431,0.013868
106671000,0.0324,0.013523,0.002678,0.000431,0.010107
106672000,0.0324,0.013523,0.002678,0.000431,0.010225
106673000,0.0324,0.013523,0.002678,0.000431,0.013046
106674000,0.0324,0.013523,0.002678,0.000431,0.010695
106675000,0.0324,0.013523,0.002678,0.000431,0.007522
106676000,0.0324,0.013523,0.002678,0.000431,0.007287
106677000,0.0324,0.013523,0.002678,0.000431,0.009990
106678000,0.0324,0.013523,0.002678,0.000431,0.005524
106679000,0.0324,0.013523,0.002678,0.000431,0.006111
106680000,0.0324,0.013523,0.002678,0.000431,0.005641
106681000,0.0324,0.013523,0.002678,0.000431,0.006111
106682000,0.0324,0.013523,0.002678,0.000431,0.007287
106683000,0.0324,0.013523,0.002678,0.000431,0.006934
106684000,0.0324,0.013523,0.002678,0.000431,0.004466
106685000,0.0324,0.013523,0.002678,0.000431,0.005406
106686000,0.0324,0.013523,0.002678,0.000431,0.002821
106687000,0.0324,0.013523,0.002678,0.000431,0.003526
106688000,0.0324,0.013523,0.002678,0.000431,0.003173
106689000,0.0324,0.013523,0.002678,0.000431,0.003408
106690000,0.0324,0.013523,0.002678,0.000431,0.003408
106691000,0.0324,0.013523,0.002678,0.000431,0.003408
106692000,0.0324,0.013523,0.002678,0.000431,0.005171
106693000,0.0324,0.013523,0.002678,0.000431,0.001645
106694000,0.0324,0.013523,0.002678,0.000431,0.005171
106695000,0.0324,0.013523,0.002678,0.000431,0.000940
106696000,0.0324,0.013523,0.002678,0.000431,0.000823
106697000,0.0324,0.013523,0.002678,0.000431,0.000823
106698000,0.0324,0.013523,0.002678,0.000431,0.000823
106699000,0.0324,0.013523,0.002678,0.000431,0.000823
106700000,0.0324,0.013523,0.002678,0.000431,0.000940
106701000,0.0324,0.013523,0.002678,0.000431,0.000823
106702000,0.0324,0.013523,0.002678,0.000431,0.000823
106703000,0.0324,0.013523,0.002678,0.000431,0.000705
106704000,0.0324,0.013523,0.002678,0.000431,0.000940
106705000,0.0324,0.013523,0.002678,0.000431,0.000940
106706000,0.0324,0.013523,0.002678,0.000431,0.000705
106707000,0.0324,0.013523,0.002678,0.000431,0.000940
106708000,0.0324,0.013523,0.002678,0.000431,0.000705
106709000,0.0324,0.013523,0.002678,0.000431,0.000940
106710000,0.0324,0.013523,0.002678,0.000431,0.000823
106711000,0.0324,0.013523,0.002678,0.000431,0.000823
106712000,0.0324,0.013523,0.002678,0.000431,0.000823
106713000,0.0324,0.013523,0.002678,0.000431,0.000823
106714000,0.0324,0.013523,0.002678,0.000431,0.000940
106715000,0.0324,0.013523,0.002678,0.000431,0.000823
106716000,0.0324,0.013523,0.002678,0.000431,0.000823
106717000,0.0324,0.013523,0.002678,0.000431,0.000823
106718000,0.0324,0.013523,0.002678,0.000431,0.000823
106719000,0.0324,0.013523,0.002678,0.000431,0.000823
106720000,0.0324,0.013523,0.002678,0.000431,0.000823
106721000,0.0324,0.013523,0.002678,0.000431,0.000940
106722000,0.0324,0.013523,0.002678,0.000431,0.000705
106723000,0.0324,0.013523,0.002678,0.000431,0.000823
106724000,0.0324,0.013523,0.002678,0.000431,0.000940
106725000,0.0324,0.013523,0.002678,0.000431,0.000823
106726000,0.0324,0.013523,0.002678,0.000431,0.000823
106727000,0.0324,0.013523,0.002678,0.000431,0.000823
106728000,0.0324,0.013523,0.002678,0.000431,0.000705
106729000,0.0324,0.013523,0.002678,0.000431,0.000940
106730000,0.0324,0.013523,0.002678,0.000431,0.000940
106731000,0.0324,0.013523,0.002678,0.000431,0.000705
106732000,0.0324,0.013523,0.002678,0.000431,0.000940
106733000,0.0324,0.013523,0.002678,0.000431,0.000705
106734000,0.0324,0.013523,0.002678,0.000431,0.000940
106735000,0.0324,0.013523,0.002678,0.000431,0.000940
106736000,0.0324,0.013523,0.002678,0.000431,0.000705
106737000,0.0324,0.013523,0.002678,0.000431,0.000940
106738000,0.0324,0.013523,0.002678,0.000431,0.000705
106739000,0.0324,0.013523,0.002678,0.000431,0.000940
106740000,0.0324,0.013523,0.002678,0.000431,0.000823
106741000,0.0324,0.013523,0.002678,0.000431,0.000823
106742000,0.0324,0.013523,0.002678,0.000431,0.000823
106743000,0.0324,0.013523,0.002678,0.000431,0.000823
106744000,0.0324,0.013523,0.002678,0.000431,0.000940
106745000,0.0324,0.013523,0.002678,0.000431,0.000705
106746000,0.0324,0.013523,0.002678,0.000431,0.000940
106747000,0.0324,0.013523,0.002678,0.000431,0.000823
106748000,0.0324,0.013523,0.002678,0.000431,0.000823
106749000,0.0324,0.013523,0.002678,0.000431,0.000823
106750000,0.0324,0.013523,0.002678,0.000431,0.000823
106751000,0.0324,0.013523,0.002678,0.000431,0.000940
106752000,0.0324,0.013523,0.002678,0.000431,0.001880
106753000,0.0324,0.013523,0.002678,0.000431,0.279482
106754000,0.0324,0.013523,0.002678,0.000431,0.674024
106755000,0.0324,0.013523,0.002678,0.000431,0.332957
106756000,0.0324,0.013523,0.002678,0.000431,0.131749
106757000,0.0324,0.013523,0.002678,0.000431,0.146323
106758000,0.0324,0.013523,0.002678,0.000431,0.645817
106759000,0.0324,0.013523,0.002678,0.000431,0.237995
106760000,0.0324,0.013523,0.002678,0.000431,0.249630
106761000,0.0324,0.013523,0.002678,0.000431,0.228710
106762000,0.0324,0.013523,0.002678,0.000431,0.148673
106763000,0.0324,0.013523,0.002678,0.000431,0.164187
106764000,0.0324,0.013523,0.002678,0.000431,0.135863
106765000,0.0324,0.013523,0.002678,0.000431,0.480690
106766000,0.0324,0.013523,0.002678,0.000431,0.154667
106767000,0.0324,0.013523,0.002678,0.000431,0.133630
106768000,0.0324,0.013523,0.002678,0.000431,0.117058
106769000,0.0324,0.013523,0.002678,0.000431,0.100722
106770000,0.0324,0.013523,0.002678,0.000431,0.092142
106771000,0.0324,0.013523,0.002678,0.000431,0.080389
106772000,0.0324,0.013523,0.002678,0.000431,0.081330
106773000,0.0324,0.013523,0.002678,0.000431,0.059117
106774000,0.0324,0.013523,0.002678,0.000431,0.055473
106775000,0.0324,0.013523,0.002678,0.000431,0.050537
106776000,0.0324,0.013523,0.002678,0.000431,0.047246
106777000,0.0324,0.013523,0.002678,0.000431,0.041252
106778000,0.0324,0.013523,0.002678,0.000431,0.038549
106779000,0.0324,0.013523,0.002678,0.000431,0.039019
106780000,0.0324,0.013523,0.002678,0.000431,0.042075
106781000,0.0324,0.013523,0.002678,0.000431,0.027384
106782000,0.0324,0.013523,0.002678,0.000431,0.027267
106783000,0.0324,0.013523,0.002678,0.000431,0.034788
106784000,0.0324,0.013523,0.002678,0.000431,0.021978
106785000,0.0324,0.013523,0.002678,0.000431,0.018217
106786000,0.0324,0.013523,0.002678,0.000431,0.017394
106787000,0.0324,0.013523,0.002678,0.000431,0.015396
106788000,0.0324,0.013523,0.002678,0.000431,0.015044
106789000,0.0324,0.013523,0.002678,0.000431,0.010930
106790000,0.0324,0.013523,0.002678,0.000431,0.018805
106791000,0.0324,0.013523,0.002678,0.000431,0.008345
106792000,0.0324,0.013523,0.002678,0.000431,0.007522
106793000,0.0324,0.013523,0.002678,0.000431,0.007757
106794000,0.0324,0.013523,0.002678,0.000431,0.008109
106795000,0.0324,0.013523,0.002678,0.000431,0.009050
106796000,0.0324,0.013523,0.002678,0.000431,0.005759
106797000,0.0324,0.013523,0.002678,0.000431,0.011518
106798000,0.0324,0.013523,0.002678,0.000431,0.003408
106799000,0.0324,0.013523,0.002678,0.000431,0.003291
106800000,0.0324,0.013523,0.002678,0.000431,0.005759
106801000,0.0324,0.013523,0.002678,0.000431,0.002703
106802000,0.0324,0.013523,0.002678,0.000431,0.002586
106803000,0.0324,0.013523,0.002678,0.000431,0.002703
106804000,0.0324,0.013523,0.002678,0.000431,0.002703
106805000,0.0324,0.013523,0.002678,0.000431,0.002586
106806000,0.0324,0.013523,0.002678,0.000431,0.004113
106807000,0.0324,0.013523,0.002678,0.000431,0.001880
106808000,0.0324,0.013523,0.002678,0.000431,0.003643
106809000,0.0324,0.013523,0.002678,0.000431,0.000823
106810000,0.0324,0.013523,0.002678,0.000431,0.000823
106811000,0.0324,0.013523,0.002678,0.000431,0.000940
106812000,0.0324,0.013523,0.002678,0.000431,0.202501
106813000,0.0324,0.013523,0.002678,0.000431,0.525939
106814000,0.0324,0.013523,0.002678,0.000431,0.539572
106815000,0.0324,0.013523,0.002678,0.000431,0.141857
106816000,0.0324,0.013523,0.002678,0.000431,0.137508
106817000,0.0324,0.013523,0.002678,0.000431,0.596103
106818000,0.0324,0.013523,0.002678,0.000431,0.251393
106819000,0.0324,0.013523,0.002678,0.000431,0.283125
106820000,0.0324,0.013523,0.002678,0.000431,0.261735
106821000,0.0324,0.013523,0.002678,0.000431,0.145735
106822000,0.0324,0.013523,0.002678,0.000431,0.178290
106823000,0.0324,0.013523,0.002678,0.000431,0.099429
106824000,0.0324,0.013523,0.002678,0.000431,0.478575
106825000,0.0324,0.013523,0.002678,0.000431,0.185342
106826000,0.0324,0.013523,0.002678,0.000431,0.144207
106827000,0.0324,0.013523,0.002678,0.000431,0.128458
106828000,0.0324,0.013523,0.002678,0.000431,0.121407
106829000,0.0324,0.013523,0.002678,0.000431,0.108949
106830000,0.0324,0.013523,0.002678,0.000431,0.104012
106831000,0.0324,0.013523,0.002678,0.000431,0.100252
106832000,0.0324,0.013523,0.002678,0.000431,0.079214
106833000,0.0324,0.013523,0.002678,0.000431,0.078391
106834000,0.0324,0.013523,0.002678,0.000431,0.075806
106835000,0.0324,0.013523,0.002678,0.000431,0.065228
106836000,0.0324,0.013523,0.002678,0.000431,0.062995
106837000,0.0324,0.013523,0.002678,0.000431,0.052770
106838000,0.0324,0.013523,0.002678,0.000431,0.054063
106839000,0.0324,0.013523,0.002678,0.000431,0.044191
106840000,0.0324,0.013523,0.002678,0.000431,0.042075
106841000,0.0324,0.013523,0.002678,0.000431,0.044778
106842000,0.0324,0.013523,0.002678,0.000431,0.045013
106843000,0.0324,0.013523,0.002678,0.000431,0.037844
106844000,0.0324,0.013523,0.002678,0.000431,0.037609
106845000,0.0324,0.013523,0.002678,0.000431,0.032555
106846000,0.0324,0.013523,0.002678,0.000431,0.040782
106847000,0.0324,0.013523,0.002678,0.000431,0.030557
106848000,0.0324,0.013523,0.002678,0.000431,0.027619
106849000,0.0324,0.013523,0.002678,0.000431,0.028677
106850000,0.0324,0.013523,0.002678,0.000431,0.024328
106851000,0.0324,0.013523,0.002678,0.000431,0.023271
106852000,0.0324,0.013523,0.002678,0.000431,0.027972
106853000,0.0324,0.013523,0.002678,0.000431,0.024093
106854000,0.0324,0.013523,0.002678,0.000431,0.016807
106855000,0.0324,0.013523,0.002678,0.000431,0.018452
106856000,0.0324,0.013523,0.002678,0.000431,0.016807
106857000,0.0324,0.013523,0.002678,0.000431,0.013281
106858000,0.0324,0.013523,0.002678,0.000431,0.012693
106859000,0.0324,0.013523,0.002678,0.000431,0.014691
106860000,0.0324,0.013523,0.002678,0.000431,0.009520
106861000,0.0324,0.013523,0.002678,0.000431,0.011518
106862000,0.0324,0.013523,0.002678,0.000431,0.009520
106863000,0.0324,0.013523,0.002678,0.000431,0.009755
106864000,0.0324,0.013523,0.002678,0.000431,0.008109
106865000,0.0324,0.013523,0.002678,0.000431,0.004819
106866000,0.0324,0.013523,0.002678,0.000431,0.005054
106867000,0.0324,0.013523,0.002678,0.000431,0.005171
106868000,0.0324,0.013523,0.002678,0.000431,0.004936
106869000,0.0324,0.013523,0.002678,0.000431,0.004936
106870000,0.0324,0.013523,0.002678,0.000431,0.005171
106871000,0.0324,0.013523,0.002678,0.000431,0.004819
106872000,0.0324,0.013523,0.002678,0.000431,0.005054
106873000,0.0324,0.013523,0.002678,0.000431,0.003643
106874000,0.0324,0.013523,0.002678,0.000431,0.003291
106875000,0.0324,0.013523,0.002678,0.000431,0.003291
106876000,0.0324,0.013523,0.002678,0.000431,0.003643
106877000,0.0324,0.013523,0.002678,0.000431,0.003291
106878000,0.0324,0.013523,0.002678,0.000431,0.003526
106879000,0.0324,0.013523,0.002678,0.000431,0.008697
106880000,0.0324,0.013523,0.002678,0.000431,0.001763
106881000,0.0324,0.013523,0.002678,0.000431,0.001880
106882000,0.0324,0.013523,0.002678,0.000431,0.001763
106883000,0.0324,0.013523,0.002678,0.000431,0.003056
106884000,0.0324,0.013523,0.002678,0.000431,0.000823
106885000,0.0324,0.013523,0.002678,0.000431,0.000940
106886000,0.0324,0.013523,0.002678,0.000431,0.000940
106887000,0.0324,0.013523,0.002678,0.000431,0.000823
106888000,0.0324,0.013523,0.002678,0.000431,0.000823
106889000,0.0324,0.013523,0.002678,0.000431,0.071575
106890000,0.0324,0.013523,0.002678,0.000431,0.591402
106891000,0.0324,0.013523,0.002678,0.000431,0.593400
106892000,0.0324,0.013523,0.002678,0.000431,0.132572
106893000,0.0324,0.013523,0.002678,0.000431,0.133394
106894000,0.0324,0.013523,0.002678,0.000431,0.590344
106895000,0.0324,0.013523,0.002678,0.000431,0.268317
106896000,0.0324,0.013523,0.002678,0.000431,0.259150
106897000,0.0324,0.013523,0.002678,0.000431,0.268317
106898000,0.0324,0.013523,0.002678,0.000431,0.140564
106899000,0.0324,0.013523,0.002678,0.000431,0.163834
106900000,0.0324,0.013523,0.002678,0.000431,0.107891
106901000,0.0324,0.013523,0.002678,0.000431,0.468232
106902000,0.0324,0.013523,0.002678,0.000431,0.210728
106903000,0.0324,0.013523,0.002678,0.000431,0.142679
106904000,0.0324,0.013523,0.002678,0.000431,0.124462
106905000,0.0324,0.013523,0.002678,0.000431,0.111652
106906000,0.0324,0.013523,0.002678,0.000431,0.103190
106907000,0.0324,0.013523,0.002678,0.000431,0.087794
106908000,0.0324,0.013523,0.002678,0.000431,0.080272
106909000,0.0324,0.013523,0.002678,0.000431,0.071222
106910000,0.0324,0.013523,0.002678,0.000431,0.061820
106911000,0.0324,0.013523,0.002678,0.000431,0.056061
106912000,0.0324,0.013523,0.002678,0.000431,0.050185
106913000,0.0324,0.013523,0.002678,0.000431,0.036904
106914000,0.0324,0.013523,0.002678,0.000431,0.030205
106915000,0.0324,0.013523,0.002678,0.000431,0.024446
106916000,0.0324,0.013523,0.002678,0.000431,0.021155
106917000,0.0324,0.013523,0.002678,0.000431,0.022683
106918000,0.0324,0.013523,0.002678,0.000431,0.019980
106919000,0.0324,0.013523,0.002678,0.000431,0.017512
106920000,0.0324,0.013523,0.002678,0.000431,0.011518
106921000,0.0324,0.013523,0.002678,0.000431,0.012928
106922000,0.0324,0.013523,0.002678,0.000431,0.015984
106923000,0.0324,0.013523,0.002678,0.000431,0.015749
106924000,0.0324,0.013523,0.002678,0.000431,0.004936
106925000,0.0324,0.013523,0.002678,0.000431,0.009520
106926000,0.0324,0.013523,0.002678,0.000431,0.006229
106927000,0.0324,0.013523,0.002678,0.000431,0.002821
106928000,0.0324,0.013523,0.002678,0.000431,0.002468
106929000,0.0324,0.013523,0.002678,0.000431,0.003643
106930000,0.0324,0.013523,0.002678,0.000431,0.001880
106931000,0.0324,0.013523,0.002678,0.000431,0.001410
106932000,0.0324,0.013523,0.002678,0.000431,0.001763
106933000,0.0324,0.013523,0.002678,0.000431,0.001645
106934000,0.0324,0.013523,0.002678,0.000431,0.001410
106935000,0.0324,0.013523,0.002678,0.000431,0.001645
106936000,0.0324,0.013523,0.002678,0.000431,0.001528
106937000,0.0324,0.013523,0.002678,0.000431,0.001528
106938000,0.0324,0.013523,0.002678,0.000431,0.001645
106939000,0.0324,0.013523,0.002678,0.000431,0.001645
106940000,0.0324,0.013523,0.002678,0.000431,0.001410
106941000,0.0324,0.013523,0.002678,0.000431,0.001645
106942000,0.0324,0.013523,0.002678,0.000431,0.001645
106943000,0.0324,0.013523,0.002678,0.000431,0.001410
106944000,0.0324,0.013523,0.002678,0.000431,0.001645
106945000,0.0324,0.013523,0.002678,0.000431,0.001528
106946000,0.0324,0.013523,0.002678,0.000431,0.001528
106947000,0.0324,0.013523,0.002678,0.000431,0.001645
106948000,0.0324,0.013523,0.002678,0.000431,0.001645
106949000,0.0324,0.013523,0.002678,0.000431,0.001410
106950000,0.0324,0.013523,0.002678,0.000431,0.001645
106951000,0.0324,0.013523,0.002678,0.000431,0.001410
106952000,0.0324,0.013523,0.002678,0.000431,0.001880
106953000,0.0324,0.013523,0.002678,0.000431,0.001410
106954000,0.0324,0.013523,0.002678,0.000431,0.001645
106955000,0.0324,0.013523,0.002678,0.000431,0.001410
106956000,0.0324,0.013523,0.002678,0.000431,0.001410
106957000,0.0324,0.013523,0.002678,0.000431,0.001410
106958000,0.0324,0.013523,0.002678,0.000431,0.001645
106959000,0.0324,0.013523,0.002678,0.000431,0.001645
106960000,0.0324,0.013523,0.002678,0.000431,0.054063
106961000,0.0324,0.013523,0.002678,0.000431,0.584820
106962000,0.0324,0.013523,0.002678,0.000431,0.602802
106963000,0.0324,0.013523,0.002678,0.000431,0.143032
106964000,0.0324,0.013523,0.002678,0.000431,0.134922
106965000,0.0324,0.013523,0.002678,0.000431,0.596103
106966000,0.0324,0.013523,0.002678,0.000431,0.247632
106967000,0.0324,0.013523,0.002678,0.000431,0.285241
106968000,0.0324,0.013523,0.002678,0.000431,0.270315
106969000,0.0324,0.013523,0.002678,0.000431,0.138566
106970000,0.0324,0.013523,0.002678,0.000431,0.173237
106971000,0.0324,0.013523,0.002678,0.000431,0.106245
106972000,0.0324,0.013523,0.002678,0.000431,0.468115
106973000,0.0324,0.013523,0.002678,0.000431,0.188045
106974000,0.0324,0.013523,0.002678,0.000431,0.125168
106975000,0.0324,0.013523,0.002678,0.000431,0.114825
106976000,0.0324,0.013523,0.002678,0.000431,0.094728
106977000,0.0324,0.013523,0.002678,0.000431,0.087911
106978000,0.0324,0.013523,0.002678,0.000431,0.075688
106979000,0.0324,0.013523,0.002678,0.000431,0.074983
106980000,0.0324,0.013523,0.002678,0.000431,0.070399
106981000,0.0324,0.013523,0.002678,0.000431,0.066756
106982000,0.0324,0.013523,0.002678,0.000431,0.054063
106983000,0.0324,0.013523,0.002678,0.000431,0.047951
106984000,0.0324,0.013523,0.002678,0.000431,0.046071
106985000,0.0324,0.013523,0.002678,0.000431,0.048187
106986000,0.0324,0.013523,0.002678,0.000431,0.039725
106987000,0.0324,0.013523,0.002678,0.000431,0.037374
106988000,0.0324,0.013523,0.002678,0.000431,0.033613
106989000,0.0324,0.013523,0.002678,0.000431,0.039019
106990000,0.0324,0.013523,0.002678,0.000431,0.035258
106991000,0.0324,0.013523,0.002678,0.000431,0.035376
106992000,0.0324,0.013523,0.002678,0.000431,0.027854
106993000,0.0324,0.013523,0.002678,0.000431,0.029852
106994000,0.0324,0.013523,0.002678,0.000431,0.019510
106995000,0.0324,0.013523,0.002678,0.000431,0.015866
106996000,0.0324,0.013523,0.002678,0.000431,0.015514
106997000,0.0324,0.013523,0.002678,0.000431,0.009050
106998000,0.0324,0.013523,0.002678,0.000431,0.009050
106999000,0.0324,0.013523,0.002678,0.000431,0.008815
