Cycle,Area(mm^2),PeakDynamic(W),SubthresholdLeakage(W),GateLeakage(W),RunTimeDynamic(W)
54000000,0.0324,0.013523,0.002678,0.000431,0.102955
54001000,0.0324,0.013523,0.002678,0.000431,0.066168
54002000,0.0324,0.013523,0.002678,0.000431,0.063935
54003000,0.0324,0.013523,0.002678,0.000431,0.049009
54004000,0.0324,0.013523,0.002678,0.000431,0.033496
54005000,0.0324,0.013523,0.002678,0.000431,0.026561
54006000,0.0324,0.013523,0.002678,0.000431,0.018805
54007000,0.0324,0.013523,0.002678,0.000431,0.016807
54008000,0.0324,0.013523,0.002678,0.000431,0.012693
54009000,0.0324,0.013523,0.002678,0.000431,0.014221
54010000,0.0324,0.013523,0.002678,0.000431,0.010930
54011000,0.0324,0.013523,0.002678,0.000431,0.009402
54012000,0.0324,0.013523,0.002678,0.000431,0.007522
54013000,0.0324,0.013523,0.002678,0.000431,0.009167
54014000,0.0324,0.013523,0.002678,0.000431,0.005759
54015000,0.0324,0.013523,0.002678,0.000431,0.009402
54016000,0.0324,0.013523,0.002678,0.000431,0.001763
54017000,0.0324,0.013523,0.002678,0.000431,0.001175
54018000,0.0324,0.013523,0.002678,0.000431,0.045601
54019000,0.0324,0.013523,0.002678,0.000431,0.723151
54020000,0.0324,0.013523,0.002678,0.000431,0.554615
54021000,0.0324,0.013523,0.002678,0.000431,0.135392
54022000,0.0324,0.013523,0.002678,0.000431,0.136803
54023000,0.0324,0.013523,0.002678,0.000431,0.567544
54024000,0.0324,0.013523,0.002678,0.000431,0.244459
54025000,0.0324,0.013523,0.002678,0.000431,0.310627
54026000,0.0324,0.013523,0.002678,0.000431,0.148321
54027000,0.0324,0.013523,0.002678,0.000431,0.193922
54028000,0.0324,0.013523,0.002678,0.000431,0.083915
54029000,0.0324,0.013523,0.002678,0.000431,0.563665
54030000,0.0324,0.013523,0.002678,0.000431,0.267729
54031000,0.0324,0.013523,0.002678,0.000431,0.198975
54032000,0.0324,0.013523,0.002678,0.000431,0.176292
54033000,0.0324,0.013523,0.002678,0.000431,0.138683
54034000,0.0324,0.013523,0.002678,0.000431,0.123757
54035000,0.0324,0.013523,0.002678,0.000431,0.114002
54036000,0.0324,0.013523,0.002678,0.000431,0.092142
54037000,0.0324,0.013523,0.002678,0.000431,0.065463
54038000,0.0324,0.013523,0.002678,0.000431,0.072280
54039000,0.0324,0.013523,0.002678,0.000431,0.057471
54040000,0.0324,0.013523,0.002678,0.000431,0.041840
54041000,0.0324,0.013523,0.002678,0.000431,0.031733
54042000,0.0324,0.013523,0.002678,0.000431,0.037609
54043000,0.0324,0.013523,0.002678,0.000431,0.024446
54044000,0.0324,0.013523,0.002678,0.000431,0.024916
54045000,0.0324,0.013523,0.002678,0.000431,0.015631
54046000,0.0324,0.013523,0.002678,0.000431,0.015866
54047000,0.0324,0.013523,0.002678,0.000431,0.021038
54048000,0.0324,0.013523,0.002678,0.000431,0.017629
54049000,0.0324,0.013523,0.002678,0.000431,0.009637
54050000,0.0324,0.013523,0.002678,0.000431,0.007287
54051000,0.0324,0.013523,0.002678,0.000431,0.003643
54052000,0.0324,0.013523,0.002678,0.000431,0.004819
54053000,0.0324,0.013523,0.002678,0.000431,0.004231
54054000,0.0324,0.013523,0.002678,0.000431,0.002821
54055000,0.0324,0.013523,0.002678,0.000431,0.005759
54056000,0.0324,0.013523,0.002678,0.000431,0.001763
54057000,0.0324,0.013523,0.002678,0.000431,0.001763
54058000,0.0324,0.013523,0.002678,0.000431,0.004349
54059000,0.0324,0.013523,0.002678,0.000431,0.000823
54060000,0.0324,0.013523,0.002678,0.000431,0.271138
54061000,0.0324,0.013523,0.002678,0.000431,0.759820
54062000,0.0324,0.013523,0.002678,0.000431,0.395482
54063000,0.0324,0.013523,0.002678,0.000431,0.136333
54064000,0.0324,0.013523,0.002678,0.000431,0.459418
54065000,0.0324,0.013523,0.002678,0.000431,0.311567
54066000,0.0324,0.013523,0.002678,0.000431,0.232941
54067000,0.0324,0.013523,0.002678,0.000431,0.230590
54068000,0.0324,0.013523,0.002678,0.000431,0.151729
54069000,0.0324,0.013523,0.002678,0.000431,0.173589
54070000,0.0324,0.013523,0.002678,0.000431,0.165480
54071000,0.0324,0.013523,0.002678,0.000431,0.519827
54072000,0.0324,0.013523,0.002678,0.000431,0.198975
54073000,0.0324,0.013523,0.002678,0.000431,0.163834
54074000,0.0324,0.013523,0.002678,0.000431,0.129281
54075000,0.0324,0.013523,0.002678,0.000431,0.116588
54076000,0.0324,0.013523,0.002678,0.000431,0.092847
54077000,0.0324,0.013523,0.002678,0.000431,0.079214
54078000,0.0324,0.013523,0.002678,0.000431,0.062407
54079000,0.0324,0.013523,0.002678,0.000431,0.043485
54080000,0.0324,0.013523,0.002678,0.000431,0.039019
54081000,0.0324,0.013523,0.002678,0.000431,0.032203
54082000,0.0324,0.013523,0.002678,0.000431,0.028207
54083000,0.0324,0.013523,0.002678,0.000431,0.010460
54084000,0.0324,0.013523,0.002678,0.000431,0.012928
54085000,0.0324,0.013523,0.002678,0.000431,0.007522
54086000,0.0324,0.013523,0.002678,0.000431,0.006934
54087000,0.0324,0.013523,0.002678,0.000431,0.004231
54088000,0.0324,0.013523,0.002678,0.000431,0.003291
54089000,0.0324,0.013523,0.002678,0.000431,0.008345
54090000,0.0324,0.013523,0.002678,0.000431,0.004584
54091000,0.0324,0.013523,0.002678,0.000431,0.001175
54092000,0.0324,0.013523,0.002678,0.000431,0.001058
54093000,0.0324,0.013523,0.002678,0.000431,0.000940
54094000,0.0324,0.013523,0.002678,0.000431,0.000940
54095000,0.0324,0.013523,0.002678,0.000431,0.001175
54096000,0.0324,0.013523,0.002678,0.000431,0.000940
54097000,0.0324,0.013523,0.002678,0.000431,0.001293
54098000,0.0324,0.013523,0.002678,0.000431,0.000823
54099000,0.0324,0.013523,0.002678,0.000431,0.249395
54100000,0.0324,0.013523,0.002678,0.000431,0.669676
54101000,0.0324,0.013523,0.002678,0.000431,0.454011
54102000,0.0324,0.013523,0.002678,0.000431,0.134452
54103000,0.0324,0.013523,0.002678,0.000431,0.364102
54104000,0.0324,0.013523,0.002678,0.000431,0.373152
54105000,0.0324,0.013523,0.002678,0.000431,0.299697
54106000,0.0324,0.013523,0.002678,0.000431,0.299579
54107000,0.0324,0.013523,0.002678,0.000431,0.149731
54108000,0.0324,0.013523,0.002678,0.000431,0.113532
54109000,0.0324,0.013523,0.002678,0.000431,0.384552
54110000,0.0324,0.013523,0.002678,0.000431,0.393837
54111000,0.0324,0.013523,0.002678,0.000431,0.192746
54112000,0.0324,0.013523,0.002678,0.000431,0.165127
54113000,0.0324,0.013523,0.002678,0.000431,0.151494
54114000,0.0324,0.013523,0.002678,0.000431,0.112474
54115000,0.0324,0.013523,0.002678,0.000431,0.105070
54116000,0.0324,0.013523,0.002678,0.000431,0.081917
54117000,0.0324,0.013523,0.002678,0.000431,0.068754
54118000,0.0324,0.013523,0.002678,0.000431,0.060762
54119000,0.0324,0.013523,0.002678,0.000431,0.057354
54120000,0.0324,0.013523,0.002678,0.000431,0.037256
54121000,0.0324,0.013523,0.002678,0.000431,0.039725
54122000,0.0324,0.013523,0.002678,0.000431,0.029617
54123000,0.0324,0.013523,0.002678,0.000431,0.037374
54124000,0.0324,0.013523,0.002678,0.000431,0.026444
54125000,0.0324,0.013523,0.002678,0.000431,0.014573
54126000,0.0324,0.013523,0.002678,0.000431,0.019392
54127000,0.0324,0.013523,0.002678,0.000431,0.009520
54128000,0.0324,0.013523,0.002678,0.000431,0.015866
54129000,0.0324,0.013523,0.002678,0.000431,0.004113
54130000,0.0324,0.013523,0.002678,0.000431,0.005994
54131000,0.0324,0.013523,0.002678,0.000431,0.004349
54132000,0.0324,0.013523,0.002678,0.000431,0.003291
54133000,0.0324,0.013523,0.002678,0.000431,0.002468
54134000,0.0324,0.013523,0.002678,0.000431,0.002586
54135000,0.0324,0.013523,0.002678,0.000431,0.004113
54136000,0.0324,0.013523,0.002678,0.000431,0.001175
54137000,0.0324,0.013523,0.002678,0.000431,0.000823
54138000,0.0324,0.013523,0.002678,0.000431,0.001645
54139000,0.0324,0.013523,0.002678,0.000431,0.513246
54140000,0.0324,0.013523,0.002678,0.000431,0.725266
54141000,0.0324,0.013523,0.002678,0.000431,0.179701
54142000,0.0324,0.013523,0.002678,0.000431,0.135863
54143000,0.0324,0.013523,0.002678,0.000431,0.514656
54144000,0.0324,0.013523,0.002678,0.000431,0.276544
54145000,0.0324,0.013523,0.002678,0.000431,0.244811
54146000,0.0324,0.013523,0.002678,0.000431,0.265496
54147000,0.0324,0.013523,0.002678,0.000431,0.157253
54148000,0.0324,0.013523,0.002678,0.000431,0.128223
54149000,0.0324,0.013523,0.002678,0.000431,0.291822
54150000,0.0324,0.013523,0.002678,0.000431,0.448723
54151000,0.0324,0.013523,0.002678,0.000431,0.191924
54152000,0.0324,0.013523,0.002678,0.000431,0.173472
54153000,0.0324,0.013523,0.002678,0.000431,0.144795
54154000,0.0324,0.013523,0.002678,0.000431,0.114002
54155000,0.0324,0.013523,0.002678,0.000431,0.099194
54156000,0.0324,0.013523,0.002678,0.000431,0.090849
54157000,0.0324,0.013523,0.002678,0.000431,0.064641
54158000,0.0324,0.013523,0.002678,0.000431,0.060057
54159000,0.0324,0.013523,0.002678,0.000431,0.034788
54160000,0.0324,0.013523,0.002678,0.000431,0.033496
54161000,0.0324,0.013523,0.002678,0.000431,0.019745
54162000,0.0324,0.013523,0.002678,0.000431,0.017394
54163000,0.0324,0.013523,0.002678,0.000431,0.012458
54164000,0.0324,0.013523,0.002678,0.000431,0.007992
54165000,0.0324,0.013523,0.002678,0.000431,0.006582
54166000,0.0324,0.013523,0.002678,0.000431,0.003878
54167000,0.0324,0.013523,0.002678,0.000431,0.008462
54168000,0.0324,0.013523,0.002678,0.000431,0.003291
54169000,0.0324,0.013523,0.002678,0.000431,0.003291
54170000,0.0324,0.013523,0.002678,0.000431,0.003173
54171000,0.0324,0.013523,0.002678,0.000431,0.003643
54172000,0.0324,0.013523,0.002678,0.000431,0.003173
54173000,0.0324,0.013523,0.002678,0.000431,0.006229
54174000,0.0324,0.013523,0.002678,0.000431,0.001645
54175000,0.0324,0.013523,0.002678,0.000431,0.004113
54176000,0.0324,0.013523,0.002678,0.000431,0.000823
54177000,0.0324,0.013523,0.002678,0.000431,0.002938
54178000,0.0324,0.013523,0.002678,0.000431,0.595868
54179000,0.0324,0.013523,0.002678,0.000431,0.689185
54180000,0.0324,0.013523,0.002678,0.000431,0.148203
54181000,0.0324,0.013523,0.002678,0.000431,0.136333
54182000,0.0324,0.013523,0.002678,0.000431,0.517829
54183000,0.0324,0.013523,0.002678,0.000431,0.257387
54184000,0.0324,0.013523,0.002678,0.000431,0.294526
54185000,0.0324,0.013523,0.002678,0.000431,0.217897
54186000,0.0324,0.013523,0.002678,0.000431,0.156195
54187000,0.0324,0.013523,0.002678,0.000431,0.114002
54188000,0.0324,0.013523,0.002678,0.000431,0.458595
54189000,0.0324,0.013523,0.002678,0.000431,0.315446
54190000,0.0324,0.013523,0.002678,0.000431,0.182874
54191000,0.0324,0.013523,0.002678,0.000431,0.171944
54192000,0.0324,0.013523,0.002678,0.000431,0.127048
54193000,0.0324,0.013523,0.002678,0.000431,0.107538
54194000,0.0324,0.013523,0.002678,0.000431,0.091437
54195000,0.0324,0.013523,0.002678,0.000431,0.068636
54196000,0.0324,0.013523,0.002678,0.000431,0.071105
54197000,0.0324,0.013523,0.002678,0.000431,0.041605
54198000,0.0324,0.013523,0.002678,0.000431,0.041252
54199000,0.0324,0.013523,0.002678,0.000431,0.032908
54200000,0.0324,0.013523,0.002678,0.000431,0.022800
54201000,0.0324,0.013523,0.002678,0.000431,0.009285
54202000,0.0324,0.013523,0.002678,0.000431,0.008462
54203000,0.0324,0.013523,0.002678,0.000431,0.007169
54204000,0.0324,0.013523,0.002678,0.000431,0.008109
54205000,0.0324,0.013523,0.002678,0.000431,0.008227
54206000,0.0324,0.013523,0.002678,0.000431,0.009520
54207000,0.0324,0.013523,0.002678,0.000431,0.008345
54208000,0.0324,0.013523,0.002678,0.000431,0.006229
54209000,0.0324,0.013523,0.002678,0.000431,0.003996
54210000,0.0324,0.013523,0.002678,0.000431,0.004349
54211000,0.0324,0.013523,0.002678,0.000431,0.009050
54212000,0.0324,0.013523,0.002678,0.000431,0.002703
54213000,0.0324,0.013523,0.002678,0.000431,0.002586
54214000,0.0324,0.013523,0.002678,0.000431,0.002586
54215000,0.0324,0.013523,0.002678,0.000431,0.002468
54216000,0.0324,0.013523,0.002678,0.000431,0.005994
54217000,0.0324,0.013523,0.002678,0.000431,0.000940
54218000,0.0324,0.013523,0.002678,0.000431,0.000940
54219000,0.0324,0.013523,0.002678,0.000431,0.000940
54220000,0.0324,0.013523,0.002678,0.000431,0.000823
54221000,0.0324,0.013523,0.002678,0.000431,0.001058
54222000,0.0324,0.013523,0.002678,0.000431,0.000940
54223000,0.0324,0.013523,0.002678,0.000431,0.000940
54224000,0.0324,0.013523,0.002678,0.000431,0.000940
54225000,0.0324,0.013523,0.002678,0.000431,0.000823
54226000,0.0324,0.013523,0.002678,0.000431,0.001058
54227000,0.0324,0.013523,0.002678,0.000431,0.000823
54228000,0.0324,0.013523,0.002678,0.000431,0.001058
54229000,0.0324,0.013523,0.002678,0.000431,0.000823
54230000,0.0324,0.013523,0.002678,0.000431,0.000823
54231000,0.0324,0.013523,0.002678,0.000431,0.001175
54232000,0.0324,0.013523,0.002678,0.000431,0.000705
54233000,0.0324,0.013523,0.002678,0.000431,0.001175
54234000,0.0324,0.013523,0.002678,0.000431,0.001058
54235000,0.0324,0.013523,0.002678,0.000431,0.000823
54236000,0.0324,0.013523,0.002678,0.000431,0.001175
54237000,0.0324,0.013523,0.002678,0.000431,0.000823
54238000,0.0324,0.013523,0.002678,0.000431,0.000940
54239000,0.0324,0.013523,0.002678,0.000431,0.000940
54240000,0.0324,0.013523,0.002678,0.000431,0.000823
54241000,0.0324,0.013523,0.002678,0.000431,0.000940
54242000,0.0324,0.013523,0.002678,0.000431,0.000940
54243000,0.0324,0.013523,0.002678,0.000431,0.014809
54244000,0.0324,0.013523,0.002678,0.000431,0.699645
54245000,0.0324,0.013523,0.002678,0.000431,0.603272
54246000,0.0324,0.013523,0.002678,0.000431,0.142327
54247000,0.0324,0.013523,0.002678,0.000431,0.145735
54248000,0.0324,0.013523,0.002678,0.000431,0.582117
54249000,0.0324,0.013523,0.002678,0.000431,0.275369
54250000,0.0324,0.013523,0.002678,0.000431,0.290647
54251000,0.0324,0.013523,0.002678,0.000431,0.151376
54252000,0.0324,0.013523,0.002678,0.000431,0.191453
54253000,0.0324,0.013523,0.002678,0.000431,0.087206
54254000,0.0324,0.013523,0.002678,0.000431,0.540160
54255000,0.0324,0.013523,0.002678,0.000431,0.227535
54256000,0.0324,0.013523,0.002678,0.000431,0.184989
54257000,0.0324,0.013523,0.002678,0.000431,0.152904
54258000,0.0324,0.013523,0.002678,0.000431,0.126578
54259000,0.0324,0.013523,0.002678,0.000431,0.093552
54260000,0.0324,0.013523,0.002678,0.000431,0.081800
54261000,0.0324,0.013523,0.002678,0.000431,0.070164
54262000,0.0324,0.013523,0.002678,0.000431,0.053710
54263000,0.0324,0.013523,0.002678,0.000431,0.038197
54264000,0.0324,0.013523,0.002678,0.000431,0.025621
54265000,0.0324,0.013523,0.002678,0.000431,0.022448
54266000,0.0324,0.013523,0.002678,0.000431,0.021860
54267000,0.0324,0.013523,0.002678,0.000431,0.015984
54268000,0.0324,0.013523,0.002678,0.000431,0.020215
54269000,0.0324,0.013523,0.002678,0.000431,0.015161
54270000,0.0324,0.013523,0.002678,0.000431,0.008345
54271000,0.0324,0.013523,0.002678,0.000431,0.007404
54272000,0.0324,0.013523,0.002678,0.000431,0.005289
54273000,0.0324,0.013523,0.002678,0.000431,0.009167
54274000,0.0324,0.013523,0.002678,0.000431,0.004584
54275000,0.0324,0.013523,0.002678,0.000431,0.000940
54276000,0.0324,0.013523,0.002678,0.000431,0.000705
54277000,0.0324,0.013523,0.002678,0.000431,0.000940
54278000,0.0324,0.013523,0.002678,0.000431,0.000823
54279000,0.0324,0.013523,0.002678,0.000431,0.000823
54280000,0.0324,0.013523,0.002678,0.000431,0.000940
54281000,0.0324,0.013523,0.002678,0.000431,0.000705
54282000,0.0324,0.013523,0.002678,0.000431,0.000940
54283000,0.0324,0.013523,0.002678,0.000431,0.000823
54284000,0.0324,0.013523,0.002678,0.000431,0.068166
54285000,0.0324,0.013523,0.002678,0.000431,0.720330
54286000,0.0324,0.013523,0.002678,0.000431,0.562490
54287000,0.0324,0.013523,0.002678,0.000431,0.135863
54288000,0.0324,0.013523,0.002678,0.000431,0.135510
54289000,0.0324,0.013523,0.002678,0.000431,0.546036
54290000,0.0324,0.013523,0.002678,0.000431,0.246809
54291000,0.0324,0.013523,0.002678,0.000431,0.344945
54292000,0.0324,0.013523,0.002678,0.000431,0.149496
54293000,0.0324,0.013523,0.002678,0.000431,0.191806
54294000,0.0324,0.013523,0.002678,0.000431,0.085443
54295000,0.0324,0.013523,0.002678,0.000431,0.547211
54296000,0.0324,0.013523,0.002678,0.000431,0.225889
54297000,0.0324,0.013523,0.002678,0.000431,0.184637
54298000,0.0324,0.013523,0.002678,0.000431,0.144090
54299000,0.0324,0.013523,0.002678,0.000431,0.116823
54300000,0.0324,0.013523,0.002678,0.000431,0.110712
54301000,0.0324,0.013523,0.002678,0.000431,0.077451
54302000,0.0324,0.013523,0.002678,0.000431,0.077921
54303000,0.0324,0.013523,0.002678,0.000431,0.060409
54304000,0.0324,0.013523,0.002678,0.000431,0.050420
54305000,0.0324,0.013523,0.002678,0.000431,0.034906
54306000,0.0324,0.013523,0.002678,0.000431,0.033143
54307000,0.0324,0.013523,0.002678,0.000431,0.016219
54308000,0.0324,0.013523,0.002678,0.000431,0.013751
54309000,0.0324,0.013523,0.002678,0.000431,0.014103
54310000,0.0324,0.013523,0.002678,0.000431,0.013633
54311000,0.0324,0.013523,0.002678,0.000431,0.008815
54312000,0.0324,0.013523,0.002678,0.000431,0.012576
54313000,0.0324,0.013523,0.002678,0.000431,0.007287
54314000,0.0324,0.013523,0.002678,0.000431,0.006464
54315000,0.0324,0.013523,0.002678,0.000431,0.007874
54316000,0.0324,0.013523,0.002678,0.000431,0.005641
54317000,0.0324,0.013523,0.002678,0.000431,0.006934
54318000,0.0324,0.013523,0.002678,0.000431,0.003878
54319000,0.0324,0.013523,0.002678,0.000431,0.004701
54320000,0.0324,0.013523,0.002678,0.000431,0.007992
54321000,0.0324,0.013523,0.002678,0.000431,0.003643
54322000,0.0324,0.013523,0.002678,0.000431,0.001998
54323000,0.0324,0.013523,0.002678,0.000431,0.409821
54324000,0.0324,0.013523,0.002678,0.000431,0.763463
54325000,0.0324,0.013523,0.002678,0.000431,0.227064
54326000,0.0324,0.013523,0.002678,0.000431,0.136215
54327000,0.0324,0.013523,0.002678,0.000431,0.560844
54328000,0.0324,0.013523,0.002678,0.000431,0.272078
54329000,0.0324,0.013523,0.002678,0.000431,0.286416
54330000,0.0324,0.013523,0.002678,0.000431,0.199210
54331000,0.0324,0.013523,0.002678,0.000431,0.180288
54332000,0.0324,0.013523,0.002678,0.000431,0.097666
54333000,0.0324,0.013523,0.002678,0.000431,0.528759
54334000,0.0324,0.013523,0.002678,0.000431,0.227770
54335000,0.0324,0.013523,0.002678,0.000431,0.170063
54336000,0.0324,0.013523,0.002678,0.000431,0.146793
54337000,0.0324,0.013523,0.002678,0.000431,0.135275
54338000,0.0324,0.013523,0.002678,0.000431,0.105540
54339000,0.0324,0.013523,0.002678,0.000431,0.088851
54340000,0.0324,0.013523,0.002678,0.000431,0.059234
54341000,0.0324,0.013523,0.002678,0.000431,0.051125
54342000,0.0324,0.013523,0.002678,0.000431,0.048069
54343000,0.0324,0.013523,0.002678,0.000431,0.034906
54344000,0.0324,0.013523,0.002678,0.000431,0.033378
54345000,0.0324,0.013523,0.002678,0.000431,0.021273
54346000,0.0324,0.013523,0.002678,0.000431,0.013163
54347000,0.0324,0.013523,0.002678,0.000431,0.015396
54348000,0.0324,0.013523,0.002678,0.000431,0.013868
54349000,0.0324,0.013523,0.002678,0.000431,0.007169
54350000,0.0324,0.013523,0.002678,0.000431,0.006934
54351000,0.0324,0.013523,0.002678,0.000431,0.006347
54352000,0.0324,0.013523,0.002678,0.000431,0.010225
54353000,0.0324,0.013523,0.002678,0.000431,0.002351
54354000,0.0324,0.013523,0.002678,0.000431,0.003643
54355000,0.0324,0.013523,0.002678,0.000431,0.000705
54356000,0.0324,0.013523,0.002678,0.000431,0.254919
54357000,0.0324,0.013523,0.002678,0.000431,0.736079
54358000,0.0324,0.013523,0.002678,0.000431,0.390781
54359000,0.0324,0.013523,0.002678,0.000431,0.136333
54360000,0.0324,0.013523,0.002678,0.000431,0.481630
54361000,0.0324,0.013523,0.002678,0.000431,0.302518
54362000,0.0324,0.013523,0.002678,0.000431,0.301930
54363000,0.0324,0.013523,0.002678,0.000431,0.217192
54364000,0.0324,0.013523,0.002678,0.000431,0.149848
54365000,0.0324,0.013523,0.002678,0.000431,0.126460
54366000,0.0324,0.013523,0.002678,0.000431,0.353642
54367000,0.0324,0.013523,0.002678,0.000431,0.446960
54368000,0.0324,0.013523,0.002678,0.000431,0.209905
54369000,0.0324,0.013523,0.002678,0.000431,0.187575
54370000,0.0324,0.013523,0.002678,0.000431,0.169006
54371000,0.0324,0.013523,0.002678,0.000431,0.149143
54372000,0.0324,0.013523,0.002678,0.000431,0.101779
54373000,0.0324,0.013523,0.002678,0.000431,0.095080
54374000,0.0324,0.013523,0.002678,0.000431,0.075688
54375000,0.0324,0.013523,0.002678,0.000431,0.069459
54376000,0.0324,0.013523,0.002678,0.000431,0.049597
54377000,0.0324,0.013523,0.002678,0.000431,0.052183
54378000,0.0324,0.013523,0.002678,0.000431,0.043133
54379000,0.0324,0.013523,0.002678,0.000431,0.038197
54380000,0.0324,0.013523,0.002678,0.000431,0.037727
54381000,0.0324,0.013523,0.002678,0.000431,0.033731
54382000,0.0324,0.013523,0.002678,0.000431,0.021273
54383000,0.0324,0.013523,0.002678,0.000431,0.022918
54384000,0.0324,0.013523,0.002678,0.000431,0.027737
54385000,0.0324,0.013523,0.002678,0.000431,0.011165
54386000,0.0324,0.013523,0.002678,0.000431,0.009872
54387000,0.0324,0.013523,0.002678,0.000431,0.011753
54388000,0.0324,0.013523,0.002678,0.000431,0.006464
54389000,0.0324,0.013523,0.002678,0.000431,0.009990
54390000,0.0324,0.013523,0.002678,0.000431,0.000823
54391000,0.0324,0.013523,0.002678,0.000431,0.000940
54392000,0.0324,0.013523,0.002678,0.000431,0.000823
54393000,0.0324,0.013523,0.002678,0.000431,0.000823
54394000,0.0324,0.013523,0.002678,0.000431,0.000705
54395000,0.0324,0.013523,0.002678,0.000431,0.000940
54396000,0.0324,0.013523,0.002678,0.000431,0.000940
54397000,0.0324,0.013523,0.002678,0.000431,0.000705
54398000,0.0324,0.013523,0.002678,0.000431,0.000940
54399000,0.0324,0.013523,0.002678,0.000431,0.000705
54400000,0.0324,0.013523,0.002678,0.000431,0.000940
54401000,0.0324,0.013523,0.002678,0.000431,0.000823
54402000,0.0324,0.013523,0.002678,0.000431,0.000823
54403000,0.0324,0.013523,0.002678,0.000431,0.000940
54404000,0.0324,0.013523,0.002678,0.000431,0.000705
54405000,0.0324,0.013523,0.002678,0.000431,0.000940
54406000,0.0324,0.013523,0.002678,0.000431,0.000823
54407000,0.0324,0.013523,0.002678,0.000431,0.000823
54408000,0.0324,0.013523,0.002678,0.000431,0.000823
54409000,0.0324,0.013523,0.002678,0.000431,0.000823
54410000,0.0324,0.013523,0.002678,0.000431,0.000823
54411000,0.0324,0.013523,0.002678,0.000431,0.000823
54412000,0.0324,0.013523,0.002678,0.000431,0.000940
54413000,0.0324,0.013523,0.002678,0.000431,0.000705
54414000,0.0324,0.013523,0.002678,0.000431,0.000940
54415000,0.0324,0.013523,0.002678,0.000431,0.000823
54416000,0.0324,0.013523,0.002678,0.000431,0.000823
54417000,0.0324,0.013523,0.002678,0.000431,0.000705
54418000,0.0324,0.013523,0.002678,0.000431,0.000940
54419000,0.0324,0.013523,0.002678,0.000431,0.024798
54420000,0.0324,0.013523,0.002678,0.000431,0.808829
54421000,0.0324,0.013523,0.002678,0.000431,0.573538
54422000,0.0324,0.013523,0.002678,0.000431,0.135980
54423000,0.0324,0.013523,0.002678,0.000431,0.157488
54424000,0.0324,0.013523,0.002678,0.000431,0.579884
54425000,0.0324,0.013523,0.002678,0.000431,0.234821
54426000,0.0324,0.013523,0.002678,0.000431,0.281833
54427000,0.0324,0.013523,0.002678,0.000431,0.153139
54428000,0.0324,0.013523,0.002678,0.000431,0.190866
54429000,0.0324,0.013523,0.002678,0.000431,0.093787
54430000,0.0324,0.013523,0.002678,0.000431,0.571775
54431000,0.0324,0.013523,0.002678,0.000431,0.244576
54432000,0.0324,0.013523,0.002678,0.000431,0.184989
54433000,0.0324,0.013523,0.002678,0.000431,0.165597
54434000,0.0324,0.013523,0.002678,0.000431,0.123287
54435000,0.0324,0.013523,0.002678,0.000431,0.121054
54436000,0.0324,0.013523,0.002678,0.000431,0.080154
54437000,0.0324,0.013523,0.002678,0.000431,0.049597
54438000,0.0324,0.013523,0.002678,0.000431,0.048657
54439000,0.0324,0.013523,0.002678,0.000431,0.041958
54440000,0.0324,0.013523,0.002678,0.000431,0.029382
54441000,0.0324,0.013523,0.002678,0.000431,0.027619
54442000,0.0324,0.013523,0.002678,0.000431,0.014573
54443000,0.0324,0.013523,0.002678,0.000431,0.008580
54444000,0.0324,0.013523,0.002678,0.000431,0.011870
54445000,0.0324,0.013523,0.002678,0.000431,0.009520
54446000,0.0324,0.013523,0.002678,0.000431,0.006347
54447000,0.0324,0.013523,0.002678,0.000431,0.009755
54448000,0.0324,0.013523,0.002678,0.000431,0.004466
54449000,0.0324,0.013523,0.002678,0.000431,0.004349
54450000,0.0324,0.013523,0.002678,0.000431,0.003526
54451000,0.0324,0.013523,0.002678,0.000431,0.004936
54452000,0.0324,0.013523,0.002678,0.000431,0.005759
54453000,0.0324,0.013523,0.002678,0.000431,0.002468
54454000,0.0324,0.013523,0.002678,0.000431,0.002938
54455000,0.0324,0.013523,0.002678,0.000431,0.002116
54456000,0.0324,0.013523,0.002678,0.000431,0.004349
54457000,0.0324,0.013523,0.002678,0.000431,0.001528
54458000,0.0324,0.013523,0.002678,0.000431,0.001528
54459000,0.0324,0.013523,0.002678,0.000431,0.000823
54460000,0.0324,0.013523,0.002678,0.000431,0.013986
54461000,0.0324,0.013523,0.002678,0.000431,0.776039
54462000,0.0324,0.013523,0.002678,0.000431,0.568249
54463000,0.0324,0.013523,0.002678,0.000431,0.139271
54464000,0.0324,0.013523,0.002678,0.000431,0.139271
54465000,0.0324,0.013523,0.002678,0.000431,0.540042
54466000,0.0324,0.013523,0.002678,0.000431,0.267494
54467000,0.0324,0.013523,0.002678,0.000431,0.306749
54468000,0.0324,0.013523,0.002678,0.000431,0.151024
54469000,0.0324,0.013523,0.002678,0.000431,0.191571
54470000,0.0324,0.013523,0.002678,0.000431,0.091319
54471000,0.0324,0.013523,0.002678,0.000431,0.575183
54472000,0.0324,0.013523,0.002678,0.000431,0.294056
54473000,0.0324,0.013523,0.002678,0.000431,0.225184
54474000,0.0324,0.013523,0.002678,0.000431,0.200856
54475000,0.0324,0.013523,0.002678,0.000431,0.176645
54476000,0.0324,0.013523,0.002678,0.000431,0.134452
54477000,0.0324,0.013523,0.002678,0.000431,0.114472
54478000,0.0324,0.013523,0.002678,0.000431,0.096373
54479000,0.0324,0.013523,0.002678,0.000431,0.072632
54480000,0.0324,0.013523,0.002678,0.000431,0.046659
54481000,0.0324,0.013523,0.002678,0.000431,0.038784
54482000,0.0324,0.013523,0.002678,0.000431,0.033613
54483000,0.0324,0.013523,0.002678,0.000431,0.034553
54484000,0.0324,0.013523,0.002678,0.000431,0.021625
54485000,0.0324,0.013523,0.002678,0.000431,0.019510
54486000,0.0324,0.013523,0.002678,0.000431,0.020920
54487000,0.0324,0.013523,0.002678,0.000431,0.010813
54488000,0.0324,0.013523,0.002678,0.000431,0.015984
54489000,0.0324,0.013523,0.002678,0.000431,0.011870
54490000,0.0324,0.013523,0.002678,0.000431,0.007052
54491000,0.0324,0.013523,0.002678,0.000431,0.016689
54492000,0.0324,0.013523,0.002678,0.000431,0.004113
54493000,0.0324,0.013523,0.002678,0.000431,0.004936
54494000,0.0324,0.013523,0.002678,0.000431,0.004466
54495000,0.0324,0.013523,0.002678,0.000431,0.004231
54496000,0.0324,0.013523,0.002678,0.000431,0.008815
54497000,0.0324,0.013523,0.002678,0.000431,0.002586
54498000,0.0324,0.013523,0.002678,0.000431,0.002468
54499000,0.0324,0.013523,0.002678,0.000431,0.005171
54500000,0.0324,0.013523,0.002678,0.000431,0.001763
54501000,0.0324,0.013523,0.002678,0.000431,0.004701
54502000,0.0324,0.013523,0.002678,0.000431,0.544391
54503000,0.0324,0.013523,0.002678,0.000431,0.783208
54504000,0.0324,0.013523,0.002678,0.000431,0.176762
54505000,0.0324,0.013523,0.002678,0.000431,0.137038
54506000,0.0324,0.013523,0.002678,0.000431,0.516066
54507000,0.0324,0.013523,0.002678,0.000431,0.262911
54508000,0.0324,0.013523,0.002678,0.000431,0.298639
54509000,0.0324,0.013523,0.002678,0.000431,0.169828
54510000,0.0324,0.013523,0.002678,0.000431,0.185695
54511000,0.0324,0.013523,0.002678,0.000431,0.101544
54512000,0.0324,0.013523,0.002678,0.000431,0.557671
54513000,0.0324,0.013523,0.002678,0.000431,0.241755
54514000,0.0324,0.013523,0.002678,0.000431,0.200621
54515000,0.0324,0.013523,0.002678,0.000431,0.162894
54516000,0.0324,0.013523,0.002678,0.000431,0.130221
54517000,0.0324,0.013523,0.002678,0.000431,0.124580
54518000,0.0324,0.013523,0.002678,0.000431,0.086266
54519000,0.0324,0.013523,0.002678,0.000431,0.079567
54520000,0.0324,0.013523,0.002678,0.000431,0.052065
54521000,0.0324,0.013523,0.002678,0.000431,0.037139
54522000,0.0324,0.013523,0.002678,0.000431,0.034553
54523000,0.0324,0.013523,0.002678,0.000431,0.023271
54524000,0.0324,0.013523,0.002678,0.000431,0.022330
54525000,0.0324,0.013523,0.002678,0.000431,0.019040
54526000,0.0324,0.013523,0.002678,0.000431,0.020567
54527000,0.0324,0.013523,0.002678,0.000431,0.018217
54528000,0.0324,0.013523,0.002678,0.000431,0.009872
54529000,0.0324,0.013523,0.002678,0.000431,0.005641
54530000,0.0324,0.013523,0.002678,0.000431,0.003408
54531000,0.0324,0.013523,0.002678,0.000431,0.006347
54532000,0.0324,0.013523,0.002678,0.000431,0.003526
54533000,0.0324,0.013523,0.002678,0.000431,0.001645
54534000,0.0324,0.013523,0.002678,0.000431,0.001763
54535000,0.0324,0.013523,0.002678,0.000431,0.003526
54536000,0.0324,0.013523,0.002678,0.000431,0.000940
54537000,0.0324,0.013523,0.002678,0.000431,0.000940
54538000,0.0324,0.013523,0.002678,0.000431,0.000705
54539000,0.0324,0.013523,0.002678,0.000431,0.000940
54540000,0.0324,0.013523,0.002678,0.000431,0.000705
54541000,0.0324,0.013523,0.002678,0.000431,0.000940
54542000,0.0324,0.013523,0.002678,0.000431,0.000823
54543000,0.0324,0.013523,0.002678,0.000431,0.000823
54544000,0.0324,0.013523,0.002678,0.000431,0.000823
54545000,0.0324,0.013523,0.002678,0.000431,0.000823
54546000,0.0324,0.013523,0.002678,0.000431,0.000940
54547000,0.0324,0.013523,0.002678,0.000431,0.000705
54548000,0.0324,0.013523,0.002678,0.000431,0.000940
54549000,0.0324,0.013523,0.002678,0.000431,0.000823
54550000,0.0324,0.013523,0.002678,0.000431,0.000823
54551000,0.0324,0.013523,0.002678,0.000431,0.000940
54552000,0.0324,0.013523,0.002678,0.000431,0.000705
54553000,0.0324,0.013523,0.002678,0.000431,0.000705
54554000,0.0324,0.013523,0.002678,0.000431,0.000940
54555000,0.0324,0.013523,0.002678,0.000431,0.000823
54556000,0.0324,0.013523,0.002678,0.000431,0.000823
54557000,0.0324,0.013523,0.002678,0.000431,0.000705
54558000,0.0324,0.013523,0.002678,0.000431,0.000940
54559000,0.0324,0.013523,0.002678,0.000431,0.000823
54560000,0.0324,0.013523,0.002678,0.000431,0.000823
54561000,0.0324,0.013523,0.002678,0.000431,0.000823
54562000,0.0324,0.013523,0.002678,0.000431,0.000823
54563000,0.0324,0.013523,0.002678,0.000431,0.000823
54564000,0.0324,0.013523,0.002678,0.000431,0.014103
54565000,0.0324,0.013523,0.002678,0.000431,0.777096
54566000,0.0324,0.013523,0.002678,0.000431,0.543215
54567000,0.0324,0.013523,0.002678,0.000431,0.135392
54568000,0.0324,0.013523,0.002678,0.000431,0.182051
54569000,0.0324,0.013523,0.002678,0.000431,0.556261
54570000,0.0324,0.013523,0.002678,0.000431,0.267494
54571000,0.0324,0.013523,0.002678,0.000431,0.320264
54572000,0.0324,0.013523,0.002678,0.000431,0.161954
54573000,0.0324,0.013523,0.002678,0.000431,0.101074
54574000,0.0324,0.013523,0.002678,0.000431,0.461651
54575000,0.0324,0.013523,0.002678,0.000431,0.355523
54576000,0.0324,0.013523,0.002678,0.000431,0.184049
54577000,0.0324,0.013523,0.002678,0.000431,0.142914
54578000,0.0324,0.013523,0.002678,0.000431,0.126578
54579000,0.0324,0.013523,0.002678,0.000431,0.099076
54580000,0.0324,0.013523,0.002678,0.000431,0.081565
54581000,0.0324,0.013523,0.002678,0.000431,0.068166
54582000,0.0324,0.013523,0.002678,0.000431,0.049597
54583000,0.0324,0.013523,0.002678,0.000431,0.041723
54584000,0.0324,0.013523,0.002678,0.000431,0.033143
54585000,0.0324,0.013523,0.002678,0.000431,0.028912
54586000,0.0324,0.013523,0.002678,0.000431,0.016454
54587000,0.0324,0.013523,0.002678,0.000431,0.013046
54588000,0.0324,0.013523,0.002678,0.000431,0.013281
54589000,0.0324,0.013523,0.002678,0.000431,0.007874
54590000,0.0324,0.013523,0.002678,0.000431,0.009050
54591000,0.0324,0.013523,0.002678,0.000431,0.004584
54592000,0.0324,0.013523,0.002678,0.000431,0.008227
54593000,0.0324,0.013523,0.002678,0.000431,0.003291
54594000,0.0324,0.013523,0.002678,0.000431,0.005876
54595000,0.0324,0.013523,0.002678,0.000431,0.002351
54596000,0.0324,0.013523,0.002678,0.000431,0.006111
54597000,0.0324,0.013523,0.002678,0.000431,0.001528
54598000,0.0324,0.013523,0.002678,0.000431,0.001645
54599000,0.0324,0.013523,0.002678,0.000431,0.001880
54600000,0.0324,0.013523,0.002678,0.000431,0.001528
54601000,0.0324,0.013523,0.002678,0.000431,0.001645
54602000,0.0324,0.013523,0.002678,0.000431,0.001880
54603000,0.0324,0.013523,0.002678,0.000431,0.001528
54604000,0.0324,0.013523,0.002678,0.000431,0.001763
54605000,0.0324,0.013523,0.002678,0.000431,0.001645
54606000,0.0324,0.013523,0.002678,0.000431,0.001645
54607000,0.0324,0.013523,0.002678,0.000431,0.001763
54608000,0.0324,0.013523,0.002678,0.000431,0.001645
54609000,0.0324,0.013523,0.002678,0.000431,0.001645
54610000,0.0324,0.013523,0.002678,0.000431,0.001763
54611000,0.0324,0.013523,0.002678,0.000431,0.001645
54612000,0.0324,0.013523,0.002678,0.000431,0.001763
54613000,0.0324,0.013523,0.002678,0.000431,0.001645
54614000,0.0324,0.013523,0.002678,0.000431,0.001528
54615000,0.0324,0.013523,0.002678,0.000431,0.001880
54616000,0.0324,0.013523,0.002678,0.000431,0.001763
54617000,0.0324,0.013523,0.002678,0.000431,0.001528
54618000,0.0324,0.013523,0.002678,0.000431,0.001880
54619000,0.0324,0.013523,0.002678,0.000431,0.001410
54620000,0.0324,0.013523,0.002678,0.000431,0.001880
54621000,0.0324,0.013523,0.002678,0.000431,0.001645
54622000,0.0324,0.013523,0.002678,0.000431,0.003173
54623000,0.0324,0.013523,0.002678,0.000431,0.002468
54624000,0.0324,0.013523,0.002678,0.000431,0.519592
54625000,0.0324,0.013523,0.002678,0.000431,0.743718
54626000,0.0324,0.013523,0.002678,0.000431,0.181111
54627000,0.0324,0.013523,0.002678,0.000431,0.136333
54628000,0.0324,0.013523,0.002678,0.000431,0.531345
54629000,0.0324,0.013523,0.002678,0.000431,0.232001
54630000,0.0324,0.013523,0.002678,0.000431,0.309922
54631000,0.0324,0.013523,0.002678,0.000431,0.224244
54632000,0.0324,0.013523,0.002678,0.000431,0.164422
54633000,0.0324,0.013523,0.002678,0.000431,0.118586
54634000,0.0324,0.013523,0.002678,0.000431,0.477635
54635000,0.0324,0.013523,0.002678,0.000431,0.291587
54636000,0.0324,0.013523,0.002678,0.000431,0.202971
54637000,0.0324,0.013523,0.002678,0.000431,0.169476
54638000,0.0324,0.013523,0.002678,0.000431,0.140211
54639000,0.0324,0.013523,0.002678,0.000431,0.124462
54640000,0.0324,0.013523,0.002678,0.000431,0.089204
54641000,0.0324,0.013523,0.002678,0.000431,0.076276
54642000,0.0324,0.013523,0.002678,0.000431,0.066991
54643000,0.0324,0.013523,0.002678,0.000431,0.058294
54644000,0.0324,0.013523,0.002678,0.000431,0.051595
54645000,0.0324,0.013523,0.002678,0.000431,0.033966
54646000,0.0324,0.013523,0.002678,0.000431,0.035729
54647000,0.0324,0.013523,0.002678,0.000431,0.027267
54648000,0.0324,0.013523,0.002678,0.000431,0.021743
54649000,0.0324,0.013523,0.002678,0.000431,0.020567
54650000,0.0324,0.013523,0.002678,0.000431,0.022448
54651000,0.0324,0.013523,0.002678,0.000431,0.017629
54652000,0.0324,0.013523,0.002678,0.000431,0.015749
54653000,0.0324,0.013523,0.002678,0.000431,0.017982
54654000,0.0324,0.013523,0.002678,0.000431,0.019745
54655000,0.0324,0.013523,0.002678,0.000431,0.013751
54656000,0.0324,0.013523,0.002678,0.000431,0.011518
54657000,0.0324,0.013523,0.002678,0.000431,0.007404
54658000,0.0324,0.013523,0.002678,0.000431,0.003408
54659000,0.0324,0.013523,0.002678,0.000431,0.002468
54660000,0.0324,0.013523,0.002678,0.000431,0.005289
54661000,0.0324,0.013523,0.002678,0.000431,0.001763
54662000,0.0324,0.013523,0.002678,0.000431,0.001528
54663000,0.0324,0.013523,0.002678,0.000431,0.001763
54664000,0.0324,0.013523,0.002678,0.000431,0.001645
54665000,0.0324,0.013523,0.002678,0.000431,0.001645
54666000,0.0324,0.013523,0.002678,0.000431,0.003291
54667000,0.0324,0.013523,0.002678,0.000431,0.000823
54668000,0.0324,0.013523,0.002678,0.000431,0.000823
54669000,0.0324,0.013523,0.002678,0.000431,0.000823
54670000,0.0324,0.013523,0.002678,0.000431,0.000940
54671000,0.0324,0.013523,0.002678,0.000431,0.000705
54672000,0.0324,0.013523,0.002678,0.000431,0.000940
54673000,0.0324,0.013523,0.002678,0.000431,0.000823
54674000,0.0324,0.013523,0.002678,0.000431,0.000823
54675000,0.0324,0.013523,0.002678,0.000431,0.000823
54676000,0.0324,0.013523,0.002678,0.000431,0.000823
54677000,0.0324,0.013523,0.002678,0.000431,0.000940
54678000,0.0324,0.013523,0.002678,0.000431,0.000705
54679000,0.0324,0.013523,0.002678,0.000431,0.000823
54680000,0.0324,0.013523,0.002678,0.000431,0.000940
54681000,0.0324,0.013523,0.002678,0.000431,0.000823
54682000,0.0324,0.013523,0.002678,0.000431,0.000823
54683000,0.0324,0.013523,0.002678,0.000431,0.000823
54684000,0.0324,0.013523,0.002678,0.000431,0.252451
54685000,0.0324,0.013523,0.002678,0.000431,0.701408
54686000,0.0324,0.013523,0.002678,0.000431,0.451896
54687000,0.0324,0.013523,0.002678,0.000431,0.138331
54688000,0.0324,0.013523,0.002678,0.000431,0.393719
54689000,0.0324,0.013523,0.002678,0.000431,0.395365
54690000,0.0324,0.013523,0.002678,0.000431,0.280540
54691000,0.0324,0.013523,0.002678,0.000431,0.243871
54692000,0.0324,0.013523,0.002678,0.000431,0.159016
54693000,0.0324,0.013523,0.002678,0.000431,0.110947
54694000,0.0324,0.013523,0.002678,0.000431,0.375855
54695000,0.0324,0.013523,0.002678,0.000431,0.369391
54696000,0.0324,0.013523,0.002678,0.000431,0.167948
54697000,0.0324,0.013523,0.002678,0.000431,0.153727
54698000,0.0324,0.013523,0.002678,0.000431,0.137743
54699000,0.0324,0.013523,0.002678,0.000431,0.101779
54700000,0.0324,0.013523,0.002678,0.000431,0.089204
54701000,0.0324,0.013523,0.002678,0.000431,0.074865
54702000,0.0324,0.013523,0.002678,0.000431,0.061702
54703000,0.0324,0.013523,0.002678,0.000431,0.062525
54704000,0.0324,0.013523,0.002678,0.000431,0.038197
54705000,0.0324,0.013523,0.002678,0.000431,0.027619
54706000,0.0324,0.013523,0.002678,0.000431,0.019980
54707000,0.0324,0.013523,0.002678,0.000431,0.020567
54708000,0.0324,0.013523,0.002678,0.000431,0.012105
54709000,0.0324,0.013523,0.002678,0.000431,0.006934
54710000,0.0324,0.013523,0.002678,0.000431,0.007757
54711000,0.0324,0.013523,0.002678,0.000431,0.008109
54712000,0.0324,0.013523,0.002678,0.000431,0.006699
54713000,0.0324,0.013523,0.002678,0.000431,0.003408
54714000,0.0324,0.013523,0.002678,0.000431,0.006111
54715000,0.0324,0.013523,0.002678,0.000431,0.003056
54716000,0.0324,0.013523,0.002678,0.000431,0.002468
54717000,0.0324,0.013523,0.002678,0.000431,0.002938
54718000,0.0324,0.013523,0.002678,0.000431,0.002586
54719000,0.0324,0.013523,0.002678,0.000431,0.005524
54720000,0.0324,0.013523,0.002678,0.000431,0.001058
54721000,0.0324,0.013523,0.002678,0.000431,0.000823
54722000,0.0324,0.013523,0.002678,0.000431,0.001293
54723000,0.0324,0.013523,0.002678,0.000431,0.002116
54724000,0.0324,0.013523,0.002678,0.000431,0.461181
54725000,0.0324,0.013523,0.002678,0.000431,0.751358
54726000,0.0324,0.013523,0.002678,0.000431,0.167360
54727000,0.0324,0.013523,0.002678,0.000431,0.136803
54728000,0.0324,0.013523,0.002678,0.000431,0.507369
54729000,0.0324,0.013523,0.002678,0.000431,0.237054
54730000,0.0324,0.013523,0.002678,0.000431,0.313330
54731000,0.0324,0.013523,0.002678,0.000431,0.234939
54732000,0.0324,0.013523,0.002678,0.000431,0.174059
54733000,0.0324,0.013523,0.002678,0.000431,0.104953
54734000,0.0324,0.013523,0.002678,0.000431,0.504666
54735000,0.0324,0.013523,0.002678,0.000431,0.277602
54736000,0.0324,0.013523,0.002678,0.000431,0.193922
54737000,0.0324,0.013523,0.002678,0.000431,0.181464
54738000,0.0324,0.013523,0.002678,0.000431,0.129634
54739000,0.0324,0.013523,0.002678,0.000431,0.120584
54740000,0.0324,0.013523,0.002678,0.000431,0.090497
54741000,0.0324,0.013523,0.002678,0.000431,0.070047
54742000,0.0324,0.013523,0.002678,0.000431,0.063113
54743000,0.0324,0.013523,0.002678,0.000431,0.052770
54744000,0.0324,0.013523,0.002678,0.000431,0.039372
54745000,0.0324,0.013523,0.002678,0.000431,0.025504
54746000,0.0324,0.013523,0.002678,0.000431,0.027619
54747000,0.0324,0.013523,0.002678,0.000431,0.019157
54748000,0.0324,0.013523,0.002678,0.000431,0.012340
54749000,0.0324,0.013523,0.002678,0.000431,0.012223
54750000,0.0324,0.013523,0.002678,0.000431,0.009050
54751000,0.0324,0.013523,0.002678,0.000431,0.015396
54752000,0.0324,0.013523,0.002678,0.000431,0.006582
54753000,0.0324,0.013523,0.002678,0.000431,0.006699
54754000,0.0324,0.013523,0.002678,0.000431,0.004819
54755000,0.0324,0.013523,0.002678,0.000431,0.007639
54756000,0.0324,0.013523,0.002678,0.000431,0.004113
54757000,0.0324,0.013523,0.002678,0.000431,0.005994
54758000,0.0324,0.013523,0.002678,0.000431,0.002821
54759000,0.0324,0.013523,0.002678,0.000431,0.003761
54760000,0.0324,0.013523,0.002678,0.000431,0.002938
54761000,0.0324,0.013523,0.002678,0.000431,0.003173
54762000,0.0324,0.013523,0.002678,0.000431,0.003291
54763000,0.0324,0.013523,0.002678,0.000431,0.002821
54764000,0.0324,0.013523,0.002678,0.000431,0.003643
54765000,0.0324,0.013523,0.002678,0.000431,0.002938
54766000,0.0324,0.013523,0.002678,0.000431,0.003173
54767000,0.0324,0.013523,0.002678,0.000431,0.003291
54768000,0.0324,0.013523,0.002678,0.000431,0.002938
54769000,0.0324,0.013523,0.002678,0.000431,0.003056
54770000,0.0324,0.013523,0.002678,0.000431,0.003056
54771000,0.0324,0.013523,0.002678,0.000431,0.005876
54772000,0.0324,0.013523,0.002678,0.000431,0.004113
54773000,0.0324,0.013523,0.002678,0.000431,0.000705
54774000,0.0324,0.013523,0.002678,0.000431,0.000940
54775000,0.0324,0.013523,0.002678,0.000431,0.000705
54776000,0.0324,0.013523,0.002678,0.000431,0.000940
54777000,0.0324,0.013523,0.002678,0.000431,0.000940
54778000,0.0324,0.013523,0.002678,0.000431,0.000705
54779000,0.0324,0.013523,0.002678,0.000431,0.000940
54780000,0.0324,0.013523,0.002678,0.000431,0.000705
54781000,0.0324,0.013523,0.002678,0.000431,0.000940
54782000,0.0324,0.013523,0.002678,0.000431,0.000823
54783000,0.0324,0.013523,0.002678,0.000431,0.000823
54784000,0.0324,0.013523,0.002678,0.000431,0.000823
54785000,0.0324,0.013523,0.002678,0.000431,0.000823
54786000,0.0324,0.013523,0.002678,0.000431,0.000823
54787000,0.0324,0.013523,0.002678,0.000431,0.000823
54788000,0.0324,0.013523,0.002678,0.000431,0.000940
54789000,0.0324,0.013523,0.002678,0.000431,0.000705
54790000,0.0324,0.013523,0.002678,0.000431,0.001880
54791000,0.0324,0.013523,0.002678,0.000431,0.408763
54792000,0.0324,0.013523,0.002678,0.000431,0.774393
54793000,0.0324,0.013523,0.002678,0.000431,0.228122
54794000,0.0324,0.013523,0.002678,0.000431,0.135510
54795000,0.0324,0.013523,0.002678,0.000431,0.474931
54796000,0.0324,0.013523,0.002678,0.000431,0.252568
54797000,0.0324,0.013523,0.002678,0.000431,0.255036
54798000,0.0324,0.013523,0.002678,0.000431,0.257387
54799000,0.0324,0.013523,0.002678,0.000431,0.144442
54800000,0.0324,0.013523,0.002678,0.000431,0.185224
54801000,0.0324,0.013523,0.002678,0.000431,0.140446
54802000,0.0324,0.013523,0.002678,0.000431,0.580119
54803000,0.0324,0.013523,0.002678,0.000431,0.192629
54804000,0.0324,0.013523,0.002678,0.000431,0.160426
54805000,0.0324,0.013523,0.002678,0.000431,0.134805
54806000,0.0324,0.013523,0.002678,0.000431,0.100957
54807000,0.0324,0.013523,0.002678,0.000431,0.082622
54808000,0.0324,0.013523,0.002678,0.000431,0.084738
54809000,0.0324,0.013523,0.002678,0.000431,0.060880
54810000,0.0324,0.013523,0.002678,0.000431,0.054180
54811000,0.0324,0.013523,0.002678,0.000431,0.052770
54812000,0.0324,0.013523,0.002678,0.000431,0.047364
54813000,0.0324,0.013523,0.002678,0.000431,0.040195
54814000,0.0324,0.013523,0.002678,0.000431,0.029382
54815000,0.0324,0.013523,0.002678,0.000431,0.029265
54816000,0.0324,0.013523,0.002678,0.000431,0.023506
54817000,0.0324,0.013523,0.002678,0.000431,0.026796
54818000,0.0324,0.013523,0.002678,0.000431,0.028324
54819000,0.0324,0.013523,0.002678,0.000431,0.022213
54820000,0.0324,0.013523,0.002678,0.000431,0.018452
54821000,0.0324,0.013523,0.002678,0.000431,0.013046
54822000,0.0324,0.013523,0.002678,0.000431,0.014338
54823000,0.0324,0.013523,0.002678,0.000431,0.015984
54824000,0.0324,0.013523,0.002678,0.000431,0.023623
54825000,0.0324,0.013523,0.002678,0.000431,0.010107
54826000,0.0324,0.013523,0.002678,0.000431,0.010578
54827000,0.0324,0.013523,0.002678,0.000431,0.005759
54828000,0.0324,0.013523,0.002678,0.000431,0.005876
54829000,0.0324,0.013523,0.002678,0.000431,0.005054
54830000,0.0324,0.013523,0.002678,0.000431,0.005054
54831000,0.0324,0.013523,0.002678,0.000431,0.005171
54832000,0.0324,0.013523,0.002678,0.000431,0.007639
54833000,0.0324,0.013523,0.002678,0.000431,0.006699
54834000,0.0324,0.013523,0.002678,0.000431,0.003526
54835000,0.0324,0.013523,0.002678,0.000431,0.003408
54836000,0.0324,0.013523,0.002678,0.000431,0.007757
54837000,0.0324,0.013523,0.002678,0.000431,0.002703
54838000,0.0324,0.013523,0.002678,0.000431,0.001058
54839000,0.0324,0.013523,0.002678,0.000431,0.071575
54840000,0.0324,0.013523,0.002678,0.000431,0.749830
54841000,0.0324,0.013523,0.002678,0.000431,0.561550
54842000,0.0324,0.013523,0.002678,0.000431,0.136333
54843000,0.0324,0.013523,0.002678,0.000431,0.222363
54844000,0.0324,0.013523,0.002678,0.000431,0.574008
54845000,0.0324,0.013523,0.002678,0.000431,0.263851
54846000,0.0324,0.013523,0.002678,0.000431,0.264791
54847000,0.0324,0.013523,0.002678,0.000431,0.157370
54848000,0.0324,0.013523,0.002678,0.000431,0.109419
54849000,0.0324,0.013523,0.002678,0.000431,0.410761
54850000,0.0324,0.013523,0.002678,0.000431,0.356933
54851000,0.0324,0.013523,0.002678,0.000431,0.164657
54852000,0.0324,0.013523,0.002678,0.000431,0.139153
54853000,0.0324,0.013523,0.002678,0.000431,0.130926
54854000,0.0324,0.013523,0.002678,0.000431,0.094258
54855000,0.0324,0.013523,0.002678,0.000431,0.082270
54856000,0.0324,0.013523,0.002678,0.000431,0.069812
54857000,0.0324,0.013523,0.002678,0.000431,0.055591
54858000,0.0324,0.013523,0.002678,0.000431,0.052770
54859000,0.0324,0.013523,0.002678,0.000431,0.053710
54860000,0.0324,0.013523,0.002678,0.000431,0.038079
54861000,0.0324,0.013523,0.002678,0.000431,0.029617
54862000,0.0324,0.013523,0.002678,0.000431,0.023153
54863000,0.0324,0.013523,0.002678,0.000431,0.023388
54864000,0.0324,0.013523,0.002678,0.000431,0.028207
54865000,0.0324,0.013523,0.002678,0.000431,0.018334
54866000,0.0324,0.013523,0.002678,0.000431,0.014691
54867000,0.0324,0.013523,0.002678,0.000431,0.009520
54868000,0.0324,0.013523,0.002678,0.000431,0.005524
54869000,0.0324,0.013523,0.002678,0.000431,0.006817
54870000,0.0324,0.013523,0.002678,0.000431,0.004584
54871000,0.0324,0.013523,0.002678,0.000431,0.005171
54872000,0.0324,0.013523,0.002678,0.000431,0.005876
54873000,0.0324,0.013523,0.002678,0.000431,0.006699
54874000,0.0324,0.013523,0.002678,0.000431,0.004231
54875000,0.0324,0.013523,0.002678,0.000431,0.002233
54876000,0.0324,0.013523,0.002678,0.000431,0.003526
54877000,0.0324,0.013523,0.002678,0.000431,0.000823
54878000,0.0324,0.013523,0.002678,0.000431,0.001410
54879000,0.0324,0.013523,0.002678,0.000431,0.000940
54880000,0.0324,0.013523,0.002678,0.000431,0.018922
54881000,0.0324,0.013523,0.002678,0.000431,0.751123
54882000,0.0324,0.013523,0.002678,0.000431,0.559434
54883000,0.0324,0.013523,0.002678,0.000431,0.133982
54884000,0.0324,0.013523,0.002678,0.000431,0.136215
54885000,0.0324,0.013523,0.002678,0.000431,0.546271
54886000,0.0324,0.013523,0.002678,0.000431,0.234116
54887000,0.0324,0.013523,0.002678,0.000431,0.367393
54888000,0.0324,0.013523,0.002678,0.000431,0.173472
54889000,0.0324,0.013523,0.002678,0.000431,0.178055
54890000,0.0324,0.013523,0.002678,0.000431,0.103072
54891000,0.0324,0.013523,0.002678,0.000431,0.543568
54892000,0.0324,0.013523,0.002678,0.000431,0.230825
54893000,0.0324,0.013523,0.002678,0.000431,0.183814
54894000,0.0324,0.013523,0.002678,0.000431,0.160308
54895000,0.0324,0.013523,0.002678,0.000431,0.144442
54896000,0.0324,0.013523,0.002678,0.000431,0.118939
54897000,0.0324,0.013523,0.002678,0.000431,0.098136
54898000,0.0324,0.013523,0.002678,0.000431,0.082152
54899000,0.0324,0.013523,0.002678,0.000431,0.060880
54900000,0.0324,0.013523,0.002678,0.000431,0.052653
54901000,0.0324,0.013523,0.002678,0.000431,0.043956
54902000,0.0324,0.013523,0.002678,0.000431,0.036434
54903000,0.0324,0.013523,0.002678,0.000431,0.024681
54904000,0.0324,0.013523,0.002678,0.000431,0.021390
54905000,0.0324,0.013523,0.002678,0.000431,0.017982
54906000,0.0324,0.013523,0.002678,0.000431,0.015866
54907000,0.0324,0.013523,0.002678,0.000431,0.007992
54908000,0.0324,0.013523,0.002678,0.000431,0.007639
54909000,0.0324,0.013523,0.002678,0.000431,0.014456
54910000,0.0324,0.013523,0.002678,0.000431,0.004701
54911000,0.0324,0.013523,0.002678,0.000431,0.005759
54912000,0.0324,0.013523,0.002678,0.000431,0.007522
54913000,0.0324,0.013523,0.002678,0.000431,0.007639
54914000,0.0324,0.013523,0.002678,0.000431,0.342007
54915000,0.0324,0.013523,0.002678,0.000431,0.788614
54916000,0.0324,0.013523,0.002678,0.000431,0.274076
54917000,0.0324,0.013523,0.002678,0.000431,0.136803
54918000,0.0324,0.013523,0.002678,0.000431,0.527349
54919000,0.0324,0.013523,0.002678,0.000431,0.270550
54920000,0.0324,0.013523,0.002678,0.000431,0.274663
54921000,0.0324,0.013523,0.002678,0.000431,0.229650
54922000,0.0324,0.013523,0.002678,0.000431,0.150083
54923000,0.0324,0.013523,0.002678,0.000431,0.117176
54924000,0.0324,0.013523,0.002678,0.000431,0.447195
54925000,0.0324,0.013523,0.002678,0.000431,0.306396
54926000,0.0324,0.013523,0.002678,0.000431,0.168300
54927000,0.0324,0.013523,0.002678,0.000431,0.146793
54928000,0.0324,0.013523,0.002678,0.000431,0.137038
54929000,0.0324,0.013523,0.002678,0.000431,0.135157
54930000,0.0324,0.013523,0.002678,0.000431,0.098489
54931000,0.0324,0.013523,0.002678,0.000431,0.084738
54932000,0.0324,0.013523,0.002678,0.000431,0.076628
54933000,0.0324,0.013523,0.002678,0.000431,0.065698
54934000,0.0324,0.013523,0.002678,0.000431,0.053240
54935000,0.0324,0.013523,0.002678,0.000431,0.048187
54936000,0.0324,0.013523,0.002678,0.000431,0.036669
54937000,0.0324,0.013523,0.002678,0.000431,0.041840
54938000,0.0324,0.013523,0.002678,0.000431,0.022448
54939000,0.0324,0.013523,0.002678,0.000431,0.019980
54940000,0.0324,0.013523,0.002678,0.000431,0.016336
54941000,0.0324,0.013523,0.002678,0.000431,0.022565
54942000,0.0324,0.013523,0.002678,0.000431,0.009990
54943000,0.0324,0.013523,0.002678,0.000431,0.010225
54944000,0.0324,0.013523,0.002678,0.000431,0.008345
54945000,0.0324,0.013523,0.002678,0.000431,0.007169
54946000,0.0324,0.013523,0.002678,0.000431,0.012223
54947000,0.0324,0.013523,0.002678,0.000431,0.006699
54948000,0.0324,0.013523,0.002678,0.000431,0.006699
54949000,0.0324,0.013523,0.002678,0.000431,0.007639
54950000,0.0324,0.013523,0.002678,0.000431,0.007169
54951000,0.0324,0.013523,0.002678,0.000431,0.004231
54952000,0.0324,0.013523,0.002678,0.000431,0.002586
54953000,0.0324,0.013523,0.002678,0.000431,0.003056
54954000,0.0324,0.013523,0.002678,0.000431,0.002703
54955000,0.0324,0.013523,0.002678,0.000431,0.002938
54956000,0.0324,0.013523,0.002678,0.000431,0.003173
54957000,0.0324,0.013523,0.002678,0.000431,0.003408
54958000,0.0324,0.013523,0.002678,0.000431,0.003291
54959000,0.0324,0.013523,0.002678,0.000431,0.003996
54960000,0.0324,0.013523,0.002678,0.000431,0.003878
54961000,0.0324,0.013523,0.002678,0.000431,0.004349
54962000,0.0324,0.013523,0.002678,0.000431,0.003056
54963000,0.0324,0.013523,0.002678,0.000431,0.004113
54964000,0.0324,0.013523,0.002678,0.000431,0.003996
54965000,0.0324,0.013523,0.002678,0.000431,0.003996
54966000,0.0324,0.013523,0.002678,0.000431,0.003173
54967000,0.0324,0.013523,0.002678,0.000431,0.003643
54968000,0.0324,0.013523,0.002678,0.000431,0.004584
54969000,0.0324,0.013523,0.002678,0.000431,0.003526
54970000,0.0324,0.013523,0.002678,0.000431,0.003408
54971000,0.0324,0.013523,0.002678,0.000431,0.004113
54972000,0.0324,0.013523,0.002678,0.000431,0.003878
54973000,0.0324,0.013523,0.002678,0.000431,0.003878
54974000,0.0324,0.013523,0.002678,0.000431,0.003291
54975000,0.0324,0.013523,0.002678,0.000431,0.004349
54976000,0.0324,0.013523,0.002678,0.000431,0.003408
54977000,0.0324,0.013523,0.002678,0.000431,0.004231
54978000,0.0324,0.013523,0.002678,0.000431,0.006229
54979000,0.0324,0.013523,0.002678,0.000431,0.006111
54980000,0.0324,0.013523,0.002678,0.000431,0.017864
54981000,0.0324,0.013523,0.002678,0.000431,0.733376
54982000,0.0324,0.013523,0.002678,0.000431,0.570482
54983000,0.0324,0.013523,0.002678,0.000431,0.134100
54984000,0.0324,0.013523,0.002678,0.000431,0.148791
54985000,0.0324,0.013523,0.002678,0.000431,0.621019
54986000,0.0324,0.013523,0.002678,0.000431,0.262205
54987000,0.0324,0.013523,0.002678,0.000431,0.337894
54988000,0.0324,0.013523,0.002678,0.000431,0.157253
54989000,0.0324,0.013523,0.002678,0.000431,0.161249
54990000,0.0324,0.013523,0.002678,0.000431,0.151964
54991000,0.0324,0.013523,0.002678,0.000431,0.536751
54992000,0.0324,0.013523,0.002678,0.000431,0.231648
54993000,0.0324,0.013523,0.002678,0.000431,0.189808
54994000,0.0324,0.013523,0.002678,0.000431,0.171591
54995000,0.0324,0.013523,0.002678,0.000431,0.139271
54996000,0.0324,0.013523,0.002678,0.000431,0.116000
54997000,0.0324,0.013523,0.002678,0.000431,0.097666
54998000,0.0324,0.013523,0.002678,0.000431,0.088381
54999000,0.0324,0.013523,0.002678,0.000431,0.090379
