Cycle,Area(mm^2),PeakDynamic(W),SubthresholdLeakage(W),GateLeakage(W),RunTimeDynamic(W)
6000000,0.0324,0.013523,0.002678,0.000431,0.474461
6001000,0.0324,0.013523,0.002678,0.000431,0.273723
6002000,0.0324,0.013523,0.002678,0.000431,0.150554
6003000,0.0324,0.013523,0.002678,0.000431,0.118468
6004000,0.0324,0.013523,0.002678,0.000431,0.103307
6005000,0.0324,0.013523,0.002678,0.000431,0.075923
6006000,0.0324,0.013523,0.002678,0.000431,0.051360
6007000,0.0324,0.013523,0.002678,0.000431,0.046189
6008000,0.0324,0.013523,0.002678,0.000431,0.040900
6009000,0.0324,0.013523,0.002678,0.000431,0.026209
6010000,0.0324,0.013523,0.002678,0.000431,0.015749
6011000,0.0324,0.013523,0.002678,0.000431,0.016689
6012000,0.0324,0.013523,0.002678,0.000431,0.016219
6013000,0.0324,0.013523,0.002678,0.000431,0.010578
6014000,0.0324,0.013523,0.002678,0.000431,0.009520
6015000,0.0324,0.013523,0.002678,0.000431,0.009520
6016000,0.0324,0.013523,0.002678,0.000431,0.008932
6017000,0.0324,0.013523,0.002678,0.000431,0.008462
6018000,0.0324,0.013523,0.002678,0.000431,0.007992
6019000,0.0324,0.013523,0.002678,0.000431,0.003996
6020000,0.0324,0.013523,0.002678,0.000431,0.004349
6021000,0.0324,0.013523,0.002678,0.000431,0.005524
6022000,0.0324,0.013523,0.002678,0.000431,0.003291
6023000,0.0324,0.013523,0.002678,0.000431,0.006347
6024000,0.0324,0.013523,0.002678,0.000431,0.002468
6025000,0.0324,0.013523,0.002678,0.000431,0.002586
6026000,0.0324,0.013523,0.002678,0.000431,0.002703
6027000,0.0324,0.013523,0.002678,0.000431,0.002351
6028000,0.0324,0.013523,0.002678,0.000431,0.002703
6029000,0.0324,0.013523,0.002678,0.000431,0.002586
6030000,0.0324,0.013523,0.002678,0.000431,0.002821
6031000,0.0324,0.013523,0.002678,0.000431,0.002586
6032000,0.0324,0.013523,0.002678,0.000431,0.002468
6033000,0.0324,0.013523,0.002678,0.000431,0.002703
6034000,0.0324,0.013523,0.002678,0.000431,0.002586
6035000,0.0324,0.013523,0.002678,0.000431,0.002821
6036000,0.0324,0.013523,0.002678,0.000431,0.005641
6037000,0.0324,0.013523,0.002678,0.000431,0.003526
6038000,0.0324,0.013523,0.002678,0.000431,0.000823
6039000,0.0324,0.013523,0.002678,0.000431,0.000823
6040000,0.0324,0.013523,0.002678,0.000431,0.000940
6041000,0.0324,0.013523,0.002678,0.000431,0.000940
6042000,0.0324,0.013523,0.002678,0.000431,0.000823
6043000,0.0324,0.013523,0.002678,0.000431,0.000823
6044000,0.0324,0.013523,0.002678,0.000431,0.000940
6045000,0.0324,0.013523,0.002678,0.000431,0.000940
6046000,0.0324,0.013523,0.002678,0.000431,0.000705
6047000,0.0324,0.013523,0.002678,0.000431,0.071810
6048000,0.0324,0.013523,0.002678,0.000431,0.678490
6049000,0.0324,0.013523,0.002678,0.000431,0.584468
6050000,0.0324,0.013523,0.002678,0.000431,0.131984
6051000,0.0324,0.013523,0.002678,0.000431,0.133512
6052000,0.0324,0.013523,0.002678,0.000431,0.552618
6053000,0.0324,0.013523,0.002678,0.000431,0.234351
6054000,0.0324,0.013523,0.002678,0.000431,0.255036
6055000,0.0324,0.013523,0.002678,0.000431,0.333075
6056000,0.0324,0.013523,0.002678,0.000431,0.141739
6057000,0.0324,0.013523,0.002678,0.000431,0.144090
6058000,0.0324,0.013523,0.002678,0.000431,0.107773
6059000,0.0324,0.013523,0.002678,0.000431,0.467175
6060000,0.0324,0.013523,0.002678,0.000431,0.342242
6061000,0.0324,0.013523,0.002678,0.000431,0.174764
6062000,0.0324,0.013523,0.002678,0.000431,0.141151
6063000,0.0324,0.013523,0.002678,0.000431,0.144795
6064000,0.0324,0.013523,0.002678,0.000431,0.112592
6065000,0.0324,0.013523,0.002678,0.000431,0.082622
6066000,0.0324,0.013523,0.002678,0.000431,0.074983
6067000,0.0324,0.013523,0.002678,0.000431,0.058882
6068000,0.0324,0.013523,0.002678,0.000431,0.047011
6069000,0.0324,0.013523,0.002678,0.000431,0.046776
6070000,0.0324,0.013523,0.002678,0.000431,0.041370
6071000,0.0324,0.013523,0.002678,0.000431,0.037491
6072000,0.0324,0.013523,0.002678,0.000431,0.026444
6073000,0.0324,0.013523,0.002678,0.000431,0.025386
6074000,0.0324,0.013523,0.002678,0.000431,0.033378
6075000,0.0324,0.013523,0.002678,0.000431,0.020802
6076000,0.0324,0.013523,0.002678,0.000431,0.025269
6077000,0.0324,0.013523,0.002678,0.000431,0.022565
6078000,0.0324,0.013523,0.002678,0.000431,0.014103
6079000,0.0324,0.013523,0.002678,0.000431,0.014221
6080000,0.0324,0.013523,0.002678,0.000431,0.010342
6081000,0.0324,0.013523,0.002678,0.000431,0.011400
6082000,0.0324,0.013523,0.002678,0.000431,0.013516
6083000,0.0324,0.013523,0.002678,0.000431,0.013516
6084000,0.0324,0.013523,0.002678,0.000431,0.006347
6085000,0.0324,0.013523,0.002678,0.000431,0.008227
6086000,0.0324,0.013523,0.002678,0.000431,0.004936
6087000,0.0324,0.013523,0.002678,0.000431,0.005171
6088000,0.0324,0.013523,0.002678,0.000431,0.005054
6089000,0.0324,0.013523,0.002678,0.000431,0.004936
6090000,0.0324,0.013523,0.002678,0.000431,0.007639
6091000,0.0324,0.013523,0.002678,0.000431,0.005641
6092000,0.0324,0.013523,0.002678,0.000431,0.003526
6093000,0.0324,0.013523,0.002678,0.000431,0.003056
6094000,0.0324,0.013523,0.002678,0.000431,0.001645
6095000,0.0324,0.013523,0.002678,0.000431,0.001763
6096000,0.0324,0.013523,0.002678,0.000431,0.004936
6097000,0.0324,0.013523,0.002678,0.000431,0.217075
6098000,0.0324,0.013523,0.002678,0.000431,0.724796
6099000,0.0324,0.013523,0.002678,0.000431,0.502668
6100000,0.0324,0.013523,0.002678,0.000431,0.133512
6101000,0.0324,0.013523,0.002678,0.000431,0.133982
6102000,0.0324,0.013523,0.002678,0.000431,0.605623
6103000,0.0324,0.013523,0.002678,0.000431,0.256564
6104000,0.0324,0.013523,0.002678,0.000431,0.239052
6105000,0.0324,0.013523,0.002678,0.000431,0.255624
6106000,0.0324,0.013523,0.002678,0.000431,0.147615
6107000,0.0324,0.013523,0.002678,0.000431,0.168300
6108000,0.0324,0.013523,0.002678,0.000431,0.127518
6109000,0.0324,0.013523,0.002678,0.000431,0.555321
6110000,0.0324,0.013523,0.002678,0.000431,0.210140
6111000,0.0324,0.013523,0.002678,0.000431,0.162777
6112000,0.0324,0.013523,0.002678,0.000431,0.125050
6113000,0.0324,0.013523,0.002678,0.000431,0.105423
6114000,0.0324,0.013523,0.002678,0.000431,0.087206
6115000,0.0324,0.013523,0.002678,0.000431,0.065346
6116000,0.0324,0.013523,0.002678,0.000431,0.073103
6117000,0.0324,0.013523,0.002678,0.000431,0.053240
6118000,0.0324,0.013523,0.002678,0.000431,0.037962
6119000,0.0324,0.013523,0.002678,0.000431,0.039489
6120000,0.0324,0.013523,0.002678,0.000431,0.030322
6121000,0.0324,0.013523,0.002678,0.000431,0.025386
6122000,0.0324,0.013523,0.002678,0.000431,0.023388
6123000,0.0324,0.013523,0.002678,0.000431,0.017864
6124000,0.0324,0.013523,0.002678,0.000431,0.019392
6125000,0.0324,0.013523,0.002678,0.000431,0.017747
6126000,0.0324,0.013523,0.002678,0.000431,0.012576
6127000,0.0324,0.013523,0.002678,0.000431,0.024681
6128000,0.0324,0.013523,0.002678,0.000431,0.007052
6129000,0.0324,0.013523,0.002678,0.000431,0.006699
6130000,0.0324,0.013523,0.002678,0.000431,0.009285
6131000,0.0324,0.013523,0.002678,0.000431,0.008932
6132000,0.0324,0.013523,0.002678,0.000431,0.004231
6133000,0.0324,0.013523,0.002678,0.000431,0.007639
6134000,0.0324,0.013523,0.002678,0.000431,0.003526
6135000,0.0324,0.013523,0.002678,0.000431,0.003526
6136000,0.0324,0.013523,0.002678,0.000431,0.003408
6137000,0.0324,0.013523,0.002678,0.000431,0.005994
6138000,0.0324,0.013523,0.002678,0.000431,0.002468
6139000,0.0324,0.013523,0.002678,0.000431,0.002703
6140000,0.0324,0.013523,0.002678,0.000431,0.006111
6141000,0.0324,0.013523,0.002678,0.000431,0.004349
6142000,0.0324,0.013523,0.002678,0.000431,0.000823
6143000,0.0324,0.013523,0.002678,0.000431,0.000940
6144000,0.0324,0.013523,0.002678,0.000431,0.000940
6145000,0.0324,0.013523,0.002678,0.000431,0.000940
6146000,0.0324,0.013523,0.002678,0.000431,0.000705
6147000,0.0324,0.013523,0.002678,0.000431,0.000940
6148000,0.0324,0.013523,0.002678,0.000431,0.000940
6149000,0.0324,0.013523,0.002678,0.000431,0.000823
6150000,0.0324,0.013523,0.002678,0.000431,0.000823
6151000,0.0324,0.013523,0.002678,0.000431,0.000940
6152000,0.0324,0.013523,0.002678,0.000431,0.000823
6153000,0.0324,0.013523,0.002678,0.000431,0.000940
6154000,0.0324,0.013523,0.002678,0.000431,0.071927
6155000,0.0324,0.013523,0.002678,0.000431,0.765579
6156000,0.0324,0.013523,0.002678,0.000431,0.574948
6157000,0.0324,0.013523,0.002678,0.000431,0.133512
6158000,0.0324,0.013523,0.002678,0.000431,0.133512
6159000,0.0324,0.013523,0.002678,0.000431,0.555673
6160000,0.0324,0.013523,0.002678,0.000431,0.246927
6161000,0.0324,0.013523,0.002678,0.000431,0.269610
6162000,0.0324,0.013523,0.002678,0.000431,0.265026
6163000,0.0324,0.013523,0.002678,0.000431,0.138918
6164000,0.0324,0.013523,0.002678,0.000431,0.165950
6165000,0.0324,0.013523,0.002678,0.000431,0.108479
6166000,0.0324,0.013523,0.002678,0.000431,0.503961
6167000,0.0324,0.013523,0.002678,0.000431,0.353995
6168000,0.0324,0.013523,0.002678,0.000431,0.203324
6169000,0.0324,0.013523,0.002678,0.000431,0.159251
6170000,0.0324,0.013523,0.002678,0.000431,0.142679
6171000,0.0324,0.013523,0.002678,0.000431,0.127048
6172000,0.0324,0.013523,0.002678,0.000431,0.099899
6173000,0.0324,0.013523,0.002678,0.000431,0.089439
6174000,0.0324,0.013523,0.002678,0.000431,0.087794
6175000,0.0324,0.013523,0.002678,0.000431,0.062055
6176000,0.0324,0.013523,0.002678,0.000431,0.047011
6177000,0.0324,0.013523,0.002678,0.000431,0.047129
6178000,0.0324,0.013523,0.002678,0.000431,0.034201
6179000,0.0324,0.013523,0.002678,0.000431,0.036669
6180000,0.0324,0.013523,0.002678,0.000431,0.032790
6181000,0.0324,0.013523,0.002678,0.000431,0.024211
6182000,0.0324,0.013523,0.002678,0.000431,0.030205
6183000,0.0324,0.013523,0.002678,0.000431,0.030675
6184000,0.0324,0.013523,0.002678,0.000431,0.024563
6185000,0.0324,0.013523,0.002678,0.000431,0.018687
6186000,0.0324,0.013523,0.002678,0.000431,0.008932
6187000,0.0324,0.013523,0.002678,0.000431,0.011870
6188000,0.0324,0.013523,0.002678,0.000431,0.007874
6189000,0.0324,0.013523,0.002678,0.000431,0.009990
6190000,0.0324,0.013523,0.002678,0.000431,0.007287
6191000,0.0324,0.013523,0.002678,0.000431,0.010813
6192000,0.0324,0.013523,0.002678,0.000431,0.005171
6193000,0.0324,0.013523,0.002678,0.000431,0.004936
6194000,0.0324,0.013523,0.002678,0.000431,0.007169
6195000,0.0324,0.013523,0.002678,0.000431,0.004349
6196000,0.0324,0.013523,0.002678,0.000431,0.004466
6197000,0.0324,0.013523,0.002678,0.000431,0.009285
6198000,0.0324,0.013523,0.002678,0.000431,0.006699
6199000,0.0324,0.013523,0.002678,0.000431,0.002821
6200000,0.0324,0.013523,0.002678,0.000431,0.002468
6201000,0.0324,0.013523,0.002678,0.000431,0.002468
6202000,0.0324,0.013523,0.002678,0.000431,0.005641
6203000,0.0324,0.013523,0.002678,0.000431,0.001528
6204000,0.0324,0.013523,0.002678,0.000431,0.001880
6205000,0.0324,0.013523,0.002678,0.000431,0.001410
6206000,0.0324,0.013523,0.002678,0.000431,0.001880
6207000,0.0324,0.013523,0.002678,0.000431,0.001528
6208000,0.0324,0.013523,0.002678,0.000431,0.001880
6209000,0.0324,0.013523,0.002678,0.000431,0.001645
6210000,0.0324,0.013523,0.002678,0.000431,0.001763
6211000,0.0324,0.013523,0.002678,0.000431,0.001763
6212000,0.0324,0.013523,0.002678,0.000431,0.001528
6213000,0.0324,0.013523,0.002678,0.000431,0.001880
6214000,0.0324,0.013523,0.002678,0.000431,0.001763
6215000,0.0324,0.013523,0.002678,0.000431,0.003526
6216000,0.0324,0.013523,0.002678,0.000431,0.000823
6217000,0.0324,0.013523,0.002678,0.000431,0.000823
6218000,0.0324,0.013523,0.002678,0.000431,0.000823
6219000,0.0324,0.013523,0.002678,0.000431,0.000823
6220000,0.0324,0.013523,0.002678,0.000431,0.000940
6221000,0.0324,0.013523,0.002678,0.000431,0.000823
6222000,0.0324,0.013523,0.002678,0.000431,0.000823
6223000,0.0324,0.013523,0.002678,0.000431,0.000823
6224000,0.0324,0.013523,0.002678,0.000431,0.000823
6225000,0.0324,0.013523,0.002678,0.000431,0.000823
6226000,0.0324,0.013523,0.002678,0.000431,0.000823
6227000,0.0324,0.013523,0.002678,0.000431,0.000823
6228000,0.0324,0.013523,0.002678,0.000431,0.000823
6229000,0.0324,0.013523,0.002678,0.000431,0.000940
6230000,0.0324,0.013523,0.002678,0.000431,0.000823
6231000,0.0324,0.013523,0.002678,0.000431,0.000823
6232000,0.0324,0.013523,0.002678,0.000431,0.000705
6233000,0.0324,0.013523,0.002678,0.000431,0.000940
6234000,0.0324,0.013523,0.002678,0.000431,0.000940
6235000,0.0324,0.013523,0.002678,0.000431,0.000705
6236000,0.0324,0.013523,0.002678,0.000431,0.000940
6237000,0.0324,0.013523,0.002678,0.000431,0.000705
6238000,0.0324,0.013523,0.002678,0.000431,0.000940
6239000,0.0324,0.013523,0.002678,0.000431,0.000823
6240000,0.0324,0.013523,0.002678,0.000431,0.000823
6241000,0.0324,0.013523,0.002678,0.000431,0.000940
6242000,0.0324,0.013523,0.002678,0.000431,0.000705
6243000,0.0324,0.013523,0.002678,0.000431,0.000940
6244000,0.0324,0.013523,0.002678,0.000431,0.000823
6245000,0.0324,0.013523,0.002678,0.000431,0.000823
6246000,0.0324,0.013523,0.002678,0.000431,0.000823
6247000,0.0324,0.013523,0.002678,0.000431,0.000823
6248000,0.0324,0.013523,0.002678,0.000431,0.000823
6249000,0.0324,0.013523,0.002678,0.000431,0.000823
6250000,0.0324,0.013523,0.002678,0.000431,0.000940
6251000,0.0324,0.013523,0.002678,0.000431,0.000705
6252000,0.0324,0.013523,0.002678,0.000431,0.000940
6253000,0.0324,0.013523,0.002678,0.000431,0.000823
6254000,0.0324,0.013523,0.002678,0.000431,0.000823
6255000,0.0324,0.013523,0.002678,0.000431,0.000705
6256000,0.0324,0.013523,0.002678,0.000431,0.000940
6257000,0.0324,0.013523,0.002678,0.000431,0.000940
6258000,0.0324,0.013523,0.002678,0.000431,0.000705
6259000,0.0324,0.013523,0.002678,0.000431,0.000940
6260000,0.0324,0.013523,0.002678,0.000431,0.000705
6261000,0.0324,0.013523,0.002678,0.000431,0.000940
6262000,0.0324,0.013523,0.002678,0.000431,0.000823
6263000,0.0324,0.013523,0.002678,0.000431,0.000823
6264000,0.0324,0.013523,0.002678,0.000431,0.000940
6265000,0.0324,0.013523,0.002678,0.000431,0.000705
6266000,0.0324,0.013523,0.002678,0.000431,0.000940
6267000,0.0324,0.013523,0.002678,0.000431,0.000823
6268000,0.0324,0.013523,0.002678,0.000431,0.000823
6269000,0.0324,0.013523,0.002678,0.000431,0.000823
6270000,0.0324,0.013523,0.002678,0.000431,0.000823
6271000,0.0324,0.013523,0.002678,0.000431,0.000823
6272000,0.0324,0.013523,0.002678,0.000431,0.000823
6273000,0.0324,0.013523,0.002678,0.000431,0.000940
6274000,0.0324,0.013523,0.002678,0.000431,0.000705
6275000,0.0324,0.013523,0.002678,0.000431,0.000823
6276000,0.0324,0.013523,0.002678,0.000431,0.000940
6277000,0.0324,0.013523,0.002678,0.000431,0.000823
6278000,0.0324,0.013523,0.002678,0.000431,0.000823
6279000,0.0324,0.013523,0.002678,0.000431,0.000823
6280000,0.0324,0.013523,0.002678,0.000431,0.000823
6281000,0.0324,0.013523,0.002678,0.000431,0.000823
6282000,0.0324,0.013523,0.002678,0.000431,0.000940
6283000,0.0324,0.013523,0.002678,0.000431,0.000823
6284000,0.0324,0.013523,0.002678,0.000431,0.000823
6285000,0.0324,0.013523,0.002678,0.000431,0.000705
6286000,0.0324,0.013523,0.002678,0.000431,0.000940
6287000,0.0324,0.013523,0.002678,0.000431,0.000940
6288000,0.0324,0.013523,0.002678,0.000431,0.000705
6289000,0.0324,0.013523,0.002678,0.000431,0.000940
6290000,0.0324,0.013523,0.002678,0.000431,0.000705
6291000,0.0324,0.013523,0.002678,0.000431,0.000940
6292000,0.0324,0.013523,0.002678,0.000431,0.000940
6293000,0.0324,0.013523,0.002678,0.000431,0.000705
6294000,0.0324,0.013523,0.002678,0.000431,0.000940
6295000,0.0324,0.013523,0.002678,0.000431,0.000705
6296000,0.0324,0.013523,0.002678,0.000431,0.000940
6297000,0.0324,0.013523,0.002678,0.000431,0.000823
6298000,0.0324,0.013523,0.002678,0.000431,0.000823
6299000,0.0324,0.013523,0.002678,0.000431,0.000823
6300000,0.0324,0.013523,0.002678,0.000431,0.000823
6301000,0.0324,0.013523,0.002678,0.000431,0.000940
6302000,0.0324,0.013523,0.002678,0.000431,0.000705
6303000,0.0324,0.013523,0.002678,0.000431,0.000940
6304000,0.0324,0.013523,0.002678,0.000431,0.000823
6305000,0.0324,0.013523,0.002678,0.000431,0.000823
6306000,0.0324,0.013523,0.002678,0.000431,0.000823
6307000,0.0324,0.013523,0.002678,0.000431,0.000823
6308000,0.0324,0.013523,0.002678,0.000431,0.000705
6309000,0.0324,0.013523,0.002678,0.000431,0.000940
6310000,0.0324,0.013523,0.002678,0.000431,0.000940
6311000,0.0324,0.013523,0.002678,0.000431,0.000705
6312000,0.0324,0.013523,0.002678,0.000431,0.000940
6313000,0.0324,0.013523,0.002678,0.000431,0.000940
6314000,0.0324,0.013523,0.002678,0.000431,0.000705
6315000,0.0324,0.013523,0.002678,0.000431,0.000940
6316000,0.0324,0.013523,0.002678,0.000431,0.000940
6317000,0.0324,0.013523,0.002678,0.000431,0.000823
6318000,0.0324,0.013523,0.002678,0.000431,0.000823
6319000,0.0324,0.013523,0.002678,0.000431,0.000940
6320000,0.0324,0.013523,0.002678,0.000431,0.000823
6321000,0.0324,0.013523,0.002678,0.000431,0.000940
6322000,0.0324,0.013523,0.002678,0.000431,0.001645
6323000,0.0324,0.013523,0.002678,0.000431,0.500317
6324000,0.0324,0.013523,0.002678,0.000431,0.822697
6325000,0.0324,0.013523,0.002678,0.000431,0.155020
6326000,0.0324,0.013523,0.002678,0.000431,0.133982
6327000,0.0324,0.013523,0.002678,0.000431,0.206262
6328000,0.0324,0.013523,0.002678,0.000431,0.532873
6329000,0.0324,0.013523,0.002678,0.000431,0.244576
6330000,0.0324,0.013523,0.002678,0.000431,0.329784
6331000,0.0324,0.013523,0.002678,0.000431,0.205439
6332000,0.0324,0.013523,0.002678,0.000431,0.155490
6333000,0.0324,0.013523,0.002678,0.000431,0.124110
6334000,0.0324,0.013523,0.002678,0.000431,0.276426
6335000,0.0324,0.013523,0.002678,0.000431,0.702701
6336000,0.0324,0.013523,0.002678,0.000431,0.381379
6337000,0.0324,0.013523,0.002678,0.000431,0.319794
6338000,0.0324,0.013523,0.002678,0.000431,0.254331
6339000,0.0324,0.013523,0.002678,0.000431,0.218367
6340000,0.0324,0.013523,0.002678,0.000431,0.200150
6341000,0.0324,0.013523,0.002678,0.000431,0.158310
6342000,0.0324,0.013523,0.002678,0.000431,0.127871
6343000,0.0324,0.013523,0.002678,0.000431,0.117528
6344000,0.0324,0.013523,0.002678,0.000431,0.091437
6345000,0.0324,0.013523,0.002678,0.000431,0.088029
6346000,0.0324,0.013523,0.002678,0.000431,0.079567
6347000,0.0324,0.013523,0.002678,0.000431,0.073690
6348000,0.0324,0.013523,0.002678,0.000431,0.042780
6349000,0.0324,0.013523,0.002678,0.000431,0.058412
6350000,0.0324,0.013523,0.002678,0.000431,0.039960
6351000,0.0324,0.013523,0.002678,0.000431,0.027619
6352000,0.0324,0.013523,0.002678,0.000431,0.023741
6353000,0.0324,0.013523,0.002678,0.000431,0.021038
6354000,0.0324,0.013523,0.002678,0.000431,0.021155
6355000,0.0324,0.013523,0.002678,0.000431,0.009755
6356000,0.0324,0.013523,0.002678,0.000431,0.009285
6357000,0.0324,0.013523,0.002678,0.000431,0.007874
6358000,0.0324,0.013523,0.002678,0.000431,0.004113
6359000,0.0324,0.013523,0.002678,0.000431,0.007404
6360000,0.0324,0.013523,0.002678,0.000431,0.000940
6361000,0.0324,0.013523,0.002678,0.000431,0.000823
6362000,0.0324,0.013523,0.002678,0.000431,0.000823
6363000,0.0324,0.013523,0.002678,0.000431,0.000940
6364000,0.0324,0.013523,0.002678,0.000431,0.000823
6365000,0.0324,0.013523,0.002678,0.000431,0.000940
6366000,0.0324,0.013523,0.002678,0.000431,0.000823
6367000,0.0324,0.013523,0.002678,0.000431,0.000940
6368000,0.0324,0.013523,0.002678,0.000431,0.001058
6369000,0.0324,0.013523,0.002678,0.000431,0.332370
6370000,0.0324,0.013523,0.002678,0.000431,0.952801
6371000,0.0324,0.013523,0.002678,0.000431,0.347648
6372000,0.0324,0.013523,0.002678,0.000431,0.135863
6373000,0.0324,0.013523,0.002678,0.000431,0.174294
6374000,0.0324,0.013523,0.002678,0.000431,0.534753
6375000,0.0324,0.013523,0.002678,0.000431,0.235762
6376000,0.0324,0.013523,0.002678,0.000431,0.353760
6377000,0.0324,0.013523,0.002678,0.000431,0.171826
6378000,0.0324,0.013523,0.002678,0.000431,0.151729
6379000,0.0324,0.013523,0.002678,0.000431,0.115060
6380000,0.0324,0.013523,0.002678,0.000431,0.517006
6381000,0.0324,0.013523,0.002678,0.000431,0.544743
6382000,0.0324,0.013523,0.002678,0.000431,0.354583
6383000,0.0324,0.013523,0.002678,0.000431,0.301342
6384000,0.0324,0.013523,0.002678,0.000431,0.259972
6385000,0.0324,0.013523,0.002678,0.000431,0.226712
6386000,0.0324,0.013523,0.002678,0.000431,0.182639
6387000,0.0324,0.013523,0.002678,0.000431,0.152552
6388000,0.0324,0.013523,0.002678,0.000431,0.136098
6389000,0.0324,0.013523,0.002678,0.000431,0.120584
6390000,0.0324,0.013523,0.002678,0.000431,0.114708
6391000,0.0324,0.013523,0.002678,0.000431,0.102014
6392000,0.0324,0.013523,0.002678,0.000431,0.077098
6393000,0.0324,0.013523,0.002678,0.000431,0.083798
6394000,0.0324,0.013523,0.002678,0.000431,0.059234
6395000,0.0324,0.013523,0.002678,0.000431,0.045836
6396000,0.0324,0.013523,0.002678,0.000431,0.045954
6397000,0.0324,0.013523,0.002678,0.000431,0.032085
6398000,0.0324,0.013523,0.002678,0.000431,0.024916
6399000,0.0324,0.013523,0.002678,0.000431,0.022448
6400000,0.0324,0.013523,0.002678,0.000431,0.016924
6401000,0.0324,0.013523,0.002678,0.000431,0.019745
6402000,0.0324,0.013523,0.002678,0.000431,0.016101
6403000,0.0324,0.013523,0.002678,0.000431,0.021625
6404000,0.0324,0.013523,0.002678,0.000431,0.016454
6405000,0.0324,0.013523,0.002678,0.000431,0.011635
6406000,0.0324,0.013523,0.002678,0.000431,0.010107
6407000,0.0324,0.013523,0.002678,0.000431,0.008462
6408000,0.0324,0.013523,0.002678,0.000431,0.009520
6409000,0.0324,0.013523,0.002678,0.000431,0.008109
6410000,0.0324,0.013523,0.002678,0.000431,0.008697
6411000,0.0324,0.013523,0.002678,0.000431,0.003291
6412000,0.0324,0.013523,0.002678,0.000431,0.007874
6413000,0.0324,0.013523,0.002678,0.000431,0.002821
6414000,0.0324,0.013523,0.002678,0.000431,0.002468
6415000,0.0324,0.013523,0.002678,0.000431,0.005641
6416000,0.0324,0.013523,0.002678,0.000431,0.001645
6417000,0.0324,0.013523,0.002678,0.000431,0.063935
6418000,0.0324,0.013523,0.002678,0.000431,0.892627
6419000,0.0324,0.013523,0.002678,0.000431,0.604918
6420000,0.0324,0.013523,0.002678,0.000431,0.133512
6421000,0.0324,0.013523,0.002678,0.000431,0.134570
6422000,0.0324,0.013523,0.002678,0.000431,0.578591
6423000,0.0324,0.013523,0.002678,0.000431,0.249747
6424000,0.0324,0.013523,0.002678,0.000431,0.284536
6425000,0.0324,0.013523,0.002678,0.000431,0.210493
6426000,0.0324,0.013523,0.002678,0.000431,0.160191
6427000,0.0324,0.013523,0.002678,0.000431,0.116470
6428000,0.0324,0.013523,0.002678,0.000431,0.356345
6429000,0.0324,0.013523,0.002678,0.000431,0.649578
6430000,0.0324,0.013523,0.002678,0.000431,0.372212
6431000,0.0324,0.013523,0.002678,0.000431,0.312625
6432000,0.0324,0.013523,0.002678,0.000431,0.282185
6433000,0.0324,0.013523,0.002678,0.000431,0.236232
6434000,0.0324,0.013523,0.002678,0.000431,0.213549
6435000,0.0324,0.013523,0.002678,0.000431,0.165127
6436000,0.0324,0.013523,0.002678,0.000431,0.159016
6437000,0.0324,0.013523,0.002678,0.000431,0.136098
6438000,0.0324,0.013523,0.002678,0.000431,0.114472
6439000,0.0324,0.013523,0.002678,0.000431,0.116941
6440000,0.0324,0.013523,0.002678,0.000431,0.088969
6441000,0.0324,0.013523,0.002678,0.000431,0.072867
6442000,0.0324,0.013523,0.002678,0.000431,0.066168
6443000,0.0324,0.013523,0.002678,0.000431,0.052418
6444000,0.0324,0.013523,0.002678,0.000431,0.049949
6445000,0.0324,0.013523,0.002678,0.000431,0.027149
6446000,0.0324,0.013523,0.002678,0.000431,0.032203
6447000,0.0324,0.013523,0.002678,0.000431,0.026679
6448000,0.0324,0.013523,0.002678,0.000431,0.024798
6449000,0.0324,0.013523,0.002678,0.000431,0.015631
6450000,0.0324,0.013523,0.002678,0.000431,0.022565
6451000,0.0324,0.013523,0.002678,0.000431,0.011165
6452000,0.0324,0.013523,0.002678,0.000431,0.010460
6453000,0.0324,0.013523,0.002678,0.000431,0.007639
6454000,0.0324,0.013523,0.002678,0.000431,0.008109
6455000,0.0324,0.013523,0.002678,0.000431,0.009285
6456000,0.0324,0.013523,0.002678,0.000431,0.012458
6457000,0.0324,0.013523,0.002678,0.000431,0.007757
6458000,0.0324,0.013523,0.002678,0.000431,0.007052
6459000,0.0324,0.013523,0.002678,0.000431,0.002586
6460000,0.0324,0.013523,0.002678,0.000431,0.002586
6461000,0.0324,0.013523,0.002678,0.000431,0.002468
6462000,0.0324,0.013523,0.002678,0.000431,0.002586
6463000,0.0324,0.013523,0.002678,0.000431,0.002703
6464000,0.0324,0.013523,0.002678,0.000431,0.002586
6465000,0.0324,0.013523,0.002678,0.000431,0.002703
6466000,0.0324,0.013523,0.002678,0.000431,0.002703
6467000,0.0324,0.013523,0.002678,0.000431,0.002586
6468000,0.0324,0.013523,0.002678,0.000431,0.004936
6469000,0.0324,0.013523,0.002678,0.000431,0.001645
6470000,0.0324,0.013523,0.002678,0.000431,0.004113
6471000,0.0324,0.013523,0.002678,0.000431,0.000940
6472000,0.0324,0.013523,0.002678,0.000431,0.000823
6473000,0.0324,0.013523,0.002678,0.000431,0.000823
6474000,0.0324,0.013523,0.002678,0.000431,0.071810
6475000,0.0324,0.013523,0.002678,0.000431,0.920246
6476000,0.0324,0.013523,0.002678,0.000431,0.584703
6477000,0.0324,0.013523,0.002678,0.000431,0.137861
6478000,0.0324,0.013523,0.002678,0.000431,0.142562
6479000,0.0324,0.013523,0.002678,0.000431,0.590932
6480000,0.0324,0.013523,0.002678,0.000431,0.274663
6481000,0.0324,0.013523,0.002678,0.000431,0.295348
6482000,0.0324,0.013523,0.002678,0.000431,0.197682
6483000,0.0324,0.013523,0.002678,0.000431,0.148673
6484000,0.0324,0.013523,0.002678,0.000431,0.113297
6485000,0.0324,0.013523,0.002678,0.000431,0.385257
6486000,0.0324,0.013523,0.002678,0.000431,0.629363
6487000,0.0324,0.013523,0.002678,0.000431,0.363045
6488000,0.0324,0.013523,0.002678,0.000431,0.300520
6489000,0.0324,0.013523,0.002678,0.000431,0.264203
6490000,0.0324,0.013523,0.002678,0.000431,0.224361
6491000,0.0324,0.013523,0.002678,0.000431,0.204617
6492000,0.0324,0.013523,0.002678,0.000431,0.166890
6493000,0.0324,0.013523,0.002678,0.000431,0.151024
6494000,0.0324,0.013523,0.002678,0.000431,0.144912
6495000,0.0324,0.013523,0.002678,0.000431,0.112122
6496000,0.0324,0.013523,0.002678,0.000431,0.087911
6497000,0.0324,0.013523,0.002678,0.000431,0.082622
6498000,0.0324,0.013523,0.002678,0.000431,0.062760
6499000,0.0324,0.013523,0.002678,0.000431,0.058059
6500000,0.0324,0.013523,0.002678,0.000431,0.051712
6501000,0.0324,0.013523,0.002678,0.000431,0.040665
6502000,0.0324,0.013523,0.002678,0.000431,0.038549
6503000,0.0324,0.013523,0.002678,0.000431,0.032085
6504000,0.0324,0.013523,0.002678,0.000431,0.023388
6505000,0.0324,0.013523,0.002678,0.000431,0.024563
6506000,0.0324,0.013523,0.002678,0.000431,0.024446
6507000,0.0324,0.013523,0.002678,0.000431,0.021155
6508000,0.0324,0.013523,0.002678,0.000431,0.011753
6509000,0.0324,0.013523,0.002678,0.000431,0.019392
6510000,0.0324,0.013523,0.002678,0.000431,0.012928
6511000,0.0324,0.013523,0.002678,0.000431,0.007992
6512000,0.0324,0.013523,0.002678,0.000431,0.007404
6513000,0.0324,0.013523,0.002678,0.000431,0.017747
6514000,0.0324,0.013523,0.002678,0.000431,0.005054
6515000,0.0324,0.013523,0.002678,0.000431,0.008815
6516000,0.0324,0.013523,0.002678,0.000431,0.004113
6517000,0.0324,0.013523,0.002678,0.000431,0.003878
6518000,0.0324,0.013523,0.002678,0.000431,0.003408
6519000,0.0324,0.013523,0.002678,0.000431,0.006699
6520000,0.0324,0.013523,0.002678,0.000431,0.002703
6521000,0.0324,0.013523,0.002678,0.000431,0.002703
6522000,0.0324,0.013523,0.002678,0.000431,0.002586
6523000,0.0324,0.013523,0.002678,0.000431,0.002468
6524000,0.0324,0.013523,0.002678,0.000431,0.005759
6525000,0.0324,0.013523,0.002678,0.000431,0.001880
6526000,0.0324,0.013523,0.002678,0.000431,0.001645
6527000,0.0324,0.013523,0.002678,0.000431,0.001645
6528000,0.0324,0.013523,0.002678,0.000431,0.001880
6529000,0.0324,0.013523,0.002678,0.000431,0.001763
6530000,0.0324,0.013523,0.002678,0.000431,0.001645
6531000,0.0324,0.013523,0.002678,0.000431,0.001763
6532000,0.0324,0.013523,0.002678,0.000431,0.005289
6533000,0.0324,0.013523,0.002678,0.000431,0.072515
6534000,0.0324,0.013523,0.002678,0.000431,0.876408
6535000,0.0324,0.013523,0.002678,0.000431,0.602214
6536000,0.0324,0.013523,0.002678,0.000431,0.133982
6537000,0.0324,0.013523,0.002678,0.000431,0.136333
6538000,0.0324,0.013523,0.002678,0.000431,0.615848
6539000,0.0324,0.013523,0.002678,0.000431,0.232706
6540000,0.0324,0.013523,0.002678,0.000431,0.300167
6541000,0.0324,0.013523,0.002678,0.000431,0.203206
6542000,0.0324,0.013523,0.002678,0.000431,0.154550
6543000,0.0324,0.013523,0.002678,0.000431,0.106716
6544000,0.0324,0.013523,0.002678,0.000431,0.412877
6545000,0.0324,0.013523,0.002678,0.000431,0.636650
6546000,0.0324,0.013523,0.002678,0.000431,0.375385
6547000,0.0324,0.013523,0.002678,0.000431,0.306278
6548000,0.0324,0.013523,0.002678,0.000431,0.258209
6549000,0.0324,0.013523,0.002678,0.000431,0.252686
6550000,0.0324,0.013523,0.002678,0.000431,0.208377
6551000,0.0324,0.013523,0.002678,0.000431,0.170298
6552000,0.0324,0.013523,0.002678,0.000431,0.147968
6553000,0.0324,0.013523,0.002678,0.000431,0.135980
6554000,0.0324,0.013523,0.002678,0.000431,0.107186
6555000,0.0324,0.013523,0.002678,0.000431,0.086971
6556000,0.0324,0.013523,0.002678,0.000431,0.102250
6557000,0.0324,0.013523,0.002678,0.000431,0.065816
6558000,0.0324,0.013523,0.002678,0.000431,0.046541
6559000,0.0324,0.013523,0.002678,0.000431,0.033378
6560000,0.0324,0.013523,0.002678,0.000431,0.031027
6561000,0.0324,0.013523,0.002678,0.000431,0.033143
6562000,0.0324,0.013523,0.002678,0.000431,0.032555
6563000,0.0324,0.013523,0.002678,0.000431,0.023976
6564000,0.0324,0.013523,0.002678,0.000431,0.022095
6565000,0.0324,0.013523,0.002678,0.000431,0.019275
6566000,0.0324,0.013523,0.002678,0.000431,0.014926
6567000,0.0324,0.013523,0.002678,0.000431,0.003996
6568000,0.0324,0.013523,0.002678,0.000431,0.004349
6569000,0.0324,0.013523,0.002678,0.000431,0.003996
6570000,0.0324,0.013523,0.002678,0.000431,0.007992
6571000,0.0324,0.013523,0.002678,0.000431,0.008109
6572000,0.0324,0.013523,0.002678,0.000431,0.001880
6573000,0.0324,0.013523,0.002678,0.000431,0.001763
6574000,0.0324,0.013523,0.002678,0.000431,0.001645
6575000,0.0324,0.013523,0.002678,0.000431,0.006229
6576000,0.0324,0.013523,0.002678,0.000431,0.001058
6577000,0.0324,0.013523,0.002678,0.000431,0.000823
6578000,0.0324,0.013523,0.002678,0.000431,0.000823
6579000,0.0324,0.013523,0.002678,0.000431,0.000940
6580000,0.0324,0.013523,0.002678,0.000431,0.000940
6581000,0.0324,0.013523,0.002678,0.000431,0.000705
6582000,0.0324,0.013523,0.002678,0.000431,0.000940
6583000,0.0324,0.013523,0.002678,0.000431,0.000940
6584000,0.0324,0.013523,0.002678,0.000431,0.000823
6585000,0.0324,0.013523,0.002678,0.000431,0.000940
6586000,0.0324,0.013523,0.002678,0.000431,0.000823
6587000,0.0324,0.013523,0.002678,0.000431,0.000940
6588000,0.0324,0.013523,0.002678,0.000431,0.000823
6589000,0.0324,0.013523,0.002678,0.000431,0.000823
6590000,0.0324,0.013523,0.002678,0.000431,0.074043
6591000,0.0324,0.013523,0.002678,0.000431,0.954446
6592000,0.0324,0.013523,0.002678,0.000431,0.567661
6593000,0.0324,0.013523,0.002678,0.000431,0.135392
6594000,0.0324,0.013523,0.002678,0.000431,0.134922
6595000,0.0324,0.013523,0.002678,0.000431,0.533813
6596000,0.0324,0.013523,0.002678,0.000431,0.235526
6597000,0.0324,0.013523,0.002678,0.000431,0.266084
6598000,0.0324,0.013523,0.002678,0.000431,0.223421
6599000,0.0324,0.013523,0.002678,0.000431,0.149378
6600000,0.0324,0.013523,0.002678,0.000431,0.168770
6601000,0.0324,0.013523,0.002678,0.000431,0.161249
6602000,0.0324,0.013523,0.002678,0.000431,0.753826
6603000,0.0324,0.013523,0.002678,0.000431,0.441201
6604000,0.0324,0.013523,0.002678,0.000431,0.344710
6605000,0.0324,0.013523,0.002678,0.000431,0.298639
6606000,0.0324,0.013523,0.002678,0.000431,0.253743
6607000,0.0324,0.013523,0.002678,0.000431,0.230590
6608000,0.0324,0.013523,0.002678,0.000431,0.174294
6609000,0.0324,0.013523,0.002678,0.000431,0.174647
6610000,0.0324,0.013523,0.002678,0.000431,0.152904
6611000,0.0324,0.013523,0.002678,0.000431,0.126930
6612000,0.0324,0.013523,0.002678,0.000431,0.129281
6613000,0.0324,0.013523,0.002678,0.000431,0.091907
6614000,0.0324,0.013523,0.002678,0.000431,0.087323
6615000,0.0324,0.013523,0.002678,0.000431,0.061820
6616000,0.0324,0.013523,0.002678,0.000431,0.061702
6617000,0.0324,0.013523,0.002678,0.000431,0.039607
6618000,0.0324,0.013523,0.002678,0.000431,0.039489
6619000,0.0324,0.013523,0.002678,0.000431,0.032438
6620000,0.0324,0.013523,0.002678,0.000431,0.035964
6621000,0.0324,0.013523,0.002678,0.000431,0.041370
6622000,0.0324,0.013523,0.002678,0.000431,0.014573
6623000,0.0324,0.013523,0.002678,0.000431,0.020097
6624000,0.0324,0.013523,0.002678,0.000431,0.008345
6625000,0.0324,0.013523,0.002678,0.000431,0.016101
6626000,0.0324,0.013523,0.002678,0.000431,0.013986
6627000,0.0324,0.013523,0.002678,0.000431,0.003526
6628000,0.0324,0.013523,0.002678,0.000431,0.005054
6629000,0.0324,0.013523,0.002678,0.000431,0.001763
6630000,0.0324,0.013523,0.002678,0.000431,0.001763
6631000,0.0324,0.013523,0.002678,0.000431,0.003761
6632000,0.0324,0.013523,0.002678,0.000431,0.076746
6633000,0.0324,0.013523,0.002678,0.000431,0.997109
6634000,0.0324,0.013523,0.002678,0.000431,0.582235
6635000,0.0324,0.013523,0.002678,0.000431,0.138566
6636000,0.0324,0.013523,0.002678,0.000431,0.134922
6637000,0.0324,0.013523,0.002678,0.000431,0.561785
6638000,0.0324,0.013523,0.002678,0.000431,0.227417
6639000,0.0324,0.013523,0.002678,0.000431,0.308041
6640000,0.0324,0.013523,0.002678,0.000431,0.200738
6641000,0.0324,0.013523,0.002678,0.000431,0.159956
6642000,0.0324,0.013523,0.002678,0.000431,0.113767
6643000,0.0324,0.013523,0.002678,0.000431,0.420868
6644000,0.0324,0.013523,0.002678,0.000431,0.741133
6645000,0.0324,0.013523,0.002678,0.000431,0.410526
6646000,0.0324,0.013523,0.002678,0.000431,0.329431
6647000,0.0324,0.013523,0.002678,0.000431,0.291940
6648000,0.0324,0.013523,0.002678,0.000431,0.254213
6649000,0.0324,0.013523,0.002678,0.000431,0.232941
6650000,0.0324,0.013523,0.002678,0.000431,0.184637
6651000,0.0324,0.013523,0.002678,0.000431,0.161484
6652000,0.0324,0.013523,0.002678,0.000431,0.144207
6653000,0.0324,0.013523,0.002678,0.000431,0.114943
6654000,0.0324,0.013523,0.002678,0.000431,0.097078
6655000,0.0324,0.013523,0.002678,0.000431,0.088969
6656000,0.0324,0.013523,0.002678,0.000431,0.085678
6657000,0.0324,0.013523,0.002678,0.000431,0.062525
6658000,0.0324,0.013523,0.002678,0.000431,0.048069
6659000,0.0324,0.013523,0.002678,0.000431,0.038784
6660000,0.0324,0.013523,0.002678,0.000431,0.027267
6661000,0.0324,0.013523,0.002678,0.000431,0.019157
6662000,0.0324,0.013523,0.002678,0.000431,0.015866
6663000,0.0324,0.013523,0.002678,0.000431,0.015866
6664000,0.0324,0.013523,0.002678,0.000431,0.015984
6665000,0.0324,0.013523,0.002678,0.000431,0.010342
6666000,0.0324,0.013523,0.002678,0.000431,0.015866
6667000,0.0324,0.013523,0.002678,0.000431,0.007169
6668000,0.0324,0.013523,0.002678,0.000431,0.014221
6669000,0.0324,0.013523,0.002678,0.000431,0.005054
6670000,0.0324,0.013523,0.002678,0.000431,0.005641
6671000,0.0324,0.013523,0.002678,0.000431,0.005406
6672000,0.0324,0.013523,0.002678,0.000431,0.005524
6673000,0.0324,0.013523,0.002678,0.000431,0.010342
6674000,0.0324,0.013523,0.002678,0.000431,0.005406
6675000,0.0324,0.013523,0.002678,0.000431,0.003408
6676000,0.0324,0.013523,0.002678,0.000431,0.003408
6677000,0.0324,0.013523,0.002678,0.000431,0.003291
6678000,0.0324,0.013523,0.002678,0.000431,0.003643
6679000,0.0324,0.013523,0.002678,0.000431,0.003526
6680000,0.0324,0.013523,0.002678,0.000431,0.005054
6681000,0.0324,0.013523,0.002678,0.000431,0.004466
6682000,0.0324,0.013523,0.002678,0.000431,0.002586
6683000,0.0324,0.013523,0.002678,0.000431,0.002703
6684000,0.0324,0.013523,0.002678,0.000431,0.002468
6685000,0.0324,0.013523,0.002678,0.000431,0.002586
6686000,0.0324,0.013523,0.002678,0.000431,0.002586
6687000,0.0324,0.013523,0.002678,0.000431,0.002586
6688000,0.0324,0.013523,0.002678,0.000431,0.006582
6689000,0.0324,0.013523,0.002678,0.000431,0.001528
6690000,0.0324,0.013523,0.002678,0.000431,0.001880
6691000,0.0324,0.013523,0.002678,0.000431,0.001763
6692000,0.0324,0.013523,0.002678,0.000431,0.001645
6693000,0.0324,0.013523,0.002678,0.000431,0.001645
6694000,0.0324,0.013523,0.002678,0.000431,0.001763
6695000,0.0324,0.013523,0.002678,0.000431,0.006464
6696000,0.0324,0.013523,0.002678,0.000431,0.000940
6697000,0.0324,0.013523,0.002678,0.000431,0.000940
6698000,0.0324,0.013523,0.002678,0.000431,0.000705
6699000,0.0324,0.013523,0.002678,0.000431,0.000940
6700000,0.0324,0.013523,0.002678,0.000431,0.000705
6701000,0.0324,0.013523,0.002678,0.000431,0.000940
6702000,0.0324,0.013523,0.002678,0.000431,0.000940
6703000,0.0324,0.013523,0.002678,0.000431,0.000705
6704000,0.0324,0.013523,0.002678,0.000431,0.000940
6705000,0.0324,0.013523,0.002678,0.000431,0.000705
6706000,0.0324,0.013523,0.002678,0.000431,0.000940
6707000,0.0324,0.013523,0.002678,0.000431,0.000823
6708000,0.0324,0.013523,0.002678,0.000431,0.000823
6709000,0.0324,0.013523,0.002678,0.000431,0.000823
6710000,0.0324,0.013523,0.002678,0.000431,0.000823
6711000,0.0324,0.013523,0.002678,0.000431,0.000940
6712000,0.0324,0.013523,0.002678,0.000431,0.000705
6713000,0.0324,0.013523,0.002678,0.000431,0.000940
6714000,0.0324,0.013523,0.002678,0.000431,0.000823
6715000,0.0324,0.013523,0.002678,0.000431,0.000823
6716000,0.0324,0.013523,0.002678,0.000431,0.000823
6717000,0.0324,0.013523,0.002678,0.000431,0.000823
6718000,0.0324,0.013523,0.002678,0.000431,0.000940
6719000,0.0324,0.013523,0.002678,0.000431,0.000705
6720000,0.0324,0.013523,0.002678,0.000431,0.000823
6721000,0.0324,0.013523,0.002678,0.000431,0.000823
6722000,0.0324,0.013523,0.002678,0.000431,0.000940
6723000,0.0324,0.013523,0.002678,0.000431,0.000823
6724000,0.0324,0.013523,0.002678,0.000431,0.000823
6725000,0.0324,0.013523,0.002678,0.000431,0.000705
6726000,0.0324,0.013523,0.002678,0.000431,0.000940
6727000,0.0324,0.013523,0.002678,0.000431,0.000940
6728000,0.0324,0.013523,0.002678,0.000431,0.000705
6729000,0.0324,0.013523,0.002678,0.000431,0.000940
6730000,0.0324,0.013523,0.002678,0.000431,0.000705
6731000,0.0324,0.013523,0.002678,0.000431,0.000940
6732000,0.0324,0.013523,0.002678,0.000431,0.000823
6733000,0.0324,0.013523,0.002678,0.000431,0.000823
6734000,0.0324,0.013523,0.002678,0.000431,0.000823
6735000,0.0324,0.013523,0.002678,0.000431,0.000823
6736000,0.0324,0.013523,0.002678,0.000431,0.000940
6737000,0.0324,0.013523,0.002678,0.000431,0.000823
6738000,0.0324,0.013523,0.002678,0.000431,0.000823
6739000,0.0324,0.013523,0.002678,0.000431,0.000823
6740000,0.0324,0.013523,0.002678,0.000431,0.000823
6741000,0.0324,0.013523,0.002678,0.000431,0.000823
6742000,0.0324,0.013523,0.002678,0.000431,0.000823
6743000,0.0324,0.013523,0.002678,0.000431,0.000940
6744000,0.0324,0.013523,0.002678,0.000431,0.000705
6745000,0.0324,0.013523,0.002678,0.000431,0.000940
6746000,0.0324,0.013523,0.002678,0.000431,0.000940
6747000,0.0324,0.013523,0.002678,0.000431,0.000823
6748000,0.0324,0.013523,0.002678,0.000431,0.000940
6749000,0.0324,0.013523,0.002678,0.000431,0.000940
6750000,0.0324,0.013523,0.002678,0.000431,0.002703
6751000,0.0324,0.013523,0.002678,0.000431,0.638413
6752000,0.0324,0.013523,0.002678,0.000431,1.005101
6753000,0.0324,0.013523,0.002678,0.000431,0.153139
6754000,0.0324,0.013523,0.002678,0.000431,0.135392
6755000,0.0324,0.013523,0.002678,0.000431,0.490915
6756000,0.0324,0.013523,0.002678,0.000431,0.275486
6757000,0.0324,0.013523,0.002678,0.000431,0.244929
6758000,0.0324,0.013523,0.002678,0.000431,0.253156
6759000,0.0324,0.013523,0.002678,0.000431,0.157018
6760000,0.0324,0.013523,0.002678,0.000431,0.165362
6761000,0.0324,0.013523,0.002678,0.000431,0.170651
6762000,0.0324,0.013523,0.002678,0.000431,0.534636
6763000,0.0324,0.013523,0.002678,0.000431,0.169358
6764000,0.0324,0.013523,0.002678,0.000431,0.122582
6765000,0.0324,0.013523,0.002678,0.000431,0.099429
6766000,0.0324,0.013523,0.002678,0.000431,0.071457
6767000,0.0324,0.013523,0.002678,0.000431,0.051595
6768000,0.0324,0.013523,0.002678,0.000431,0.045836
6769000,0.0324,0.013523,0.002678,0.000431,0.053123
6770000,0.0324,0.013523,0.002678,0.000431,0.042663
6771000,0.0324,0.013523,0.002678,0.000431,0.028089
6772000,0.0324,0.013523,0.002678,0.000431,0.021390
6773000,0.0324,0.013523,0.002678,0.000431,0.022213
6774000,0.0324,0.013523,0.002678,0.000431,0.024681
6775000,0.0324,0.013523,0.002678,0.000431,0.014221
6776000,0.0324,0.013523,0.002678,0.000431,0.012105
6777000,0.0324,0.013523,0.002678,0.000431,0.011283
6778000,0.0324,0.013523,0.002678,0.000431,0.006817
6779000,0.0324,0.013523,0.002678,0.000431,0.007052
6780000,0.0324,0.013523,0.002678,0.000431,0.009167
6781000,0.0324,0.013523,0.002678,0.000431,0.012105
6782000,0.0324,0.013523,0.002678,0.000431,0.004231
6783000,0.0324,0.013523,0.002678,0.000431,0.006582
6784000,0.0324,0.013523,0.002678,0.000431,0.002586
6785000,0.0324,0.013523,0.002678,0.000431,0.001998
6786000,0.0324,0.013523,0.002678,0.000431,0.000823
6787000,0.0324,0.013523,0.002678,0.000431,0.000823
6788000,0.0324,0.013523,0.002678,0.000431,0.000940
6789000,0.0324,0.013523,0.002678,0.000431,0.000940
6790000,0.0324,0.013523,0.002678,0.000431,0.000823
6791000,0.0324,0.013523,0.002678,0.000431,0.000823
6792000,0.0324,0.013523,0.002678,0.000431,0.000940
6793000,0.0324,0.013523,0.002678,0.000431,0.232236
6794000,0.0324,0.013523,0.002678,0.000431,0.693064
6795000,0.0324,0.013523,0.002678,0.000431,0.435324
6796000,0.0324,0.013523,0.002678,0.000431,0.133042
6797000,0.0324,0.013523,0.002678,0.000431,0.141269
6798000,0.0324,0.013523,0.002678,0.000431,0.574125
6799000,0.0324,0.013523,0.002678,0.000431,0.276074
6800000,0.0324,0.013523,0.002678,0.000431,0.280070
6801000,0.0324,0.013523,0.002678,0.000431,0.183226
6802000,0.0324,0.013523,0.002678,0.000431,0.152199
6803000,0.0324,0.013523,0.002678,0.000431,0.130809
6804000,0.0324,0.013523,0.002678,0.000431,0.297934
6805000,0.0324,0.013523,0.002678,0.000431,0.329196
6806000,0.0324,0.013523,0.002678,0.000431,0.060645
6807000,0.0324,0.013523,0.002678,0.000431,0.027267
6808000,0.0324,0.013523,0.002678,0.000431,0.017512
6809000,0.0324,0.013523,0.002678,0.000431,0.012576
6810000,0.0324,0.013523,0.002678,0.000431,0.014221
6811000,0.0324,0.013523,0.002678,0.000431,0.006934
6812000,0.0324,0.013523,0.002678,0.000431,0.008227
6813000,0.0324,0.013523,0.002678,0.000431,0.002938
6814000,0.0324,0.013523,0.002678,0.000431,0.003291
6815000,0.0324,0.013523,0.002678,0.000431,0.000940
6816000,0.0324,0.013523,0.002678,0.000431,0.046894
6817000,0.0324,0.013523,0.002678,0.000431,0.533460
6818000,0.0324,0.013523,0.002678,0.000431,0.578591
6819000,0.0324,0.013523,0.002678,0.000431,0.133512
6820000,0.0324,0.013523,0.002678,0.000431,0.132572
6821000,0.0324,0.013523,0.002678,0.000431,0.529112
6822000,0.0324,0.013523,0.002678,0.000431,0.241403
6823000,0.0324,0.013523,0.002678,0.000431,0.232588
6824000,0.0324,0.013523,0.002678,0.000431,0.307101
6825000,0.0324,0.013523,0.002678,0.000431,0.149026
6826000,0.0324,0.013523,0.002678,0.000431,0.163129
6827000,0.0324,0.013523,0.002678,0.000431,0.115413
6828000,0.0324,0.013523,0.002678,0.000431,0.498202
6829000,0.0324,0.013523,0.002678,0.000431,0.124580
6830000,0.0324,0.013523,0.002678,0.000431,0.041017
6831000,0.0324,0.013523,0.002678,0.000431,0.018687
6832000,0.0324,0.013523,0.002678,0.000431,0.013633
6833000,0.0324,0.013523,0.002678,0.000431,0.012576
6834000,0.0324,0.013523,0.002678,0.000431,0.007522
6835000,0.0324,0.013523,0.002678,0.000431,0.004936
6836000,0.0324,0.013523,0.002678,0.000431,0.002938
6837000,0.0324,0.013523,0.002678,0.000431,0.001528
6838000,0.0324,0.013523,0.002678,0.000431,0.003408
6839000,0.0324,0.013523,0.002678,0.000431,0.000940
6840000,0.0324,0.013523,0.002678,0.000431,0.171004
6841000,0.0324,0.013523,0.002678,0.000431,0.536869
6842000,0.0324,0.013523,0.002678,0.000431,0.498319
6843000,0.0324,0.013523,0.002678,0.000431,0.134922
6844000,0.0324,0.013523,0.002678,0.000431,0.144677
6845000,0.0324,0.013523,0.002678,0.000431,0.577769
6846000,0.0324,0.013523,0.002678,0.000431,0.276191
6847000,0.0324,0.013523,0.002678,0.000431,0.289354
6848000,0.0324,0.013523,0.002678,0.000431,0.181464
6849000,0.0324,0.013523,0.002678,0.000431,0.156900
6850000,0.0324,0.013523,0.002678,0.000431,0.119174
6851000,0.0324,0.013523,0.002678,0.000431,0.338011
6852000,0.0324,0.013523,0.002678,0.000431,0.307454
6853000,0.0324,0.013523,0.002678,0.000431,0.078039
6854000,0.0324,0.013523,0.002678,0.000431,0.052888
6855000,0.0324,0.013523,0.002678,0.000431,0.036316
6856000,0.0324,0.013523,0.002678,0.000431,0.027149
6857000,0.0324,0.013523,0.002678,0.000431,0.020567
6858000,0.0324,0.013523,0.002678,0.000431,0.019392
6859000,0.0324,0.013523,0.002678,0.000431,0.010813
6860000,0.0324,0.013523,0.002678,0.000431,0.008932
6861000,0.0324,0.013523,0.002678,0.000431,0.005524
6862000,0.0324,0.013523,0.002678,0.000431,0.006347
6863000,0.0324,0.013523,0.002678,0.000431,0.005171
6864000,0.0324,0.013523,0.002678,0.000431,0.004936
6865000,0.0324,0.013523,0.002678,0.000431,0.003526
6866000,0.0324,0.013523,0.002678,0.000431,0.003173
6867000,0.0324,0.013523,0.002678,0.000431,0.004819
6868000,0.0324,0.013523,0.002678,0.000431,0.002351
6869000,0.0324,0.013523,0.002678,0.000431,0.002703
6870000,0.0324,0.013523,0.002678,0.000431,0.005289
6871000,0.0324,0.013523,0.002678,0.000431,0.000940
6872000,0.0324,0.013523,0.002678,0.000431,0.000823
6873000,0.0324,0.013523,0.002678,0.000431,0.000823
6874000,0.0324,0.013523,0.002678,0.000431,0.000823
6875000,0.0324,0.013523,0.002678,0.000431,0.000823
6876000,0.0324,0.013523,0.002678,0.000431,0.000940
6877000,0.0324,0.013523,0.002678,0.000431,0.000940
6878000,0.0324,0.013523,0.002678,0.000431,0.000823
6879000,0.0324,0.013523,0.002678,0.000431,0.000940
6880000,0.0324,0.013523,0.002678,0.000431,0.014809
6881000,0.0324,0.013523,0.002678,0.000431,0.569659
6882000,0.0324,0.013523,0.002678,0.000431,0.576006
6883000,0.0324,0.013523,0.002678,0.000431,0.133512
6884000,0.0324,0.013523,0.002678,0.000431,0.134452
6885000,0.0324,0.013523,0.002678,0.000431,0.537456
6886000,0.0324,0.013523,0.002678,0.000431,0.230943
6887000,0.0324,0.013523,0.002678,0.000431,0.277249
6888000,0.0324,0.013523,0.002678,0.000431,0.294761
6889000,0.0324,0.013523,0.002678,0.000431,0.145617
6890000,0.0324,0.013523,0.002678,0.000431,0.164775
6891000,0.0324,0.013523,0.002678,0.000431,0.101897
6892000,0.0324,0.013523,0.002678,0.000431,0.489387
6893000,0.0324,0.013523,0.002678,0.000431,0.140094
6894000,0.0324,0.013523,0.002678,0.000431,0.052653
6895000,0.0324,0.013523,0.002678,0.000431,0.047129
6896000,0.0324,0.013523,0.002678,0.000431,0.033848
6897000,0.0324,0.013523,0.002678,0.000431,0.027031
6898000,0.0324,0.013523,0.002678,0.000431,0.019392
6899000,0.0324,0.013523,0.002678,0.000431,0.022565
6900000,0.0324,0.013523,0.002678,0.000431,0.010225
6901000,0.0324,0.013523,0.002678,0.000431,0.005641
6902000,0.0324,0.013523,0.002678,0.000431,0.006817
6903000,0.0324,0.013523,0.002678,0.000431,0.002468
6904000,0.0324,0.013523,0.002678,0.000431,0.002586
6905000,0.0324,0.013523,0.002678,0.000431,0.003761
6906000,0.0324,0.013523,0.002678,0.000431,0.002351
6907000,0.0324,0.013523,0.002678,0.000431,0.000940
6908000,0.0324,0.013523,0.002678,0.000431,0.000823
6909000,0.0324,0.013523,0.002678,0.000431,0.000940
6910000,0.0324,0.013523,0.002678,0.000431,0.000823
6911000,0.0324,0.013523,0.002678,0.000431,0.000940
6912000,0.0324,0.013523,0.002678,0.000431,0.000823
6913000,0.0324,0.013523,0.002678,0.000431,0.000823
6914000,0.0324,0.013523,0.002678,0.000431,0.000940
6915000,0.0324,0.013523,0.002678,0.000431,0.000940
6916000,0.0324,0.013523,0.002678,0.000431,0.016219
6917000,0.0324,0.013523,0.002678,0.000431,0.582352
6918000,0.0324,0.013523,0.002678,0.000431,0.571892
6919000,0.0324,0.013523,0.002678,0.000431,0.132572
6920000,0.0324,0.013523,0.002678,0.000431,0.135863
6921000,0.0324,0.013523,0.002678,0.000431,0.547329
6922000,0.0324,0.013523,0.002678,0.000431,0.264086
6923000,0.0324,0.013523,0.002678,0.000431,0.279717
6924000,0.0324,0.013523,0.002678,0.000431,0.238582
6925000,0.0324,0.013523,0.002678,0.000431,0.147028
6926000,0.0324,0.013523,0.002678,0.000431,0.173707
6927000,0.0324,0.013523,0.002678,0.000431,0.117881
6928000,0.0324,0.013523,0.002678,0.000431,0.482336
6929000,0.0324,0.013523,0.002678,0.000431,0.084620
6930000,0.0324,0.013523,0.002678,0.000431,0.050890
6931000,0.0324,0.013523,0.002678,0.000431,0.029382
6932000,0.0324,0.013523,0.002678,0.000431,0.026091
6933000,0.0324,0.013523,0.002678,0.000431,0.022213
6934000,0.0324,0.013523,0.002678,0.000431,0.019157
6935000,0.0324,0.013523,0.002678,0.000431,0.012223
6936000,0.0324,0.013523,0.002678,0.000431,0.010342
6937000,0.0324,0.013523,0.002678,0.000431,0.008815
6938000,0.0324,0.013523,0.002678,0.000431,0.010813
6939000,0.0324,0.013523,0.002678,0.000431,0.004466
6940000,0.0324,0.013523,0.002678,0.000431,0.005406
6941000,0.0324,0.013523,0.002678,0.000431,0.002468
6942000,0.0324,0.013523,0.002678,0.000431,0.001763
6943000,0.0324,0.013523,0.002678,0.000431,0.002938
6944000,0.0324,0.013523,0.002678,0.000431,0.000940
6945000,0.0324,0.013523,0.002678,0.000431,0.021978
6946000,0.0324,0.013523,0.002678,0.000431,0.552382
6947000,0.0324,0.013523,0.002678,0.000431,0.579296
6948000,0.0324,0.013523,0.002678,0.000431,0.131632
6949000,0.0324,0.013523,0.002678,0.000431,0.135392
6950000,0.0324,0.013523,0.002678,0.000431,0.553205
6951000,0.0324,0.013523,0.002678,0.000431,0.269257
6952000,0.0324,0.013523,0.002678,0.000431,0.227535
6953000,0.0324,0.013523,0.002678,0.000431,0.289942
6954000,0.0324,0.013523,0.002678,0.000431,0.141386
6955000,0.0324,0.013523,0.002678,0.000431,0.170298
6956000,0.0324,0.013523,0.002678,0.000431,0.110476
6957000,0.0324,0.013523,0.002678,0.000431,0.501493
6958000,0.0324,0.013523,0.002678,0.000431,0.136098
6959000,0.0324,0.013523,0.002678,0.000431,0.087558
6960000,0.0324,0.013523,0.002678,0.000431,0.058529
6961000,0.0324,0.013523,0.002678,0.000431,0.049479
6962000,0.0324,0.013523,0.002678,0.000431,0.034553
6963000,0.0324,0.013523,0.002678,0.000431,0.030205
6964000,0.0324,0.013523,0.002678,0.000431,0.019275
6965000,0.0324,0.013523,0.002678,0.000431,0.013281
6966000,0.0324,0.013523,0.002678,0.000431,0.012340
6967000,0.0324,0.013523,0.002678,0.000431,0.004349
6968000,0.0324,0.013523,0.002678,0.000431,0.005406
6969000,0.0324,0.013523,0.002678,0.000431,0.003878
6970000,0.0324,0.013523,0.002678,0.000431,0.003408
6971000,0.0324,0.013523,0.002678,0.000431,0.007639
6972000,0.0324,0.013523,0.002678,0.000431,0.230473
6973000,0.0324,0.013523,0.002678,0.000431,0.694944
6974000,0.0324,0.013523,0.002678,0.000431,0.338951
6975000,0.0324,0.013523,0.002678,0.000431,0.134922
6976000,0.0324,0.013523,0.002678,0.000431,0.218250
6977000,0.0324,0.013523,0.002678,0.000431,0.501493
6978000,0.0324,0.013523,0.002678,0.000431,0.241285
6979000,0.0324,0.013523,0.002678,0.000431,0.365630
6980000,0.0324,0.013523,0.002678,0.000431,0.153374
6981000,0.0324,0.013523,0.002678,0.000431,0.162071
6982000,0.0324,0.013523,0.002678,0.000431,0.103425
6983000,0.0324,0.013523,0.002678,0.000431,0.472933
6984000,0.0324,0.013523,0.002678,0.000431,0.153962
6985000,0.0324,0.013523,0.002678,0.000431,0.054416
6986000,0.0324,0.013523,0.002678,0.000431,0.040077
6987000,0.0324,0.013523,0.002678,0.000431,0.015514
6988000,0.0324,0.013523,0.002678,0.000431,0.019275
6989000,0.0324,0.013523,0.002678,0.000431,0.014221
6990000,0.0324,0.013523,0.002678,0.000431,0.010813
6991000,0.0324,0.013523,0.002678,0.000431,0.003291
6992000,0.0324,0.013523,0.002678,0.000431,0.001763
6993000,0.0324,0.013523,0.002678,0.000431,0.001763
6994000,0.0324,0.013523,0.002678,0.000431,0.001763
6995000,0.0324,0.013523,0.002678,0.000431,0.001763
6996000,0.0324,0.013523,0.002678,0.000431,0.001763
6997000,0.0324,0.013523,0.002678,0.000431,0.002938
6998000,0.0324,0.013523,0.002678,0.000431,0.070869
6999000,0.0324,0.013523,0.002678,0.000431,0.526644
