Cycle,Area(mm^2),PeakDynamic(W),SubthresholdLeakage(W),GateLeakage(W),RunTimeDynamic(W)
20000000,0.0324,0.013523,0.002678,0.000431,0.001645
20001000,0.0324,0.013523,0.002678,0.000431,0.003526
20002000,0.0324,0.013523,0.002678,0.000431,0.000823
20003000,0.0324,0.013523,0.002678,0.000431,0.000823
20004000,0.0324,0.013523,0.002678,0.000431,0.000823
20005000,0.0324,0.013523,0.002678,0.000431,0.000823
20006000,0.0324,0.013523,0.002678,0.000431,0.000940
20007000,0.0324,0.013523,0.002678,0.000431,0.000705
20008000,0.0324,0.013523,0.002678,0.000431,0.000940
20009000,0.0324,0.013523,0.002678,0.000431,0.000823
20010000,0.0324,0.013523,0.002678,0.000431,0.000823
20011000,0.0324,0.013523,0.002678,0.000431,0.000705
20012000,0.0324,0.013523,0.002678,0.000431,0.000940
20013000,0.0324,0.013523,0.002678,0.000431,0.002821
20014000,0.0324,0.013523,0.002678,0.000431,0.430976
20015000,0.0324,0.013523,0.002678,0.000431,0.745129
20016000,0.0324,0.013523,0.002678,0.000431,0.133747
20017000,0.0324,0.013523,0.002678,0.000431,0.133982
20018000,0.0324,0.013523,0.002678,0.000431,0.158193
20019000,0.0324,0.013523,0.002678,0.000431,0.564488
20020000,0.0324,0.013523,0.002678,0.000431,0.242696
20021000,0.0324,0.013523,0.002678,0.000431,0.242226
20022000,0.0324,0.013523,0.002678,0.000431,0.233293
20023000,0.0324,0.013523,0.002678,0.000431,0.153727
20024000,0.0324,0.013523,0.002678,0.000431,0.154785
20025000,0.0324,0.013523,0.002678,0.000431,0.103895
20026000,0.0324,0.013523,0.002678,0.000431,0.451778
20027000,0.0324,0.013523,0.002678,0.000431,0.173707
20028000,0.0324,0.013523,0.002678,0.000431,0.082152
20029000,0.0324,0.013523,0.002678,0.000431,0.069224
20030000,0.0324,0.013523,0.002678,0.000431,0.053475
20031000,0.0324,0.013523,0.002678,0.000431,0.044896
20032000,0.0324,0.013523,0.002678,0.000431,0.032085
20033000,0.0324,0.013523,0.002678,0.000431,0.029500
20034000,0.0324,0.013523,0.002678,0.000431,0.033731
20035000,0.0324,0.013523,0.002678,0.000431,0.022800
20036000,0.0324,0.013523,0.002678,0.000431,0.020097
20037000,0.0324,0.013523,0.002678,0.000431,0.023388
20038000,0.0324,0.013523,0.002678,0.000431,0.014221
20039000,0.0324,0.013523,0.002678,0.000431,0.015161
20040000,0.0324,0.013523,0.002678,0.000431,0.019040
20041000,0.0324,0.013523,0.002678,0.000431,0.010695
20042000,0.0324,0.013523,0.002678,0.000431,0.011753
20043000,0.0324,0.013523,0.002678,0.000431,0.010695
20044000,0.0324,0.013523,0.002678,0.000431,0.013163
20045000,0.0324,0.013523,0.002678,0.000431,0.012693
20046000,0.0324,0.013523,0.002678,0.000431,0.008109
20047000,0.0324,0.013523,0.002678,0.000431,0.009050
20048000,0.0324,0.013523,0.002678,0.000431,0.008580
20049000,0.0324,0.013523,0.002678,0.000431,0.008109
20050000,0.0324,0.013523,0.002678,0.000431,0.008462
20051000,0.0324,0.013523,0.002678,0.000431,0.007639
20052000,0.0324,0.013523,0.002678,0.000431,0.009755
20053000,0.0324,0.013523,0.002678,0.000431,0.008109
20054000,0.0324,0.013523,0.002678,0.000431,0.010460
20055000,0.0324,0.013523,0.002678,0.000431,0.006934
20056000,0.0324,0.013523,0.002678,0.000431,0.003996
20057000,0.0324,0.013523,0.002678,0.000431,0.004231
20058000,0.0324,0.013523,0.002678,0.000431,0.004113
20059000,0.0324,0.013523,0.002678,0.000431,0.004349
20060000,0.0324,0.013523,0.002678,0.000431,0.005641
20061000,0.0324,0.013523,0.002678,0.000431,0.003408
20062000,0.0324,0.013523,0.002678,0.000431,0.003291
20063000,0.0324,0.013523,0.002678,0.000431,0.003408
20064000,0.0324,0.013523,0.002678,0.000431,0.003526
20065000,0.0324,0.013523,0.002678,0.000431,0.003056
20066000,0.0324,0.013523,0.002678,0.000431,0.003526
20067000,0.0324,0.013523,0.002678,0.000431,0.005641
20068000,0.0324,0.013523,0.002678,0.000431,0.002233
20069000,0.0324,0.013523,0.002678,0.000431,0.002703
20070000,0.0324,0.013523,0.002678,0.000431,0.002233
20071000,0.0324,0.013523,0.002678,0.000431,0.004349
20072000,0.0324,0.013523,0.002678,0.000431,0.001880
20073000,0.0324,0.013523,0.002678,0.000431,0.001528
20074000,0.0324,0.013523,0.002678,0.000431,0.001763
20075000,0.0324,0.013523,0.002678,0.000431,0.001880
20076000,0.0324,0.013523,0.002678,0.000431,0.001645
20077000,0.0324,0.013523,0.002678,0.000431,0.002703
20078000,0.0324,0.013523,0.002678,0.000431,0.001880
20079000,0.0324,0.013523,0.002678,0.000431,0.000940
20080000,0.0324,0.013523,0.002678,0.000431,0.000940
20081000,0.0324,0.013523,0.002678,0.000431,0.000823
20082000,0.0324,0.013523,0.002678,0.000431,0.000823
20083000,0.0324,0.013523,0.002678,0.000431,0.000940
20084000,0.0324,0.013523,0.002678,0.000431,0.000940
20085000,0.0324,0.013523,0.002678,0.000431,0.000823
20086000,0.0324,0.013523,0.002678,0.000431,0.000823
20087000,0.0324,0.013523,0.002678,0.000431,0.000940
20088000,0.0324,0.013523,0.002678,0.000431,0.000823
20089000,0.0324,0.013523,0.002678,0.000431,0.000940
20090000,0.0324,0.013523,0.002678,0.000431,0.000823
20091000,0.0324,0.013523,0.002678,0.000431,0.209553
20092000,0.0324,0.013523,0.002678,0.000431,0.523235
20093000,0.0324,0.013523,0.002678,0.000431,0.507369
20094000,0.0324,0.013523,0.002678,0.000431,0.133512
20095000,0.0324,0.013523,0.002678,0.000431,0.132102
20096000,0.0324,0.013523,0.002678,0.000431,0.560022
20097000,0.0324,0.013523,0.002678,0.000431,0.247397
20098000,0.0324,0.013523,0.002678,0.000431,0.234704
20099000,0.0324,0.013523,0.002678,0.000431,0.334133
20100000,0.0324,0.013523,0.002678,0.000431,0.144207
20101000,0.0324,0.013523,0.002678,0.000431,0.151729
20102000,0.0324,0.013523,0.002678,0.000431,0.103542
20103000,0.0324,0.013523,0.002678,0.000431,0.453306
20104000,0.0324,0.013523,0.002678,0.000431,0.210375
20105000,0.0324,0.013523,0.002678,0.000431,0.110006
20106000,0.0324,0.013523,0.002678,0.000431,0.100839
20107000,0.0324,0.013523,0.002678,0.000431,0.083915
20108000,0.0324,0.013523,0.002678,0.000431,0.070987
20109000,0.0324,0.013523,0.002678,0.000431,0.067696
20110000,0.0324,0.013523,0.002678,0.000431,0.056296
20111000,0.0324,0.013523,0.002678,0.000431,0.047011
20112000,0.0324,0.013523,0.002678,0.000431,0.049127
20113000,0.0324,0.013523,0.002678,0.000431,0.033378
20114000,0.0324,0.013523,0.002678,0.000431,0.028442
20115000,0.0324,0.013523,0.002678,0.000431,0.028912
20116000,0.0324,0.013523,0.002678,0.000431,0.024563
20117000,0.0324,0.013523,0.002678,0.000431,0.020215
20118000,0.0324,0.013523,0.002678,0.000431,0.024328
20119000,0.0324,0.013523,0.002678,0.000431,0.016689
20120000,0.0324,0.013523,0.002678,0.000431,0.016454
20121000,0.0324,0.013523,0.002678,0.000431,0.015161
20122000,0.0324,0.013523,0.002678,0.000431,0.015866
20123000,0.0324,0.013523,0.002678,0.000431,0.015984
20124000,0.0324,0.013523,0.002678,0.000431,0.019510
20125000,0.0324,0.013523,0.002678,0.000431,0.013868
20126000,0.0324,0.013523,0.002678,0.000431,0.013751
20127000,0.0324,0.013523,0.002678,0.000431,0.016571
20128000,0.0324,0.013523,0.002678,0.000431,0.012576
20129000,0.0324,0.013523,0.002678,0.000431,0.013281
20130000,0.0324,0.013523,0.002678,0.000431,0.014338
20131000,0.0324,0.013523,0.002678,0.000431,0.010813
20132000,0.0324,0.013523,0.002678,0.000431,0.009520
20133000,0.0324,0.013523,0.002678,0.000431,0.012223
20134000,0.0324,0.013523,0.002678,0.000431,0.005641
20135000,0.0324,0.013523,0.002678,0.000431,0.005876
20136000,0.0324,0.013523,0.002678,0.000431,0.005994
20137000,0.0324,0.013523,0.002678,0.000431,0.006229
20138000,0.0324,0.013523,0.002678,0.000431,0.005524
20139000,0.0324,0.013523,0.002678,0.000431,0.006111
20140000,0.0324,0.013523,0.002678,0.000431,0.005759
20141000,0.0324,0.013523,0.002678,0.000431,0.005994
20142000,0.0324,0.013523,0.002678,0.000431,0.006699
20143000,0.0324,0.013523,0.002678,0.000431,0.004231
20144000,0.0324,0.013523,0.002678,0.000431,0.004466
20145000,0.0324,0.013523,0.002678,0.000431,0.003761
20146000,0.0324,0.013523,0.002678,0.000431,0.004466
20147000,0.0324,0.013523,0.002678,0.000431,0.004113
20148000,0.0324,0.013523,0.002678,0.000431,0.004113
20149000,0.0324,0.013523,0.002678,0.000431,0.004349
20150000,0.0324,0.013523,0.002678,0.000431,0.006111
20151000,0.0324,0.013523,0.002678,0.000431,0.004819
20152000,0.0324,0.013523,0.002678,0.000431,0.002703
20153000,0.0324,0.013523,0.002678,0.000431,0.003643
20154000,0.0324,0.013523,0.002678,0.000431,0.001880
20155000,0.0324,0.013523,0.002678,0.000431,0.001528
20156000,0.0324,0.013523,0.002678,0.000431,0.001880
20157000,0.0324,0.013523,0.002678,0.000431,0.001528
20158000,0.0324,0.013523,0.002678,0.000431,0.001880
20159000,0.0324,0.013523,0.002678,0.000431,0.002821
20160000,0.0324,0.013523,0.002678,0.000431,0.002116
20161000,0.0324,0.013523,0.002678,0.000431,0.000940
20162000,0.0324,0.013523,0.002678,0.000431,0.000705
20163000,0.0324,0.013523,0.002678,0.000431,0.000940
20164000,0.0324,0.013523,0.002678,0.000431,0.000823
20165000,0.0324,0.013523,0.002678,0.000431,0.000823
20166000,0.0324,0.013523,0.002678,0.000431,0.000940
20167000,0.0324,0.013523,0.002678,0.000431,0.000705
20168000,0.0324,0.013523,0.002678,0.000431,0.000940
20169000,0.0324,0.013523,0.002678,0.000431,0.135863
20170000,0.0324,0.013523,0.002678,0.000431,0.601392
20171000,0.0324,0.013523,0.002678,0.000431,0.532990
20172000,0.0324,0.013523,0.002678,0.000431,0.133982
20173000,0.0324,0.013523,0.002678,0.000431,0.132102
20174000,0.0324,0.013523,0.002678,0.000431,0.563430
20175000,0.0324,0.013523,0.002678,0.000431,0.245281
20176000,0.0324,0.013523,0.002678,0.000431,0.273135
20177000,0.0324,0.013523,0.002678,0.000431,0.276779
20178000,0.0324,0.013523,0.002678,0.000431,0.137978
20179000,0.0324,0.013523,0.002678,0.000431,0.148673
20180000,0.0324,0.013523,0.002678,0.000431,0.107538
20181000,0.0324,0.013523,0.002678,0.000431,0.403944
20182000,0.0324,0.013523,0.002678,0.000431,0.245164
20183000,0.0324,0.013523,0.002678,0.000431,0.089086
20184000,0.0324,0.013523,0.002678,0.000431,0.071810
20185000,0.0324,0.013523,0.002678,0.000431,0.066168
20186000,0.0324,0.013523,0.002678,0.000431,0.049362
20187000,0.0324,0.013523,0.002678,0.000431,0.049597
20188000,0.0324,0.013523,0.002678,0.000431,0.038667
20189000,0.0324,0.013523,0.002678,0.000431,0.037962
20190000,0.0324,0.013523,0.002678,0.000431,0.031027
20191000,0.0324,0.013523,0.002678,0.000431,0.030792
20192000,0.0324,0.013523,0.002678,0.000431,0.027502
20193000,0.0324,0.013523,0.002678,0.000431,0.027619
20194000,0.0324,0.013523,0.002678,0.000431,0.026091
20195000,0.0324,0.013523,0.002678,0.000431,0.022330
20196000,0.0324,0.013523,0.002678,0.000431,0.024563
20197000,0.0324,0.013523,0.002678,0.000431,0.021743
20198000,0.0324,0.013523,0.002678,0.000431,0.025739
20199000,0.0324,0.013523,0.002678,0.000431,0.020920
20200000,0.0324,0.013523,0.002678,0.000431,0.017864
20201000,0.0324,0.013523,0.002678,0.000431,0.018099
20202000,0.0324,0.013523,0.002678,0.000431,0.015161
20203000,0.0324,0.013523,0.002678,0.000431,0.015514
20204000,0.0324,0.013523,0.002678,0.000431,0.011988
20205000,0.0324,0.013523,0.002678,0.000431,0.012693
20206000,0.0324,0.013523,0.002678,0.000431,0.014103
20207000,0.0324,0.013523,0.002678,0.000431,0.013868
20208000,0.0324,0.013523,0.002678,0.000431,0.012576
20209000,0.0324,0.013523,0.002678,0.000431,0.010813
20210000,0.0324,0.013523,0.002678,0.000431,0.011165
20211000,0.0324,0.013523,0.002678,0.000431,0.011048
20212000,0.0324,0.013523,0.002678,0.000431,0.011283
20213000,0.0324,0.013523,0.002678,0.000431,0.009285
20214000,0.0324,0.013523,0.002678,0.000431,0.009167
20215000,0.0324,0.013523,0.002678,0.000431,0.009285
20216000,0.0324,0.013523,0.002678,0.000431,0.009285
20217000,0.0324,0.013523,0.002678,0.000431,0.009755
20218000,0.0324,0.013523,0.002678,0.000431,0.009872
20219000,0.0324,0.013523,0.002678,0.000431,0.009285
20220000,0.0324,0.013523,0.002678,0.000431,0.009990
20221000,0.0324,0.013523,0.002678,0.000431,0.006111
20222000,0.0324,0.013523,0.002678,0.000431,0.008227
20223000,0.0324,0.013523,0.002678,0.000431,0.006111
20224000,0.0324,0.013523,0.002678,0.000431,0.004466
20225000,0.0324,0.013523,0.002678,0.000431,0.004231
20226000,0.0324,0.013523,0.002678,0.000431,0.004113
20227000,0.0324,0.013523,0.002678,0.000431,0.004466
20228000,0.0324,0.013523,0.002678,0.000431,0.004231
20229000,0.0324,0.013523,0.002678,0.000431,0.004584
20230000,0.0324,0.013523,0.002678,0.000431,0.005054
20231000,0.0324,0.013523,0.002678,0.000431,0.003291
20232000,0.0324,0.013523,0.002678,0.000431,0.005759
20233000,0.0324,0.013523,0.002678,0.000431,0.002468
20234000,0.0324,0.013523,0.002678,0.000431,0.002821
20235000,0.0324,0.013523,0.002678,0.000431,0.004466
20236000,0.0324,0.013523,0.002678,0.000431,0.001645
20237000,0.0324,0.013523,0.002678,0.000431,0.001763
20238000,0.0324,0.013523,0.002678,0.000431,0.001645
20239000,0.0324,0.013523,0.002678,0.000431,0.001763
20240000,0.0324,0.013523,0.002678,0.000431,0.001763
20241000,0.0324,0.013523,0.002678,0.000431,0.001645
20242000,0.0324,0.013523,0.002678,0.000431,0.001645
20243000,0.0324,0.013523,0.002678,0.000431,0.001763
20244000,0.0324,0.013523,0.002678,0.000431,0.001763
20245000,0.0324,0.013523,0.002678,0.000431,0.001645
20246000,0.0324,0.013523,0.002678,0.000431,0.001763
20247000,0.0324,0.013523,0.002678,0.000431,0.001645
20248000,0.0324,0.013523,0.002678,0.000431,0.001763
20249000,0.0324,0.013523,0.002678,0.000431,0.001645
20250000,0.0324,0.013523,0.002678,0.000431,0.001763
20251000,0.0324,0.013523,0.002678,0.000431,0.003408
20252000,0.0324,0.013523,0.002678,0.000431,0.000940
20253000,0.0324,0.013523,0.002678,0.000431,0.000823
20254000,0.0324,0.013523,0.002678,0.000431,0.000823
20255000,0.0324,0.013523,0.002678,0.000431,0.000823
20256000,0.0324,0.013523,0.002678,0.000431,0.231295
20257000,0.0324,0.013523,0.002678,0.000431,0.637473
20258000,0.0324,0.013523,0.002678,0.000431,0.384552
20259000,0.0324,0.013523,0.002678,0.000431,0.132572
20260000,0.0324,0.013523,0.002678,0.000431,0.134452
20261000,0.0324,0.013523,0.002678,0.000431,0.596103
20262000,0.0324,0.013523,0.002678,0.000431,0.235526
20263000,0.0324,0.013523,0.002678,0.000431,0.318619
20264000,0.0324,0.013523,0.002678,0.000431,0.239757
20265000,0.0324,0.013523,0.002678,0.000431,0.146323
20266000,0.0324,0.013523,0.002678,0.000431,0.139153
20267000,0.0324,0.013523,0.002678,0.000431,0.237524
20268000,0.0324,0.013523,0.002678,0.000431,0.397715
20269000,0.0324,0.013523,0.002678,0.000431,0.108243
20270000,0.0324,0.013523,0.002678,0.000431,0.079802
20271000,0.0324,0.013523,0.002678,0.000431,0.069224
20272000,0.0324,0.013523,0.002678,0.000431,0.059469
20273000,0.0324,0.013523,0.002678,0.000431,0.044896
20274000,0.0324,0.013523,0.002678,0.000431,0.040665
20275000,0.0324,0.013523,0.002678,0.000431,0.031850
20276000,0.0324,0.013523,0.002678,0.000431,0.036199
20277000,0.0324,0.013523,0.002678,0.000431,0.030557
20278000,0.0324,0.013523,0.002678,0.000431,0.028677
20279000,0.0324,0.013523,0.002678,0.000431,0.021038
20280000,0.0324,0.013523,0.002678,0.000431,0.024093
20281000,0.0324,0.013523,0.002678,0.000431,0.018217
20282000,0.0324,0.013523,0.002678,0.000431,0.015514
20283000,0.0324,0.013523,0.002678,0.000431,0.018334
20284000,0.0324,0.013523,0.002678,0.000431,0.013751
20285000,0.0324,0.013523,0.002678,0.000431,0.012105
20286000,0.0324,0.013523,0.002678,0.000431,0.008580
20287000,0.0324,0.013523,0.002678,0.000431,0.008345
20288000,0.0324,0.013523,0.002678,0.000431,0.008227
20289000,0.0324,0.013523,0.002678,0.000431,0.009167
20290000,0.0324,0.013523,0.002678,0.000431,0.010225
20291000,0.0324,0.013523,0.002678,0.000431,0.007522
20292000,0.0324,0.013523,0.002678,0.000431,0.007052
20293000,0.0324,0.013523,0.002678,0.000431,0.007052
20294000,0.0324,0.013523,0.002678,0.000431,0.007287
20295000,0.0324,0.013523,0.002678,0.000431,0.008345
20296000,0.0324,0.013523,0.002678,0.000431,0.006699
20297000,0.0324,0.013523,0.002678,0.000431,0.005641
20298000,0.0324,0.013523,0.002678,0.000431,0.004113
20299000,0.0324,0.013523,0.002678,0.000431,0.003291
20300000,0.0324,0.013523,0.002678,0.000431,0.003408
20301000,0.0324,0.013523,0.002678,0.000431,0.003291
20302000,0.0324,0.013523,0.002678,0.000431,0.003408
20303000,0.0324,0.013523,0.002678,0.000431,0.003878
20304000,0.0324,0.013523,0.002678,0.000431,0.002938
20305000,0.0324,0.013523,0.002678,0.000431,0.001763
20306000,0.0324,0.013523,0.002678,0.000431,0.001645
20307000,0.0324,0.013523,0.002678,0.000431,0.003526
20308000,0.0324,0.013523,0.002678,0.000431,0.000940
20309000,0.0324,0.013523,0.002678,0.000431,0.000823
20310000,0.0324,0.013523,0.002678,0.000431,0.000940
20311000,0.0324,0.013523,0.002678,0.000431,0.000823
20312000,0.0324,0.013523,0.002678,0.000431,0.000940
20313000,0.0324,0.013523,0.002678,0.000431,0.000823
20314000,0.0324,0.013523,0.002678,0.000431,0.000823
20315000,0.0324,0.013523,0.002678,0.000431,0.000940
20316000,0.0324,0.013523,0.002678,0.000431,0.000940
20317000,0.0324,0.013523,0.002678,0.000431,0.000705
20318000,0.0324,0.013523,0.002678,0.000431,0.000940
20319000,0.0324,0.013523,0.002678,0.000431,0.000940
20320000,0.0324,0.013523,0.002678,0.000431,0.000940
20321000,0.0324,0.013523,0.002678,0.000431,0.002586
20322000,0.0324,0.013523,0.002678,0.000431,0.424747
20323000,0.0324,0.013523,0.002678,0.000431,0.732553
20324000,0.0324,0.013523,0.002678,0.000431,0.144090
20325000,0.0324,0.013523,0.002678,0.000431,0.133982
20326000,0.0324,0.013523,0.002678,0.000431,0.171239
20327000,0.0324,0.013523,0.002678,0.000431,0.569894
20328000,0.0324,0.013523,0.002678,0.000431,0.243401
20329000,0.0324,0.013523,0.002678,0.000431,0.324495
20330000,0.0324,0.013523,0.002678,0.000431,0.219190
20331000,0.0324,0.013523,0.002678,0.000431,0.136568
20332000,0.0324,0.013523,0.002678,0.000431,0.149496
20333000,0.0324,0.013523,0.002678,0.000431,0.214842
20334000,0.0324,0.013523,0.002678,0.000431,0.430976
20335000,0.0324,0.013523,0.002678,0.000431,0.145735
20336000,0.0324,0.013523,0.002678,0.000431,0.127871
20337000,0.0324,0.013523,0.002678,0.000431,0.100134
20338000,0.0324,0.013523,0.002678,0.000431,0.086971
20339000,0.0324,0.013523,0.002678,0.000431,0.077804
20340000,0.0324,0.013523,0.002678,0.000431,0.064758
20341000,0.0324,0.013523,0.002678,0.000431,0.059352
20342000,0.0324,0.013523,0.002678,0.000431,0.052418
20343000,0.0324,0.013523,0.002678,0.000431,0.050655
20344000,0.0324,0.013523,0.002678,0.000431,0.041135
20345000,0.0324,0.013523,0.002678,0.000431,0.035141
20346000,0.0324,0.013523,0.002678,0.000431,0.031027
20347000,0.0324,0.013523,0.002678,0.000431,0.024446
20348000,0.0324,0.013523,0.002678,0.000431,0.028324
20349000,0.0324,0.013523,0.002678,0.000431,0.018805
20350000,0.0324,0.013523,0.002678,0.000431,0.023858
20351000,0.0324,0.013523,0.002678,0.000431,0.021508
20352000,0.0324,0.013523,0.002678,0.000431,0.012811
20353000,0.0324,0.013523,0.002678,0.000431,0.018569
20354000,0.0324,0.013523,0.002678,0.000431,0.011753
20355000,0.0324,0.013523,0.002678,0.000431,0.011988
20356000,0.0324,0.013523,0.002678,0.000431,0.012105
20357000,0.0324,0.013523,0.002678,0.000431,0.014103
20358000,0.0324,0.013523,0.002678,0.000431,0.010695
20359000,0.0324,0.013523,0.002678,0.000431,0.012811
20360000,0.0324,0.013523,0.002678,0.000431,0.011518
20361000,0.0324,0.013523,0.002678,0.000431,0.009990
20362000,0.0324,0.013523,0.002678,0.000431,0.009402
20363000,0.0324,0.013523,0.002678,0.000431,0.006934
20364000,0.0324,0.013523,0.002678,0.000431,0.004584
20365000,0.0324,0.013523,0.002678,0.000431,0.003996
20366000,0.0324,0.013523,0.002678,0.000431,0.004349
20367000,0.0324,0.013523,0.002678,0.000431,0.004231
20368000,0.0324,0.013523,0.002678,0.000431,0.009990
20369000,0.0324,0.013523,0.002678,0.000431,0.002938
20370000,0.0324,0.013523,0.002678,0.000431,0.002233
20371000,0.0324,0.013523,0.002678,0.000431,0.005289
20372000,0.0324,0.013523,0.002678,0.000431,0.000940
20373000,0.0324,0.013523,0.002678,0.000431,0.000940
20374000,0.0324,0.013523,0.002678,0.000431,0.000940
20375000,0.0324,0.013523,0.002678,0.000431,0.000705
20376000,0.0324,0.013523,0.002678,0.000431,0.000940
20377000,0.0324,0.013523,0.002678,0.000431,0.000940
20378000,0.0324,0.013523,0.002678,0.000431,0.000823
20379000,0.0324,0.013523,0.002678,0.000431,0.000823
20380000,0.0324,0.013523,0.002678,0.000431,0.000940
20381000,0.0324,0.013523,0.002678,0.000431,0.000940
20382000,0.0324,0.013523,0.002678,0.000431,0.000823
20383000,0.0324,0.013523,0.002678,0.000431,0.000823
20384000,0.0324,0.013523,0.002678,0.000431,0.000940
20385000,0.0324,0.013523,0.002678,0.000431,0.000823
20386000,0.0324,0.013523,0.002678,0.000431,0.000940
20387000,0.0324,0.013523,0.002678,0.000431,0.000823
20388000,0.0324,0.013523,0.002678,0.000431,0.000940
20389000,0.0324,0.013523,0.002678,0.000431,0.000823
20390000,0.0324,0.013523,0.002678,0.000431,0.000823
20391000,0.0324,0.013523,0.002678,0.000431,0.000940
20392000,0.0324,0.013523,0.002678,0.000431,0.000940
20393000,0.0324,0.013523,0.002678,0.000431,0.000823
20394000,0.0324,0.013523,0.002678,0.000431,0.000823
20395000,0.0324,0.013523,0.002678,0.000431,0.000940
20396000,0.0324,0.013523,0.002678,0.000431,0.000940
20397000,0.0324,0.013523,0.002678,0.000431,0.114237
20398000,0.0324,0.013523,0.002678,0.000431,0.640646
20399000,0.0324,0.013523,0.002678,0.000431,0.540865
20400000,0.0324,0.013523,0.002678,0.000431,0.135392
20401000,0.0324,0.013523,0.002678,0.000431,0.131632
20402000,0.0324,0.013523,0.002678,0.000431,0.584233
20403000,0.0324,0.013523,0.002678,0.000431,0.283243
20404000,0.0324,0.013523,0.002678,0.000431,0.229533
20405000,0.0324,0.013523,0.002678,0.000431,0.288414
20406000,0.0324,0.013523,0.002678,0.000431,0.145147
20407000,0.0324,0.013523,0.002678,0.000431,0.183109
20408000,0.0324,0.013523,0.002678,0.000431,0.085325
20409000,0.0324,0.013523,0.002678,0.000431,0.492796
20410000,0.0324,0.013523,0.002678,0.000431,0.169476
20411000,0.0324,0.013523,0.002678,0.000431,0.126343
20412000,0.0324,0.013523,0.002678,0.000431,0.093317
20413000,0.0324,0.013523,0.002678,0.000431,0.090027
20414000,0.0324,0.013523,0.002678,0.000431,0.074160
20415000,0.0324,0.013523,0.002678,0.000431,0.061467
20416000,0.0324,0.013523,0.002678,0.000431,0.061820
20417000,0.0324,0.013523,0.002678,0.000431,0.056884
20418000,0.0324,0.013523,0.002678,0.000431,0.049127
20419000,0.0324,0.013523,0.002678,0.000431,0.042545
20420000,0.0324,0.013523,0.002678,0.000431,0.046659
20421000,0.0324,0.013523,0.002678,0.000431,0.030557
20422000,0.0324,0.013523,0.002678,0.000431,0.030557
20423000,0.0324,0.013523,0.002678,0.000431,0.032790
20424000,0.0324,0.013523,0.002678,0.000431,0.020450
20425000,0.0324,0.013523,0.002678,0.000431,0.025621
20426000,0.0324,0.013523,0.002678,0.000431,0.016689
20427000,0.0324,0.013523,0.002678,0.000431,0.016336
20428000,0.0324,0.013523,0.002678,0.000431,0.017394
20429000,0.0324,0.013523,0.002678,0.000431,0.016219
20430000,0.0324,0.013523,0.002678,0.000431,0.011048
20431000,0.0324,0.013523,0.002678,0.000431,0.008697
20432000,0.0324,0.013523,0.002678,0.000431,0.008345
20433000,0.0324,0.013523,0.002678,0.000431,0.010225
20434000,0.0324,0.013523,0.002678,0.000431,0.011870
20435000,0.0324,0.013523,0.002678,0.000431,0.006464
20436000,0.0324,0.013523,0.002678,0.000431,0.006111
20437000,0.0324,0.013523,0.002678,0.000431,0.005171
20438000,0.0324,0.013523,0.002678,0.000431,0.004936
20439000,0.0324,0.013523,0.002678,0.000431,0.005406
20440000,0.0324,0.013523,0.002678,0.000431,0.004584
20441000,0.0324,0.013523,0.002678,0.000431,0.005406
20442000,0.0324,0.013523,0.002678,0.000431,0.004936
20443000,0.0324,0.013523,0.002678,0.000431,0.005171
20444000,0.0324,0.013523,0.002678,0.000431,0.007522
20445000,0.0324,0.013523,0.002678,0.000431,0.003526
20446000,0.0324,0.013523,0.002678,0.000431,0.003291
20447000,0.0324,0.013523,0.002678,0.000431,0.004349
20448000,0.0324,0.013523,0.002678,0.000431,0.003878
20449000,0.0324,0.013523,0.002678,0.000431,0.002468
20450000,0.0324,0.013523,0.002678,0.000431,0.002586
20451000,0.0324,0.013523,0.002678,0.000431,0.002468
20452000,0.0324,0.013523,0.002678,0.000431,0.004701
20453000,0.0324,0.013523,0.002678,0.000431,0.001763
20454000,0.0324,0.013523,0.002678,0.000431,0.001763
20455000,0.0324,0.013523,0.002678,0.000431,0.001763
20456000,0.0324,0.013523,0.002678,0.000431,0.001645
20457000,0.0324,0.013523,0.002678,0.000431,0.001880
20458000,0.0324,0.013523,0.002678,0.000431,0.001528
20459000,0.0324,0.013523,0.002678,0.000431,0.001763
20460000,0.0324,0.013523,0.002678,0.000431,0.001763
20461000,0.0324,0.013523,0.002678,0.000431,0.001763
20462000,0.0324,0.013523,0.002678,0.000431,0.001763
20463000,0.0324,0.013523,0.002678,0.000431,0.001528
20464000,0.0324,0.013523,0.002678,0.000431,0.001880
20465000,0.0324,0.013523,0.002678,0.000431,0.001645
20466000,0.0324,0.013523,0.002678,0.000431,0.001763
20467000,0.0324,0.013523,0.002678,0.000431,0.001645
20468000,0.0324,0.013523,0.002678,0.000431,0.003526
20469000,0.0324,0.013523,0.002678,0.000431,0.000823
20470000,0.0324,0.013523,0.002678,0.000431,0.000823
20471000,0.0324,0.013523,0.002678,0.000431,0.000940
20472000,0.0324,0.013523,0.002678,0.000431,0.000940
20473000,0.0324,0.013523,0.002678,0.000431,0.000823
20474000,0.0324,0.013523,0.002678,0.000431,0.000823
20475000,0.0324,0.013523,0.002678,0.000431,0.000940
20476000,0.0324,0.013523,0.002678,0.000431,0.000940
20477000,0.0324,0.013523,0.002678,0.000431,0.000705
20478000,0.0324,0.013523,0.002678,0.000431,0.000940
20479000,0.0324,0.013523,0.002678,0.000431,0.000940
20480000,0.0324,0.013523,0.002678,0.000431,0.000940
20481000,0.0324,0.013523,0.002678,0.000431,0.000705
20482000,0.0324,0.013523,0.002678,0.000431,0.000940
20483000,0.0324,0.013523,0.002678,0.000431,0.000940
20484000,0.0324,0.013523,0.002678,0.000431,0.000823
20485000,0.0324,0.013523,0.002678,0.000431,0.000940
20486000,0.0324,0.013523,0.002678,0.000431,0.000823
20487000,0.0324,0.013523,0.002678,0.000431,0.000940
20488000,0.0324,0.013523,0.002678,0.000431,0.000823
20489000,0.0324,0.013523,0.002678,0.000431,0.000823
20490000,0.0324,0.013523,0.002678,0.000431,0.000940
20491000,0.0324,0.013523,0.002678,0.000431,0.000940
20492000,0.0324,0.013523,0.002678,0.000431,0.000705
20493000,0.0324,0.013523,0.002678,0.000431,0.000940
20494000,0.0324,0.013523,0.002678,0.000431,0.000940
20495000,0.0324,0.013523,0.002678,0.000431,0.000940
20496000,0.0324,0.013523,0.002678,0.000431,0.000705
20497000,0.0324,0.013523,0.002678,0.000431,0.000940
20498000,0.0324,0.013523,0.002678,0.000431,0.000940
20499000,0.0324,0.013523,0.002678,0.000431,0.000823
20500000,0.0324,0.013523,0.002678,0.000431,0.000823
20501000,0.0324,0.013523,0.002678,0.000431,0.000940
20502000,0.0324,0.013523,0.002678,0.000431,0.000940
20503000,0.0324,0.013523,0.002678,0.000431,0.000823
20504000,0.0324,0.013523,0.002678,0.000431,0.000823
20505000,0.0324,0.013523,0.002678,0.000431,0.000940
20506000,0.0324,0.013523,0.002678,0.000431,0.000823
20507000,0.0324,0.013523,0.002678,0.000431,0.000940
20508000,0.0324,0.013523,0.002678,0.000431,0.000823
20509000,0.0324,0.013523,0.002678,0.000431,0.000940
20510000,0.0324,0.013523,0.002678,0.000431,0.000823
20511000,0.0324,0.013523,0.002678,0.000431,0.000940
20512000,0.0324,0.013523,0.002678,0.000431,0.000940
20513000,0.0324,0.013523,0.002678,0.000431,0.000823
20514000,0.0324,0.013523,0.002678,0.000431,0.000940
20515000,0.0324,0.013523,0.002678,0.000431,0.000823
20516000,0.0324,0.013523,0.002678,0.000431,0.000823
20517000,0.0324,0.013523,0.002678,0.000431,0.000940
20518000,0.0324,0.013523,0.002678,0.000431,0.000940
20519000,0.0324,0.013523,0.002678,0.000431,0.000823
20520000,0.0324,0.013523,0.002678,0.000431,0.000823
20521000,0.0324,0.013523,0.002678,0.000431,0.000940
20522000,0.0324,0.013523,0.002678,0.000431,0.000940
20523000,0.0324,0.013523,0.002678,0.000431,0.000705
20524000,0.0324,0.013523,0.002678,0.000431,0.000940
20525000,0.0324,0.013523,0.002678,0.000431,0.000940
20526000,0.0324,0.013523,0.002678,0.000431,0.000940
20527000,0.0324,0.013523,0.002678,0.000431,0.000705
20528000,0.0324,0.013523,0.002678,0.000431,0.072515
20529000,0.0324,0.013523,0.002678,0.000431,0.598336
20530000,0.0324,0.013523,0.002678,0.000431,0.596103
20531000,0.0324,0.013523,0.002678,0.000431,0.133982
20532000,0.0324,0.013523,0.002678,0.000431,0.132102
20533000,0.0324,0.013523,0.002678,0.000431,0.541452
20534000,0.0324,0.013523,0.002678,0.000431,0.244106
20535000,0.0324,0.013523,0.002678,0.000431,0.227064
20536000,0.0324,0.013523,0.002678,0.000431,0.305691
20537000,0.0324,0.013523,0.002678,0.000431,0.140799
20538000,0.0324,0.013523,0.002678,0.000431,0.149026
20539000,0.0324,0.013523,0.002678,0.000431,0.141621
20540000,0.0324,0.013523,0.002678,0.000431,0.229650
20541000,0.0324,0.013523,0.002678,0.000431,0.404179
20542000,0.0324,0.013523,0.002678,0.000431,0.136685
20543000,0.0324,0.013523,0.002678,0.000431,0.098371
20544000,0.0324,0.013523,0.002678,0.000431,0.079332
20545000,0.0324,0.013523,0.002678,0.000431,0.070399
20546000,0.0324,0.013523,0.002678,0.000431,0.061232
20547000,0.0324,0.013523,0.002678,0.000431,0.039725
20548000,0.0324,0.013523,0.002678,0.000431,0.038079
20549000,0.0324,0.013523,0.002678,0.000431,0.036199
20550000,0.0324,0.013523,0.002678,0.000431,0.035964
20551000,0.0324,0.013523,0.002678,0.000431,0.030675
20552000,0.0324,0.013523,0.002678,0.000431,0.032908
20553000,0.0324,0.013523,0.002678,0.000431,0.026091
20554000,0.0324,0.013523,0.002678,0.000431,0.027854
20555000,0.0324,0.013523,0.002678,0.000431,0.024446
20556000,0.0324,0.013523,0.002678,0.000431,0.021978
20557000,0.0324,0.013523,0.002678,0.000431,0.024328
20558000,0.0324,0.013523,0.002678,0.000431,0.022800
20559000,0.0324,0.013523,0.002678,0.000431,0.019392
20560000,0.0324,0.013523,0.002678,0.000431,0.011753
20561000,0.0324,0.013523,0.002678,0.000431,0.012811
20562000,0.0324,0.013523,0.002678,0.000431,0.007639
20563000,0.0324,0.013523,0.002678,0.000431,0.007639
20564000,0.0324,0.013523,0.002678,0.000431,0.007287
20565000,0.0324,0.013523,0.002678,0.000431,0.010695
20566000,0.0324,0.013523,0.002678,0.000431,0.006347
20567000,0.0324,0.013523,0.002678,0.000431,0.006464
20568000,0.0324,0.013523,0.002678,0.000431,0.006699
20569000,0.0324,0.013523,0.002678,0.000431,0.008462
20570000,0.0324,0.013523,0.002678,0.000431,0.005406
20571000,0.0324,0.013523,0.002678,0.000431,0.006699
20572000,0.0324,0.013523,0.002678,0.000431,0.004819
20573000,0.0324,0.013523,0.002678,0.000431,0.005406
20574000,0.0324,0.013523,0.002678,0.000431,0.005994
20575000,0.0324,0.013523,0.002678,0.000431,0.004113
20576000,0.0324,0.013523,0.002678,0.000431,0.003996
20577000,0.0324,0.013523,0.002678,0.000431,0.004113
20578000,0.0324,0.013523,0.002678,0.000431,0.004584
20579000,0.0324,0.013523,0.002678,0.000431,0.003526
20580000,0.0324,0.013523,0.002678,0.000431,0.004584
20581000,0.0324,0.013523,0.002678,0.000431,0.005876
20582000,0.0324,0.013523,0.002678,0.000431,0.003408
20583000,0.0324,0.013523,0.002678,0.000431,0.003526
20584000,0.0324,0.013523,0.002678,0.000431,0.003878
20585000,0.0324,0.013523,0.002678,0.000431,0.002821
20586000,0.0324,0.013523,0.002678,0.000431,0.002116
20587000,0.0324,0.013523,0.002678,0.000431,0.002586
20588000,0.0324,0.013523,0.002678,0.000431,0.002468
20589000,0.0324,0.013523,0.002678,0.000431,0.002233
20590000,0.0324,0.013523,0.002678,0.000431,0.002468
20591000,0.0324,0.013523,0.002678,0.000431,0.002351
20592000,0.0324,0.013523,0.002678,0.000431,0.002468
20593000,0.0324,0.013523,0.002678,0.000431,0.002351
20594000,0.0324,0.013523,0.002678,0.000431,0.002468
20595000,0.0324,0.013523,0.002678,0.000431,0.002351
20596000,0.0324,0.013523,0.002678,0.000431,0.002468
20597000,0.0324,0.013523,0.002678,0.000431,0.002468
20598000,0.0324,0.013523,0.002678,0.000431,0.002468
20599000,0.0324,0.013523,0.002678,0.000431,0.002116
20600000,0.0324,0.013523,0.002678,0.000431,0.002586
20601000,0.0324,0.013523,0.002678,0.000431,0.002351
20602000,0.0324,0.013523,0.002678,0.000431,0.002351
20603000,0.0324,0.013523,0.002678,0.000431,0.002821
20604000,0.0324,0.013523,0.002678,0.000431,0.001880
20605000,0.0324,0.013523,0.002678,0.000431,0.002821
20606000,0.0324,0.013523,0.002678,0.000431,0.002351
20607000,0.0324,0.013523,0.002678,0.000431,0.002351
20608000,0.0324,0.013523,0.002678,0.000431,0.002821
20609000,0.0324,0.013523,0.002678,0.000431,0.001880
20610000,0.0324,0.013523,0.002678,0.000431,0.002821
20611000,0.0324,0.013523,0.002678,0.000431,0.002468
20612000,0.0324,0.013523,0.002678,0.000431,0.002233
20613000,0.0324,0.013523,0.002678,0.000431,0.002703
20614000,0.0324,0.013523,0.002678,0.000431,0.004466
20615000,0.0324,0.013523,0.002678,0.000431,0.003291
20616000,0.0324,0.013523,0.002678,0.000431,0.000823
20617000,0.0324,0.013523,0.002678,0.000431,0.000940
20618000,0.0324,0.013523,0.002678,0.000431,0.000705
20619000,0.0324,0.013523,0.002678,0.000431,0.015044
20620000,0.0324,0.013523,0.002678,0.000431,0.583645
20621000,0.0324,0.013523,0.002678,0.000431,0.610676
20622000,0.0324,0.013523,0.002678,0.000431,0.134452
20623000,0.0324,0.013523,0.002678,0.000431,0.131161
20624000,0.0324,0.013523,0.002678,0.000431,0.352585
20625000,0.0324,0.013523,0.002678,0.000431,0.418400
20626000,0.0324,0.013523,0.002678,0.000431,0.264556
20627000,0.0324,0.013523,0.002678,0.000431,0.259737
20628000,0.0324,0.013523,0.002678,0.000431,0.166772
20629000,0.0324,0.013523,0.002678,0.000431,0.140681
20630000,0.0324,0.013523,0.002678,0.000431,0.175470
20631000,0.0324,0.013523,0.002678,0.000431,0.143502
20632000,0.0324,0.013523,0.002678,0.000431,0.446372
20633000,0.0324,0.013523,0.002678,0.000431,0.100839
20634000,0.0324,0.013523,0.002678,0.000431,0.070282
20635000,0.0324,0.013523,0.002678,0.000431,0.060409
20636000,0.0324,0.013523,0.002678,0.000431,0.053475
20637000,0.0324,0.013523,0.002678,0.000431,0.050185
20638000,0.0324,0.013523,0.002678,0.000431,0.053475
20639000,0.0324,0.013523,0.002678,0.000431,0.031498
20640000,0.0324,0.013523,0.002678,0.000431,0.031968
20641000,0.0324,0.013523,0.002678,0.000431,0.028324
20642000,0.0324,0.013523,0.002678,0.000431,0.023976
20643000,0.0324,0.013523,0.002678,0.000431,0.015866
20644000,0.0324,0.013523,0.002678,0.000431,0.014926
20645000,0.0324,0.013523,0.002678,0.000431,0.017864
20646000,0.0324,0.013523,0.002678,0.000431,0.015514
20647000,0.0324,0.013523,0.002678,0.000431,0.014221
20648000,0.0324,0.013523,0.002678,0.000431,0.012458
20649000,0.0324,0.013523,0.002678,0.000431,0.011870
20650000,0.0324,0.013523,0.002678,0.000431,0.013046
20651000,0.0324,0.013523,0.002678,0.000431,0.012105
20652000,0.0324,0.013523,0.002678,0.000431,0.013633
20653000,0.0324,0.013523,0.002678,0.000431,0.010460
20654000,0.0324,0.013523,0.002678,0.000431,0.010225
20655000,0.0324,0.013523,0.002678,0.000431,0.009637
20656000,0.0324,0.013523,0.002678,0.000431,0.009402
20657000,0.0324,0.013523,0.002678,0.000431,0.009050
20658000,0.0324,0.013523,0.002678,0.000431,0.009637
20659000,0.0324,0.013523,0.002678,0.000431,0.014103
20660000,0.0324,0.013523,0.002678,0.000431,0.009637
20661000,0.0324,0.013523,0.002678,0.000431,0.005994
20662000,0.0324,0.013523,0.002678,0.000431,0.007757
20663000,0.0324,0.013523,0.002678,0.000431,0.006582
20664000,0.0324,0.013523,0.002678,0.000431,0.004113
20665000,0.0324,0.013523,0.002678,0.000431,0.005641
20666000,0.0324,0.013523,0.002678,0.000431,0.003291
20667000,0.0324,0.013523,0.002678,0.000431,0.003291
20668000,0.0324,0.013523,0.002678,0.000431,0.003056
20669000,0.0324,0.013523,0.002678,0.000431,0.003408
20670000,0.0324,0.013523,0.002678,0.000431,0.003056
20671000,0.0324,0.013523,0.002678,0.000431,0.003408
20672000,0.0324,0.013523,0.002678,0.000431,0.003173
20673000,0.0324,0.013523,0.002678,0.000431,0.003173
20674000,0.0324,0.013523,0.002678,0.000431,0.002586
20675000,0.0324,0.013523,0.002678,0.000431,0.002703
20676000,0.0324,0.013523,0.002678,0.000431,0.002586
20677000,0.0324,0.013523,0.002678,0.000431,0.002586
20678000,0.0324,0.013523,0.002678,0.000431,0.004349
20679000,0.0324,0.013523,0.002678,0.000431,0.001528
20680000,0.0324,0.013523,0.002678,0.000431,0.001880
20681000,0.0324,0.013523,0.002678,0.000431,0.001880
20682000,0.0324,0.013523,0.002678,0.000431,0.001528
20683000,0.0324,0.013523,0.002678,0.000431,0.003526
20684000,0.0324,0.013523,0.002678,0.000431,0.000705
20685000,0.0324,0.013523,0.002678,0.000431,0.000940
20686000,0.0324,0.013523,0.002678,0.000431,0.000823
20687000,0.0324,0.013523,0.002678,0.000431,0.000823
20688000,0.0324,0.013523,0.002678,0.000431,0.071105
20689000,0.0324,0.013523,0.002678,0.000431,0.504431
20690000,0.0324,0.013523,0.002678,0.000431,0.608678
20691000,0.0324,0.013523,0.002678,0.000431,0.131161
20692000,0.0324,0.013523,0.002678,0.000431,0.133982
20693000,0.0324,0.013523,0.002678,0.000431,0.531815
20694000,0.0324,0.013523,0.002678,0.000431,0.244576
20695000,0.0324,0.013523,0.002678,0.000431,0.236702
20696000,0.0324,0.013523,0.002678,0.000431,0.324965
20697000,0.0324,0.013523,0.002678,0.000431,0.141504
20698000,0.0324,0.013523,0.002678,0.000431,0.145030
20699000,0.0324,0.013523,0.002678,0.000431,0.160661
20700000,0.0324,0.013523,0.002678,0.000431,0.179701
20701000,0.0324,0.013523,0.002678,0.000431,0.441436
20702000,0.0324,0.013523,0.002678,0.000431,0.144090
20703000,0.0324,0.013523,0.002678,0.000431,0.103307
20704000,0.0324,0.013523,0.002678,0.000431,0.093200
20705000,0.0324,0.013523,0.002678,0.000431,0.076393
20706000,0.0324,0.013523,0.002678,0.000431,0.072515
20707000,0.0324,0.013523,0.002678,0.000431,0.061820
20708000,0.0324,0.013523,0.002678,0.000431,0.052300
20709000,0.0324,0.013523,0.002678,0.000431,0.047481
20710000,0.0324,0.013523,0.002678,0.000431,0.040195
20711000,0.0324,0.013523,0.002678,0.000431,0.033966
20712000,0.0324,0.013523,0.002678,0.000431,0.031262
20713000,0.0324,0.013523,0.002678,0.000431,0.030440
20714000,0.0324,0.013523,0.002678,0.000431,0.025034
20715000,0.0324,0.013523,0.002678,0.000431,0.023153
20716000,0.0324,0.013523,0.002678,0.000431,0.018569
20717000,0.0324,0.013523,0.002678,0.000431,0.023388
20718000,0.0324,0.013523,0.002678,0.000431,0.015984
20719000,0.0324,0.013523,0.002678,0.000431,0.014926
20720000,0.0324,0.013523,0.002678,0.000431,0.014573
20721000,0.0324,0.013523,0.002678,0.000431,0.012576
20722000,0.0324,0.013523,0.002678,0.000431,0.017277
20723000,0.0324,0.013523,0.002678,0.000431,0.012576
20724000,0.0324,0.013523,0.002678,0.000431,0.007639
20725000,0.0324,0.013523,0.002678,0.000431,0.007522
20726000,0.0324,0.013523,0.002678,0.000431,0.007639
20727000,0.0324,0.013523,0.002678,0.000431,0.009520
20728000,0.0324,0.013523,0.002678,0.000431,0.007052
20729000,0.0324,0.013523,0.002678,0.000431,0.011635
20730000,0.0324,0.013523,0.002678,0.000431,0.001763
20731000,0.0324,0.013523,0.002678,0.000431,0.004466
20732000,0.0324,0.013523,0.002678,0.000431,0.418988
20733000,0.0324,0.013523,0.002678,0.000431,0.715864
20734000,0.0324,0.013523,0.002678,0.000431,0.178290
20735000,0.0324,0.013523,0.002678,0.000431,0.134100
20736000,0.0324,0.013523,0.002678,0.000431,0.134100
20737000,0.0324,0.013523,0.002678,0.000431,0.592695
20738000,0.0324,0.013523,0.002678,0.000431,0.240698
20739000,0.0324,0.013523,0.002678,0.000431,0.267024
20740000,0.0324,0.013523,0.002678,0.000431,0.243283
20741000,0.0324,0.013523,0.002678,0.000431,0.146793
20742000,0.0324,0.013523,0.002678,0.000431,0.167243
20743000,0.0324,0.013523,0.002678,0.000431,0.104953
20744000,0.0324,0.013523,0.002678,0.000431,0.483393
20745000,0.0324,0.013523,0.002678,0.000431,0.150319
20746000,0.0324,0.013523,0.002678,0.000431,0.084973
20747000,0.0324,0.013523,0.002678,0.000431,0.071222
20748000,0.0324,0.013523,0.002678,0.000431,0.071927
20749000,0.0324,0.013523,0.002678,0.000431,0.046306
20750000,0.0324,0.013523,0.002678,0.000431,0.042780
20751000,0.0324,0.013523,0.002678,0.000431,0.047716
20752000,0.0324,0.013523,0.002678,0.000431,0.031968
20753000,0.0324,0.013523,0.002678,0.000431,0.029029
20754000,0.0324,0.013523,0.002678,0.000431,0.023036
20755000,0.0324,0.013523,0.002678,0.000431,0.023153
20756000,0.0324,0.013523,0.002678,0.000431,0.021390
20757000,0.0324,0.013523,0.002678,0.000431,0.025621
20758000,0.0324,0.013523,0.002678,0.000431,0.020450
20759000,0.0324,0.013523,0.002678,0.000431,0.018805
20760000,0.0324,0.013523,0.002678,0.000431,0.018452
20761000,0.0324,0.013523,0.002678,0.000431,0.015984
20762000,0.0324,0.013523,0.002678,0.000431,0.017042
20763000,0.0324,0.013523,0.002678,0.000431,0.014103
20764000,0.0324,0.013523,0.002678,0.000431,0.010695
20765000,0.0324,0.013523,0.002678,0.000431,0.010460
20766000,0.0324,0.013523,0.002678,0.000431,0.009520
20767000,0.0324,0.013523,0.002678,0.000431,0.013281
20768000,0.0324,0.013523,0.002678,0.000431,0.006934
20769000,0.0324,0.013523,0.002678,0.000431,0.008697
20770000,0.0324,0.013523,0.002678,0.000431,0.005759
20771000,0.0324,0.013523,0.002678,0.000431,0.004466
20772000,0.0324,0.013523,0.002678,0.000431,0.003643
20773000,0.0324,0.013523,0.002678,0.000431,0.004466
20774000,0.0324,0.013523,0.002678,0.000431,0.004349
20775000,0.0324,0.013523,0.002678,0.000431,0.003996
20776000,0.0324,0.013523,0.002678,0.000431,0.006699
20777000,0.0324,0.013523,0.002678,0.000431,0.004231
20778000,0.0324,0.013523,0.002678,0.000431,0.003291
20779000,0.0324,0.013523,0.002678,0.000431,0.002703
20780000,0.0324,0.013523,0.002678,0.000431,0.001645
20781000,0.0324,0.013523,0.002678,0.000431,0.001645
20782000,0.0324,0.013523,0.002678,0.000431,0.001410
20783000,0.0324,0.013523,0.002678,0.000431,0.001645
20784000,0.0324,0.013523,0.002678,0.000431,0.001410
20785000,0.0324,0.013523,0.002678,0.000431,0.001058
20786000,0.0324,0.013523,0.002678,0.000431,0.000940
20787000,0.0324,0.013523,0.002678,0.000431,0.000940
20788000,0.0324,0.013523,0.002678,0.000431,0.000940
20789000,0.0324,0.013523,0.002678,0.000431,0.000823
20790000,0.0324,0.013523,0.002678,0.000431,0.000823
20791000,0.0324,0.013523,0.002678,0.000431,0.000940
20792000,0.0324,0.013523,0.002678,0.000431,0.001880
20793000,0.0324,0.013523,0.002678,0.000431,0.385963
20794000,0.0324,0.013523,0.002678,0.000431,0.705757
20795000,0.0324,0.013523,0.002678,0.000431,0.190983
20796000,0.0324,0.013523,0.002678,0.000431,0.134452
20797000,0.0324,0.013523,0.002678,0.000431,0.137155
20798000,0.0324,0.013523,0.002678,0.000431,0.597513
20799000,0.0324,0.013523,0.002678,0.000431,0.232941
20800000,0.0324,0.013523,0.002678,0.000431,0.283478
20801000,0.0324,0.013523,0.002678,0.000431,0.254449
20802000,0.0324,0.013523,0.002678,0.000431,0.144912
20803000,0.0324,0.013523,0.002678,0.000431,0.169241
20804000,0.0324,0.013523,0.002678,0.000431,0.108008
20805000,0.0324,0.013523,0.002678,0.000431,0.474931
20806000,0.0324,0.013523,0.002678,0.000431,0.119056
20807000,0.0324,0.013523,0.002678,0.000431,0.091202
20808000,0.0324,0.013523,0.002678,0.000431,0.074043
20809000,0.0324,0.013523,0.002678,0.000431,0.057354
20810000,0.0324,0.013523,0.002678,0.000431,0.053240
20811000,0.0324,0.013523,0.002678,0.000431,0.039725
20812000,0.0324,0.013523,0.002678,0.000431,0.041487
20813000,0.0324,0.013523,0.002678,0.000431,0.021743
20814000,0.0324,0.013523,0.002678,0.000431,0.016101
20815000,0.0324,0.013523,0.002678,0.000431,0.017512
20816000,0.0324,0.013523,0.002678,0.000431,0.014809
20817000,0.0324,0.013523,0.002678,0.000431,0.011988
20818000,0.0324,0.013523,0.002678,0.000431,0.014809
20819000,0.0324,0.013523,0.002678,0.000431,0.013046
20820000,0.0324,0.013523,0.002678,0.000431,0.014221
20821000,0.0324,0.013523,0.002678,0.000431,0.008815
20822000,0.0324,0.013523,0.002678,0.000431,0.007992
20823000,0.0324,0.013523,0.002678,0.000431,0.013516
20824000,0.0324,0.013523,0.002678,0.000431,0.006582
20825000,0.0324,0.013523,0.002678,0.000431,0.003761
20826000,0.0324,0.013523,0.002678,0.000431,0.003291
20827000,0.0324,0.013523,0.002678,0.000431,0.003408
20828000,0.0324,0.013523,0.002678,0.000431,0.003408
20829000,0.0324,0.013523,0.002678,0.000431,0.003526
20830000,0.0324,0.013523,0.002678,0.000431,0.003526
20831000,0.0324,0.013523,0.002678,0.000431,0.004466
20832000,0.0324,0.013523,0.002678,0.000431,0.004349
20833000,0.0324,0.013523,0.002678,0.000431,0.002468
20834000,0.0324,0.013523,0.002678,0.000431,0.002468
20835000,0.0324,0.013523,0.002678,0.000431,0.002586
20836000,0.0324,0.013523,0.002678,0.000431,0.002351
20837000,0.0324,0.013523,0.002678,0.000431,0.002821
20838000,0.0324,0.013523,0.002678,0.000431,0.002116
20839000,0.0324,0.013523,0.002678,0.000431,0.002586
20840000,0.0324,0.013523,0.002678,0.000431,0.002703
20841000,0.0324,0.013523,0.002678,0.000431,0.002468
20842000,0.0324,0.013523,0.002678,0.000431,0.002586
20843000,0.0324,0.013523,0.002678,0.000431,0.005641
20844000,0.0324,0.013523,0.002678,0.000431,0.000940
20845000,0.0324,0.013523,0.002678,0.000431,0.000823
20846000,0.0324,0.013523,0.002678,0.000431,0.000823
20847000,0.0324,0.013523,0.002678,0.000431,0.000823
20848000,0.0324,0.013523,0.002678,0.000431,0.000823
20849000,0.0324,0.013523,0.002678,0.000431,0.000823
20850000,0.0324,0.013523,0.002678,0.000431,0.000823
20851000,0.0324,0.013523,0.002678,0.000431,0.000940
20852000,0.0324,0.013523,0.002678,0.000431,0.000823
20853000,0.0324,0.013523,0.002678,0.000431,0.000823
20854000,0.0324,0.013523,0.002678,0.000431,0.002586
20855000,0.0324,0.013523,0.002678,0.000431,0.455304
20856000,0.0324,0.013523,0.002678,0.000431,0.695884
20857000,0.0324,0.013523,0.002678,0.000431,0.143032
20858000,0.0324,0.013523,0.002678,0.000431,0.133512
20859000,0.0324,0.013523,0.002678,0.000431,0.186517
20860000,0.0324,0.013523,0.002678,0.000431,0.562490
20861000,0.0324,0.013523,0.002678,0.000431,0.267847
20862000,0.0324,0.013523,0.002678,0.000431,0.307219
20863000,0.0324,0.013523,0.002678,0.000431,0.208495
20864000,0.0324,0.013523,0.002678,0.000431,0.137273
20865000,0.0324,0.013523,0.002678,0.000431,0.150671
20866000,0.0324,0.013523,0.002678,0.000431,0.206732
20867000,0.0324,0.013523,0.002678,0.000431,0.429801
20868000,0.0324,0.013523,0.002678,0.000431,0.142797
20869000,0.0324,0.013523,0.002678,0.000431,0.110712
20870000,0.0324,0.013523,0.002678,0.000431,0.101779
20871000,0.0324,0.013523,0.002678,0.000431,0.077451
20872000,0.0324,0.013523,0.002678,0.000431,0.065228
20873000,0.0324,0.013523,0.002678,0.000431,0.051477
20874000,0.0324,0.013523,0.002678,0.000431,0.046424
20875000,0.0324,0.013523,0.002678,0.000431,0.036316
20876000,0.0324,0.013523,0.002678,0.000431,0.036669
20877000,0.0324,0.013523,0.002678,0.000431,0.031968
20878000,0.0324,0.013523,0.002678,0.000431,0.030205
20879000,0.0324,0.013523,0.002678,0.000431,0.024916
20880000,0.0324,0.013523,0.002678,0.000431,0.027031
20881000,0.0324,0.013523,0.002678,0.000431,0.018334
20882000,0.0324,0.013523,0.002678,0.000431,0.025034
20883000,0.0324,0.013523,0.002678,0.000431,0.021860
20884000,0.0324,0.013523,0.002678,0.000431,0.009872
20885000,0.0324,0.013523,0.002678,0.000431,0.010225
20886000,0.0324,0.013523,0.002678,0.000431,0.009872
20887000,0.0324,0.013523,0.002678,0.000431,0.006582
20888000,0.0324,0.013523,0.002678,0.000431,0.006699
20889000,0.0324,0.013523,0.002678,0.000431,0.006934
20890000,0.0324,0.013523,0.002678,0.000431,0.008580
20891000,0.0324,0.013523,0.002678,0.000431,0.006934
20892000,0.0324,0.013523,0.002678,0.000431,0.005054
20893000,0.0324,0.013523,0.002678,0.000431,0.005171
20894000,0.0324,0.013523,0.002678,0.000431,0.006229
20895000,0.0324,0.013523,0.002678,0.000431,0.005641
20896000,0.0324,0.013523,0.002678,0.000431,0.004466
20897000,0.0324,0.013523,0.002678,0.000431,0.004349
20898000,0.0324,0.013523,0.002678,0.000431,0.004113
20899000,0.0324,0.013523,0.002678,0.000431,0.007287
20900000,0.0324,0.013523,0.002678,0.000431,0.003643
20901000,0.0324,0.013523,0.002678,0.000431,0.003408
20902000,0.0324,0.013523,0.002678,0.000431,0.003173
20903000,0.0324,0.013523,0.002678,0.000431,0.003526
20904000,0.0324,0.013523,0.002678,0.000431,0.005054
20905000,0.0324,0.013523,0.002678,0.000431,0.006464
20906000,0.0324,0.013523,0.002678,0.000431,0.001410
20907000,0.0324,0.013523,0.002678,0.000431,0.001880
20908000,0.0324,0.013523,0.002678,0.000431,0.002233
20909000,0.0324,0.013523,0.002678,0.000431,0.406765
20910000,0.0324,0.013523,0.002678,0.000431,0.712573
20911000,0.0324,0.013523,0.002678,0.000431,0.224126
20912000,0.0324,0.013523,0.002678,0.000431,0.133982
20913000,0.0324,0.013523,0.002678,0.000431,0.154902
20914000,0.0324,0.013523,0.002678,0.000431,0.647580
20915000,0.0324,0.013523,0.002678,0.000431,0.236467
20916000,0.0324,0.013523,0.002678,0.000431,0.260325
20917000,0.0324,0.013523,0.002678,0.000431,0.201796
20918000,0.0324,0.013523,0.002678,0.000431,0.145265
20919000,0.0324,0.013523,0.002678,0.000431,0.170063
20920000,0.0324,0.013523,0.002678,0.000431,0.137038
20921000,0.0324,0.013523,0.002678,0.000431,0.473404
20922000,0.0324,0.013523,0.002678,0.000431,0.150201
20923000,0.0324,0.013523,0.002678,0.000431,0.105775
20924000,0.0324,0.013523,0.002678,0.000431,0.096726
20925000,0.0324,0.013523,0.002678,0.000431,0.070752
20926000,0.0324,0.013523,0.002678,0.000431,0.068989
20927000,0.0324,0.013523,0.002678,0.000431,0.055356
20928000,0.0324,0.013523,0.002678,0.000431,0.053475
20929000,0.0324,0.013523,0.002678,0.000431,0.043603
20930000,0.0324,0.013523,0.002678,0.000431,0.043838
20931000,0.0324,0.013523,0.002678,0.000431,0.034906
20932000,0.0324,0.013523,0.002678,0.000431,0.029970
20933000,0.0324,0.013523,0.002678,0.000431,0.030322
20934000,0.0324,0.013523,0.002678,0.000431,0.025739
20935000,0.0324,0.013523,0.002678,0.000431,0.022330
20936000,0.0324,0.013523,0.002678,0.000431,0.022683
20937000,0.0324,0.013523,0.002678,0.000431,0.025856
20938000,0.0324,0.013523,0.002678,0.000431,0.016101
20939000,0.0324,0.013523,0.002678,0.000431,0.016689
20940000,0.0324,0.013523,0.002678,0.000431,0.009402
20941000,0.0324,0.013523,0.002678,0.000431,0.009050
20942000,0.0324,0.013523,0.002678,0.000431,0.010578
20943000,0.0324,0.013523,0.002678,0.000431,0.012458
20944000,0.0324,0.013523,0.002678,0.000431,0.007874
20945000,0.0324,0.013523,0.002678,0.000431,0.005171
20946000,0.0324,0.013523,0.002678,0.000431,0.006111
20947000,0.0324,0.013523,0.002678,0.000431,0.005406
20948000,0.0324,0.013523,0.002678,0.000431,0.004231
20949000,0.0324,0.013523,0.002678,0.000431,0.004113
20950000,0.0324,0.013523,0.002678,0.000431,0.004349
20951000,0.0324,0.013523,0.002678,0.000431,0.004349
20952000,0.0324,0.013523,0.002678,0.000431,0.004349
20953000,0.0324,0.013523,0.002678,0.000431,0.004113
20954000,0.0324,0.013523,0.002678,0.000431,0.004113
20955000,0.0324,0.013523,0.002678,0.000431,0.004584
20956000,0.0324,0.013523,0.002678,0.000431,0.006817
20957000,0.0324,0.013523,0.002678,0.000431,0.005054
20958000,0.0324,0.013523,0.002678,0.000431,0.004936
20959000,0.0324,0.013523,0.002678,0.000431,0.001410
20960000,0.0324,0.013523,0.002678,0.000431,0.001880
20961000,0.0324,0.013523,0.002678,0.000431,0.001528
20962000,0.0324,0.013523,0.002678,0.000431,0.001763
20963000,0.0324,0.013523,0.002678,0.000431,0.001528
20964000,0.0324,0.013523,0.002678,0.000431,0.001763
20965000,0.0324,0.013523,0.002678,0.000431,0.001763
20966000,0.0324,0.013523,0.002678,0.000431,0.001645
20967000,0.0324,0.013523,0.002678,0.000431,0.001763
20968000,0.0324,0.013523,0.002678,0.000431,0.001528
20969000,0.0324,0.013523,0.002678,0.000431,0.001880
20970000,0.0324,0.013523,0.002678,0.000431,0.002821
20971000,0.0324,0.013523,0.002678,0.000431,0.000705
20972000,0.0324,0.013523,0.002678,0.000431,0.000940
20973000,0.0324,0.013523,0.002678,0.000431,0.000705
20974000,0.0324,0.013523,0.002678,0.000431,0.000940
20975000,0.0324,0.013523,0.002678,0.000431,0.023976
20976000,0.0324,0.013523,0.002678,0.000431,0.623605
20977000,0.0324,0.013523,0.002678,0.000431,0.612087
20978000,0.0324,0.013523,0.002678,0.000431,0.131397
20979000,0.0324,0.013523,0.002678,0.000431,0.138683
20980000,0.0324,0.013523,0.002678,0.000431,0.505371
20981000,0.0324,0.013523,0.002678,0.000431,0.268552
20982000,0.0324,0.013523,0.002678,0.000431,0.277954
20983000,0.0324,0.013523,0.002678,0.000431,0.311685
20984000,0.0324,0.013523,0.002678,0.000431,0.137508
20985000,0.0324,0.013523,0.002678,0.000431,0.152199
20986000,0.0324,0.013523,0.002678,0.000431,0.121994
20987000,0.0324,0.013523,0.002678,0.000431,0.294526
20988000,0.0324,0.013523,0.002678,0.000431,0.327786
20989000,0.0324,0.013523,0.002678,0.000431,0.066286
20990000,0.0324,0.013523,0.002678,0.000431,0.061585
20991000,0.0324,0.013523,0.002678,0.000431,0.045601
20992000,0.0324,0.013523,0.002678,0.000431,0.039489
20993000,0.0324,0.013523,0.002678,0.000431,0.038549
20994000,0.0324,0.013523,0.002678,0.000431,0.028559
20995000,0.0324,0.013523,0.002678,0.000431,0.030792
20996000,0.0324,0.013523,0.002678,0.000431,0.025621
20997000,0.0324,0.013523,0.002678,0.000431,0.028559
20998000,0.0324,0.013523,0.002678,0.000431,0.023036
20999000,0.0324,0.013523,0.002678,0.000431,0.022683
