Cycle,Area(mm^2),PeakDynamic(W),SubthresholdLeakage(W),GateLeakage(W),RunTimeDynamic(W)
15000000,0.0324,0.013523,0.002678,0.000431,0.002468
15001000,0.0324,0.013523,0.002678,0.000431,0.003173
15002000,0.0324,0.013523,0.002678,0.000431,0.003761
15003000,0.0324,0.013523,0.002678,0.000431,0.001763
15004000,0.0324,0.013523,0.002678,0.000431,0.000940
15005000,0.0324,0.013523,0.002678,0.000431,0.205322
15006000,0.0324,0.013523,0.002678,0.000431,0.500788
15007000,0.0324,0.013523,0.002678,0.000431,0.486097
15008000,0.0324,0.013523,0.002678,0.000431,0.133277
15009000,0.0324,0.013523,0.002678,0.000431,0.134452
15010000,0.0324,0.013523,0.002678,0.000431,0.592812
15011000,0.0324,0.013523,0.002678,0.000431,0.265731
15012000,0.0324,0.013523,0.002678,0.000431,0.255036
15013000,0.0324,0.013523,0.002678,0.000431,0.255271
15014000,0.0324,0.013523,0.002678,0.000431,0.148203
15015000,0.0324,0.013523,0.002678,0.000431,0.167125
15016000,0.0324,0.013523,0.002678,0.000431,0.135157
15017000,0.0324,0.013523,0.002678,0.000431,0.458948
15018000,0.0324,0.013523,0.002678,0.000431,0.112592
15019000,0.0324,0.013523,0.002678,0.000431,0.070047
15020000,0.0324,0.013523,0.002678,0.000431,0.059117
15021000,0.0324,0.013523,0.002678,0.000431,0.038197
15022000,0.0324,0.013523,0.002678,0.000431,0.035376
15023000,0.0324,0.013523,0.002678,0.000431,0.032908
15024000,0.0324,0.013523,0.002678,0.000431,0.025034
15025000,0.0324,0.013523,0.002678,0.000431,0.024093
15026000,0.0324,0.013523,0.002678,0.000431,0.016924
15027000,0.0324,0.013523,0.002678,0.000431,0.013398
15028000,0.0324,0.013523,0.002678,0.000431,0.010460
15029000,0.0324,0.013523,0.002678,0.000431,0.011283
15030000,0.0324,0.013523,0.002678,0.000431,0.009402
15031000,0.0324,0.013523,0.002678,0.000431,0.014221
15032000,0.0324,0.013523,0.002678,0.000431,0.008227
15033000,0.0324,0.013523,0.002678,0.000431,0.007639
15034000,0.0324,0.013523,0.002678,0.000431,0.005289
15035000,0.0324,0.013523,0.002678,0.000431,0.003643
15036000,0.0324,0.013523,0.002678,0.000431,0.003526
15037000,0.0324,0.013523,0.002678,0.000431,0.003173
15038000,0.0324,0.013523,0.002678,0.000431,0.005406
15039000,0.0324,0.013523,0.002678,0.000431,0.002586
15040000,0.0324,0.013523,0.002678,0.000431,0.002586
15041000,0.0324,0.013523,0.002678,0.000431,0.002586
15042000,0.0324,0.013523,0.002678,0.000431,0.003643
15043000,0.0324,0.013523,0.002678,0.000431,0.001645
15044000,0.0324,0.013523,0.002678,0.000431,0.001763
15045000,0.0324,0.013523,0.002678,0.000431,0.001763
15046000,0.0324,0.013523,0.002678,0.000431,0.001763
15047000,0.0324,0.013523,0.002678,0.000431,0.001645
15048000,0.0324,0.013523,0.002678,0.000431,0.003643
15049000,0.0324,0.013523,0.002678,0.000431,0.000823
15050000,0.0324,0.013523,0.002678,0.000431,0.000940
15051000,0.0324,0.013523,0.002678,0.000431,0.196390
15052000,0.0324,0.013523,0.002678,0.000431,0.526879
15053000,0.0324,0.013523,0.002678,0.000431,0.501023
15054000,0.0324,0.013523,0.002678,0.000431,0.132572
15055000,0.0324,0.013523,0.002678,0.000431,0.134922
15056000,0.0324,0.013523,0.002678,0.000431,0.571304
15057000,0.0324,0.013523,0.002678,0.000431,0.226359
15058000,0.0324,0.013523,0.002678,0.000431,0.275251
15059000,0.0324,0.013523,0.002678,0.000431,0.247632
15060000,0.0324,0.013523,0.002678,0.000431,0.145735
15061000,0.0324,0.013523,0.002678,0.000431,0.188398
15062000,0.0324,0.013523,0.002678,0.000431,0.087088
15063000,0.0324,0.013523,0.002678,0.000431,0.494324
15064000,0.0324,0.013523,0.002678,0.000431,0.119174
15065000,0.0324,0.013523,0.002678,0.000431,0.073573
15066000,0.0324,0.013523,0.002678,0.000431,0.061585
15067000,0.0324,0.013523,0.002678,0.000431,0.044778
15068000,0.0324,0.013523,0.002678,0.000431,0.037844
15069000,0.0324,0.013523,0.002678,0.000431,0.030675
15070000,0.0324,0.013523,0.002678,0.000431,0.029029
15071000,0.0324,0.013523,0.002678,0.000431,0.024328
15072000,0.0324,0.013523,0.002678,0.000431,0.018334
15073000,0.0324,0.013523,0.002678,0.000431,0.015749
15074000,0.0324,0.013523,0.002678,0.000431,0.008932
15075000,0.0324,0.013523,0.002678,0.000431,0.010695
15076000,0.0324,0.013523,0.002678,0.000431,0.012576
15077000,0.0324,0.013523,0.002678,0.000431,0.369626
15078000,0.0324,0.013523,0.002678,0.000431,0.689420
15079000,0.0324,0.013523,0.002678,0.000431,0.191571
15080000,0.0324,0.013523,0.002678,0.000431,0.135157
15081000,0.0324,0.013523,0.002678,0.000431,0.131984
15082000,0.0324,0.013523,0.002678,0.000431,0.563078
15083000,0.0324,0.013523,0.002678,0.000431,0.242813
15084000,0.0324,0.013523,0.002678,0.000431,0.262088
15085000,0.0324,0.013523,0.002678,0.000431,0.207202
15086000,0.0324,0.013523,0.002678,0.000431,0.151494
15087000,0.0324,0.013523,0.002678,0.000431,0.189690
15088000,0.0324,0.013523,0.002678,0.000431,0.087676
15089000,0.0324,0.013523,0.002678,0.000431,0.487624
15090000,0.0324,0.013523,0.002678,0.000431,0.105893
15091000,0.0324,0.013523,0.002678,0.000431,0.072985
15092000,0.0324,0.013523,0.002678,0.000431,0.064993
15093000,0.0324,0.013523,0.002678,0.000431,0.047951
15094000,0.0324,0.013523,0.002678,0.000431,0.033025
15095000,0.0324,0.013523,0.002678,0.000431,0.029500
15096000,0.0324,0.013523,0.002678,0.000431,0.028442
15097000,0.0324,0.013523,0.002678,0.000431,0.026091
15098000,0.0324,0.013523,0.002678,0.000431,0.017747
15099000,0.0324,0.013523,0.002678,0.000431,0.011870
15100000,0.0324,0.013523,0.002678,0.000431,0.008345
15101000,0.0324,0.013523,0.002678,0.000431,0.011048
15102000,0.0324,0.013523,0.002678,0.000431,0.005994
15103000,0.0324,0.013523,0.002678,0.000431,0.007639
15104000,0.0324,0.013523,0.002678,0.000431,0.006934
15105000,0.0324,0.013523,0.002678,0.000431,0.003878
15106000,0.0324,0.013523,0.002678,0.000431,0.002821
15107000,0.0324,0.013523,0.002678,0.000431,0.002586
15108000,0.0324,0.013523,0.002678,0.000431,0.002703
15109000,0.0324,0.013523,0.002678,0.000431,0.002586
15110000,0.0324,0.013523,0.002678,0.000431,0.003761
15111000,0.0324,0.013523,0.002678,0.000431,0.002821
15112000,0.0324,0.013523,0.002678,0.000431,0.001763
15113000,0.0324,0.013523,0.002678,0.000431,0.001998
15114000,0.0324,0.013523,0.002678,0.000431,0.001528
15115000,0.0324,0.013523,0.002678,0.000431,0.002116
15116000,0.0324,0.013523,0.002678,0.000431,0.002116
15117000,0.0324,0.013523,0.002678,0.000431,0.002586
15118000,0.0324,0.013523,0.002678,0.000431,0.002233
15119000,0.0324,0.013523,0.002678,0.000431,0.000940
15120000,0.0324,0.013523,0.002678,0.000431,0.000940
15121000,0.0324,0.013523,0.002678,0.000431,0.000823
15122000,0.0324,0.013523,0.002678,0.000431,0.000823
15123000,0.0324,0.013523,0.002678,0.000431,0.000940
15124000,0.0324,0.013523,0.002678,0.000431,0.000823
15125000,0.0324,0.013523,0.002678,0.000431,0.000940
15126000,0.0324,0.013523,0.002678,0.000431,0.000823
15127000,0.0324,0.013523,0.002678,0.000431,0.000940
15128000,0.0324,0.013523,0.002678,0.000431,0.000823
15129000,0.0324,0.013523,0.002678,0.000431,0.014809
15130000,0.0324,0.013523,0.002678,0.000431,0.551090
15131000,0.0324,0.013523,0.002678,0.000431,0.588816
15132000,0.0324,0.013523,0.002678,0.000431,0.134452
15133000,0.0324,0.013523,0.002678,0.000431,0.133512
15134000,0.0324,0.013523,0.002678,0.000431,0.511365
15135000,0.0324,0.013523,0.002678,0.000431,0.255741
15136000,0.0324,0.013523,0.002678,0.000431,0.269375
15137000,0.0324,0.013523,0.002678,0.000431,0.305338
15138000,0.0324,0.013523,0.002678,0.000431,0.140094
15139000,0.0324,0.013523,0.002678,0.000431,0.145970
15140000,0.0324,0.013523,0.002678,0.000431,0.125755
15141000,0.0324,0.013523,0.002678,0.000431,0.324495
15142000,0.0324,0.013523,0.002678,0.000431,0.292763
15143000,0.0324,0.013523,0.002678,0.000431,0.066756
15144000,0.0324,0.013523,0.002678,0.000431,0.047951
15145000,0.0324,0.013523,0.002678,0.000431,0.034788
15146000,0.0324,0.013523,0.002678,0.000431,0.032908
15147000,0.0324,0.013523,0.002678,0.000431,0.026091
15148000,0.0324,0.013523,0.002678,0.000431,0.025504
15149000,0.0324,0.013523,0.002678,0.000431,0.021273
15150000,0.0324,0.013523,0.002678,0.000431,0.016219
15151000,0.0324,0.013523,0.002678,0.000431,0.015396
15152000,0.0324,0.013523,0.002678,0.000431,0.009990
15153000,0.0324,0.013523,0.002678,0.000431,0.006817
15154000,0.0324,0.013523,0.002678,0.000431,0.009520
15155000,0.0324,0.013523,0.002678,0.000431,0.007169
15156000,0.0324,0.013523,0.002678,0.000431,0.004113
15157000,0.0324,0.013523,0.002678,0.000431,0.005994
15158000,0.0324,0.013523,0.002678,0.000431,0.004701
15159000,0.0324,0.013523,0.002678,0.000431,0.002703
15160000,0.0324,0.013523,0.002678,0.000431,0.004349
15161000,0.0324,0.013523,0.002678,0.000431,0.001880
15162000,0.0324,0.013523,0.002678,0.000431,0.002938
15163000,0.0324,0.013523,0.002678,0.000431,0.122347
15164000,0.0324,0.013523,0.002678,0.000431,0.538514
15165000,0.0324,0.013523,0.002678,0.000431,0.521708
15166000,0.0324,0.013523,0.002678,0.000431,0.134922
15167000,0.0324,0.013523,0.002678,0.000431,0.132572
15168000,0.0324,0.013523,0.002678,0.000431,0.604447
15169000,0.0324,0.013523,0.002678,0.000431,0.257387
15170000,0.0324,0.013523,0.002678,0.000431,0.255741
15171000,0.0324,0.013523,0.002678,0.000431,0.266084
15172000,0.0324,0.013523,0.002678,0.000431,0.145147
15173000,0.0324,0.013523,0.002678,0.000431,0.179466
15174000,0.0324,0.013523,0.002678,0.000431,0.097313
15175000,0.0324,0.013523,0.002678,0.000431,0.466234
15176000,0.0324,0.013523,0.002678,0.000431,0.106598
15177000,0.0324,0.013523,0.002678,0.000431,0.076746
15178000,0.0324,0.013523,0.002678,0.000431,0.057471
15179000,0.0324,0.013523,0.002678,0.000431,0.054886
15180000,0.0324,0.013523,0.002678,0.000431,0.046776
15181000,0.0324,0.013523,0.002678,0.000431,0.039137
15182000,0.0324,0.013523,0.002678,0.000431,0.032673
15183000,0.0324,0.013523,0.002678,0.000431,0.024798
15184000,0.0324,0.013523,0.002678,0.000431,0.023976
15185000,0.0324,0.013523,0.002678,0.000431,0.019627
15186000,0.0324,0.013523,0.002678,0.000431,0.021155
15187000,0.0324,0.013523,0.002678,0.000431,0.014926
15188000,0.0324,0.013523,0.002678,0.000431,0.016571
15189000,0.0324,0.013523,0.002678,0.000431,0.009050
15190000,0.0324,0.013523,0.002678,0.000431,0.007639
15191000,0.0324,0.013523,0.002678,0.000431,0.006347
15192000,0.0324,0.013523,0.002678,0.000431,0.004349
15193000,0.0324,0.013523,0.002678,0.000431,0.004113
15194000,0.0324,0.013523,0.002678,0.000431,0.004349
15195000,0.0324,0.013523,0.002678,0.000431,0.004349
15196000,0.0324,0.013523,0.002678,0.000431,0.006111
15197000,0.0324,0.013523,0.002678,0.000431,0.005171
15198000,0.0324,0.013523,0.002678,0.000431,0.003643
15199000,0.0324,0.013523,0.002678,0.000431,0.001763
15200000,0.0324,0.013523,0.002678,0.000431,0.001645
15201000,0.0324,0.013523,0.002678,0.000431,0.001645
15202000,0.0324,0.013523,0.002678,0.000431,0.001763
15203000,0.0324,0.013523,0.002678,0.000431,0.001528
15204000,0.0324,0.013523,0.002678,0.000431,0.001880
15205000,0.0324,0.013523,0.002678,0.000431,0.001645
15206000,0.0324,0.013523,0.002678,0.000431,0.001645
15207000,0.0324,0.013523,0.002678,0.000431,0.003878
15208000,0.0324,0.013523,0.002678,0.000431,0.000705
15209000,0.0324,0.013523,0.002678,0.000431,0.000940
15210000,0.0324,0.013523,0.002678,0.000431,0.000823
15211000,0.0324,0.013523,0.002678,0.000431,0.000823
15212000,0.0324,0.013523,0.002678,0.000431,0.000823
15213000,0.0324,0.013523,0.002678,0.000431,0.000823
15214000,0.0324,0.013523,0.002678,0.000431,0.000940
15215000,0.0324,0.013523,0.002678,0.000431,0.000705
15216000,0.0324,0.013523,0.002678,0.000431,0.000940
15217000,0.0324,0.013523,0.002678,0.000431,0.000823
15218000,0.0324,0.013523,0.002678,0.000431,0.000823
15219000,0.0324,0.013523,0.002678,0.000431,0.000823
15220000,0.0324,0.013523,0.002678,0.000431,0.000823
15221000,0.0324,0.013523,0.002678,0.000431,0.000940
15222000,0.0324,0.013523,0.002678,0.000431,0.000705
15223000,0.0324,0.013523,0.002678,0.000431,0.000940
15224000,0.0324,0.013523,0.002678,0.000431,0.000823
15225000,0.0324,0.013523,0.002678,0.000431,0.000823
15226000,0.0324,0.013523,0.002678,0.000431,0.000705
15227000,0.0324,0.013523,0.002678,0.000431,0.000940
15228000,0.0324,0.013523,0.002678,0.000431,0.000940
15229000,0.0324,0.013523,0.002678,0.000431,0.000705
15230000,0.0324,0.013523,0.002678,0.000431,0.000940
15231000,0.0324,0.013523,0.002678,0.000431,0.000705
15232000,0.0324,0.013523,0.002678,0.000431,0.000940
15233000,0.0324,0.013523,0.002678,0.000431,0.000823
15234000,0.0324,0.013523,0.002678,0.000431,0.000823
15235000,0.0324,0.013523,0.002678,0.000431,0.000940
15236000,0.0324,0.013523,0.002678,0.000431,0.000705
15237000,0.0324,0.013523,0.002678,0.000431,0.000940
15238000,0.0324,0.013523,0.002678,0.000431,0.000823
15239000,0.0324,0.013523,0.002678,0.000431,0.000823
15240000,0.0324,0.013523,0.002678,0.000431,0.000823
15241000,0.0324,0.013523,0.002678,0.000431,0.000823
15242000,0.0324,0.013523,0.002678,0.000431,0.000940
15243000,0.0324,0.013523,0.002678,0.000431,0.000823
15244000,0.0324,0.013523,0.002678,0.000431,0.000823
15245000,0.0324,0.013523,0.002678,0.000431,0.000940
15246000,0.0324,0.013523,0.002678,0.000431,0.000823
15247000,0.0324,0.013523,0.002678,0.000431,0.000823
15248000,0.0324,0.013523,0.002678,0.000431,0.000940
15249000,0.0324,0.013523,0.002678,0.000431,0.002821
15250000,0.0324,0.013523,0.002678,0.000431,0.418870
15251000,0.0324,0.013523,0.002678,0.000431,0.688363
15252000,0.0324,0.013523,0.002678,0.000431,0.135275
15253000,0.0324,0.013523,0.002678,0.000431,0.133042
15254000,0.0324,0.013523,0.002678,0.000431,0.190043
15255000,0.0324,0.013523,0.002678,0.000431,0.548386
15256000,0.0324,0.013523,0.002678,0.000431,0.283713
15257000,0.0324,0.013523,0.002678,0.000431,0.272900
15258000,0.0324,0.013523,0.002678,0.000431,0.204146
15259000,0.0324,0.013523,0.002678,0.000431,0.143502
15260000,0.0324,0.013523,0.002678,0.000431,0.151494
15261000,0.0324,0.013523,0.002678,0.000431,0.180876
15262000,0.0324,0.013523,0.002678,0.000431,0.415815
15263000,0.0324,0.013523,0.002678,0.000431,0.084033
15264000,0.0324,0.013523,0.002678,0.000431,0.072280
15265000,0.0324,0.013523,0.002678,0.000431,0.052183
15266000,0.0324,0.013523,0.002678,0.000431,0.046776
15267000,0.0324,0.013523,0.002678,0.000431,0.033848
15268000,0.0324,0.013523,0.002678,0.000431,0.031027
15269000,0.0324,0.013523,0.002678,0.000431,0.037021
15270000,0.0324,0.013523,0.002678,0.000431,0.023858
15271000,0.0324,0.013523,0.002678,0.000431,0.019040
15272000,0.0324,0.013523,0.002678,0.000431,0.019157
15273000,0.0324,0.013523,0.002678,0.000431,0.016689
15274000,0.0324,0.013523,0.002678,0.000431,0.010107
15275000,0.0324,0.013523,0.002678,0.000431,0.010578
15276000,0.0324,0.013523,0.002678,0.000431,0.011048
15277000,0.0324,0.013523,0.002678,0.000431,0.007052
15278000,0.0324,0.013523,0.002678,0.000431,0.012105
15279000,0.0324,0.013523,0.002678,0.000431,0.009520
15280000,0.0324,0.013523,0.002678,0.000431,0.004113
15281000,0.0324,0.013523,0.002678,0.000431,0.001763
15282000,0.0324,0.013523,0.002678,0.000431,0.001645
15283000,0.0324,0.013523,0.002678,0.000431,0.001763
15284000,0.0324,0.013523,0.002678,0.000431,0.001645
15285000,0.0324,0.013523,0.002678,0.000431,0.001763
15286000,0.0324,0.013523,0.002678,0.000431,0.001645
15287000,0.0324,0.013523,0.002678,0.000431,0.001528
15288000,0.0324,0.013523,0.002678,0.000431,0.003996
15289000,0.0324,0.013523,0.002678,0.000431,0.000823
15290000,0.0324,0.013523,0.002678,0.000431,0.000823
15291000,0.0324,0.013523,0.002678,0.000431,0.000823
15292000,0.0324,0.013523,0.002678,0.000431,0.000823
15293000,0.0324,0.013523,0.002678,0.000431,0.000823
15294000,0.0324,0.013523,0.002678,0.000431,0.000940
15295000,0.0324,0.013523,0.002678,0.000431,0.000823
15296000,0.0324,0.013523,0.002678,0.000431,0.000823
15297000,0.0324,0.013523,0.002678,0.000431,0.000705
15298000,0.0324,0.013523,0.002678,0.000431,0.000940
15299000,0.0324,0.013523,0.002678,0.000431,0.071105
15300000,0.0324,0.013523,0.002678,0.000431,0.509837
15301000,0.0324,0.013523,0.002678,0.000431,0.587288
15302000,0.0324,0.013523,0.002678,0.000431,0.133042
15303000,0.0324,0.013523,0.002678,0.000431,0.133982
15304000,0.0324,0.013523,0.002678,0.000431,0.562020
15305000,0.0324,0.013523,0.002678,0.000431,0.227887
15306000,0.0324,0.013523,0.002678,0.000431,0.304398
15307000,0.0324,0.013523,0.002678,0.000431,0.286651
15308000,0.0324,0.013523,0.002678,0.000431,0.143032
15309000,0.0324,0.013523,0.002678,0.000431,0.158075
15310000,0.0324,0.013523,0.002678,0.000431,0.103777
15311000,0.0324,0.013523,0.002678,0.000431,0.436617
15312000,0.0324,0.013523,0.002678,0.000431,0.169828
15313000,0.0324,0.013523,0.002678,0.000431,0.074748
15314000,0.0324,0.013523,0.002678,0.000431,0.060409
15315000,0.0324,0.013523,0.002678,0.000431,0.056296
15316000,0.0324,0.013523,0.002678,0.000431,0.049127
15317000,0.0324,0.013523,0.002678,0.000431,0.035494
15318000,0.0324,0.013523,0.002678,0.000431,0.024798
15319000,0.0324,0.013523,0.002678,0.000431,0.029735
15320000,0.0324,0.013523,0.002678,0.000431,0.022330
15321000,0.0324,0.013523,0.002678,0.000431,0.019040
15322000,0.0324,0.013523,0.002678,0.000431,0.019980
15323000,0.0324,0.013523,0.002678,0.000431,0.016454
15324000,0.0324,0.013523,0.002678,0.000431,0.015161
15325000,0.0324,0.013523,0.002678,0.000431,0.012340
15326000,0.0324,0.013523,0.002678,0.000431,0.013986
15327000,0.0324,0.013523,0.002678,0.000431,0.010107
15328000,0.0324,0.013523,0.002678,0.000431,0.011518
15329000,0.0324,0.013523,0.002678,0.000431,0.007639
15330000,0.0324,0.013523,0.002678,0.000431,0.005406
15331000,0.0324,0.013523,0.002678,0.000431,0.005524
15332000,0.0324,0.013523,0.002678,0.000431,0.006229
15333000,0.0324,0.013523,0.002678,0.000431,0.004349
15334000,0.0324,0.013523,0.002678,0.000431,0.003996
15335000,0.0324,0.013523,0.002678,0.000431,0.005994
15336000,0.0324,0.013523,0.002678,0.000431,0.003526
15337000,0.0324,0.013523,0.002678,0.000431,0.003056
15338000,0.0324,0.013523,0.002678,0.000431,0.006817
15339000,0.0324,0.013523,0.002678,0.000431,0.002351
15340000,0.0324,0.013523,0.002678,0.000431,0.001763
15341000,0.0324,0.013523,0.002678,0.000431,0.001410
15342000,0.0324,0.013523,0.002678,0.000431,0.001645
15343000,0.0324,0.013523,0.002678,0.000431,0.001410
15344000,0.0324,0.013523,0.002678,0.000431,0.001528
15345000,0.0324,0.013523,0.002678,0.000431,0.000823
15346000,0.0324,0.013523,0.002678,0.000431,0.000823
15347000,0.0324,0.013523,0.002678,0.000431,0.207437
15348000,0.0324,0.013523,0.002678,0.000431,0.563430
15349000,0.0324,0.013523,0.002678,0.000431,0.438733
15350000,0.0324,0.013523,0.002678,0.000431,0.132102
15351000,0.0324,0.013523,0.002678,0.000431,0.133042
15352000,0.0324,0.013523,0.002678,0.000431,0.574125
15353000,0.0324,0.013523,0.002678,0.000431,0.223774
15354000,0.0324,0.013523,0.002678,0.000431,0.242226
15355000,0.0324,0.013523,0.002678,0.000431,0.278894
15356000,0.0324,0.013523,0.002678,0.000431,0.143032
15357000,0.0324,0.013523,0.002678,0.000431,0.153022
15358000,0.0324,0.013523,0.002678,0.000431,0.115765
15359000,0.0324,0.013523,0.002678,0.000431,0.418870
15360000,0.0324,0.013523,0.002678,0.000431,0.212608
15361000,0.0324,0.013523,0.002678,0.000431,0.091554
15362000,0.0324,0.013523,0.002678,0.000431,0.070282
15363000,0.0324,0.013523,0.002678,0.000431,0.051830
15364000,0.0324,0.013523,0.002678,0.000431,0.043250
15365000,0.0324,0.013523,0.002678,0.000431,0.035846
15366000,0.0324,0.013523,0.002678,0.000431,0.025974
15367000,0.0324,0.013523,0.002678,0.000431,0.023623
15368000,0.0324,0.013523,0.002678,0.000431,0.017042
15369000,0.0324,0.013523,0.002678,0.000431,0.016807
15370000,0.0324,0.013523,0.002678,0.000431,0.019275
15371000,0.0324,0.013523,0.002678,0.000431,0.015044
15372000,0.0324,0.013523,0.002678,0.000431,0.015631
15373000,0.0324,0.013523,0.002678,0.000431,0.007992
15374000,0.0324,0.013523,0.002678,0.000431,0.008109
15375000,0.0324,0.013523,0.002678,0.000431,0.008697
15376000,0.0324,0.013523,0.002678,0.000431,0.008697
15377000,0.0324,0.013523,0.002678,0.000431,0.005759
15378000,0.0324,0.013523,0.002678,0.000431,0.006111
15379000,0.0324,0.013523,0.002678,0.000431,0.008227
15380000,0.0324,0.013523,0.002678,0.000431,0.004231
15381000,0.0324,0.013523,0.002678,0.000431,0.004349
15382000,0.0324,0.013523,0.002678,0.000431,0.003878
15383000,0.0324,0.013523,0.002678,0.000431,0.010813
15384000,0.0324,0.013523,0.002678,0.000431,0.001763
15385000,0.0324,0.013523,0.002678,0.000431,0.001645
15386000,0.0324,0.013523,0.002678,0.000431,0.001763
15387000,0.0324,0.013523,0.002678,0.000431,0.001645
15388000,0.0324,0.013523,0.002678,0.000431,0.001763
15389000,0.0324,0.013523,0.002678,0.000431,0.001763
15390000,0.0324,0.013523,0.002678,0.000431,0.001645
15391000,0.0324,0.013523,0.002678,0.000431,0.001645
15392000,0.0324,0.013523,0.002678,0.000431,0.001763
15393000,0.0324,0.013523,0.002678,0.000431,0.001880
15394000,0.0324,0.013523,0.002678,0.000431,0.001528
15395000,0.0324,0.013523,0.002678,0.000431,0.001763
15396000,0.0324,0.013523,0.002678,0.000431,0.001763
15397000,0.0324,0.013523,0.002678,0.000431,0.001645
15398000,0.0324,0.013523,0.002678,0.000431,0.001645
15399000,0.0324,0.013523,0.002678,0.000431,0.001763
15400000,0.0324,0.013523,0.002678,0.000431,0.001880
15401000,0.0324,0.013523,0.002678,0.000431,0.001528
15402000,0.0324,0.013523,0.002678,0.000431,0.001763
15403000,0.0324,0.013523,0.002678,0.000431,0.001645
15404000,0.0324,0.013523,0.002678,0.000431,0.002703
15405000,0.0324,0.013523,0.002678,0.000431,0.056531
15406000,0.0324,0.013523,0.002678,0.000431,0.549327
15407000,0.0324,0.013523,0.002678,0.000431,0.590227
15408000,0.0324,0.013523,0.002678,0.000431,0.132572
15409000,0.0324,0.013523,0.002678,0.000431,0.133512
15410000,0.0324,0.013523,0.002678,0.000431,0.564370
15411000,0.0324,0.013523,0.002678,0.000431,0.258327
15412000,0.0324,0.013523,0.002678,0.000431,0.286181
15413000,0.0324,0.013523,0.002678,0.000431,0.245634
15414000,0.0324,0.013523,0.002678,0.000431,0.139859
15415000,0.0324,0.013523,0.002678,0.000431,0.179230
15416000,0.0324,0.013523,0.002678,0.000431,0.100957
15417000,0.0324,0.013523,0.002678,0.000431,0.470113
15418000,0.0324,0.013523,0.002678,0.000431,0.131514
15419000,0.0324,0.013523,0.002678,0.000431,0.081917
15420000,0.0324,0.013523,0.002678,0.000431,0.063348
15421000,0.0324,0.013523,0.002678,0.000431,0.058529
15422000,0.0324,0.013523,0.002678,0.000431,0.048187
15423000,0.0324,0.013523,0.002678,0.000431,0.035846
15424000,0.0324,0.013523,0.002678,0.000431,0.026914
15425000,0.0324,0.013523,0.002678,0.000431,0.024211
15426000,0.0324,0.013523,0.002678,0.000431,0.019392
15427000,0.0324,0.013523,0.002678,0.000431,0.021625
15428000,0.0324,0.013523,0.002678,0.000431,0.011753
15429000,0.0324,0.013523,0.002678,0.000431,0.008227
15430000,0.0324,0.013523,0.002678,0.000431,0.008580
15431000,0.0324,0.013523,0.002678,0.000431,0.007522
15432000,0.0324,0.013523,0.002678,0.000431,0.007639
15433000,0.0324,0.013523,0.002678,0.000431,0.008109
15434000,0.0324,0.013523,0.002678,0.000431,0.004584
15435000,0.0324,0.013523,0.002678,0.000431,0.007052
15436000,0.0324,0.013523,0.002678,0.000431,0.003291
15437000,0.0324,0.013523,0.002678,0.000431,0.003643
15438000,0.0324,0.013523,0.002678,0.000431,0.004936
15439000,0.0324,0.013523,0.002678,0.000431,0.005759
15440000,0.0324,0.013523,0.002678,0.000431,0.013986
15441000,0.0324,0.013523,0.002678,0.000431,0.556849
15442000,0.0324,0.013523,0.002678,0.000431,0.590814
15443000,0.0324,0.013523,0.002678,0.000431,0.133394
15444000,0.0324,0.013523,0.002678,0.000431,0.133982
15445000,0.0324,0.013523,0.002678,0.000431,0.489035
15446000,0.0324,0.013523,0.002678,0.000431,0.282420
15447000,0.0324,0.013523,0.002678,0.000431,0.237877
15448000,0.0324,0.013523,0.002678,0.000431,0.377383
15449000,0.0324,0.013523,0.002678,0.000431,0.143854
15450000,0.0324,0.013523,0.002678,0.000431,0.147263
15451000,0.0324,0.013523,0.002678,0.000431,0.114943
15452000,0.0324,0.013523,0.002678,0.000431,0.413347
15453000,0.0324,0.013523,0.002678,0.000431,0.212373
15454000,0.0324,0.013523,0.002678,0.000431,0.088381
15455000,0.0324,0.013523,0.002678,0.000431,0.075101
15456000,0.0324,0.013523,0.002678,0.000431,0.065698
15457000,0.0324,0.013523,0.002678,0.000431,0.050067
15458000,0.0324,0.013523,0.002678,0.000431,0.040665
15459000,0.0324,0.013523,0.002678,0.000431,0.042428
15460000,0.0324,0.013523,0.002678,0.000431,0.026679
15461000,0.0324,0.013523,0.002678,0.000431,0.022448
15462000,0.0324,0.013523,0.002678,0.000431,0.017864
15463000,0.0324,0.013523,0.002678,0.000431,0.014926
15464000,0.0324,0.013523,0.002678,0.000431,0.014103
15465000,0.0324,0.013523,0.002678,0.000431,0.011283
15466000,0.0324,0.013523,0.002678,0.000431,0.013868
15467000,0.0324,0.013523,0.002678,0.000431,0.011283
15468000,0.0324,0.013523,0.002678,0.000431,0.005994
15469000,0.0324,0.013523,0.002678,0.000431,0.006111
15470000,0.0324,0.013523,0.002678,0.000431,0.005641
15471000,0.0324,0.013523,0.002678,0.000431,0.005994
15472000,0.0324,0.013523,0.002678,0.000431,0.007052
15473000,0.0324,0.013523,0.002678,0.000431,0.005641
15474000,0.0324,0.013523,0.002678,0.000431,0.008697
15475000,0.0324,0.013523,0.002678,0.000431,0.006699
15476000,0.0324,0.013523,0.002678,0.000431,0.004349
15477000,0.0324,0.013523,0.002678,0.000431,0.001645
15478000,0.0324,0.013523,0.002678,0.000431,0.001645
15479000,0.0324,0.013523,0.002678,0.000431,0.001763
15480000,0.0324,0.013523,0.002678,0.000431,0.001763
15481000,0.0324,0.013523,0.002678,0.000431,0.001763
15482000,0.0324,0.013523,0.002678,0.000431,0.001645
15483000,0.0324,0.013523,0.002678,0.000431,0.001763
15484000,0.0324,0.013523,0.002678,0.000431,0.001763
15485000,0.0324,0.013523,0.002678,0.000431,0.001645
15486000,0.0324,0.013523,0.002678,0.000431,0.001645
15487000,0.0324,0.013523,0.002678,0.000431,0.001763
15488000,0.0324,0.013523,0.002678,0.000431,0.001880
15489000,0.0324,0.013523,0.002678,0.000431,0.001528
15490000,0.0324,0.013523,0.002678,0.000431,0.001645
15491000,0.0324,0.013523,0.002678,0.000431,0.001880
15492000,0.0324,0.013523,0.002678,0.000431,0.001645
15493000,0.0324,0.013523,0.002678,0.000431,0.001763
15494000,0.0324,0.013523,0.002678,0.000431,0.001645
15495000,0.0324,0.013523,0.002678,0.000431,0.001763
15496000,0.0324,0.013523,0.002678,0.000431,0.001645
15497000,0.0324,0.013523,0.002678,0.000431,0.001763
15498000,0.0324,0.013523,0.002678,0.000431,0.001763
15499000,0.0324,0.013523,0.002678,0.000431,0.001880
15500000,0.0324,0.013523,0.002678,0.000431,0.003643
15501000,0.0324,0.013523,0.002678,0.000431,0.000823
15502000,0.0324,0.013523,0.002678,0.000431,0.000940
15503000,0.0324,0.013523,0.002678,0.000431,0.000940
15504000,0.0324,0.013523,0.002678,0.000431,0.000705
15505000,0.0324,0.013523,0.002678,0.000431,0.000940
15506000,0.0324,0.013523,0.002678,0.000431,0.000940
15507000,0.0324,0.013523,0.002678,0.000431,0.000940
15508000,0.0324,0.013523,0.002678,0.000431,0.000823
15509000,0.0324,0.013523,0.002678,0.000431,0.000823
15510000,0.0324,0.013523,0.002678,0.000431,0.000940
15511000,0.0324,0.013523,0.002678,0.000431,0.000823
15512000,0.0324,0.013523,0.002678,0.000431,0.000940
15513000,0.0324,0.013523,0.002678,0.000431,0.000823
15514000,0.0324,0.013523,0.002678,0.000431,0.000940
15515000,0.0324,0.013523,0.002678,0.000431,0.000823
15516000,0.0324,0.013523,0.002678,0.000431,0.000823
15517000,0.0324,0.013523,0.002678,0.000431,0.000940
15518000,0.0324,0.013523,0.002678,0.000431,0.208848
15519000,0.0324,0.013523,0.002678,0.000431,0.521002
15520000,0.0324,0.013523,0.002678,0.000431,0.495381
15521000,0.0324,0.013523,0.002678,0.000431,0.133982
15522000,0.0324,0.013523,0.002678,0.000431,0.133982
15523000,0.0324,0.013523,0.002678,0.000431,0.576711
15524000,0.0324,0.013523,0.002678,0.000431,0.238112
15525000,0.0324,0.013523,0.002678,0.000431,0.304516
15526000,0.0324,0.013523,0.002678,0.000431,0.232823
15527000,0.0324,0.013523,0.002678,0.000431,0.138801
15528000,0.0324,0.013523,0.002678,0.000431,0.186870
15529000,0.0324,0.013523,0.002678,0.000431,0.092612
15530000,0.0324,0.013523,0.002678,0.000431,0.483628
15531000,0.0324,0.013523,0.002678,0.000431,0.131867
15532000,0.0324,0.013523,0.002678,0.000431,0.096961
15533000,0.0324,0.013523,0.002678,0.000431,0.078391
15534000,0.0324,0.013523,0.002678,0.000431,0.060292
15535000,0.0324,0.013523,0.002678,0.000431,0.047716
15536000,0.0324,0.013523,0.002678,0.000431,0.044543
15537000,0.0324,0.013523,0.002678,0.000431,0.035376
15538000,0.0324,0.013523,0.002678,0.000431,0.027854
15539000,0.0324,0.013523,0.002678,0.000431,0.021860
15540000,0.0324,0.013523,0.002678,0.000431,0.017747
15541000,0.0324,0.013523,0.002678,0.000431,0.012928
15542000,0.0324,0.013523,0.002678,0.000431,0.019627
15543000,0.0324,0.013523,0.002678,0.000431,0.012340
15544000,0.0324,0.013523,0.002678,0.000431,0.014338
15545000,0.0324,0.013523,0.002678,0.000431,0.009637
15546000,0.0324,0.013523,0.002678,0.000431,0.005524
15547000,0.0324,0.013523,0.002678,0.000431,0.004936
15548000,0.0324,0.013523,0.002678,0.000431,0.002703
15549000,0.0324,0.013523,0.002678,0.000431,0.002351
15550000,0.0324,0.013523,0.002678,0.000431,0.003996
15551000,0.0324,0.013523,0.002678,0.000431,0.004584
15552000,0.0324,0.013523,0.002678,0.000431,0.000705
15553000,0.0324,0.013523,0.002678,0.000431,0.000940
15554000,0.0324,0.013523,0.002678,0.000431,0.000940
15555000,0.0324,0.013523,0.002678,0.000431,0.000940
15556000,0.0324,0.013523,0.002678,0.000431,0.000705
15557000,0.0324,0.013523,0.002678,0.000431,0.000940
15558000,0.0324,0.013523,0.002678,0.000431,0.000940
15559000,0.0324,0.013523,0.002678,0.000431,0.000823
15560000,0.0324,0.013523,0.002678,0.000431,0.000823
15561000,0.0324,0.013523,0.002678,0.000431,0.000940
15562000,0.0324,0.013523,0.002678,0.000431,0.000940
15563000,0.0324,0.013523,0.002678,0.000431,0.000823
15564000,0.0324,0.013523,0.002678,0.000431,0.000823
15565000,0.0324,0.013523,0.002678,0.000431,0.000940
15566000,0.0324,0.013523,0.002678,0.000431,0.058059
15567000,0.0324,0.013523,0.002678,0.000431,0.554263
15568000,0.0324,0.013523,0.002678,0.000431,0.595633
15569000,0.0324,0.013523,0.002678,0.000431,0.132102
15570000,0.0324,0.013523,0.002678,0.000431,0.133982
15571000,0.0324,0.013523,0.002678,0.000431,0.532403
15572000,0.0324,0.013523,0.002678,0.000431,0.231648
15573000,0.0324,0.013523,0.002678,0.000431,0.239170
15574000,0.0324,0.013523,0.002678,0.000431,0.323320
15575000,0.0324,0.013523,0.002678,0.000431,0.143972
15576000,0.0324,0.013523,0.002678,0.000431,0.144912
15577000,0.0324,0.013523,0.002678,0.000431,0.119879
15578000,0.0324,0.013523,0.002678,0.000431,0.376913
15579000,0.0324,0.013523,0.002678,0.000431,0.279717
15580000,0.0324,0.013523,0.002678,0.000431,0.121759
15581000,0.0324,0.013523,0.002678,0.000431,0.091319
15582000,0.0324,0.013523,0.002678,0.000431,0.078979
15583000,0.0324,0.013523,0.002678,0.000431,0.068872
15584000,0.0324,0.013523,0.002678,0.000431,0.045601
15585000,0.0324,0.013523,0.002678,0.000431,0.034436
15586000,0.0324,0.013523,0.002678,0.000431,0.037727
15587000,0.0324,0.013523,0.002678,0.000431,0.029029
15588000,0.0324,0.013523,0.002678,0.000431,0.022330
15589000,0.0324,0.013523,0.002678,0.000431,0.028089
15590000,0.0324,0.013523,0.002678,0.000431,0.015396
15591000,0.0324,0.013523,0.002678,0.000431,0.012105
15592000,0.0324,0.013523,0.002678,0.000431,0.010695
15593000,0.0324,0.013523,0.002678,0.000431,0.012340
15594000,0.0324,0.013523,0.002678,0.000431,0.012105
15595000,0.0324,0.013523,0.002678,0.000431,0.005759
15596000,0.0324,0.013523,0.002678,0.000431,0.009755
15597000,0.0324,0.013523,0.002678,0.000431,0.003291
15598000,0.0324,0.013523,0.002678,0.000431,0.004701
15599000,0.0324,0.013523,0.002678,0.000431,0.002468
15600000,0.0324,0.013523,0.002678,0.000431,0.004349
15601000,0.0324,0.013523,0.002678,0.000431,0.001763
15602000,0.0324,0.013523,0.002678,0.000431,0.001528
15603000,0.0324,0.013523,0.002678,0.000431,0.001763
15604000,0.0324,0.013523,0.002678,0.000431,0.001763
15605000,0.0324,0.013523,0.002678,0.000431,0.001763
15606000,0.0324,0.013523,0.002678,0.000431,0.004231
15607000,0.0324,0.013523,0.002678,0.000431,0.000823
15608000,0.0324,0.013523,0.002678,0.000431,0.000940
15609000,0.0324,0.013523,0.002678,0.000431,0.000823
15610000,0.0324,0.013523,0.002678,0.000431,0.000823
15611000,0.0324,0.013523,0.002678,0.000431,0.000705
15612000,0.0324,0.013523,0.002678,0.000431,0.000940
15613000,0.0324,0.013523,0.002678,0.000431,0.000940
15614000,0.0324,0.013523,0.002678,0.000431,0.000705
15615000,0.0324,0.013523,0.002678,0.000431,0.000940
15616000,0.0324,0.013523,0.002678,0.000431,0.000705
15617000,0.0324,0.013523,0.002678,0.000431,0.000940
15618000,0.0324,0.013523,0.002678,0.000431,0.000823
15619000,0.0324,0.013523,0.002678,0.000431,0.000823
15620000,0.0324,0.013523,0.002678,0.000431,0.000940
15621000,0.0324,0.013523,0.002678,0.000431,0.000705
15622000,0.0324,0.013523,0.002678,0.000431,0.000940
15623000,0.0324,0.013523,0.002678,0.000431,0.000823
15624000,0.0324,0.013523,0.002678,0.000431,0.000823
15625000,0.0324,0.013523,0.002678,0.000431,0.000823
15626000,0.0324,0.013523,0.002678,0.000431,0.000823
15627000,0.0324,0.013523,0.002678,0.000431,0.000705
15628000,0.0324,0.013523,0.002678,0.000431,0.194509
15629000,0.0324,0.013523,0.002678,0.000431,0.556849
15630000,0.0324,0.013523,0.002678,0.000431,0.509132
15631000,0.0324,0.013523,0.002678,0.000431,0.132337
15632000,0.0324,0.013523,0.002678,0.000431,0.135863
15633000,0.0324,0.013523,0.002678,0.000431,0.594105
15634000,0.0324,0.013523,0.002678,0.000431,0.256446
15635000,0.0324,0.013523,0.002678,0.000431,0.274663
15636000,0.0324,0.013523,0.002678,0.000431,0.243166
15637000,0.0324,0.013523,0.002678,0.000431,0.152317
15638000,0.0324,0.013523,0.002678,0.000431,0.138566
15639000,0.0324,0.013523,0.002678,0.000431,0.233528
15640000,0.0324,0.013523,0.002678,0.000431,0.381144
15641000,0.0324,0.013523,0.002678,0.000431,0.098959
15642000,0.0324,0.013523,0.002678,0.000431,0.078039
15643000,0.0324,0.013523,0.002678,0.000431,0.062995
15644000,0.0324,0.013523,0.002678,0.000431,0.041135
15645000,0.0324,0.013523,0.002678,0.000431,0.039137
15646000,0.0324,0.013523,0.002678,0.000431,0.029029
15647000,0.0324,0.013523,0.002678,0.000431,0.027502
15648000,0.0324,0.013523,0.002678,0.000431,0.016924
15649000,0.0324,0.013523,0.002678,0.000431,0.024211
15650000,0.0324,0.013523,0.002678,0.000431,0.015279
15651000,0.0324,0.013523,0.002678,0.000431,0.008815
15652000,0.0324,0.013523,0.002678,0.000431,0.011283
15653000,0.0324,0.013523,0.002678,0.000431,0.007522
15654000,0.0324,0.013523,0.002678,0.000431,0.006934
15655000,0.0324,0.013523,0.002678,0.000431,0.005406
15656000,0.0324,0.013523,0.002678,0.000431,0.005994
15657000,0.0324,0.013523,0.002678,0.000431,0.006582
15658000,0.0324,0.013523,0.002678,0.000431,0.000940
15659000,0.0324,0.013523,0.002678,0.000431,0.000940
15660000,0.0324,0.013523,0.002678,0.000431,0.000823
15661000,0.0324,0.013523,0.002678,0.000431,0.000823
15662000,0.0324,0.013523,0.002678,0.000431,0.000940
15663000,0.0324,0.013523,0.002678,0.000431,0.000940
15664000,0.0324,0.013523,0.002678,0.000431,0.000705
15665000,0.0324,0.013523,0.002678,0.000431,0.000940
15666000,0.0324,0.013523,0.002678,0.000431,0.000940
15667000,0.0324,0.013523,0.002678,0.000431,0.000940
15668000,0.0324,0.013523,0.002678,0.000431,0.000705
15669000,0.0324,0.013523,0.002678,0.000431,0.000940
15670000,0.0324,0.013523,0.002678,0.000431,0.000940
15671000,0.0324,0.013523,0.002678,0.000431,0.000823
15672000,0.0324,0.013523,0.002678,0.000431,0.000940
15673000,0.0324,0.013523,0.002678,0.000431,0.000823
15674000,0.0324,0.013523,0.002678,0.000431,0.000940
15675000,0.0324,0.013523,0.002678,0.000431,0.000823
15676000,0.0324,0.013523,0.002678,0.000431,0.000823
15677000,0.0324,0.013523,0.002678,0.000431,0.000940
15678000,0.0324,0.013523,0.002678,0.000431,0.000823
15679000,0.0324,0.013523,0.002678,0.000431,0.000940
15680000,0.0324,0.013523,0.002678,0.000431,0.014809
15681000,0.0324,0.013523,0.002678,0.000431,0.562137
15682000,0.0324,0.013523,0.002678,0.000431,0.589286
15683000,0.0324,0.013523,0.002678,0.000431,0.132572
15684000,0.0324,0.013523,0.002678,0.000431,0.133394
15685000,0.0324,0.013523,0.002678,0.000431,0.517712
15686000,0.0324,0.013523,0.002678,0.000431,0.258680
15687000,0.0324,0.013523,0.002678,0.000431,0.248807
15688000,0.0324,0.013523,0.002678,0.000431,0.375267
15689000,0.0324,0.013523,0.002678,0.000431,0.146675
15690000,0.0324,0.013523,0.002678,0.000431,0.171004
15691000,0.0324,0.013523,0.002678,0.000431,0.094493
15692000,0.0324,0.013523,0.002678,0.000431,0.483041
15693000,0.0324,0.013523,0.002678,0.000431,0.143854
15694000,0.0324,0.013523,0.002678,0.000431,0.095668
15695000,0.0324,0.013523,0.002678,0.000431,0.069694
15696000,0.0324,0.013523,0.002678,0.000431,0.057941
15697000,0.0324,0.013523,0.002678,0.000431,0.046776
15698000,0.0324,0.013523,0.002678,0.000431,0.037374
15699000,0.0324,0.013523,0.002678,0.000431,0.028442
15700000,0.0324,0.013523,0.002678,0.000431,0.024093
15701000,0.0324,0.013523,0.002678,0.000431,0.018099
15702000,0.0324,0.013523,0.002678,0.000431,0.019510
15703000,0.0324,0.013523,0.002678,0.000431,0.015866
15704000,0.0324,0.013523,0.002678,0.000431,0.010342
15705000,0.0324,0.013523,0.002678,0.000431,0.008227
15706000,0.0324,0.013523,0.002678,0.000431,0.005524
15707000,0.0324,0.013523,0.002678,0.000431,0.006229
15708000,0.0324,0.013523,0.002678,0.000431,0.005171
15709000,0.0324,0.013523,0.002678,0.000431,0.001645
15710000,0.0324,0.013523,0.002678,0.000431,0.001763
15711000,0.0324,0.013523,0.002678,0.000431,0.001880
15712000,0.0324,0.013523,0.002678,0.000431,0.001528
15713000,0.0324,0.013523,0.002678,0.000431,0.001880
15714000,0.0324,0.013523,0.002678,0.000431,0.001528
15715000,0.0324,0.013523,0.002678,0.000431,0.001880
15716000,0.0324,0.013523,0.002678,0.000431,0.001763
15717000,0.0324,0.013523,0.002678,0.000431,0.001763
15718000,0.0324,0.013523,0.002678,0.000431,0.002938
15719000,0.0324,0.013523,0.002678,0.000431,0.000705
15720000,0.0324,0.013523,0.002678,0.000431,0.000940
15721000,0.0324,0.013523,0.002678,0.000431,0.000705
15722000,0.0324,0.013523,0.002678,0.000431,0.000940
15723000,0.0324,0.013523,0.002678,0.000431,0.000940
15724000,0.0324,0.013523,0.002678,0.000431,0.000940
15725000,0.0324,0.013523,0.002678,0.000431,0.000823
15726000,0.0324,0.013523,0.002678,0.000431,0.000940
15727000,0.0324,0.013523,0.002678,0.000431,0.000823
15728000,0.0324,0.013523,0.002678,0.000431,0.000940
15729000,0.0324,0.013523,0.002678,0.000431,0.000823
15730000,0.0324,0.013523,0.002678,0.000431,0.000823
15731000,0.0324,0.013523,0.002678,0.000431,0.000940
15732000,0.0324,0.013523,0.002678,0.000431,0.010695
15733000,0.0324,0.013523,0.002678,0.000431,0.538632
15734000,0.0324,0.013523,0.002678,0.000431,0.622547
15735000,0.0324,0.013523,0.002678,0.000431,0.134335
15736000,0.0324,0.013523,0.002678,0.000431,0.133630
15737000,0.0324,0.013523,0.002678,0.000431,0.416050
15738000,0.0324,0.013523,0.002678,0.000431,0.336836
15739000,0.0324,0.013523,0.002678,0.000431,0.232118
15740000,0.0324,0.013523,0.002678,0.000431,0.359049
15741000,0.0324,0.013523,0.002678,0.000431,0.147968
15742000,0.0324,0.013523,0.002678,0.000431,0.151259
15743000,0.0324,0.013523,0.002678,0.000431,0.117293
15744000,0.0324,0.013523,0.002678,0.000431,0.348354
15745000,0.0324,0.013523,0.002678,0.000431,0.276779
15746000,0.0324,0.013523,0.002678,0.000431,0.102014
15747000,0.0324,0.013523,0.002678,0.000431,0.078156
15748000,0.0324,0.013523,0.002678,0.000431,0.061585
15749000,0.0324,0.013523,0.002678,0.000431,0.050772
15750000,0.0324,0.013523,0.002678,0.000431,0.045366
15751000,0.0324,0.013523,0.002678,0.000431,0.044426
15752000,0.0324,0.013523,0.002678,0.000431,0.031262
15753000,0.0324,0.013523,0.002678,0.000431,0.032555
15754000,0.0324,0.013523,0.002678,0.000431,0.027031
15755000,0.0324,0.013523,0.002678,0.000431,0.026326
15756000,0.0324,0.013523,0.002678,0.000431,0.020097
15757000,0.0324,0.013523,0.002678,0.000431,0.015984
15758000,0.0324,0.013523,0.002678,0.000431,0.017982
15759000,0.0324,0.013523,0.002678,0.000431,0.013516
15760000,0.0324,0.013523,0.002678,0.000431,0.016571
15761000,0.0324,0.013523,0.002678,0.000431,0.010930
15762000,0.0324,0.013523,0.002678,0.000431,0.013046
15763000,0.0324,0.013523,0.002678,0.000431,0.009990
15764000,0.0324,0.013523,0.002678,0.000431,0.008227
15765000,0.0324,0.013523,0.002678,0.000431,0.008815
15766000,0.0324,0.013523,0.002678,0.000431,0.010225
15767000,0.0324,0.013523,0.002678,0.000431,0.006464
15768000,0.0324,0.013523,0.002678,0.000431,0.005876
15769000,0.0324,0.013523,0.002678,0.000431,0.006347
15770000,0.0324,0.013523,0.002678,0.000431,0.005994
15771000,0.0324,0.013523,0.002678,0.000431,0.005641
15772000,0.0324,0.013523,0.002678,0.000431,0.006582
15773000,0.0324,0.013523,0.002678,0.000431,0.005759
15774000,0.0324,0.013523,0.002678,0.000431,0.005759
15775000,0.0324,0.013523,0.002678,0.000431,0.006111
15776000,0.0324,0.013523,0.002678,0.000431,0.005994
15777000,0.0324,0.013523,0.002678,0.000431,0.006347
15778000,0.0324,0.013523,0.002678,0.000431,0.005524
15779000,0.0324,0.013523,0.002678,0.000431,0.006699
15780000,0.0324,0.013523,0.002678,0.000431,0.005876
15781000,0.0324,0.013523,0.002678,0.000431,0.004936
15782000,0.0324,0.013523,0.002678,0.000431,0.004701
15783000,0.0324,0.013523,0.002678,0.000431,0.006347
15784000,0.0324,0.013523,0.002678,0.000431,0.003761
15785000,0.0324,0.013523,0.002678,0.000431,0.003526
15786000,0.0324,0.013523,0.002678,0.000431,0.003526
15787000,0.0324,0.013523,0.002678,0.000431,0.003996
15788000,0.0324,0.013523,0.002678,0.000431,0.005759
15789000,0.0324,0.013523,0.002678,0.000431,0.004231
15790000,0.0324,0.013523,0.002678,0.000431,0.003173
15791000,0.0324,0.013523,0.002678,0.000431,0.001763
15792000,0.0324,0.013523,0.002678,0.000431,0.003291
15793000,0.0324,0.013523,0.002678,0.000431,0.000823
15794000,0.0324,0.013523,0.002678,0.000431,0.000823
15795000,0.0324,0.013523,0.002678,0.000431,0.000823
15796000,0.0324,0.013523,0.002678,0.000431,0.000823
15797000,0.0324,0.013523,0.002678,0.000431,0.000823
15798000,0.0324,0.013523,0.002678,0.000431,0.000940
15799000,0.0324,0.013523,0.002678,0.000431,0.000705
15800000,0.0324,0.013523,0.002678,0.000431,0.000940
15801000,0.0324,0.013523,0.002678,0.000431,0.000823
15802000,0.0324,0.013523,0.002678,0.000431,0.000823
15803000,0.0324,0.013523,0.002678,0.000431,0.000705
15804000,0.0324,0.013523,0.002678,0.000431,0.000940
15805000,0.0324,0.013523,0.002678,0.000431,0.000940
15806000,0.0324,0.013523,0.002678,0.000431,0.000705
15807000,0.0324,0.013523,0.002678,0.000431,0.000940
15808000,0.0324,0.013523,0.002678,0.000431,0.000705
15809000,0.0324,0.013523,0.002678,0.000431,0.000940
15810000,0.0324,0.013523,0.002678,0.000431,0.000823
15811000,0.0324,0.013523,0.002678,0.000431,0.000823
15812000,0.0324,0.013523,0.002678,0.000431,0.000940
15813000,0.0324,0.013523,0.002678,0.000431,0.000705
15814000,0.0324,0.013523,0.002678,0.000431,0.000940
15815000,0.0324,0.013523,0.002678,0.000431,0.000823
15816000,0.0324,0.013523,0.002678,0.000431,0.000823
15817000,0.0324,0.013523,0.002678,0.000431,0.000823
15818000,0.0324,0.013523,0.002678,0.000431,0.000823
15819000,0.0324,0.013523,0.002678,0.000431,0.000823
15820000,0.0324,0.013523,0.002678,0.000431,0.000823
15821000,0.0324,0.013523,0.002678,0.000431,0.000940
15822000,0.0324,0.013523,0.002678,0.000431,0.000705
15823000,0.0324,0.013523,0.002678,0.000431,0.000823
15824000,0.0324,0.013523,0.002678,0.000431,0.000940
15825000,0.0324,0.013523,0.002678,0.000431,0.000823
15826000,0.0324,0.013523,0.002678,0.000431,0.000823
15827000,0.0324,0.013523,0.002678,0.000431,0.000823
15828000,0.0324,0.013523,0.002678,0.000431,0.000705
15829000,0.0324,0.013523,0.002678,0.000431,0.000940
15830000,0.0324,0.013523,0.002678,0.000431,0.000940
15831000,0.0324,0.013523,0.002678,0.000431,0.000705
15832000,0.0324,0.013523,0.002678,0.000431,0.000940
15833000,0.0324,0.013523,0.002678,0.000431,0.000705
15834000,0.0324,0.013523,0.002678,0.000431,0.000940
15835000,0.0324,0.013523,0.002678,0.000431,0.000940
15836000,0.0324,0.013523,0.002678,0.000431,0.000823
15837000,0.0324,0.013523,0.002678,0.000431,0.000823
15838000,0.0324,0.013523,0.002678,0.000431,0.000940
15839000,0.0324,0.013523,0.002678,0.000431,0.000940
15840000,0.0324,0.013523,0.002678,0.000431,0.000705
15841000,0.0324,0.013523,0.002678,0.000431,0.000940
15842000,0.0324,0.013523,0.002678,0.000431,0.013868
15843000,0.0324,0.013523,0.002678,0.000431,0.547681
15844000,0.0324,0.013523,0.002678,0.000431,0.601274
15845000,0.0324,0.013523,0.002678,0.000431,0.134922
15846000,0.0324,0.013523,0.002678,0.000431,0.133042
15847000,0.0324,0.013523,0.002678,0.000431,0.406412
15848000,0.0324,0.013523,0.002678,0.000431,0.355523
15849000,0.0324,0.013523,0.002678,0.000431,0.229768
15850000,0.0324,0.013523,0.002678,0.000431,0.362692
15851000,0.0324,0.013523,0.002678,0.000431,0.162541
15852000,0.0324,0.013523,0.002678,0.000431,0.143737
15853000,0.0324,0.013523,0.002678,0.000431,0.109536
15854000,0.0324,0.013523,0.002678,0.000431,0.382789
15855000,0.0324,0.013523,0.002678,0.000431,0.275133
15856000,0.0324,0.013523,0.002678,0.000431,0.119761
15857000,0.0324,0.013523,0.002678,0.000431,0.081447
15858000,0.0324,0.013523,0.002678,0.000431,0.062407
15859000,0.0324,0.013523,0.002678,0.000431,0.054416
15860000,0.0324,0.013523,0.002678,0.000431,0.048422
15861000,0.0324,0.013523,0.002678,0.000431,0.038902
15862000,0.0324,0.013523,0.002678,0.000431,0.038079
15863000,0.0324,0.013523,0.002678,0.000431,0.026914
15864000,0.0324,0.013523,0.002678,0.000431,0.028912
15865000,0.0324,0.013523,0.002678,0.000431,0.027031
15866000,0.0324,0.013523,0.002678,0.000431,0.018217
15867000,0.0324,0.013523,0.002678,0.000431,0.012458
15868000,0.0324,0.013523,0.002678,0.000431,0.010225
15869000,0.0324,0.013523,0.002678,0.000431,0.013633
15870000,0.0324,0.013523,0.002678,0.000431,0.010225
15871000,0.0324,0.013523,0.002678,0.000431,0.004819
15872000,0.0324,0.013523,0.002678,0.000431,0.006464
15873000,0.0324,0.013523,0.002678,0.000431,0.005641
15874000,0.0324,0.013523,0.002678,0.000431,0.004113
15875000,0.0324,0.013523,0.002678,0.000431,0.008580
15876000,0.0324,0.013523,0.002678,0.000431,0.003526
15877000,0.0324,0.013523,0.002678,0.000431,0.003173
15878000,0.0324,0.013523,0.002678,0.000431,0.003408
15879000,0.0324,0.013523,0.002678,0.000431,0.003408
15880000,0.0324,0.013523,0.002678,0.000431,0.003408
15881000,0.0324,0.013523,0.002678,0.000431,0.003291
15882000,0.0324,0.013523,0.002678,0.000431,0.003291
15883000,0.0324,0.013523,0.002678,0.000431,0.004584
15884000,0.0324,0.013523,0.002678,0.000431,0.001763
15885000,0.0324,0.013523,0.002678,0.000431,0.001763
15886000,0.0324,0.013523,0.002678,0.000431,0.002586
15887000,0.0324,0.013523,0.002678,0.000431,0.000705
15888000,0.0324,0.013523,0.002678,0.000431,0.001880
15889000,0.0324,0.013523,0.002678,0.000431,0.395600
15890000,0.0324,0.013523,0.002678,0.000431,0.707167
15891000,0.0324,0.013523,0.002678,0.000431,0.172414
15892000,0.0324,0.013523,0.002678,0.000431,0.137508
15893000,0.0324,0.013523,0.002678,0.000431,0.172179
15894000,0.0324,0.013523,0.002678,0.000431,0.599746
15895000,0.0324,0.013523,0.002678,0.000431,0.240580
15896000,0.0324,0.013523,0.002678,0.000431,0.345063
15897000,0.0324,0.013523,0.002678,0.000431,0.206732
15898000,0.0324,0.013523,0.002678,0.000431,0.139859
15899000,0.0324,0.013523,0.002678,0.000431,0.112945
15900000,0.0324,0.013523,0.002678,0.000431,0.337541
15901000,0.0324,0.013523,0.002678,0.000431,0.276779
15902000,0.0324,0.013523,0.002678,0.000431,0.088029
15903000,0.0324,0.013523,0.002678,0.000431,0.070634
15904000,0.0324,0.013523,0.002678,0.000431,0.046894
15905000,0.0324,0.013523,0.002678,0.000431,0.048539
15906000,0.0324,0.013523,0.002678,0.000431,0.038549
15907000,0.0324,0.013523,0.002678,0.000431,0.032790
15908000,0.0324,0.013523,0.002678,0.000431,0.034553
15909000,0.0324,0.013523,0.002678,0.000431,0.017982
15910000,0.0324,0.013523,0.002678,0.000431,0.015279
15911000,0.0324,0.013523,0.002678,0.000431,0.013046
15912000,0.0324,0.013523,0.002678,0.000431,0.016454
15913000,0.0324,0.013523,0.002678,0.000431,0.009872
15914000,0.0324,0.013523,0.002678,0.000431,0.006464
15915000,0.0324,0.013523,0.002678,0.000431,0.004349
15916000,0.0324,0.013523,0.002678,0.000431,0.004349
15917000,0.0324,0.013523,0.002678,0.000431,0.006582
15918000,0.0324,0.013523,0.002678,0.000431,0.004113
15919000,0.0324,0.013523,0.002678,0.000431,0.002586
15920000,0.0324,0.013523,0.002678,0.000431,0.002703
15921000,0.0324,0.013523,0.002678,0.000431,0.002586
15922000,0.0324,0.013523,0.002678,0.000431,0.005406
15923000,0.0324,0.013523,0.002678,0.000431,0.001763
15924000,0.0324,0.013523,0.002678,0.000431,0.001763
15925000,0.0324,0.013523,0.002678,0.000431,0.001763
15926000,0.0324,0.013523,0.002678,0.000431,0.001645
15927000,0.0324,0.013523,0.002678,0.000431,0.001880
15928000,0.0324,0.013523,0.002678,0.000431,0.003761
15929000,0.0324,0.013523,0.002678,0.000431,0.000823
15930000,0.0324,0.013523,0.002678,0.000431,0.000940
15931000,0.0324,0.013523,0.002678,0.000431,0.000940
15932000,0.0324,0.013523,0.002678,0.000431,0.000823
15933000,0.0324,0.013523,0.002678,0.000431,0.000823
15934000,0.0324,0.013523,0.002678,0.000431,0.000940
15935000,0.0324,0.013523,0.002678,0.000431,0.000940
15936000,0.0324,0.013523,0.002678,0.000431,0.000705
15937000,0.0324,0.013523,0.002678,0.000431,0.000940
15938000,0.0324,0.013523,0.002678,0.000431,0.000940
15939000,0.0324,0.013523,0.002678,0.000431,0.002351
15940000,0.0324,0.013523,0.002678,0.000431,0.433444
15941000,0.0324,0.013523,0.002678,0.000431,0.680723
15942000,0.0324,0.013523,0.002678,0.000431,0.137155
15943000,0.0324,0.013523,0.002678,0.000431,0.134452
15944000,0.0324,0.013523,0.002678,0.000431,0.192981
15945000,0.0324,0.013523,0.002678,0.000431,0.604682
15946000,0.0324,0.013523,0.002678,0.000431,0.242696
15947000,0.0324,0.013523,0.002678,0.000431,0.293938
15948000,0.0324,0.013523,0.002678,0.000431,0.190748
15949000,0.0324,0.013523,0.002678,0.000431,0.143972
15950000,0.0324,0.013523,0.002678,0.000431,0.142679
15951000,0.0324,0.013523,0.002678,0.000431,0.234234
15952000,0.0324,0.013523,0.002678,0.000431,0.369626
15953000,0.0324,0.013523,0.002678,0.000431,0.086383
15954000,0.0324,0.013523,0.002678,0.000431,0.076746
15955000,0.0324,0.013523,0.002678,0.000431,0.062172
15956000,0.0324,0.013523,0.002678,0.000431,0.051242
15957000,0.0324,0.013523,0.002678,0.000431,0.041487
15958000,0.0324,0.013523,0.002678,0.000431,0.035611
15959000,0.0324,0.013523,0.002678,0.000431,0.032320
15960000,0.0324,0.013523,0.002678,0.000431,0.028912
15961000,0.0324,0.013523,0.002678,0.000431,0.026326
15962000,0.0324,0.013523,0.002678,0.000431,0.021860
15963000,0.0324,0.013523,0.002678,0.000431,0.021390
15964000,0.0324,0.013523,0.002678,0.000431,0.019157
15965000,0.0324,0.013523,0.002678,0.000431,0.014338
15966000,0.0324,0.013523,0.002678,0.000431,0.016924
15967000,0.0324,0.013523,0.002678,0.000431,0.015396
15968000,0.0324,0.013523,0.002678,0.000431,0.012928
15969000,0.0324,0.013523,0.002678,0.000431,0.015161
15970000,0.0324,0.013523,0.002678,0.000431,0.010930
15971000,0.0324,0.013523,0.002678,0.000431,0.011988
15972000,0.0324,0.013523,0.002678,0.000431,0.007522
15973000,0.0324,0.013523,0.002678,0.000431,0.006699
15974000,0.0324,0.013523,0.002678,0.000431,0.007052
15975000,0.0324,0.013523,0.002678,0.000431,0.006582
15976000,0.0324,0.013523,0.002678,0.000431,0.007052
15977000,0.0324,0.013523,0.002678,0.000431,0.006582
15978000,0.0324,0.013523,0.002678,0.000431,0.007404
15979000,0.0324,0.013523,0.002678,0.000431,0.006464
15980000,0.0324,0.013523,0.002678,0.000431,0.007287
15981000,0.0324,0.013523,0.002678,0.000431,0.004349
15982000,0.0324,0.013523,0.002678,0.000431,0.005171
15983000,0.0324,0.013523,0.002678,0.000431,0.004466
15984000,0.0324,0.013523,0.002678,0.000431,0.003643
15985000,0.0324,0.013523,0.002678,0.000431,0.004349
15986000,0.0324,0.013523,0.002678,0.000431,0.004113
15987000,0.0324,0.013523,0.002678,0.000431,0.001645
15988000,0.0324,0.013523,0.002678,0.000431,0.001645
15989000,0.0324,0.013523,0.002678,0.000431,0.002938
15990000,0.0324,0.013523,0.002678,0.000431,0.187693
15991000,0.0324,0.013523,0.002678,0.000431,0.479633
15992000,0.0324,0.013523,0.002678,0.000431,0.528054
15993000,0.0324,0.013523,0.002678,0.000431,0.137861
15994000,0.0324,0.013523,0.002678,0.000431,0.132102
15995000,0.0324,0.013523,0.002678,0.000431,0.601039
15996000,0.0324,0.013523,0.002678,0.000431,0.258562
15997000,0.0324,0.013523,0.002678,0.000431,0.293820
15998000,0.0324,0.013523,0.002678,0.000431,0.258444
15999000,0.0324,0.013523,0.002678,0.000431,0.138566
