Cycle,Area(mm^2),PeakDynamic(W),SubthresholdLeakage(W),GateLeakage(W),RunTimeDynamic(W)
48000000,0.0324,0.013523,0.002678,0.000431,0.005641
48001000,0.0324,0.013523,0.002678,0.000431,0.003643
48002000,0.0324,0.013523,0.002678,0.000431,0.002821
48003000,0.0324,0.013523,0.002678,0.000431,0.584350
48004000,0.0324,0.013523,0.002678,0.000431,0.707637
48005000,0.0324,0.013523,0.002678,0.000431,0.136333
48006000,0.0324,0.013523,0.002678,0.000431,0.138331
48007000,0.0324,0.013523,0.002678,0.000431,0.574713
48008000,0.0324,0.013523,0.002678,0.000431,0.263616
48009000,0.0324,0.013523,0.002678,0.000431,0.300755
48010000,0.0324,0.013523,0.002678,0.000431,0.146440
48011000,0.0324,0.013523,0.002678,0.000431,0.163247
48012000,0.0324,0.013523,0.002678,0.000431,0.204264
48013000,0.0324,0.013523,0.002678,0.000431,0.503608
48014000,0.0324,0.013523,0.002678,0.000431,0.174177
48015000,0.0324,0.013523,0.002678,0.000431,0.150789
48016000,0.0324,0.013523,0.002678,0.000431,0.130574
48017000,0.0324,0.013523,0.002678,0.000431,0.109771
48018000,0.0324,0.013523,0.002678,0.000431,0.089086
48019000,0.0324,0.013523,0.002678,0.000431,0.066403
48020000,0.0324,0.013523,0.002678,0.000431,0.056061
48021000,0.0324,0.013523,0.002678,0.000431,0.037844
48022000,0.0324,0.013523,0.002678,0.000431,0.034318
48023000,0.0324,0.013523,0.002678,0.000431,0.027854
48024000,0.0324,0.013523,0.002678,0.000431,0.020685
48025000,0.0324,0.013523,0.002678,0.000431,0.010342
48026000,0.0324,0.013523,0.002678,0.000431,0.008815
48027000,0.0324,0.013523,0.002678,0.000431,0.008932
48028000,0.0324,0.013523,0.002678,0.000431,0.011753
48029000,0.0324,0.013523,0.002678,0.000431,0.006582
48030000,0.0324,0.013523,0.002678,0.000431,0.007639
48031000,0.0324,0.013523,0.002678,0.000431,0.004584
48032000,0.0324,0.013523,0.002678,0.000431,0.002703
48033000,0.0324,0.013523,0.002678,0.000431,0.005289
48034000,0.0324,0.013523,0.002678,0.000431,0.004466
48035000,0.0324,0.013523,0.002678,0.000431,0.279717
48036000,0.0324,0.013523,0.002678,0.000431,0.783090
48037000,0.0324,0.013523,0.002678,0.000431,0.320852
48038000,0.0324,0.013523,0.002678,0.000431,0.137273
48039000,0.0324,0.013523,0.002678,0.000431,0.512893
48040000,0.0324,0.013523,0.002678,0.000431,0.269727
48041000,0.0324,0.013523,0.002678,0.000431,0.323438
48042000,0.0324,0.013523,0.002678,0.000431,0.210846
48043000,0.0324,0.013523,0.002678,0.000431,0.183814
48044000,0.0324,0.013523,0.002678,0.000431,0.085443
48045000,0.0324,0.013523,0.002678,0.000431,0.554498
48046000,0.0324,0.013523,0.002678,0.000431,0.166185
48047000,0.0324,0.013523,0.002678,0.000431,0.132689
48048000,0.0324,0.013523,0.002678,0.000431,0.124697
48049000,0.0324,0.013523,0.002678,0.000431,0.087911
48050000,0.0324,0.013523,0.002678,0.000431,0.078744
48051000,0.0324,0.013523,0.002678,0.000431,0.061585
48052000,0.0324,0.013523,0.002678,0.000431,0.048422
48053000,0.0324,0.013523,0.002678,0.000431,0.040430
48054000,0.0324,0.013523,0.002678,0.000431,0.037609
48055000,0.0324,0.013523,0.002678,0.000431,0.031850
48056000,0.0324,0.013523,0.002678,0.000431,0.029382
48057000,0.0324,0.013523,0.002678,0.000431,0.022213
48058000,0.0324,0.013523,0.002678,0.000431,0.016571
48059000,0.0324,0.013523,0.002678,0.000431,0.013633
48060000,0.0324,0.013523,0.002678,0.000431,0.014926
48061000,0.0324,0.013523,0.002678,0.000431,0.015044
48062000,0.0324,0.013523,0.002678,0.000431,0.009167
48063000,0.0324,0.013523,0.002678,0.000431,0.006347
48064000,0.0324,0.013523,0.002678,0.000431,0.010342
48065000,0.0324,0.013523,0.002678,0.000431,0.003878
48066000,0.0324,0.013523,0.002678,0.000431,0.006582
48067000,0.0324,0.013523,0.002678,0.000431,0.005289
48068000,0.0324,0.013523,0.002678,0.000431,0.006111
48069000,0.0324,0.013523,0.002678,0.000431,0.002703
48070000,0.0324,0.013523,0.002678,0.000431,0.001763
48071000,0.0324,0.013523,0.002678,0.000431,0.002703
48072000,0.0324,0.013523,0.002678,0.000431,0.002116
48073000,0.0324,0.013523,0.002678,0.000431,0.002586
48074000,0.0324,0.013523,0.002678,0.000431,0.001880
48075000,0.0324,0.013523,0.002678,0.000431,0.002351
48076000,0.0324,0.013523,0.002678,0.000431,0.002116
48077000,0.0324,0.013523,0.002678,0.000431,0.002351
48078000,0.0324,0.013523,0.002678,0.000431,0.002468
48079000,0.0324,0.013523,0.002678,0.000431,0.001763
48080000,0.0324,0.013523,0.002678,0.000431,0.002586
48081000,0.0324,0.013523,0.002678,0.000431,0.002116
48082000,0.0324,0.013523,0.002678,0.000431,0.001763
48083000,0.0324,0.013523,0.002678,0.000431,0.003291
48084000,0.0324,0.013523,0.002678,0.000431,0.000823
48085000,0.0324,0.013523,0.002678,0.000431,0.000823
48086000,0.0324,0.013523,0.002678,0.000431,0.000823
48087000,0.0324,0.013523,0.002678,0.000431,0.000940
48088000,0.0324,0.013523,0.002678,0.000431,0.000705
48089000,0.0324,0.013523,0.002678,0.000431,0.000940
48090000,0.0324,0.013523,0.002678,0.000431,0.000823
48091000,0.0324,0.013523,0.002678,0.000431,0.000823
48092000,0.0324,0.013523,0.002678,0.000431,0.002821
48093000,0.0324,0.013523,0.002678,0.000431,0.577063
48094000,0.0324,0.013523,0.002678,0.000431,0.671321
48095000,0.0324,0.013523,0.002678,0.000431,0.139506
48096000,0.0324,0.013523,0.002678,0.000431,0.135745
48097000,0.0324,0.013523,0.002678,0.000431,0.501845
48098000,0.0324,0.013523,0.002678,0.000431,0.234586
48099000,0.0324,0.013523,0.002678,0.000431,0.314740
48100000,0.0324,0.013523,0.002678,0.000431,0.227770
48101000,0.0324,0.013523,0.002678,0.000431,0.154902
48102000,0.0324,0.013523,0.002678,0.000431,0.109184
48103000,0.0324,0.013523,0.002678,0.000431,0.418870
48104000,0.0324,0.013523,0.002678,0.000431,0.369744
48105000,0.0324,0.013523,0.002678,0.000431,0.194979
48106000,0.0324,0.013523,0.002678,0.000431,0.158546
48107000,0.0324,0.013523,0.002678,0.000431,0.142679
48108000,0.0324,0.013523,0.002678,0.000431,0.115060
48109000,0.0324,0.013523,0.002678,0.000431,0.088969
48110000,0.0324,0.013523,0.002678,0.000431,0.066051
48111000,0.0324,0.013523,0.002678,0.000431,0.076041
48112000,0.0324,0.013523,0.002678,0.000431,0.046071
48113000,0.0324,0.013523,0.002678,0.000431,0.036199
48114000,0.0324,0.013523,0.002678,0.000431,0.023858
48115000,0.0324,0.013523,0.002678,0.000431,0.021273
48116000,0.0324,0.013523,0.002678,0.000431,0.021038
48117000,0.0324,0.013523,0.002678,0.000431,0.016454
48118000,0.0324,0.013523,0.002678,0.000431,0.014926
48119000,0.0324,0.013523,0.002678,0.000431,0.013516
48120000,0.0324,0.013523,0.002678,0.000431,0.006699
48121000,0.0324,0.013523,0.002678,0.000431,0.006582
48122000,0.0324,0.013523,0.002678,0.000431,0.003056
48123000,0.0324,0.013523,0.002678,0.000431,0.000823
48124000,0.0324,0.013523,0.002678,0.000431,0.000823
48125000,0.0324,0.013523,0.002678,0.000431,0.180171
48126000,0.0324,0.013523,0.002678,0.000431,0.720800
48127000,0.0324,0.013523,0.002678,0.000431,0.488095
48128000,0.0324,0.013523,0.002678,0.000431,0.136333
48129000,0.0324,0.013523,0.002678,0.000431,0.350116
48130000,0.0324,0.013523,0.002678,0.000431,0.416402
48131000,0.0324,0.013523,0.002678,0.000431,0.300520
48132000,0.0324,0.013523,0.002678,0.000431,0.220483
48133000,0.0324,0.013523,0.002678,0.000431,0.156195
48134000,0.0324,0.013523,0.002678,0.000431,0.112357
48135000,0.0324,0.013523,0.002678,0.000431,0.357756
48136000,0.0324,0.013523,0.002678,0.000431,0.365748
48137000,0.0324,0.013523,0.002678,0.000431,0.148556
48138000,0.0324,0.013523,0.002678,0.000431,0.126460
48139000,0.0324,0.013523,0.002678,0.000431,0.113650
48140000,0.0324,0.013523,0.002678,0.000431,0.098254
48141000,0.0324,0.013523,0.002678,0.000431,0.082857
48142000,0.0324,0.013523,0.002678,0.000431,0.048069
48143000,0.0324,0.013523,0.002678,0.000431,0.038079
48144000,0.0324,0.013523,0.002678,0.000431,0.031145
48145000,0.0324,0.013523,0.002678,0.000431,0.026444
48146000,0.0324,0.013523,0.002678,0.000431,0.023623
48147000,0.0324,0.013523,0.002678,0.000431,0.013751
48148000,0.0324,0.013523,0.002678,0.000431,0.010460
48149000,0.0324,0.013523,0.002678,0.000431,0.010813
48150000,0.0324,0.013523,0.002678,0.000431,0.008580
48151000,0.0324,0.013523,0.002678,0.000431,0.005289
48152000,0.0324,0.013523,0.002678,0.000431,0.008697
48153000,0.0324,0.013523,0.002678,0.000431,0.004701
48154000,0.0324,0.013523,0.002678,0.000431,0.005171
48155000,0.0324,0.013523,0.002678,0.000431,0.006111
48156000,0.0324,0.013523,0.002678,0.000431,0.004701
48157000,0.0324,0.013523,0.002678,0.000431,0.002586
48158000,0.0324,0.013523,0.002678,0.000431,0.002468
48159000,0.0324,0.013523,0.002678,0.000431,0.002586
48160000,0.0324,0.013523,0.002678,0.000431,0.002351
48161000,0.0324,0.013523,0.002678,0.000431,0.002586
48162000,0.0324,0.013523,0.002678,0.000431,0.002116
48163000,0.0324,0.013523,0.002678,0.000431,0.001763
48164000,0.0324,0.013523,0.002678,0.000431,0.001880
48165000,0.0324,0.013523,0.002678,0.000431,0.001645
48166000,0.0324,0.013523,0.002678,0.000431,0.003056
48167000,0.0324,0.013523,0.002678,0.000431,0.000940
48168000,0.0324,0.013523,0.002678,0.000431,0.000823
48169000,0.0324,0.013523,0.002678,0.000431,0.009637
48170000,0.0324,0.013523,0.002678,0.000431,0.637708
48171000,0.0324,0.013523,0.002678,0.000431,0.612439
48172000,0.0324,0.013523,0.002678,0.000431,0.135980
48173000,0.0324,0.013523,0.002678,0.000431,0.136803
48174000,0.0324,0.013523,0.002678,0.000431,0.551560
48175000,0.0324,0.013523,0.002678,0.000431,0.262323
48176000,0.0324,0.013523,0.002678,0.000431,0.319794
48177000,0.0324,0.013523,0.002678,0.000431,0.148908
48178000,0.0324,0.013523,0.002678,0.000431,0.189338
48179000,0.0324,0.013523,0.002678,0.000431,0.094023
48180000,0.0324,0.013523,0.002678,0.000431,0.549679
48181000,0.0324,0.013523,0.002678,0.000431,0.223774
48182000,0.0324,0.013523,0.002678,0.000431,0.187105
48183000,0.0324,0.013523,0.002678,0.000431,0.161484
48184000,0.0324,0.013523,0.002678,0.000431,0.143267
48185000,0.0324,0.013523,0.002678,0.000431,0.135275
48186000,0.0324,0.013523,0.002678,0.000431,0.103895
48187000,0.0324,0.013523,0.002678,0.000431,0.078156
48188000,0.0324,0.013523,0.002678,0.000431,0.056531
48189000,0.0324,0.013523,0.002678,0.000431,0.057119
48190000,0.0324,0.013523,0.002678,0.000431,0.046306
48191000,0.0324,0.013523,0.002678,0.000431,0.037491
48192000,0.0324,0.013523,0.002678,0.000431,0.033731
48193000,0.0324,0.013523,0.002678,0.000431,0.027031
48194000,0.0324,0.013523,0.002678,0.000431,0.018099
48195000,0.0324,0.013523,0.002678,0.000431,0.015161
48196000,0.0324,0.013523,0.002678,0.000431,0.014926
48197000,0.0324,0.013523,0.002678,0.000431,0.015044
48198000,0.0324,0.013523,0.002678,0.000431,0.010342
48199000,0.0324,0.013523,0.002678,0.000431,0.008815
48200000,0.0324,0.013523,0.002678,0.000431,0.006347
48201000,0.0324,0.013523,0.002678,0.000431,0.007992
48202000,0.0324,0.013523,0.002678,0.000431,0.006347
48203000,0.0324,0.013523,0.002678,0.000431,0.005171
48204000,0.0324,0.013523,0.002678,0.000431,0.006229
48205000,0.0324,0.013523,0.002678,0.000431,0.005759
48206000,0.0324,0.013523,0.002678,0.000431,0.005641
48207000,0.0324,0.013523,0.002678,0.000431,0.005171
48208000,0.0324,0.013523,0.002678,0.000431,0.003996
48209000,0.0324,0.013523,0.002678,0.000431,0.003291
48210000,0.0324,0.013523,0.002678,0.000431,0.006464
48211000,0.0324,0.013523,0.002678,0.000431,0.002703
48212000,0.0324,0.013523,0.002678,0.000431,0.001763
48213000,0.0324,0.013523,0.002678,0.000431,0.001763
48214000,0.0324,0.013523,0.002678,0.000431,0.001645
48215000,0.0324,0.013523,0.002678,0.000431,0.001763
48216000,0.0324,0.013523,0.002678,0.000431,0.001645
48217000,0.0324,0.013523,0.002678,0.000431,0.001763
48218000,0.0324,0.013523,0.002678,0.000431,0.001645
48219000,0.0324,0.013523,0.002678,0.000431,0.003291
48220000,0.0324,0.013523,0.002678,0.000431,0.000940
48221000,0.0324,0.013523,0.002678,0.000431,0.245046
48222000,0.0324,0.013523,0.002678,0.000431,0.690596
48223000,0.0324,0.013523,0.002678,0.000431,0.449898
48224000,0.0324,0.013523,0.002678,0.000431,0.135863
48225000,0.0324,0.013523,0.002678,0.000431,0.509015
48226000,0.0324,0.013523,0.002678,0.000431,0.306396
48227000,0.0324,0.013523,0.002678,0.000431,0.274428
48228000,0.0324,0.013523,0.002678,0.000431,0.209318
48229000,0.0324,0.013523,0.002678,0.000431,0.182286
48230000,0.0324,0.013523,0.002678,0.000431,0.097196
48231000,0.0324,0.013523,0.002678,0.000431,0.548269
48232000,0.0324,0.013523,0.002678,0.000431,0.192159
48233000,0.0324,0.013523,0.002678,0.000431,0.160308
48234000,0.0324,0.013523,0.002678,0.000431,0.151259
48235000,0.0324,0.013523,0.002678,0.000431,0.120466
48236000,0.0324,0.013523,0.002678,0.000431,0.111182
48237000,0.0324,0.013523,0.002678,0.000431,0.090849
48238000,0.0324,0.013523,0.002678,0.000431,0.094023
48239000,0.0324,0.013523,0.002678,0.000431,0.055708
48240000,0.0324,0.013523,0.002678,0.000431,0.041487
48241000,0.0324,0.013523,0.002678,0.000431,0.030792
48242000,0.0324,0.013523,0.002678,0.000431,0.029500
48243000,0.0324,0.013523,0.002678,0.000431,0.023623
48244000,0.0324,0.013523,0.002678,0.000431,0.023506
48245000,0.0324,0.013523,0.002678,0.000431,0.019157
48246000,0.0324,0.013523,0.002678,0.000431,0.011165
48247000,0.0324,0.013523,0.002678,0.000431,0.006699
48248000,0.0324,0.013523,0.002678,0.000431,0.017159
48249000,0.0324,0.013523,0.002678,0.000431,0.001763
48250000,0.0324,0.013523,0.002678,0.000431,0.006934
48251000,0.0324,0.013523,0.002678,0.000431,0.625720
48252000,0.0324,0.013523,0.002678,0.000431,0.649931
48253000,0.0324,0.013523,0.002678,0.000431,0.142092
48254000,0.0324,0.013523,0.002678,0.000431,0.137978
48255000,0.0324,0.013523,0.002678,0.000431,0.579649
48256000,0.0324,0.013523,0.002678,0.000431,0.258444
48257000,0.0324,0.013523,0.002678,0.000431,0.287356
48258000,0.0324,0.013523,0.002678,0.000431,0.160661
48259000,0.0324,0.013523,0.002678,0.000431,0.145852
48260000,0.0324,0.013523,0.002678,0.000431,0.243401
48261000,0.0324,0.013523,0.002678,0.000431,0.539337
48262000,0.0324,0.013523,0.002678,0.000431,0.211316
48263000,0.0324,0.013523,0.002678,0.000431,0.208613
48264000,0.0324,0.013523,0.002678,0.000431,0.173119
48265000,0.0324,0.013523,0.002678,0.000431,0.152904
48266000,0.0324,0.013523,0.002678,0.000431,0.126225
48267000,0.0324,0.013523,0.002678,0.000431,0.110947
48268000,0.0324,0.013523,0.002678,0.000431,0.085678
48269000,0.0324,0.013523,0.002678,0.000431,0.076863
48270000,0.0324,0.013523,0.002678,0.000431,0.060057
48271000,0.0324,0.013523,0.002678,0.000431,0.046071
48272000,0.0324,0.013523,0.002678,0.000431,0.034906
48273000,0.0324,0.013523,0.002678,0.000431,0.027031
48274000,0.0324,0.013523,0.002678,0.000431,0.021860
48275000,0.0324,0.013523,0.002678,0.000431,0.024328
48276000,0.0324,0.013523,0.002678,0.000431,0.021038
48277000,0.0324,0.013523,0.002678,0.000431,0.014926
48278000,0.0324,0.013523,0.002678,0.000431,0.011048
48279000,0.0324,0.013523,0.002678,0.000431,0.008109
48280000,0.0324,0.013523,0.002678,0.000431,0.009402
48281000,0.0324,0.013523,0.002678,0.000431,0.012576
48282000,0.0324,0.013523,0.002678,0.000431,0.008462
48283000,0.0324,0.013523,0.002678,0.000431,0.010460
48284000,0.0324,0.013523,0.002678,0.000431,0.003761
48285000,0.0324,0.013523,0.002678,0.000431,0.000823
48286000,0.0324,0.013523,0.002678,0.000431,0.009755
48287000,0.0324,0.013523,0.002678,0.000431,0.682956
48288000,0.0324,0.013523,0.002678,0.000431,0.662389
48289000,0.0324,0.013523,0.002678,0.000431,0.137273
48290000,0.0324,0.013523,0.002678,0.000431,0.137743
48291000,0.0324,0.013523,0.002678,0.000431,0.547681
48292000,0.0324,0.013523,0.002678,0.000431,0.278542
48293000,0.0324,0.013523,0.002678,0.000431,0.330607
48294000,0.0324,0.013523,0.002678,0.000431,0.145500
48295000,0.0324,0.013523,0.002678,0.000431,0.126695
48296000,0.0324,0.013523,0.002678,0.000431,0.372447
48297000,0.0324,0.013523,0.002678,0.000431,0.406412
48298000,0.0324,0.013523,0.002678,0.000431,0.204617
48299000,0.0324,0.013523,0.002678,0.000431,0.188515
48300000,0.0324,0.013523,0.002678,0.000431,0.168418
48301000,0.0324,0.013523,0.002678,0.000431,0.125873
48302000,0.0324,0.013523,0.002678,0.000431,0.107891
48303000,0.0324,0.013523,0.002678,0.000431,0.089321
48304000,0.0324,0.013523,0.002678,0.000431,0.077921
48305000,0.0324,0.013523,0.002678,0.000431,0.059587
48306000,0.0324,0.013523,0.002678,0.000431,0.049479
48307000,0.0324,0.013523,0.002678,0.000431,0.036199
48308000,0.0324,0.013523,0.002678,0.000431,0.041605
48309000,0.0324,0.013523,0.002678,0.000431,0.037727
48310000,0.0324,0.013523,0.002678,0.000431,0.026561
48311000,0.0324,0.013523,0.002678,0.000431,0.023036
48312000,0.0324,0.013523,0.002678,0.000431,0.022330
48313000,0.0324,0.013523,0.002678,0.000431,0.016807
48314000,0.0324,0.013523,0.002678,0.000431,0.014338
48315000,0.0324,0.013523,0.002678,0.000431,0.009755
48316000,0.0324,0.013523,0.002678,0.000431,0.010930
48317000,0.0324,0.013523,0.002678,0.000431,0.007874
48318000,0.0324,0.013523,0.002678,0.000431,0.006817
48319000,0.0324,0.013523,0.002678,0.000431,0.007874
48320000,0.0324,0.013523,0.002678,0.000431,0.005641
48321000,0.0324,0.013523,0.002678,0.000431,0.005524
48322000,0.0324,0.013523,0.002678,0.000431,0.005171
48323000,0.0324,0.013523,0.002678,0.000431,0.007639
48324000,0.0324,0.013523,0.002678,0.000431,0.004349
48325000,0.0324,0.013523,0.002678,0.000431,0.006582
48326000,0.0324,0.013523,0.002678,0.000431,0.004113
48327000,0.0324,0.013523,0.002678,0.000431,0.007052
48328000,0.0324,0.013523,0.002678,0.000431,0.005759
48329000,0.0324,0.013523,0.002678,0.000431,0.000940
48330000,0.0324,0.013523,0.002678,0.000431,0.001175
48331000,0.0324,0.013523,0.002678,0.000431,0.001528
48332000,0.0324,0.013523,0.002678,0.000431,0.000823
48333000,0.0324,0.013523,0.002678,0.000431,0.001645
48334000,0.0324,0.013523,0.002678,0.000431,0.000940
48335000,0.0324,0.013523,0.002678,0.000431,0.001175
48336000,0.0324,0.013523,0.002678,0.000431,0.001410
48337000,0.0324,0.013523,0.002678,0.000431,0.000940
48338000,0.0324,0.013523,0.002678,0.000431,0.001410
48339000,0.0324,0.013523,0.002678,0.000431,0.001058
48340000,0.0324,0.013523,0.002678,0.000431,0.001293
48341000,0.0324,0.013523,0.002678,0.000431,0.001293
48342000,0.0324,0.013523,0.002678,0.000431,0.001528
48343000,0.0324,0.013523,0.002678,0.000431,0.001058
48344000,0.0324,0.013523,0.002678,0.000431,0.001293
48345000,0.0324,0.013523,0.002678,0.000431,0.001410
48346000,0.0324,0.013523,0.002678,0.000431,0.000940
48347000,0.0324,0.013523,0.002678,0.000431,0.001410
48348000,0.0324,0.013523,0.002678,0.000431,0.001058
48349000,0.0324,0.013523,0.002678,0.000431,0.001058
48350000,0.0324,0.013523,0.002678,0.000431,0.001645
48351000,0.0324,0.013523,0.002678,0.000431,0.001528
48352000,0.0324,0.013523,0.002678,0.000431,0.001410
48353000,0.0324,0.013523,0.002678,0.000431,0.001528
48354000,0.0324,0.013523,0.002678,0.000431,0.001410
48355000,0.0324,0.013523,0.002678,0.000431,0.000940
48356000,0.0324,0.013523,0.002678,0.000431,0.079332
48357000,0.0324,0.013523,0.002678,0.000431,0.790730
48358000,0.0324,0.013523,0.002678,0.000431,0.515714
48359000,0.0324,0.013523,0.002678,0.000431,0.136803
48360000,0.0324,0.013523,0.002678,0.000431,0.296759
48361000,0.0324,0.013523,0.002678,0.000431,0.416285
48362000,0.0324,0.013523,0.002678,0.000431,0.272313
48363000,0.0324,0.013523,0.002678,0.000431,0.294173
48364000,0.0324,0.013523,0.002678,0.000431,0.167125
48365000,0.0324,0.013523,0.002678,0.000431,0.113062
48366000,0.0324,0.013523,0.002678,0.000431,0.367863
48367000,0.0324,0.013523,0.002678,0.000431,0.376795
48368000,0.0324,0.013523,0.002678,0.000431,0.181228
48369000,0.0324,0.013523,0.002678,0.000431,0.163012
48370000,0.0324,0.013523,0.002678,0.000431,0.151024
48371000,0.0324,0.013523,0.002678,0.000431,0.128928
48372000,0.0324,0.013523,0.002678,0.000431,0.091554
48373000,0.0324,0.013523,0.002678,0.000431,0.069459
48374000,0.0324,0.013523,0.002678,0.000431,0.053240
48375000,0.0324,0.013523,0.002678,0.000431,0.039254
48376000,0.0324,0.013523,0.002678,0.000431,0.030675
48377000,0.0324,0.013523,0.002678,0.000431,0.027031
48378000,0.0324,0.013523,0.002678,0.000431,0.024446
48379000,0.0324,0.013523,0.002678,0.000431,0.023623
48380000,0.0324,0.013523,0.002678,0.000431,0.014573
48381000,0.0324,0.013523,0.002678,0.000431,0.012458
48382000,0.0324,0.013523,0.002678,0.000431,0.011988
48383000,0.0324,0.013523,0.002678,0.000431,0.008697
48384000,0.0324,0.013523,0.002678,0.000431,0.005524
48385000,0.0324,0.013523,0.002678,0.000431,0.005876
48386000,0.0324,0.013523,0.002678,0.000431,0.009167
48387000,0.0324,0.013523,0.002678,0.000431,0.006111
48388000,0.0324,0.013523,0.002678,0.000431,0.002821
48389000,0.0324,0.013523,0.002678,0.000431,0.000823
48390000,0.0324,0.013523,0.002678,0.000431,0.000823
48391000,0.0324,0.013523,0.002678,0.000431,0.000705
48392000,0.0324,0.013523,0.002678,0.000431,0.000940
48393000,0.0324,0.013523,0.002678,0.000431,0.000940
48394000,0.0324,0.013523,0.002678,0.000431,0.000705
48395000,0.0324,0.013523,0.002678,0.000431,0.000940
48396000,0.0324,0.013523,0.002678,0.000431,0.000705
48397000,0.0324,0.013523,0.002678,0.000431,0.000940
48398000,0.0324,0.013523,0.002678,0.000431,0.000823
48399000,0.0324,0.013523,0.002678,0.000431,0.000823
48400000,0.0324,0.013523,0.002678,0.000431,0.000823
48401000,0.0324,0.013523,0.002678,0.000431,0.000823
48402000,0.0324,0.013523,0.002678,0.000431,0.000940
48403000,0.0324,0.013523,0.002678,0.000431,0.000823
48404000,0.0324,0.013523,0.002678,0.000431,0.000823
48405000,0.0324,0.013523,0.002678,0.000431,0.000823
48406000,0.0324,0.013523,0.002678,0.000431,0.000823
48407000,0.0324,0.013523,0.002678,0.000431,0.000823
48408000,0.0324,0.013523,0.002678,0.000431,0.000823
48409000,0.0324,0.013523,0.002678,0.000431,0.000940
48410000,0.0324,0.013523,0.002678,0.000431,0.000705
48411000,0.0324,0.013523,0.002678,0.000431,0.000823
48412000,0.0324,0.013523,0.002678,0.000431,0.000940
48413000,0.0324,0.013523,0.002678,0.000431,0.000823
48414000,0.0324,0.013523,0.002678,0.000431,0.000823
48415000,0.0324,0.013523,0.002678,0.000431,0.000823
48416000,0.0324,0.013523,0.002678,0.000431,0.002938
48417000,0.0324,0.013523,0.002678,0.000431,0.601744
48418000,0.0324,0.013523,0.002678,0.000431,0.684602
48419000,0.0324,0.013523,0.002678,0.000431,0.134922
48420000,0.0324,0.013523,0.002678,0.000431,0.136803
48421000,0.0324,0.013523,0.002678,0.000431,0.536634
48422000,0.0324,0.013523,0.002678,0.000431,0.266201
48423000,0.0324,0.013523,0.002678,0.000431,0.281245
48424000,0.0324,0.013523,0.002678,0.000431,0.205557
48425000,0.0324,0.013523,0.002678,0.000431,0.162424
48426000,0.0324,0.013523,0.002678,0.000431,0.109419
48427000,0.0324,0.013523,0.002678,0.000431,0.449310
48428000,0.0324,0.013523,0.002678,0.000431,0.306513
48429000,0.0324,0.013523,0.002678,0.000431,0.190631
48430000,0.0324,0.013523,0.002678,0.000431,0.158663
48431000,0.0324,0.013523,0.002678,0.000431,0.137626
48432000,0.0324,0.013523,0.002678,0.000431,0.108714
48433000,0.0324,0.013523,0.002678,0.000431,0.089321
48434000,0.0324,0.013523,0.002678,0.000431,0.062055
48435000,0.0324,0.013523,0.002678,0.000431,0.062055
48436000,0.0324,0.013523,0.002678,0.000431,0.037491
48437000,0.0324,0.013523,0.002678,0.000431,0.027031
48438000,0.0324,0.013523,0.002678,0.000431,0.018334
48439000,0.0324,0.013523,0.002678,0.000431,0.020332
48440000,0.0324,0.013523,0.002678,0.000431,0.018334
48441000,0.0324,0.013523,0.002678,0.000431,0.014573
48442000,0.0324,0.013523,0.002678,0.000431,0.010578
48443000,0.0324,0.013523,0.002678,0.000431,0.002468
48444000,0.0324,0.013523,0.002678,0.000431,0.002468
48445000,0.0324,0.013523,0.002678,0.000431,0.002468
48446000,0.0324,0.013523,0.002678,0.000431,0.005171
48447000,0.0324,0.013523,0.002678,0.000431,0.000940
48448000,0.0324,0.013523,0.002678,0.000431,0.000705
48449000,0.0324,0.013523,0.002678,0.000431,0.001998
48450000,0.0324,0.013523,0.002678,0.000431,0.483511
48451000,0.0324,0.013523,0.002678,0.000431,0.758292
48452000,0.0324,0.013523,0.002678,0.000431,0.162306
48453000,0.0324,0.013523,0.002678,0.000431,0.136333
48454000,0.0324,0.013523,0.002678,0.000431,0.503843
48455000,0.0324,0.013523,0.002678,0.000431,0.271960
48456000,0.0324,0.013523,0.002678,0.000431,0.280657
48457000,0.0324,0.013523,0.002678,0.000431,0.222128
48458000,0.0324,0.013523,0.002678,0.000431,0.167125
48459000,0.0324,0.013523,0.002678,0.000431,0.110476
48460000,0.0324,0.013523,0.002678,0.000431,0.487859
48461000,0.0324,0.013523,0.002678,0.000431,0.280187
48462000,0.0324,0.013523,0.002678,0.000431,0.188750
48463000,0.0324,0.013523,0.002678,0.000431,0.167008
48464000,0.0324,0.013523,0.002678,0.000431,0.154902
48465000,0.0324,0.013523,0.002678,0.000431,0.112945
48466000,0.0324,0.013523,0.002678,0.000431,0.082505
48467000,0.0324,0.013523,0.002678,0.000431,0.069342
48468000,0.0324,0.013523,0.002678,0.000431,0.057471
48469000,0.0324,0.013523,0.002678,0.000431,0.042898
48470000,0.0324,0.013523,0.002678,0.000431,0.033143
48471000,0.0324,0.013523,0.002678,0.000431,0.027031
48472000,0.0324,0.013523,0.002678,0.000431,0.027267
48473000,0.0324,0.013523,0.002678,0.000431,0.026796
48474000,0.0324,0.013523,0.002678,0.000431,0.015396
48475000,0.0324,0.013523,0.002678,0.000431,0.019510
48476000,0.0324,0.013523,0.002678,0.000431,0.012223
48477000,0.0324,0.013523,0.002678,0.000431,0.020920
48478000,0.0324,0.013523,0.002678,0.000431,0.005054
48479000,0.0324,0.013523,0.002678,0.000431,0.006817
48480000,0.0324,0.013523,0.002678,0.000431,0.005524
48481000,0.0324,0.013523,0.002678,0.000431,0.002468
48482000,0.0324,0.013523,0.002678,0.000431,0.004349
48483000,0.0324,0.013523,0.002678,0.000431,0.000823
48484000,0.0324,0.013523,0.002678,0.000431,0.071575
48485000,0.0324,0.013523,0.002678,0.000431,0.731495
48486000,0.0324,0.013523,0.002678,0.000431,0.542158
48487000,0.0324,0.013523,0.002678,0.000431,0.135863
48488000,0.0324,0.013523,0.002678,0.000431,0.185577
48489000,0.0324,0.013523,0.002678,0.000431,0.505019
48490000,0.0324,0.013523,0.002678,0.000431,0.260795
48491000,0.0324,0.013523,0.002678,0.000431,0.286534
48492000,0.0324,0.013523,0.002678,0.000431,0.150083
48493000,0.0324,0.013523,0.002678,0.000431,0.162306
48494000,0.0324,0.013523,0.002678,0.000431,0.201208
48495000,0.0324,0.013523,0.002678,0.000431,0.481043
48496000,0.0324,0.013523,0.002678,0.000431,0.160543
48497000,0.0324,0.013523,0.002678,0.000431,0.150554
48498000,0.0324,0.013523,0.002678,0.000431,0.134570
48499000,0.0324,0.013523,0.002678,0.000431,0.115530
48500000,0.0324,0.013523,0.002678,0.000431,0.085443
48501000,0.0324,0.013523,0.002678,0.000431,0.077451
48502000,0.0324,0.013523,0.002678,0.000431,0.053475
48503000,0.0324,0.013523,0.002678,0.000431,0.047011
48504000,0.0324,0.013523,0.002678,0.000431,0.031027
48505000,0.0324,0.013523,0.002678,0.000431,0.016336
48506000,0.0324,0.013523,0.002678,0.000431,0.017982
48507000,0.0324,0.013523,0.002678,0.000431,0.008697
48508000,0.0324,0.013523,0.002678,0.000431,0.006229
48509000,0.0324,0.013523,0.002678,0.000431,0.006582
48510000,0.0324,0.013523,0.002678,0.000431,0.005994
48511000,0.0324,0.013523,0.002678,0.000431,0.005171
48512000,0.0324,0.013523,0.002678,0.000431,0.007404
48513000,0.0324,0.013523,0.002678,0.000431,0.003291
48514000,0.0324,0.013523,0.002678,0.000431,0.002938
48515000,0.0324,0.013523,0.002678,0.000431,0.003173
48516000,0.0324,0.013523,0.002678,0.000431,0.003173
48517000,0.0324,0.013523,0.002678,0.000431,0.005876
48518000,0.0324,0.013523,0.002678,0.000431,0.001528
48519000,0.0324,0.013523,0.002678,0.000431,0.001880
48520000,0.0324,0.013523,0.002678,0.000431,0.001528
48521000,0.0324,0.013523,0.002678,0.000431,0.001763
48522000,0.0324,0.013523,0.002678,0.000431,0.001645
48523000,0.0324,0.013523,0.002678,0.000431,0.003173
48524000,0.0324,0.013523,0.002678,0.000431,0.000823
48525000,0.0324,0.013523,0.002678,0.000431,0.000823
48526000,0.0324,0.013523,0.002678,0.000431,0.000823
48527000,0.0324,0.013523,0.002678,0.000431,0.000940
48528000,0.0324,0.013523,0.002678,0.000431,0.261148
48529000,0.0324,0.013523,0.002678,0.000431,0.713279
48530000,0.0324,0.013523,0.002678,0.000431,0.384552
48531000,0.0324,0.013523,0.002678,0.000431,0.135863
48532000,0.0324,0.013523,0.002678,0.000431,0.463766
48533000,0.0324,0.013523,0.002678,0.000431,0.261500
48534000,0.0324,0.013523,0.002678,0.000431,0.275839
48535000,0.0324,0.013523,0.002678,0.000431,0.261853
48536000,0.0324,0.013523,0.002678,0.000431,0.154197
48537000,0.0324,0.013523,0.002678,0.000431,0.134805
48538000,0.0324,0.013523,0.002678,0.000431,0.324848
48539000,0.0324,0.013523,0.002678,0.000431,0.420751
48540000,0.0324,0.013523,0.002678,0.000431,0.175587
48541000,0.0324,0.013523,0.002678,0.000431,0.164069
48542000,0.0324,0.013523,0.002678,0.000431,0.132689
48543000,0.0324,0.013523,0.002678,0.000431,0.118821
48544000,0.0324,0.013523,0.002678,0.000431,0.106010
48545000,0.0324,0.013523,0.002678,0.000431,0.102602
48546000,0.0324,0.013523,0.002678,0.000431,0.080977
48547000,0.0324,0.013523,0.002678,0.000431,0.055708
48548000,0.0324,0.013523,0.002678,0.000431,0.044896
48549000,0.0324,0.013523,0.002678,0.000431,0.049597
48550000,0.0324,0.013523,0.002678,0.000431,0.036669
48551000,0.0324,0.013523,0.002678,0.000431,0.034083
48552000,0.0324,0.013523,0.002678,0.000431,0.027502
48553000,0.0324,0.013523,0.002678,0.000431,0.027854
48554000,0.0324,0.013523,0.002678,0.000431,0.025504
48555000,0.0324,0.013523,0.002678,0.000431,0.022330
48556000,0.0324,0.013523,0.002678,0.000431,0.023623
48557000,0.0324,0.013523,0.002678,0.000431,0.015631
48558000,0.0324,0.013523,0.002678,0.000431,0.011165
48559000,0.0324,0.013523,0.002678,0.000431,0.015044
48560000,0.0324,0.013523,0.002678,0.000431,0.009285
48561000,0.0324,0.013523,0.002678,0.000431,0.008697
48562000,0.0324,0.013523,0.002678,0.000431,0.005759
48563000,0.0324,0.013523,0.002678,0.000431,0.000940
48564000,0.0324,0.013523,0.002678,0.000431,0.121407
48565000,0.0324,0.013523,0.002678,0.000431,0.745481
48566000,0.0324,0.013523,0.002678,0.000431,0.499730
48567000,0.0324,0.013523,0.002678,0.000431,0.136450
48568000,0.0324,0.013523,0.002678,0.000431,0.235291
48569000,0.0324,0.013523,0.002678,0.000431,0.528759
48570000,0.0324,0.013523,0.002678,0.000431,0.230473
48571000,0.0324,0.013523,0.002678,0.000431,0.314976
48572000,0.0324,0.013523,0.002678,0.000431,0.149848
48573000,0.0324,0.013523,0.002678,0.000431,0.138448
48574000,0.0324,0.013523,0.002678,0.000431,0.261853
48575000,0.0324,0.013523,0.002678,0.000431,0.498555
48576000,0.0324,0.013523,0.002678,0.000431,0.222246
48577000,0.0324,0.013523,0.002678,0.000431,0.210375
48578000,0.0324,0.013523,0.002678,0.000431,0.169358
48579000,0.0324,0.013523,0.002678,0.000431,0.141504
48580000,0.0324,0.013523,0.002678,0.000431,0.131044
48581000,0.0324,0.013523,0.002678,0.000431,0.084268
48582000,0.0324,0.013523,0.002678,0.000431,0.072280
48583000,0.0324,0.013523,0.002678,0.000431,0.070164
48584000,0.0324,0.013523,0.002678,0.000431,0.052535
48585000,0.0324,0.013523,0.002678,0.000431,0.041723
48586000,0.0324,0.013523,0.002678,0.000431,0.026679
48587000,0.0324,0.013523,0.002678,0.000431,0.026326
48588000,0.0324,0.013523,0.002678,0.000431,0.016101
48589000,0.0324,0.013523,0.002678,0.000431,0.022800
48590000,0.0324,0.013523,0.002678,0.000431,0.019980
48591000,0.0324,0.013523,0.002678,0.000431,0.010107
48592000,0.0324,0.013523,0.002678,0.000431,0.008345
48593000,0.0324,0.013523,0.002678,0.000431,0.010342
48594000,0.0324,0.013523,0.002678,0.000431,0.011518
48595000,0.0324,0.013523,0.002678,0.000431,0.006699
48596000,0.0324,0.013523,0.002678,0.000431,0.008580
48597000,0.0324,0.013523,0.002678,0.000431,0.009637
48598000,0.0324,0.013523,0.002678,0.000431,0.005171
48599000,0.0324,0.013523,0.002678,0.000431,0.005524
48600000,0.0324,0.013523,0.002678,0.000431,0.004231
48601000,0.0324,0.013523,0.002678,0.000431,0.007287
48602000,0.0324,0.013523,0.002678,0.000431,0.001763
48603000,0.0324,0.013523,0.002678,0.000431,0.005876
48604000,0.0324,0.013523,0.002678,0.000431,0.003643
48605000,0.0324,0.013523,0.002678,0.000431,0.626660
48606000,0.0324,0.013523,0.002678,0.000431,0.705287
48607000,0.0324,0.013523,0.002678,0.000431,0.141739
48608000,0.0324,0.013523,0.002678,0.000431,0.138566
48609000,0.0324,0.013523,0.002678,0.000431,0.529347
48610000,0.0324,0.013523,0.002678,0.000431,0.252921
48611000,0.0324,0.013523,0.002678,0.000431,0.345650
48612000,0.0324,0.013523,0.002678,0.000431,0.172766
48613000,0.0324,0.013523,0.002678,0.000431,0.181111
48614000,0.0324,0.013523,0.002678,0.000431,0.112592
48615000,0.0324,0.013523,0.002678,0.000431,0.546976
48616000,0.0324,0.013523,0.002678,0.000431,0.218015
48617000,0.0324,0.013523,0.002678,0.000431,0.184637
48618000,0.0324,0.013523,0.002678,0.000431,0.151024
48619000,0.0324,0.013523,0.002678,0.000431,0.126225
48620000,0.0324,0.013523,0.002678,0.000431,0.116941
48621000,0.0324,0.013523,0.002678,0.000431,0.083210
48622000,0.0324,0.013523,0.002678,0.000431,0.068989
48623000,0.0324,0.013523,0.002678,0.000431,0.047951
48624000,0.0324,0.013523,0.002678,0.000431,0.041135
48625000,0.0324,0.013523,0.002678,0.000431,0.030205
48626000,0.0324,0.013523,0.002678,0.000431,0.032320
48627000,0.0324,0.013523,0.002678,0.000431,0.022213
48628000,0.0324,0.013523,0.002678,0.000431,0.022095
48629000,0.0324,0.013523,0.002678,0.000431,0.028324
48630000,0.0324,0.013523,0.002678,0.000431,0.009990
48631000,0.0324,0.013523,0.002678,0.000431,0.007522
48632000,0.0324,0.013523,0.002678,0.000431,0.007287
48633000,0.0324,0.013523,0.002678,0.000431,0.008345
48634000,0.0324,0.013523,0.002678,0.000431,0.005641
48635000,0.0324,0.013523,0.002678,0.000431,0.003291
48636000,0.0324,0.013523,0.002678,0.000431,0.003408
48637000,0.0324,0.013523,0.002678,0.000431,0.007052
48638000,0.0324,0.013523,0.002678,0.000431,0.001763
48639000,0.0324,0.013523,0.002678,0.000431,0.002116
48640000,0.0324,0.013523,0.002678,0.000431,0.001645
48641000,0.0324,0.013523,0.002678,0.000431,0.001645
48642000,0.0324,0.013523,0.002678,0.000431,0.001880
48643000,0.0324,0.013523,0.002678,0.000431,0.002351
48644000,0.0324,0.013523,0.002678,0.000431,0.001763
48645000,0.0324,0.013523,0.002678,0.000431,0.001998
48646000,0.0324,0.013523,0.002678,0.000431,0.001763
48647000,0.0324,0.013523,0.002678,0.000431,0.000705
48648000,0.0324,0.013523,0.002678,0.000431,0.263733
48649000,0.0324,0.013523,0.002678,0.000431,0.732083
48650000,0.0324,0.013523,0.002678,0.000431,0.413347
48651000,0.0324,0.013523,0.002678,0.000431,0.135745
48652000,0.0324,0.013523,0.002678,0.000431,0.480103
48653000,0.0324,0.013523,0.002678,0.000431,0.267142
48654000,0.0324,0.013523,0.002678,0.000431,0.322732
48655000,0.0324,0.013523,0.002678,0.000431,0.240110
48656000,0.0324,0.013523,0.002678,0.000431,0.172884
48657000,0.0324,0.013523,0.002678,0.000431,0.104012
48658000,0.0324,0.013523,0.002678,0.000431,0.493148
48659000,0.0324,0.013523,0.002678,0.000431,0.280187
48660000,0.0324,0.013523,0.002678,0.000431,0.194862
48661000,0.0324,0.013523,0.002678,0.000431,0.172649
48662000,0.0324,0.013523,0.002678,0.000431,0.138331
48663000,0.0324,0.013523,0.002678,0.000431,0.115765
48664000,0.0324,0.013523,0.002678,0.000431,0.094258
48665000,0.0324,0.013523,0.002678,0.000431,0.088146
48666000,0.0324,0.013523,0.002678,0.000431,0.067814
48667000,0.0324,0.013523,0.002678,0.000431,0.052183
48668000,0.0324,0.013523,0.002678,0.000431,0.043368
48669000,0.0324,0.013523,0.002678,0.000431,0.035494
48670000,0.0324,0.013523,0.002678,0.000431,0.028442
48671000,0.0324,0.013523,0.002678,0.000431,0.025621
48672000,0.0324,0.013523,0.002678,0.000431,0.028089
48673000,0.0324,0.013523,0.002678,0.000431,0.017747
48674000,0.0324,0.013523,0.002678,0.000431,0.012105
48675000,0.0324,0.013523,0.002678,0.000431,0.011400
48676000,0.0324,0.013523,0.002678,0.000431,0.009285
48677000,0.0324,0.013523,0.002678,0.000431,0.062760
48678000,0.0324,0.013523,0.002678,0.000431,0.736314
48679000,0.0324,0.013523,0.002678,0.000431,0.559082
48680000,0.0324,0.013523,0.002678,0.000431,0.142092
48681000,0.0324,0.013523,0.002678,0.000431,0.187457
48682000,0.0324,0.013523,0.002678,0.000431,0.584350
48683000,0.0324,0.013523,0.002678,0.000431,0.240933
48684000,0.0324,0.013523,0.002678,0.000431,0.324495
48685000,0.0324,0.013523,0.002678,0.000431,0.165480
48686000,0.0324,0.013523,0.002678,0.000431,0.127636
48687000,0.0324,0.013523,0.002678,0.000431,0.252098
48688000,0.0324,0.013523,0.002678,0.000431,0.493501
48689000,0.0324,0.013523,0.002678,0.000431,0.196625
48690000,0.0324,0.013523,0.002678,0.000431,0.169711
48691000,0.0324,0.013523,0.002678,0.000431,0.147028
48692000,0.0324,0.013523,0.002678,0.000431,0.134335
48693000,0.0324,0.013523,0.002678,0.000431,0.090497
48694000,0.0324,0.013523,0.002678,0.000431,0.049009
48695000,0.0324,0.013523,0.002678,0.000431,0.048774
48696000,0.0324,0.013523,0.002678,0.000431,0.032908
48697000,0.0324,0.013523,0.002678,0.000431,0.033496
48698000,0.0324,0.013523,0.002678,0.000431,0.023271
48699000,0.0324,0.013523,0.002678,0.000431,0.025269
48700000,0.0324,0.013523,0.002678,0.000431,0.016689
48701000,0.0324,0.013523,0.002678,0.000431,0.014573
48702000,0.0324,0.013523,0.002678,0.000431,0.014103
48703000,0.0324,0.013523,0.002678,0.000431,0.006111
48704000,0.0324,0.013523,0.002678,0.000431,0.008345
48705000,0.0324,0.013523,0.002678,0.000431,0.010107
48706000,0.0324,0.013523,0.002678,0.000431,0.005876
48707000,0.0324,0.013523,0.002678,0.000431,0.003056
48708000,0.0324,0.013523,0.002678,0.000431,0.007522
48709000,0.0324,0.013523,0.002678,0.000431,0.000823
48710000,0.0324,0.013523,0.002678,0.000431,0.000705
48711000,0.0324,0.013523,0.002678,0.000431,0.000940
48712000,0.0324,0.013523,0.002678,0.000431,0.000823
48713000,0.0324,0.013523,0.002678,0.000431,0.000823
48714000,0.0324,0.013523,0.002678,0.000431,0.000823
48715000,0.0324,0.013523,0.002678,0.000431,0.000823
48716000,0.0324,0.013523,0.002678,0.000431,0.000940
48717000,0.0324,0.013523,0.002678,0.000431,0.000705
48718000,0.0324,0.013523,0.002678,0.000431,0.000823
48719000,0.0324,0.013523,0.002678,0.000431,0.024093
48720000,0.0324,0.013523,0.002678,0.000431,0.774041
48721000,0.0324,0.013523,0.002678,0.000431,0.545918
48722000,0.0324,0.013523,0.002678,0.000431,0.139976
48723000,0.0324,0.013523,0.002678,0.000431,0.161249
48724000,0.0324,0.013523,0.002678,0.000431,0.541217
48725000,0.0324,0.013523,0.002678,0.000431,0.264909
48726000,0.0324,0.013523,0.002678,0.000431,0.344005
48727000,0.0324,0.013523,0.002678,0.000431,0.156430
48728000,0.0324,0.013523,0.002678,0.000431,0.120349
48729000,0.0324,0.013523,0.002678,0.000431,0.325553
48730000,0.0324,0.013523,0.002678,0.000431,0.427685
48731000,0.0324,0.013523,0.002678,0.000431,0.172061
48732000,0.0324,0.013523,0.002678,0.000431,0.155255
48733000,0.0324,0.013523,0.002678,0.000431,0.141857
48734000,0.0324,0.013523,0.002678,0.000431,0.127988
48735000,0.0324,0.013523,0.002678,0.000431,0.087441
48736000,0.0324,0.013523,0.002678,0.000431,0.077334
48737000,0.0324,0.013523,0.002678,0.000431,0.058764
48738000,0.0324,0.013523,0.002678,0.000431,0.046894
48739000,0.0324,0.013523,0.002678,0.000431,0.046071
48740000,0.0324,0.013523,0.002678,0.000431,0.027854
48741000,0.0324,0.013523,0.002678,0.000431,0.028912
48742000,0.0324,0.013523,0.002678,0.000431,0.031380
48743000,0.0324,0.013523,0.002678,0.000431,0.028912
48744000,0.0324,0.013523,0.002678,0.000431,0.022918
48745000,0.0324,0.013523,0.002678,0.000431,0.018922
48746000,0.0324,0.013523,0.002678,0.000431,0.024798
48747000,0.0324,0.013523,0.002678,0.000431,0.012693
48748000,0.0324,0.013523,0.002678,0.000431,0.015866
48749000,0.0324,0.013523,0.002678,0.000431,0.013633
48750000,0.0324,0.013523,0.002678,0.000431,0.011988
48751000,0.0324,0.013523,0.002678,0.000431,0.005641
48752000,0.0324,0.013523,0.002678,0.000431,0.002938
48753000,0.0324,0.013523,0.002678,0.000431,0.006229
48754000,0.0324,0.013523,0.002678,0.000431,0.427920
48755000,0.0324,0.013523,0.002678,0.000431,0.762170
48756000,0.0324,0.013523,0.002678,0.000431,0.202148
48757000,0.0324,0.013523,0.002678,0.000431,0.136333
48758000,0.0324,0.013523,0.002678,0.000431,0.521237
48759000,0.0324,0.013523,0.002678,0.000431,0.230708
48760000,0.0324,0.013523,0.002678,0.000431,0.338246
48761000,0.0324,0.013523,0.002678,0.000431,0.221893
48762000,0.0324,0.013523,0.002678,0.000431,0.164539
48763000,0.0324,0.013523,0.002678,0.000431,0.107538
48764000,0.0324,0.013523,0.002678,0.000431,0.523118
48765000,0.0324,0.013523,0.002678,0.000431,0.230708
48766000,0.0324,0.013523,0.002678,0.000431,0.155490
48767000,0.0324,0.013523,0.002678,0.000431,0.136568
48768000,0.0324,0.013523,0.002678,0.000431,0.120701
48769000,0.0324,0.013523,0.002678,0.000431,0.099664
48770000,0.0324,0.013523,0.002678,0.000431,0.086266
48771000,0.0324,0.013523,0.002678,0.000431,0.078509
48772000,0.0324,0.013523,0.002678,0.000431,0.059822
48773000,0.0324,0.013523,0.002678,0.000431,0.050302
48774000,0.0324,0.013523,0.002678,0.000431,0.034318
48775000,0.0324,0.013523,0.002678,0.000431,0.031615
48776000,0.0324,0.013523,0.002678,0.000431,0.023153
48777000,0.0324,0.013523,0.002678,0.000431,0.019040
48778000,0.0324,0.013523,0.002678,0.000431,0.015631
48779000,0.0324,0.013523,0.002678,0.000431,0.013281
48780000,0.0324,0.013523,0.002678,0.000431,0.019392
48781000,0.0324,0.013523,0.002678,0.000431,0.019392
48782000,0.0324,0.013523,0.002678,0.000431,0.002938
48783000,0.0324,0.013523,0.002678,0.000431,0.002703
48784000,0.0324,0.013523,0.002678,0.000431,0.002468
48785000,0.0324,0.013523,0.002678,0.000431,0.004936
48786000,0.0324,0.013523,0.002678,0.000431,0.001763
48787000,0.0324,0.013523,0.002678,0.000431,0.003173
48788000,0.0324,0.013523,0.002678,0.000431,0.001058
48789000,0.0324,0.013523,0.002678,0.000431,0.000823
48790000,0.0324,0.013523,0.002678,0.000431,0.000823
48791000,0.0324,0.013523,0.002678,0.000431,0.000940
48792000,0.0324,0.013523,0.002678,0.000431,0.000940
48793000,0.0324,0.013523,0.002678,0.000431,0.207790
48794000,0.0324,0.013523,0.002678,0.000431,0.675199
48795000,0.0324,0.013523,0.002678,0.000431,0.487742
48796000,0.0324,0.013523,0.002678,0.000431,0.135863
48797000,0.0324,0.013523,0.002678,0.000431,0.312742
48798000,0.0324,0.013523,0.002678,0.000431,0.408293
48799000,0.0324,0.013523,0.002678,0.000431,0.267024
48800000,0.0324,0.013523,0.002678,0.000431,0.312625
48801000,0.0324,0.013523,0.002678,0.000431,0.149026
48802000,0.0324,0.013523,0.002678,0.000431,0.143267
48803000,0.0324,0.013523,0.002678,0.000431,0.241991
48804000,0.0324,0.013523,0.002678,0.000431,0.521825
48805000,0.0324,0.013523,0.002678,0.000431,0.214842
48806000,0.0324,0.013523,0.002678,0.000431,0.182286
48807000,0.0324,0.013523,0.002678,0.000431,0.161601
48808000,0.0324,0.013523,0.002678,0.000431,0.136803
48809000,0.0324,0.013523,0.002678,0.000431,0.111182
48810000,0.0324,0.013523,0.002678,0.000431,0.084033
48811000,0.0324,0.013523,0.002678,0.000431,0.070282
48812000,0.0324,0.013523,0.002678,0.000431,0.054063
48813000,0.0324,0.013523,0.002678,0.000431,0.050185
48814000,0.0324,0.013523,0.002678,0.000431,0.033025
48815000,0.0324,0.013523,0.002678,0.000431,0.031380
48816000,0.0324,0.013523,0.002678,0.000431,0.026796
48817000,0.0324,0.013523,0.002678,0.000431,0.022330
48818000,0.0324,0.013523,0.002678,0.000431,0.019392
48819000,0.0324,0.013523,0.002678,0.000431,0.013986
48820000,0.0324,0.013523,0.002678,0.000431,0.011400
48821000,0.0324,0.013523,0.002678,0.000431,0.008109
48822000,0.0324,0.013523,0.002678,0.000431,0.010578
48823000,0.0324,0.013523,0.002678,0.000431,0.006582
48824000,0.0324,0.013523,0.002678,0.000431,0.002468
48825000,0.0324,0.013523,0.002678,0.000431,0.002468
48826000,0.0324,0.013523,0.002678,0.000431,0.002703
48827000,0.0324,0.013523,0.002678,0.000431,0.003643
48828000,0.0324,0.013523,0.002678,0.000431,0.003056
48829000,0.0324,0.013523,0.002678,0.000431,0.001763
48830000,0.0324,0.013523,0.002678,0.000431,0.001880
48831000,0.0324,0.013523,0.002678,0.000431,0.001645
48832000,0.0324,0.013523,0.002678,0.000431,0.005289
48833000,0.0324,0.013523,0.002678,0.000431,0.634065
48834000,0.0324,0.013523,0.002678,0.000431,0.680841
48835000,0.0324,0.013523,0.002678,0.000431,0.148203
48836000,0.0324,0.013523,0.002678,0.000431,0.138683
48837000,0.0324,0.013523,0.002678,0.000431,0.533931
48838000,0.0324,0.013523,0.002678,0.000431,0.268669
48839000,0.0324,0.013523,0.002678,0.000431,0.298992
48840000,0.0324,0.013523,0.002678,0.000431,0.193451
48841000,0.0324,0.013523,0.002678,0.000431,0.157370
48842000,0.0324,0.013523,0.002678,0.000431,0.106481
48843000,0.0324,0.013523,0.002678,0.000431,0.508662
48844000,0.0324,0.013523,0.002678,0.000431,0.286416
48845000,0.0324,0.013523,0.002678,0.000431,0.185107
48846000,0.0324,0.013523,0.002678,0.000431,0.176292
48847000,0.0324,0.013523,0.002678,0.000431,0.154550
48848000,0.0324,0.013523,0.002678,0.000431,0.118468
48849000,0.0324,0.013523,0.002678,0.000431,0.102250
48850000,0.0324,0.013523,0.002678,0.000431,0.090262
48851000,0.0324,0.013523,0.002678,0.000431,0.083445
48852000,0.0324,0.013523,0.002678,0.000431,0.072515
48853000,0.0324,0.013523,0.002678,0.000431,0.061585
48854000,0.0324,0.013523,0.002678,0.000431,0.046189
48855000,0.0324,0.013523,0.002678,0.000431,0.042898
48856000,0.0324,0.013523,0.002678,0.000431,0.031027
48857000,0.0324,0.013523,0.002678,0.000431,0.037256
48858000,0.0324,0.013523,0.002678,0.000431,0.032203
48859000,0.0324,0.013523,0.002678,0.000431,0.022330
48860000,0.0324,0.013523,0.002678,0.000431,0.021978
48861000,0.0324,0.013523,0.002678,0.000431,0.014809
48862000,0.0324,0.013523,0.002678,0.000431,0.012340
48863000,0.0324,0.013523,0.002678,0.000431,0.009990
48864000,0.0324,0.013523,0.002678,0.000431,0.010342
48865000,0.0324,0.013523,0.002678,0.000431,0.006817
48866000,0.0324,0.013523,0.002678,0.000431,0.011870
48867000,0.0324,0.013523,0.002678,0.000431,0.001645
48868000,0.0324,0.013523,0.002678,0.000431,0.001645
48869000,0.0324,0.013523,0.002678,0.000431,0.001763
48870000,0.0324,0.013523,0.002678,0.000431,0.001763
48871000,0.0324,0.013523,0.002678,0.000431,0.001528
48872000,0.0324,0.013523,0.002678,0.000431,0.001763
48873000,0.0324,0.013523,0.002678,0.000431,0.001528
48874000,0.0324,0.013523,0.002678,0.000431,0.001880
48875000,0.0324,0.013523,0.002678,0.000431,0.001528
48876000,0.0324,0.013523,0.002678,0.000431,0.001763
48877000,0.0324,0.013523,0.002678,0.000431,0.001880
48878000,0.0324,0.013523,0.002678,0.000431,0.001645
48879000,0.0324,0.013523,0.002678,0.000431,0.001645
48880000,0.0324,0.013523,0.002678,0.000431,0.001998
48881000,0.0324,0.013523,0.002678,0.000431,0.002938
48882000,0.0324,0.013523,0.002678,0.000431,0.000940
48883000,0.0324,0.013523,0.002678,0.000431,0.000823
48884000,0.0324,0.013523,0.002678,0.000431,0.000940
48885000,0.0324,0.013523,0.002678,0.000431,0.000940
48886000,0.0324,0.013523,0.002678,0.000431,0.014221
48887000,0.0324,0.013523,0.002678,0.000431,0.769222
48888000,0.0324,0.013523,0.002678,0.000431,0.568484
48889000,0.0324,0.013523,0.002678,0.000431,0.139036
48890000,0.0324,0.013523,0.002678,0.000431,0.185812
48891000,0.0324,0.013523,0.002678,0.000431,0.620431
48892000,0.0324,0.013523,0.002678,0.000431,0.257504
48893000,0.0324,0.013523,0.002678,0.000431,0.287121
48894000,0.0324,0.013523,0.002678,0.000431,0.162894
48895000,0.0324,0.013523,0.002678,0.000431,0.108008
48896000,0.0324,0.013523,0.002678,0.000431,0.482218
48897000,0.0324,0.013523,0.002678,0.000431,0.261148
48898000,0.0324,0.013523,0.002678,0.000431,0.176057
48899000,0.0324,0.013523,0.002678,0.000431,0.158428
48900000,0.0324,0.013523,0.002678,0.000431,0.128341
48901000,0.0324,0.013523,0.002678,0.000431,0.095080
48902000,0.0324,0.013523,0.002678,0.000431,0.095080
48903000,0.0324,0.013523,0.002678,0.000431,0.057471
48904000,0.0324,0.013523,0.002678,0.000431,0.065346
48905000,0.0324,0.013523,0.002678,0.000431,0.036081
48906000,0.0324,0.013523,0.002678,0.000431,0.027149
48907000,0.0324,0.013523,0.002678,0.000431,0.021273
48908000,0.0324,0.013523,0.002678,0.000431,0.013046
48909000,0.0324,0.013523,0.002678,0.000431,0.008227
48910000,0.0324,0.013523,0.002678,0.000431,0.010460
48911000,0.0324,0.013523,0.002678,0.000431,0.007639
48912000,0.0324,0.013523,0.002678,0.000431,0.007169
48913000,0.0324,0.013523,0.002678,0.000431,0.005524
48914000,0.0324,0.013523,0.002678,0.000431,0.009755
48915000,0.0324,0.013523,0.002678,0.000431,0.006229
48916000,0.0324,0.013523,0.002678,0.000431,0.004466
48917000,0.0324,0.013523,0.002678,0.000431,0.000940
48918000,0.0324,0.013523,0.002678,0.000431,0.000823
48919000,0.0324,0.013523,0.002678,0.000431,0.000940
48920000,0.0324,0.013523,0.002678,0.000431,0.000940
48921000,0.0324,0.013523,0.002678,0.000431,0.000823
48922000,0.0324,0.013523,0.002678,0.000431,0.000823
48923000,0.0324,0.013523,0.002678,0.000431,0.000940
48924000,0.0324,0.013523,0.002678,0.000431,0.050185
48925000,0.0324,0.013523,0.002678,0.000431,0.720448
48926000,0.0324,0.013523,0.002678,0.000431,0.565781
48927000,0.0324,0.013523,0.002678,0.000431,0.135392
48928000,0.0324,0.013523,0.002678,0.000431,0.157605
48929000,0.0324,0.013523,0.002678,0.000431,0.599864
48930000,0.0324,0.013523,0.002678,0.000431,0.236232
48931000,0.0324,0.013523,0.002678,0.000431,0.353642
48932000,0.0324,0.013523,0.002678,0.000431,0.143032
48933000,0.0324,0.013523,0.002678,0.000431,0.148673
48934000,0.0324,0.013523,0.002678,0.000431,0.223656
48935000,0.0324,0.013523,0.002678,0.000431,0.490915
48936000,0.0324,0.013523,0.002678,0.000431,0.168065
48937000,0.0324,0.013523,0.002678,0.000431,0.165127
48938000,0.0324,0.013523,0.002678,0.000431,0.146088
48939000,0.0324,0.013523,0.002678,0.000431,0.117411
48940000,0.0324,0.013523,0.002678,0.000431,0.098959
48941000,0.0324,0.013523,0.002678,0.000431,0.073925
48942000,0.0324,0.013523,0.002678,0.000431,0.064053
48943000,0.0324,0.013523,0.002678,0.000431,0.051595
48944000,0.0324,0.013523,0.002678,0.000431,0.046776
48945000,0.0324,0.013523,0.002678,0.000431,0.042663
48946000,0.0324,0.013523,0.002678,0.000431,0.041135
48947000,0.0324,0.013523,0.002678,0.000431,0.034906
48948000,0.0324,0.013523,0.002678,0.000431,0.023858
48949000,0.0324,0.013523,0.002678,0.000431,0.019275
48950000,0.0324,0.013523,0.002678,0.000431,0.018569
48951000,0.0324,0.013523,0.002678,0.000431,0.020450
48952000,0.0324,0.013523,0.002678,0.000431,0.019392
48953000,0.0324,0.013523,0.002678,0.000431,0.014809
48954000,0.0324,0.013523,0.002678,0.000431,0.011753
48955000,0.0324,0.013523,0.002678,0.000431,0.010813
48956000,0.0324,0.013523,0.002678,0.000431,0.007287
48957000,0.0324,0.013523,0.002678,0.000431,0.008227
48958000,0.0324,0.013523,0.002678,0.000431,0.006111
48959000,0.0324,0.013523,0.002678,0.000431,0.008462
48960000,0.0324,0.013523,0.002678,0.000431,0.005171
48961000,0.0324,0.013523,0.002678,0.000431,0.005171
48962000,0.0324,0.013523,0.002678,0.000431,0.004231
48963000,0.0324,0.013523,0.002678,0.000431,0.004819
48964000,0.0324,0.013523,0.002678,0.000431,0.002233
48965000,0.0324,0.013523,0.002678,0.000431,0.001410
48966000,0.0324,0.013523,0.002678,0.000431,0.002233
48967000,0.0324,0.013523,0.002678,0.000431,0.001763
48968000,0.0324,0.013523,0.002678,0.000431,0.001880
48969000,0.0324,0.013523,0.002678,0.000431,0.001998
48970000,0.0324,0.013523,0.002678,0.000431,0.003173
48971000,0.0324,0.013523,0.002678,0.000431,0.002938
48972000,0.0324,0.013523,0.002678,0.000431,0.001175
48973000,0.0324,0.013523,0.002678,0.000431,0.001058
48974000,0.0324,0.013523,0.002678,0.000431,0.001058
48975000,0.0324,0.013523,0.002678,0.000431,0.001058
48976000,0.0324,0.013523,0.002678,0.000431,0.001293
48977000,0.0324,0.013523,0.002678,0.000431,0.131867
48978000,0.0324,0.013523,0.002678,0.000431,0.711163
48979000,0.0324,0.013523,0.002678,0.000431,0.505724
48980000,0.0324,0.013523,0.002678,0.000431,0.137390
48981000,0.0324,0.013523,0.002678,0.000431,0.206144
48982000,0.0324,0.013523,0.002678,0.000431,0.515244
48983000,0.0324,0.013523,0.002678,0.000431,0.258680
48984000,0.0324,0.013523,0.002678,0.000431,0.312978
48985000,0.0324,0.013523,0.002678,0.000431,0.147498
48986000,0.0324,0.013523,0.002678,0.000431,0.154667
48987000,0.0324,0.013523,0.002678,0.000431,0.209788
48988000,0.0324,0.013523,0.002678,0.000431,0.520180
48989000,0.0324,0.013523,0.002678,0.000431,0.214489
48990000,0.0324,0.013523,0.002678,0.000431,0.192041
48991000,0.0324,0.013523,0.002678,0.000431,0.156195
48992000,0.0324,0.013523,0.002678,0.000431,0.144207
48993000,0.0324,0.013523,0.002678,0.000431,0.125403
48994000,0.0324,0.013523,0.002678,0.000431,0.099781
48995000,0.0324,0.013523,0.002678,0.000431,0.074278
48996000,0.0324,0.013523,0.002678,0.000431,0.064523
48997000,0.0324,0.013523,0.002678,0.000431,0.044543
48998000,0.0324,0.013523,0.002678,0.000431,0.036199
48999000,0.0324,0.013523,0.002678,0.000431,0.038432
