Cycle,Area(mm^2),PeakDynamic(W),SubthresholdLeakage(W),GateLeakage(W),RunTimeDynamic(W)
38000000,0.0324,0.013523,0.002678,0.000431,0.023858
38001000,0.0324,0.013523,0.002678,0.000431,0.022330
38002000,0.0324,0.013523,0.002678,0.000431,0.018805
38003000,0.0324,0.013523,0.002678,0.000431,0.020567
38004000,0.0324,0.013523,0.002678,0.000431,0.010107
38005000,0.0324,0.013523,0.002678,0.000431,0.012105
38006000,0.0324,0.013523,0.002678,0.000431,0.009285
38007000,0.0324,0.013523,0.002678,0.000431,0.005876
38008000,0.0324,0.013523,0.002678,0.000431,0.005759
38009000,0.0324,0.013523,0.002678,0.000431,0.008697
38010000,0.0324,0.013523,0.002678,0.000431,0.007874
38011000,0.0324,0.013523,0.002678,0.000431,0.005876
38012000,0.0324,0.013523,0.002678,0.000431,0.003056
38013000,0.0324,0.013523,0.002678,0.000431,0.004936
38014000,0.0324,0.013523,0.002678,0.000431,0.001880
38015000,0.0324,0.013523,0.002678,0.000431,0.001528
38016000,0.0324,0.013523,0.002678,0.000431,0.001763
38017000,0.0324,0.013523,0.002678,0.000431,0.001645
38018000,0.0324,0.013523,0.002678,0.000431,0.001763
38019000,0.0324,0.013523,0.002678,0.000431,0.001880
38020000,0.0324,0.013523,0.002678,0.000431,0.001528
38021000,0.0324,0.013523,0.002678,0.000431,0.001880
38022000,0.0324,0.013523,0.002678,0.000431,0.001528
38023000,0.0324,0.013523,0.002678,0.000431,0.001763
38024000,0.0324,0.013523,0.002678,0.000431,0.001763
38025000,0.0324,0.013523,0.002678,0.000431,0.001763
38026000,0.0324,0.013523,0.002678,0.000431,0.001645
38027000,0.0324,0.013523,0.002678,0.000431,0.001645
38028000,0.0324,0.013523,0.002678,0.000431,0.001880
38029000,0.0324,0.013523,0.002678,0.000431,0.001645
38030000,0.0324,0.013523,0.002678,0.000431,0.001763
38031000,0.0324,0.013523,0.002678,0.000431,0.001645
38032000,0.0324,0.013523,0.002678,0.000431,0.001763
38033000,0.0324,0.013523,0.002678,0.000431,0.001880
38034000,0.0324,0.013523,0.002678,0.000431,0.001645
38035000,0.0324,0.013523,0.002678,0.000431,0.003643
38036000,0.0324,0.013523,0.002678,0.000431,0.000940
38037000,0.0324,0.013523,0.002678,0.000431,0.000823
38038000,0.0324,0.013523,0.002678,0.000431,0.002468
38039000,0.0324,0.013523,0.002678,0.000431,0.534048
38040000,0.0324,0.013523,0.002678,0.000431,0.701643
38041000,0.0324,0.013523,0.002678,0.000431,0.201443
38042000,0.0324,0.013523,0.002678,0.000431,0.154079
38043000,0.0324,0.013523,0.002678,0.000431,0.342947
38044000,0.0324,0.013523,0.002678,0.000431,0.491503
38045000,0.0324,0.013523,0.002678,0.000431,0.273018
38046000,0.0324,0.013523,0.002678,0.000431,0.338129
38047000,0.0324,0.013523,0.002678,0.000431,0.146793
38048000,0.0324,0.013523,0.002678,0.000431,0.165245
38049000,0.0324,0.013523,0.002678,0.000431,0.124697
38050000,0.0324,0.013523,0.002678,0.000431,0.509485
38051000,0.0324,0.013523,0.002678,0.000431,0.237524
38052000,0.0324,0.013523,0.002678,0.000431,0.162659
38053000,0.0324,0.013523,0.002678,0.000431,0.135863
38054000,0.0324,0.013523,0.002678,0.000431,0.114472
38055000,0.0324,0.013523,0.002678,0.000431,0.102250
38056000,0.0324,0.013523,0.002678,0.000431,0.084855
38057000,0.0324,0.013523,0.002678,0.000431,0.078039
38058000,0.0324,0.013523,0.002678,0.000431,0.071340
38059000,0.0324,0.013523,0.002678,0.000431,0.063465
38060000,0.0324,0.013523,0.002678,0.000431,0.047834
38061000,0.0324,0.013523,0.002678,0.000431,0.042310
38062000,0.0324,0.013523,0.002678,0.000431,0.039137
38063000,0.0324,0.013523,0.002678,0.000431,0.030205
38064000,0.0324,0.013523,0.002678,0.000431,0.027854
38065000,0.0324,0.013523,0.002678,0.000431,0.021625
38066000,0.0324,0.013523,0.002678,0.000431,0.022330
38067000,0.0324,0.013523,0.002678,0.000431,0.030322
38068000,0.0324,0.013523,0.002678,0.000431,0.022448
38069000,0.0324,0.013523,0.002678,0.000431,0.021508
38070000,0.0324,0.013523,0.002678,0.000431,0.020567
38071000,0.0324,0.013523,0.002678,0.000431,0.015396
38072000,0.0324,0.013523,0.002678,0.000431,0.010460
38073000,0.0324,0.013523,0.002678,0.000431,0.012576
38074000,0.0324,0.013523,0.002678,0.000431,0.011400
38075000,0.0324,0.013523,0.002678,0.000431,0.010930
38076000,0.0324,0.013523,0.002678,0.000431,0.006229
38077000,0.0324,0.013523,0.002678,0.000431,0.005641
38078000,0.0324,0.013523,0.002678,0.000431,0.006582
38079000,0.0324,0.013523,0.002678,0.000431,0.010225
38080000,0.0324,0.013523,0.002678,0.000431,0.002703
38081000,0.0324,0.013523,0.002678,0.000431,0.002586
38082000,0.0324,0.013523,0.002678,0.000431,0.002468
38083000,0.0324,0.013523,0.002678,0.000431,0.002468
38084000,0.0324,0.013523,0.002678,0.000431,0.002703
38085000,0.0324,0.013523,0.002678,0.000431,0.002586
38086000,0.0324,0.013523,0.002678,0.000431,0.004349
38087000,0.0324,0.013523,0.002678,0.000431,0.004819
38088000,0.0324,0.013523,0.002678,0.000431,0.475401
38089000,0.0324,0.013523,0.002678,0.000431,0.759350
38090000,0.0324,0.013523,0.002678,0.000431,0.195919
38091000,0.0324,0.013523,0.002678,0.000431,0.133982
38092000,0.0324,0.013523,0.002678,0.000431,0.227182
38093000,0.0324,0.013523,0.002678,0.000431,0.645465
38094000,0.0324,0.013523,0.002678,0.000431,0.240345
38095000,0.0324,0.013523,0.002678,0.000431,0.291117
38096000,0.0324,0.013523,0.002678,0.000431,0.142444
38097000,0.0324,0.013523,0.002678,0.000431,0.145030
38098000,0.0324,0.013523,0.002678,0.000431,0.118586
38099000,0.0324,0.013523,0.002678,0.000431,0.329431
38100000,0.0324,0.013523,0.002678,0.000431,0.332840
38101000,0.0324,0.013523,0.002678,0.000431,0.146088
38102000,0.0324,0.013523,0.002678,0.000431,0.127048
38103000,0.0324,0.013523,0.002678,0.000431,0.128576
38104000,0.0324,0.013523,0.002678,0.000431,0.104835
38105000,0.0324,0.013523,0.002678,0.000431,0.089204
38106000,0.0324,0.013523,0.002678,0.000431,0.093082
38107000,0.0324,0.013523,0.002678,0.000431,0.075218
38108000,0.0324,0.013523,0.002678,0.000431,0.069107
38109000,0.0324,0.013523,0.002678,0.000431,0.060880
38110000,0.0324,0.013523,0.002678,0.000431,0.050302
38111000,0.0324,0.013523,0.002678,0.000431,0.050890
38112000,0.0324,0.013523,0.002678,0.000431,0.044778
38113000,0.0324,0.013523,0.002678,0.000431,0.038667
38114000,0.0324,0.013523,0.002678,0.000431,0.033143
38115000,0.0324,0.013523,0.002678,0.000431,0.034671
38116000,0.0324,0.013523,0.002678,0.000431,0.026326
38117000,0.0324,0.013523,0.002678,0.000431,0.023506
38118000,0.0324,0.013523,0.002678,0.000431,0.022448
38119000,0.0324,0.013523,0.002678,0.000431,0.025974
38120000,0.0324,0.013523,0.002678,0.000431,0.019627
38121000,0.0324,0.013523,0.002678,0.000431,0.019745
38122000,0.0324,0.013523,0.002678,0.000431,0.020097
38123000,0.0324,0.013523,0.002678,0.000431,0.009520
38124000,0.0324,0.013523,0.002678,0.000431,0.010578
38125000,0.0324,0.013523,0.002678,0.000431,0.010578
38126000,0.0324,0.013523,0.002678,0.000431,0.011753
38127000,0.0324,0.013523,0.002678,0.000431,0.011988
38128000,0.0324,0.013523,0.002678,0.000431,0.008345
38129000,0.0324,0.013523,0.002678,0.000431,0.005759
38130000,0.0324,0.013523,0.002678,0.000431,0.004584
38131000,0.0324,0.013523,0.002678,0.000431,0.001998
38132000,0.0324,0.013523,0.002678,0.000431,0.001645
38133000,0.0324,0.013523,0.002678,0.000431,0.001880
38134000,0.0324,0.013523,0.002678,0.000431,0.001998
38135000,0.0324,0.013523,0.002678,0.000431,0.001763
38136000,0.0324,0.013523,0.002678,0.000431,0.002821
38137000,0.0324,0.013523,0.002678,0.000431,0.000940
38138000,0.0324,0.013523,0.002678,0.000431,0.000940
38139000,0.0324,0.013523,0.002678,0.000431,0.000705
38140000,0.0324,0.013523,0.002678,0.000431,0.000940
38141000,0.0324,0.013523,0.002678,0.000431,0.000940
38142000,0.0324,0.013523,0.002678,0.000431,0.000940
38143000,0.0324,0.013523,0.002678,0.000431,0.000705
38144000,0.0324,0.013523,0.002678,0.000431,0.000940
38145000,0.0324,0.013523,0.002678,0.000431,0.000940
38146000,0.0324,0.013523,0.002678,0.000431,0.154197
38147000,0.0324,0.013523,0.002678,0.000431,0.579767
38148000,0.0324,0.013523,0.002678,0.000431,0.537339
38149000,0.0324,0.013523,0.002678,0.000431,0.133982
38150000,0.0324,0.013523,0.002678,0.000431,0.132102
38151000,0.0324,0.013523,0.002678,0.000431,0.556143
38152000,0.0324,0.013523,0.002678,0.000431,0.238230
38153000,0.0324,0.013523,0.002678,0.000431,0.282185
38154000,0.0324,0.013523,0.002678,0.000431,0.268199
38155000,0.0324,0.013523,0.002678,0.000431,0.140329
38156000,0.0324,0.013523,0.002678,0.000431,0.159251
38157000,0.0324,0.013523,0.002678,0.000431,0.104365
38158000,0.0324,0.013523,0.002678,0.000431,0.473286
38159000,0.0324,0.013523,0.002678,0.000431,0.269727
38160000,0.0324,0.013523,0.002678,0.000431,0.173472
38161000,0.0324,0.013523,0.002678,0.000431,0.143972
38162000,0.0324,0.013523,0.002678,0.000431,0.117411
38163000,0.0324,0.013523,0.002678,0.000431,0.109889
38164000,0.0324,0.013523,0.002678,0.000431,0.085325
38165000,0.0324,0.013523,0.002678,0.000431,0.072515
38166000,0.0324,0.013523,0.002678,0.000431,0.073925
38167000,0.0324,0.013523,0.002678,0.000431,0.066403
38168000,0.0324,0.013523,0.002678,0.000431,0.048069
38169000,0.0324,0.013523,0.002678,0.000431,0.037139
38170000,0.0324,0.013523,0.002678,0.000431,0.032555
38171000,0.0324,0.013523,0.002678,0.000431,0.028089
38172000,0.0324,0.013523,0.002678,0.000431,0.021273
38173000,0.0324,0.013523,0.002678,0.000431,0.019157
38174000,0.0324,0.013523,0.002678,0.000431,0.026679
38175000,0.0324,0.013523,0.002678,0.000431,0.015279
38176000,0.0324,0.013523,0.002678,0.000431,0.022448
38177000,0.0324,0.013523,0.002678,0.000431,0.014456
38178000,0.0324,0.013523,0.002678,0.000431,0.009637
38179000,0.0324,0.013523,0.002678,0.000431,0.009990
38180000,0.0324,0.013523,0.002678,0.000431,0.012693
38181000,0.0324,0.013523,0.002678,0.000431,0.010930
38182000,0.0324,0.013523,0.002678,0.000431,0.006934
38183000,0.0324,0.013523,0.002678,0.000431,0.010695
38184000,0.0324,0.013523,0.002678,0.000431,0.005641
38185000,0.0324,0.013523,0.002678,0.000431,0.004584
38186000,0.0324,0.013523,0.002678,0.000431,0.007874
38187000,0.0324,0.013523,0.002678,0.000431,0.005994
38188000,0.0324,0.013523,0.002678,0.000431,0.002703
38189000,0.0324,0.013523,0.002678,0.000431,0.002351
38190000,0.0324,0.013523,0.002678,0.000431,0.002586
38191000,0.0324,0.013523,0.002678,0.000431,0.002468
38192000,0.0324,0.013523,0.002678,0.000431,0.002468
38193000,0.0324,0.013523,0.002678,0.000431,0.002703
38194000,0.0324,0.013523,0.002678,0.000431,0.002233
38195000,0.0324,0.013523,0.002678,0.000431,0.002703
38196000,0.0324,0.013523,0.002678,0.000431,0.002468
38197000,0.0324,0.013523,0.002678,0.000431,0.002586
38198000,0.0324,0.013523,0.002678,0.000431,0.002468
38199000,0.0324,0.013523,0.002678,0.000431,0.002351
38200000,0.0324,0.013523,0.002678,0.000431,0.002821
38201000,0.0324,0.013523,0.002678,0.000431,0.002351
38202000,0.0324,0.013523,0.002678,0.000431,0.002351
38203000,0.0324,0.013523,0.002678,0.000431,0.002586
38204000,0.0324,0.013523,0.002678,0.000431,0.002586
38205000,0.0324,0.013523,0.002678,0.000431,0.002468
38206000,0.0324,0.013523,0.002678,0.000431,0.003526
38207000,0.0324,0.013523,0.002678,0.000431,0.003056
38208000,0.0324,0.013523,0.002678,0.000431,0.001645
38209000,0.0324,0.013523,0.002678,0.000431,0.001528
38210000,0.0324,0.013523,0.002678,0.000431,0.001763
38211000,0.0324,0.013523,0.002678,0.000431,0.001645
38212000,0.0324,0.013523,0.002678,0.000431,0.001763
38213000,0.0324,0.013523,0.002678,0.000431,0.001528
38214000,0.0324,0.013523,0.002678,0.000431,0.001763
38215000,0.0324,0.013523,0.002678,0.000431,0.001763
38216000,0.0324,0.013523,0.002678,0.000431,0.001528
38217000,0.0324,0.013523,0.002678,0.000431,0.001645
38218000,0.0324,0.013523,0.002678,0.000431,0.001763
38219000,0.0324,0.013523,0.002678,0.000431,0.001763
38220000,0.0324,0.013523,0.002678,0.000431,0.001528
38221000,0.0324,0.013523,0.002678,0.000431,0.001763
38222000,0.0324,0.013523,0.002678,0.000431,0.001528
38223000,0.0324,0.013523,0.002678,0.000431,0.001763
38224000,0.0324,0.013523,0.002678,0.000431,0.001763
38225000,0.0324,0.013523,0.002678,0.000431,0.005876
38226000,0.0324,0.013523,0.002678,0.000431,0.462356
38227000,0.0324,0.013523,0.002678,0.000431,0.742543
38228000,0.0324,0.013523,0.002678,0.000431,0.222363
38229000,0.0324,0.013523,0.002678,0.000431,0.132572
38230000,0.0324,0.013523,0.002678,0.000431,0.157840
38231000,0.0324,0.013523,0.002678,0.000431,0.627836
38232000,0.0324,0.013523,0.002678,0.000431,0.260678
38233000,0.0324,0.013523,0.002678,0.000431,0.253038
38234000,0.0324,0.013523,0.002678,0.000431,0.217662
38235000,0.0324,0.013523,0.002678,0.000431,0.144677
38236000,0.0324,0.013523,0.002678,0.000431,0.164069
38237000,0.0324,0.013523,0.002678,0.000431,0.154902
38238000,0.0324,0.013523,0.002678,0.000431,0.508662
38239000,0.0324,0.013523,0.002678,0.000431,0.230003
38240000,0.0324,0.013523,0.002678,0.000431,0.179701
38241000,0.0324,0.013523,0.002678,0.000431,0.157605
38242000,0.0324,0.013523,0.002678,0.000431,0.132572
38243000,0.0324,0.013523,0.002678,0.000431,0.112474
38244000,0.0324,0.013523,0.002678,0.000431,0.110241
38245000,0.0324,0.013523,0.002678,0.000431,0.089556
38246000,0.0324,0.013523,0.002678,0.000431,0.075218
38247000,0.0324,0.013523,0.002678,0.000431,0.063583
38248000,0.0324,0.013523,0.002678,0.000431,0.055708
38249000,0.0324,0.013523,0.002678,0.000431,0.044308
38250000,0.0324,0.013523,0.002678,0.000431,0.053358
38251000,0.0324,0.013523,0.002678,0.000431,0.039372
38252000,0.0324,0.013523,0.002678,0.000431,0.030205
38253000,0.0324,0.013523,0.002678,0.000431,0.031380
38254000,0.0324,0.013523,0.002678,0.000431,0.039372
38255000,0.0324,0.013523,0.002678,0.000431,0.022565
38256000,0.0324,0.013523,0.002678,0.000431,0.018922
38257000,0.0324,0.013523,0.002678,0.000431,0.024211
38258000,0.0324,0.013523,0.002678,0.000431,0.012928
38259000,0.0324,0.013523,0.002678,0.000431,0.012576
38260000,0.0324,0.013523,0.002678,0.000431,0.013751
38261000,0.0324,0.013523,0.002678,0.000431,0.009872
38262000,0.0324,0.013523,0.002678,0.000431,0.017394
38263000,0.0324,0.013523,0.002678,0.000431,0.015161
38264000,0.0324,0.013523,0.002678,0.000431,0.007522
38265000,0.0324,0.013523,0.002678,0.000431,0.006934
38266000,0.0324,0.013523,0.002678,0.000431,0.003408
38267000,0.0324,0.013523,0.002678,0.000431,0.003291
38268000,0.0324,0.013523,0.002678,0.000431,0.003526
38269000,0.0324,0.013523,0.002678,0.000431,0.005994
38270000,0.0324,0.013523,0.002678,0.000431,0.002586
38271000,0.0324,0.013523,0.002678,0.000431,0.005406
38272000,0.0324,0.013523,0.002678,0.000431,0.000823
38273000,0.0324,0.013523,0.002678,0.000431,0.000823
38274000,0.0324,0.013523,0.002678,0.000431,0.000940
38275000,0.0324,0.013523,0.002678,0.000431,0.000823
38276000,0.0324,0.013523,0.002678,0.000431,0.000940
38277000,0.0324,0.013523,0.002678,0.000431,0.014338
38278000,0.0324,0.013523,0.002678,0.000431,0.705522
38279000,0.0324,0.013523,0.002678,0.000431,0.605975
38280000,0.0324,0.013523,0.002678,0.000431,0.156077
38281000,0.0324,0.013523,0.002678,0.000431,0.137155
38282000,0.0324,0.013523,0.002678,0.000431,0.528524
38283000,0.0324,0.013523,0.002678,0.000431,0.271373
38284000,0.0324,0.013523,0.002678,0.000431,0.271138
38285000,0.0324,0.013523,0.002678,0.000431,0.326493
38286000,0.0324,0.013523,0.002678,0.000431,0.139859
38287000,0.0324,0.013523,0.002678,0.000431,0.152904
38288000,0.0324,0.013523,0.002678,0.000431,0.103307
38289000,0.0324,0.013523,0.002678,0.000431,0.470113
38290000,0.0324,0.013523,0.002678,0.000431,0.289002
38291000,0.0324,0.013523,0.002678,0.000431,0.172884
38292000,0.0324,0.013523,0.002678,0.000431,0.133630
38293000,0.0324,0.013523,0.002678,0.000431,0.110712
38294000,0.0324,0.013523,0.002678,0.000431,0.103660
38295000,0.0324,0.013523,0.002678,0.000431,0.080624
38296000,0.0324,0.013523,0.002678,0.000431,0.083445
38297000,0.0324,0.013523,0.002678,0.000431,0.057354
38298000,0.0324,0.013523,0.002678,0.000431,0.051125
38299000,0.0324,0.013523,0.002678,0.000431,0.048422
38300000,0.0324,0.013523,0.002678,0.000431,0.045601
38301000,0.0324,0.013523,0.002678,0.000431,0.037727
38302000,0.0324,0.013523,0.002678,0.000431,0.037139
38303000,0.0324,0.013523,0.002678,0.000431,0.028559
38304000,0.0324,0.013523,0.002678,0.000431,0.027619
38305000,0.0324,0.013523,0.002678,0.000431,0.031380
38306000,0.0324,0.013523,0.002678,0.000431,0.012928
38307000,0.0324,0.013523,0.002678,0.000431,0.014221
38308000,0.0324,0.013523,0.002678,0.000431,0.019745
38309000,0.0324,0.013523,0.002678,0.000431,0.009637
38310000,0.0324,0.013523,0.002678,0.000431,0.005524
38311000,0.0324,0.013523,0.002678,0.000431,0.007052
38312000,0.0324,0.013523,0.002678,0.000431,0.004113
38313000,0.0324,0.013523,0.002678,0.000431,0.003408
38314000,0.0324,0.013523,0.002678,0.000431,0.003643
38315000,0.0324,0.013523,0.002678,0.000431,0.007287
38316000,0.0324,0.013523,0.002678,0.000431,0.008462
38317000,0.0324,0.013523,0.002678,0.000431,0.487389
38318000,0.0324,0.013523,0.002678,0.000431,0.781797
38319000,0.0324,0.013523,0.002678,0.000431,0.168418
38320000,0.0324,0.013523,0.002678,0.000431,0.133630
38321000,0.0324,0.013523,0.002678,0.000431,0.248572
38322000,0.0324,0.013523,0.002678,0.000431,0.605858
38323000,0.0324,0.013523,0.002678,0.000431,0.285241
38324000,0.0324,0.013523,0.002678,0.000431,0.313683
38325000,0.0324,0.013523,0.002678,0.000431,0.143972
38326000,0.0324,0.013523,0.002678,0.000431,0.157135
38327000,0.0324,0.013523,0.002678,0.000431,0.106833
38328000,0.0324,0.013523,0.002678,0.000431,0.443669
38329000,0.0324,0.013523,0.002678,0.000431,0.248102
38330000,0.0324,0.013523,0.002678,0.000431,0.148086
38331000,0.0324,0.013523,0.002678,0.000431,0.122817
38332000,0.0324,0.013523,0.002678,0.000431,0.107773
38333000,0.0324,0.013523,0.002678,0.000431,0.100487
38334000,0.0324,0.013523,0.002678,0.000431,0.091672
38335000,0.0324,0.013523,0.002678,0.000431,0.068049
38336000,0.0324,0.013523,0.002678,0.000431,0.063583
38337000,0.0324,0.013523,0.002678,0.000431,0.063818
38338000,0.0324,0.013523,0.002678,0.000431,0.053710
38339000,0.0324,0.013523,0.002678,0.000431,0.043015
38340000,0.0324,0.013523,0.002678,0.000431,0.040195
38341000,0.0324,0.013523,0.002678,0.000431,0.034553
38342000,0.0324,0.013523,0.002678,0.000431,0.034318
38343000,0.0324,0.013523,0.002678,0.000431,0.023153
38344000,0.0324,0.013523,0.002678,0.000431,0.018569
38345000,0.0324,0.013523,0.002678,0.000431,0.020450
38346000,0.0324,0.013523,0.002678,0.000431,0.020097
38347000,0.0324,0.013523,0.002678,0.000431,0.016336
38348000,0.0324,0.013523,0.002678,0.000431,0.015514
38349000,0.0324,0.013523,0.002678,0.000431,0.017864
38350000,0.0324,0.013523,0.002678,0.000431,0.008932
38351000,0.0324,0.013523,0.002678,0.000431,0.009872
38352000,0.0324,0.013523,0.002678,0.000431,0.008580
38353000,0.0324,0.013523,0.002678,0.000431,0.009872
38354000,0.0324,0.013523,0.002678,0.000431,0.005994
38355000,0.0324,0.013523,0.002678,0.000431,0.006347
38356000,0.0324,0.013523,0.002678,0.000431,0.005876
38357000,0.0324,0.013523,0.002678,0.000431,0.006464
38358000,0.0324,0.013523,0.002678,0.000431,0.008345
38359000,0.0324,0.013523,0.002678,0.000431,0.005641
38360000,0.0324,0.013523,0.002678,0.000431,0.004584
38361000,0.0324,0.013523,0.002678,0.000431,0.004113
38362000,0.0324,0.013523,0.002678,0.000431,0.004584
38363000,0.0324,0.013523,0.002678,0.000431,0.004349
38364000,0.0324,0.013523,0.002678,0.000431,0.005876
38365000,0.0324,0.013523,0.002678,0.000431,0.005171
38366000,0.0324,0.013523,0.002678,0.000431,0.003526
38367000,0.0324,0.013523,0.002678,0.000431,0.003291
38368000,0.0324,0.013523,0.002678,0.000431,0.003878
38369000,0.0324,0.013523,0.002678,0.000431,0.003173
38370000,0.0324,0.013523,0.002678,0.000431,0.003878
38371000,0.0324,0.013523,0.002678,0.000431,0.003526
38372000,0.0324,0.013523,0.002678,0.000431,0.003173
38373000,0.0324,0.013523,0.002678,0.000431,0.003878
38374000,0.0324,0.013523,0.002678,0.000431,0.003291
38375000,0.0324,0.013523,0.002678,0.000431,0.003878
38376000,0.0324,0.013523,0.002678,0.000431,0.003173
38377000,0.0324,0.013523,0.002678,0.000431,0.003643
38378000,0.0324,0.013523,0.002678,0.000431,0.003761
38379000,0.0324,0.013523,0.002678,0.000431,0.003761
38380000,0.0324,0.013523,0.002678,0.000431,0.003526
38381000,0.0324,0.013523,0.002678,0.000431,0.004936
38382000,0.0324,0.013523,0.002678,0.000431,0.001763
38383000,0.0324,0.013523,0.002678,0.000431,0.002233
38384000,0.0324,0.013523,0.002678,0.000431,0.003761
38385000,0.0324,0.013523,0.002678,0.000431,0.001058
38386000,0.0324,0.013523,0.002678,0.000431,0.000705
38387000,0.0324,0.013523,0.002678,0.000431,0.000823
38388000,0.0324,0.013523,0.002678,0.000431,0.000940
38389000,0.0324,0.013523,0.002678,0.000431,0.000823
38390000,0.0324,0.013523,0.002678,0.000431,0.000823
38391000,0.0324,0.013523,0.002678,0.000431,0.000823
38392000,0.0324,0.013523,0.002678,0.000431,0.000823
38393000,0.0324,0.013523,0.002678,0.000431,0.000823
38394000,0.0324,0.013523,0.002678,0.000431,0.000940
38395000,0.0324,0.013523,0.002678,0.000431,0.000705
38396000,0.0324,0.013523,0.002678,0.000431,0.000940
38397000,0.0324,0.013523,0.002678,0.000431,0.000705
38398000,0.0324,0.013523,0.002678,0.000431,0.000940
38399000,0.0324,0.013523,0.002678,0.000431,0.000823
38400000,0.0324,0.013523,0.002678,0.000431,0.000823
38401000,0.0324,0.013523,0.002678,0.000431,0.000823
38402000,0.0324,0.013523,0.002678,0.000431,0.000823
38403000,0.0324,0.013523,0.002678,0.000431,0.000823
38404000,0.0324,0.013523,0.002678,0.000431,0.000823
38405000,0.0324,0.013523,0.002678,0.000431,0.000940
38406000,0.0324,0.013523,0.002678,0.000431,0.000823
38407000,0.0324,0.013523,0.002678,0.000431,0.000823
38408000,0.0324,0.013523,0.002678,0.000431,0.000823
38409000,0.0324,0.013523,0.002678,0.000431,0.000823
38410000,0.0324,0.013523,0.002678,0.000431,0.000823
38411000,0.0324,0.013523,0.002678,0.000431,0.000823
38412000,0.0324,0.013523,0.002678,0.000431,0.000823
38413000,0.0324,0.013523,0.002678,0.000431,0.000823
38414000,0.0324,0.013523,0.002678,0.000431,0.000940
38415000,0.0324,0.013523,0.002678,0.000431,0.192041
38416000,0.0324,0.013523,0.002678,0.000431,0.599864
38417000,0.0324,0.013523,0.002678,0.000431,0.530757
38418000,0.0324,0.013523,0.002678,0.000431,0.141739
38419000,0.0324,0.013523,0.002678,0.000431,0.140799
38420000,0.0324,0.013523,0.002678,0.000431,0.590932
38421000,0.0324,0.013523,0.002678,0.000431,0.244341
38422000,0.0324,0.013523,0.002678,0.000431,0.266554
38423000,0.0324,0.013523,0.002678,0.000431,0.272665
38424000,0.0324,0.013523,0.002678,0.000431,0.136568
38425000,0.0324,0.013523,0.002678,0.000431,0.166302
38426000,0.0324,0.013523,0.002678,0.000431,0.104835
38427000,0.0324,0.013523,0.002678,0.000431,0.480220
38428000,0.0324,0.013523,0.002678,0.000431,0.269727
38429000,0.0324,0.013523,0.002678,0.000431,0.175705
38430000,0.0324,0.013523,0.002678,0.000431,0.155607
38431000,0.0324,0.013523,0.002678,0.000431,0.140564
38432000,0.0324,0.013523,0.002678,0.000431,0.111887
38433000,0.0324,0.013523,0.002678,0.000431,0.087676
38434000,0.0324,0.013523,0.002678,0.000431,0.100722
38435000,0.0324,0.013523,0.002678,0.000431,0.072397
38436000,0.0324,0.013523,0.002678,0.000431,0.078979
38437000,0.0324,0.013523,0.002678,0.000431,0.052535
38438000,0.0324,0.013523,0.002678,0.000431,0.054533
38439000,0.0324,0.013523,0.002678,0.000431,0.043956
38440000,0.0324,0.013523,0.002678,0.000431,0.049479
38441000,0.0324,0.013523,0.002678,0.000431,0.044426
38442000,0.0324,0.013523,0.002678,0.000431,0.042193
38443000,0.0324,0.013523,0.002678,0.000431,0.032673
38444000,0.0324,0.013523,0.002678,0.000431,0.035729
38445000,0.0324,0.013523,0.002678,0.000431,0.032203
38446000,0.0324,0.013523,0.002678,0.000431,0.016807
38447000,0.0324,0.013523,0.002678,0.000431,0.018452
38448000,0.0324,0.013523,0.002678,0.000431,0.024093
38449000,0.0324,0.013523,0.002678,0.000431,0.013281
38450000,0.0324,0.013523,0.002678,0.000431,0.012458
38451000,0.0324,0.013523,0.002678,0.000431,0.010930
38452000,0.0324,0.013523,0.002678,0.000431,0.011048
38453000,0.0324,0.013523,0.002678,0.000431,0.009637
38454000,0.0324,0.013523,0.002678,0.000431,0.016101
38455000,0.0324,0.013523,0.002678,0.000431,0.009872
38456000,0.0324,0.013523,0.002678,0.000431,0.005759
38457000,0.0324,0.013523,0.002678,0.000431,0.007757
38458000,0.0324,0.013523,0.002678,0.000431,0.004819
38459000,0.0324,0.013523,0.002678,0.000431,0.006464
38460000,0.0324,0.013523,0.002678,0.000431,0.005994
38461000,0.0324,0.013523,0.002678,0.000431,0.003996
38462000,0.0324,0.013523,0.002678,0.000431,0.004466
38463000,0.0324,0.013523,0.002678,0.000431,0.003996
38464000,0.0324,0.013523,0.002678,0.000431,0.004231
38465000,0.0324,0.013523,0.002678,0.000431,0.005876
38466000,0.0324,0.013523,0.002678,0.000431,0.003173
38467000,0.0324,0.013523,0.002678,0.000431,0.003291
38468000,0.0324,0.013523,0.002678,0.000431,0.003291
38469000,0.0324,0.013523,0.002678,0.000431,0.003291
38470000,0.0324,0.013523,0.002678,0.000431,0.003291
38471000,0.0324,0.013523,0.002678,0.000431,0.003291
38472000,0.0324,0.013523,0.002678,0.000431,0.003056
38473000,0.0324,0.013523,0.002678,0.000431,0.003761
38474000,0.0324,0.013523,0.002678,0.000431,0.004701
38475000,0.0324,0.013523,0.002678,0.000431,0.001645
38476000,0.0324,0.013523,0.002678,0.000431,0.001528
38477000,0.0324,0.013523,0.002678,0.000431,0.001763
38478000,0.0324,0.013523,0.002678,0.000431,0.003761
38479000,0.0324,0.013523,0.002678,0.000431,0.001058
38480000,0.0324,0.013523,0.002678,0.000431,0.000823
38481000,0.0324,0.013523,0.002678,0.000431,0.000823
38482000,0.0324,0.013523,0.002678,0.000431,0.000940
38483000,0.0324,0.013523,0.002678,0.000431,0.000823
38484000,0.0324,0.013523,0.002678,0.000431,0.000940
38485000,0.0324,0.013523,0.002678,0.000431,0.000823
38486000,0.0324,0.013523,0.002678,0.000431,0.000940
38487000,0.0324,0.013523,0.002678,0.000431,0.000823
38488000,0.0324,0.013523,0.002678,0.000431,0.000823
38489000,0.0324,0.013523,0.002678,0.000431,0.000823
38490000,0.0324,0.013523,0.002678,0.000431,0.000823
38491000,0.0324,0.013523,0.002678,0.000431,0.000940
38492000,0.0324,0.013523,0.002678,0.000431,0.000705
38493000,0.0324,0.013523,0.002678,0.000431,0.000823
38494000,0.0324,0.013523,0.002678,0.000431,0.000940
38495000,0.0324,0.013523,0.002678,0.000431,0.000823
38496000,0.0324,0.013523,0.002678,0.000431,0.000823
38497000,0.0324,0.013523,0.002678,0.000431,0.000823
38498000,0.0324,0.013523,0.002678,0.000431,0.204382
38499000,0.0324,0.013523,0.002678,0.000431,0.633712
38500000,0.0324,0.013523,0.002678,0.000431,0.540982
38501000,0.0324,0.013523,0.002678,0.000431,0.140211
38502000,0.0324,0.013523,0.002678,0.000431,0.149966
38503000,0.0324,0.013523,0.002678,0.000431,0.624545
38504000,0.0324,0.013523,0.002678,0.000431,0.278307
38505000,0.0324,0.013523,0.002678,0.000431,0.291000
38506000,0.0324,0.013523,0.002678,0.000431,0.231648
38507000,0.0324,0.013523,0.002678,0.000431,0.147263
38508000,0.0324,0.013523,0.002678,0.000431,0.136450
38509000,0.0324,0.013523,0.002678,0.000431,0.242578
38510000,0.0324,0.013523,0.002678,0.000431,0.442611
38511000,0.0324,0.013523,0.002678,0.000431,0.163129
38512000,0.0324,0.013523,0.002678,0.000431,0.145030
38513000,0.0324,0.013523,0.002678,0.000431,0.118703
38514000,0.0324,0.013523,0.002678,0.000431,0.113297
38515000,0.0324,0.013523,0.002678,0.000431,0.100016
38516000,0.0324,0.013523,0.002678,0.000431,0.087441
38517000,0.0324,0.013523,0.002678,0.000431,0.081094
38518000,0.0324,0.013523,0.002678,0.000431,0.071575
38519000,0.0324,0.013523,0.002678,0.000431,0.065463
38520000,0.0324,0.013523,0.002678,0.000431,0.066051
38521000,0.0324,0.013523,0.002678,0.000431,0.051947
38522000,0.0324,0.013523,0.002678,0.000431,0.046071
38523000,0.0324,0.013523,0.002678,0.000431,0.040665
38524000,0.0324,0.013523,0.002678,0.000431,0.040195
38525000,0.0324,0.013523,0.002678,0.000431,0.032203
38526000,0.0324,0.013523,0.002678,0.000431,0.030557
38527000,0.0324,0.013523,0.002678,0.000431,0.023858
38528000,0.0324,0.013523,0.002678,0.000431,0.028324
38529000,0.0324,0.013523,0.002678,0.000431,0.023036
38530000,0.0324,0.013523,0.002678,0.000431,0.019627
38531000,0.0324,0.013523,0.002678,0.000431,0.020802
38532000,0.0324,0.013523,0.002678,0.000431,0.016571
38533000,0.0324,0.013523,0.002678,0.000431,0.015044
38534000,0.0324,0.013523,0.002678,0.000431,0.012576
38535000,0.0324,0.013523,0.002678,0.000431,0.013751
38536000,0.0324,0.013523,0.002678,0.000431,0.013046
38537000,0.0324,0.013523,0.002678,0.000431,0.006699
38538000,0.0324,0.013523,0.002678,0.000431,0.006817
38539000,0.0324,0.013523,0.002678,0.000431,0.008815
38540000,0.0324,0.013523,0.002678,0.000431,0.009050
38541000,0.0324,0.013523,0.002678,0.000431,0.004936
38542000,0.0324,0.013523,0.002678,0.000431,0.004701
38543000,0.0324,0.013523,0.002678,0.000431,0.004936
38544000,0.0324,0.013523,0.002678,0.000431,0.006582
38545000,0.0324,0.013523,0.002678,0.000431,0.004701
38546000,0.0324,0.013523,0.002678,0.000431,0.003526
38547000,0.0324,0.013523,0.002678,0.000431,0.004466
38548000,0.0324,0.013523,0.002678,0.000431,0.003761
38549000,0.0324,0.013523,0.002678,0.000431,0.004466
38550000,0.0324,0.013523,0.002678,0.000431,0.009167
38551000,0.0324,0.013523,0.002678,0.000431,0.002116
38552000,0.0324,0.013523,0.002678,0.000431,0.005289
38553000,0.0324,0.013523,0.002678,0.000431,0.000940
38554000,0.0324,0.013523,0.002678,0.000431,0.000823
38555000,0.0324,0.013523,0.002678,0.000431,0.000705
38556000,0.0324,0.013523,0.002678,0.000431,0.000940
38557000,0.0324,0.013523,0.002678,0.000431,0.000940
38558000,0.0324,0.013523,0.002678,0.000431,0.000705
38559000,0.0324,0.013523,0.002678,0.000431,0.000940
38560000,0.0324,0.013523,0.002678,0.000431,0.000940
38561000,0.0324,0.013523,0.002678,0.000431,0.000823
38562000,0.0324,0.013523,0.002678,0.000431,0.072515
38563000,0.0324,0.013523,0.002678,0.000431,0.660391
38564000,0.0324,0.013523,0.002678,0.000431,0.587876
38565000,0.0324,0.013523,0.002678,0.000431,0.133042
38566000,0.0324,0.013523,0.002678,0.000431,0.135745
38567000,0.0324,0.013523,0.002678,0.000431,0.593752
38568000,0.0324,0.013523,0.002678,0.000431,0.248807
38569000,0.0324,0.013523,0.002678,0.000431,0.290530
38570000,0.0324,0.013523,0.002678,0.000431,0.292645
38571000,0.0324,0.013523,0.002678,0.000431,0.137861
38572000,0.0324,0.013523,0.002678,0.000431,0.175470
38573000,0.0324,0.013523,0.002678,0.000431,0.100487
38574000,0.0324,0.013523,0.002678,0.000431,0.506899
38575000,0.0324,0.013523,0.002678,0.000431,0.225537
38576000,0.0324,0.013523,0.002678,0.000431,0.162306
38577000,0.0324,0.013523,0.002678,0.000431,0.140094
38578000,0.0324,0.013523,0.002678,0.000431,0.134335
38579000,0.0324,0.013523,0.002678,0.000431,0.112710
38580000,0.0324,0.013523,0.002678,0.000431,0.097078
38581000,0.0324,0.013523,0.002678,0.000431,0.072632
38582000,0.0324,0.013523,0.002678,0.000431,0.066638
38583000,0.0324,0.013523,0.002678,0.000431,0.067344
38584000,0.0324,0.013523,0.002678,0.000431,0.055591
38585000,0.0324,0.013523,0.002678,0.000431,0.034788
38586000,0.0324,0.013523,0.002678,0.000431,0.036904
38587000,0.0324,0.013523,0.002678,0.000431,0.036904
38588000,0.0324,0.013523,0.002678,0.000431,0.027031
38589000,0.0324,0.013523,0.002678,0.000431,0.023036
38590000,0.0324,0.013523,0.002678,0.000431,0.022565
38591000,0.0324,0.013523,0.002678,0.000431,0.017277
38592000,0.0324,0.013523,0.002678,0.000431,0.014573
38593000,0.0324,0.013523,0.002678,0.000431,0.012458
38594000,0.0324,0.013523,0.002678,0.000431,0.009285
38595000,0.0324,0.013523,0.002678,0.000431,0.007874
38596000,0.0324,0.013523,0.002678,0.000431,0.011635
38597000,0.0324,0.013523,0.002678,0.000431,0.006817
38598000,0.0324,0.013523,0.002678,0.000431,0.006464
38599000,0.0324,0.013523,0.002678,0.000431,0.010460
38600000,0.0324,0.013523,0.002678,0.000431,0.008697
38601000,0.0324,0.013523,0.002678,0.000431,0.006111
38602000,0.0324,0.013523,0.002678,0.000431,0.006817
38603000,0.0324,0.013523,0.002678,0.000431,0.010813
38604000,0.0324,0.013523,0.002678,0.000431,0.003643
38605000,0.0324,0.013523,0.002678,0.000431,0.002938
38606000,0.0324,0.013523,0.002678,0.000431,0.000940
38607000,0.0324,0.013523,0.002678,0.000431,0.001998
38608000,0.0324,0.013523,0.002678,0.000431,0.457890
38609000,0.0324,0.013523,0.002678,0.000431,0.695062
38610000,0.0324,0.013523,0.002678,0.000431,0.268199
38611000,0.0324,0.013523,0.002678,0.000431,0.146088
38612000,0.0324,0.013523,0.002678,0.000431,0.202501
38613000,0.0324,0.013523,0.002678,0.000431,0.583645
38614000,0.0324,0.013523,0.002678,0.000431,0.251158
38615000,0.0324,0.013523,0.002678,0.000431,0.332252
38616000,0.0324,0.013523,0.002678,0.000431,0.172884
38617000,0.0324,0.013523,0.002678,0.000431,0.156665
38618000,0.0324,0.013523,0.002678,0.000431,0.119174
38619000,0.0324,0.013523,0.002678,0.000431,0.353642
38620000,0.0324,0.013523,0.002678,0.000431,0.355640
38621000,0.0324,0.013523,0.002678,0.000431,0.152904
38622000,0.0324,0.013523,0.002678,0.000431,0.146205
38623000,0.0324,0.013523,0.002678,0.000431,0.107068
38624000,0.0324,0.013523,0.002678,0.000431,0.110241
38625000,0.0324,0.013523,0.002678,0.000431,0.082505
38626000,0.0324,0.013523,0.002678,0.000431,0.067696
38627000,0.0324,0.013523,0.002678,0.000431,0.067696
38628000,0.0324,0.013523,0.002678,0.000431,0.056649
38629000,0.0324,0.013523,0.002678,0.000431,0.046776
38630000,0.0324,0.013523,0.002678,0.000431,0.041370
38631000,0.0324,0.013523,0.002678,0.000431,0.035964
38632000,0.0324,0.013523,0.002678,0.000431,0.030557
38633000,0.0324,0.013523,0.002678,0.000431,0.030792
38634000,0.0324,0.013523,0.002678,0.000431,0.016807
38635000,0.0324,0.013523,0.002678,0.000431,0.019627
38636000,0.0324,0.013523,0.002678,0.000431,0.020685
38637000,0.0324,0.013523,0.002678,0.000431,0.015514
38638000,0.0324,0.013523,0.002678,0.000431,0.017042
38639000,0.0324,0.013523,0.002678,0.000431,0.013751
38640000,0.0324,0.013523,0.002678,0.000431,0.007992
38641000,0.0324,0.013523,0.002678,0.000431,0.007874
38642000,0.0324,0.013523,0.002678,0.000431,0.008815
38643000,0.0324,0.013523,0.002678,0.000431,0.007757
38644000,0.0324,0.013523,0.002678,0.000431,0.007052
38645000,0.0324,0.013523,0.002678,0.000431,0.007522
38646000,0.0324,0.013523,0.002678,0.000431,0.010460
38647000,0.0324,0.013523,0.002678,0.000431,0.007639
38648000,0.0324,0.013523,0.002678,0.000431,0.011870
38649000,0.0324,0.013523,0.002678,0.000431,0.003291
38650000,0.0324,0.013523,0.002678,0.000431,0.003526
38651000,0.0324,0.013523,0.002678,0.000431,0.006229
38652000,0.0324,0.013523,0.002678,0.000431,0.002586
38653000,0.0324,0.013523,0.002678,0.000431,0.002351
38654000,0.0324,0.013523,0.002678,0.000431,0.002703
38655000,0.0324,0.013523,0.002678,0.000431,0.002703
38656000,0.0324,0.013523,0.002678,0.000431,0.002468
38657000,0.0324,0.013523,0.002678,0.000431,0.002468
38658000,0.0324,0.013523,0.002678,0.000431,0.002586
38659000,0.0324,0.013523,0.002678,0.000431,0.002586
38660000,0.0324,0.013523,0.002678,0.000431,0.002586
38661000,0.0324,0.013523,0.002678,0.000431,0.002586
38662000,0.0324,0.013523,0.002678,0.000431,0.002703
38663000,0.0324,0.013523,0.002678,0.000431,0.002351
38664000,0.0324,0.013523,0.002678,0.000431,0.002703
38665000,0.0324,0.013523,0.002678,0.000431,0.002586
38666000,0.0324,0.013523,0.002678,0.000431,0.002703
38667000,0.0324,0.013523,0.002678,0.000431,0.002586
38668000,0.0324,0.013523,0.002678,0.000431,0.002703
38669000,0.0324,0.013523,0.002678,0.000431,0.002821
38670000,0.0324,0.013523,0.002678,0.000431,0.002586
38671000,0.0324,0.013523,0.002678,0.000431,0.002586
38672000,0.0324,0.013523,0.002678,0.000431,0.002703
38673000,0.0324,0.013523,0.002678,0.000431,0.002586
38674000,0.0324,0.013523,0.002678,0.000431,0.002703
38675000,0.0324,0.013523,0.002678,0.000431,0.002468
38676000,0.0324,0.013523,0.002678,0.000431,0.002703
38677000,0.0324,0.013523,0.002678,0.000431,0.002586
38678000,0.0324,0.013523,0.002678,0.000431,0.002703
38679000,0.0324,0.013523,0.002678,0.000431,0.002703
38680000,0.0324,0.013523,0.002678,0.000431,0.002586
38681000,0.0324,0.013523,0.002678,0.000431,0.002703
38682000,0.0324,0.013523,0.002678,0.000431,0.002468
38683000,0.0324,0.013523,0.002678,0.000431,0.002703
38684000,0.0324,0.013523,0.002678,0.000431,0.002703
38685000,0.0324,0.013523,0.002678,0.000431,0.002703
38686000,0.0324,0.013523,0.002678,0.000431,0.004701
38687000,0.0324,0.013523,0.002678,0.000431,0.001763
38688000,0.0324,0.013523,0.002678,0.000431,0.076511
38689000,0.0324,0.013523,0.002678,0.000431,0.656512
38690000,0.0324,0.013523,0.002678,0.000431,0.604565
38691000,0.0324,0.013523,0.002678,0.000431,0.135157
38692000,0.0324,0.013523,0.002678,0.000431,0.137743
38693000,0.0324,0.013523,0.002678,0.000431,0.611029
38694000,0.0324,0.013523,0.002678,0.000431,0.271490
38695000,0.0324,0.013523,0.002678,0.000431,0.270080
38696000,0.0324,0.013523,0.002678,0.000431,0.271843
38697000,0.0324,0.013523,0.002678,0.000431,0.139153
38698000,0.0324,0.013523,0.002678,0.000431,0.175352
38699000,0.0324,0.013523,0.002678,0.000431,0.096843
38700000,0.0324,0.013523,0.002678,0.000431,0.507957
38701000,0.0324,0.013523,0.002678,0.000431,0.221776
38702000,0.0324,0.013523,0.002678,0.000431,0.153727
38703000,0.0324,0.013523,0.002678,0.000431,0.134452
38704000,0.0324,0.013523,0.002678,0.000431,0.127636
38705000,0.0324,0.013523,0.002678,0.000431,0.100722
38706000,0.0324,0.013523,0.002678,0.000431,0.090497
38707000,0.0324,0.013523,0.002678,0.000431,0.081800
38708000,0.0324,0.013523,0.002678,0.000431,0.074278
38709000,0.0324,0.013523,0.002678,0.000431,0.073220
38710000,0.0324,0.013523,0.002678,0.000431,0.065346
38711000,0.0324,0.013523,0.002678,0.000431,0.052888
38712000,0.0324,0.013523,0.002678,0.000431,0.039019
38713000,0.0324,0.013523,0.002678,0.000431,0.028794
38714000,0.0324,0.013523,0.002678,0.000431,0.027619
38715000,0.0324,0.013523,0.002678,0.000431,0.028677
38716000,0.0324,0.013523,0.002678,0.000431,0.018805
38717000,0.0324,0.013523,0.002678,0.000431,0.021390
38718000,0.0324,0.013523,0.002678,0.000431,0.018922
38719000,0.0324,0.013523,0.002678,0.000431,0.016689
38720000,0.0324,0.013523,0.002678,0.000431,0.010930
38721000,0.0324,0.013523,0.002678,0.000431,0.014338
38722000,0.0324,0.013523,0.002678,0.000431,0.011165
38723000,0.0324,0.013523,0.002678,0.000431,0.009402
38724000,0.0324,0.013523,0.002678,0.000431,0.013516
38725000,0.0324,0.013523,0.002678,0.000431,0.010225
38726000,0.0324,0.013523,0.002678,0.000431,0.006934
38727000,0.0324,0.013523,0.002678,0.000431,0.009285
38728000,0.0324,0.013523,0.002678,0.000431,0.005994
38729000,0.0324,0.013523,0.002678,0.000431,0.005759
38730000,0.0324,0.013523,0.002678,0.000431,0.005876
38731000,0.0324,0.013523,0.002678,0.000431,0.007639
38732000,0.0324,0.013523,0.002678,0.000431,0.004466
38733000,0.0324,0.013523,0.002678,0.000431,0.006817
38734000,0.0324,0.013523,0.002678,0.000431,0.007874
38735000,0.0324,0.013523,0.002678,0.000431,0.001763
38736000,0.0324,0.013523,0.002678,0.000431,0.001528
38737000,0.0324,0.013523,0.002678,0.000431,0.001645
38738000,0.0324,0.013523,0.002678,0.000431,0.001763
38739000,0.0324,0.013523,0.002678,0.000431,0.001763
38740000,0.0324,0.013523,0.002678,0.000431,0.001645
38741000,0.0324,0.013523,0.002678,0.000431,0.001763
38742000,0.0324,0.013523,0.002678,0.000431,0.058176
38743000,0.0324,0.013523,0.002678,0.000431,0.675434
38744000,0.0324,0.013523,0.002678,0.000431,0.595045
38745000,0.0324,0.013523,0.002678,0.000431,0.155255
38746000,0.0324,0.013523,0.002678,0.000431,0.142444
38747000,0.0324,0.013523,0.002678,0.000431,0.586936
38748000,0.0324,0.013523,0.002678,0.000431,0.230003
38749000,0.0324,0.013523,0.002678,0.000431,0.283243
38750000,0.0324,0.013523,0.002678,0.000431,0.315093
38751000,0.0324,0.013523,0.002678,0.000431,0.143267
38752000,0.0324,0.013523,0.002678,0.000431,0.159486
38753000,0.0324,0.013523,0.002678,0.000431,0.161366
38754000,0.0324,0.013523,0.002678,0.000431,0.498202
38755000,0.0324,0.013523,0.002678,0.000431,0.199328
38756000,0.0324,0.013523,0.002678,0.000431,0.142914
38757000,0.0324,0.013523,0.002678,0.000431,0.132454
38758000,0.0324,0.013523,0.002678,0.000431,0.126460
38759000,0.0324,0.013523,0.002678,0.000431,0.094963
38760000,0.0324,0.013523,0.002678,0.000431,0.078509
38761000,0.0324,0.013523,0.002678,0.000431,0.069342
38762000,0.0324,0.013523,0.002678,0.000431,0.072397
38763000,0.0324,0.013523,0.002678,0.000431,0.071927
38764000,0.0324,0.013523,0.002678,0.000431,0.053828
38765000,0.0324,0.013523,0.002678,0.000431,0.054063
38766000,0.0324,0.013523,0.002678,0.000431,0.036669
38767000,0.0324,0.013523,0.002678,0.000431,0.033260
38768000,0.0324,0.013523,0.002678,0.000431,0.035494
38769000,0.0324,0.013523,0.002678,0.000431,0.023036
38770000,0.0324,0.013523,0.002678,0.000431,0.022918
38771000,0.0324,0.013523,0.002678,0.000431,0.020450
38772000,0.0324,0.013523,0.002678,0.000431,0.027384
38773000,0.0324,0.013523,0.002678,0.000431,0.018217
38774000,0.0324,0.013523,0.002678,0.000431,0.013163
38775000,0.0324,0.013523,0.002678,0.000431,0.009402
38776000,0.0324,0.013523,0.002678,0.000431,0.008109
38777000,0.0324,0.013523,0.002678,0.000431,0.005524
38778000,0.0324,0.013523,0.002678,0.000431,0.008815
38779000,0.0324,0.013523,0.002678,0.000431,0.004349
38780000,0.0324,0.013523,0.002678,0.000431,0.004819
38781000,0.0324,0.013523,0.002678,0.000431,0.004349
38782000,0.0324,0.013523,0.002678,0.000431,0.003408
38783000,0.0324,0.013523,0.002678,0.000431,0.005524
38784000,0.0324,0.013523,0.002678,0.000431,0.002703
38785000,0.0324,0.013523,0.002678,0.000431,0.002468
38786000,0.0324,0.013523,0.002678,0.000431,0.002586
38787000,0.0324,0.013523,0.002678,0.000431,0.002586
38788000,0.0324,0.013523,0.002678,0.000431,0.002468
38789000,0.0324,0.013523,0.002678,0.000431,0.002586
38790000,0.0324,0.013523,0.002678,0.000431,0.002586
38791000,0.0324,0.013523,0.002678,0.000431,0.002586
38792000,0.0324,0.013523,0.002678,0.000431,0.002586
38793000,0.0324,0.013523,0.002678,0.000431,0.002233
38794000,0.0324,0.013523,0.002678,0.000431,0.002703
38795000,0.0324,0.013523,0.002678,0.000431,0.002703
38796000,0.0324,0.013523,0.002678,0.000431,0.002586
38797000,0.0324,0.013523,0.002678,0.000431,0.002468
38798000,0.0324,0.013523,0.002678,0.000431,0.004231
38799000,0.0324,0.013523,0.002678,0.000431,0.003643
38800000,0.0324,0.013523,0.002678,0.000431,0.001763
38801000,0.0324,0.013523,0.002678,0.000431,0.001763
38802000,0.0324,0.013523,0.002678,0.000431,0.001763
38803000,0.0324,0.013523,0.002678,0.000431,0.001763
38804000,0.0324,0.013523,0.002678,0.000431,0.001880
38805000,0.0324,0.013523,0.002678,0.000431,0.001645
38806000,0.0324,0.013523,0.002678,0.000431,0.001763
38807000,0.0324,0.013523,0.002678,0.000431,0.001763
38808000,0.0324,0.013523,0.002678,0.000431,0.001880
38809000,0.0324,0.013523,0.002678,0.000431,0.001645
38810000,0.0324,0.013523,0.002678,0.000431,0.001645
38811000,0.0324,0.013523,0.002678,0.000431,0.001880
38812000,0.0324,0.013523,0.002678,0.000431,0.001880
38813000,0.0324,0.013523,0.002678,0.000431,0.001645
38814000,0.0324,0.013523,0.002678,0.000431,0.001645
38815000,0.0324,0.013523,0.002678,0.000431,0.001880
38816000,0.0324,0.013523,0.002678,0.000431,0.001763
38817000,0.0324,0.013523,0.002678,0.000431,0.001763
38818000,0.0324,0.013523,0.002678,0.000431,0.001645
38819000,0.0324,0.013523,0.002678,0.000431,0.001880
38820000,0.0324,0.013523,0.002678,0.000431,0.002468
38821000,0.0324,0.013523,0.002678,0.000431,0.001763
38822000,0.0324,0.013523,0.002678,0.000431,0.000823
38823000,0.0324,0.013523,0.002678,0.000431,0.000940
38824000,0.0324,0.013523,0.002678,0.000431,0.000940
38825000,0.0324,0.013523,0.002678,0.000431,0.000823
38826000,0.0324,0.013523,0.002678,0.000431,0.000823
38827000,0.0324,0.013523,0.002678,0.000431,0.000940
38828000,0.0324,0.013523,0.002678,0.000431,0.000823
38829000,0.0324,0.013523,0.002678,0.000431,0.000940
38830000,0.0324,0.013523,0.002678,0.000431,0.000823
38831000,0.0324,0.013523,0.002678,0.000431,0.000940
38832000,0.0324,0.013523,0.002678,0.000431,0.000823
38833000,0.0324,0.013523,0.002678,0.000431,0.000823
38834000,0.0324,0.013523,0.002678,0.000431,0.000940
38835000,0.0324,0.013523,0.002678,0.000431,0.071810
38836000,0.0324,0.013523,0.002678,0.000431,0.651224
38837000,0.0324,0.013523,0.002678,0.000431,0.608443
38838000,0.0324,0.013523,0.002678,0.000431,0.149143
38839000,0.0324,0.013523,0.002678,0.000431,0.149143
38840000,0.0324,0.013523,0.002678,0.000431,0.619021
38841000,0.0324,0.013523,0.002678,0.000431,0.273488
38842000,0.0324,0.013523,0.002678,0.000431,0.277719
38843000,0.0324,0.013523,0.002678,0.000431,0.299462
38844000,0.0324,0.013523,0.002678,0.000431,0.141974
38845000,0.0324,0.013523,0.002678,0.000431,0.141151
38846000,0.0324,0.013523,0.002678,0.000431,0.232941
38847000,0.0324,0.013523,0.002678,0.000431,0.467997
38848000,0.0324,0.013523,0.002678,0.000431,0.209200
38849000,0.0324,0.013523,0.002678,0.000431,0.167830
38850000,0.0324,0.013523,0.002678,0.000431,0.146558
38851000,0.0324,0.013523,0.002678,0.000431,0.145500
38852000,0.0324,0.013523,0.002678,0.000431,0.119879
38853000,0.0324,0.013523,0.002678,0.000431,0.109301
38854000,0.0324,0.013523,0.002678,0.000431,0.103072
38855000,0.0324,0.013523,0.002678,0.000431,0.090614
38856000,0.0324,0.013523,0.002678,0.000431,0.070399
38857000,0.0324,0.013523,0.002678,0.000431,0.062055
38858000,0.0324,0.013523,0.002678,0.000431,0.051712
38859000,0.0324,0.013523,0.002678,0.000431,0.052183
38860000,0.0324,0.013523,0.002678,0.000431,0.037021
38861000,0.0324,0.013523,0.002678,0.000431,0.036786
38862000,0.0324,0.013523,0.002678,0.000431,0.034553
38863000,0.0324,0.013523,0.002678,0.000431,0.030910
38864000,0.0324,0.013523,0.002678,0.000431,0.030675
38865000,0.0324,0.013523,0.002678,0.000431,0.023976
38866000,0.0324,0.013523,0.002678,0.000431,0.017629
38867000,0.0324,0.013523,0.002678,0.000431,0.021273
38868000,0.0324,0.013523,0.002678,0.000431,0.020332
38869000,0.0324,0.013523,0.002678,0.000431,0.014221
38870000,0.0324,0.013523,0.002678,0.000431,0.015514
38871000,0.0324,0.013523,0.002678,0.000431,0.013163
38872000,0.0324,0.013523,0.002678,0.000431,0.007287
38873000,0.0324,0.013523,0.002678,0.000431,0.010225
38874000,0.0324,0.013523,0.002678,0.000431,0.009755
38875000,0.0324,0.013523,0.002678,0.000431,0.005759
38876000,0.0324,0.013523,0.002678,0.000431,0.005171
38877000,0.0324,0.013523,0.002678,0.000431,0.005406
38878000,0.0324,0.013523,0.002678,0.000431,0.009402
38879000,0.0324,0.013523,0.002678,0.000431,0.003408
38880000,0.0324,0.013523,0.002678,0.000431,0.010460
38881000,0.0324,0.013523,0.002678,0.000431,0.001645
38882000,0.0324,0.013523,0.002678,0.000431,0.001645
38883000,0.0324,0.013523,0.002678,0.000431,0.001528
38884000,0.0324,0.013523,0.002678,0.000431,0.000705
38885000,0.0324,0.013523,0.002678,0.000431,0.000940
38886000,0.0324,0.013523,0.002678,0.000431,0.000823
38887000,0.0324,0.013523,0.002678,0.000431,0.072397
38888000,0.0324,0.013523,0.002678,0.000431,0.727382
38889000,0.0324,0.013523,0.002678,0.000431,0.575771
38890000,0.0324,0.013523,0.002678,0.000431,0.146793
38891000,0.0324,0.013523,0.002678,0.000431,0.151024
38892000,0.0324,0.013523,0.002678,0.000431,0.622547
38893000,0.0324,0.013523,0.002678,0.000431,0.296289
38894000,0.0324,0.013523,0.002678,0.000431,0.268904
38895000,0.0324,0.013523,0.002678,0.000431,0.246927
38896000,0.0324,0.013523,0.002678,0.000431,0.140799
38897000,0.0324,0.013523,0.002678,0.000431,0.121407
38898000,0.0324,0.013523,0.002678,0.000431,0.320264
38899000,0.0324,0.013523,0.002678,0.000431,0.403944
38900000,0.0324,0.013523,0.002678,0.000431,0.189103
38901000,0.0324,0.013523,0.002678,0.000431,0.154902
38902000,0.0324,0.013523,0.002678,0.000431,0.138213
38903000,0.0324,0.013523,0.002678,0.000431,0.136685
38904000,0.0324,0.013523,0.002678,0.000431,0.116353
38905000,0.0324,0.013523,0.002678,0.000431,0.099664
38906000,0.0324,0.013523,0.002678,0.000431,0.082152
38907000,0.0324,0.013523,0.002678,0.000431,0.077686
38908000,0.0324,0.013523,0.002678,0.000431,0.060527
38909000,0.0324,0.013523,0.002678,0.000431,0.068049
38910000,0.0324,0.013523,0.002678,0.000431,0.049479
38911000,0.0324,0.013523,0.002678,0.000431,0.045836
38912000,0.0324,0.013523,0.002678,0.000431,0.038432
38913000,0.0324,0.013523,0.002678,0.000431,0.037374
38914000,0.0324,0.013523,0.002678,0.000431,0.035376
38915000,0.0324,0.013523,0.002678,0.000431,0.029500
38916000,0.0324,0.013523,0.002678,0.000431,0.022683
38917000,0.0324,0.013523,0.002678,0.000431,0.021743
38918000,0.0324,0.013523,0.002678,0.000431,0.014691
38919000,0.0324,0.013523,0.002678,0.000431,0.018099
38920000,0.0324,0.013523,0.002678,0.000431,0.008227
38921000,0.0324,0.013523,0.002678,0.000431,0.006347
38922000,0.0324,0.013523,0.002678,0.000431,0.006464
38923000,0.0324,0.013523,0.002678,0.000431,0.006111
38924000,0.0324,0.013523,0.002678,0.000431,0.006817
38925000,0.0324,0.013523,0.002678,0.000431,0.006111
38926000,0.0324,0.013523,0.002678,0.000431,0.005289
38927000,0.0324,0.013523,0.002678,0.000431,0.006934
38928000,0.0324,0.013523,0.002678,0.000431,0.011283
38929000,0.0324,0.013523,0.002678,0.000431,0.003408
38930000,0.0324,0.013523,0.002678,0.000431,0.005994
38931000,0.0324,0.013523,0.002678,0.000431,0.003996
38932000,0.0324,0.013523,0.002678,0.000431,0.466822
38933000,0.0324,0.013523,0.002678,0.000431,0.706579
38934000,0.0324,0.013523,0.002678,0.000431,0.263381
38935000,0.0324,0.013523,0.002678,0.000431,0.137978
38936000,0.0324,0.013523,0.002678,0.000431,0.197447
38937000,0.0324,0.013523,0.002678,0.000431,0.564018
38938000,0.0324,0.013523,0.002678,0.000431,0.253391
38939000,0.0324,0.013523,0.002678,0.000431,0.366923
38940000,0.0324,0.013523,0.002678,0.000431,0.191571
38941000,0.0324,0.013523,0.002678,0.000431,0.146910
38942000,0.0324,0.013523,0.002678,0.000431,0.110829
38943000,0.0324,0.013523,0.002678,0.000431,0.433091
38944000,0.0324,0.013523,0.002678,0.000431,0.297699
38945000,0.0324,0.013523,0.002678,0.000431,0.169593
38946000,0.0324,0.013523,0.002678,0.000431,0.141857
38947000,0.0324,0.013523,0.002678,0.000431,0.133865
38948000,0.0324,0.013523,0.002678,0.000431,0.098724
38949000,0.0324,0.013523,0.002678,0.000431,0.087206
38950000,0.0324,0.013523,0.002678,0.000431,0.078626
38951000,0.0324,0.013523,0.002678,0.000431,0.076276
38952000,0.0324,0.013523,0.002678,0.000431,0.065228
38953000,0.0324,0.013523,0.002678,0.000431,0.050772
38954000,0.0324,0.013523,0.002678,0.000431,0.035964
38955000,0.0324,0.013523,0.002678,0.000431,0.031968
38956000,0.0324,0.013523,0.002678,0.000431,0.035494
38957000,0.0324,0.013523,0.002678,0.000431,0.031145
38958000,0.0324,0.013523,0.002678,0.000431,0.019862
38959000,0.0324,0.013523,0.002678,0.000431,0.013751
38960000,0.0324,0.013523,0.002678,0.000431,0.011048
38961000,0.0324,0.013523,0.002678,0.000431,0.011518
38962000,0.0324,0.013523,0.002678,0.000431,0.007757
38963000,0.0324,0.013523,0.002678,0.000431,0.006817
38964000,0.0324,0.013523,0.002678,0.000431,0.007052
38965000,0.0324,0.013523,0.002678,0.000431,0.005289
38966000,0.0324,0.013523,0.002678,0.000431,0.005289
38967000,0.0324,0.013523,0.002678,0.000431,0.007404
38968000,0.0324,0.013523,0.002678,0.000431,0.007639
38969000,0.0324,0.013523,0.002678,0.000431,0.000940
38970000,0.0324,0.013523,0.002678,0.000431,0.000823
38971000,0.0324,0.013523,0.002678,0.000431,0.000823
38972000,0.0324,0.013523,0.002678,0.000431,0.000823
38973000,0.0324,0.013523,0.002678,0.000431,0.000940
38974000,0.0324,0.013523,0.002678,0.000431,0.000823
38975000,0.0324,0.013523,0.002678,0.000431,0.000823
38976000,0.0324,0.013523,0.002678,0.000431,0.000705
38977000,0.0324,0.013523,0.002678,0.000431,0.000940
38978000,0.0324,0.013523,0.002678,0.000431,0.000940
38979000,0.0324,0.013523,0.002678,0.000431,0.000705
38980000,0.0324,0.013523,0.002678,0.000431,0.000940
38981000,0.0324,0.013523,0.002678,0.000431,0.000705
38982000,0.0324,0.013523,0.002678,0.000431,0.000940
38983000,0.0324,0.013523,0.002678,0.000431,0.000823
38984000,0.0324,0.013523,0.002678,0.000431,0.000823
38985000,0.0324,0.013523,0.002678,0.000431,0.000940
38986000,0.0324,0.013523,0.002678,0.000431,0.000705
38987000,0.0324,0.013523,0.002678,0.000431,0.000940
38988000,0.0324,0.013523,0.002678,0.000431,0.000823
38989000,0.0324,0.013523,0.002678,0.000431,0.000823
38990000,0.0324,0.013523,0.002678,0.000431,0.000705
38991000,0.0324,0.013523,0.002678,0.000431,0.000940
38992000,0.0324,0.013523,0.002678,0.000431,0.000705
38993000,0.0324,0.013523,0.002678,0.000431,0.000940
38994000,0.0324,0.013523,0.002678,0.000431,0.000823
38995000,0.0324,0.013523,0.002678,0.000431,0.000823
38996000,0.0324,0.013523,0.002678,0.000431,0.000705
38997000,0.0324,0.013523,0.002678,0.000431,0.000940
38998000,0.0324,0.013523,0.002678,0.000431,0.000940
38999000,0.0324,0.013523,0.002678,0.000431,0.000705
