Cycle,Area(mm^2),PeakDynamic(W),SubthresholdLeakage(W),GateLeakage(W),RunTimeDynamic(W)
71000000,0.0324,0.013523,0.002678,0.000431,0.633359
71001000,0.0324,0.013523,0.002678,0.000431,0.735726
71002000,0.0324,0.013523,0.002678,0.000431,0.139859
71003000,0.0324,0.013523,0.002678,0.000431,0.138213
71004000,0.0324,0.013523,0.002678,0.000431,0.517477
71005000,0.0324,0.013523,0.002678,0.000431,0.274311
71006000,0.0324,0.013523,0.002678,0.000431,0.302165
71007000,0.0324,0.013523,0.002678,0.000431,0.160543
71008000,0.0324,0.013523,0.002678,0.000431,0.109536
71009000,0.0324,0.013523,0.002678,0.000431,0.481278
71010000,0.0324,0.013523,0.002678,0.000431,0.390194
71011000,0.0324,0.013523,0.002678,0.000431,0.237172
71012000,0.0324,0.013523,0.002678,0.000431,0.210258
71013000,0.0324,0.013523,0.002678,0.000431,0.185930
71014000,0.0324,0.013523,0.002678,0.000431,0.156195
71015000,0.0324,0.013523,0.002678,0.000431,0.132689
71016000,0.0324,0.013523,0.002678,0.000431,0.097666
71017000,0.0324,0.013523,0.002678,0.000431,0.089204
71018000,0.0324,0.013523,0.002678,0.000431,0.068989
71019000,0.0324,0.013523,0.002678,0.000431,0.054416
71020000,0.0324,0.013523,0.002678,0.000431,0.042193
71021000,0.0324,0.013523,0.002678,0.000431,0.051712
71022000,0.0324,0.013523,0.002678,0.000431,0.022330
71023000,0.0324,0.013523,0.002678,0.000431,0.025856
71024000,0.0324,0.013523,0.002678,0.000431,0.022330
71025000,0.0324,0.013523,0.002678,0.000431,0.015749
71026000,0.0324,0.013523,0.002678,0.000431,0.006464
71027000,0.0324,0.013523,0.002678,0.000431,0.008932
71028000,0.0324,0.013523,0.002678,0.000431,0.005054
71029000,0.0324,0.013523,0.002678,0.000431,0.004936
71030000,0.0324,0.013523,0.002678,0.000431,0.007639
71031000,0.0324,0.013523,0.002678,0.000431,0.003761
71032000,0.0324,0.013523,0.002678,0.000431,0.004936
71033000,0.0324,0.013523,0.002678,0.000431,0.004936
71034000,0.0324,0.013523,0.002678,0.000431,0.003408
71035000,0.0324,0.013523,0.002678,0.000431,0.004701
71036000,0.0324,0.013523,0.002678,0.000431,0.004113
71037000,0.0324,0.013523,0.002678,0.000431,0.005054
71038000,0.0324,0.013523,0.002678,0.000431,0.003761
71039000,0.0324,0.013523,0.002678,0.000431,0.003761
71040000,0.0324,0.013523,0.002678,0.000431,0.004466
71041000,0.0324,0.013523,0.002678,0.000431,0.003173
71042000,0.0324,0.013523,0.002678,0.000431,0.003996
71043000,0.0324,0.013523,0.002678,0.000431,0.003173
71044000,0.0324,0.013523,0.002678,0.000431,0.002586
71045000,0.0324,0.013523,0.002678,0.000431,0.002703
71046000,0.0324,0.013523,0.002678,0.000431,0.002233
71047000,0.0324,0.013523,0.002678,0.000431,0.002703
71048000,0.0324,0.013523,0.002678,0.000431,0.001998
71049000,0.0324,0.013523,0.002678,0.000431,0.001763
71050000,0.0324,0.013523,0.002678,0.000431,0.001763
71051000,0.0324,0.013523,0.002678,0.000431,0.001645
71052000,0.0324,0.013523,0.002678,0.000431,0.003291
71053000,0.0324,0.013523,0.002678,0.000431,0.000940
71054000,0.0324,0.013523,0.002678,0.000431,0.000823
71055000,0.0324,0.013523,0.002678,0.000431,0.000940
71056000,0.0324,0.013523,0.002678,0.000431,0.000823
71057000,0.0324,0.013523,0.002678,0.000431,0.001998
71058000,0.0324,0.013523,0.002678,0.000431,0.523941
71059000,0.0324,0.013523,0.002678,0.000431,0.810239
71060000,0.0324,0.013523,0.002678,0.000431,0.176292
71061000,0.0324,0.013523,0.002678,0.000431,0.139271
71062000,0.0324,0.013523,0.002678,0.000431,0.489975
71063000,0.0324,0.013523,0.002678,0.000431,0.239875
71064000,0.0324,0.013523,0.002678,0.000431,0.325671
71065000,0.0324,0.013523,0.002678,0.000431,0.161836
71066000,0.0324,0.013523,0.002678,0.000431,0.109301
71067000,0.0324,0.013523,0.002678,0.000431,0.434972
71068000,0.0324,0.013523,0.002678,0.000431,0.382084
71069000,0.0324,0.013523,0.002678,0.000431,0.190866
71070000,0.0324,0.013523,0.002678,0.000431,0.158428
71071000,0.0324,0.013523,0.002678,0.000431,0.148908
71072000,0.0324,0.013523,0.002678,0.000431,0.119526
71073000,0.0324,0.013523,0.002678,0.000431,0.106010
71074000,0.0324,0.013523,0.002678,0.000431,0.086618
71075000,0.0324,0.013523,0.002678,0.000431,0.051712
71076000,0.0324,0.013523,0.002678,0.000431,0.049597
71077000,0.0324,0.013523,0.002678,0.000431,0.025739
71078000,0.0324,0.013523,0.002678,0.000431,0.022213
71079000,0.0324,0.013523,0.002678,0.000431,0.012458
71080000,0.0324,0.013523,0.002678,0.000431,0.010813
71081000,0.0324,0.013523,0.002678,0.000431,0.013046
71082000,0.0324,0.013523,0.002678,0.000431,0.003291
71083000,0.0324,0.013523,0.002678,0.000431,0.003173
71084000,0.0324,0.013523,0.002678,0.000431,0.003291
71085000,0.0324,0.013523,0.002678,0.000431,0.007874
71086000,0.0324,0.013523,0.002678,0.000431,0.003291
71087000,0.0324,0.013523,0.002678,0.000431,0.004584
71088000,0.0324,0.013523,0.002678,0.000431,0.000823
71089000,0.0324,0.013523,0.002678,0.000431,0.000823
71090000,0.0324,0.013523,0.002678,0.000431,0.000823
71091000,0.0324,0.013523,0.002678,0.000431,0.000940
71092000,0.0324,0.013523,0.002678,0.000431,0.000705
71093000,0.0324,0.013523,0.002678,0.000431,0.000940
71094000,0.0324,0.013523,0.002678,0.000431,0.000823
71095000,0.0324,0.013523,0.002678,0.000431,0.000823
71096000,0.0324,0.013523,0.002678,0.000431,0.000823
71097000,0.0324,0.013523,0.002678,0.000431,0.000940
71098000,0.0324,0.013523,0.002678,0.000431,0.002233
71099000,0.0324,0.013523,0.002678,0.000431,0.319794
71100000,0.0324,0.013523,0.002678,0.000431,0.806478
71101000,0.0324,0.013523,0.002678,0.000431,0.343770
71102000,0.0324,0.013523,0.002678,0.000431,0.138096
71103000,0.0324,0.013523,0.002678,0.000431,0.578239
71104000,0.0324,0.013523,0.002678,0.000431,0.263851
71105000,0.0324,0.013523,0.002678,0.000431,0.295936
71106000,0.0324,0.013523,0.002678,0.000431,0.157840
71107000,0.0324,0.013523,0.002678,0.000431,0.157135
71108000,0.0324,0.013523,0.002678,0.000431,0.182169
71109000,0.0324,0.013523,0.002678,0.000431,0.557436
71110000,0.0324,0.013523,0.002678,0.000431,0.225889
71111000,0.0324,0.013523,0.002678,0.000431,0.189573
71112000,0.0324,0.013523,0.002678,0.000431,0.166772
71113000,0.0324,0.013523,0.002678,0.000431,0.156783
71114000,0.0324,0.013523,0.002678,0.000431,0.132102
71115000,0.0324,0.013523,0.002678,0.000431,0.102250
71116000,0.0324,0.013523,0.002678,0.000431,0.078391
71117000,0.0324,0.013523,0.002678,0.000431,0.060292
71118000,0.0324,0.013523,0.002678,0.000431,0.053828
71119000,0.0324,0.013523,0.002678,0.000431,0.042663
71120000,0.0324,0.013523,0.002678,0.000431,0.029147
71121000,0.0324,0.013523,0.002678,0.000431,0.029852
71122000,0.0324,0.013523,0.002678,0.000431,0.024916
71123000,0.0324,0.013523,0.002678,0.000431,0.021273
71124000,0.0324,0.013523,0.002678,0.000431,0.025386
71125000,0.0324,0.013523,0.002678,0.000431,0.015984
71126000,0.0324,0.013523,0.002678,0.000431,0.022095
71127000,0.0324,0.013523,0.002678,0.000431,0.005759
71128000,0.0324,0.013523,0.002678,0.000431,0.006347
71129000,0.0324,0.013523,0.002678,0.000431,0.007874
71130000,0.0324,0.013523,0.002678,0.000431,0.007287
71131000,0.0324,0.013523,0.002678,0.000431,0.005054
71132000,0.0324,0.013523,0.002678,0.000431,0.001880
71133000,0.0324,0.013523,0.002678,0.000431,0.002233
71134000,0.0324,0.013523,0.002678,0.000431,0.609854
71135000,0.0324,0.013523,0.002678,0.000431,0.739957
71136000,0.0324,0.013523,0.002678,0.000431,0.143737
71137000,0.0324,0.013523,0.002678,0.000431,0.137743
71138000,0.0324,0.013523,0.002678,0.000431,0.509837
71139000,0.0324,0.013523,0.002678,0.000431,0.279952
71140000,0.0324,0.013523,0.002678,0.000431,0.278659
71141000,0.0324,0.013523,0.002678,0.000431,0.158075
71142000,0.0324,0.013523,0.002678,0.000431,0.139388
71143000,0.0324,0.013523,0.002678,0.000431,0.257504
71144000,0.0324,0.013523,0.002678,0.000431,0.532755
71145000,0.0324,0.013523,0.002678,0.000431,0.179466
71146000,0.0324,0.013523,0.002678,0.000431,0.166420
71147000,0.0324,0.013523,0.002678,0.000431,0.146440
71148000,0.0324,0.013523,0.002678,0.000431,0.114120
71149000,0.0324,0.013523,0.002678,0.000431,0.098254
71150000,0.0324,0.013523,0.002678,0.000431,0.073808
71151000,0.0324,0.013523,0.002678,0.000431,0.045836
71152000,0.0324,0.013523,0.002678,0.000431,0.038197
71153000,0.0324,0.013523,0.002678,0.000431,0.025621
71154000,0.0324,0.013523,0.002678,0.000431,0.019275
71155000,0.0324,0.013523,0.002678,0.000431,0.025386
71156000,0.0324,0.013523,0.002678,0.000431,0.009637
71157000,0.0324,0.013523,0.002678,0.000431,0.004584
71158000,0.0324,0.013523,0.002678,0.000431,0.007522
71159000,0.0324,0.013523,0.002678,0.000431,0.005289
71160000,0.0324,0.013523,0.002678,0.000431,0.003878
71161000,0.0324,0.013523,0.002678,0.000431,0.001058
71162000,0.0324,0.013523,0.002678,0.000431,0.000823
71163000,0.0324,0.013523,0.002678,0.000431,0.000823
71164000,0.0324,0.013523,0.002678,0.000431,0.000705
71165000,0.0324,0.013523,0.002678,0.000431,0.000940
71166000,0.0324,0.013523,0.002678,0.000431,0.071340
71167000,0.0324,0.013523,0.002678,0.000431,0.806361
71168000,0.0324,0.013523,0.002678,0.000431,0.528407
71169000,0.0324,0.013523,0.002678,0.000431,0.138683
71170000,0.0324,0.013523,0.002678,0.000431,0.413464
71171000,0.0324,0.013523,0.002678,0.000431,0.391839
71172000,0.0324,0.013523,0.002678,0.000431,0.292528
71173000,0.0324,0.013523,0.002678,0.000431,0.203911
71174000,0.0324,0.013523,0.002678,0.000431,0.162424
71175000,0.0324,0.013523,0.002678,0.000431,0.157135
71176000,0.0324,0.013523,0.002678,0.000431,0.556261
71177000,0.0324,0.013523,0.002678,0.000431,0.232588
71178000,0.0324,0.013523,0.002678,0.000431,0.193569
71179000,0.0324,0.013523,0.002678,0.000431,0.163834
71180000,0.0324,0.013523,0.002678,0.000431,0.133277
71181000,0.0324,0.013523,0.002678,0.000431,0.125638
71182000,0.0324,0.013523,0.002678,0.000431,0.096256
71183000,0.0324,0.013523,0.002678,0.000431,0.079684
71184000,0.0324,0.013523,0.002678,0.000431,0.063348
71185000,0.0324,0.013523,0.002678,0.000431,0.049714
71186000,0.0324,0.013523,0.002678,0.000431,0.036669
71187000,0.0324,0.013523,0.002678,0.000431,0.043603
71188000,0.0324,0.013523,0.002678,0.000431,0.033731
71189000,0.0324,0.013523,0.002678,0.000431,0.037962
71190000,0.0324,0.013523,0.002678,0.000431,0.033496
71191000,0.0324,0.013523,0.002678,0.000431,0.024798
71192000,0.0324,0.013523,0.002678,0.000431,0.019392
71193000,0.0324,0.013523,0.002678,0.000431,0.023741
71194000,0.0324,0.013523,0.002678,0.000431,0.014573
71195000,0.0324,0.013523,0.002678,0.000431,0.014809
71196000,0.0324,0.013523,0.002678,0.000431,0.013986
71197000,0.0324,0.013523,0.002678,0.000431,0.013163
71198000,0.0324,0.013523,0.002678,0.000431,0.007874
71199000,0.0324,0.013523,0.002678,0.000431,0.007757
71200000,0.0324,0.013523,0.002678,0.000431,0.006464
71201000,0.0324,0.013523,0.002678,0.000431,0.008815
71202000,0.0324,0.013523,0.002678,0.000431,0.013868
71203000,0.0324,0.013523,0.002678,0.000431,0.002586
71204000,0.0324,0.013523,0.002678,0.000431,0.002938
71205000,0.0324,0.013523,0.002678,0.000431,0.003056
71206000,0.0324,0.013523,0.002678,0.000431,0.002351
71207000,0.0324,0.013523,0.002678,0.000431,0.002351
71208000,0.0324,0.013523,0.002678,0.000431,0.001880
71209000,0.0324,0.013523,0.002678,0.000431,0.001998
71210000,0.0324,0.013523,0.002678,0.000431,0.005171
71211000,0.0324,0.013523,0.002678,0.000431,0.478105
71212000,0.0324,0.013523,0.002678,0.000431,0.787086
71213000,0.0324,0.013523,0.002678,0.000431,0.209318
71214000,0.0324,0.013523,0.002678,0.000431,0.137273
71215000,0.0324,0.013523,0.002678,0.000431,0.509720
71216000,0.0324,0.013523,0.002678,0.000431,0.270197
71217000,0.0324,0.013523,0.002678,0.000431,0.304986
71218000,0.0324,0.013523,0.002678,0.000431,0.159956
71219000,0.0324,0.013523,0.002678,0.000431,0.190396
71220000,0.0324,0.013523,0.002678,0.000431,0.093317
71221000,0.0324,0.013523,0.002678,0.000431,0.585996
71222000,0.0324,0.013523,0.002678,0.000431,0.249277
71223000,0.0324,0.013523,0.002678,0.000431,0.188163
71224000,0.0324,0.013523,0.002678,0.000431,0.174294
71225000,0.0324,0.013523,0.002678,0.000431,0.123757
71226000,0.0324,0.013523,0.002678,0.000431,0.109301
71227000,0.0324,0.013523,0.002678,0.000431,0.093787
71228000,0.0324,0.013523,0.002678,0.000431,0.072750
71229000,0.0324,0.013523,0.002678,0.000431,0.059587
71230000,0.0324,0.013523,0.002678,0.000431,0.045131
71231000,0.0324,0.013523,0.002678,0.000431,0.030675
71232000,0.0324,0.013523,0.002678,0.000431,0.026796
71233000,0.0324,0.013523,0.002678,0.000431,0.032438
71234000,0.0324,0.013523,0.002678,0.000431,0.010813
71235000,0.0324,0.013523,0.002678,0.000431,0.008697
71236000,0.0324,0.013523,0.002678,0.000431,0.004584
71237000,0.0324,0.013523,0.002678,0.000431,0.008462
71238000,0.0324,0.013523,0.002678,0.000431,0.001763
71239000,0.0324,0.013523,0.002678,0.000431,0.001998
71240000,0.0324,0.013523,0.002678,0.000431,0.002233
71241000,0.0324,0.013523,0.002678,0.000431,0.001645
71242000,0.0324,0.013523,0.002678,0.000431,0.002116
71243000,0.0324,0.013523,0.002678,0.000431,0.005524
71244000,0.0324,0.013523,0.002678,0.000431,0.000940
71245000,0.0324,0.013523,0.002678,0.000431,0.000823
71246000,0.0324,0.013523,0.002678,0.000431,0.000823
71247000,0.0324,0.013523,0.002678,0.000431,0.000940
71248000,0.0324,0.013523,0.002678,0.000431,0.000705
71249000,0.0324,0.013523,0.002678,0.000431,0.000940
71250000,0.0324,0.013523,0.002678,0.000431,0.000823
71251000,0.0324,0.013523,0.002678,0.000431,0.000823
71252000,0.0324,0.013523,0.002678,0.000431,0.000823
71253000,0.0324,0.013523,0.002678,0.000431,0.000823
71254000,0.0324,0.013523,0.002678,0.000431,0.000823
71255000,0.0324,0.013523,0.002678,0.000431,0.000823
71256000,0.0324,0.013523,0.002678,0.000431,0.000823
71257000,0.0324,0.013523,0.002678,0.000431,0.000940
71258000,0.0324,0.013523,0.002678,0.000431,0.000823
71259000,0.0324,0.013523,0.002678,0.000431,0.000823
71260000,0.0324,0.013523,0.002678,0.000431,0.000823
71261000,0.0324,0.013523,0.002678,0.000431,0.000705
71262000,0.0324,0.013523,0.002678,0.000431,0.000940
71263000,0.0324,0.013523,0.002678,0.000431,0.000940
71264000,0.0324,0.013523,0.002678,0.000431,0.000705
71265000,0.0324,0.013523,0.002678,0.000431,0.000940
71266000,0.0324,0.013523,0.002678,0.000431,0.000705
71267000,0.0324,0.013523,0.002678,0.000431,0.000940
71268000,0.0324,0.013523,0.002678,0.000431,0.000823
71269000,0.0324,0.013523,0.002678,0.000431,0.000823
71270000,0.0324,0.013523,0.002678,0.000431,0.000940
71271000,0.0324,0.013523,0.002678,0.000431,0.000705
71272000,0.0324,0.013523,0.002678,0.000431,0.000940
71273000,0.0324,0.013523,0.002678,0.000431,0.000823
71274000,0.0324,0.013523,0.002678,0.000431,0.000823
71275000,0.0324,0.013523,0.002678,0.000431,0.000823
71276000,0.0324,0.013523,0.002678,0.000431,0.000823
71277000,0.0324,0.013523,0.002678,0.000431,0.000940
71278000,0.0324,0.013523,0.002678,0.000431,0.000705
71279000,0.0324,0.013523,0.002678,0.000431,0.000705
71280000,0.0324,0.013523,0.002678,0.000431,0.000940
71281000,0.0324,0.013523,0.002678,0.000431,0.000940
71282000,0.0324,0.013523,0.002678,0.000431,0.000705
71283000,0.0324,0.013523,0.002678,0.000431,0.000940
71284000,0.0324,0.013523,0.002678,0.000431,0.000705
71285000,0.0324,0.013523,0.002678,0.000431,0.000940
71286000,0.0324,0.013523,0.002678,0.000431,0.000823
71287000,0.0324,0.013523,0.002678,0.000431,0.000823
71288000,0.0324,0.013523,0.002678,0.000431,0.000940
71289000,0.0324,0.013523,0.002678,0.000431,0.000705
71290000,0.0324,0.013523,0.002678,0.000431,0.000940
71291000,0.0324,0.013523,0.002678,0.000431,0.000705
71292000,0.0324,0.013523,0.002678,0.000431,0.000940
71293000,0.0324,0.013523,0.002678,0.000431,0.013751
71294000,0.0324,0.013523,0.002678,0.000431,0.846791
71295000,0.0324,0.013523,0.002678,0.000431,0.527349
71296000,0.0324,0.013523,0.002678,0.000431,0.140799
71297000,0.0324,0.013523,0.002678,0.000431,0.196977
71298000,0.0324,0.013523,0.002678,0.000431,0.491503
71299000,0.0324,0.013523,0.002678,0.000431,0.294526
71300000,0.0324,0.013523,0.002678,0.000431,0.257504
71301000,0.0324,0.013523,0.002678,0.000431,0.164069
71302000,0.0324,0.013523,0.002678,0.000431,0.113180
71303000,0.0324,0.013523,0.002678,0.000431,0.535576
71304000,0.0324,0.013523,0.002678,0.000431,0.361634
71305000,0.0324,0.013523,0.002678,0.000431,0.248572
71306000,0.0324,0.013523,0.002678,0.000431,0.224479
71307000,0.0324,0.013523,0.002678,0.000431,0.190748
71308000,0.0324,0.013523,0.002678,0.000431,0.158075
71309000,0.0324,0.013523,0.002678,0.000431,0.109066
71310000,0.0324,0.013523,0.002678,0.000431,0.097431
71311000,0.0324,0.013523,0.002678,0.000431,0.063230
71312000,0.0324,0.013523,0.002678,0.000431,0.041723
71313000,0.0324,0.013523,0.002678,0.000431,0.048422
71314000,0.0324,0.013523,0.002678,0.000431,0.038197
71315000,0.0324,0.013523,0.002678,0.000431,0.023388
71316000,0.0324,0.013523,0.002678,0.000431,0.024681
71317000,0.0324,0.013523,0.002678,0.000431,0.013398
71318000,0.0324,0.013523,0.002678,0.000431,0.013281
71319000,0.0324,0.013523,0.002678,0.000431,0.018452
71320000,0.0324,0.013523,0.002678,0.000431,0.011988
71321000,0.0324,0.013523,0.002678,0.000431,0.001058
71322000,0.0324,0.013523,0.002678,0.000431,0.000823
71323000,0.0324,0.013523,0.002678,0.000431,0.000823
71324000,0.0324,0.013523,0.002678,0.000431,0.000823
71325000,0.0324,0.013523,0.002678,0.000431,0.241520
71326000,0.0324,0.013523,0.002678,0.000431,0.845380
71327000,0.0324,0.013523,0.002678,0.000431,0.434737
71328000,0.0324,0.013523,0.002678,0.000431,0.139623
71329000,0.0324,0.013523,0.002678,0.000431,0.532990
71330000,0.0324,0.013523,0.002678,0.000431,0.267494
71331000,0.0324,0.013523,0.002678,0.000431,0.313448
71332000,0.0324,0.013523,0.002678,0.000431,0.165480
71333000,0.0324,0.013523,0.002678,0.000431,0.108243
71334000,0.0324,0.013523,0.002678,0.000431,0.485744
71335000,0.0324,0.013523,0.002678,0.000431,0.344475
71336000,0.0324,0.013523,0.002678,0.000431,0.218132
71337000,0.0324,0.013523,0.002678,0.000431,0.187575
71338000,0.0324,0.013523,0.002678,0.000431,0.155255
71339000,0.0324,0.013523,0.002678,0.000431,0.140329
71340000,0.0324,0.013523,0.002678,0.000431,0.100016
71341000,0.0324,0.013523,0.002678,0.000431,0.069694
71342000,0.0324,0.013523,0.002678,0.000431,0.055003
71343000,0.0324,0.013523,0.002678,0.000431,0.044896
71344000,0.0324,0.013523,0.002678,0.000431,0.036316
71345000,0.0324,0.013523,0.002678,0.000431,0.038784
71346000,0.0324,0.013523,0.002678,0.000431,0.031145
71347000,0.0324,0.013523,0.002678,0.000431,0.028794
71348000,0.0324,0.013523,0.002678,0.000431,0.027031
71349000,0.0324,0.013523,0.002678,0.000431,0.016101
71350000,0.0324,0.013523,0.002678,0.000431,0.016689
71351000,0.0324,0.013523,0.002678,0.000431,0.023271
71352000,0.0324,0.013523,0.002678,0.000431,0.008932
71353000,0.0324,0.013523,0.002678,0.000431,0.008580
71354000,0.0324,0.013523,0.002678,0.000431,0.010342
71355000,0.0324,0.013523,0.002678,0.000431,0.008697
71356000,0.0324,0.013523,0.002678,0.000431,0.008697
71357000,0.0324,0.013523,0.002678,0.000431,0.003996
71358000,0.0324,0.013523,0.002678,0.000431,0.003408
71359000,0.0324,0.013523,0.002678,0.000431,0.002703
71360000,0.0324,0.013523,0.002678,0.000431,0.004113
71361000,0.0324,0.013523,0.002678,0.000431,0.001528
71362000,0.0324,0.013523,0.002678,0.000431,0.000940
71363000,0.0324,0.013523,0.002678,0.000431,0.000705
71364000,0.0324,0.013523,0.002678,0.000431,0.000940
71365000,0.0324,0.013523,0.002678,0.000431,0.000940
71366000,0.0324,0.013523,0.002678,0.000431,0.035611
71367000,0.0324,0.013523,0.002678,0.000431,0.853490
71368000,0.0324,0.013523,0.002678,0.000431,0.525704
71369000,0.0324,0.013523,0.002678,0.000431,0.144442
71370000,0.0324,0.013523,0.002678,0.000431,0.309334
71371000,0.0324,0.013523,0.002678,0.000431,0.436617
71372000,0.0324,0.013523,0.002678,0.000431,0.318854
71373000,0.0324,0.013523,0.002678,0.000431,0.218485
71374000,0.0324,0.013523,0.002678,0.000431,0.159838
71375000,0.0324,0.013523,0.002678,0.000431,0.161484
71376000,0.0324,0.013523,0.002678,0.000431,0.570012
71377000,0.0324,0.013523,0.002678,0.000431,0.257387
71378000,0.0324,0.013523,0.002678,0.000431,0.191336
71379000,0.0324,0.013523,0.002678,0.000431,0.167008
71380000,0.0324,0.013523,0.002678,0.000431,0.127753
71381000,0.0324,0.013523,0.002678,0.000431,0.097901
71382000,0.0324,0.013523,0.002678,0.000431,0.100487
71383000,0.0324,0.013523,0.002678,0.000431,0.069459
71384000,0.0324,0.013523,0.002678,0.000431,0.067109
71385000,0.0324,0.013523,0.002678,0.000431,0.042310
71386000,0.0324,0.013523,0.002678,0.000431,0.041958
71387000,0.0324,0.013523,0.002678,0.000431,0.028794
71388000,0.0324,0.013523,0.002678,0.000431,0.027502
71389000,0.0324,0.013523,0.002678,0.000431,0.019275
71390000,0.0324,0.013523,0.002678,0.000431,0.016454
71391000,0.0324,0.013523,0.002678,0.000431,0.011400
71392000,0.0324,0.013523,0.002678,0.000431,0.016101
71393000,0.0324,0.013523,0.002678,0.000431,0.007874
71394000,0.0324,0.013523,0.002678,0.000431,0.006699
71395000,0.0324,0.013523,0.002678,0.000431,0.003996
71396000,0.0324,0.013523,0.002678,0.000431,0.004113
71397000,0.0324,0.013523,0.002678,0.000431,0.003173
71398000,0.0324,0.013523,0.002678,0.000431,0.004936
71399000,0.0324,0.013523,0.002678,0.000431,0.003996
71400000,0.0324,0.013523,0.002678,0.000431,0.001763
71401000,0.0324,0.013523,0.002678,0.000431,0.001058
71402000,0.0324,0.013523,0.002678,0.000431,0.001528
71403000,0.0324,0.013523,0.002678,0.000431,0.001645
71404000,0.0324,0.013523,0.002678,0.000431,0.001528
71405000,0.0324,0.013523,0.002678,0.000431,0.001763
71406000,0.0324,0.013523,0.002678,0.000431,0.193922
71407000,0.0324,0.013523,0.002678,0.000431,0.779447
71408000,0.0324,0.013523,0.002678,0.000431,0.472581
71409000,0.0324,0.013523,0.002678,0.000431,0.137273
71410000,0.0324,0.013523,0.002678,0.000431,0.510307
71411000,0.0324,0.013523,0.002678,0.000431,0.291705
71412000,0.0324,0.013523,0.002678,0.000431,0.291117
71413000,0.0324,0.013523,0.002678,0.000431,0.166537
71414000,0.0324,0.013523,0.002678,0.000431,0.174647
71415000,0.0324,0.013523,0.002678,0.000431,0.161014
71416000,0.0324,0.013523,0.002678,0.000431,0.555791
71417000,0.0324,0.013523,0.002678,0.000431,0.239757
71418000,0.0324,0.013523,0.002678,0.000431,0.205909
71419000,0.0324,0.013523,0.002678,0.000431,0.165245
71420000,0.0324,0.013523,0.002678,0.000431,0.151259
71421000,0.0324,0.013523,0.002678,0.000431,0.118116
71422000,0.0324,0.013523,0.002678,0.000431,0.073808
71423000,0.0324,0.013523,0.002678,0.000431,0.060174
71424000,0.0324,0.013523,0.002678,0.000431,0.068636
71425000,0.0324,0.013523,0.002678,0.000431,0.049362
71426000,0.0324,0.013523,0.002678,0.000431,0.039725
71427000,0.0324,0.013523,0.002678,0.000431,0.031027
71428000,0.0324,0.013523,0.002678,0.000431,0.021273
71429000,0.0324,0.013523,0.002678,0.000431,0.017747
71430000,0.0324,0.013523,0.002678,0.000431,0.018687
71431000,0.0324,0.013523,0.002678,0.000431,0.010460
71432000,0.0324,0.013523,0.002678,0.000431,0.011635
71433000,0.0324,0.013523,0.002678,0.000431,0.012340
71434000,0.0324,0.013523,0.002678,0.000431,0.010342
71435000,0.0324,0.013523,0.002678,0.000431,0.003643
71436000,0.0324,0.013523,0.002678,0.000431,0.008815
71437000,0.0324,0.013523,0.002678,0.000431,0.329667
71438000,0.0324,0.013523,0.002678,0.000431,0.819642
71439000,0.0324,0.013523,0.002678,0.000431,0.313800
71440000,0.0324,0.013523,0.002678,0.000431,0.145970
71441000,0.0324,0.013523,0.002678,0.000431,0.507839
71442000,0.0324,0.013523,0.002678,0.000431,0.255506
71443000,0.0324,0.013523,0.002678,0.000431,0.364455
71444000,0.0324,0.013523,0.002678,0.000431,0.163834
71445000,0.0324,0.013523,0.002678,0.000431,0.114355
71446000,0.0324,0.013523,0.002678,0.000431,0.377736
71447000,0.0324,0.013523,0.002678,0.000431,0.440731
71448000,0.0324,0.013523,0.002678,0.000431,0.197917
71449000,0.0324,0.013523,0.002678,0.000431,0.177115
71450000,0.0324,0.013523,0.002678,0.000431,0.139623
71451000,0.0324,0.013523,0.002678,0.000431,0.124345
71452000,0.0324,0.013523,0.002678,0.000431,0.096138
71453000,0.0324,0.013523,0.002678,0.000431,0.073573
71454000,0.0324,0.013523,0.002678,0.000431,0.062407
71455000,0.0324,0.013523,0.002678,0.000431,0.059469
71456000,0.0324,0.013523,0.002678,0.000431,0.045718
71457000,0.0324,0.013523,0.002678,0.000431,0.040195
71458000,0.0324,0.013523,0.002678,0.000431,0.032673
71459000,0.0324,0.013523,0.002678,0.000431,0.012458
71460000,0.0324,0.013523,0.002678,0.000431,0.009167
71461000,0.0324,0.013523,0.002678,0.000431,0.012811
71462000,0.0324,0.013523,0.002678,0.000431,0.013633
71463000,0.0324,0.013523,0.002678,0.000431,0.005759
71464000,0.0324,0.013523,0.002678,0.000431,0.005641
71465000,0.0324,0.013523,0.002678,0.000431,0.003761
71466000,0.0324,0.013523,0.002678,0.000431,0.005171
71467000,0.0324,0.013523,0.002678,0.000431,0.008109
71468000,0.0324,0.013523,0.002678,0.000431,0.003056
71469000,0.0324,0.013523,0.002678,0.000431,0.002703
71470000,0.0324,0.013523,0.002678,0.000431,0.001998
71471000,0.0324,0.013523,0.002678,0.000431,0.001763
71472000,0.0324,0.013523,0.002678,0.000431,0.003173
71473000,0.0324,0.013523,0.002678,0.000431,0.002703
71474000,0.0324,0.013523,0.002678,0.000431,0.000940
71475000,0.0324,0.013523,0.002678,0.000431,0.000823
71476000,0.0324,0.013523,0.002678,0.000431,0.000823
71477000,0.0324,0.013523,0.002678,0.000431,0.000940
71478000,0.0324,0.013523,0.002678,0.000431,0.000823
71479000,0.0324,0.013523,0.002678,0.000431,0.000823
71480000,0.0324,0.013523,0.002678,0.000431,0.000940
71481000,0.0324,0.013523,0.002678,0.000431,0.000823
71482000,0.0324,0.013523,0.002678,0.000431,0.000823
71483000,0.0324,0.013523,0.002678,0.000431,0.000940
71484000,0.0324,0.013523,0.002678,0.000431,0.000705
71485000,0.0324,0.013523,0.002678,0.000431,0.000940
71486000,0.0324,0.013523,0.002678,0.000431,0.000823
71487000,0.0324,0.013523,0.002678,0.000431,0.000823
71488000,0.0324,0.013523,0.002678,0.000431,0.274781
71489000,0.0324,0.013523,0.002678,0.000431,0.773335
71490000,0.0324,0.013523,0.002678,0.000431,0.431328
71491000,0.0324,0.013523,0.002678,0.000431,0.140681
71492000,0.0324,0.013523,0.002678,0.000431,0.584115
71493000,0.0324,0.013523,0.002678,0.000431,0.259855
71494000,0.0324,0.013523,0.002678,0.000431,0.307336
71495000,0.0324,0.013523,0.002678,0.000431,0.149378
71496000,0.0324,0.013523,0.002678,0.000431,0.130339
71497000,0.0324,0.013523,0.002678,0.000431,0.327081
71498000,0.0324,0.013523,0.002678,0.000431,0.477987
71499000,0.0324,0.013523,0.002678,0.000431,0.220013
71500000,0.0324,0.013523,0.002678,0.000431,0.179230
71501000,0.0324,0.013523,0.002678,0.000431,0.155372
71502000,0.0324,0.013523,0.002678,0.000431,0.125873
71503000,0.0324,0.013523,0.002678,0.000431,0.088851
71504000,0.0324,0.013523,0.002678,0.000431,0.084033
71505000,0.0324,0.013523,0.002678,0.000431,0.048304
71506000,0.0324,0.013523,0.002678,0.000431,0.049949
71507000,0.0324,0.013523,0.002678,0.000431,0.036316
71508000,0.0324,0.013523,0.002678,0.000431,0.030675
71509000,0.0324,0.013523,0.002678,0.000431,0.027384
71510000,0.0324,0.013523,0.002678,0.000431,0.026091
71511000,0.0324,0.013523,0.002678,0.000431,0.020450
71512000,0.0324,0.013523,0.002678,0.000431,0.019980
71513000,0.0324,0.013523,0.002678,0.000431,0.018452
71514000,0.0324,0.013523,0.002678,0.000431,0.010695
71515000,0.0324,0.013523,0.002678,0.000431,0.012340
71516000,0.0324,0.013523,0.002678,0.000431,0.011400
71517000,0.0324,0.013523,0.002678,0.000431,0.008462
71518000,0.0324,0.013523,0.002678,0.000431,0.007874
71519000,0.0324,0.013523,0.002678,0.000431,0.012693
71520000,0.0324,0.013523,0.002678,0.000431,0.005759
71521000,0.0324,0.013523,0.002678,0.000431,0.005876
71522000,0.0324,0.013523,0.002678,0.000431,0.013281
71523000,0.0324,0.013523,0.002678,0.000431,0.214842
71524000,0.0324,0.013523,0.002678,0.000431,0.778977
71525000,0.0324,0.013523,0.002678,0.000431,0.455892
71526000,0.0324,0.013523,0.002678,0.000431,0.141504
71527000,0.0324,0.013523,0.002678,0.000431,0.500788
71528000,0.0324,0.013523,0.002678,0.000431,0.243048
71529000,0.0324,0.013523,0.002678,0.000431,0.333780
71530000,0.0324,0.013523,0.002678,0.000431,0.181581
71531000,0.0324,0.013523,0.002678,0.000431,0.175117
71532000,0.0324,0.013523,0.002678,0.000431,0.147380
71533000,0.0324,0.013523,0.002678,0.000431,0.563313
71534000,0.0324,0.013523,0.002678,0.000431,0.233764
71535000,0.0324,0.013523,0.002678,0.000431,0.184872
71536000,0.0324,0.013523,0.002678,0.000431,0.161014
71537000,0.0324,0.013523,0.002678,0.000431,0.126343
71538000,0.0324,0.013523,0.002678,0.000431,0.095668
71539000,0.0324,0.013523,0.002678,0.000431,0.065816
71540000,0.0324,0.013523,0.002678,0.000431,0.061937
71541000,0.0324,0.013523,0.002678,0.000431,0.041135
71542000,0.0324,0.013523,0.002678,0.000431,0.033848
71543000,0.0324,0.013523,0.002678,0.000431,0.022800
71544000,0.0324,0.013523,0.002678,0.000431,0.020802
71545000,0.0324,0.013523,0.002678,0.000431,0.019275
71546000,0.0324,0.013523,0.002678,0.000431,0.014221
71547000,0.0324,0.013523,0.002678,0.000431,0.017042
71548000,0.0324,0.013523,0.002678,0.000431,0.014809
71549000,0.0324,0.013523,0.002678,0.000431,0.011283
71550000,0.0324,0.013523,0.002678,0.000431,0.013751
71551000,0.0324,0.013523,0.002678,0.000431,0.011635
71552000,0.0324,0.013523,0.002678,0.000431,0.010460
71553000,0.0324,0.013523,0.002678,0.000431,0.004936
71554000,0.0324,0.013523,0.002678,0.000431,0.005171
71555000,0.0324,0.013523,0.002678,0.000431,0.006817
71556000,0.0324,0.013523,0.002678,0.000431,0.004231
71557000,0.0324,0.013523,0.002678,0.000431,0.006934
71558000,0.0324,0.013523,0.002678,0.000431,0.003526
71559000,0.0324,0.013523,0.002678,0.000431,0.003291
71560000,0.0324,0.013523,0.002678,0.000431,0.003056
71561000,0.0324,0.013523,0.002678,0.000431,0.003526
71562000,0.0324,0.013523,0.002678,0.000431,0.003291
71563000,0.0324,0.013523,0.002678,0.000431,0.004231
71564000,0.0324,0.013523,0.002678,0.000431,0.002468
71565000,0.0324,0.013523,0.002678,0.000431,0.002351
71566000,0.0324,0.013523,0.002678,0.000431,0.004231
71567000,0.0324,0.013523,0.002678,0.000431,0.001528
71568000,0.0324,0.013523,0.002678,0.000431,0.001645
71569000,0.0324,0.013523,0.002678,0.000431,0.001645
71570000,0.0324,0.013523,0.002678,0.000431,0.001410
71571000,0.0324,0.013523,0.002678,0.000431,0.001645
71572000,0.0324,0.013523,0.002678,0.000431,0.001645
71573000,0.0324,0.013523,0.002678,0.000431,0.001645
71574000,0.0324,0.013523,0.002678,0.000431,0.001410
71575000,0.0324,0.013523,0.002678,0.000431,0.001645
71576000,0.0324,0.013523,0.002678,0.000431,0.001645
71577000,0.0324,0.013523,0.002678,0.000431,0.001410
71578000,0.0324,0.013523,0.002678,0.000431,0.001410
71579000,0.0324,0.013523,0.002678,0.000431,0.001645
71580000,0.0324,0.013523,0.002678,0.000431,0.001645
71581000,0.0324,0.013523,0.002678,0.000431,0.001410
71582000,0.0324,0.013523,0.002678,0.000431,0.001645
71583000,0.0324,0.013523,0.002678,0.000431,0.001645
71584000,0.0324,0.013523,0.002678,0.000431,0.001645
71585000,0.0324,0.013523,0.002678,0.000431,0.001528
71586000,0.0324,0.013523,0.002678,0.000431,0.001528
71587000,0.0324,0.013523,0.002678,0.000431,0.001058
71588000,0.0324,0.013523,0.002678,0.000431,0.001175
71589000,0.0324,0.013523,0.002678,0.000431,0.001528
71590000,0.0324,0.013523,0.002678,0.000431,0.001293
71591000,0.0324,0.013523,0.002678,0.000431,0.001645
71592000,0.0324,0.013523,0.002678,0.000431,0.001763
71593000,0.0324,0.013523,0.002678,0.000431,0.001058
71594000,0.0324,0.013523,0.002678,0.000431,0.001763
71595000,0.0324,0.013523,0.002678,0.000431,0.001410
71596000,0.0324,0.013523,0.002678,0.000431,0.001645
71597000,0.0324,0.013523,0.002678,0.000431,0.005054
71598000,0.0324,0.013523,0.002678,0.000431,0.467527
71599000,0.0324,0.013523,0.002678,0.000431,0.797899
71600000,0.0324,0.013523,0.002678,0.000431,0.215194
71601000,0.0324,0.013523,0.002678,0.000431,0.138213
71602000,0.0324,0.013523,0.002678,0.000431,0.559082
71603000,0.0324,0.013523,0.002678,0.000431,0.245516
71604000,0.0324,0.013523,0.002678,0.000431,0.344475
71605000,0.0324,0.013523,0.002678,0.000431,0.165715
71606000,0.0324,0.013523,0.002678,0.000431,0.119174
71607000,0.0324,0.013523,0.002678,0.000431,0.363632
71608000,0.0324,0.013523,0.002678,0.000431,0.454364
71609000,0.0324,0.013523,0.002678,0.000431,0.193569
71610000,0.0324,0.013523,0.002678,0.000431,0.166067
71611000,0.0324,0.013523,0.002678,0.000431,0.139036
71612000,0.0324,0.013523,0.002678,0.000431,0.122229
71613000,0.0324,0.013523,0.002678,0.000431,0.113062
71614000,0.0324,0.013523,0.002678,0.000431,0.079684
71615000,0.0324,0.013523,0.002678,0.000431,0.077451
71616000,0.0324,0.013523,0.002678,0.000431,0.039489
71617000,0.0324,0.013523,0.002678,0.000431,0.037139
71618000,0.0324,0.013523,0.002678,0.000431,0.025739
71619000,0.0324,0.013523,0.002678,0.000431,0.019627
71620000,0.0324,0.013523,0.002678,0.000431,0.012458
71621000,0.0324,0.013523,0.002678,0.000431,0.014456
71622000,0.0324,0.013523,0.002678,0.000431,0.007522
71623000,0.0324,0.013523,0.002678,0.000431,0.009167
71624000,0.0324,0.013523,0.002678,0.000431,0.008345
71625000,0.0324,0.013523,0.002678,0.000431,0.006582
71626000,0.0324,0.013523,0.002678,0.000431,0.009050
71627000,0.0324,0.013523,0.002678,0.000431,0.006464
71628000,0.0324,0.013523,0.002678,0.000431,0.006817
71629000,0.0324,0.013523,0.002678,0.000431,0.003643
71630000,0.0324,0.013523,0.002678,0.000431,0.003408
71631000,0.0324,0.013523,0.002678,0.000431,0.003408
71632000,0.0324,0.013523,0.002678,0.000431,0.005406
71633000,0.0324,0.013523,0.002678,0.000431,0.002586
71634000,0.0324,0.013523,0.002678,0.000431,0.002116
71635000,0.0324,0.013523,0.002678,0.000431,0.002586
71636000,0.0324,0.013523,0.002678,0.000431,0.002468
71637000,0.0324,0.013523,0.002678,0.000431,0.002233
71638000,0.0324,0.013523,0.002678,0.000431,0.002586
71639000,0.0324,0.013523,0.002678,0.000431,0.002233
71640000,0.0324,0.013523,0.002678,0.000431,0.002703
71641000,0.0324,0.013523,0.002678,0.000431,0.001998
71642000,0.0324,0.013523,0.002678,0.000431,0.002468
71643000,0.0324,0.013523,0.002678,0.000431,0.002703
71644000,0.0324,0.013523,0.002678,0.000431,0.002351
71645000,0.0324,0.013523,0.002678,0.000431,0.003996
71646000,0.0324,0.013523,0.002678,0.000431,0.001763
71647000,0.0324,0.013523,0.002678,0.000431,0.001880
71648000,0.0324,0.013523,0.002678,0.000431,0.002233
71649000,0.0324,0.013523,0.002678,0.000431,0.001528
71650000,0.0324,0.013523,0.002678,0.000431,0.001528
71651000,0.0324,0.013523,0.002678,0.000431,0.001880
71652000,0.0324,0.013523,0.002678,0.000431,0.001175
71653000,0.0324,0.013523,0.002678,0.000431,0.001645
71654000,0.0324,0.013523,0.002678,0.000431,0.001645
71655000,0.0324,0.013523,0.002678,0.000431,0.001410
71656000,0.0324,0.013523,0.002678,0.000431,0.001998
71657000,0.0324,0.013523,0.002678,0.000431,0.002703
71658000,0.0324,0.013523,0.002678,0.000431,0.002938
71659000,0.0324,0.013523,0.002678,0.000431,0.002351
71660000,0.0324,0.013523,0.002678,0.000431,0.001880
71661000,0.0324,0.013523,0.002678,0.000431,0.002233
71662000,0.0324,0.013523,0.002678,0.000431,0.002116
71663000,0.0324,0.013523,0.002678,0.000431,0.002468
71664000,0.0324,0.013523,0.002678,0.000431,0.002821
71665000,0.0324,0.013523,0.002678,0.000431,0.001998
71666000,0.0324,0.013523,0.002678,0.000431,0.001410
71667000,0.0324,0.013523,0.002678,0.000431,0.001293
71668000,0.0324,0.013523,0.002678,0.000431,0.258444
71669000,0.0324,0.013523,0.002678,0.000431,0.777331
71670000,0.0324,0.013523,0.002678,0.000431,0.439790
71671000,0.0324,0.013523,0.002678,0.000431,0.138683
71672000,0.0324,0.013523,0.002678,0.000431,0.527349
71673000,0.0324,0.013523,0.002678,0.000431,0.281480
71674000,0.0324,0.013523,0.002678,0.000431,0.340832
71675000,0.0324,0.013523,0.002678,0.000431,0.154079
71676000,0.0324,0.013523,0.002678,0.000431,0.134805
71677000,0.0324,0.013523,0.002678,0.000431,0.261030
71678000,0.0324,0.013523,0.002678,0.000431,0.518299
71679000,0.0324,0.013523,0.002678,0.000431,0.174764
71680000,0.0324,0.013523,0.002678,0.000431,0.161484
71681000,0.0324,0.013523,0.002678,0.000431,0.135157
71682000,0.0324,0.013523,0.002678,0.000431,0.096726
71683000,0.0324,0.013523,0.002678,0.000431,0.076511
71684000,0.0324,0.013523,0.002678,0.000431,0.049832
71685000,0.0324,0.013523,0.002678,0.000431,0.040900
71686000,0.0324,0.013523,0.002678,0.000431,0.028559
71687000,0.0324,0.013523,0.002678,0.000431,0.015161
71688000,0.0324,0.013523,0.002678,0.000431,0.002586
71689000,0.0324,0.013523,0.002678,0.000431,0.002468
71690000,0.0324,0.013523,0.002678,0.000431,0.004466
71691000,0.0324,0.013523,0.002678,0.000431,0.004113
71692000,0.0324,0.013523,0.002678,0.000431,0.001058
71693000,0.0324,0.013523,0.002678,0.000431,0.000705
71694000,0.0324,0.013523,0.002678,0.000431,0.000940
71695000,0.0324,0.013523,0.002678,0.000431,0.000940
71696000,0.0324,0.013523,0.002678,0.000431,0.112827
71697000,0.0324,0.013523,0.002678,0.000431,0.851609
71698000,0.0324,0.013523,0.002678,0.000431,0.463884
71699000,0.0324,0.013523,0.002678,0.000431,0.139623
71700000,0.0324,0.013523,0.002678,0.000431,0.459653
71701000,0.0324,0.013523,0.002678,0.000431,0.240933
71702000,0.0324,0.013523,0.002678,0.000431,0.342947
71703000,0.0324,0.013523,0.002678,0.000431,0.183697
71704000,0.0324,0.013523,0.002678,0.000431,0.169946
71705000,0.0324,0.013523,0.002678,0.000431,0.153727
71706000,0.0324,0.013523,0.002678,0.000431,0.590579
71707000,0.0324,0.013523,0.002678,0.000431,0.253861
71708000,0.0324,0.013523,0.002678,0.000431,0.219308
71709000,0.0324,0.013523,0.002678,0.000431,0.171239
71710000,0.0324,0.013523,0.002678,0.000431,0.144795
71711000,0.0324,0.013523,0.002678,0.000431,0.113180
71712000,0.0324,0.013523,0.002678,0.000431,0.103895
71713000,0.0324,0.013523,0.002678,0.000431,0.070752
71714000,0.0324,0.013523,0.002678,0.000431,0.062878
71715000,0.0324,0.013523,0.002678,0.000431,0.057589
71716000,0.0324,0.013523,0.002678,0.000431,0.047834
71717000,0.0324,0.013523,0.002678,0.000431,0.045718
71718000,0.0324,0.013523,0.002678,0.000431,0.037844
71719000,0.0324,0.013523,0.002678,0.000431,0.030205
71720000,0.0324,0.013523,0.002678,0.000431,0.026326
71721000,0.0324,0.013523,0.002678,0.000431,0.022800
71722000,0.0324,0.013523,0.002678,0.000431,0.024681
71723000,0.0324,0.013523,0.002678,0.000431,0.017864
71724000,0.0324,0.013523,0.002678,0.000431,0.017747
71725000,0.0324,0.013523,0.002678,0.000431,0.014103
71726000,0.0324,0.013523,0.002678,0.000431,0.011635
71727000,0.0324,0.013523,0.002678,0.000431,0.013046
71728000,0.0324,0.013523,0.002678,0.000431,0.011283
71729000,0.0324,0.013523,0.002678,0.000431,0.011400
71730000,0.0324,0.013523,0.002678,0.000431,0.007874
71731000,0.0324,0.013523,0.002678,0.000431,0.009402
71732000,0.0324,0.013523,0.002678,0.000431,0.009285
71733000,0.0324,0.013523,0.002678,0.000431,0.012223
71734000,0.0324,0.013523,0.002678,0.000431,0.007522
71735000,0.0324,0.013523,0.002678,0.000431,0.007757
71736000,0.0324,0.013523,0.002678,0.000431,0.006699
71737000,0.0324,0.013523,0.002678,0.000431,0.008697
71738000,0.0324,0.013523,0.002678,0.000431,0.006699
71739000,0.0324,0.013523,0.002678,0.000431,0.004231
71740000,0.0324,0.013523,0.002678,0.000431,0.004231
71741000,0.0324,0.013523,0.002678,0.000431,0.003526
71742000,0.0324,0.013523,0.002678,0.000431,0.004349
71743000,0.0324,0.013523,0.002678,0.000431,0.003173
71744000,0.0324,0.013523,0.002678,0.000431,0.004349
71745000,0.0324,0.013523,0.002678,0.000431,0.003761
71746000,0.0324,0.013523,0.002678,0.000431,0.005289
71747000,0.0324,0.013523,0.002678,0.000431,0.003408
71748000,0.0324,0.013523,0.002678,0.000431,0.003056
71749000,0.0324,0.013523,0.002678,0.000431,0.002938
71750000,0.0324,0.013523,0.002678,0.000431,0.003056
71751000,0.0324,0.013523,0.002678,0.000431,0.003173
71752000,0.0324,0.013523,0.002678,0.000431,0.003408
71753000,0.0324,0.013523,0.002678,0.000431,0.005759
71754000,0.0324,0.013523,0.002678,0.000431,0.000823
71755000,0.0324,0.013523,0.002678,0.000431,0.265966
71756000,0.0324,0.013523,0.002678,0.000431,0.792493
71757000,0.0324,0.013523,0.002678,0.000431,0.449898
71758000,0.0324,0.013523,0.002678,0.000431,0.141739
71759000,0.0324,0.013523,0.002678,0.000431,0.522413
71760000,0.0324,0.013523,0.002678,0.000431,0.282303
71761000,0.0324,0.013523,0.002678,0.000431,0.323085
71762000,0.0324,0.013523,0.002678,0.000431,0.148203
71763000,0.0324,0.013523,0.002678,0.000431,0.155372
71764000,0.0324,0.013523,0.002678,0.000431,0.236349
71765000,0.0324,0.013523,0.002678,0.000431,0.544038
71766000,0.0324,0.013523,0.002678,0.000431,0.218485
71767000,0.0324,0.013523,0.002678,0.000431,0.185107
71768000,0.0324,0.013523,0.002678,0.000431,0.167008
71769000,0.0324,0.013523,0.002678,0.000431,0.138918
71770000,0.0324,0.013523,0.002678,0.000431,0.096491
71771000,0.0324,0.013523,0.002678,0.000431,0.084620
71772000,0.0324,0.013523,0.002678,0.000431,0.063465
71773000,0.0324,0.013523,0.002678,0.000431,0.052770
71774000,0.0324,0.013523,0.002678,0.000431,0.050302
71775000,0.0324,0.013523,0.002678,0.000431,0.035964
71776000,0.0324,0.013523,0.002678,0.000431,0.030557
71777000,0.0324,0.013523,0.002678,0.000431,0.034553
71778000,0.0324,0.013523,0.002678,0.000431,0.028677
71779000,0.0324,0.013523,0.002678,0.000431,0.022448
71780000,0.0324,0.013523,0.002678,0.000431,0.021978
71781000,0.0324,0.013523,0.002678,0.000431,0.020450
71782000,0.0324,0.013523,0.002678,0.000431,0.012105
71783000,0.0324,0.013523,0.002678,0.000431,0.013281
71784000,0.0324,0.013523,0.002678,0.000431,0.014103
71785000,0.0324,0.013523,0.002678,0.000431,0.010813
71786000,0.0324,0.013523,0.002678,0.000431,0.010107
71787000,0.0324,0.013523,0.002678,0.000431,0.010460
71788000,0.0324,0.013523,0.002678,0.000431,0.010578
71789000,0.0324,0.013523,0.002678,0.000431,0.010930
71790000,0.0324,0.013523,0.002678,0.000431,0.012811
71791000,0.0324,0.013523,0.002678,0.000431,0.008697
71792000,0.0324,0.013523,0.002678,0.000431,0.008345
71793000,0.0324,0.013523,0.002678,0.000431,0.008462
71794000,0.0324,0.013523,0.002678,0.000431,0.009990
71795000,0.0324,0.013523,0.002678,0.000431,0.009755
71796000,0.0324,0.013523,0.002678,0.000431,0.006111
71797000,0.0324,0.013523,0.002678,0.000431,0.005994
71798000,0.0324,0.013523,0.002678,0.000431,0.006111
71799000,0.0324,0.013523,0.002678,0.000431,0.006464
71800000,0.0324,0.013523,0.002678,0.000431,0.005759
71801000,0.0324,0.013523,0.002678,0.000431,0.006229
71802000,0.0324,0.013523,0.002678,0.000431,0.006111
71803000,0.0324,0.013523,0.002678,0.000431,0.005054
71804000,0.0324,0.013523,0.002678,0.000431,0.005289
71805000,0.0324,0.013523,0.002678,0.000431,0.005759
71806000,0.0324,0.013523,0.002678,0.000431,0.008932
71807000,0.0324,0.013523,0.002678,0.000431,0.003173
71808000,0.0324,0.013523,0.002678,0.000431,0.004584
71809000,0.0324,0.013523,0.002678,0.000431,0.003643
71810000,0.0324,0.013523,0.002678,0.000431,0.003291
71811000,0.0324,0.013523,0.002678,0.000431,0.003996
71812000,0.0324,0.013523,0.002678,0.000431,0.008462
71813000,0.0324,0.013523,0.002678,0.000431,0.001410
71814000,0.0324,0.013523,0.002678,0.000431,0.002586
71815000,0.0324,0.013523,0.002678,0.000431,0.001645
71816000,0.0324,0.013523,0.002678,0.000431,0.001880
71817000,0.0324,0.013523,0.002678,0.000431,0.002116
71818000,0.0324,0.013523,0.002678,0.000431,0.001998
71819000,0.0324,0.013523,0.002678,0.000431,0.001763
71820000,0.0324,0.013523,0.002678,0.000431,0.001998
71821000,0.0324,0.013523,0.002678,0.000431,0.001410
71822000,0.0324,0.013523,0.002678,0.000431,0.001645
71823000,0.0324,0.013523,0.002678,0.000431,0.001175
71824000,0.0324,0.013523,0.002678,0.000431,0.001410
71825000,0.0324,0.013523,0.002678,0.000431,0.001645
71826000,0.0324,0.013523,0.002678,0.000431,0.001763
71827000,0.0324,0.013523,0.002678,0.000431,0.000705
71828000,0.0324,0.013523,0.002678,0.000431,0.000940
71829000,0.0324,0.013523,0.002678,0.000431,0.000705
71830000,0.0324,0.013523,0.002678,0.000431,0.000940
71831000,0.0324,0.013523,0.002678,0.000431,0.000823
71832000,0.0324,0.013523,0.002678,0.000431,0.000823
71833000,0.0324,0.013523,0.002678,0.000431,0.000705
71834000,0.0324,0.013523,0.002678,0.000431,0.000940
71835000,0.0324,0.013523,0.002678,0.000431,0.000940
71836000,0.0324,0.013523,0.002678,0.000431,0.000705
71837000,0.0324,0.013523,0.002678,0.000431,0.000940
71838000,0.0324,0.013523,0.002678,0.000431,0.000823
71839000,0.0324,0.013523,0.002678,0.000431,0.000823
71840000,0.0324,0.013523,0.002678,0.000431,0.000940
71841000,0.0324,0.013523,0.002678,0.000431,0.000705
71842000,0.0324,0.013523,0.002678,0.000431,0.000940
71843000,0.0324,0.013523,0.002678,0.000431,0.000823
71844000,0.0324,0.013523,0.002678,0.000431,0.000823
71845000,0.0324,0.013523,0.002678,0.000431,0.000940
71846000,0.0324,0.013523,0.002678,0.000431,0.000823
71847000,0.0324,0.013523,0.002678,0.000431,0.000823
71848000,0.0324,0.013523,0.002678,0.000431,0.000940
71849000,0.0324,0.013523,0.002678,0.000431,0.000705
71850000,0.0324,0.013523,0.002678,0.000431,0.000940
71851000,0.0324,0.013523,0.002678,0.000431,0.000823
71852000,0.0324,0.013523,0.002678,0.000431,0.000823
71853000,0.0324,0.013523,0.002678,0.000431,0.000940
71854000,0.0324,0.013523,0.002678,0.000431,0.000823
71855000,0.0324,0.013523,0.002678,0.000431,0.000823
71856000,0.0324,0.013523,0.002678,0.000431,0.000940
71857000,0.0324,0.013523,0.002678,0.000431,0.000705
71858000,0.0324,0.013523,0.002678,0.000431,0.000940
71859000,0.0324,0.013523,0.002678,0.000431,0.000823
71860000,0.0324,0.013523,0.002678,0.000431,0.000823
71861000,0.0324,0.013523,0.002678,0.000431,0.000940
71862000,0.0324,0.013523,0.002678,0.000431,0.020920
71863000,0.0324,0.013523,0.002678,0.000431,0.865125
71864000,0.0324,0.013523,0.002678,0.000431,0.529700
71865000,0.0324,0.013523,0.002678,0.000431,0.146440
71866000,0.0324,0.013523,0.002678,0.000431,0.230590
71867000,0.0324,0.013523,0.002678,0.000431,0.474226
71868000,0.0324,0.013523,0.002678,0.000431,0.305103
71869000,0.0324,0.013523,0.002678,0.000431,0.265144
71870000,0.0324,0.013523,0.002678,0.000431,0.187928
71871000,0.0324,0.013523,0.002678,0.000431,0.085561
71872000,0.0324,0.013523,0.002678,0.000431,0.580002
71873000,0.0324,0.013523,0.002678,0.000431,0.211433
71874000,0.0324,0.013523,0.002678,0.000431,0.172531
71875000,0.0324,0.013523,0.002678,0.000431,0.161249
71876000,0.0324,0.013523,0.002678,0.000431,0.138331
71877000,0.0324,0.013523,0.002678,0.000431,0.131514
71878000,0.0324,0.013523,0.002678,0.000431,0.108243
71879000,0.0324,0.013523,0.002678,0.000431,0.094845
71880000,0.0324,0.013523,0.002678,0.000431,0.066874
71881000,0.0324,0.013523,0.002678,0.000431,0.056414
71882000,0.0324,0.013523,0.002678,0.000431,0.051947
71883000,0.0324,0.013523,0.002678,0.000431,0.035258
71884000,0.0324,0.013523,0.002678,0.000431,0.035258
71885000,0.0324,0.013523,0.002678,0.000431,0.029617
71886000,0.0324,0.013523,0.002678,0.000431,0.028794
71887000,0.0324,0.013523,0.002678,0.000431,0.026326
71888000,0.0324,0.013523,0.002678,0.000431,0.027031
71889000,0.0324,0.013523,0.002678,0.000431,0.030792
71890000,0.0324,0.013523,0.002678,0.000431,0.027972
71891000,0.0324,0.013523,0.002678,0.000431,0.021743
71892000,0.0324,0.013523,0.002678,0.000431,0.020215
71893000,0.0324,0.013523,0.002678,0.000431,0.020685
71894000,0.0324,0.013523,0.002678,0.000431,0.019275
71895000,0.0324,0.013523,0.002678,0.000431,0.025269
71896000,0.0324,0.013523,0.002678,0.000431,0.018217
71897000,0.0324,0.013523,0.002678,0.000431,0.019510
71898000,0.0324,0.013523,0.002678,0.000431,0.018452
71899000,0.0324,0.013523,0.002678,0.000431,0.019862
71900000,0.0324,0.013523,0.002678,0.000431,0.019275
71901000,0.0324,0.013523,0.002678,0.000431,0.018569
71902000,0.0324,0.013523,0.002678,0.000431,0.020450
71903000,0.0324,0.013523,0.002678,0.000431,0.018922
71904000,0.0324,0.013523,0.002678,0.000431,0.018452
71905000,0.0324,0.013523,0.002678,0.000431,0.018687
71906000,0.0324,0.013523,0.002678,0.000431,0.017277
71907000,0.0324,0.013523,0.002678,0.000431,0.019862
71908000,0.0324,0.013523,0.002678,0.000431,0.018334
71909000,0.0324,0.013523,0.002678,0.000431,0.018217
71910000,0.0324,0.013523,0.002678,0.000431,0.021155
71911000,0.0324,0.013523,0.002678,0.000431,0.017159
71912000,0.0324,0.013523,0.002678,0.000431,0.018099
71913000,0.0324,0.013523,0.002678,0.000431,0.017629
71914000,0.0324,0.013523,0.002678,0.000431,0.016807
71915000,0.0324,0.013523,0.002678,0.000431,0.021155
71916000,0.0324,0.013523,0.002678,0.000431,0.014221
71917000,0.0324,0.013523,0.002678,0.000431,0.014456
71918000,0.0324,0.013523,0.002678,0.000431,0.015161
71919000,0.0324,0.013523,0.002678,0.000431,0.013751
71920000,0.0324,0.013523,0.002678,0.000431,0.014926
71921000,0.0324,0.013523,0.002678,0.000431,0.015279
71922000,0.0324,0.013523,0.002678,0.000431,0.012693
71923000,0.0324,0.013523,0.002678,0.000431,0.013751
71924000,0.0324,0.013523,0.002678,0.000431,0.011283
71925000,0.0324,0.013523,0.002678,0.000431,0.014573
71926000,0.0324,0.013523,0.002678,0.000431,0.007757
71927000,0.0324,0.013523,0.002678,0.000431,0.009637
71928000,0.0324,0.013523,0.002678,0.000431,0.005406
71929000,0.0324,0.013523,0.002678,0.000431,0.005289
71930000,0.0324,0.013523,0.002678,0.000431,0.007052
71931000,0.0324,0.013523,0.002678,0.000431,0.004113
71932000,0.0324,0.013523,0.002678,0.000431,0.004584
71933000,0.0324,0.013523,0.002678,0.000431,0.004113
71934000,0.0324,0.013523,0.002678,0.000431,0.005289
71935000,0.0324,0.013523,0.002678,0.000431,0.002586
71936000,0.0324,0.013523,0.002678,0.000431,0.002703
71937000,0.0324,0.013523,0.002678,0.000431,0.002703
71938000,0.0324,0.013523,0.002678,0.000431,0.006582
71939000,0.0324,0.013523,0.002678,0.000431,0.000940
71940000,0.0324,0.013523,0.002678,0.000431,0.000940
71941000,0.0324,0.013523,0.002678,0.000431,0.000823
71942000,0.0324,0.013523,0.002678,0.000431,0.000823
71943000,0.0324,0.013523,0.002678,0.000431,0.015279
71944000,0.0324,0.013523,0.002678,0.000431,0.808241
71945000,0.0324,0.013523,0.002678,0.000431,0.527114
71946000,0.0324,0.013523,0.002678,0.000431,0.139153
71947000,0.0324,0.013523,0.002678,0.000431,0.190983
71948000,0.0324,0.013523,0.002678,0.000431,0.484804
71949000,0.0324,0.013523,0.002678,0.000431,0.298522
71950000,0.0324,0.013523,0.002678,0.000431,0.260442
71951000,0.0324,0.013523,0.002678,0.000431,0.167830
71952000,0.0324,0.013523,0.002678,0.000431,0.111299
71953000,0.0324,0.013523,0.002678,0.000431,0.513951
71954000,0.0324,0.013523,0.002678,0.000431,0.211198
71955000,0.0324,0.013523,0.002678,0.000431,0.093670
71956000,0.0324,0.013523,0.002678,0.000431,0.095080
71957000,0.0324,0.013523,0.002678,0.000431,0.075218
71958000,0.0324,0.013523,0.002678,0.000431,0.060762
71959000,0.0324,0.013523,0.002678,0.000431,0.055591
71960000,0.0324,0.013523,0.002678,0.000431,0.045483
71961000,0.0324,0.013523,0.002678,0.000431,0.031968
71962000,0.0324,0.013523,0.002678,0.000431,0.017864
71963000,0.0324,0.013523,0.002678,0.000431,0.013986
71964000,0.0324,0.013523,0.002678,0.000431,0.011518
71965000,0.0324,0.013523,0.002678,0.000431,0.005759
71966000,0.0324,0.013523,0.002678,0.000431,0.007874
71967000,0.0324,0.013523,0.002678,0.000431,0.004231
71968000,0.0324,0.013523,0.002678,0.000431,0.006111
71969000,0.0324,0.013523,0.002678,0.000431,0.007169
71970000,0.0324,0.013523,0.002678,0.000431,0.001763
71971000,0.0324,0.013523,0.002678,0.000431,0.001645
71972000,0.0324,0.013523,0.002678,0.000431,0.002821
71973000,0.0324,0.013523,0.002678,0.000431,0.002351
71974000,0.0324,0.013523,0.002678,0.000431,0.000940
71975000,0.0324,0.013523,0.002678,0.000431,0.000940
71976000,0.0324,0.013523,0.002678,0.000431,0.000823
71977000,0.0324,0.013523,0.002678,0.000431,0.000823
71978000,0.0324,0.013523,0.002678,0.000431,0.000940
71979000,0.0324,0.013523,0.002678,0.000431,0.000823
71980000,0.0324,0.013523,0.002678,0.000431,0.000823
71981000,0.0324,0.013523,0.002678,0.000431,0.000940
71982000,0.0324,0.013523,0.002678,0.000431,0.000940
71983000,0.0324,0.013523,0.002678,0.000431,0.000940
71984000,0.0324,0.013523,0.002678,0.000431,0.000705
71985000,0.0324,0.013523,0.002678,0.000431,0.000940
71986000,0.0324,0.013523,0.002678,0.000431,0.000705
71987000,0.0324,0.013523,0.002678,0.000431,0.000940
71988000,0.0324,0.013523,0.002678,0.000431,0.000823
71989000,0.0324,0.013523,0.002678,0.000431,0.000823
71990000,0.0324,0.013523,0.002678,0.000431,0.000705
71991000,0.0324,0.013523,0.002678,0.000431,0.000940
71992000,0.0324,0.013523,0.002678,0.000431,0.000940
71993000,0.0324,0.013523,0.002678,0.000431,0.000705
71994000,0.0324,0.013523,0.002678,0.000431,0.000940
71995000,0.0324,0.013523,0.002678,0.000431,0.001058
71996000,0.0324,0.013523,0.002678,0.000431,0.083092
71997000,0.0324,0.013523,0.002678,0.000431,0.752180
71998000,0.0324,0.013523,0.002678,0.000431,0.485156
71999000,0.0324,0.013523,0.002678,0.000431,0.137273
