Cycle,Area(mm^2),PeakDynamic(W),SubthresholdLeakage(W),GateLeakage(W),RunTimeDynamic(W)
135000000,0.0324,0.013523,0.002678,0.000431,0.026209
135001000,0.0324,0.013523,0.002678,0.000431,0.025974
135002000,0.0324,0.013523,0.002678,0.000431,0.018922
135003000,0.0324,0.013523,0.002678,0.000431,0.029970
135004000,0.0324,0.013523,0.002678,0.000431,0.010342
135005000,0.0324,0.013523,0.002678,0.000431,0.016689
135006000,0.0324,0.013523,0.002678,0.000431,0.009285
135007000,0.0324,0.013523,0.002678,0.000431,0.011048
135008000,0.0324,0.013523,0.002678,0.000431,0.012340
135009000,0.0324,0.013523,0.002678,0.000431,0.005759
135010000,0.0324,0.013523,0.002678,0.000431,0.005759
135011000,0.0324,0.013523,0.002678,0.000431,0.003761
135012000,0.0324,0.013523,0.002678,0.000431,0.003878
135013000,0.0324,0.013523,0.002678,0.000431,0.007404
135014000,0.0324,0.013523,0.002678,0.000431,0.002468
135015000,0.0324,0.013523,0.002678,0.000431,0.002351
135016000,0.0324,0.013523,0.002678,0.000431,0.002116
135017000,0.0324,0.013523,0.002678,0.000431,0.002233
135018000,0.0324,0.013523,0.002678,0.000431,0.004113
135019000,0.0324,0.013523,0.002678,0.000431,0.000705
135020000,0.0324,0.013523,0.002678,0.000431,0.000940
135021000,0.0324,0.013523,0.002678,0.000431,0.000823
135022000,0.0324,0.013523,0.002678,0.000431,0.000823
135023000,0.0324,0.013523,0.002678,0.000431,0.000940
135024000,0.0324,0.013523,0.002678,0.000431,0.000705
135025000,0.0324,0.013523,0.002678,0.000431,0.016336
135026000,0.0324,0.013523,0.002678,0.000431,0.968432
135027000,0.0324,0.013523,0.002678,0.000431,0.529582
135028000,0.0324,0.013523,0.002678,0.000431,0.246457
135029000,0.0324,0.013523,0.002678,0.000431,0.162071
135030000,0.0324,0.013523,0.002678,0.000431,0.580824
135031000,0.0324,0.013523,0.002678,0.000431,0.251040
135032000,0.0324,0.013523,0.002678,0.000431,0.369274
135033000,0.0324,0.013523,0.002678,0.000431,0.155960
135034000,0.0324,0.013523,0.002678,0.000431,0.127988
135035000,0.0324,0.013523,0.002678,0.000431,0.313918
135036000,0.0324,0.013523,0.002678,0.000431,0.545801
135037000,0.0324,0.013523,0.002678,0.000431,0.271725
135038000,0.0324,0.013523,0.002678,0.000431,0.234704
135039000,0.0324,0.013523,0.002678,0.000431,0.193686
135040000,0.0324,0.013523,0.002678,0.000431,0.166537
135041000,0.0324,0.013523,0.002678,0.000431,0.150906
135042000,0.0324,0.013523,0.002678,0.000431,0.099429
135043000,0.0324,0.013523,0.002678,0.000431,0.110359
135044000,0.0324,0.013523,0.002678,0.000431,0.065698
135045000,0.0324,0.013523,0.002678,0.000431,0.059704
135046000,0.0324,0.013523,0.002678,0.000431,0.051125
135047000,0.0324,0.013523,0.002678,0.000431,0.046071
135048000,0.0324,0.013523,0.002678,0.000431,0.037962
135049000,0.0324,0.013523,0.002678,0.000431,0.029735
135050000,0.0324,0.013523,0.002678,0.000431,0.031498
135051000,0.0324,0.013523,0.002678,0.000431,0.021038
135052000,0.0324,0.013523,0.002678,0.000431,0.020567
135053000,0.0324,0.013523,0.002678,0.000431,0.016689
135054000,0.0324,0.013523,0.002678,0.000431,0.008462
135055000,0.0324,0.013523,0.002678,0.000431,0.007992
135056000,0.0324,0.013523,0.002678,0.000431,0.011048
135057000,0.0324,0.013523,0.002678,0.000431,0.015044
135058000,0.0324,0.013523,0.002678,0.000431,0.009050
135059000,0.0324,0.013523,0.002678,0.000431,0.003408
135060000,0.0324,0.013523,0.002678,0.000431,0.003526
135061000,0.0324,0.013523,0.002678,0.000431,0.009050
135062000,0.0324,0.013523,0.002678,0.000431,0.001763
135063000,0.0324,0.013523,0.002678,0.000431,0.001880
135064000,0.0324,0.013523,0.002678,0.000431,0.001645
135065000,0.0324,0.013523,0.002678,0.000431,0.004584
135066000,0.0324,0.013523,0.002678,0.000431,0.000823
135067000,0.0324,0.013523,0.002678,0.000431,0.000823
135068000,0.0324,0.013523,0.002678,0.000431,0.000705
135069000,0.0324,0.013523,0.002678,0.000431,0.000940
135070000,0.0324,0.013523,0.002678,0.000431,0.317209
135071000,0.0324,0.013523,0.002678,0.000431,0.860071
135072000,0.0324,0.013523,0.002678,0.000431,0.423454
135073000,0.0324,0.013523,0.002678,0.000431,0.156900
135074000,0.0324,0.013523,0.002678,0.000431,0.472463
135075000,0.0324,0.013523,0.002678,0.000431,0.352467
135076000,0.0324,0.013523,0.002678,0.000431,0.303928
135077000,0.0324,0.013523,0.002678,0.000431,0.265614
135078000,0.0324,0.013523,0.002678,0.000431,0.163482
135079000,0.0324,0.013523,0.002678,0.000431,0.107421
135080000,0.0324,0.013523,0.002678,0.000431,0.517359
135081000,0.0324,0.013523,0.002678,0.000431,0.441553
135082000,0.0324,0.013523,0.002678,0.000431,0.332487
135083000,0.0324,0.013523,0.002678,0.000431,0.269140
135084000,0.0324,0.013523,0.002678,0.000431,0.234821
135085000,0.0324,0.013523,0.002678,0.000431,0.198388
135086000,0.0324,0.013523,0.002678,0.000431,0.174177
135087000,0.0324,0.013523,0.002678,0.000431,0.145500
135088000,0.0324,0.013523,0.002678,0.000431,0.123405
135089000,0.0324,0.013523,0.002678,0.000431,0.106128
135090000,0.0324,0.013523,0.002678,0.000431,0.086501
135091000,0.0324,0.013523,0.002678,0.000431,0.068989
135092000,0.0324,0.013523,0.002678,0.000431,0.071927
135093000,0.0324,0.013523,0.002678,0.000431,0.065698
135094000,0.0324,0.013523,0.002678,0.000431,0.055943
135095000,0.0324,0.013523,0.002678,0.000431,0.050890
135096000,0.0324,0.013523,0.002678,0.000431,0.042075
135097000,0.0324,0.013523,0.002678,0.000431,0.036434
135098000,0.0324,0.013523,0.002678,0.000431,0.031498
135099000,0.0324,0.013523,0.002678,0.000431,0.029735
135100000,0.0324,0.013523,0.002678,0.000431,0.022565
135101000,0.0324,0.013523,0.002678,0.000431,0.018217
135102000,0.0324,0.013523,0.002678,0.000431,0.016454
135103000,0.0324,0.013523,0.002678,0.000431,0.014221
135104000,0.0324,0.013523,0.002678,0.000431,0.015514
135105000,0.0324,0.013523,0.002678,0.000431,0.009637
135106000,0.0324,0.013523,0.002678,0.000431,0.012811
135107000,0.0324,0.013523,0.002678,0.000431,0.013281
135108000,0.0324,0.013523,0.002678,0.000431,0.006934
135109000,0.0324,0.013523,0.002678,0.000431,0.014338
135110000,0.0324,0.013523,0.002678,0.000431,0.007169
135111000,0.0324,0.013523,0.002678,0.000431,0.006111
135112000,0.0324,0.013523,0.002678,0.000431,0.004113
135113000,0.0324,0.013523,0.002678,0.000431,0.006111
135114000,0.0324,0.013523,0.002678,0.000431,0.005641
135115000,0.0324,0.013523,0.002678,0.000431,0.006464
135116000,0.0324,0.013523,0.002678,0.000431,0.002351
135117000,0.0324,0.013523,0.002678,0.000431,0.008109
135118000,0.0324,0.013523,0.002678,0.000431,0.001058
135119000,0.0324,0.013523,0.002678,0.000431,0.000705
135120000,0.0324,0.013523,0.002678,0.000431,0.000940
135121000,0.0324,0.013523,0.002678,0.000431,0.000705
135122000,0.0324,0.013523,0.002678,0.000431,0.000940
135123000,0.0324,0.013523,0.002678,0.000431,0.001998
135124000,0.0324,0.013523,0.002678,0.000431,0.595280
135125000,0.0324,0.013523,0.002678,0.000431,0.765931
135126000,0.0324,0.013523,0.002678,0.000431,0.318266
135127000,0.0324,0.013523,0.002678,0.000431,0.162894
135128000,0.0324,0.013523,0.002678,0.000431,0.549327
135129000,0.0324,0.013523,0.002678,0.000431,0.267964
135130000,0.0324,0.013523,0.002678,0.000431,0.338011
135131000,0.0324,0.013523,0.002678,0.000431,0.207555
135132000,0.0324,0.013523,0.002678,0.000431,0.193922
135133000,0.0324,0.013523,0.002678,0.000431,0.088029
135134000,0.0324,0.013523,0.002678,0.000431,0.577416
135135000,0.0324,0.013523,0.002678,0.000431,0.397245
135136000,0.0324,0.013523,0.002678,0.000431,0.292880
135137000,0.0324,0.013523,0.002678,0.000431,0.222481
135138000,0.0324,0.013523,0.002678,0.000431,0.209200
135139000,0.0324,0.013523,0.002678,0.000431,0.163482
135140000,0.0324,0.013523,0.002678,0.000431,0.164187
135141000,0.0324,0.013523,0.002678,0.000431,0.123522
135142000,0.0324,0.013523,0.002678,0.000431,0.111299
135143000,0.0324,0.013523,0.002678,0.000431,0.087206
135144000,0.0324,0.013523,0.002678,0.000431,0.076746
135145000,0.0324,0.013523,0.002678,0.000431,0.072515
135146000,0.0324,0.013523,0.002678,0.000431,0.051242
135147000,0.0324,0.013523,0.002678,0.000431,0.049714
135148000,0.0324,0.013523,0.002678,0.000431,0.038197
135149000,0.0324,0.013523,0.002678,0.000431,0.038784
135150000,0.0324,0.013523,0.002678,0.000431,0.048304
135151000,0.0324,0.013523,0.002678,0.000431,0.021508
135152000,0.0324,0.013523,0.002678,0.000431,0.025386
135153000,0.0324,0.013523,0.002678,0.000431,0.022448
135154000,0.0324,0.013523,0.002678,0.000431,0.029852
135155000,0.0324,0.013523,0.002678,0.000431,0.011283
135156000,0.0324,0.013523,0.002678,0.000431,0.008697
135157000,0.0324,0.013523,0.002678,0.000431,0.007757
135158000,0.0324,0.013523,0.002678,0.000431,0.009285
135159000,0.0324,0.013523,0.002678,0.000431,0.002703
135160000,0.0324,0.013523,0.002678,0.000431,0.002938
135161000,0.0324,0.013523,0.002678,0.000431,0.005289
135162000,0.0324,0.013523,0.002678,0.000431,0.002703
135163000,0.0324,0.013523,0.002678,0.000431,0.002351
135164000,0.0324,0.013523,0.002678,0.000431,0.211081
135165000,0.0324,0.013523,0.002678,0.000431,0.860541
135166000,0.0324,0.013523,0.002678,0.000431,0.545213
135167000,0.0324,0.013523,0.002678,0.000431,0.151024
135168000,0.0324,0.013523,0.002678,0.000431,0.274076
135169000,0.0324,0.013523,0.002678,0.000431,0.568954
135170000,0.0324,0.013523,0.002678,0.000431,0.274311
135171000,0.0324,0.013523,0.002678,0.000431,0.266436
135172000,0.0324,0.013523,0.002678,0.000431,0.161484
135173000,0.0324,0.013523,0.002678,0.000431,0.104012
135174000,0.0324,0.013523,0.002678,0.000431,0.426392
135175000,0.0324,0.013523,0.002678,0.000431,0.466822
135176000,0.0324,0.013523,0.002678,0.000431,0.284183
135177000,0.0324,0.013523,0.002678,0.000431,0.259855
135178000,0.0324,0.013523,0.002678,0.000431,0.227652
135179000,0.0324,0.013523,0.002678,0.000431,0.185459
135180000,0.0324,0.013523,0.002678,0.000431,0.183344
135181000,0.0324,0.013523,0.002678,0.000431,0.156900
135182000,0.0324,0.013523,0.002678,0.000431,0.150319
135183000,0.0324,0.013523,0.002678,0.000431,0.127283
135184000,0.0324,0.013523,0.002678,0.000431,0.102837
135185000,0.0324,0.013523,0.002678,0.000431,0.094610
135186000,0.0324,0.013523,0.002678,0.000431,0.079567
135187000,0.0324,0.013523,0.002678,0.000431,0.064993
135188000,0.0324,0.013523,0.002678,0.000431,0.058412
135189000,0.0324,0.013523,0.002678,0.000431,0.053593
135190000,0.0324,0.013523,0.002678,0.000431,0.041017
135191000,0.0324,0.013523,0.002678,0.000431,0.038197
135192000,0.0324,0.013523,0.002678,0.000431,0.031145
135193000,0.0324,0.013523,0.002678,0.000431,0.022330
135194000,0.0324,0.013523,0.002678,0.000431,0.017864
135195000,0.0324,0.013523,0.002678,0.000431,0.021390
135196000,0.0324,0.013523,0.002678,0.000431,0.022918
135197000,0.0324,0.013523,0.002678,0.000431,0.024211
135198000,0.0324,0.013523,0.002678,0.000431,0.011635
135199000,0.0324,0.013523,0.002678,0.000431,0.020332
135200000,0.0324,0.013523,0.002678,0.000431,0.019040
135201000,0.0324,0.013523,0.002678,0.000431,0.004701
135202000,0.0324,0.013523,0.002678,0.000431,0.005876
135203000,0.0324,0.013523,0.002678,0.000431,0.007169
135204000,0.0324,0.013523,0.002678,0.000431,0.002351
135205000,0.0324,0.013523,0.002678,0.000431,0.002821
135206000,0.0324,0.013523,0.002678,0.000431,0.005171
135207000,0.0324,0.013523,0.002678,0.000431,0.003526
135208000,0.0324,0.013523,0.002678,0.000431,0.000940
135209000,0.0324,0.013523,0.002678,0.000431,0.296053
135210000,0.0324,0.013523,0.002678,0.000431,0.831747
135211000,0.0324,0.013523,0.002678,0.000431,0.460946
135212000,0.0324,0.013523,0.002678,0.000431,0.154432
135213000,0.0324,0.013523,0.002678,0.000431,0.527937
135214000,0.0324,0.013523,0.002678,0.000431,0.371624
135215000,0.0324,0.013523,0.002678,0.000431,0.319794
135216000,0.0324,0.013523,0.002678,0.000431,0.219895
135217000,0.0324,0.013523,0.002678,0.000431,0.160896
135218000,0.0324,0.013523,0.002678,0.000431,0.147498
135219000,0.0324,0.013523,0.002678,0.000431,0.564958
135220000,0.0324,0.013523,0.002678,0.000431,0.376443
135221000,0.0324,0.013523,0.002678,0.000431,0.281127
135222000,0.0324,0.013523,0.002678,0.000431,0.250923
135223000,0.0324,0.013523,0.002678,0.000431,0.215782
135224000,0.0324,0.013523,0.002678,0.000431,0.163952
135225000,0.0324,0.013523,0.002678,0.000431,0.151141
135226000,0.0324,0.013523,0.002678,0.000431,0.133394
135227000,0.0324,0.013523,0.002678,0.000431,0.119174
135228000,0.0324,0.013523,0.002678,0.000431,0.096608
135229000,0.0324,0.013523,0.002678,0.000431,0.078391
135230000,0.0324,0.013523,0.002678,0.000431,0.069342
135231000,0.0324,0.013523,0.002678,0.000431,0.062525
135232000,0.0324,0.013523,0.002678,0.000431,0.041840
135233000,0.0324,0.013523,0.002678,0.000431,0.053240
135234000,0.0324,0.013523,0.002678,0.000431,0.033260
135235000,0.0324,0.013523,0.002678,0.000431,0.028207
135236000,0.0324,0.013523,0.002678,0.000431,0.031498
135237000,0.0324,0.013523,0.002678,0.000431,0.030675
135238000,0.0324,0.013523,0.002678,0.000431,0.023153
135239000,0.0324,0.013523,0.002678,0.000431,0.014456
135240000,0.0324,0.013523,0.002678,0.000431,0.012340
135241000,0.0324,0.013523,0.002678,0.000431,0.010225
135242000,0.0324,0.013523,0.002678,0.000431,0.009755
135243000,0.0324,0.013523,0.002678,0.000431,0.009402
135244000,0.0324,0.013523,0.002678,0.000431,0.005289
135245000,0.0324,0.013523,0.002678,0.000431,0.005994
135246000,0.0324,0.013523,0.002678,0.000431,0.005289
135247000,0.0324,0.013523,0.002678,0.000431,0.006464
135248000,0.0324,0.013523,0.002678,0.000431,0.002586
135249000,0.0324,0.013523,0.002678,0.000431,0.007404
135250000,0.0324,0.013523,0.002678,0.000431,0.004584
135251000,0.0324,0.013523,0.002678,0.000431,0.000823
135252000,0.0324,0.013523,0.002678,0.000431,0.000823
135253000,0.0324,0.013523,0.002678,0.000431,0.000823
135254000,0.0324,0.013523,0.002678,0.000431,0.000823
135255000,0.0324,0.013523,0.002678,0.000431,0.000823
135256000,0.0324,0.013523,0.002678,0.000431,0.000823
135257000,0.0324,0.013523,0.002678,0.000431,0.066286
135258000,0.0324,0.013523,0.002678,0.000431,0.887925
135259000,0.0324,0.013523,0.002678,0.000431,0.572245
135260000,0.0324,0.013523,0.002678,0.000431,0.176645
135261000,0.0324,0.013523,0.002678,0.000431,0.240345
135262000,0.0324,0.013523,0.002678,0.000431,0.589874
135263000,0.0324,0.013523,0.002678,0.000431,0.305456
135264000,0.0324,0.013523,0.002678,0.000431,0.318031
135265000,0.0324,0.013523,0.002678,0.000431,0.156312
135266000,0.0324,0.013523,0.002678,0.000431,0.111064
135267000,0.0324,0.013523,0.002678,0.000431,0.502668
135268000,0.0324,0.013523,0.002678,0.000431,0.394542
135269000,0.0324,0.013523,0.002678,0.000431,0.274428
135270000,0.0324,0.013523,0.002678,0.000431,0.225654
135271000,0.0324,0.013523,0.002678,0.000431,0.200150
135272000,0.0324,0.013523,0.002678,0.000431,0.179230
135273000,0.0324,0.013523,0.002678,0.000431,0.134570
135274000,0.0324,0.013523,0.002678,0.000431,0.124345
135275000,0.0324,0.013523,0.002678,0.000431,0.106481
135276000,0.0324,0.013523,0.002678,0.000431,0.077451
135277000,0.0324,0.013523,0.002678,0.000431,0.080742
135278000,0.0324,0.013523,0.002678,0.000431,0.069694
135279000,0.0324,0.013523,0.002678,0.000431,0.058412
135280000,0.0324,0.013523,0.002678,0.000431,0.047246
135281000,0.0324,0.013523,0.002678,0.000431,0.053358
135282000,0.0324,0.013523,0.002678,0.000431,0.035611
135283000,0.0324,0.013523,0.002678,0.000431,0.034671
135284000,0.0324,0.013523,0.002678,0.000431,0.045601
135285000,0.0324,0.013523,0.002678,0.000431,0.031380
135286000,0.0324,0.013523,0.002678,0.000431,0.027267
135287000,0.0324,0.013523,0.002678,0.000431,0.017864
135288000,0.0324,0.013523,0.002678,0.000431,0.023153
135289000,0.0324,0.013523,0.002678,0.000431,0.014691
135290000,0.0324,0.013523,0.002678,0.000431,0.022683
135291000,0.0324,0.013523,0.002678,0.000431,0.013751
135292000,0.0324,0.013523,0.002678,0.000431,0.008697
135293000,0.0324,0.013523,0.002678,0.000431,0.011283
135294000,0.0324,0.013523,0.002678,0.000431,0.006464
135295000,0.0324,0.013523,0.002678,0.000431,0.008580
135296000,0.0324,0.013523,0.002678,0.000431,0.005759
135297000,0.0324,0.013523,0.002678,0.000431,0.004819
135298000,0.0324,0.013523,0.002678,0.000431,0.004349
135299000,0.0324,0.013523,0.002678,0.000431,0.009637
135300000,0.0324,0.013523,0.002678,0.000431,0.002703
135301000,0.0324,0.013523,0.002678,0.000431,0.002586
135302000,0.0324,0.013523,0.002678,0.000431,0.004349
135303000,0.0324,0.013523,0.002678,0.000431,0.001645
135304000,0.0324,0.013523,0.002678,0.000431,0.001880
135305000,0.0324,0.013523,0.002678,0.000431,0.001645
135306000,0.0324,0.013523,0.002678,0.000431,0.001645
135307000,0.0324,0.013523,0.002678,0.000431,0.001645
135308000,0.0324,0.013523,0.002678,0.000431,0.001645
135309000,0.0324,0.013523,0.002678,0.000431,0.001528
135310000,0.0324,0.013523,0.002678,0.000431,0.001763
135311000,0.0324,0.013523,0.002678,0.000431,0.001763
135312000,0.0324,0.013523,0.002678,0.000431,0.005406
135313000,0.0324,0.013523,0.002678,0.000431,0.000940
135314000,0.0324,0.013523,0.002678,0.000431,0.000705
135315000,0.0324,0.013523,0.002678,0.000431,0.000940
135316000,0.0324,0.013523,0.002678,0.000431,0.000705
135317000,0.0324,0.013523,0.002678,0.000431,0.002586
135318000,0.0324,0.013523,0.002678,0.000431,0.463296
135319000,0.0324,0.013523,0.002678,0.000431,0.758527
135320000,0.0324,0.013523,0.002678,0.000431,0.350822
135321000,0.0324,0.013523,0.002678,0.000431,0.185107
135322000,0.0324,0.013523,0.002678,0.000431,0.550267
135323000,0.0324,0.013523,0.002678,0.000431,0.329431
135324000,0.0324,0.013523,0.002678,0.000431,0.359519
135325000,0.0324,0.013523,0.002678,0.000431,0.176175
135326000,0.0324,0.013523,0.002678,0.000431,0.140446
135327000,0.0324,0.013523,0.002678,0.000431,0.246574
135328000,0.0324,0.013523,0.002678,0.000431,0.568249
135329000,0.0324,0.013523,0.002678,0.000431,0.307454
135330000,0.0324,0.013523,0.002678,0.000431,0.262793
135331000,0.0324,0.013523,0.002678,0.000431,0.229650
135332000,0.0324,0.013523,0.002678,0.000431,0.211668
135333000,0.0324,0.013523,0.002678,0.000431,0.186400
135334000,0.0324,0.013523,0.002678,0.000431,0.158781
135335000,0.0324,0.013523,0.002678,0.000431,0.125050
135336000,0.0324,0.013523,0.002678,0.000431,0.116000
135337000,0.0324,0.013523,0.002678,0.000431,0.094845
135338000,0.0324,0.013523,0.002678,0.000431,0.093905
135339000,0.0324,0.013523,0.002678,0.000431,0.086853
135340000,0.0324,0.013523,0.002678,0.000431,0.071105
135341000,0.0324,0.013523,0.002678,0.000431,0.066874
135342000,0.0324,0.013523,0.002678,0.000431,0.048069
135343000,0.0324,0.013523,0.002678,0.000431,0.049597
135344000,0.0324,0.013523,0.002678,0.000431,0.045836
135345000,0.0324,0.013523,0.002678,0.000431,0.042780
135346000,0.0324,0.013523,0.002678,0.000431,0.032085
135347000,0.0324,0.013523,0.002678,0.000431,0.044073
135348000,0.0324,0.013523,0.002678,0.000431,0.034906
135349000,0.0324,0.013523,0.002678,0.000431,0.023858
135350000,0.0324,0.013523,0.002678,0.000431,0.016219
135351000,0.0324,0.013523,0.002678,0.000431,0.016336
135352000,0.0324,0.013523,0.002678,0.000431,0.011753
135353000,0.0324,0.013523,0.002678,0.000431,0.016219
135354000,0.0324,0.013523,0.002678,0.000431,0.008462
135355000,0.0324,0.013523,0.002678,0.000431,0.013868
135356000,0.0324,0.013523,0.002678,0.000431,0.006817
135357000,0.0324,0.013523,0.002678,0.000431,0.006464
135358000,0.0324,0.013523,0.002678,0.000431,0.005994
135359000,0.0324,0.013523,0.002678,0.000431,0.009990
135360000,0.0324,0.013523,0.002678,0.000431,0.005406
135361000,0.0324,0.013523,0.002678,0.000431,0.005876
135362000,0.0324,0.013523,0.002678,0.000431,0.005406
135363000,0.0324,0.013523,0.002678,0.000431,0.005876
135364000,0.0324,0.013523,0.002678,0.000431,0.005759
135365000,0.0324,0.013523,0.002678,0.000431,0.008109
135366000,0.0324,0.013523,0.002678,0.000431,0.005054
135367000,0.0324,0.013523,0.002678,0.000431,0.004936
135368000,0.0324,0.013523,0.002678,0.000431,0.005171
135369000,0.0324,0.013523,0.002678,0.000431,0.004466
135370000,0.0324,0.013523,0.002678,0.000431,0.006347
135371000,0.0324,0.013523,0.002678,0.000431,0.005406
135372000,0.0324,0.013523,0.002678,0.000431,0.006582
135373000,0.0324,0.013523,0.002678,0.000431,0.002938
135374000,0.0324,0.013523,0.002678,0.000431,0.002938
135375000,0.0324,0.013523,0.002678,0.000431,0.002938
135376000,0.0324,0.013523,0.002678,0.000431,0.003643
135377000,0.0324,0.013523,0.002678,0.000431,0.003408
135378000,0.0324,0.013523,0.002678,0.000431,0.003173
135379000,0.0324,0.013523,0.002678,0.000431,0.002938
135380000,0.0324,0.013523,0.002678,0.000431,0.003291
135381000,0.0324,0.013523,0.002678,0.000431,0.003408
135382000,0.0324,0.013523,0.002678,0.000431,0.002468
135383000,0.0324,0.013523,0.002678,0.000431,0.007757
135384000,0.0324,0.013523,0.002678,0.000431,0.000940
135385000,0.0324,0.013523,0.002678,0.000431,0.000940
135386000,0.0324,0.013523,0.002678,0.000431,0.000823
135387000,0.0324,0.013523,0.002678,0.000431,0.000823
135388000,0.0324,0.013523,0.002678,0.000431,0.000940
135389000,0.0324,0.013523,0.002678,0.000431,0.000705
135390000,0.0324,0.013523,0.002678,0.000431,0.000940
135391000,0.0324,0.013523,0.002678,0.000431,0.000823
135392000,0.0324,0.013523,0.002678,0.000431,0.000823
135393000,0.0324,0.013523,0.002678,0.000431,0.000823
135394000,0.0324,0.013523,0.002678,0.000431,0.000823
135395000,0.0324,0.013523,0.002678,0.000431,0.000823
135396000,0.0324,0.013523,0.002678,0.000431,0.000823
135397000,0.0324,0.013523,0.002678,0.000431,0.000940
135398000,0.0324,0.013523,0.002678,0.000431,0.000705
135399000,0.0324,0.013523,0.002678,0.000431,0.000940
135400000,0.0324,0.013523,0.002678,0.000431,0.000823
135401000,0.0324,0.013523,0.002678,0.000431,0.000823
135402000,0.0324,0.013523,0.002678,0.000431,0.000705
135403000,0.0324,0.013523,0.002678,0.000431,0.000940
135404000,0.0324,0.013523,0.002678,0.000431,0.000940
135405000,0.0324,0.013523,0.002678,0.000431,0.000705
135406000,0.0324,0.013523,0.002678,0.000431,0.000940
135407000,0.0324,0.013523,0.002678,0.000431,0.000705
135408000,0.0324,0.013523,0.002678,0.000431,0.000940
135409000,0.0324,0.013523,0.002678,0.000431,0.000823
135410000,0.0324,0.013523,0.002678,0.000431,0.000823
135411000,0.0324,0.013523,0.002678,0.000431,0.000940
135412000,0.0324,0.013523,0.002678,0.000431,0.000705
135413000,0.0324,0.013523,0.002678,0.000431,0.000940
135414000,0.0324,0.013523,0.002678,0.000431,0.000823
135415000,0.0324,0.013523,0.002678,0.000431,0.000823
135416000,0.0324,0.013523,0.002678,0.000431,0.000823
135417000,0.0324,0.013523,0.002678,0.000431,0.000823
135418000,0.0324,0.013523,0.002678,0.000431,0.000823
135419000,0.0324,0.013523,0.002678,0.000431,0.000823
135420000,0.0324,0.013523,0.002678,0.000431,0.000940
135421000,0.0324,0.013523,0.002678,0.000431,0.000705
135422000,0.0324,0.013523,0.002678,0.000431,0.000823
135423000,0.0324,0.013523,0.002678,0.000431,0.000940
135424000,0.0324,0.013523,0.002678,0.000431,0.000823
135425000,0.0324,0.013523,0.002678,0.000431,0.000823
135426000,0.0324,0.013523,0.002678,0.000431,0.000823
135427000,0.0324,0.013523,0.002678,0.000431,0.000823
135428000,0.0324,0.013523,0.002678,0.000431,0.000823
135429000,0.0324,0.013523,0.002678,0.000431,0.000940
135430000,0.0324,0.013523,0.002678,0.000431,0.000823
135431000,0.0324,0.013523,0.002678,0.000431,0.000823
135432000,0.0324,0.013523,0.002678,0.000431,0.000705
135433000,0.0324,0.013523,0.002678,0.000431,0.286299
135434000,0.0324,0.013523,0.002678,0.000431,0.832570
135435000,0.0324,0.013523,0.002678,0.000431,0.464001
135436000,0.0324,0.013523,0.002678,0.000431,0.146323
135437000,0.0324,0.013523,0.002678,0.000431,0.510895
135438000,0.0324,0.013523,0.002678,0.000431,0.296641
135439000,0.0324,0.013523,0.002678,0.000431,0.304398
135440000,0.0324,0.013523,0.002678,0.000431,0.214019
135441000,0.0324,0.013523,0.002678,0.000431,0.190161
135442000,0.0324,0.013523,0.002678,0.000431,0.087558
135443000,0.0324,0.013523,0.002678,0.000431,0.574595
135444000,0.0324,0.013523,0.002678,0.000431,0.383612
135445000,0.0324,0.013523,0.002678,0.000431,0.269727
135446000,0.0324,0.013523,0.002678,0.000431,0.248455
135447000,0.0324,0.013523,0.002678,0.000431,0.198623
135448000,0.0324,0.013523,0.002678,0.000431,0.182639
135449000,0.0324,0.013523,0.002678,0.000431,0.159368
135450000,0.0324,0.013523,0.002678,0.000431,0.138566
135451000,0.0324,0.013523,0.002678,0.000431,0.131984
135452000,0.0324,0.013523,0.002678,0.000431,0.122464
135453000,0.0324,0.013523,0.002678,0.000431,0.122934
135454000,0.0324,0.013523,0.002678,0.000431,0.111769
135455000,0.0324,0.013523,0.002678,0.000431,0.092260
135456000,0.0324,0.013523,0.002678,0.000431,0.073573
135457000,0.0324,0.013523,0.002678,0.000431,0.064523
135458000,0.0324,0.013523,0.002678,0.000431,0.068166
135459000,0.0324,0.013523,0.002678,0.000431,0.058764
135460000,0.0324,0.013523,0.002678,0.000431,0.051125
135461000,0.0324,0.013523,0.002678,0.000431,0.037844
135462000,0.0324,0.013523,0.002678,0.000431,0.046189
135463000,0.0324,0.013523,0.002678,0.000431,0.039842
135464000,0.0324,0.013523,0.002678,0.000431,0.030910
135465000,0.0324,0.013523,0.002678,0.000431,0.018569
135466000,0.0324,0.013523,0.002678,0.000431,0.013281
135467000,0.0324,0.013523,0.002678,0.000431,0.020450
135468000,0.0324,0.013523,0.002678,0.000431,0.019040
135469000,0.0324,0.013523,0.002678,0.000431,0.006817
135470000,0.0324,0.013523,0.002678,0.000431,0.007052
135471000,0.0324,0.013523,0.002678,0.000431,0.005524
135472000,0.0324,0.013523,0.002678,0.000431,0.010107
135473000,0.0324,0.013523,0.002678,0.000431,0.005759
135474000,0.0324,0.013523,0.002678,0.000431,0.000705
135475000,0.0324,0.013523,0.002678,0.000431,0.014573
135476000,0.0324,0.013523,0.002678,0.000431,0.829749
135477000,0.0324,0.013523,0.002678,0.000431,0.589874
135478000,0.0324,0.013523,0.002678,0.000431,0.198975
135479000,0.0324,0.013523,0.002678,0.000431,0.161366
135480000,0.0324,0.013523,0.002678,0.000431,0.554145
135481000,0.0324,0.013523,0.002678,0.000431,0.248690
135482000,0.0324,0.013523,0.002678,0.000431,0.358226
135483000,0.0324,0.013523,0.002678,0.000431,0.155255
135484000,0.0324,0.013523,0.002678,0.000431,0.173119
135485000,0.0324,0.013523,0.002678,0.000431,0.155137
135486000,0.0324,0.013523,0.002678,0.000431,0.558611
135487000,0.0324,0.013523,0.002678,0.000431,0.304633
135488000,0.0324,0.013523,0.002678,0.000431,0.232471
135489000,0.0324,0.013523,0.002678,0.000431,0.194862
135490000,0.0324,0.013523,0.002678,0.000431,0.162541
135491000,0.0324,0.013523,0.002678,0.000431,0.146793
135492000,0.0324,0.013523,0.002678,0.000431,0.116353
135493000,0.0324,0.013523,0.002678,0.000431,0.079332
135494000,0.0324,0.013523,0.002678,0.000431,0.072750
135495000,0.0324,0.013523,0.002678,0.000431,0.065698
135496000,0.0324,0.013523,0.002678,0.000431,0.057236
135497000,0.0324,0.013523,0.002678,0.000431,0.034318
135498000,0.0324,0.013523,0.002678,0.000431,0.029265
135499000,0.0324,0.013523,0.002678,0.000431,0.024563
135500000,0.0324,0.013523,0.002678,0.000431,0.025739
135501000,0.0324,0.013523,0.002678,0.000431,0.012928
135502000,0.0324,0.013523,0.002678,0.000431,0.006582
135503000,0.0324,0.013523,0.002678,0.000431,0.009402
135504000,0.0324,0.013523,0.002678,0.000431,0.010107
135505000,0.0324,0.013523,0.002678,0.000431,0.004936
135506000,0.0324,0.013523,0.002678,0.000431,0.004584
135507000,0.0324,0.013523,0.002678,0.000431,0.005994
135508000,0.0324,0.013523,0.002678,0.000431,0.001528
135509000,0.0324,0.013523,0.002678,0.000431,0.001528
135510000,0.0324,0.013523,0.002678,0.000431,0.001763
135511000,0.0324,0.013523,0.002678,0.000431,0.003291
135512000,0.0324,0.013523,0.002678,0.000431,0.000823
135513000,0.0324,0.013523,0.002678,0.000431,0.000940
135514000,0.0324,0.013523,0.002678,0.000431,0.000705
135515000,0.0324,0.013523,0.002678,0.000431,0.015279
135516000,0.0324,0.013523,0.002678,0.000431,0.831747
135517000,0.0324,0.013523,0.002678,0.000431,0.598101
135518000,0.0324,0.013523,0.002678,0.000431,0.166302
135519000,0.0324,0.013523,0.002678,0.000431,0.230355
135520000,0.0324,0.013523,0.002678,0.000431,0.579767
135521000,0.0324,0.013523,0.002678,0.000431,0.292528
135522000,0.0324,0.013523,0.002678,0.000431,0.250218
135523000,0.0324,0.013523,0.002678,0.000431,0.161836
135524000,0.0324,0.013523,0.002678,0.000431,0.116353
135525000,0.0324,0.013523,0.002678,0.000431,0.481043
135526000,0.0324,0.013523,0.002678,0.000431,0.364220
135527000,0.0324,0.013523,0.002678,0.000431,0.232706
135528000,0.0324,0.013523,0.002678,0.000431,0.193922
135529000,0.0324,0.013523,0.002678,0.000431,0.163364
135530000,0.0324,0.013523,0.002678,0.000431,0.141269
135531000,0.0324,0.013523,0.002678,0.000431,0.114472
135532000,0.0324,0.013523,0.002678,0.000431,0.093435
135533000,0.0324,0.013523,0.002678,0.000431,0.079214
135534000,0.0324,0.013523,0.002678,0.000431,0.067461
135535000,0.0324,0.013523,0.002678,0.000431,0.046306
135536000,0.0324,0.013523,0.002678,0.000431,0.037962
135537000,0.0324,0.013523,0.002678,0.000431,0.027149
135538000,0.0324,0.013523,0.002678,0.000431,0.034671
135539000,0.0324,0.013523,0.002678,0.000431,0.027619
135540000,0.0324,0.013523,0.002678,0.000431,0.022330
135541000,0.0324,0.013523,0.002678,0.000431,0.016571
135542000,0.0324,0.013523,0.002678,0.000431,0.009872
135543000,0.0324,0.013523,0.002678,0.000431,0.010225
135544000,0.0324,0.013523,0.002678,0.000431,0.011870
135545000,0.0324,0.013523,0.002678,0.000431,0.008815
135546000,0.0324,0.013523,0.002678,0.000431,0.006582
135547000,0.0324,0.013523,0.002678,0.000431,0.005994
135548000,0.0324,0.013523,0.002678,0.000431,0.005876
135549000,0.0324,0.013523,0.002678,0.000431,0.006582
135550000,0.0324,0.013523,0.002678,0.000431,0.005759
135551000,0.0324,0.013523,0.002678,0.000431,0.013046
135552000,0.0324,0.013523,0.002678,0.000431,0.003526
135553000,0.0324,0.013523,0.002678,0.000431,0.009050
135554000,0.0324,0.013523,0.002678,0.000431,0.002116
135555000,0.0324,0.013523,0.002678,0.000431,0.005054
135556000,0.0324,0.013523,0.002678,0.000431,0.001528
135557000,0.0324,0.013523,0.002678,0.000431,0.000705
135558000,0.0324,0.013523,0.002678,0.000431,0.001293
135559000,0.0324,0.013523,0.002678,0.000431,0.001058
135560000,0.0324,0.013523,0.002678,0.000431,0.001058
135561000,0.0324,0.013523,0.002678,0.000431,0.001410
135562000,0.0324,0.013523,0.002678,0.000431,0.000823
135563000,0.0324,0.013523,0.002678,0.000431,0.000940
135564000,0.0324,0.013523,0.002678,0.000431,0.001410
135565000,0.0324,0.013523,0.002678,0.000431,0.001058
135566000,0.0324,0.013523,0.002678,0.000431,0.001175
135567000,0.0324,0.013523,0.002678,0.000431,0.001058
135568000,0.0324,0.013523,0.002678,0.000431,0.000940
135569000,0.0324,0.013523,0.002678,0.000431,0.001528
135570000,0.0324,0.013523,0.002678,0.000431,0.001410
135571000,0.0324,0.013523,0.002678,0.000431,0.001175
135572000,0.0324,0.013523,0.002678,0.000431,0.001410
135573000,0.0324,0.013523,0.002678,0.000431,0.001410
135574000,0.0324,0.013523,0.002678,0.000431,0.001528
135575000,0.0324,0.013523,0.002678,0.000431,0.001528
135576000,0.0324,0.013523,0.002678,0.000431,0.001645
135577000,0.0324,0.013523,0.002678,0.000431,0.001528
135578000,0.0324,0.013523,0.002678,0.000431,0.001058
135579000,0.0324,0.013523,0.002678,0.000431,0.073925
135580000,0.0324,0.013523,0.002678,0.000431,0.870414
135581000,0.0324,0.013523,0.002678,0.000431,0.533931
135582000,0.0324,0.013523,0.002678,0.000431,0.153962
135583000,0.0324,0.013523,0.002678,0.000431,0.340832
135584000,0.0324,0.013523,0.002678,0.000431,0.422279
135585000,0.0324,0.013523,0.002678,0.000431,0.329784
135586000,0.0324,0.013523,0.002678,0.000431,0.241050
135587000,0.0324,0.013523,0.002678,0.000431,0.169476
135588000,0.0324,0.013523,0.002678,0.000431,0.117998
135589000,0.0324,0.013523,0.002678,0.000431,0.595045
135590000,0.0324,0.013523,0.002678,0.000431,0.265261
135591000,0.0324,0.013523,0.002678,0.000431,0.185930
135592000,0.0324,0.013523,0.002678,0.000431,0.184284
135593000,0.0324,0.013523,0.002678,0.000431,0.148673
135594000,0.0324,0.013523,0.002678,0.000431,0.116118
135595000,0.0324,0.013523,0.002678,0.000431,0.091084
135596000,0.0324,0.013523,0.002678,0.000431,0.084620
135597000,0.0324,0.013523,0.002678,0.000431,0.073220
135598000,0.0324,0.013523,0.002678,0.000431,0.053593
135599000,0.0324,0.013523,0.002678,0.000431,0.039372
135600000,0.0324,0.013523,0.002678,0.000431,0.036904
135601000,0.0324,0.013523,0.002678,0.000431,0.041135
135602000,0.0324,0.013523,0.002678,0.000431,0.035729
135603000,0.0324,0.013523,0.002678,0.000431,0.029147
135604000,0.0324,0.013523,0.002678,0.000431,0.028794
135605000,0.0324,0.013523,0.002678,0.000431,0.025034
135606000,0.0324,0.013523,0.002678,0.000431,0.034906
135607000,0.0324,0.013523,0.002678,0.000431,0.022213
135608000,0.0324,0.013523,0.002678,0.000431,0.019392
135609000,0.0324,0.013523,0.002678,0.000431,0.015396
135610000,0.0324,0.013523,0.002678,0.000431,0.014456
135611000,0.0324,0.013523,0.002678,0.000431,0.022800
135612000,0.0324,0.013523,0.002678,0.000431,0.014926
135613000,0.0324,0.013523,0.002678,0.000431,0.006817
135614000,0.0324,0.013523,0.002678,0.000431,0.003408
135615000,0.0324,0.013523,0.002678,0.000431,0.005524
135616000,0.0324,0.013523,0.002678,0.000431,0.005524
135617000,0.0324,0.013523,0.002678,0.000431,0.001528
135618000,0.0324,0.013523,0.002678,0.000431,0.001880
135619000,0.0324,0.013523,0.002678,0.000431,0.001645
135620000,0.0324,0.013523,0.002678,0.000431,0.001645
135621000,0.0324,0.013523,0.002678,0.000431,0.004701
135622000,0.0324,0.013523,0.002678,0.000431,0.071575
135623000,0.0324,0.013523,0.002678,0.000431,0.832687
135624000,0.0324,0.013523,0.002678,0.000431,0.565546
135625000,0.0324,0.013523,0.002678,0.000431,0.139976
135626000,0.0324,0.013523,0.002678,0.000431,0.211316
135627000,0.0324,0.013523,0.002678,0.000431,0.495734
135628000,0.0324,0.013523,0.002678,0.000431,0.293115
135629000,0.0324,0.013523,0.002678,0.000431,0.283948
135630000,0.0324,0.013523,0.002678,0.000431,0.154785
135631000,0.0324,0.013523,0.002678,0.000431,0.121524
135632000,0.0324,0.013523,0.002678,0.000431,0.338951
135633000,0.0324,0.013523,0.002678,0.000431,0.414992
135634000,0.0324,0.013523,0.002678,0.000431,0.211081
135635000,0.0324,0.013523,0.002678,0.000431,0.196860
135636000,0.0324,0.013523,0.002678,0.000431,0.179583
135637000,0.0324,0.013523,0.002678,0.000431,0.148086
135638000,0.0324,0.013523,0.002678,0.000431,0.138801
135639000,0.0324,0.013523,0.002678,0.000431,0.123522
135640000,0.0324,0.013523,0.002678,0.000431,0.102367
135641000,0.0324,0.013523,0.002678,0.000431,0.092730
135642000,0.0324,0.013523,0.002678,0.000431,0.080859
135643000,0.0324,0.013523,0.002678,0.000431,0.072162
135644000,0.0324,0.013523,0.002678,0.000431,0.060645
135645000,0.0324,0.013523,0.002678,0.000431,0.051242
135646000,0.0324,0.013523,0.002678,0.000431,0.052770
135647000,0.0324,0.013523,0.002678,0.000431,0.041605
135648000,0.0324,0.013523,0.002678,0.000431,0.028089
135649000,0.0324,0.013523,0.002678,0.000431,0.024916
135650000,0.0324,0.013523,0.002678,0.000431,0.025621
135651000,0.0324,0.013523,0.002678,0.000431,0.011165
135652000,0.0324,0.013523,0.002678,0.000431,0.015984
135653000,0.0324,0.013523,0.002678,0.000431,0.010930
135654000,0.0324,0.013523,0.002678,0.000431,0.011283
135655000,0.0324,0.013523,0.002678,0.000431,0.005171
135656000,0.0324,0.013523,0.002678,0.000431,0.007169
135657000,0.0324,0.013523,0.002678,0.000431,0.008815
135658000,0.0324,0.013523,0.002678,0.000431,0.004584
135659000,0.0324,0.013523,0.002678,0.000431,0.001763
135660000,0.0324,0.013523,0.002678,0.000431,0.001880
135661000,0.0324,0.013523,0.002678,0.000431,0.004231
135662000,0.0324,0.013523,0.002678,0.000431,0.000823
135663000,0.0324,0.013523,0.002678,0.000431,0.001058
135664000,0.0324,0.013523,0.002678,0.000431,0.256799
135665000,0.0324,0.013523,0.002678,0.000431,0.750182
135666000,0.0324,0.013523,0.002678,0.000431,0.392309
135667000,0.0324,0.013523,0.002678,0.000431,0.134922
135668000,0.0324,0.013523,0.002678,0.000431,0.226124
135669000,0.0324,0.013523,0.002678,0.000431,0.501845
135670000,0.0324,0.013523,0.002678,0.000431,0.268552
135671000,0.0324,0.013523,0.002678,0.000431,0.292645
135672000,0.0324,0.013523,0.002678,0.000431,0.152787
135673000,0.0324,0.013523,0.002678,0.000431,0.167713
135674000,0.0324,0.013523,0.002678,0.000431,0.102250
135675000,0.0324,0.013523,0.002678,0.000431,0.524176
135676000,0.0324,0.013523,0.002678,0.000431,0.338364
135677000,0.0324,0.013523,0.002678,0.000431,0.232941
135678000,0.0324,0.013523,0.002678,0.000431,0.215899
135679000,0.0324,0.013523,0.002678,0.000431,0.191688
135680000,0.0324,0.013523,0.002678,0.000431,0.159603
135681000,0.0324,0.013523,0.002678,0.000431,0.141151
135682000,0.0324,0.013523,0.002678,0.000431,0.121054
135683000,0.0324,0.013523,0.002678,0.000431,0.087323
135684000,0.0324,0.013523,0.002678,0.000431,0.091672
135685000,0.0324,0.013523,0.002678,0.000431,0.074043
135686000,0.0324,0.013523,0.002678,0.000431,0.062643
135687000,0.0324,0.013523,0.002678,0.000431,0.053828
135688000,0.0324,0.013523,0.002678,0.000431,0.046659
135689000,0.0324,0.013523,0.002678,0.000431,0.052770
135690000,0.0324,0.013523,0.002678,0.000431,0.036316
135691000,0.0324,0.013523,0.002678,0.000431,0.034083
135692000,0.0324,0.013523,0.002678,0.000431,0.037139
135693000,0.0324,0.013523,0.002678,0.000431,0.032203
135694000,0.0324,0.013523,0.002678,0.000431,0.029265
135695000,0.0324,0.013523,0.002678,0.000431,0.027619
135696000,0.0324,0.013523,0.002678,0.000431,0.021978
135697000,0.0324,0.013523,0.002678,0.000431,0.021743
135698000,0.0324,0.013523,0.002678,0.000431,0.020685
135699000,0.0324,0.013523,0.002678,0.000431,0.017277
135700000,0.0324,0.013523,0.002678,0.000431,0.015749
135701000,0.0324,0.013523,0.002678,0.000431,0.014221
135702000,0.0324,0.013523,0.002678,0.000431,0.013751
135703000,0.0324,0.013523,0.002678,0.000431,0.009167
135704000,0.0324,0.013523,0.002678,0.000431,0.010578
135705000,0.0324,0.013523,0.002678,0.000431,0.004231
135706000,0.0324,0.013523,0.002678,0.000431,0.004936
135707000,0.0324,0.013523,0.002678,0.000431,0.004584
135708000,0.0324,0.013523,0.002678,0.000431,0.006347
135709000,0.0324,0.013523,0.002678,0.000431,0.003173
135710000,0.0324,0.013523,0.002678,0.000431,0.003291
135711000,0.0324,0.013523,0.002678,0.000431,0.002703
135712000,0.0324,0.013523,0.002678,0.000431,0.005054
135713000,0.0324,0.013523,0.002678,0.000431,0.001645
135714000,0.0324,0.013523,0.002678,0.000431,0.001763
135715000,0.0324,0.013523,0.002678,0.000431,0.002938
135716000,0.0324,0.013523,0.002678,0.000431,0.002233
135717000,0.0324,0.013523,0.002678,0.000431,0.000940
135718000,0.0324,0.013523,0.002678,0.000431,0.000705
135719000,0.0324,0.013523,0.002678,0.000431,0.000705
135720000,0.0324,0.013523,0.002678,0.000431,0.273606
135721000,0.0324,0.013523,0.002678,0.000431,0.764873
135722000,0.0324,0.013523,0.002678,0.000431,0.462826
135723000,0.0324,0.013523,0.002678,0.000431,0.137155
135724000,0.0324,0.013523,0.002678,0.000431,0.520532
135725000,0.0324,0.013523,0.002678,0.000431,0.292645
135726000,0.0324,0.013523,0.002678,0.000431,0.308276
135727000,0.0324,0.013523,0.002678,0.000431,0.224714
135728000,0.0324,0.013523,0.002678,0.000431,0.181228
135729000,0.0324,0.013523,0.002678,0.000431,0.084855
135730000,0.0324,0.013523,0.002678,0.000431,0.544155
135731000,0.0324,0.013523,0.002678,0.000431,0.281950
135732000,0.0324,0.013523,0.002678,0.000431,0.212491
135733000,0.0324,0.013523,0.002678,0.000431,0.208495
135734000,0.0324,0.013523,0.002678,0.000431,0.161131
135735000,0.0324,0.013523,0.002678,0.000431,0.150789
135736000,0.0324,0.013523,0.002678,0.000431,0.121759
135737000,0.0324,0.013523,0.002678,0.000431,0.129516
135738000,0.0324,0.013523,0.002678,0.000431,0.107538
135739000,0.0324,0.013523,0.002678,0.000431,0.086266
135740000,0.0324,0.013523,0.002678,0.000431,0.084503
135741000,0.0324,0.013523,0.002678,0.000431,0.075101
135742000,0.0324,0.013523,0.002678,0.000431,0.057941
135743000,0.0324,0.013523,0.002678,0.000431,0.053710
135744000,0.0324,0.013523,0.002678,0.000431,0.043956
135745000,0.0324,0.013523,0.002678,0.000431,0.038079
135746000,0.0324,0.013523,0.002678,0.000431,0.032790
135747000,0.0324,0.013523,0.002678,0.000431,0.034083
135748000,0.0324,0.013523,0.002678,0.000431,0.019392
135749000,0.0324,0.013523,0.002678,0.000431,0.012811
135750000,0.0324,0.013523,0.002678,0.000431,0.014809
135751000,0.0324,0.013523,0.002678,0.000431,0.019040
135752000,0.0324,0.013523,0.002678,0.000431,0.011988
135753000,0.0324,0.013523,0.002678,0.000431,0.013868
135754000,0.0324,0.013523,0.002678,0.000431,0.003291
135755000,0.0324,0.013523,0.002678,0.000431,0.003291
135756000,0.0324,0.013523,0.002678,0.000431,0.003173
135757000,0.0324,0.013523,0.002678,0.000431,0.003526
135758000,0.0324,0.013523,0.002678,0.000431,0.003408
135759000,0.0324,0.013523,0.002678,0.000431,0.003291
135760000,0.0324,0.013523,0.002678,0.000431,0.003408
135761000,0.0324,0.013523,0.002678,0.000431,0.003173
135762000,0.0324,0.013523,0.002678,0.000431,0.005171
135763000,0.0324,0.013523,0.002678,0.000431,0.002468
135764000,0.0324,0.013523,0.002678,0.000431,0.002586
135765000,0.0324,0.013523,0.002678,0.000431,0.002468
135766000,0.0324,0.013523,0.002678,0.000431,0.002116
135767000,0.0324,0.013523,0.002678,0.000431,0.002821
135768000,0.0324,0.013523,0.002678,0.000431,0.002116
135769000,0.0324,0.013523,0.002678,0.000431,0.006229
135770000,0.0324,0.013523,0.002678,0.000431,0.001645
135771000,0.0324,0.013523,0.002678,0.000431,0.004819
135772000,0.0324,0.013523,0.002678,0.000431,0.000940
135773000,0.0324,0.013523,0.002678,0.000431,0.000705
135774000,0.0324,0.013523,0.002678,0.000431,0.000940
135775000,0.0324,0.013523,0.002678,0.000431,0.000940
135776000,0.0324,0.013523,0.002678,0.000431,0.000705
135777000,0.0324,0.013523,0.002678,0.000431,0.000940
135778000,0.0324,0.013523,0.002678,0.000431,0.000705
135779000,0.0324,0.013523,0.002678,0.000431,0.000940
135780000,0.0324,0.013523,0.002678,0.000431,0.000823
135781000,0.0324,0.013523,0.002678,0.000431,0.000823
135782000,0.0324,0.013523,0.002678,0.000431,0.015396
135783000,0.0324,0.013523,0.002678,0.000431,0.753121
135784000,0.0324,0.013523,0.002678,0.000431,0.579531
135785000,0.0324,0.013523,0.002678,0.000431,0.148086
135786000,0.0324,0.013523,0.002678,0.000431,0.137978
135787000,0.0324,0.013523,0.002678,0.000431,0.559787
135788000,0.0324,0.013523,0.002678,0.000431,0.243048
135789000,0.0324,0.013523,0.002678,0.000431,0.321440
135790000,0.0324,0.013523,0.002678,0.000431,0.228827
135791000,0.0324,0.013523,0.002678,0.000431,0.150789
135792000,0.0324,0.013523,0.002678,0.000431,0.115413
135793000,0.0324,0.013523,0.002678,0.000431,0.466352
135794000,0.0324,0.013523,0.002678,0.000431,0.312272
135795000,0.0324,0.013523,0.002678,0.000431,0.192629
135796000,0.0324,0.013523,0.002678,0.000431,0.181581
135797000,0.0324,0.013523,0.002678,0.000431,0.158428
135798000,0.0324,0.013523,0.002678,0.000431,0.124932
135799000,0.0324,0.013523,0.002678,0.000431,0.093670
135800000,0.0324,0.013523,0.002678,0.000431,0.099076
135801000,0.0324,0.013523,0.002678,0.000431,0.074748
135802000,0.0324,0.013523,0.002678,0.000431,0.064523
135803000,0.0324,0.013523,0.002678,0.000431,0.052300
135804000,0.0324,0.013523,0.002678,0.000431,0.044191
135805000,0.0324,0.013523,0.002678,0.000431,0.042545
135806000,0.0324,0.013523,0.002678,0.000431,0.044896
135807000,0.0324,0.013523,0.002678,0.000431,0.030440
135808000,0.0324,0.013523,0.002678,0.000431,0.029265
135809000,0.0324,0.013523,0.002678,0.000431,0.022918
135810000,0.0324,0.013523,0.002678,0.000431,0.017747
135811000,0.0324,0.013523,0.002678,0.000431,0.013163
135812000,0.0324,0.013523,0.002678,0.000431,0.013046
135813000,0.0324,0.013523,0.002678,0.000431,0.016571
135814000,0.0324,0.013523,0.002678,0.000431,0.012576
135815000,0.0324,0.013523,0.002678,0.000431,0.007522
135816000,0.0324,0.013523,0.002678,0.000431,0.006464
135817000,0.0324,0.013523,0.002678,0.000431,0.007874
135818000,0.0324,0.013523,0.002678,0.000431,0.006934
135819000,0.0324,0.013523,0.002678,0.000431,0.001763
135820000,0.0324,0.013523,0.002678,0.000431,0.001880
135821000,0.0324,0.013523,0.002678,0.000431,0.003996
135822000,0.0324,0.013523,0.002678,0.000431,0.000823
135823000,0.0324,0.013523,0.002678,0.000431,0.000940
135824000,0.0324,0.013523,0.002678,0.000431,0.000940
135825000,0.0324,0.013523,0.002678,0.000431,0.000823
135826000,0.0324,0.013523,0.002678,0.000431,0.003643
135827000,0.0324,0.013523,0.002678,0.000431,0.562842
135828000,0.0324,0.013523,0.002678,0.000431,0.736079
135829000,0.0324,0.013523,0.002678,0.000431,0.155372
135830000,0.0324,0.013523,0.002678,0.000431,0.139976
135831000,0.0324,0.013523,0.002678,0.000431,0.614202
135832000,0.0324,0.013523,0.002678,0.000431,0.241991
135833000,0.0324,0.013523,0.002678,0.000431,0.377148
135834000,0.0324,0.013523,0.002678,0.000431,0.184637
135835000,0.0324,0.013523,0.002678,0.000431,0.134335
135836000,0.0324,0.013523,0.002678,0.000431,0.238817
135837000,0.0324,0.013523,0.002678,0.000431,0.517006
135838000,0.0324,0.013523,0.002678,0.000431,0.216604
135839000,0.0324,0.013523,0.002678,0.000431,0.175940
135840000,0.0324,0.013523,0.002678,0.000431,0.158193
135841000,0.0324,0.013523,0.002678,0.000431,0.137273
135842000,0.0324,0.013523,0.002678,0.000431,0.116000
135843000,0.0324,0.013523,0.002678,0.000431,0.084855
135844000,0.0324,0.013523,0.002678,0.000431,0.081212
135845000,0.0324,0.013523,0.002678,0.000431,0.080154
135846000,0.0324,0.013523,0.002678,0.000431,0.057706
135847000,0.0324,0.013523,0.002678,0.000431,0.053475
135848000,0.0324,0.013523,0.002678,0.000431,0.038549
135849000,0.0324,0.013523,0.002678,0.000431,0.040782
135850000,0.0324,0.013523,0.002678,0.000431,0.039254
135851000,0.0324,0.013523,0.002678,0.000431,0.027737
135852000,0.0324,0.013523,0.002678,0.000431,0.025034
135853000,0.0324,0.013523,0.002678,0.000431,0.023858
135854000,0.0324,0.013523,0.002678,0.000431,0.023506
135855000,0.0324,0.013523,0.002678,0.000431,0.019980
135856000,0.0324,0.013523,0.002678,0.000431,0.020567
135857000,0.0324,0.013523,0.002678,0.000431,0.019980
135858000,0.0324,0.013523,0.002678,0.000431,0.020685
135859000,0.0324,0.013523,0.002678,0.000431,0.013516
135860000,0.0324,0.013523,0.002678,0.000431,0.011165
135861000,0.0324,0.013523,0.002678,0.000431,0.013751
135862000,0.0324,0.013523,0.002678,0.000431,0.012105
135863000,0.0324,0.013523,0.002678,0.000431,0.012458
135864000,0.0324,0.013523,0.002678,0.000431,0.012223
135865000,0.0324,0.013523,0.002678,0.000431,0.014103
135866000,0.0324,0.013523,0.002678,0.000431,0.017982
135867000,0.0324,0.013523,0.002678,0.000431,0.014926
135868000,0.0324,0.013523,0.002678,0.000431,0.005406
135869000,0.0324,0.013523,0.002678,0.000431,0.006229
135870000,0.0324,0.013523,0.002678,0.000431,0.007522
135871000,0.0324,0.013523,0.002678,0.000431,0.003878
135872000,0.0324,0.013523,0.002678,0.000431,0.004701
135873000,0.0324,0.013523,0.002678,0.000431,0.004231
135874000,0.0324,0.013523,0.002678,0.000431,0.005406
135875000,0.0324,0.013523,0.002678,0.000431,0.003996
135876000,0.0324,0.013523,0.002678,0.000431,0.000823
135877000,0.0324,0.013523,0.002678,0.000431,0.000823
135878000,0.0324,0.013523,0.002678,0.000431,0.000940
135879000,0.0324,0.013523,0.002678,0.000431,0.000940
135880000,0.0324,0.013523,0.002678,0.000431,0.000705
135881000,0.0324,0.013523,0.002678,0.000431,0.000940
135882000,0.0324,0.013523,0.002678,0.000431,0.000940
135883000,0.0324,0.013523,0.002678,0.000431,0.000940
135884000,0.0324,0.013523,0.002678,0.000431,0.000823
135885000,0.0324,0.013523,0.002678,0.000431,0.000940
135886000,0.0324,0.013523,0.002678,0.000431,0.000940
135887000,0.0324,0.013523,0.002678,0.000431,0.000823
135888000,0.0324,0.013523,0.002678,0.000431,0.015866
135889000,0.0324,0.013523,0.002678,0.000431,0.790377
135890000,0.0324,0.013523,0.002678,0.000431,0.574713
135891000,0.0324,0.013523,0.002678,0.000431,0.146440
135892000,0.0324,0.013523,0.002678,0.000431,0.142209
135893000,0.0324,0.013523,0.002678,0.000431,0.555203
135894000,0.0324,0.013523,0.002678,0.000431,0.261970
135895000,0.0324,0.013523,0.002678,0.000431,0.302988
135896000,0.0324,0.013523,0.002678,0.000431,0.167360
135897000,0.0324,0.013523,0.002678,0.000431,0.173354
135898000,0.0324,0.013523,0.002678,0.000431,0.104247
135899000,0.0324,0.013523,0.002678,0.000431,0.495969
135900000,0.0324,0.013523,0.002678,0.000431,0.380674
135901000,0.0324,0.013523,0.002678,0.000431,0.264086
135902000,0.0324,0.013523,0.002678,0.000431,0.229650
135903000,0.0324,0.013523,0.002678,0.000431,0.206497
135904000,0.0324,0.013523,0.002678,0.000431,0.178995
135905000,0.0324,0.013523,0.002678,0.000431,0.150319
135906000,0.0324,0.013523,0.002678,0.000431,0.128928
135907000,0.0324,0.013523,0.002678,0.000431,0.110712
135908000,0.0324,0.013523,0.002678,0.000431,0.097548
135909000,0.0324,0.013523,0.002678,0.000431,0.075571
135910000,0.0324,0.013523,0.002678,0.000431,0.053945
135911000,0.0324,0.013523,0.002678,0.000431,0.051595
135912000,0.0324,0.013523,0.002678,0.000431,0.037491
135913000,0.0324,0.013523,0.002678,0.000431,0.041723
135914000,0.0324,0.013523,0.002678,0.000431,0.033731
135915000,0.0324,0.013523,0.002678,0.000431,0.024798
135916000,0.0324,0.013523,0.002678,0.000431,0.025974
135917000,0.0324,0.013523,0.002678,0.000431,0.023036
135918000,0.0324,0.013523,0.002678,0.000431,0.026561
135919000,0.0324,0.013523,0.002678,0.000431,0.013986
135920000,0.0324,0.013523,0.002678,0.000431,0.016807
135921000,0.0324,0.013523,0.002678,0.000431,0.016454
135922000,0.0324,0.013523,0.002678,0.000431,0.014221
135923000,0.0324,0.013523,0.002678,0.000431,0.016101
135924000,0.0324,0.013523,0.002678,0.000431,0.007052
135925000,0.0324,0.013523,0.002678,0.000431,0.007052
135926000,0.0324,0.013523,0.002678,0.000431,0.010578
135927000,0.0324,0.013523,0.002678,0.000431,0.005876
135928000,0.0324,0.013523,0.002678,0.000431,0.006934
135929000,0.0324,0.013523,0.002678,0.000431,0.005994
135930000,0.0324,0.013523,0.002678,0.000431,0.006111
135931000,0.0324,0.013523,0.002678,0.000431,0.008462
135932000,0.0324,0.013523,0.002678,0.000431,0.005524
135933000,0.0324,0.013523,0.002678,0.000431,0.004701
135934000,0.0324,0.013523,0.002678,0.000431,0.003291
135935000,0.0324,0.013523,0.002678,0.000431,0.003173
135936000,0.0324,0.013523,0.002678,0.000431,0.003526
135937000,0.0324,0.013523,0.002678,0.000431,0.004584
135938000,0.0324,0.013523,0.002678,0.000431,0.002468
135939000,0.0324,0.013523,0.002678,0.000431,0.002703
135940000,0.0324,0.013523,0.002678,0.000431,0.004701
135941000,0.0324,0.013523,0.002678,0.000431,0.001645
135942000,0.0324,0.013523,0.002678,0.000431,0.001763
135943000,0.0324,0.013523,0.002678,0.000431,0.001645
135944000,0.0324,0.013523,0.002678,0.000431,0.001645
135945000,0.0324,0.013523,0.002678,0.000431,0.001528
135946000,0.0324,0.013523,0.002678,0.000431,0.001528
135947000,0.0324,0.013523,0.002678,0.000431,0.001880
135948000,0.0324,0.013523,0.002678,0.000431,0.001645
135949000,0.0324,0.013523,0.002678,0.000431,0.001645
135950000,0.0324,0.013523,0.002678,0.000431,0.001763
135951000,0.0324,0.013523,0.002678,0.000431,0.001528
135952000,0.0324,0.013523,0.002678,0.000431,0.001763
135953000,0.0324,0.013523,0.002678,0.000431,0.001763
135954000,0.0324,0.013523,0.002678,0.000431,0.001645
135955000,0.0324,0.013523,0.002678,0.000431,0.001645
135956000,0.0324,0.013523,0.002678,0.000431,0.001645
135957000,0.0324,0.013523,0.002678,0.000431,0.001645
135958000,0.0324,0.013523,0.002678,0.000431,0.001645
135959000,0.0324,0.013523,0.002678,0.000431,0.001645
135960000,0.0324,0.013523,0.002678,0.000431,0.001763
135961000,0.0324,0.013523,0.002678,0.000431,0.001528
135962000,0.0324,0.013523,0.002678,0.000431,0.001645
135963000,0.0324,0.013523,0.002678,0.000431,0.001645
135964000,0.0324,0.013523,0.002678,0.000431,0.001880
135965000,0.0324,0.013523,0.002678,0.000431,0.001410
135966000,0.0324,0.013523,0.002678,0.000431,0.001528
135967000,0.0324,0.013523,0.002678,0.000431,0.001763
135968000,0.0324,0.013523,0.002678,0.000431,0.001645
135969000,0.0324,0.013523,0.002678,0.000431,0.001645
135970000,0.0324,0.013523,0.002678,0.000431,0.001880
135971000,0.0324,0.013523,0.002678,0.000431,0.001410
135972000,0.0324,0.013523,0.002678,0.000431,0.001528
135973000,0.0324,0.013523,0.002678,0.000431,0.001880
135974000,0.0324,0.013523,0.002678,0.000431,0.001528
135975000,0.0324,0.013523,0.002678,0.000431,0.004349
135976000,0.0324,0.013523,0.002678,0.000431,0.000823
135977000,0.0324,0.013523,0.002678,0.000431,0.000823
135978000,0.0324,0.013523,0.002678,0.000431,0.000940
135979000,0.0324,0.013523,0.002678,0.000431,0.000940
135980000,0.0324,0.013523,0.002678,0.000431,0.000823
135981000,0.0324,0.013523,0.002678,0.000431,0.000823
135982000,0.0324,0.013523,0.002678,0.000431,0.000940
135983000,0.0324,0.013523,0.002678,0.000431,0.000940
135984000,0.0324,0.013523,0.002678,0.000431,0.000823
135985000,0.0324,0.013523,0.002678,0.000431,0.000940
135986000,0.0324,0.013523,0.002678,0.000431,0.004584
135987000,0.0324,0.013523,0.002678,0.000431,0.622899
135988000,0.0324,0.013523,0.002678,0.000431,0.748067
135989000,0.0324,0.013523,0.002678,0.000431,0.196272
135990000,0.0324,0.013523,0.002678,0.000431,0.151024
135991000,0.0324,0.013523,0.002678,0.000431,0.565076
135992000,0.0324,0.013523,0.002678,0.000431,0.265849
135993000,0.0324,0.013523,0.002678,0.000431,0.348354
135994000,0.0324,0.013523,0.002678,0.000431,0.176880
135995000,0.0324,0.013523,0.002678,0.000431,0.165245
135996000,0.0324,0.013523,0.002678,0.000431,0.167595
135997000,0.0324,0.013523,0.002678,0.000431,0.556378
135998000,0.0324,0.013523,0.002678,0.000431,0.195684
135999000,0.0324,0.013523,0.002678,0.000431,0.161719
