Cycle,Area(mm^2),PeakDynamic(W),SubthresholdLeakage(W),GateLeakage(W),RunTimeDynamic(W)
60000000,0.0324,0.013523,0.002678,0.000431,0.000705
60001000,0.0324,0.013523,0.002678,0.000431,0.000940
60002000,0.0324,0.013523,0.002678,0.000431,0.000823
60003000,0.0324,0.013523,0.002678,0.000431,0.000823
60004000,0.0324,0.013523,0.002678,0.000431,0.000940
60005000,0.0324,0.013523,0.002678,0.000431,0.000705
60006000,0.0324,0.013523,0.002678,0.000431,0.000940
60007000,0.0324,0.013523,0.002678,0.000431,0.000823
60008000,0.0324,0.013523,0.002678,0.000431,0.073103
60009000,0.0324,0.013523,0.002678,0.000431,0.763816
60010000,0.0324,0.013523,0.002678,0.000431,0.518534
60011000,0.0324,0.013523,0.002678,0.000431,0.134922
60012000,0.0324,0.013523,0.002678,0.000431,0.207202
60013000,0.0324,0.013523,0.002678,0.000431,0.555908
60014000,0.0324,0.013523,0.002678,0.000431,0.265144
60015000,0.0324,0.013523,0.002678,0.000431,0.273253
60016000,0.0324,0.013523,0.002678,0.000431,0.151024
60017000,0.0324,0.013523,0.002678,0.000431,0.135863
60018000,0.0324,0.013523,0.002678,0.000431,0.256094
60019000,0.0324,0.013523,0.002678,0.000431,0.505606
60020000,0.0324,0.013523,0.002678,0.000431,0.191453
60021000,0.0324,0.013523,0.002678,0.000431,0.150554
60022000,0.0324,0.013523,0.002678,0.000431,0.125755
60023000,0.0324,0.013523,0.002678,0.000431,0.101779
60024000,0.0324,0.013523,0.002678,0.000431,0.068636
60025000,0.0324,0.013523,0.002678,0.000431,0.058764
60026000,0.0324,0.013523,0.002678,0.000431,0.052065
60027000,0.0324,0.013523,0.002678,0.000431,0.030557
60028000,0.0324,0.013523,0.002678,0.000431,0.036551
60029000,0.0324,0.013523,0.002678,0.000431,0.021743
60030000,0.0324,0.013523,0.002678,0.000431,0.013986
60031000,0.0324,0.013523,0.002678,0.000431,0.012928
60032000,0.0324,0.013523,0.002678,0.000431,0.012811
60033000,0.0324,0.013523,0.002678,0.000431,0.011283
60034000,0.0324,0.013523,0.002678,0.000431,0.008815
60035000,0.0324,0.013523,0.002678,0.000431,0.010813
60036000,0.0324,0.013523,0.002678,0.000431,0.006582
60037000,0.0324,0.013523,0.002678,0.000431,0.008227
60038000,0.0324,0.013523,0.002678,0.000431,0.005289
60039000,0.0324,0.013523,0.002678,0.000431,0.004936
60040000,0.0324,0.013523,0.002678,0.000431,0.005289
60041000,0.0324,0.013523,0.002678,0.000431,0.006111
60042000,0.0324,0.013523,0.002678,0.000431,0.005994
60043000,0.0324,0.013523,0.002678,0.000431,0.005171
60044000,0.0324,0.013523,0.002678,0.000431,0.008109
60045000,0.0324,0.013523,0.002678,0.000431,0.000823
60046000,0.0324,0.013523,0.002678,0.000431,0.000823
60047000,0.0324,0.013523,0.002678,0.000431,0.000705
60048000,0.0324,0.013523,0.002678,0.000431,0.000940
60049000,0.0324,0.013523,0.002678,0.000431,0.000940
60050000,0.0324,0.013523,0.002678,0.000431,0.000705
60051000,0.0324,0.013523,0.002678,0.000431,0.000940
60052000,0.0324,0.013523,0.002678,0.000431,0.000705
60053000,0.0324,0.013523,0.002678,0.000431,0.000823
60054000,0.0324,0.013523,0.002678,0.000431,0.000823
60055000,0.0324,0.013523,0.002678,0.000431,0.000940
60056000,0.0324,0.013523,0.002678,0.000431,0.000705
60057000,0.0324,0.013523,0.002678,0.000431,0.000940
60058000,0.0324,0.013523,0.002678,0.000431,0.000823
60059000,0.0324,0.013523,0.002678,0.000431,0.000823
60060000,0.0324,0.013523,0.002678,0.000431,0.000940
60061000,0.0324,0.013523,0.002678,0.000431,0.000705
60062000,0.0324,0.013523,0.002678,0.000431,0.000940
60063000,0.0324,0.013523,0.002678,0.000431,0.000823
60064000,0.0324,0.013523,0.002678,0.000431,0.000823
60065000,0.0324,0.013523,0.002678,0.000431,0.000823
60066000,0.0324,0.013523,0.002678,0.000431,0.000823
60067000,0.0324,0.013523,0.002678,0.000431,0.000823
60068000,0.0324,0.013523,0.002678,0.000431,0.000823
60069000,0.0324,0.013523,0.002678,0.000431,0.000940
60070000,0.0324,0.013523,0.002678,0.000431,0.000823
60071000,0.0324,0.013523,0.002678,0.000431,0.000823
60072000,0.0324,0.013523,0.002678,0.000431,0.000823
60073000,0.0324,0.013523,0.002678,0.000431,0.000823
60074000,0.0324,0.013523,0.002678,0.000431,0.000705
60075000,0.0324,0.013523,0.002678,0.000431,0.000940
60076000,0.0324,0.013523,0.002678,0.000431,0.000940
60077000,0.0324,0.013523,0.002678,0.000431,0.000705
60078000,0.0324,0.013523,0.002678,0.000431,0.000940
60079000,0.0324,0.013523,0.002678,0.000431,0.000705
60080000,0.0324,0.013523,0.002678,0.000431,0.000940
60081000,0.0324,0.013523,0.002678,0.000431,0.000940
60082000,0.0324,0.013523,0.002678,0.000431,0.000705
60083000,0.0324,0.013523,0.002678,0.000431,0.000940
60084000,0.0324,0.013523,0.002678,0.000431,0.000705
60085000,0.0324,0.013523,0.002678,0.000431,0.000940
60086000,0.0324,0.013523,0.002678,0.000431,0.000823
60087000,0.0324,0.013523,0.002678,0.000431,0.000823
60088000,0.0324,0.013523,0.002678,0.000431,0.000823
60089000,0.0324,0.013523,0.002678,0.000431,0.000823
60090000,0.0324,0.013523,0.002678,0.000431,0.000940
60091000,0.0324,0.013523,0.002678,0.000431,0.000705
60092000,0.0324,0.013523,0.002678,0.000431,0.000940
60093000,0.0324,0.013523,0.002678,0.000431,0.000823
60094000,0.0324,0.013523,0.002678,0.000431,0.000705
60095000,0.0324,0.013523,0.002678,0.000431,0.000940
60096000,0.0324,0.013523,0.002678,0.000431,0.000823
60097000,0.0324,0.013523,0.002678,0.000431,0.000823
60098000,0.0324,0.013523,0.002678,0.000431,0.000823
60099000,0.0324,0.013523,0.002678,0.000431,0.000823
60100000,0.0324,0.013523,0.002678,0.000431,0.000823
60101000,0.0324,0.013523,0.002678,0.000431,0.000940
60102000,0.0324,0.013523,0.002678,0.000431,0.000823
60103000,0.0324,0.013523,0.002678,0.000431,0.000823
60104000,0.0324,0.013523,0.002678,0.000431,0.000705
60105000,0.0324,0.013523,0.002678,0.000431,0.000940
60106000,0.0324,0.013523,0.002678,0.000431,0.000705
60107000,0.0324,0.013523,0.002678,0.000431,0.000940
60108000,0.0324,0.013523,0.002678,0.000431,0.000705
60109000,0.0324,0.013523,0.002678,0.000431,0.000940
60110000,0.0324,0.013523,0.002678,0.000431,0.000940
60111000,0.0324,0.013523,0.002678,0.000431,0.000705
60112000,0.0324,0.013523,0.002678,0.000431,0.000940
60113000,0.0324,0.013523,0.002678,0.000431,0.000705
60114000,0.0324,0.013523,0.002678,0.000431,0.000940
60115000,0.0324,0.013523,0.002678,0.000431,0.000940
60116000,0.0324,0.013523,0.002678,0.000431,0.000940
60117000,0.0324,0.013523,0.002678,0.000431,0.000705
60118000,0.0324,0.013523,0.002678,0.000431,0.000823
60119000,0.0324,0.013523,0.002678,0.000431,0.000823
60120000,0.0324,0.013523,0.002678,0.000431,0.000940
60121000,0.0324,0.013523,0.002678,0.000431,0.000705
60122000,0.0324,0.013523,0.002678,0.000431,0.000940
60123000,0.0324,0.013523,0.002678,0.000431,0.000705
60124000,0.0324,0.013523,0.002678,0.000431,0.000940
60125000,0.0324,0.013523,0.002678,0.000431,0.000823
60126000,0.0324,0.013523,0.002678,0.000431,0.000823
60127000,0.0324,0.013523,0.002678,0.000431,0.000940
60128000,0.0324,0.013523,0.002678,0.000431,0.000940
60129000,0.0324,0.013523,0.002678,0.000431,0.000705
60130000,0.0324,0.013523,0.002678,0.000431,0.000940
60131000,0.0324,0.013523,0.002678,0.000431,0.000705
60132000,0.0324,0.013523,0.002678,0.000431,0.000705
60133000,0.0324,0.013523,0.002678,0.000431,0.000940
60134000,0.0324,0.013523,0.002678,0.000431,0.121877
60135000,0.0324,0.013523,0.002678,0.000431,0.786499
60136000,0.0324,0.013523,0.002678,0.000431,0.495381
60137000,0.0324,0.013523,0.002678,0.000431,0.135392
60138000,0.0324,0.013523,0.002678,0.000431,0.318149
60139000,0.0324,0.013523,0.002678,0.000431,0.404062
60140000,0.0324,0.013523,0.002678,0.000431,0.252451
60141000,0.0324,0.013523,0.002678,0.000431,0.296994
60142000,0.0324,0.013523,0.002678,0.000431,0.159838
60143000,0.0324,0.013523,0.002678,0.000431,0.133865
60144000,0.0324,0.013523,0.002678,0.000431,0.283008
60145000,0.0324,0.013523,0.002678,0.000431,0.498084
60146000,0.0324,0.013523,0.002678,0.000431,0.208260
60147000,0.0324,0.013523,0.002678,0.000431,0.180876
60148000,0.0324,0.013523,0.002678,0.000431,0.141857
60149000,0.0324,0.013523,0.002678,0.000431,0.109889
60150000,0.0324,0.013523,0.002678,0.000431,0.081447
60151000,0.0324,0.013523,0.002678,0.000431,0.067226
60152000,0.0324,0.013523,0.002678,0.000431,0.068049
60153000,0.0324,0.013523,0.002678,0.000431,0.039489
60154000,0.0324,0.013523,0.002678,0.000431,0.036669
60155000,0.0324,0.013523,0.002678,0.000431,0.038784
60156000,0.0324,0.013523,0.002678,0.000431,0.023623
60157000,0.0324,0.013523,0.002678,0.000431,0.018805
60158000,0.0324,0.013523,0.002678,0.000431,0.023506
60159000,0.0324,0.013523,0.002678,0.000431,0.009990
60160000,0.0324,0.013523,0.002678,0.000431,0.007992
60161000,0.0324,0.013523,0.002678,0.000431,0.014221
60162000,0.0324,0.013523,0.002678,0.000431,0.006817
60163000,0.0324,0.013523,0.002678,0.000431,0.005289
60164000,0.0324,0.013523,0.002678,0.000431,0.009872
60165000,0.0324,0.013523,0.002678,0.000431,0.009050
60166000,0.0324,0.013523,0.002678,0.000431,0.002468
60167000,0.0324,0.013523,0.002678,0.000431,0.001645
60168000,0.0324,0.013523,0.002678,0.000431,0.003996
60169000,0.0324,0.013523,0.002678,0.000431,0.000940
60170000,0.0324,0.013523,0.002678,0.000431,0.000940
60171000,0.0324,0.013523,0.002678,0.000431,0.000705
60172000,0.0324,0.013523,0.002678,0.000431,0.000940
60173000,0.0324,0.013523,0.002678,0.000431,0.001058
60174000,0.0324,0.013523,0.002678,0.000431,0.016101
60175000,0.0324,0.013523,0.002678,0.000431,0.777919
60176000,0.0324,0.013523,0.002678,0.000431,0.585290
60177000,0.0324,0.013523,0.002678,0.000431,0.146440
60178000,0.0324,0.013523,0.002678,0.000431,0.143619
60179000,0.0324,0.013523,0.002678,0.000431,0.533695
60180000,0.0324,0.013523,0.002678,0.000431,0.240110
60181000,0.0324,0.013523,0.002678,0.000431,0.326141
60182000,0.0324,0.013523,0.002678,0.000431,0.201326
60183000,0.0324,0.013523,0.002678,0.000431,0.159016
60184000,0.0324,0.013523,0.002678,0.000431,0.106598
60185000,0.0324,0.013523,0.002678,0.000431,0.497497
60186000,0.0324,0.013523,0.002678,0.000431,0.268669
60187000,0.0324,0.013523,0.002678,0.000431,0.166185
60188000,0.0324,0.013523,0.002678,0.000431,0.141739
60189000,0.0324,0.013523,0.002678,0.000431,0.127636
60190000,0.0324,0.013523,0.002678,0.000431,0.109536
60191000,0.0324,0.013523,0.002678,0.000431,0.100016
60192000,0.0324,0.013523,0.002678,0.000431,0.084268
60193000,0.0324,0.013523,0.002678,0.000431,0.058294
60194000,0.0324,0.013523,0.002678,0.000431,0.049714
60195000,0.0324,0.013523,0.002678,0.000431,0.027854
60196000,0.0324,0.013523,0.002678,0.000431,0.018334
60197000,0.0324,0.013523,0.002678,0.000431,0.019745
60198000,0.0324,0.013523,0.002678,0.000431,0.015749
60199000,0.0324,0.013523,0.002678,0.000431,0.015396
60200000,0.0324,0.013523,0.002678,0.000431,0.016454
60201000,0.0324,0.013523,0.002678,0.000431,0.008932
60202000,0.0324,0.013523,0.002678,0.000431,0.004819
60203000,0.0324,0.013523,0.002678,0.000431,0.003173
60204000,0.0324,0.013523,0.002678,0.000431,0.005876
60205000,0.0324,0.013523,0.002678,0.000431,0.003643
60206000,0.0324,0.013523,0.002678,0.000431,0.030440
60207000,0.0324,0.013523,0.002678,0.000431,0.760877
60208000,0.0324,0.013523,0.002678,0.000431,0.561080
60209000,0.0324,0.013523,0.002678,0.000431,0.135392
60210000,0.0324,0.013523,0.002678,0.000431,0.144912
60211000,0.0324,0.013523,0.002678,0.000431,0.586701
60212000,0.0324,0.013523,0.002678,0.000431,0.240815
60213000,0.0324,0.013523,0.002678,0.000431,0.331782
60214000,0.0324,0.013523,0.002678,0.000431,0.152081
60215000,0.0324,0.013523,0.002678,0.000431,0.160426
60216000,0.0324,0.013523,0.002678,0.000431,0.166302
60217000,0.0324,0.013523,0.002678,0.000431,0.525469
60218000,0.0324,0.013523,0.002678,0.000431,0.188398
60219000,0.0324,0.013523,0.002678,0.000431,0.170533
60220000,0.0324,0.013523,0.002678,0.000431,0.147615
60221000,0.0324,0.013523,0.002678,0.000431,0.116118
60222000,0.0324,0.013523,0.002678,0.000431,0.118586
60223000,0.0324,0.013523,0.002678,0.000431,0.090262
60224000,0.0324,0.013523,0.002678,0.000431,0.085678
60225000,0.0324,0.013523,0.002678,0.000431,0.061585
60226000,0.0324,0.013523,0.002678,0.000431,0.038079
60227000,0.0324,0.013523,0.002678,0.000431,0.031498
60228000,0.0324,0.013523,0.002678,0.000431,0.032555
60229000,0.0324,0.013523,0.002678,0.000431,0.025386
60230000,0.0324,0.013523,0.002678,0.000431,0.019392
60231000,0.0324,0.013523,0.002678,0.000431,0.018452
60232000,0.0324,0.013523,0.002678,0.000431,0.013986
60233000,0.0324,0.013523,0.002678,0.000431,0.020450
60234000,0.0324,0.013523,0.002678,0.000431,0.006934
60235000,0.0324,0.013523,0.002678,0.000431,0.003291
60236000,0.0324,0.013523,0.002678,0.000431,0.002703
60237000,0.0324,0.013523,0.002678,0.000431,0.001645
60238000,0.0324,0.013523,0.002678,0.000431,0.004113
60239000,0.0324,0.013523,0.002678,0.000431,0.000823
60240000,0.0324,0.013523,0.002678,0.000431,0.000823
60241000,0.0324,0.013523,0.002678,0.000431,0.000823
60242000,0.0324,0.013523,0.002678,0.000431,0.000823
60243000,0.0324,0.013523,0.002678,0.000431,0.000705
60244000,0.0324,0.013523,0.002678,0.000431,0.068872
60245000,0.0324,0.013523,0.002678,0.000431,0.723856
60246000,0.0324,0.013523,0.002678,0.000431,0.555673
60247000,0.0324,0.013523,0.002678,0.000431,0.135863
60248000,0.0324,0.013523,0.002678,0.000431,0.197565
60249000,0.0324,0.013523,0.002678,0.000431,0.557906
60250000,0.0324,0.013523,0.002678,0.000431,0.294056
60251000,0.0324,0.013523,0.002678,0.000431,0.236702
60252000,0.0324,0.013523,0.002678,0.000431,0.147145
60253000,0.0324,0.013523,0.002678,0.000431,0.147615
60254000,0.0324,0.013523,0.002678,0.000431,0.234351
60255000,0.0324,0.013523,0.002678,0.000431,0.469760
60256000,0.0324,0.013523,0.002678,0.000431,0.171004
60257000,0.0324,0.013523,0.002678,0.000431,0.150554
60258000,0.0324,0.013523,0.002678,0.000431,0.146675
60259000,0.0324,0.013523,0.002678,0.000431,0.133512
60260000,0.0324,0.013523,0.002678,0.000431,0.104835
60261000,0.0324,0.013523,0.002678,0.000431,0.085796
60262000,0.0324,0.013523,0.002678,0.000431,0.069929
60263000,0.0324,0.013523,0.002678,0.000431,0.055238
60264000,0.0324,0.013523,0.002678,0.000431,0.050890
60265000,0.0324,0.013523,0.002678,0.000431,0.035846
60266000,0.0324,0.013523,0.002678,0.000431,0.036551
60267000,0.0324,0.013523,0.002678,0.000431,0.032673
60268000,0.0324,0.013523,0.002678,0.000431,0.019745
60269000,0.0324,0.013523,0.002678,0.000431,0.017159
60270000,0.0324,0.013523,0.002678,0.000431,0.017277
60271000,0.0324,0.013523,0.002678,0.000431,0.021390
60272000,0.0324,0.013523,0.002678,0.000431,0.008345
60273000,0.0324,0.013523,0.002678,0.000431,0.007639
60274000,0.0324,0.013523,0.002678,0.000431,0.008109
60275000,0.0324,0.013523,0.002678,0.000431,0.006699
60276000,0.0324,0.013523,0.002678,0.000431,0.011283
60277000,0.0324,0.013523,0.002678,0.000431,0.006464
60278000,0.0324,0.013523,0.002678,0.000431,0.006229
60279000,0.0324,0.013523,0.002678,0.000431,0.002586
60280000,0.0324,0.013523,0.002678,0.000431,0.005994
60281000,0.0324,0.013523,0.002678,0.000431,0.003173
60282000,0.0324,0.013523,0.002678,0.000431,0.002703
60283000,0.0324,0.013523,0.002678,0.000431,0.000705
60284000,0.0324,0.013523,0.002678,0.000431,0.000940
60285000,0.0324,0.013523,0.002678,0.000431,0.000940
60286000,0.0324,0.013523,0.002678,0.000431,0.000705
60287000,0.0324,0.013523,0.002678,0.000431,0.000940
60288000,0.0324,0.013523,0.002678,0.000431,0.000940
60289000,0.0324,0.013523,0.002678,0.000431,0.000705
60290000,0.0324,0.013523,0.002678,0.000431,0.000940
60291000,0.0324,0.013523,0.002678,0.000431,0.000823
60292000,0.0324,0.013523,0.002678,0.000431,0.000823
60293000,0.0324,0.013523,0.002678,0.000431,0.176762
60294000,0.0324,0.013523,0.002678,0.000431,0.681781
60295000,0.0324,0.013523,0.002678,0.000431,0.490328
60296000,0.0324,0.013523,0.002678,0.000431,0.134922
60297000,0.0324,0.013523,0.002678,0.000431,0.313448
60298000,0.0324,0.013523,0.002678,0.000431,0.484451
60299000,0.0324,0.013523,0.002678,0.000431,0.271020
60300000,0.0324,0.013523,0.002678,0.000431,0.253861
60301000,0.0324,0.013523,0.002678,0.000431,0.158898
60302000,0.0324,0.013523,0.002678,0.000431,0.111299
60303000,0.0324,0.013523,0.002678,0.000431,0.388901
60304000,0.0324,0.013523,0.002678,0.000431,0.420398
60305000,0.0324,0.013523,0.002678,0.000431,0.212726
60306000,0.0324,0.013523,0.002678,0.000431,0.181346
60307000,0.0324,0.013523,0.002678,0.000431,0.141739
60308000,0.0324,0.013523,0.002678,0.000431,0.115883
60309000,0.0324,0.013523,0.002678,0.000431,0.092142
60310000,0.0324,0.013523,0.002678,0.000431,0.075101
60311000,0.0324,0.013523,0.002678,0.000431,0.070282
60312000,0.0324,0.013523,0.002678,0.000431,0.045836
60313000,0.0324,0.013523,0.002678,0.000431,0.039372
60314000,0.0324,0.013523,0.002678,0.000431,0.028442
60315000,0.0324,0.013523,0.002678,0.000431,0.033143
60316000,0.0324,0.013523,0.002678,0.000431,0.021155
60317000,0.0324,0.013523,0.002678,0.000431,0.018922
60318000,0.0324,0.013523,0.002678,0.000431,0.020215
60319000,0.0324,0.013523,0.002678,0.000431,0.017042
60320000,0.0324,0.013523,0.002678,0.000431,0.013516
60321000,0.0324,0.013523,0.002678,0.000431,0.009402
60322000,0.0324,0.013523,0.002678,0.000431,0.011635
60323000,0.0324,0.013523,0.002678,0.000431,0.005406
60324000,0.0324,0.013523,0.002678,0.000431,0.006229
60325000,0.0324,0.013523,0.002678,0.000431,0.010460
60326000,0.0324,0.013523,0.002678,0.000431,0.005406
60327000,0.0324,0.013523,0.002678,0.000431,0.004231
60328000,0.0324,0.013523,0.002678,0.000431,0.002233
60329000,0.0324,0.013523,0.002678,0.000431,0.002821
60330000,0.0324,0.013523,0.002678,0.000431,0.002233
60331000,0.0324,0.013523,0.002678,0.000431,0.008227
60332000,0.0324,0.013523,0.002678,0.000431,0.676610
60333000,0.0324,0.013523,0.002678,0.000431,0.654985
60334000,0.0324,0.013523,0.002678,0.000431,0.157488
60335000,0.0324,0.013523,0.002678,0.000431,0.140799
60336000,0.0324,0.013523,0.002678,0.000431,0.542158
60337000,0.0324,0.013523,0.002678,0.000431,0.268317
60338000,0.0324,0.013523,0.002678,0.000431,0.320499
60339000,0.0324,0.013523,0.002678,0.000431,0.152199
60340000,0.0324,0.013523,0.002678,0.000431,0.180053
60341000,0.0324,0.013523,0.002678,0.000431,0.119056
60342000,0.0324,0.013523,0.002678,0.000431,0.553675
60343000,0.0324,0.013523,0.002678,0.000431,0.178173
60344000,0.0324,0.013523,0.002678,0.000431,0.144090
60345000,0.0324,0.013523,0.002678,0.000431,0.128106
60346000,0.0324,0.013523,0.002678,0.000431,0.102014
60347000,0.0324,0.013523,0.002678,0.000431,0.092260
60348000,0.0324,0.013523,0.002678,0.000431,0.077098
60349000,0.0324,0.013523,0.002678,0.000431,0.063935
60350000,0.0324,0.013523,0.002678,0.000431,0.049009
60351000,0.0324,0.013523,0.002678,0.000431,0.037139
60352000,0.0324,0.013523,0.002678,0.000431,0.031850
60353000,0.0324,0.013523,0.002678,0.000431,0.024798
60354000,0.0324,0.013523,0.002678,0.000431,0.019040
60355000,0.0324,0.013523,0.002678,0.000431,0.012458
60356000,0.0324,0.013523,0.002678,0.000431,0.013516
60357000,0.0324,0.013523,0.002678,0.000431,0.010107
60358000,0.0324,0.013523,0.002678,0.000431,0.012693
60359000,0.0324,0.013523,0.002678,0.000431,0.006229
60360000,0.0324,0.013523,0.002678,0.000431,0.007404
60361000,0.0324,0.013523,0.002678,0.000431,0.005641
60362000,0.0324,0.013523,0.002678,0.000431,0.003291
60363000,0.0324,0.013523,0.002678,0.000431,0.004231
60364000,0.0324,0.013523,0.002678,0.000431,0.074043
60365000,0.0324,0.013523,0.002678,0.000431,0.735374
60366000,0.0324,0.013523,0.002678,0.000431,0.538044
60367000,0.0324,0.013523,0.002678,0.000431,0.138918
60368000,0.0324,0.013523,0.002678,0.000431,0.227300
60369000,0.0324,0.013523,0.002678,0.000431,0.548269
60370000,0.0324,0.013523,0.002678,0.000431,0.266789
60371000,0.0324,0.013523,0.002678,0.000431,0.317679
60372000,0.0324,0.013523,0.002678,0.000431,0.148556
60373000,0.0324,0.013523,0.002678,0.000431,0.110594
60374000,0.0324,0.013523,0.002678,0.000431,0.393484
60375000,0.0324,0.013523,0.002678,0.000431,0.358343
60376000,0.0324,0.013523,0.002678,0.000431,0.165010
60377000,0.0324,0.013523,0.002678,0.000431,0.143149
60378000,0.0324,0.013523,0.002678,0.000431,0.127165
60379000,0.0324,0.013523,0.002678,0.000431,0.106128
60380000,0.0324,0.013523,0.002678,0.000431,0.085443
60381000,0.0324,0.013523,0.002678,0.000431,0.072280
60382000,0.0324,0.013523,0.002678,0.000431,0.052300
60383000,0.0324,0.013523,0.002678,0.000431,0.046776
60384000,0.0324,0.013523,0.002678,0.000431,0.040195
60385000,0.0324,0.013523,0.002678,0.000431,0.038314
60386000,0.0324,0.013523,0.002678,0.000431,0.032203
60387000,0.0324,0.013523,0.002678,0.000431,0.032203
60388000,0.0324,0.013523,0.002678,0.000431,0.022565
60389000,0.0324,0.013523,0.002678,0.000431,0.021625
60390000,0.0324,0.013523,0.002678,0.000431,0.016807
60391000,0.0324,0.013523,0.002678,0.000431,0.016101
60392000,0.0324,0.013523,0.002678,0.000431,0.018099
60393000,0.0324,0.013523,0.002678,0.000431,0.008345
60394000,0.0324,0.013523,0.002678,0.000431,0.006699
60395000,0.0324,0.013523,0.002678,0.000431,0.006229
60396000,0.0324,0.013523,0.002678,0.000431,0.007169
60397000,0.0324,0.013523,0.002678,0.000431,0.006347
60398000,0.0324,0.013523,0.002678,0.000431,0.005641
60399000,0.0324,0.013523,0.002678,0.000431,0.007287
60400000,0.0324,0.013523,0.002678,0.000431,0.006111
60401000,0.0324,0.013523,0.002678,0.000431,0.005641
60402000,0.0324,0.013523,0.002678,0.000431,0.008227
60403000,0.0324,0.013523,0.002678,0.000431,0.007404
60404000,0.0324,0.013523,0.002678,0.000431,0.005876
60405000,0.0324,0.013523,0.002678,0.000431,0.003526
60406000,0.0324,0.013523,0.002678,0.000431,0.006464
60407000,0.0324,0.013523,0.002678,0.000431,0.000940
60408000,0.0324,0.013523,0.002678,0.000431,0.000705
60409000,0.0324,0.013523,0.002678,0.000431,0.003056
60410000,0.0324,0.013523,0.002678,0.000431,0.608326
60411000,0.0324,0.013523,0.002678,0.000431,0.668500
60412000,0.0324,0.013523,0.002678,0.000431,0.154667
60413000,0.0324,0.013523,0.002678,0.000431,0.148908
60414000,0.0324,0.013523,0.002678,0.000431,0.598571
60415000,0.0324,0.013523,0.002678,0.000431,0.265849
60416000,0.0324,0.013523,0.002678,0.000431,0.305221
60417000,0.0324,0.013523,0.002678,0.000431,0.146558
60418000,0.0324,0.013523,0.002678,0.000431,0.140446
60419000,0.0324,0.013523,0.002678,0.000431,0.246574
60420000,0.0324,0.013523,0.002678,0.000431,0.480690
60421000,0.0324,0.013523,0.002678,0.000431,0.171356
60422000,0.0324,0.013523,0.002678,0.000431,0.155960
60423000,0.0324,0.013523,0.002678,0.000431,0.148203
60424000,0.0324,0.013523,0.002678,0.000431,0.124697
60425000,0.0324,0.013523,0.002678,0.000431,0.103660
60426000,0.0324,0.013523,0.002678,0.000431,0.075453
60427000,0.0324,0.013523,0.002678,0.000431,0.057236
60428000,0.0324,0.013523,0.002678,0.000431,0.048539
60429000,0.0324,0.013523,0.002678,0.000431,0.031027
60430000,0.0324,0.013523,0.002678,0.000431,0.024446
60431000,0.0324,0.013523,0.002678,0.000431,0.032908
60432000,0.0324,0.013523,0.002678,0.000431,0.020097
60433000,0.0324,0.013523,0.002678,0.000431,0.018569
60434000,0.0324,0.013523,0.002678,0.000431,0.017512
60435000,0.0324,0.013523,0.002678,0.000431,0.017042
60436000,0.0324,0.013523,0.002678,0.000431,0.006934
60437000,0.0324,0.013523,0.002678,0.000431,0.004349
60438000,0.0324,0.013523,0.002678,0.000431,0.004113
60439000,0.0324,0.013523,0.002678,0.000431,0.005524
60440000,0.0324,0.013523,0.002678,0.000431,0.003408
60441000,0.0324,0.013523,0.002678,0.000431,0.003173
60442000,0.0324,0.013523,0.002678,0.000431,0.003526
60443000,0.0324,0.013523,0.002678,0.000431,0.005054
60444000,0.0324,0.013523,0.002678,0.000431,0.004113
60445000,0.0324,0.013523,0.002678,0.000431,0.001410
60446000,0.0324,0.013523,0.002678,0.000431,0.001880
60447000,0.0324,0.013523,0.002678,0.000431,0.004113
60448000,0.0324,0.013523,0.002678,0.000431,0.000940
60449000,0.0324,0.013523,0.002678,0.000431,0.000823
60450000,0.0324,0.013523,0.002678,0.000431,0.000823
60451000,0.0324,0.013523,0.002678,0.000431,0.000823
60452000,0.0324,0.013523,0.002678,0.000431,0.000823
60453000,0.0324,0.013523,0.002678,0.000431,0.000823
60454000,0.0324,0.013523,0.002678,0.000431,0.000940
60455000,0.0324,0.013523,0.002678,0.000431,0.263616
60456000,0.0324,0.013523,0.002678,0.000431,0.758997
60457000,0.0324,0.013523,0.002678,0.000431,0.369509
60458000,0.0324,0.013523,0.002678,0.000431,0.135980
60459000,0.0324,0.013523,0.002678,0.000431,0.458125
60460000,0.0324,0.013523,0.002678,0.000431,0.320147
60461000,0.0324,0.013523,0.002678,0.000431,0.262675
60462000,0.0324,0.013523,0.002678,0.000431,0.271608
60463000,0.0324,0.013523,0.002678,0.000431,0.147733
60464000,0.0324,0.013523,0.002678,0.000431,0.116941
60465000,0.0324,0.013523,0.002678,0.000431,0.374797
60466000,0.0324,0.013523,0.002678,0.000431,0.390311
60467000,0.0324,0.013523,0.002678,0.000431,0.179583
60468000,0.0324,0.013523,0.002678,0.000431,0.157605
60469000,0.0324,0.013523,0.002678,0.000431,0.125990
60470000,0.0324,0.013523,0.002678,0.000431,0.103072
60471000,0.0324,0.013523,0.002678,0.000431,0.073925
60472000,0.0324,0.013523,0.002678,0.000431,0.060645
60473000,0.0324,0.013523,0.002678,0.000431,0.032203
60474000,0.0324,0.013523,0.002678,0.000431,0.027619
60475000,0.0324,0.013523,0.002678,0.000431,0.021625
60476000,0.0324,0.013523,0.002678,0.000431,0.016454
60477000,0.0324,0.013523,0.002678,0.000431,0.017629
60478000,0.0324,0.013523,0.002678,0.000431,0.022448
60479000,0.0324,0.013523,0.002678,0.000431,0.010813
60480000,0.0324,0.013523,0.002678,0.000431,0.011870
60481000,0.0324,0.013523,0.002678,0.000431,0.007522
60482000,0.0324,0.013523,0.002678,0.000431,0.008227
60483000,0.0324,0.013523,0.002678,0.000431,0.008462
60484000,0.0324,0.013523,0.002678,0.000431,0.009285
60485000,0.0324,0.013523,0.002678,0.000431,0.010342
60486000,0.0324,0.013523,0.002678,0.000431,0.003761
60487000,0.0324,0.013523,0.002678,0.000431,0.002586
60488000,0.0324,0.013523,0.002678,0.000431,0.004231
60489000,0.0324,0.013523,0.002678,0.000431,0.003408
60490000,0.0324,0.013523,0.002678,0.000431,0.001763
60491000,0.0324,0.013523,0.002678,0.000431,0.001528
60492000,0.0324,0.013523,0.002678,0.000431,0.001880
60493000,0.0324,0.013523,0.002678,0.000431,0.003878
60494000,0.0324,0.013523,0.002678,0.000431,0.000940
60495000,0.0324,0.013523,0.002678,0.000431,0.000705
60496000,0.0324,0.013523,0.002678,0.000431,0.000940
60497000,0.0324,0.013523,0.002678,0.000431,0.000823
60498000,0.0324,0.013523,0.002678,0.000431,0.000823
60499000,0.0324,0.013523,0.002678,0.000431,0.000823
60500000,0.0324,0.013523,0.002678,0.000431,0.000823
60501000,0.0324,0.013523,0.002678,0.000431,0.000940
60502000,0.0324,0.013523,0.002678,0.000431,0.000705
60503000,0.0324,0.013523,0.002678,0.000431,0.000940
60504000,0.0324,0.013523,0.002678,0.000431,0.000705
60505000,0.0324,0.013523,0.002678,0.000431,0.000940
60506000,0.0324,0.013523,0.002678,0.000431,0.000823
60507000,0.0324,0.013523,0.002678,0.000431,0.000823
60508000,0.0324,0.013523,0.002678,0.000431,0.000823
60509000,0.0324,0.013523,0.002678,0.000431,0.000823
60510000,0.0324,0.013523,0.002678,0.000431,0.000940
60511000,0.0324,0.013523,0.002678,0.000431,0.000705
60512000,0.0324,0.013523,0.002678,0.000431,0.000940
60513000,0.0324,0.013523,0.002678,0.000431,0.000823
60514000,0.0324,0.013523,0.002678,0.000431,0.000705
60515000,0.0324,0.013523,0.002678,0.000431,0.000940
60516000,0.0324,0.013523,0.002678,0.000431,0.000823
60517000,0.0324,0.013523,0.002678,0.000431,0.000823
60518000,0.0324,0.013523,0.002678,0.000431,0.000823
60519000,0.0324,0.013523,0.002678,0.000431,0.000823
60520000,0.0324,0.013523,0.002678,0.000431,0.000823
60521000,0.0324,0.013523,0.002678,0.000431,0.000940
60522000,0.0324,0.013523,0.002678,0.000431,0.000823
60523000,0.0324,0.013523,0.002678,0.000431,0.000823
60524000,0.0324,0.013523,0.002678,0.000431,0.000705
60525000,0.0324,0.013523,0.002678,0.000431,0.000940
60526000,0.0324,0.013523,0.002678,0.000431,0.000940
60527000,0.0324,0.013523,0.002678,0.000431,0.000705
60528000,0.0324,0.013523,0.002678,0.000431,0.000940
60529000,0.0324,0.013523,0.002678,0.000431,0.000823
60530000,0.0324,0.013523,0.002678,0.000431,0.000823
60531000,0.0324,0.013523,0.002678,0.000431,0.000940
60532000,0.0324,0.013523,0.002678,0.000431,0.000823
60533000,0.0324,0.013523,0.002678,0.000431,0.000823
60534000,0.0324,0.013523,0.002678,0.000431,0.000823
60535000,0.0324,0.013523,0.002678,0.000431,0.000823
60536000,0.0324,0.013523,0.002678,0.000431,0.000823
60537000,0.0324,0.013523,0.002678,0.000431,0.086971
60538000,0.0324,0.013523,0.002678,0.000431,0.795901
60539000,0.0324,0.013523,0.002678,0.000431,0.494088
60540000,0.0324,0.013523,0.002678,0.000431,0.137273
60541000,0.0324,0.013523,0.002678,0.000431,0.356816
60542000,0.0324,0.013523,0.002678,0.000431,0.401946
60543000,0.0324,0.013523,0.002678,0.000431,0.295466
60544000,0.0324,0.013523,0.002678,0.000431,0.256211
60545000,0.0324,0.013523,0.002678,0.000431,0.171944
60546000,0.0324,0.013523,0.002678,0.000431,0.098489
60547000,0.0324,0.013523,0.002678,0.000431,0.522648
60548000,0.0324,0.013523,0.002678,0.000431,0.217780
60549000,0.0324,0.013523,0.002678,0.000431,0.163952
60550000,0.0324,0.013523,0.002678,0.000431,0.142679
60551000,0.0324,0.013523,0.002678,0.000431,0.125168
60552000,0.0324,0.013523,0.002678,0.000431,0.108008
60553000,0.0324,0.013523,0.002678,0.000431,0.081565
60554000,0.0324,0.013523,0.002678,0.000431,0.069459
60555000,0.0324,0.013523,0.002678,0.000431,0.066638
60556000,0.0324,0.013523,0.002678,0.000431,0.043485
60557000,0.0324,0.013523,0.002678,0.000431,0.042310
60558000,0.0324,0.013523,0.002678,0.000431,0.035494
60559000,0.0324,0.013523,0.002678,0.000431,0.025386
60560000,0.0324,0.013523,0.002678,0.000431,0.026796
60561000,0.0324,0.013523,0.002678,0.000431,0.027031
60562000,0.0324,0.013523,0.002678,0.000431,0.015279
60563000,0.0324,0.013523,0.002678,0.000431,0.011165
60564000,0.0324,0.013523,0.002678,0.000431,0.009167
60565000,0.0324,0.013523,0.002678,0.000431,0.002586
60566000,0.0324,0.013523,0.002678,0.000431,0.002703
60567000,0.0324,0.013523,0.002678,0.000431,0.003291
60568000,0.0324,0.013523,0.002678,0.000431,0.002233
60569000,0.0324,0.013523,0.002678,0.000431,0.000705
60570000,0.0324,0.013523,0.002678,0.000431,0.000940
60571000,0.0324,0.013523,0.002678,0.000431,0.000705
60572000,0.0324,0.013523,0.002678,0.000431,0.000940
60573000,0.0324,0.013523,0.002678,0.000431,0.000705
60574000,0.0324,0.013523,0.002678,0.000431,0.000940
60575000,0.0324,0.013523,0.002678,0.000431,0.000823
60576000,0.0324,0.013523,0.002678,0.000431,0.000823
60577000,0.0324,0.013523,0.002678,0.000431,0.004701
60578000,0.0324,0.013523,0.002678,0.000431,0.595868
60579000,0.0324,0.013523,0.002678,0.000431,0.677903
60580000,0.0324,0.013523,0.002678,0.000431,0.135392
60581000,0.0324,0.013523,0.002678,0.000431,0.135863
60582000,0.0324,0.013523,0.002678,0.000431,0.532873
60583000,0.0324,0.013523,0.002678,0.000431,0.238700
60584000,0.0324,0.013523,0.002678,0.000431,0.322380
60585000,0.0324,0.013523,0.002678,0.000431,0.208730
60586000,0.0324,0.013523,0.002678,0.000431,0.158546
60587000,0.0324,0.013523,0.002678,0.000431,0.116588
60588000,0.0324,0.013523,0.002678,0.000431,0.489975
60589000,0.0324,0.013523,0.002678,0.000431,0.283713
60590000,0.0324,0.013523,0.002678,0.000431,0.163717
60591000,0.0324,0.013523,0.002678,0.000431,0.163129
60592000,0.0324,0.013523,0.002678,0.000431,0.115765
60593000,0.0324,0.013523,0.002678,0.000431,0.114943
60594000,0.0324,0.013523,0.002678,0.000431,0.093200
60595000,0.0324,0.013523,0.002678,0.000431,0.072985
60596000,0.0324,0.013523,0.002678,0.000431,0.062878
60597000,0.0324,0.013523,0.002678,0.000431,0.056178
60598000,0.0324,0.013523,0.002678,0.000431,0.048069
60599000,0.0324,0.013523,0.002678,0.000431,0.044661
60600000,0.0324,0.013523,0.002678,0.000431,0.039725
60601000,0.0324,0.013523,0.002678,0.000431,0.029617
60602000,0.0324,0.013523,0.002678,0.000431,0.026561
60603000,0.0324,0.013523,0.002678,0.000431,0.026444
60604000,0.0324,0.013523,0.002678,0.000431,0.022330
60605000,0.0324,0.013523,0.002678,0.000431,0.021273
60606000,0.0324,0.013523,0.002678,0.000431,0.014456
60607000,0.0324,0.013523,0.002678,0.000431,0.015749
60608000,0.0324,0.013523,0.002678,0.000431,0.014338
60609000,0.0324,0.013523,0.002678,0.000431,0.007992
60610000,0.0324,0.013523,0.002678,0.000431,0.006934
60611000,0.0324,0.013523,0.002678,0.000431,0.006464
60612000,0.0324,0.013523,0.002678,0.000431,0.011753
60613000,0.0324,0.013523,0.002678,0.000431,0.008345
60614000,0.0324,0.013523,0.002678,0.000431,0.003643
60615000,0.0324,0.013523,0.002678,0.000431,0.002821
60616000,0.0324,0.013523,0.002678,0.000431,0.004466
60617000,0.0324,0.013523,0.002678,0.000431,0.001880
60618000,0.0324,0.013523,0.002678,0.000431,0.003878
60619000,0.0324,0.013523,0.002678,0.000431,0.002351
60620000,0.0324,0.013523,0.002678,0.000431,0.421809
60621000,0.0324,0.013523,0.002678,0.000431,0.754413
60622000,0.0324,0.013523,0.002678,0.000431,0.241050
60623000,0.0324,0.013523,0.002678,0.000431,0.136333
60624000,0.0324,0.013523,0.002678,0.000431,0.551677
60625000,0.0324,0.013523,0.002678,0.000431,0.290060
60626000,0.0324,0.013523,0.002678,0.000431,0.267612
60627000,0.0324,0.013523,0.002678,0.000431,0.210023
60628000,0.0324,0.013523,0.002678,0.000431,0.161954
60629000,0.0324,0.013523,0.002678,0.000431,0.104365
60630000,0.0324,0.013523,0.002678,0.000431,0.504784
60631000,0.0324,0.013523,0.002678,0.000431,0.222951
60632000,0.0324,0.013523,0.002678,0.000431,0.140329
60633000,0.0324,0.013523,0.002678,0.000431,0.122229
60634000,0.0324,0.013523,0.002678,0.000431,0.105775
60635000,0.0324,0.013523,0.002678,0.000431,0.093200
60636000,0.0324,0.013523,0.002678,0.000431,0.080742
60637000,0.0324,0.013523,0.002678,0.000431,0.065816
60638000,0.0324,0.013523,0.002678,0.000431,0.045836
60639000,0.0324,0.013523,0.002678,0.000431,0.047129
60640000,0.0324,0.013523,0.002678,0.000431,0.036316
60641000,0.0324,0.013523,0.002678,0.000431,0.024916
60642000,0.0324,0.013523,0.002678,0.000431,0.021390
60643000,0.0324,0.013523,0.002678,0.000431,0.020920
60644000,0.0324,0.013523,0.002678,0.000431,0.020685
60645000,0.0324,0.013523,0.002678,0.000431,0.018569
60646000,0.0324,0.013523,0.002678,0.000431,0.015749
60647000,0.0324,0.013523,0.002678,0.000431,0.015749
60648000,0.0324,0.013523,0.002678,0.000431,0.014221
60649000,0.0324,0.013523,0.002678,0.000431,0.013751
60650000,0.0324,0.013523,0.002678,0.000431,0.010813
60651000,0.0324,0.013523,0.002678,0.000431,0.011048
60652000,0.0324,0.013523,0.002678,0.000431,0.010107
60653000,0.0324,0.013523,0.002678,0.000431,0.011283
60654000,0.0324,0.013523,0.002678,0.000431,0.010342
60655000,0.0324,0.013523,0.002678,0.000431,0.013163
60656000,0.0324,0.013523,0.002678,0.000431,0.012576
60657000,0.0324,0.013523,0.002678,0.000431,0.004936
60658000,0.0324,0.013523,0.002678,0.000431,0.004349
60659000,0.0324,0.013523,0.002678,0.000431,0.002703
60660000,0.0324,0.013523,0.002678,0.000431,0.003878
60661000,0.0324,0.013523,0.002678,0.000431,0.001528
60662000,0.0324,0.013523,0.002678,0.000431,0.001058
60663000,0.0324,0.013523,0.002678,0.000431,0.014573
60664000,0.0324,0.013523,0.002678,0.000431,0.717980
60665000,0.0324,0.013523,0.002678,0.000431,0.546859
60666000,0.0324,0.013523,0.002678,0.000431,0.134687
60667000,0.0324,0.013523,0.002678,0.000431,0.137508
60668000,0.0324,0.013523,0.002678,0.000431,0.548739
60669000,0.0324,0.013523,0.002678,0.000431,0.262793
60670000,0.0324,0.013523,0.002678,0.000431,0.306749
60671000,0.0324,0.013523,0.002678,0.000431,0.152317
60672000,0.0324,0.013523,0.002678,0.000431,0.177468
60673000,0.0324,0.013523,0.002678,0.000431,0.136920
60674000,0.0324,0.013523,0.002678,0.000431,0.552618
60675000,0.0324,0.013523,0.002678,0.000431,0.264673
60676000,0.0324,0.013523,0.002678,0.000431,0.212138
60677000,0.0324,0.013523,0.002678,0.000431,0.174882
60678000,0.0324,0.013523,0.002678,0.000431,0.158428
60679000,0.0324,0.013523,0.002678,0.000431,0.112945
60680000,0.0324,0.013523,0.002678,0.000431,0.099664
60681000,0.0324,0.013523,0.002678,0.000431,0.088029
60682000,0.0324,0.013523,0.002678,0.000431,0.071692
60683000,0.0324,0.013523,0.002678,0.000431,0.070752
60684000,0.0324,0.013523,0.002678,0.000431,0.051830
60685000,0.0324,0.013523,0.002678,0.000431,0.042310
60686000,0.0324,0.013523,0.002678,0.000431,0.031498
60687000,0.0324,0.013523,0.002678,0.000431,0.025739
60688000,0.0324,0.013523,0.002678,0.000431,0.023271
60689000,0.0324,0.013523,0.002678,0.000431,0.019510
60690000,0.0324,0.013523,0.002678,0.000431,0.020802
60691000,0.0324,0.013523,0.002678,0.000431,0.017042
60692000,0.0324,0.013523,0.002678,0.000431,0.015631
60693000,0.0324,0.013523,0.002678,0.000431,0.011400
60694000,0.0324,0.013523,0.002678,0.000431,0.006817
60695000,0.0324,0.013523,0.002678,0.000431,0.005289
60696000,0.0324,0.013523,0.002678,0.000431,0.006229
60697000,0.0324,0.013523,0.002678,0.000431,0.008580
60698000,0.0324,0.013523,0.002678,0.000431,0.003996
60699000,0.0324,0.013523,0.002678,0.000431,0.006699
60700000,0.0324,0.013523,0.002678,0.000431,0.003408
60701000,0.0324,0.013523,0.002678,0.000431,0.003408
60702000,0.0324,0.013523,0.002678,0.000431,0.003291
60703000,0.0324,0.013523,0.002678,0.000431,0.003408
60704000,0.0324,0.013523,0.002678,0.000431,0.003526
60705000,0.0324,0.013523,0.002678,0.000431,0.006934
60706000,0.0324,0.013523,0.002678,0.000431,0.005289
60707000,0.0324,0.013523,0.002678,0.000431,0.000823
60708000,0.0324,0.013523,0.002678,0.000431,0.000940
60709000,0.0324,0.013523,0.002678,0.000431,0.000705
60710000,0.0324,0.013523,0.002678,0.000431,0.000940
60711000,0.0324,0.013523,0.002678,0.000431,0.000823
60712000,0.0324,0.013523,0.002678,0.000431,0.000823
60713000,0.0324,0.013523,0.002678,0.000431,0.000823
60714000,0.0324,0.013523,0.002678,0.000431,0.000823
60715000,0.0324,0.013523,0.002678,0.000431,0.000940
60716000,0.0324,0.013523,0.002678,0.000431,0.000705
60717000,0.0324,0.013523,0.002678,0.000431,0.000823
60718000,0.0324,0.013523,0.002678,0.000431,0.000940
60719000,0.0324,0.013523,0.002678,0.000431,0.000823
60720000,0.0324,0.013523,0.002678,0.000431,0.000823
60721000,0.0324,0.013523,0.002678,0.000431,0.000823
60722000,0.0324,0.013523,0.002678,0.000431,0.070399
60723000,0.0324,0.013523,0.002678,0.000431,0.796724
60724000,0.0324,0.013523,0.002678,0.000431,0.561432
60725000,0.0324,0.013523,0.002678,0.000431,0.135863
60726000,0.0324,0.013523,0.002678,0.000431,0.157253
60727000,0.0324,0.013523,0.002678,0.000431,0.569659
60728000,0.0324,0.013523,0.002678,0.000431,0.237877
60729000,0.0324,0.013523,0.002678,0.000431,0.285123
60730000,0.0324,0.013523,0.002678,0.000431,0.144442
60731000,0.0324,0.013523,0.002678,0.000431,0.182991
60732000,0.0324,0.013523,0.002678,0.000431,0.117881
60733000,0.0324,0.013523,0.002678,0.000431,0.552618
60734000,0.0324,0.013523,0.002678,0.000431,0.270315
60735000,0.0324,0.013523,0.002678,0.000431,0.198740
60736000,0.0324,0.013523,0.002678,0.000431,0.182639
60737000,0.0324,0.013523,0.002678,0.000431,0.143737
60738000,0.0324,0.013523,0.002678,0.000431,0.117528
60739000,0.0324,0.013523,0.002678,0.000431,0.090967
60740000,0.0324,0.013523,0.002678,0.000431,0.087558
60741000,0.0324,0.013523,0.002678,0.000431,0.060527
60742000,0.0324,0.013523,0.002678,0.000431,0.048892
60743000,0.0324,0.013523,0.002678,0.000431,0.038902
60744000,0.0324,0.013523,0.002678,0.000431,0.049714
60745000,0.0324,0.013523,0.002678,0.000431,0.034318
60746000,0.0324,0.013523,0.002678,0.000431,0.014926
60747000,0.0324,0.013523,0.002678,0.000431,0.011165
60748000,0.0324,0.013523,0.002678,0.000431,0.009050
60749000,0.0324,0.013523,0.002678,0.000431,0.009637
60750000,0.0324,0.013523,0.002678,0.000431,0.008109
60751000,0.0324,0.013523,0.002678,0.000431,0.006934
60752000,0.0324,0.013523,0.002678,0.000431,0.007287
60753000,0.0324,0.013523,0.002678,0.000431,0.008580
60754000,0.0324,0.013523,0.002678,0.000431,0.007874
60755000,0.0324,0.013523,0.002678,0.000431,0.004349
60756000,0.0324,0.013523,0.002678,0.000431,0.004819
60757000,0.0324,0.013523,0.002678,0.000431,0.004231
60758000,0.0324,0.013523,0.002678,0.000431,0.004466
60759000,0.0324,0.013523,0.002678,0.000431,0.005759
60760000,0.0324,0.013523,0.002678,0.000431,0.003643
60761000,0.0324,0.013523,0.002678,0.000431,0.006934
60762000,0.0324,0.013523,0.002678,0.000431,0.004819
60763000,0.0324,0.013523,0.002678,0.000431,0.001763
60764000,0.0324,0.013523,0.002678,0.000431,0.001645
60765000,0.0324,0.013523,0.002678,0.000431,0.001645
60766000,0.0324,0.013523,0.002678,0.000431,0.001763
60767000,0.0324,0.013523,0.002678,0.000431,0.001645
60768000,0.0324,0.013523,0.002678,0.000431,0.001645
60769000,0.0324,0.013523,0.002678,0.000431,0.001645
60770000,0.0324,0.013523,0.002678,0.000431,0.001528
60771000,0.0324,0.013523,0.002678,0.000431,0.001880
60772000,0.0324,0.013523,0.002678,0.000431,0.001528
60773000,0.0324,0.013523,0.002678,0.000431,0.004231
60774000,0.0324,0.013523,0.002678,0.000431,0.000705
60775000,0.0324,0.013523,0.002678,0.000431,0.000823
60776000,0.0324,0.013523,0.002678,0.000431,0.000823
60777000,0.0324,0.013523,0.002678,0.000431,0.000940
60778000,0.0324,0.013523,0.002678,0.000431,0.000705
60779000,0.0324,0.013523,0.002678,0.000431,0.000940
60780000,0.0324,0.013523,0.002678,0.000431,0.000705
60781000,0.0324,0.013523,0.002678,0.000431,0.000940
60782000,0.0324,0.013523,0.002678,0.000431,0.000823
60783000,0.0324,0.013523,0.002678,0.000431,0.000823
60784000,0.0324,0.013523,0.002678,0.000431,0.000705
60785000,0.0324,0.013523,0.002678,0.000431,0.000823
60786000,0.0324,0.013523,0.002678,0.000431,0.000823
60787000,0.0324,0.013523,0.002678,0.000431,0.106951
60788000,0.0324,0.013523,0.002678,0.000431,0.800837
60789000,0.0324,0.013523,0.002678,0.000431,0.519357
60790000,0.0324,0.013523,0.002678,0.000431,0.141034
60791000,0.0324,0.013523,0.002678,0.000431,0.308864
60792000,0.0324,0.013523,0.002678,0.000431,0.478927
60793000,0.0324,0.013523,0.002678,0.000431,0.284653
60794000,0.0324,0.013523,0.002678,0.000431,0.274076
60795000,0.0324,0.013523,0.002678,0.000431,0.158663
60796000,0.0324,0.013523,0.002678,0.000431,0.112474
60797000,0.0324,0.013523,0.002678,0.000431,0.473286
60798000,0.0324,0.013523,0.002678,0.000431,0.281010
60799000,0.0324,0.013523,0.002678,0.000431,0.195214
60800000,0.0324,0.013523,0.002678,0.000431,0.161014
60801000,0.0324,0.013523,0.002678,0.000431,0.140211
60802000,0.0324,0.013523,0.002678,0.000431,0.119996
60803000,0.0324,0.013523,0.002678,0.000431,0.089556
60804000,0.0324,0.013523,0.002678,0.000431,0.082387
60805000,0.0324,0.013523,0.002678,0.000431,0.066638
60806000,0.0324,0.013523,0.002678,0.000431,0.042898
60807000,0.0324,0.013523,0.002678,0.000431,0.035494
60808000,0.0324,0.013523,0.002678,0.000431,0.036786
60809000,0.0324,0.013523,0.002678,0.000431,0.025386
60810000,0.0324,0.013523,0.002678,0.000431,0.026209
60811000,0.0324,0.013523,0.002678,0.000431,0.022800
60812000,0.0324,0.013523,0.002678,0.000431,0.021860
60813000,0.0324,0.013523,0.002678,0.000431,0.016101
60814000,0.0324,0.013523,0.002678,0.000431,0.007874
60815000,0.0324,0.013523,0.002678,0.000431,0.009872
60816000,0.0324,0.013523,0.002678,0.000431,0.009755
60817000,0.0324,0.013523,0.002678,0.000431,0.008462
60818000,0.0324,0.013523,0.002678,0.000431,0.006347
60819000,0.0324,0.013523,0.002678,0.000431,0.005406
60820000,0.0324,0.013523,0.002678,0.000431,0.004584
60821000,0.0324,0.013523,0.002678,0.000431,0.003291
60822000,0.0324,0.013523,0.002678,0.000431,0.002938
60823000,0.0324,0.013523,0.002678,0.000431,0.002821
60824000,0.0324,0.013523,0.002678,0.000431,0.002586
60825000,0.0324,0.013523,0.002678,0.000431,0.004819
60826000,0.0324,0.013523,0.002678,0.000431,0.003173
60827000,0.0324,0.013523,0.002678,0.000431,0.000940
60828000,0.0324,0.013523,0.002678,0.000431,0.000940
60829000,0.0324,0.013523,0.002678,0.000431,0.000940
60830000,0.0324,0.013523,0.002678,0.000431,0.000940
60831000,0.0324,0.013523,0.002678,0.000431,0.000705
60832000,0.0324,0.013523,0.002678,0.000431,0.000940
60833000,0.0324,0.013523,0.002678,0.000431,0.000940
60834000,0.0324,0.013523,0.002678,0.000431,0.000823
60835000,0.0324,0.013523,0.002678,0.000431,0.000940
60836000,0.0324,0.013523,0.002678,0.000431,0.264791
60837000,0.0324,0.013523,0.002678,0.000431,0.724914
60838000,0.0324,0.013523,0.002678,0.000431,0.403592
60839000,0.0324,0.013523,0.002678,0.000431,0.138683
60840000,0.0324,0.013523,0.002678,0.000431,0.528642
60841000,0.0324,0.013523,0.002678,0.000431,0.288297
60842000,0.0324,0.013523,0.002678,0.000431,0.348824
60843000,0.0324,0.013523,0.002678,0.000431,0.231883
60844000,0.0324,0.013523,0.002678,0.000431,0.158898
60845000,0.0324,0.013523,0.002678,0.000431,0.144677
60846000,0.0324,0.013523,0.002678,0.000431,0.542980
60847000,0.0324,0.013523,0.002678,0.000431,0.255506
60848000,0.0324,0.013523,0.002678,0.000431,0.209435
60849000,0.0324,0.013523,0.002678,0.000431,0.175587
60850000,0.0324,0.013523,0.002678,0.000431,0.143267
60851000,0.0324,0.013523,0.002678,0.000431,0.113532
60852000,0.0324,0.013523,0.002678,0.000431,0.105305
60853000,0.0324,0.013523,0.002678,0.000431,0.092847
60854000,0.0324,0.013523,0.002678,0.000431,0.066756
60855000,0.0324,0.013523,0.002678,0.000431,0.056649
60856000,0.0324,0.013523,0.002678,0.000431,0.034788
60857000,0.0324,0.013523,0.002678,0.000431,0.026561
60858000,0.0324,0.013523,0.002678,0.000431,0.023036
60859000,0.0324,0.013523,0.002678,0.000431,0.024798
60860000,0.0324,0.013523,0.002678,0.000431,0.024093
60861000,0.0324,0.013523,0.002678,0.000431,0.011870
60862000,0.0324,0.013523,0.002678,0.000431,0.015984
60863000,0.0324,0.013523,0.002678,0.000431,0.007874
60864000,0.0324,0.013523,0.002678,0.000431,0.006934
60865000,0.0324,0.013523,0.002678,0.000431,0.010225
60866000,0.0324,0.013523,0.002678,0.000431,0.005994
60867000,0.0324,0.013523,0.002678,0.000431,0.007287
60868000,0.0324,0.013523,0.002678,0.000431,0.006817
60869000,0.0324,0.013523,0.002678,0.000431,0.008345
60870000,0.0324,0.013523,0.002678,0.000431,0.005876
60871000,0.0324,0.013523,0.002678,0.000431,0.005406
60872000,0.0324,0.013523,0.002678,0.000431,0.004231
60873000,0.0324,0.013523,0.002678,0.000431,0.066991
60874000,0.0324,0.013523,0.002678,0.000431,0.783325
60875000,0.0324,0.013523,0.002678,0.000431,0.558611
60876000,0.0324,0.013523,0.002678,0.000431,0.139623
60877000,0.0324,0.013523,0.002678,0.000431,0.191924
60878000,0.0324,0.013523,0.002678,0.000431,0.516301
60879000,0.0324,0.013523,0.002678,0.000431,0.262323
60880000,0.0324,0.013523,0.002678,0.000431,0.328609
60881000,0.0324,0.013523,0.002678,0.000431,0.161719
60882000,0.0324,0.013523,0.002678,0.000431,0.116470
60883000,0.0324,0.013523,0.002678,0.000431,0.321322
60884000,0.0324,0.013523,0.002678,0.000431,0.444492
60885000,0.0324,0.013523,0.002678,0.000431,0.171826
60886000,0.0324,0.013523,0.002678,0.000431,0.150906
60887000,0.0324,0.013523,0.002678,0.000431,0.124462
60888000,0.0324,0.013523,0.002678,0.000431,0.106951
60889000,0.0324,0.013523,0.002678,0.000431,0.085796
60890000,0.0324,0.013523,0.002678,0.000431,0.068049
60891000,0.0324,0.013523,0.002678,0.000431,0.052770
60892000,0.0324,0.013523,0.002678,0.000431,0.043368
60893000,0.0324,0.013523,0.002678,0.000431,0.033848
60894000,0.0324,0.013523,0.002678,0.000431,0.031733
60895000,0.0324,0.013523,0.002678,0.000431,0.020215
60896000,0.0324,0.013523,0.002678,0.000431,0.020332
60897000,0.0324,0.013523,0.002678,0.000431,0.015514
60898000,0.0324,0.013523,0.002678,0.000431,0.009872
60899000,0.0324,0.013523,0.002678,0.000431,0.008580
60900000,0.0324,0.013523,0.002678,0.000431,0.012340
60901000,0.0324,0.013523,0.002678,0.000431,0.011165
60902000,0.0324,0.013523,0.002678,0.000431,0.004936
60903000,0.0324,0.013523,0.002678,0.000431,0.005641
60904000,0.0324,0.013523,0.002678,0.000431,0.005994
60905000,0.0324,0.013523,0.002678,0.000431,0.004819
60906000,0.0324,0.013523,0.002678,0.000431,0.007287
60907000,0.0324,0.013523,0.002678,0.000431,0.004936
60908000,0.0324,0.013523,0.002678,0.000431,0.004819
60909000,0.0324,0.013523,0.002678,0.000431,0.000940
60910000,0.0324,0.013523,0.002678,0.000431,0.014573
60911000,0.0324,0.013523,0.002678,0.000431,0.727264
60912000,0.0324,0.013523,0.002678,0.000431,0.590344
60913000,0.0324,0.013523,0.002678,0.000431,0.138566
60914000,0.0324,0.013523,0.002678,0.000431,0.139976
60915000,0.0324,0.013523,0.002678,0.000431,0.548974
60916000,0.0324,0.013523,0.002678,0.000431,0.263146
60917000,0.0324,0.013523,0.002678,0.000431,0.354700
60918000,0.0324,0.013523,0.002678,0.000431,0.149731
60919000,0.0324,0.013523,0.002678,0.000431,0.157488
60920000,0.0324,0.013523,0.002678,0.000431,0.188750
60921000,0.0324,0.013523,0.002678,0.000431,0.536399
60922000,0.0324,0.013523,0.002678,0.000431,0.223068
60923000,0.0324,0.013523,0.002678,0.000431,0.182051
60924000,0.0324,0.013523,0.002678,0.000431,0.153492
60925000,0.0324,0.013523,0.002678,0.000431,0.119526
60926000,0.0324,0.013523,0.002678,0.000431,0.100604
60927000,0.0324,0.013523,0.002678,0.000431,0.084855
60928000,0.0324,0.013523,0.002678,0.000431,0.053358
60929000,0.0324,0.013523,0.002678,0.000431,0.041017
60930000,0.0324,0.013523,0.002678,0.000431,0.043720
60931000,0.0324,0.013523,0.002678,0.000431,0.030792
60932000,0.0324,0.013523,0.002678,0.000431,0.033731
60933000,0.0324,0.013523,0.002678,0.000431,0.018334
60934000,0.0324,0.013523,0.002678,0.000431,0.018922
60935000,0.0324,0.013523,0.002678,0.000431,0.016807
60936000,0.0324,0.013523,0.002678,0.000431,0.010225
60937000,0.0324,0.013523,0.002678,0.000431,0.007404
60938000,0.0324,0.013523,0.002678,0.000431,0.011518
60939000,0.0324,0.013523,0.002678,0.000431,0.009285
60940000,0.0324,0.013523,0.002678,0.000431,0.005289
60941000,0.0324,0.013523,0.002678,0.000431,0.005289
60942000,0.0324,0.013523,0.002678,0.000431,0.005289
60943000,0.0324,0.013523,0.002678,0.000431,0.005289
60944000,0.0324,0.013523,0.002678,0.000431,0.005641
60945000,0.0324,0.013523,0.002678,0.000431,0.006934
60946000,0.0324,0.013523,0.002678,0.000431,0.004819
60947000,0.0324,0.013523,0.002678,0.000431,0.003996
60948000,0.0324,0.013523,0.002678,0.000431,0.004231
60949000,0.0324,0.013523,0.002678,0.000431,0.006464
60950000,0.0324,0.013523,0.002678,0.000431,0.003408
60951000,0.0324,0.013523,0.002678,0.000431,0.003173
60952000,0.0324,0.013523,0.002678,0.000431,0.002586
60953000,0.0324,0.013523,0.002678,0.000431,0.006699
60954000,0.0324,0.013523,0.002678,0.000431,0.000940
60955000,0.0324,0.013523,0.002678,0.000431,0.000940
60956000,0.0324,0.013523,0.002678,0.000431,0.015514
60957000,0.0324,0.013523,0.002678,0.000431,0.767812
60958000,0.0324,0.013523,0.002678,0.000431,0.569894
60959000,0.0324,0.013523,0.002678,0.000431,0.148321
60960000,0.0324,0.013523,0.002678,0.000431,0.142209
60961000,0.0324,0.013523,0.002678,0.000431,0.597043
60962000,0.0324,0.013523,0.002678,0.000431,0.263263
60963000,0.0324,0.013523,0.002678,0.000431,0.280540
60964000,0.0324,0.013523,0.002678,0.000431,0.150789
60965000,0.0324,0.013523,0.002678,0.000431,0.169123
60966000,0.0324,0.013523,0.002678,0.000431,0.159251
60967000,0.0324,0.013523,0.002678,0.000431,0.543098
60968000,0.0324,0.013523,0.002678,0.000431,0.220365
60969000,0.0324,0.013523,0.002678,0.000431,0.187810
60970000,0.0324,0.013523,0.002678,0.000431,0.150201
60971000,0.0324,0.013523,0.002678,0.000431,0.129046
60972000,0.0324,0.013523,0.002678,0.000431,0.081917
60973000,0.0324,0.013523,0.002678,0.000431,0.079214
60974000,0.0324,0.013523,0.002678,0.000431,0.060057
60975000,0.0324,0.013523,0.002678,0.000431,0.045483
60976000,0.0324,0.013523,0.002678,0.000431,0.027502
60977000,0.0324,0.013523,0.002678,0.000431,0.023506
60978000,0.0324,0.013523,0.002678,0.000431,0.014691
60979000,0.0324,0.013523,0.002678,0.000431,0.009755
60980000,0.0324,0.013523,0.002678,0.000431,0.006111
60981000,0.0324,0.013523,0.002678,0.000431,0.006699
60982000,0.0324,0.013523,0.002678,0.000431,0.008697
60983000,0.0324,0.013523,0.002678,0.000431,0.008345
60984000,0.0324,0.013523,0.002678,0.000431,0.003526
60985000,0.0324,0.013523,0.002678,0.000431,0.007522
60986000,0.0324,0.013523,0.002678,0.000431,0.003173
60987000,0.0324,0.013523,0.002678,0.000431,0.000823
60988000,0.0324,0.013523,0.002678,0.000431,0.000823
60989000,0.0324,0.013523,0.002678,0.000431,0.016924
60990000,0.0324,0.013523,0.002678,0.000431,0.767694
60991000,0.0324,0.013523,0.002678,0.000431,0.571187
60992000,0.0324,0.013523,0.002678,0.000431,0.140564
60993000,0.0324,0.013523,0.002678,0.000431,0.147615
60994000,0.0324,0.013523,0.002678,0.000431,0.532403
60995000,0.0324,0.013523,0.002678,0.000431,0.314740
60996000,0.0324,0.013523,0.002678,0.000431,0.279952
60997000,0.0324,0.013523,0.002678,0.000431,0.157723
60998000,0.0324,0.013523,0.002678,0.000431,0.138096
60999000,0.0324,0.013523,0.002678,0.000431,0.237407
