Cycle,Area(mm^2),PeakDynamic(W),SubthresholdLeakage(W),GateLeakage(W),RunTimeDynamic(W)
121000000,0.0324,0.013523,0.002678,0.000431,0.014103
121001000,0.0324,0.013523,0.002678,0.000431,0.007757
121002000,0.0324,0.013523,0.002678,0.000431,0.005524
121003000,0.0324,0.013523,0.002678,0.000431,0.005289
121004000,0.0324,0.013523,0.002678,0.000431,0.003291
121005000,0.0324,0.013523,0.002678,0.000431,0.003526
121006000,0.0324,0.013523,0.002678,0.000431,0.003056
121007000,0.0324,0.013523,0.002678,0.000431,0.003291
121008000,0.0324,0.013523,0.002678,0.000431,0.002703
121009000,0.0324,0.013523,0.002678,0.000431,0.002586
121010000,0.0324,0.013523,0.002678,0.000431,0.002468
121011000,0.0324,0.013523,0.002678,0.000431,0.004701
121012000,0.0324,0.013523,0.002678,0.000431,0.002938
121013000,0.0324,0.013523,0.002678,0.000431,0.000940
121014000,0.0324,0.013523,0.002678,0.000431,0.000823
121015000,0.0324,0.013523,0.002678,0.000431,0.000823
121016000,0.0324,0.013523,0.002678,0.000431,0.000823
121017000,0.0324,0.013523,0.002678,0.000431,0.000823
121018000,0.0324,0.013523,0.002678,0.000431,0.000823
121019000,0.0324,0.013523,0.002678,0.000431,0.000823
121020000,0.0324,0.013523,0.002678,0.000431,0.000940
121021000,0.0324,0.013523,0.002678,0.000431,0.000705
121022000,0.0324,0.013523,0.002678,0.000431,0.000940
121023000,0.0324,0.013523,0.002678,0.000431,0.000823
121024000,0.0324,0.013523,0.002678,0.000431,0.000823
121025000,0.0324,0.013523,0.002678,0.000431,0.000705
121026000,0.0324,0.013523,0.002678,0.000431,0.000940
121027000,0.0324,0.013523,0.002678,0.000431,0.000940
121028000,0.0324,0.013523,0.002678,0.000431,0.000705
121029000,0.0324,0.013523,0.002678,0.000431,0.000940
121030000,0.0324,0.013523,0.002678,0.000431,0.000705
121031000,0.0324,0.013523,0.002678,0.000431,0.000940
121032000,0.0324,0.013523,0.002678,0.000431,0.000823
121033000,0.0324,0.013523,0.002678,0.000431,0.000823
121034000,0.0324,0.013523,0.002678,0.000431,0.000940
121035000,0.0324,0.013523,0.002678,0.000431,0.000705
121036000,0.0324,0.013523,0.002678,0.000431,0.000823
121037000,0.0324,0.013523,0.002678,0.000431,0.000823
121038000,0.0324,0.013523,0.002678,0.000431,0.000823
121039000,0.0324,0.013523,0.002678,0.000431,0.000940
121040000,0.0324,0.013523,0.002678,0.000431,0.000823
121041000,0.0324,0.013523,0.002678,0.000431,0.000823
121042000,0.0324,0.013523,0.002678,0.000431,0.000823
121043000,0.0324,0.013523,0.002678,0.000431,0.000705
121044000,0.0324,0.013523,0.002678,0.000431,0.000940
121045000,0.0324,0.013523,0.002678,0.000431,0.000940
121046000,0.0324,0.013523,0.002678,0.000431,0.000705
121047000,0.0324,0.013523,0.002678,0.000431,0.000940
121048000,0.0324,0.013523,0.002678,0.000431,0.000705
121049000,0.0324,0.013523,0.002678,0.000431,0.000940
121050000,0.0324,0.013523,0.002678,0.000431,0.000823
121051000,0.0324,0.013523,0.002678,0.000431,0.000823
121052000,0.0324,0.013523,0.002678,0.000431,0.000823
121053000,0.0324,0.013523,0.002678,0.000431,0.000823
121054000,0.0324,0.013523,0.002678,0.000431,0.000823
121055000,0.0324,0.013523,0.002678,0.000431,0.000823
121056000,0.0324,0.013523,0.002678,0.000431,0.000940
121057000,0.0324,0.013523,0.002678,0.000431,0.000705
121058000,0.0324,0.013523,0.002678,0.000431,0.000823
121059000,0.0324,0.013523,0.002678,0.000431,0.000940
121060000,0.0324,0.013523,0.002678,0.000431,0.000823
121061000,0.0324,0.013523,0.002678,0.000431,0.000823
121062000,0.0324,0.013523,0.002678,0.000431,0.000823
121063000,0.0324,0.013523,0.002678,0.000431,0.000705
121064000,0.0324,0.013523,0.002678,0.000431,0.000940
121065000,0.0324,0.013523,0.002678,0.000431,0.000940
121066000,0.0324,0.013523,0.002678,0.000431,0.000705
121067000,0.0324,0.013523,0.002678,0.000431,0.000940
121068000,0.0324,0.013523,0.002678,0.000431,0.000705
121069000,0.0324,0.013523,0.002678,0.000431,0.000940
121070000,0.0324,0.013523,0.002678,0.000431,0.000940
121071000,0.0324,0.013523,0.002678,0.000431,0.000705
121072000,0.0324,0.013523,0.002678,0.000431,0.000940
121073000,0.0324,0.013523,0.002678,0.000431,0.001645
121074000,0.0324,0.013523,0.002678,0.000431,0.385375
121075000,0.0324,0.013523,0.002678,0.000431,0.712691
121076000,0.0324,0.013523,0.002678,0.000431,0.337071
121077000,0.0324,0.013523,0.002678,0.000431,0.139153
121078000,0.0324,0.013523,0.002678,0.000431,0.238112
121079000,0.0324,0.013523,0.002678,0.000431,0.543803
121080000,0.0324,0.013523,0.002678,0.000431,0.278894
121081000,0.0324,0.013523,0.002678,0.000431,0.344710
121082000,0.0324,0.013523,0.002678,0.000431,0.140329
121083000,0.0324,0.013523,0.002678,0.000431,0.168888
121084000,0.0324,0.013523,0.002678,0.000431,0.103777
121085000,0.0324,0.013523,0.002678,0.000431,0.502198
121086000,0.0324,0.013523,0.002678,0.000431,0.280657
121087000,0.0324,0.013523,0.002678,0.000431,0.202031
121088000,0.0324,0.013523,0.002678,0.000431,0.187810
121089000,0.0324,0.013523,0.002678,0.000431,0.163012
121090000,0.0324,0.013523,0.002678,0.000431,0.143737
121091000,0.0324,0.013523,0.002678,0.000431,0.122817
121092000,0.0324,0.013523,0.002678,0.000431,0.111534
121093000,0.0324,0.013523,0.002678,0.000431,0.099311
121094000,0.0324,0.013523,0.002678,0.000431,0.092730
121095000,0.0324,0.013523,0.002678,0.000431,0.081447
121096000,0.0324,0.013523,0.002678,0.000431,0.071575
121097000,0.0324,0.013523,0.002678,0.000431,0.050772
121098000,0.0324,0.013523,0.002678,0.000431,0.055473
121099000,0.0324,0.013523,0.002678,0.000431,0.044426
121100000,0.0324,0.013523,0.002678,0.000431,0.043603
121101000,0.0324,0.013523,0.002678,0.000431,0.041370
121102000,0.0324,0.013523,0.002678,0.000431,0.040665
121103000,0.0324,0.013523,0.002678,0.000431,0.030792
121104000,0.0324,0.013523,0.002678,0.000431,0.027031
121105000,0.0324,0.013523,0.002678,0.000431,0.027384
121106000,0.0324,0.013523,0.002678,0.000431,0.029617
121107000,0.0324,0.013523,0.002678,0.000431,0.023153
121108000,0.0324,0.013523,0.002678,0.000431,0.019157
121109000,0.0324,0.013523,0.002678,0.000431,0.022683
121110000,0.0324,0.013523,0.002678,0.000431,0.017982
121111000,0.0324,0.013523,0.002678,0.000431,0.012693
121112000,0.0324,0.013523,0.002678,0.000431,0.013516
121113000,0.0324,0.013523,0.002678,0.000431,0.008815
121114000,0.0324,0.013523,0.002678,0.000431,0.007639
121115000,0.0324,0.013523,0.002678,0.000431,0.006934
121116000,0.0324,0.013523,0.002678,0.000431,0.007992
121117000,0.0324,0.013523,0.002678,0.000431,0.009402
121118000,0.0324,0.013523,0.002678,0.000431,0.008580
121119000,0.0324,0.013523,0.002678,0.000431,0.005406
121120000,0.0324,0.013523,0.002678,0.000431,0.006817
121121000,0.0324,0.013523,0.002678,0.000431,0.007522
121122000,0.0324,0.013523,0.002678,0.000431,0.005524
121123000,0.0324,0.013523,0.002678,0.000431,0.002703
121124000,0.0324,0.013523,0.002678,0.000431,0.002586
121125000,0.0324,0.013523,0.002678,0.000431,0.002468
121126000,0.0324,0.013523,0.002678,0.000431,0.002351
121127000,0.0324,0.013523,0.002678,0.000431,0.002586
121128000,0.0324,0.013523,0.002678,0.000431,0.002586
121129000,0.0324,0.013523,0.002678,0.000431,0.002351
121130000,0.0324,0.013523,0.002678,0.000431,0.002233
121131000,0.0324,0.013523,0.002678,0.000431,0.001880
121132000,0.0324,0.013523,0.002678,0.000431,0.001763
121133000,0.0324,0.013523,0.002678,0.000431,0.001645
121134000,0.0324,0.013523,0.002678,0.000431,0.001763
121135000,0.0324,0.013523,0.002678,0.000431,0.001645
121136000,0.0324,0.013523,0.002678,0.000431,0.001645
121137000,0.0324,0.013523,0.002678,0.000431,0.001880
121138000,0.0324,0.013523,0.002678,0.000431,0.001763
121139000,0.0324,0.013523,0.002678,0.000431,0.001763
121140000,0.0324,0.013523,0.002678,0.000431,0.001645
121141000,0.0324,0.013523,0.002678,0.000431,0.001645
121142000,0.0324,0.013523,0.002678,0.000431,0.001880
121143000,0.0324,0.013523,0.002678,0.000431,0.003761
121144000,0.0324,0.013523,0.002678,0.000431,0.000823
121145000,0.0324,0.013523,0.002678,0.000431,0.000940
121146000,0.0324,0.013523,0.002678,0.000431,0.000940
121147000,0.0324,0.013523,0.002678,0.000431,0.000823
121148000,0.0324,0.013523,0.002678,0.000431,0.000823
121149000,0.0324,0.013523,0.002678,0.000431,0.000940
121150000,0.0324,0.013523,0.002678,0.000431,0.000940
121151000,0.0324,0.013523,0.002678,0.000431,0.000940
121152000,0.0324,0.013523,0.002678,0.000431,0.000823
121153000,0.0324,0.013523,0.002678,0.000431,0.000823
121154000,0.0324,0.013523,0.002678,0.000431,0.000940
121155000,0.0324,0.013523,0.002678,0.000431,0.000940
121156000,0.0324,0.013523,0.002678,0.000431,0.000823
121157000,0.0324,0.013523,0.002678,0.000431,0.000940
121158000,0.0324,0.013523,0.002678,0.000431,0.000823
121159000,0.0324,0.013523,0.002678,0.000431,0.000940
121160000,0.0324,0.013523,0.002678,0.000431,0.000940
121161000,0.0324,0.013523,0.002678,0.000431,0.000705
121162000,0.0324,0.013523,0.002678,0.000431,0.000940
121163000,0.0324,0.013523,0.002678,0.000431,0.000940
121164000,0.0324,0.013523,0.002678,0.000431,0.000940
121165000,0.0324,0.013523,0.002678,0.000431,0.000705
121166000,0.0324,0.013523,0.002678,0.000431,0.000940
121167000,0.0324,0.013523,0.002678,0.000431,0.000940
121168000,0.0324,0.013523,0.002678,0.000431,0.000823
121169000,0.0324,0.013523,0.002678,0.000431,0.002468
121170000,0.0324,0.013523,0.002678,0.000431,0.535106
121171000,0.0324,0.013523,0.002678,0.000431,0.705169
121172000,0.0324,0.013523,0.002678,0.000431,0.226477
121173000,0.0324,0.013523,0.002678,0.000431,0.153022
121174000,0.0324,0.013523,0.002678,0.000431,0.372564
121175000,0.0324,0.013523,0.002678,0.000431,0.478340
121176000,0.0324,0.013523,0.002678,0.000431,0.251980
121177000,0.0324,0.013523,0.002678,0.000431,0.340009
121178000,0.0324,0.013523,0.002678,0.000431,0.148438
121179000,0.0324,0.013523,0.002678,0.000431,0.136450
121180000,0.0324,0.013523,0.002678,0.000431,0.239993
121181000,0.0324,0.013523,0.002678,0.000431,0.469643
121182000,0.0324,0.013523,0.002678,0.000431,0.192276
121183000,0.0324,0.013523,0.002678,0.000431,0.164187
121184000,0.0324,0.013523,0.002678,0.000431,0.142209
121185000,0.0324,0.013523,0.002678,0.000431,0.128106
121186000,0.0324,0.013523,0.002678,0.000431,0.117176
121187000,0.0324,0.013523,0.002678,0.000431,0.112827
121188000,0.0324,0.013523,0.002678,0.000431,0.104365
121189000,0.0324,0.013523,0.002678,0.000431,0.088734
121190000,0.0324,0.013523,0.002678,0.000431,0.073338
121191000,0.0324,0.013523,0.002678,0.000431,0.072750
121192000,0.0324,0.013523,0.002678,0.000431,0.059352
121193000,0.0324,0.013523,0.002678,0.000431,0.052183
121194000,0.0324,0.013523,0.002678,0.000431,0.056649
121195000,0.0324,0.013523,0.002678,0.000431,0.045954
121196000,0.0324,0.013523,0.002678,0.000431,0.044191
121197000,0.0324,0.013523,0.002678,0.000431,0.037374
121198000,0.0324,0.013523,0.002678,0.000431,0.037374
121199000,0.0324,0.013523,0.002678,0.000431,0.034671
121200000,0.0324,0.013523,0.002678,0.000431,0.034671
121201000,0.0324,0.013523,0.002678,0.000431,0.026209
121202000,0.0324,0.013523,0.002678,0.000431,0.019510
121203000,0.0324,0.013523,0.002678,0.000431,0.018922
121204000,0.0324,0.013523,0.002678,0.000431,0.022565
121205000,0.0324,0.013523,0.002678,0.000431,0.022095
121206000,0.0324,0.013523,0.002678,0.000431,0.016807
121207000,0.0324,0.013523,0.002678,0.000431,0.017042
121208000,0.0324,0.013523,0.002678,0.000431,0.013751
121209000,0.0324,0.013523,0.002678,0.000431,0.010930
121210000,0.0324,0.013523,0.002678,0.000431,0.012223
121211000,0.0324,0.013523,0.002678,0.000431,0.011518
121212000,0.0324,0.013523,0.002678,0.000431,0.009872
121213000,0.0324,0.013523,0.002678,0.000431,0.009872
121214000,0.0324,0.013523,0.002678,0.000431,0.012105
121215000,0.0324,0.013523,0.002678,0.000431,0.008815
121216000,0.0324,0.013523,0.002678,0.000431,0.017159
121217000,0.0324,0.013523,0.002678,0.000431,0.005759
121218000,0.0324,0.013523,0.002678,0.000431,0.007757
121219000,0.0324,0.013523,0.002678,0.000431,0.004231
121220000,0.0324,0.013523,0.002678,0.000431,0.004349
121221000,0.0324,0.013523,0.002678,0.000431,0.005876
121222000,0.0324,0.013523,0.002678,0.000431,0.003526
121223000,0.0324,0.013523,0.002678,0.000431,0.003526
121224000,0.0324,0.013523,0.002678,0.000431,0.003291
121225000,0.0324,0.013523,0.002678,0.000431,0.003408
121226000,0.0324,0.013523,0.002678,0.000431,0.003526
121227000,0.0324,0.013523,0.002678,0.000431,0.003408
121228000,0.0324,0.013523,0.002678,0.000431,0.003173
121229000,0.0324,0.013523,0.002678,0.000431,0.003643
121230000,0.0324,0.013523,0.002678,0.000431,0.004349
121231000,0.0324,0.013523,0.002678,0.000431,0.005171
121232000,0.0324,0.013523,0.002678,0.000431,0.001645
121233000,0.0324,0.013523,0.002678,0.000431,0.001763
121234000,0.0324,0.013523,0.002678,0.000431,0.001880
121235000,0.0324,0.013523,0.002678,0.000431,0.001410
121236000,0.0324,0.013523,0.002678,0.000431,0.001880
121237000,0.0324,0.013523,0.002678,0.000431,0.001763
121238000,0.0324,0.013523,0.002678,0.000431,0.001645
121239000,0.0324,0.013523,0.002678,0.000431,0.001763
121240000,0.0324,0.013523,0.002678,0.000431,0.001528
121241000,0.0324,0.013523,0.002678,0.000431,0.001880
121242000,0.0324,0.013523,0.002678,0.000431,0.001763
121243000,0.0324,0.013523,0.002678,0.000431,0.003408
121244000,0.0324,0.013523,0.002678,0.000431,0.000705
121245000,0.0324,0.013523,0.002678,0.000431,0.000940
121246000,0.0324,0.013523,0.002678,0.000431,0.000940
121247000,0.0324,0.013523,0.002678,0.000431,0.000705
121248000,0.0324,0.013523,0.002678,0.000431,0.000823
121249000,0.0324,0.013523,0.002678,0.000431,0.000823
121250000,0.0324,0.013523,0.002678,0.000431,0.000940
121251000,0.0324,0.013523,0.002678,0.000431,0.095550
121252000,0.0324,0.013523,0.002678,0.000431,0.701408
121253000,0.0324,0.013523,0.002678,0.000431,0.536516
121254000,0.0324,0.013523,0.002678,0.000431,0.156312
121255000,0.0324,0.013523,0.002678,0.000431,0.189926
121256000,0.0324,0.013523,0.002678,0.000431,0.615143
121257000,0.0324,0.013523,0.002678,0.000431,0.247514
121258000,0.0324,0.013523,0.002678,0.000431,0.326846
121259000,0.0324,0.013523,0.002678,0.000431,0.206262
121260000,0.0324,0.013523,0.002678,0.000431,0.157958
121261000,0.0324,0.013523,0.002678,0.000431,0.100016
121262000,0.0324,0.013523,0.002678,0.000431,0.487624
121263000,0.0324,0.013523,0.002678,0.000431,0.312978
121264000,0.0324,0.013523,0.002678,0.000431,0.202619
121265000,0.0324,0.013523,0.002678,0.000431,0.177115
121266000,0.0324,0.013523,0.002678,0.000431,0.162189
121267000,0.0324,0.013523,0.002678,0.000431,0.134687
121268000,0.0324,0.013523,0.002678,0.000431,0.126578
121269000,0.0324,0.013523,0.002678,0.000431,0.118939
121270000,0.0324,0.013523,0.002678,0.000431,0.104365
121271000,0.0324,0.013523,0.002678,0.000431,0.081447
121272000,0.0324,0.013523,0.002678,0.000431,0.084150
121273000,0.0324,0.013523,0.002678,0.000431,0.074278
121274000,0.0324,0.013523,0.002678,0.000431,0.051595
121275000,0.0324,0.013523,0.002678,0.000431,0.044191
121276000,0.0324,0.013523,0.002678,0.000431,0.040077
121277000,0.0324,0.013523,0.002678,0.000431,0.035611
121278000,0.0324,0.013523,0.002678,0.000431,0.039137
121279000,0.0324,0.013523,0.002678,0.000431,0.036434
121280000,0.0324,0.013523,0.002678,0.000431,0.027737
121281000,0.0324,0.013523,0.002678,0.000431,0.023623
121282000,0.0324,0.013523,0.002678,0.000431,0.020215
121283000,0.0324,0.013523,0.002678,0.000431,0.017277
121284000,0.0324,0.013523,0.002678,0.000431,0.016924
121285000,0.0324,0.013523,0.002678,0.000431,0.016101
121286000,0.0324,0.013523,0.002678,0.000431,0.013986
121287000,0.0324,0.013523,0.002678,0.000431,0.011870
121288000,0.0324,0.013523,0.002678,0.000431,0.010695
121289000,0.0324,0.013523,0.002678,0.000431,0.009637
121290000,0.0324,0.013523,0.002678,0.000431,0.010342
121291000,0.0324,0.013523,0.002678,0.000431,0.011870
121292000,0.0324,0.013523,0.002678,0.000431,0.007757
121293000,0.0324,0.013523,0.002678,0.000431,0.010225
121294000,0.0324,0.013523,0.002678,0.000431,0.006699
121295000,0.0324,0.013523,0.002678,0.000431,0.007404
121296000,0.0324,0.013523,0.002678,0.000431,0.007992
121297000,0.0324,0.013523,0.002678,0.000431,0.005759
121298000,0.0324,0.013523,0.002678,0.000431,0.005524
121299000,0.0324,0.013523,0.002678,0.000431,0.008462
121300000,0.0324,0.013523,0.002678,0.000431,0.009637
121301000,0.0324,0.013523,0.002678,0.000431,0.003996
121302000,0.0324,0.013523,0.002678,0.000431,0.003996
121303000,0.0324,0.013523,0.002678,0.000431,0.004231
121304000,0.0324,0.013523,0.002678,0.000431,0.004113
121305000,0.0324,0.013523,0.002678,0.000431,0.003996
121306000,0.0324,0.013523,0.002678,0.000431,0.004113
121307000,0.0324,0.013523,0.002678,0.000431,0.003878
121308000,0.0324,0.013523,0.002678,0.000431,0.005876
121309000,0.0324,0.013523,0.002678,0.000431,0.003291
121310000,0.0324,0.013523,0.002678,0.000431,0.003643
121311000,0.0324,0.013523,0.002678,0.000431,0.003408
121312000,0.0324,0.013523,0.002678,0.000431,0.003056
121313000,0.0324,0.013523,0.002678,0.000431,0.003408
121314000,0.0324,0.013523,0.002678,0.000431,0.003173
121315000,0.0324,0.013523,0.002678,0.000431,0.003526
121316000,0.0324,0.013523,0.002678,0.000431,0.003173
121317000,0.0324,0.013523,0.002678,0.000431,0.003173
121318000,0.0324,0.013523,0.002678,0.000431,0.003643
121319000,0.0324,0.013523,0.002678,0.000431,0.003173
121320000,0.0324,0.013523,0.002678,0.000431,0.003408
121321000,0.0324,0.013523,0.002678,0.000431,0.003408
121322000,0.0324,0.013523,0.002678,0.000431,0.003056
121323000,0.0324,0.013523,0.002678,0.000431,0.003761
121324000,0.0324,0.013523,0.002678,0.000431,0.003056
121325000,0.0324,0.013523,0.002678,0.000431,0.003526
121326000,0.0324,0.013523,0.002678,0.000431,0.003056
121327000,0.0324,0.013523,0.002678,0.000431,0.003526
121328000,0.0324,0.013523,0.002678,0.000431,0.003408
121329000,0.0324,0.013523,0.002678,0.000431,0.003173
121330000,0.0324,0.013523,0.002678,0.000431,0.003526
121331000,0.0324,0.013523,0.002678,0.000431,0.003291
121332000,0.0324,0.013523,0.002678,0.000431,0.003173
121333000,0.0324,0.013523,0.002678,0.000431,0.003291
121334000,0.0324,0.013523,0.002678,0.000431,0.003408
121335000,0.0324,0.013523,0.002678,0.000431,0.003291
121336000,0.0324,0.013523,0.002678,0.000431,0.003408
121337000,0.0324,0.013523,0.002678,0.000431,0.003291
121338000,0.0324,0.013523,0.002678,0.000431,0.003173
121339000,0.0324,0.013523,0.002678,0.000431,0.003408
121340000,0.0324,0.013523,0.002678,0.000431,0.003291
121341000,0.0324,0.013523,0.002678,0.000431,0.003408
121342000,0.0324,0.013523,0.002678,0.000431,0.003291
121343000,0.0324,0.013523,0.002678,0.000431,0.003173
121344000,0.0324,0.013523,0.002678,0.000431,0.004819
121345000,0.0324,0.013523,0.002678,0.000431,0.004349
121346000,0.0324,0.013523,0.002678,0.000431,0.002586
121347000,0.0324,0.013523,0.002678,0.000431,0.002468
121348000,0.0324,0.013523,0.002678,0.000431,0.002468
121349000,0.0324,0.013523,0.002678,0.000431,0.002586
121350000,0.0324,0.013523,0.002678,0.000431,0.002703
121351000,0.0324,0.013523,0.002678,0.000431,0.002468
121352000,0.0324,0.013523,0.002678,0.000431,0.002351
121353000,0.0324,0.013523,0.002678,0.000431,0.002586
121354000,0.0324,0.013523,0.002678,0.000431,0.002821
121355000,0.0324,0.013523,0.002678,0.000431,0.004231
121356000,0.0324,0.013523,0.002678,0.000431,0.001763
121357000,0.0324,0.013523,0.002678,0.000431,0.001880
121358000,0.0324,0.013523,0.002678,0.000431,0.001410
121359000,0.0324,0.013523,0.002678,0.000431,0.001645
121360000,0.0324,0.013523,0.002678,0.000431,0.001645
121361000,0.0324,0.013523,0.002678,0.000431,0.001880
121362000,0.0324,0.013523,0.002678,0.000431,0.001410
121363000,0.0324,0.013523,0.002678,0.000431,0.001645
121364000,0.0324,0.013523,0.002678,0.000431,0.001645
121365000,0.0324,0.013523,0.002678,0.000431,0.001880
121366000,0.0324,0.013523,0.002678,0.000431,0.001058
121367000,0.0324,0.013523,0.002678,0.000431,0.000940
121368000,0.0324,0.013523,0.002678,0.000431,0.000823
121369000,0.0324,0.013523,0.002678,0.000431,0.000823
121370000,0.0324,0.013523,0.002678,0.000431,0.000940
121371000,0.0324,0.013523,0.002678,0.000431,0.000823
121372000,0.0324,0.013523,0.002678,0.000431,0.000823
121373000,0.0324,0.013523,0.002678,0.000431,0.000940
121374000,0.0324,0.013523,0.002678,0.000431,0.000705
121375000,0.0324,0.013523,0.002678,0.000431,0.000940
121376000,0.0324,0.013523,0.002678,0.000431,0.000823
121377000,0.0324,0.013523,0.002678,0.000431,0.000823
121378000,0.0324,0.013523,0.002678,0.000431,0.000940
121379000,0.0324,0.013523,0.002678,0.000431,0.000823
121380000,0.0324,0.013523,0.002678,0.000431,0.000823
121381000,0.0324,0.013523,0.002678,0.000431,0.000940
121382000,0.0324,0.013523,0.002678,0.000431,0.000705
121383000,0.0324,0.013523,0.002678,0.000431,0.000940
121384000,0.0324,0.013523,0.002678,0.000431,0.000823
121385000,0.0324,0.013523,0.002678,0.000431,0.000823
121386000,0.0324,0.013523,0.002678,0.000431,0.000940
121387000,0.0324,0.013523,0.002678,0.000431,0.000823
121388000,0.0324,0.013523,0.002678,0.000431,0.000823
121389000,0.0324,0.013523,0.002678,0.000431,0.000823
121390000,0.0324,0.013523,0.002678,0.000431,0.000823
121391000,0.0324,0.013523,0.002678,0.000431,0.000940
121392000,0.0324,0.013523,0.002678,0.000431,0.000823
121393000,0.0324,0.013523,0.002678,0.000431,0.000823
121394000,0.0324,0.013523,0.002678,0.000431,0.000940
121395000,0.0324,0.013523,0.002678,0.000431,0.000823
121396000,0.0324,0.013523,0.002678,0.000431,0.000823
121397000,0.0324,0.013523,0.002678,0.000431,0.000823
121398000,0.0324,0.013523,0.002678,0.000431,0.000823
121399000,0.0324,0.013523,0.002678,0.000431,0.255389
121400000,0.0324,0.013523,0.002678,0.000431,0.727970
121401000,0.0324,0.013523,0.002678,0.000431,0.460240
121402000,0.0324,0.013523,0.002678,0.000431,0.134452
121403000,0.0324,0.013523,0.002678,0.000431,0.241638
121404000,0.0324,0.013523,0.002678,0.000431,0.561550
121405000,0.0324,0.013523,0.002678,0.000431,0.238817
121406000,0.0324,0.013523,0.002678,0.000431,0.336718
121407000,0.0324,0.013523,0.002678,0.000431,0.159368
121408000,0.0324,0.013523,0.002678,0.000431,0.156077
121409000,0.0324,0.013523,0.002678,0.000431,0.159721
121410000,0.0324,0.013523,0.002678,0.000431,0.495264
121411000,0.0324,0.013523,0.002678,0.000431,0.198740
121412000,0.0324,0.013523,0.002678,0.000431,0.157958
121413000,0.0324,0.013523,0.002678,0.000431,0.140799
121414000,0.0324,0.013523,0.002678,0.000431,0.124815
121415000,0.0324,0.013523,0.002678,0.000431,0.110947
121416000,0.0324,0.013523,0.002678,0.000431,0.103660
121417000,0.0324,0.013523,0.002678,0.000431,0.091202
121418000,0.0324,0.013523,0.002678,0.000431,0.088499
121419000,0.0324,0.013523,0.002678,0.000431,0.073925
121420000,0.0324,0.013523,0.002678,0.000431,0.074630
121421000,0.0324,0.013523,0.002678,0.000431,0.067696
121422000,0.0324,0.013523,0.002678,0.000431,0.065346
121423000,0.0324,0.013523,0.002678,0.000431,0.055356
121424000,0.0324,0.013523,0.002678,0.000431,0.043133
121425000,0.0324,0.013523,0.002678,0.000431,0.046894
121426000,0.0324,0.013523,0.002678,0.000431,0.042075
121427000,0.0324,0.013523,0.002678,0.000431,0.043485
121428000,0.0324,0.013523,0.002678,0.000431,0.037256
121429000,0.0324,0.013523,0.002678,0.000431,0.034553
121430000,0.0324,0.013523,0.002678,0.000431,0.034553
121431000,0.0324,0.013523,0.002678,0.000431,0.029382
121432000,0.0324,0.013523,0.002678,0.000431,0.035258
121433000,0.0324,0.013523,0.002678,0.000431,0.027149
121434000,0.0324,0.013523,0.002678,0.000431,0.029852
121435000,0.0324,0.013523,0.002678,0.000431,0.027384
121436000,0.0324,0.013523,0.002678,0.000431,0.023623
121437000,0.0324,0.013523,0.002678,0.000431,0.021860
121438000,0.0324,0.013523,0.002678,0.000431,0.020450
121439000,0.0324,0.013523,0.002678,0.000431,0.013986
121440000,0.0324,0.013523,0.002678,0.000431,0.014573
121441000,0.0324,0.013523,0.002678,0.000431,0.013751
121442000,0.0324,0.013523,0.002678,0.000431,0.011048
121443000,0.0324,0.013523,0.002678,0.000431,0.012576
121444000,0.0324,0.013523,0.002678,0.000431,0.009872
121445000,0.0324,0.013523,0.002678,0.000431,0.011165
121446000,0.0324,0.013523,0.002678,0.000431,0.009167
121447000,0.0324,0.013523,0.002678,0.000431,0.008815
121448000,0.0324,0.013523,0.002678,0.000431,0.012576
121449000,0.0324,0.013523,0.002678,0.000431,0.009285
121450000,0.0324,0.013523,0.002678,0.000431,0.006699
121451000,0.0324,0.013523,0.002678,0.000431,0.006111
121452000,0.0324,0.013523,0.002678,0.000431,0.007992
121453000,0.0324,0.013523,0.002678,0.000431,0.005054
121454000,0.0324,0.013523,0.002678,0.000431,0.006229
121455000,0.0324,0.013523,0.002678,0.000431,0.006464
121456000,0.0324,0.013523,0.002678,0.000431,0.004349
121457000,0.0324,0.013523,0.002678,0.000431,0.004466
121458000,0.0324,0.013523,0.002678,0.000431,0.006934
121459000,0.0324,0.013523,0.002678,0.000431,0.004113
121460000,0.0324,0.013523,0.002678,0.000431,0.002703
121461000,0.0324,0.013523,0.002678,0.000431,0.005406
121462000,0.0324,0.013523,0.002678,0.000431,0.002468
121463000,0.0324,0.013523,0.002678,0.000431,0.001645
121464000,0.0324,0.013523,0.002678,0.000431,0.002586
121465000,0.0324,0.013523,0.002678,0.000431,0.001880
121466000,0.0324,0.013523,0.002678,0.000431,0.002116
121467000,0.0324,0.013523,0.002678,0.000431,0.002233
121468000,0.0324,0.013523,0.002678,0.000431,0.001763
121469000,0.0324,0.013523,0.002678,0.000431,0.002351
121470000,0.0324,0.013523,0.002678,0.000431,0.002351
121471000,0.0324,0.013523,0.002678,0.000431,0.002116
121472000,0.0324,0.013523,0.002678,0.000431,0.005289
121473000,0.0324,0.013523,0.002678,0.000431,0.000940
121474000,0.0324,0.013523,0.002678,0.000431,0.001645
121475000,0.0324,0.013523,0.002678,0.000431,0.000940
121476000,0.0324,0.013523,0.002678,0.000431,0.001410
121477000,0.0324,0.013523,0.002678,0.000431,0.001293
121478000,0.0324,0.013523,0.002678,0.000431,0.001175
121479000,0.0324,0.013523,0.002678,0.000431,0.001528
121480000,0.0324,0.013523,0.002678,0.000431,0.000823
121481000,0.0324,0.013523,0.002678,0.000431,0.001528
121482000,0.0324,0.013523,0.002678,0.000431,0.001293
121483000,0.0324,0.013523,0.002678,0.000431,0.000940
121484000,0.0324,0.013523,0.002678,0.000431,0.001645
121485000,0.0324,0.013523,0.002678,0.000431,0.001058
121486000,0.0324,0.013523,0.002678,0.000431,0.001410
121487000,0.0324,0.013523,0.002678,0.000431,0.001058
121488000,0.0324,0.013523,0.002678,0.000431,0.001293
121489000,0.0324,0.013523,0.002678,0.000431,0.001528
121490000,0.0324,0.013523,0.002678,0.000431,0.001058
121491000,0.0324,0.013523,0.002678,0.000431,0.001410
121492000,0.0324,0.013523,0.002678,0.000431,0.001293
121493000,0.0324,0.013523,0.002678,0.000431,0.001645
121494000,0.0324,0.013523,0.002678,0.000431,0.001058
121495000,0.0324,0.013523,0.002678,0.000431,0.001410
121496000,0.0324,0.013523,0.002678,0.000431,0.001058
121497000,0.0324,0.013523,0.002678,0.000431,0.001528
121498000,0.0324,0.013523,0.002678,0.000431,0.001175
121499000,0.0324,0.013523,0.002678,0.000431,0.001175
121500000,0.0324,0.013523,0.002678,0.000431,0.001293
121501000,0.0324,0.013523,0.002678,0.000431,0.028912
121502000,0.0324,0.013523,0.002678,0.000431,0.678138
121503000,0.0324,0.013523,0.002678,0.000431,0.604682
121504000,0.0324,0.013523,0.002678,0.000431,0.137508
121505000,0.0324,0.013523,0.002678,0.000431,0.138331
121506000,0.0324,0.013523,0.002678,0.000431,0.612087
121507000,0.0324,0.013523,0.002678,0.000431,0.243048
121508000,0.0324,0.013523,0.002678,0.000431,0.241168
121509000,0.0324,0.013523,0.002678,0.000431,0.284888
121510000,0.0324,0.013523,0.002678,0.000431,0.139976
121511000,0.0324,0.013523,0.002678,0.000431,0.190748
121512000,0.0324,0.013523,0.002678,0.000431,0.084738
121513000,0.0324,0.013523,0.002678,0.000431,0.523353
121514000,0.0324,0.013523,0.002678,0.000431,0.284301
121515000,0.0324,0.013523,0.002678,0.000431,0.191806
121516000,0.0324,0.013523,0.002678,0.000431,0.170298
121517000,0.0324,0.013523,0.002678,0.000431,0.155020
121518000,0.0324,0.013523,0.002678,0.000431,0.143267
121519000,0.0324,0.013523,0.002678,0.000431,0.141151
121520000,0.0324,0.013523,0.002678,0.000431,0.115060
121521000,0.0324,0.013523,0.002678,0.000431,0.100604
121522000,0.0324,0.013523,0.002678,0.000431,0.087794
121523000,0.0324,0.013523,0.002678,0.000431,0.075453
121524000,0.0324,0.013523,0.002678,0.000431,0.065581
121525000,0.0324,0.013523,0.002678,0.000431,0.067931
121526000,0.0324,0.013523,0.002678,0.000431,0.053475
121527000,0.0324,0.013523,0.002678,0.000431,0.050655
121528000,0.0324,0.013523,0.002678,0.000431,0.050067
121529000,0.0324,0.013523,0.002678,0.000431,0.039960
121530000,0.0324,0.013523,0.002678,0.000431,0.033260
121531000,0.0324,0.013523,0.002678,0.000431,0.036904
121532000,0.0324,0.013523,0.002678,0.000431,0.022800
121533000,0.0324,0.013523,0.002678,0.000431,0.025034
121534000,0.0324,0.013523,0.002678,0.000431,0.027031
121535000,0.0324,0.013523,0.002678,0.000431,0.020450
121536000,0.0324,0.013523,0.002678,0.000431,0.018334
121537000,0.0324,0.013523,0.002678,0.000431,0.027384
121538000,0.0324,0.013523,0.002678,0.000431,0.015631
121539000,0.0324,0.013523,0.002678,0.000431,0.013046
121540000,0.0324,0.013523,0.002678,0.000431,0.013046
121541000,0.0324,0.013523,0.002678,0.000431,0.013986
121542000,0.0324,0.013523,0.002678,0.000431,0.014809
121543000,0.0324,0.013523,0.002678,0.000431,0.011753
121544000,0.0324,0.013523,0.002678,0.000431,0.008932
121545000,0.0324,0.013523,0.002678,0.000431,0.005406
121546000,0.0324,0.013523,0.002678,0.000431,0.003408
121547000,0.0324,0.013523,0.002678,0.000431,0.002703
121548000,0.0324,0.013523,0.002678,0.000431,0.002586
121549000,0.0324,0.013523,0.002678,0.000431,0.002703
121550000,0.0324,0.013523,0.002678,0.000431,0.006229
121551000,0.0324,0.013523,0.002678,0.000431,0.000940
121552000,0.0324,0.013523,0.002678,0.000431,0.000823
121553000,0.0324,0.013523,0.002678,0.000431,0.000823
121554000,0.0324,0.013523,0.002678,0.000431,0.000823
121555000,0.0324,0.013523,0.002678,0.000431,0.000823
121556000,0.0324,0.013523,0.002678,0.000431,0.000823
121557000,0.0324,0.013523,0.002678,0.000431,0.000823
121558000,0.0324,0.013523,0.002678,0.000431,0.000823
121559000,0.0324,0.013523,0.002678,0.000431,0.000823
121560000,0.0324,0.013523,0.002678,0.000431,0.000940
121561000,0.0324,0.013523,0.002678,0.000431,0.000823
121562000,0.0324,0.013523,0.002678,0.000431,0.000823
121563000,0.0324,0.013523,0.002678,0.000431,0.000705
121564000,0.0324,0.013523,0.002678,0.000431,0.000940
121565000,0.0324,0.013523,0.002678,0.000431,0.000705
121566000,0.0324,0.013523,0.002678,0.000431,0.000940
121567000,0.0324,0.013523,0.002678,0.000431,0.231531
121568000,0.0324,0.013523,0.002678,0.000431,0.666855
121569000,0.0324,0.013523,0.002678,0.000431,0.503373
121570000,0.0324,0.013523,0.002678,0.000431,0.179348
121571000,0.0324,0.013523,0.002678,0.000431,0.223421
121572000,0.0324,0.013523,0.002678,0.000431,0.657100
121573000,0.0324,0.013523,0.002678,0.000431,0.245634
121574000,0.0324,0.013523,0.002678,0.000431,0.304398
121575000,0.0324,0.013523,0.002678,0.000431,0.154785
121576000,0.0324,0.013523,0.002678,0.000431,0.166890
121577000,0.0324,0.013523,0.002678,0.000431,0.100604
121578000,0.0324,0.013523,0.002678,0.000431,0.517006
121579000,0.0324,0.013523,0.002678,0.000431,0.291000
121580000,0.0324,0.013523,0.002678,0.000431,0.204499
121581000,0.0324,0.013523,0.002678,0.000431,0.184049
121582000,0.0324,0.013523,0.002678,0.000431,0.165597
121583000,0.0324,0.013523,0.002678,0.000431,0.137508
121584000,0.0324,0.013523,0.002678,0.000431,0.133159
121585000,0.0324,0.013523,0.002678,0.000431,0.096608
121586000,0.0324,0.013523,0.002678,0.000431,0.094728
121587000,0.0324,0.013523,0.002678,0.000431,0.082622
121588000,0.0324,0.013523,0.002678,0.000431,0.069224
121589000,0.0324,0.013523,0.002678,0.000431,0.071810
121590000,0.0324,0.013523,0.002678,0.000431,0.052300
121591000,0.0324,0.013523,0.002678,0.000431,0.055238
121592000,0.0324,0.013523,0.002678,0.000431,0.057471
121593000,0.0324,0.013523,0.002678,0.000431,0.048657
121594000,0.0324,0.013523,0.002678,0.000431,0.037139
121595000,0.0324,0.013523,0.002678,0.000431,0.042310
121596000,0.0324,0.013523,0.002678,0.000431,0.033260
121597000,0.0324,0.013523,0.002678,0.000431,0.022800
121598000,0.0324,0.013523,0.002678,0.000431,0.028677
121599000,0.0324,0.013523,0.002678,0.000431,0.029029
121600000,0.0324,0.013523,0.002678,0.000431,0.018217
121601000,0.0324,0.013523,0.002678,0.000431,0.019745
121602000,0.0324,0.013523,0.002678,0.000431,0.013163
121603000,0.0324,0.013523,0.002678,0.000431,0.011518
121604000,0.0324,0.013523,0.002678,0.000431,0.011870
121605000,0.0324,0.013523,0.002678,0.000431,0.011165
121606000,0.0324,0.013523,0.002678,0.000431,0.010578
121607000,0.0324,0.013523,0.002678,0.000431,0.011400
121608000,0.0324,0.013523,0.002678,0.000431,0.011048
121609000,0.0324,0.013523,0.002678,0.000431,0.010107
121610000,0.0324,0.013523,0.002678,0.000431,0.009402
121611000,0.0324,0.013523,0.002678,0.000431,0.008109
121612000,0.0324,0.013523,0.002678,0.000431,0.010578
121613000,0.0324,0.013523,0.002678,0.000431,0.009872
121614000,0.0324,0.013523,0.002678,0.000431,0.003408
121615000,0.0324,0.013523,0.002678,0.000431,0.007169
121616000,0.0324,0.013523,0.002678,0.000431,0.002586
121617000,0.0324,0.013523,0.002678,0.000431,0.002586
121618000,0.0324,0.013523,0.002678,0.000431,0.002468
121619000,0.0324,0.013523,0.002678,0.000431,0.002351
121620000,0.0324,0.013523,0.002678,0.000431,0.004466
121621000,0.0324,0.013523,0.002678,0.000431,0.003878
121622000,0.0324,0.013523,0.002678,0.000431,0.001880
121623000,0.0324,0.013523,0.002678,0.000431,0.004231
121624000,0.0324,0.013523,0.002678,0.000431,0.000823
121625000,0.0324,0.013523,0.002678,0.000431,0.259620
121626000,0.0324,0.013523,0.002678,0.000431,0.744776
121627000,0.0324,0.013523,0.002678,0.000431,0.450486
121628000,0.0324,0.013523,0.002678,0.000431,0.148908
121629000,0.0324,0.013523,0.002678,0.000431,0.280892
121630000,0.0324,0.013523,0.002678,0.000431,0.536634
121631000,0.0324,0.013523,0.002678,0.000431,0.292998
121632000,0.0324,0.013523,0.002678,0.000431,0.310509
121633000,0.0324,0.013523,0.002678,0.000431,0.144207
121634000,0.0324,0.013523,0.002678,0.000431,0.164187
121635000,0.0324,0.013523,0.002678,0.000431,0.171474
121636000,0.0324,0.013523,0.002678,0.000431,0.467997
121637000,0.0324,0.013523,0.002678,0.000431,0.146088
121638000,0.0324,0.013523,0.002678,0.000431,0.124932
121639000,0.0324,0.013523,0.002678,0.000431,0.111182
121640000,0.0324,0.013523,0.002678,0.000431,0.110476
121641000,0.0324,0.013523,0.002678,0.000431,0.095550
121642000,0.0324,0.013523,0.002678,0.000431,0.078979
121643000,0.0324,0.013523,0.002678,0.000431,0.083327
121644000,0.0324,0.013523,0.002678,0.000431,0.073455
121645000,0.0324,0.013523,0.002678,0.000431,0.058999
121646000,0.0324,0.013523,0.002678,0.000431,0.052653
121647000,0.0324,0.013523,0.002678,0.000431,0.049714
121648000,0.0324,0.013523,0.002678,0.000431,0.047246
121649000,0.0324,0.013523,0.002678,0.000431,0.040077
121650000,0.0324,0.013523,0.002678,0.000431,0.036786
121651000,0.0324,0.013523,0.002678,0.000431,0.027854
121652000,0.0324,0.013523,0.002678,0.000431,0.030087
121653000,0.0324,0.013523,0.002678,0.000431,0.024328
121654000,0.0324,0.013523,0.002678,0.000431,0.025504
121655000,0.0324,0.013523,0.002678,0.000431,0.021625
121656000,0.0324,0.013523,0.002678,0.000431,0.018922
121657000,0.0324,0.013523,0.002678,0.000431,0.019157
121658000,0.0324,0.013523,0.002678,0.000431,0.012340
121659000,0.0324,0.013523,0.002678,0.000431,0.008580
121660000,0.0324,0.013523,0.002678,0.000431,0.009637
121661000,0.0324,0.013523,0.002678,0.000431,0.009520
121662000,0.0324,0.013523,0.002678,0.000431,0.009050
121663000,0.0324,0.013523,0.002678,0.000431,0.008345
121664000,0.0324,0.013523,0.002678,0.000431,0.007169
121665000,0.0324,0.013523,0.002678,0.000431,0.006229
121666000,0.0324,0.013523,0.002678,0.000431,0.007052
121667000,0.0324,0.013523,0.002678,0.000431,0.005876
121668000,0.0324,0.013523,0.002678,0.000431,0.003173
121669000,0.0324,0.013523,0.002678,0.000431,0.003173
121670000,0.0324,0.013523,0.002678,0.000431,0.004701
121671000,0.0324,0.013523,0.002678,0.000431,0.002703
121672000,0.0324,0.013523,0.002678,0.000431,0.001998
121673000,0.0324,0.013523,0.002678,0.000431,0.002821
121674000,0.0324,0.013523,0.002678,0.000431,0.002233
121675000,0.0324,0.013523,0.002678,0.000431,0.002468
121676000,0.0324,0.013523,0.002678,0.000431,0.002586
121677000,0.0324,0.013523,0.002678,0.000431,0.002586
121678000,0.0324,0.013523,0.002678,0.000431,0.002586
121679000,0.0324,0.013523,0.002678,0.000431,0.001998
121680000,0.0324,0.013523,0.002678,0.000431,0.004349
121681000,0.0324,0.013523,0.002678,0.000431,0.009402
121682000,0.0324,0.013523,0.002678,0.000431,0.552147
121683000,0.0324,0.013523,0.002678,0.000431,0.657923
121684000,0.0324,0.013523,0.002678,0.000431,0.142444
121685000,0.0324,0.013523,0.002678,0.000431,0.136333
121686000,0.0324,0.013523,0.002678,0.000431,0.455069
121687000,0.0324,0.013523,0.002678,0.000431,0.320264
121688000,0.0324,0.013523,0.002678,0.000431,0.278894
121689000,0.0324,0.013523,0.002678,0.000431,0.343065
121690000,0.0324,0.013523,0.002678,0.000431,0.144912
121691000,0.0324,0.013523,0.002678,0.000431,0.178878
121692000,0.0324,0.013523,0.002678,0.000431,0.083445
121693000,0.0324,0.013523,0.002678,0.000431,0.514068
121694000,0.0324,0.013523,0.002678,0.000431,0.234586
121695000,0.0324,0.013523,0.002678,0.000431,0.168770
121696000,0.0324,0.013523,0.002678,0.000431,0.157723
121697000,0.0324,0.013523,0.002678,0.000431,0.121994
121698000,0.0324,0.013523,0.002678,0.000431,0.117058
121699000,0.0324,0.013523,0.002678,0.000431,0.116353
121700000,0.0324,0.013523,0.002678,0.000431,0.098724
121701000,0.0324,0.013523,0.002678,0.000431,0.091554
121702000,0.0324,0.013523,0.002678,0.000431,0.077686
121703000,0.0324,0.013523,0.002678,0.000431,0.070752
121704000,0.0324,0.013523,0.002678,0.000431,0.068166
121705000,0.0324,0.013523,0.002678,0.000431,0.066991
121706000,0.0324,0.013523,0.002678,0.000431,0.058294
121707000,0.0324,0.013523,0.002678,0.000431,0.053710
121708000,0.0324,0.013523,0.002678,0.000431,0.044308
121709000,0.0324,0.013523,0.002678,0.000431,0.039489
121710000,0.0324,0.013523,0.002678,0.000431,0.036081
121711000,0.0324,0.013523,0.002678,0.000431,0.028677
121712000,0.0324,0.013523,0.002678,0.000431,0.030557
121713000,0.0324,0.013523,0.002678,0.000431,0.022095
121714000,0.0324,0.013523,0.002678,0.000431,0.025856
121715000,0.0324,0.013523,0.002678,0.000431,0.023623
121716000,0.0324,0.013523,0.002678,0.000431,0.019980
121717000,0.0324,0.013523,0.002678,0.000431,0.017629
121718000,0.0324,0.013523,0.002678,0.000431,0.012223
121719000,0.0324,0.013523,0.002678,0.000431,0.012693
121720000,0.0324,0.013523,0.002678,0.000431,0.011283
121721000,0.0324,0.013523,0.002678,0.000431,0.010342
121722000,0.0324,0.013523,0.002678,0.000431,0.011988
121723000,0.0324,0.013523,0.002678,0.000431,0.010813
121724000,0.0324,0.013523,0.002678,0.000431,0.010107
121725000,0.0324,0.013523,0.002678,0.000431,0.009285
121726000,0.0324,0.013523,0.002678,0.000431,0.014573
121727000,0.0324,0.013523,0.002678,0.000431,0.009990
121728000,0.0324,0.013523,0.002678,0.000431,0.007404
121729000,0.0324,0.013523,0.002678,0.000431,0.009050
121730000,0.0324,0.013523,0.002678,0.000431,0.007404
121731000,0.0324,0.013523,0.002678,0.000431,0.006582
121732000,0.0324,0.013523,0.002678,0.000431,0.005406
121733000,0.0324,0.013523,0.002678,0.000431,0.009167
121734000,0.0324,0.013523,0.002678,0.000431,0.005994
121735000,0.0324,0.013523,0.002678,0.000431,0.002586
121736000,0.0324,0.013523,0.002678,0.000431,0.003291
121737000,0.0324,0.013523,0.002678,0.000431,0.000705
121738000,0.0324,0.013523,0.002678,0.000431,0.000940
121739000,0.0324,0.013523,0.002678,0.000431,0.030322
121740000,0.0324,0.013523,0.002678,0.000431,0.663447
121741000,0.0324,0.013523,0.002678,0.000431,0.596456
121742000,0.0324,0.013523,0.002678,0.000431,0.132572
121743000,0.0324,0.013523,0.002678,0.000431,0.141857
121744000,0.0324,0.013523,0.002678,0.000431,0.601744
121745000,0.0324,0.013523,0.002678,0.000431,0.266201
121746000,0.0324,0.013523,0.002678,0.000431,0.288649
121747000,0.0324,0.013523,0.002678,0.000431,0.250805
121748000,0.0324,0.013523,0.002678,0.000431,0.143502
121749000,0.0324,0.013523,0.002678,0.000431,0.142679
121750000,0.0324,0.013523,0.002678,0.000431,0.233411
121751000,0.0324,0.013523,0.002678,0.000431,0.461416
121752000,0.0324,0.013523,0.002678,0.000431,0.210963
121753000,0.0324,0.013523,0.002678,0.000431,0.189103
121754000,0.0324,0.013523,0.002678,0.000431,0.163129
121755000,0.0324,0.013523,0.002678,0.000431,0.148086
121756000,0.0324,0.013523,0.002678,0.000431,0.125050
121757000,0.0324,0.013523,0.002678,0.000431,0.116353
121758000,0.0324,0.013523,0.002678,0.000431,0.109419
121759000,0.0324,0.013523,0.002678,0.000431,0.101427
121760000,0.0324,0.013523,0.002678,0.000431,0.084385
121761000,0.0324,0.013523,0.002678,0.000431,0.073690
121762000,0.0324,0.013523,0.002678,0.000431,0.058647
121763000,0.0324,0.013523,0.002678,0.000431,0.059469
121764000,0.0324,0.013523,0.002678,0.000431,0.055238
121765000,0.0324,0.013523,0.002678,0.000431,0.047246
121766000,0.0324,0.013523,0.002678,0.000431,0.037727
121767000,0.0324,0.013523,0.002678,0.000431,0.042075
121768000,0.0324,0.013523,0.002678,0.000431,0.028207
121769000,0.0324,0.013523,0.002678,0.000431,0.029029
121770000,0.0324,0.013523,0.002678,0.000431,0.024211
121771000,0.0324,0.013523,0.002678,0.000431,0.019392
121772000,0.0324,0.013523,0.002678,0.000431,0.018922
121773000,0.0324,0.013523,0.002678,0.000431,0.019157
121774000,0.0324,0.013523,0.002678,0.000431,0.018569
121775000,0.0324,0.013523,0.002678,0.000431,0.019510
121776000,0.0324,0.013523,0.002678,0.000431,0.017042
121777000,0.0324,0.013523,0.002678,0.000431,0.015631
121778000,0.0324,0.013523,0.002678,0.000431,0.015279
121779000,0.0324,0.013523,0.002678,0.000431,0.009755
121780000,0.0324,0.013523,0.002678,0.000431,0.009050
121781000,0.0324,0.013523,0.002678,0.000431,0.012811
121782000,0.0324,0.013523,0.002678,0.000431,0.012928
121783000,0.0324,0.013523,0.002678,0.000431,0.005994
121784000,0.0324,0.013523,0.002678,0.000431,0.005876
121785000,0.0324,0.013523,0.002678,0.000431,0.005876
121786000,0.0324,0.013523,0.002678,0.000431,0.006229
121787000,0.0324,0.013523,0.002678,0.000431,0.005759
121788000,0.0324,0.013523,0.002678,0.000431,0.006111
121789000,0.0324,0.013523,0.002678,0.000431,0.006111
121790000,0.0324,0.013523,0.002678,0.000431,0.005524
121791000,0.0324,0.013523,0.002678,0.000431,0.006699
121792000,0.0324,0.013523,0.002678,0.000431,0.006582
121793000,0.0324,0.013523,0.002678,0.000431,0.005759
121794000,0.0324,0.013523,0.002678,0.000431,0.005406
121795000,0.0324,0.013523,0.002678,0.000431,0.006347
121796000,0.0324,0.013523,0.002678,0.000431,0.004349
121797000,0.0324,0.013523,0.002678,0.000431,0.006229
121798000,0.0324,0.013523,0.002678,0.000431,0.006347
121799000,0.0324,0.013523,0.002678,0.000431,0.002821
121800000,0.0324,0.013523,0.002678,0.000431,0.019392
121801000,0.0324,0.013523,0.002678,0.000431,0.702701
121802000,0.0324,0.013523,0.002678,0.000431,0.589286
121803000,0.0324,0.013523,0.002678,0.000431,0.142092
121804000,0.0324,0.013523,0.002678,0.000431,0.138566
121805000,0.0324,0.013523,0.002678,0.000431,0.571187
121806000,0.0324,0.013523,0.002678,0.000431,0.266319
121807000,0.0324,0.013523,0.002678,0.000431,0.254213
121808000,0.0324,0.013523,0.002678,0.000431,0.265144
121809000,0.0324,0.013523,0.002678,0.000431,0.149731
121810000,0.0324,0.013523,0.002678,0.000431,0.166302
121811000,0.0324,0.013523,0.002678,0.000431,0.141504
121812000,0.0324,0.013523,0.002678,0.000431,0.481043
121813000,0.0324,0.013523,0.002678,0.000431,0.162894
121814000,0.0324,0.013523,0.002678,0.000431,0.117176
121815000,0.0324,0.013523,0.002678,0.000431,0.117528
121816000,0.0324,0.013523,0.002678,0.000431,0.109301
121817000,0.0324,0.013523,0.002678,0.000431,0.099194
121818000,0.0324,0.013523,0.002678,0.000431,0.087676
121819000,0.0324,0.013523,0.002678,0.000431,0.090967
121820000,0.0324,0.013523,0.002678,0.000431,0.069107
121821000,0.0324,0.013523,0.002678,0.000431,0.060057
121822000,0.0324,0.013523,0.002678,0.000431,0.054180
121823000,0.0324,0.013523,0.002678,0.000431,0.049714
121824000,0.0324,0.013523,0.002678,0.000431,0.042545
121825000,0.0324,0.013523,0.002678,0.000431,0.037139
121826000,0.0324,0.013523,0.002678,0.000431,0.042663
121827000,0.0324,0.013523,0.002678,0.000431,0.025974
121828000,0.0324,0.013523,0.002678,0.000431,0.031615
121829000,0.0324,0.013523,0.002678,0.000431,0.021978
121830000,0.0324,0.013523,0.002678,0.000431,0.016219
121831000,0.0324,0.013523,0.002678,0.000431,0.016336
121832000,0.0324,0.013523,0.002678,0.000431,0.012811
121833000,0.0324,0.013523,0.002678,0.000431,0.013516
121834000,0.0324,0.013523,0.002678,0.000431,0.011165
121835000,0.0324,0.013523,0.002678,0.000431,0.010460
121836000,0.0324,0.013523,0.002678,0.000431,0.008580
121837000,0.0324,0.013523,0.002678,0.000431,0.009520
121838000,0.0324,0.013523,0.002678,0.000431,0.011165
121839000,0.0324,0.013523,0.002678,0.000431,0.007874
121840000,0.0324,0.013523,0.002678,0.000431,0.008815
121841000,0.0324,0.013523,0.002678,0.000431,0.008345
121842000,0.0324,0.013523,0.002678,0.000431,0.008462
121843000,0.0324,0.013523,0.002678,0.000431,0.010813
121844000,0.0324,0.013523,0.002678,0.000431,0.007639
121845000,0.0324,0.013523,0.002678,0.000431,0.009285
121846000,0.0324,0.013523,0.002678,0.000431,0.006817
121847000,0.0324,0.013523,0.002678,0.000431,0.006934
121848000,0.0324,0.013523,0.002678,0.000431,0.007052
121849000,0.0324,0.013523,0.002678,0.000431,0.006464
121850000,0.0324,0.013523,0.002678,0.000431,0.007757
121851000,0.0324,0.013523,0.002678,0.000431,0.006111
121852000,0.0324,0.013523,0.002678,0.000431,0.005876
121853000,0.0324,0.013523,0.002678,0.000431,0.006582
121854000,0.0324,0.013523,0.002678,0.000431,0.005876
121855000,0.0324,0.013523,0.002678,0.000431,0.006464
121856000,0.0324,0.013523,0.002678,0.000431,0.005759
121857000,0.0324,0.013523,0.002678,0.000431,0.004466
121858000,0.0324,0.013523,0.002678,0.000431,0.003761
121859000,0.0324,0.013523,0.002678,0.000431,0.004584
121860000,0.0324,0.013523,0.002678,0.000431,0.004466
121861000,0.0324,0.013523,0.002678,0.000431,0.004231
121862000,0.0324,0.013523,0.002678,0.000431,0.003878
121863000,0.0324,0.013523,0.002678,0.000431,0.004466
121864000,0.0324,0.013523,0.002678,0.000431,0.004466
121865000,0.0324,0.013523,0.002678,0.000431,0.004113
121866000,0.0324,0.013523,0.002678,0.000431,0.003996
121867000,0.0324,0.013523,0.002678,0.000431,0.004701
121868000,0.0324,0.013523,0.002678,0.000431,0.004349
121869000,0.0324,0.013523,0.002678,0.000431,0.003878
121870000,0.0324,0.013523,0.002678,0.000431,0.004584
121871000,0.0324,0.013523,0.002678,0.000431,0.004349
121872000,0.0324,0.013523,0.002678,0.000431,0.005641
121873000,0.0324,0.013523,0.002678,0.000431,0.003291
121874000,0.0324,0.013523,0.002678,0.000431,0.003408
121875000,0.0324,0.013523,0.002678,0.000431,0.007522
121876000,0.0324,0.013523,0.002678,0.000431,0.001880
121877000,0.0324,0.013523,0.002678,0.000431,0.001645
121878000,0.0324,0.013523,0.002678,0.000431,0.001528
121879000,0.0324,0.013523,0.002678,0.000431,0.001528
121880000,0.0324,0.013523,0.002678,0.000431,0.001880
121881000,0.0324,0.013523,0.002678,0.000431,0.001645
121882000,0.0324,0.013523,0.002678,0.000431,0.001645
121883000,0.0324,0.013523,0.002678,0.000431,0.001645
121884000,0.0324,0.013523,0.002678,0.000431,0.001645
121885000,0.0324,0.013523,0.002678,0.000431,0.001645
121886000,0.0324,0.013523,0.002678,0.000431,0.001410
121887000,0.0324,0.013523,0.002678,0.000431,0.001880
121888000,0.0324,0.013523,0.002678,0.000431,0.001645
121889000,0.0324,0.013523,0.002678,0.000431,0.001645
121890000,0.0324,0.013523,0.002678,0.000431,0.001645
121891000,0.0324,0.013523,0.002678,0.000431,0.001645
121892000,0.0324,0.013523,0.002678,0.000431,0.001645
121893000,0.0324,0.013523,0.002678,0.000431,0.001528
121894000,0.0324,0.013523,0.002678,0.000431,0.001410
121895000,0.0324,0.013523,0.002678,0.000431,0.001763
121896000,0.0324,0.013523,0.002678,0.000431,0.001645
121897000,0.0324,0.013523,0.002678,0.000431,0.001645
121898000,0.0324,0.013523,0.002678,0.000431,0.001645
121899000,0.0324,0.013523,0.002678,0.000431,0.001645
121900000,0.0324,0.013523,0.002678,0.000431,0.001763
121901000,0.0324,0.013523,0.002678,0.000431,0.001528
121902000,0.0324,0.013523,0.002678,0.000431,0.001645
121903000,0.0324,0.013523,0.002678,0.000431,0.001645
121904000,0.0324,0.013523,0.002678,0.000431,0.001645
121905000,0.0324,0.013523,0.002678,0.000431,0.001528
121906000,0.0324,0.013523,0.002678,0.000431,0.001763
121907000,0.0324,0.013523,0.002678,0.000431,0.001880
121908000,0.0324,0.013523,0.002678,0.000431,0.001410
121909000,0.0324,0.013523,0.002678,0.000431,0.001645
121910000,0.0324,0.013523,0.002678,0.000431,0.001645
121911000,0.0324,0.013523,0.002678,0.000431,0.001058
121912000,0.0324,0.013523,0.002678,0.000431,0.000705
121913000,0.0324,0.013523,0.002678,0.000431,0.000940
121914000,0.0324,0.013523,0.002678,0.000431,0.000823
121915000,0.0324,0.013523,0.002678,0.000431,0.000823
121916000,0.0324,0.013523,0.002678,0.000431,0.000940
121917000,0.0324,0.013523,0.002678,0.000431,0.000823
121918000,0.0324,0.013523,0.002678,0.000431,0.072162
121919000,0.0324,0.013523,0.002678,0.000431,0.623369
121920000,0.0324,0.013523,0.002678,0.000431,0.593165
121921000,0.0324,0.013523,0.002678,0.000431,0.132572
121922000,0.0324,0.013523,0.002678,0.000431,0.133042
121923000,0.0324,0.013523,0.002678,0.000431,0.554851
121924000,0.0324,0.013523,0.002678,0.000431,0.247867
121925000,0.0324,0.013523,0.002678,0.000431,0.264086
121926000,0.0324,0.013523,0.002678,0.000431,0.272900
121927000,0.0324,0.013523,0.002678,0.000431,0.145500
121928000,0.0324,0.013523,0.002678,0.000431,0.158781
121929000,0.0324,0.013523,0.002678,0.000431,0.106128
121930000,0.0324,0.013523,0.002678,0.000431,0.459653
121931000,0.0324,0.013523,0.002678,0.000431,0.273371
121932000,0.0324,0.013523,0.002678,0.000431,0.157135
121933000,0.0324,0.013523,0.002678,0.000431,0.133042
121934000,0.0324,0.013523,0.002678,0.000431,0.107538
121935000,0.0324,0.013523,0.002678,0.000431,0.085796
121936000,0.0324,0.013523,0.002678,0.000431,0.085443
121937000,0.0324,0.013523,0.002678,0.000431,0.074395
121938000,0.0324,0.013523,0.002678,0.000431,0.055826
121939000,0.0324,0.013523,0.002678,0.000431,0.051712
121940000,0.0324,0.013523,0.002678,0.000431,0.045954
121941000,0.0324,0.013523,0.002678,0.000431,0.035023
121942000,0.0324,0.013523,0.002678,0.000431,0.037139
121943000,0.0324,0.013523,0.002678,0.000431,0.031027
121944000,0.0324,0.013523,0.002678,0.000431,0.021860
121945000,0.0324,0.013523,0.002678,0.000431,0.036551
121946000,0.0324,0.013523,0.002678,0.000431,0.017747
121947000,0.0324,0.013523,0.002678,0.000431,0.013868
121948000,0.0324,0.013523,0.002678,0.000431,0.013046
121949000,0.0324,0.013523,0.002678,0.000431,0.008697
121950000,0.0324,0.013523,0.002678,0.000431,0.007169
121951000,0.0324,0.013523,0.002678,0.000431,0.006582
121952000,0.0324,0.013523,0.002678,0.000431,0.002586
121953000,0.0324,0.013523,0.002678,0.000431,0.002468
121954000,0.0324,0.013523,0.002678,0.000431,0.002586
121955000,0.0324,0.013523,0.002678,0.000431,0.004584
121956000,0.0324,0.013523,0.002678,0.000431,0.001763
121957000,0.0324,0.013523,0.002678,0.000431,0.001763
121958000,0.0324,0.013523,0.002678,0.000431,0.001528
121959000,0.0324,0.013523,0.002678,0.000431,0.001645
121960000,0.0324,0.013523,0.002678,0.000431,0.002351
121961000,0.0324,0.013523,0.002678,0.000431,0.001528
121962000,0.0324,0.013523,0.002678,0.000431,0.000940
121963000,0.0324,0.013523,0.002678,0.000431,0.000823
121964000,0.0324,0.013523,0.002678,0.000431,0.000823
121965000,0.0324,0.013523,0.002678,0.000431,0.000823
121966000,0.0324,0.013523,0.002678,0.000431,0.000823
121967000,0.0324,0.013523,0.002678,0.000431,0.000823
121968000,0.0324,0.013523,0.002678,0.000431,0.000823
121969000,0.0324,0.013523,0.002678,0.000431,0.000823
121970000,0.0324,0.013523,0.002678,0.000431,0.000823
121971000,0.0324,0.013523,0.002678,0.000431,0.000940
121972000,0.0324,0.013523,0.002678,0.000431,0.000823
121973000,0.0324,0.013523,0.002678,0.000431,0.000823
121974000,0.0324,0.013523,0.002678,0.000431,0.000705
121975000,0.0324,0.013523,0.002678,0.000431,0.000940
121976000,0.0324,0.013523,0.002678,0.000431,0.000940
121977000,0.0324,0.013523,0.002678,0.000431,0.000705
121978000,0.0324,0.013523,0.002678,0.000431,0.000940
121979000,0.0324,0.013523,0.002678,0.000431,0.000705
121980000,0.0324,0.013523,0.002678,0.000431,0.000940
121981000,0.0324,0.013523,0.002678,0.000431,0.000823
121982000,0.0324,0.013523,0.002678,0.000431,0.000823
121983000,0.0324,0.013523,0.002678,0.000431,0.000940
121984000,0.0324,0.013523,0.002678,0.000431,0.000705
121985000,0.0324,0.013523,0.002678,0.000431,0.000940
121986000,0.0324,0.013523,0.002678,0.000431,0.000823
121987000,0.0324,0.013523,0.002678,0.000431,0.000823
121988000,0.0324,0.013523,0.002678,0.000431,0.000823
121989000,0.0324,0.013523,0.002678,0.000431,0.000823
121990000,0.0324,0.013523,0.002678,0.000431,0.000823
121991000,0.0324,0.013523,0.002678,0.000431,0.000823
121992000,0.0324,0.013523,0.002678,0.000431,0.000940
121993000,0.0324,0.013523,0.002678,0.000431,0.000823
121994000,0.0324,0.013523,0.002678,0.000431,0.000823
121995000,0.0324,0.013523,0.002678,0.000431,0.000823
121996000,0.0324,0.013523,0.002678,0.000431,0.000823
121997000,0.0324,0.013523,0.002678,0.000431,0.000705
121998000,0.0324,0.013523,0.002678,0.000431,0.000940
121999000,0.0324,0.013523,0.002678,0.000431,0.000940
