Cycle,Area(mm^2),PeakDynamic(W),SubthresholdLeakage(W),GateLeakage(W),RunTimeDynamic(W)
95000000,0.0324,0.013523,0.002678,0.000431,0.023153
95001000,0.0324,0.013523,0.002678,0.000431,0.026091
95002000,0.0324,0.013523,0.002678,0.000431,0.022683
95003000,0.0324,0.013523,0.002678,0.000431,0.023271
95004000,0.0324,0.013523,0.002678,0.000431,0.019392
95005000,0.0324,0.013523,0.002678,0.000431,0.018334
95006000,0.0324,0.013523,0.002678,0.000431,0.020097
95007000,0.0324,0.013523,0.002678,0.000431,0.016571
95008000,0.0324,0.013523,0.002678,0.000431,0.012223
95009000,0.0324,0.013523,0.002678,0.000431,0.011870
95010000,0.0324,0.013523,0.002678,0.000431,0.012105
95011000,0.0324,0.013523,0.002678,0.000431,0.007639
95012000,0.0324,0.013523,0.002678,0.000431,0.007639
95013000,0.0324,0.013523,0.002678,0.000431,0.007992
95014000,0.0324,0.013523,0.002678,0.000431,0.007404
95015000,0.0324,0.013523,0.002678,0.000431,0.010578
95016000,0.0324,0.013523,0.002678,0.000431,0.005759
95017000,0.0324,0.013523,0.002678,0.000431,0.006934
95018000,0.0324,0.013523,0.002678,0.000431,0.008697
95019000,0.0324,0.013523,0.002678,0.000431,0.004349
95020000,0.0324,0.013523,0.002678,0.000431,0.004231
95021000,0.0324,0.013523,0.002678,0.000431,0.004113
95022000,0.0324,0.013523,0.002678,0.000431,0.006699
95023000,0.0324,0.013523,0.002678,0.000431,0.003173
95024000,0.0324,0.013523,0.002678,0.000431,0.003643
95025000,0.0324,0.013523,0.002678,0.000431,0.004231
95026000,0.0324,0.013523,0.002678,0.000431,0.003761
95027000,0.0324,0.013523,0.002678,0.000431,0.003526
95028000,0.0324,0.013523,0.002678,0.000431,0.003408
95029000,0.0324,0.013523,0.002678,0.000431,0.001645
95030000,0.0324,0.013523,0.002678,0.000431,0.001645
95031000,0.0324,0.013523,0.002678,0.000431,0.001645
95032000,0.0324,0.013523,0.002678,0.000431,0.001645
95033000,0.0324,0.013523,0.002678,0.000431,0.001880
95034000,0.0324,0.013523,0.002678,0.000431,0.001528
95035000,0.0324,0.013523,0.002678,0.000431,0.001763
95036000,0.0324,0.013523,0.002678,0.000431,0.001645
95037000,0.0324,0.013523,0.002678,0.000431,0.001645
95038000,0.0324,0.013523,0.002678,0.000431,0.001763
95039000,0.0324,0.013523,0.002678,0.000431,0.001528
95040000,0.0324,0.013523,0.002678,0.000431,0.003761
95041000,0.0324,0.013523,0.002678,0.000431,0.013751
95042000,0.0324,0.013523,0.002678,0.000431,0.614320
95043000,0.0324,0.013523,0.002678,0.000431,0.615025
95044000,0.0324,0.013523,0.002678,0.000431,0.139623
95045000,0.0324,0.013523,0.002678,0.000431,0.138331
95046000,0.0324,0.013523,0.002678,0.000431,0.514303
95047000,0.0324,0.013523,0.002678,0.000431,0.343065
95048000,0.0324,0.013523,0.002678,0.000431,0.269257
95049000,0.0324,0.013523,0.002678,0.000431,0.263851
95050000,0.0324,0.013523,0.002678,0.000431,0.139859
95051000,0.0324,0.013523,0.002678,0.000431,0.167948
95052000,0.0324,0.013523,0.002678,0.000431,0.103895
95053000,0.0324,0.013523,0.002678,0.000431,0.445784
95054000,0.0324,0.013523,0.002678,0.000431,0.271960
95055000,0.0324,0.013523,0.002678,0.000431,0.158310
95056000,0.0324,0.013523,0.002678,0.000431,0.142444
95057000,0.0324,0.013523,0.002678,0.000431,0.117176
95058000,0.0324,0.013523,0.002678,0.000431,0.106716
95059000,0.0324,0.013523,0.002678,0.000431,0.108479
95060000,0.0324,0.013523,0.002678,0.000431,0.097783
95061000,0.0324,0.013523,0.002678,0.000431,0.086853
95062000,0.0324,0.013523,0.002678,0.000431,0.077569
95063000,0.0324,0.013523,0.002678,0.000431,0.065346
95064000,0.0324,0.013523,0.002678,0.000431,0.062995
95065000,0.0324,0.013523,0.002678,0.000431,0.060057
95066000,0.0324,0.013523,0.002678,0.000431,0.055003
95067000,0.0324,0.013523,0.002678,0.000431,0.048892
95068000,0.0324,0.013523,0.002678,0.000431,0.045366
95069000,0.0324,0.013523,0.002678,0.000431,0.040312
95070000,0.0324,0.013523,0.002678,0.000431,0.033731
95071000,0.0324,0.013523,0.002678,0.000431,0.035846
95072000,0.0324,0.013523,0.002678,0.000431,0.031262
95073000,0.0324,0.013523,0.002678,0.000431,0.035729
95074000,0.0324,0.013523,0.002678,0.000431,0.034436
95075000,0.0324,0.013523,0.002678,0.000431,0.019275
95076000,0.0324,0.013523,0.002678,0.000431,0.021273
95077000,0.0324,0.013523,0.002678,0.000431,0.017042
95078000,0.0324,0.013523,0.002678,0.000431,0.016807
95079000,0.0324,0.013523,0.002678,0.000431,0.017512
95080000,0.0324,0.013523,0.002678,0.000431,0.009637
95081000,0.0324,0.013523,0.002678,0.000431,0.010930
95082000,0.0324,0.013523,0.002678,0.000431,0.009285
95083000,0.0324,0.013523,0.002678,0.000431,0.009167
95084000,0.0324,0.013523,0.002678,0.000431,0.010695
95085000,0.0324,0.013523,0.002678,0.000431,0.013751
95086000,0.0324,0.013523,0.002678,0.000431,0.006464
95087000,0.0324,0.013523,0.002678,0.000431,0.006934
95088000,0.0324,0.013523,0.002678,0.000431,0.006111
95089000,0.0324,0.013523,0.002678,0.000431,0.004466
95090000,0.0324,0.013523,0.002678,0.000431,0.003643
95091000,0.0324,0.013523,0.002678,0.000431,0.003996
95092000,0.0324,0.013523,0.002678,0.000431,0.004231
95093000,0.0324,0.013523,0.002678,0.000431,0.007757
95094000,0.0324,0.013523,0.002678,0.000431,0.003291
95095000,0.0324,0.013523,0.002678,0.000431,0.003173
95096000,0.0324,0.013523,0.002678,0.000431,0.003643
95097000,0.0324,0.013523,0.002678,0.000431,0.002821
95098000,0.0324,0.013523,0.002678,0.000431,0.003643
95099000,0.0324,0.013523,0.002678,0.000431,0.002938
95100000,0.0324,0.013523,0.002678,0.000431,0.003408
95101000,0.0324,0.013523,0.002678,0.000431,0.003173
95102000,0.0324,0.013523,0.002678,0.000431,0.007757
95103000,0.0324,0.013523,0.002678,0.000431,0.001293
95104000,0.0324,0.013523,0.002678,0.000431,0.001880
95105000,0.0324,0.013523,0.002678,0.000431,0.001293
95106000,0.0324,0.013523,0.002678,0.000431,0.001763
95107000,0.0324,0.013523,0.002678,0.000431,0.001645
95108000,0.0324,0.013523,0.002678,0.000431,0.001058
95109000,0.0324,0.013523,0.002678,0.000431,0.000823
95110000,0.0324,0.013523,0.002678,0.000431,0.000823
95111000,0.0324,0.013523,0.002678,0.000431,0.000823
95112000,0.0324,0.013523,0.002678,0.000431,0.000823
95113000,0.0324,0.013523,0.002678,0.000431,0.000940
95114000,0.0324,0.013523,0.002678,0.000431,0.000823
95115000,0.0324,0.013523,0.002678,0.000431,0.000823
95116000,0.0324,0.013523,0.002678,0.000431,0.000940
95117000,0.0324,0.013523,0.002678,0.000431,0.000823
95118000,0.0324,0.013523,0.002678,0.000431,0.000823
95119000,0.0324,0.013523,0.002678,0.000431,0.000823
95120000,0.0324,0.013523,0.002678,0.000431,0.000823
95121000,0.0324,0.013523,0.002678,0.000431,0.000940
95122000,0.0324,0.013523,0.002678,0.000431,0.167595
95123000,0.0324,0.013523,0.002678,0.000431,0.596691
95124000,0.0324,0.013523,0.002678,0.000431,0.544391
95125000,0.0324,0.013523,0.002678,0.000431,0.142092
95126000,0.0324,0.013523,0.002678,0.000431,0.136215
95127000,0.0324,0.013523,0.002678,0.000431,0.656277
95128000,0.0324,0.013523,0.002678,0.000431,0.231178
95129000,0.0324,0.013523,0.002678,0.000431,0.303458
95130000,0.0324,0.013523,0.002678,0.000431,0.226007
95131000,0.0324,0.013523,0.002678,0.000431,0.140211
95132000,0.0324,0.013523,0.002678,0.000431,0.157135
95133000,0.0324,0.013523,0.002678,0.000431,0.162659
95134000,0.0324,0.013523,0.002678,0.000431,0.486802
95135000,0.0324,0.013523,0.002678,0.000431,0.220013
95136000,0.0324,0.013523,0.002678,0.000431,0.188280
95137000,0.0324,0.013523,0.002678,0.000431,0.157370
95138000,0.0324,0.013523,0.002678,0.000431,0.149848
95139000,0.0324,0.013523,0.002678,0.000431,0.117881
95140000,0.0324,0.013523,0.002678,0.000431,0.117646
95141000,0.0324,0.013523,0.002678,0.000431,0.100722
95142000,0.0324,0.013523,0.002678,0.000431,0.100134
95143000,0.0324,0.013523,0.002678,0.000431,0.086383
95144000,0.0324,0.013523,0.002678,0.000431,0.082975
95145000,0.0324,0.013523,0.002678,0.000431,0.071222
95146000,0.0324,0.013523,0.002678,0.000431,0.069929
95147000,0.0324,0.013523,0.002678,0.000431,0.062760
95148000,0.0324,0.013523,0.002678,0.000431,0.060762
95149000,0.0324,0.013523,0.002678,0.000431,0.052888
95150000,0.0324,0.013523,0.002678,0.000431,0.045836
95151000,0.0324,0.013523,0.002678,0.000431,0.040547
95152000,0.0324,0.013523,0.002678,0.000431,0.035141
95153000,0.0324,0.013523,0.002678,0.000431,0.031262
95154000,0.0324,0.013523,0.002678,0.000431,0.031850
95155000,0.0324,0.013523,0.002678,0.000431,0.024563
95156000,0.0324,0.013523,0.002678,0.000431,0.025974
95157000,0.0324,0.013523,0.002678,0.000431,0.027267
95158000,0.0324,0.013523,0.002678,0.000431,0.021743
95159000,0.0324,0.013523,0.002678,0.000431,0.015396
95160000,0.0324,0.013523,0.002678,0.000431,0.017277
95161000,0.0324,0.013523,0.002678,0.000431,0.012576
95162000,0.0324,0.013523,0.002678,0.000431,0.015631
95163000,0.0324,0.013523,0.002678,0.000431,0.007757
95164000,0.0324,0.013523,0.002678,0.000431,0.007639
95165000,0.0324,0.013523,0.002678,0.000431,0.007757
95166000,0.0324,0.013523,0.002678,0.000431,0.010813
95167000,0.0324,0.013523,0.002678,0.000431,0.006582
95168000,0.0324,0.013523,0.002678,0.000431,0.007287
95169000,0.0324,0.013523,0.002678,0.000431,0.011400
95170000,0.0324,0.013523,0.002678,0.000431,0.008580
95171000,0.0324,0.013523,0.002678,0.000431,0.005641
95172000,0.0324,0.013523,0.002678,0.000431,0.003291
95173000,0.0324,0.013523,0.002678,0.000431,0.003526
95174000,0.0324,0.013523,0.002678,0.000431,0.006464
95175000,0.0324,0.013523,0.002678,0.000431,0.002468
95176000,0.0324,0.013523,0.002678,0.000431,0.004113
95177000,0.0324,0.013523,0.002678,0.000431,0.001645
95178000,0.0324,0.013523,0.002678,0.000431,0.001880
95179000,0.0324,0.013523,0.002678,0.000431,0.001645
95180000,0.0324,0.013523,0.002678,0.000431,0.001763
95181000,0.0324,0.013523,0.002678,0.000431,0.001763
95182000,0.0324,0.013523,0.002678,0.000431,0.001880
95183000,0.0324,0.013523,0.002678,0.000431,0.001880
95184000,0.0324,0.013523,0.002678,0.000431,0.001763
95185000,0.0324,0.013523,0.002678,0.000431,0.001645
95186000,0.0324,0.013523,0.002678,0.000431,0.003996
95187000,0.0324,0.013523,0.002678,0.000431,0.000940
95188000,0.0324,0.013523,0.002678,0.000431,0.000823
95189000,0.0324,0.013523,0.002678,0.000431,0.013633
95190000,0.0324,0.013523,0.002678,0.000431,0.659803
95191000,0.0324,0.013523,0.002678,0.000431,0.586583
95192000,0.0324,0.013523,0.002678,0.000431,0.152317
95193000,0.0324,0.013523,0.002678,0.000431,0.133982
95194000,0.0324,0.013523,0.002678,0.000431,0.513598
95195000,0.0324,0.013523,0.002678,0.000431,0.267024
95196000,0.0324,0.013523,0.002678,0.000431,0.238582
95197000,0.0324,0.013523,0.002678,0.000431,0.366923
95198000,0.0324,0.013523,0.002678,0.000431,0.140211
95199000,0.0324,0.013523,0.002678,0.000431,0.150906
95200000,0.0324,0.013523,0.002678,0.000431,0.109536
95201000,0.0324,0.013523,0.002678,0.000431,0.459300
95202000,0.0324,0.013523,0.002678,0.000431,0.321557
95203000,0.0324,0.013523,0.002678,0.000431,0.200503
95204000,0.0324,0.013523,0.002678,0.000431,0.171474
95205000,0.0324,0.013523,0.002678,0.000431,0.145382
95206000,0.0324,0.013523,0.002678,0.000431,0.130926
95207000,0.0324,0.013523,0.002678,0.000431,0.099664
95208000,0.0324,0.013523,0.002678,0.000431,0.102367
95209000,0.0324,0.013523,0.002678,0.000431,0.084738
95210000,0.0324,0.013523,0.002678,0.000431,0.073338
95211000,0.0324,0.013523,0.002678,0.000431,0.069342
95212000,0.0324,0.013523,0.002678,0.000431,0.056178
95213000,0.0324,0.013523,0.002678,0.000431,0.048774
95214000,0.0324,0.013523,0.002678,0.000431,0.054063
95215000,0.0324,0.013523,0.002678,0.000431,0.053828
95216000,0.0324,0.013523,0.002678,0.000431,0.039960
95217000,0.0324,0.013523,0.002678,0.000431,0.039607
95218000,0.0324,0.013523,0.002678,0.000431,0.036434
95219000,0.0324,0.013523,0.002678,0.000431,0.034553
95220000,0.0324,0.013523,0.002678,0.000431,0.031615
95221000,0.0324,0.013523,0.002678,0.000431,0.029735
95222000,0.0324,0.013523,0.002678,0.000431,0.034083
95223000,0.0324,0.013523,0.002678,0.000431,0.021273
95224000,0.0324,0.013523,0.002678,0.000431,0.019510
95225000,0.0324,0.013523,0.002678,0.000431,0.019627
95226000,0.0324,0.013523,0.002678,0.000431,0.023623
95227000,0.0324,0.013523,0.002678,0.000431,0.019510
95228000,0.0324,0.013523,0.002678,0.000431,0.015866
95229000,0.0324,0.013523,0.002678,0.000431,0.010342
95230000,0.0324,0.013523,0.002678,0.000431,0.013751
95231000,0.0324,0.013523,0.002678,0.000431,0.009990
95232000,0.0324,0.013523,0.002678,0.000431,0.005759
95233000,0.0324,0.013523,0.002678,0.000431,0.004466
95234000,0.0324,0.013523,0.002678,0.000431,0.003526
95235000,0.0324,0.013523,0.002678,0.000431,0.002586
95236000,0.0324,0.013523,0.002678,0.000431,0.002586
95237000,0.0324,0.013523,0.002678,0.000431,0.002586
95238000,0.0324,0.013523,0.002678,0.000431,0.002351
95239000,0.0324,0.013523,0.002678,0.000431,0.002351
95240000,0.0324,0.013523,0.002678,0.000431,0.002586
95241000,0.0324,0.013523,0.002678,0.000431,0.002351
95242000,0.0324,0.013523,0.002678,0.000431,0.002351
95243000,0.0324,0.013523,0.002678,0.000431,0.002586
95244000,0.0324,0.013523,0.002678,0.000431,0.002351
95245000,0.0324,0.013523,0.002678,0.000431,0.002351
95246000,0.0324,0.013523,0.002678,0.000431,0.002351
95247000,0.0324,0.013523,0.002678,0.000431,0.002351
95248000,0.0324,0.013523,0.002678,0.000431,0.002703
95249000,0.0324,0.013523,0.002678,0.000431,0.002233
95250000,0.0324,0.013523,0.002678,0.000431,0.002351
95251000,0.0324,0.013523,0.002678,0.000431,0.002233
95252000,0.0324,0.013523,0.002678,0.000431,0.002586
95253000,0.0324,0.013523,0.002678,0.000431,0.002703
95254000,0.0324,0.013523,0.002678,0.000431,0.001998
95255000,0.0324,0.013523,0.002678,0.000431,0.002586
95256000,0.0324,0.013523,0.002678,0.000431,0.002233
95257000,0.0324,0.013523,0.002678,0.000431,0.002586
95258000,0.0324,0.013523,0.002678,0.000431,0.002468
95259000,0.0324,0.013523,0.002678,0.000431,0.002233
95260000,0.0324,0.013523,0.002678,0.000431,0.005289
95261000,0.0324,0.013523,0.002678,0.000431,0.001293
95262000,0.0324,0.013523,0.002678,0.000431,0.001763
95263000,0.0324,0.013523,0.002678,0.000431,0.001645
95264000,0.0324,0.013523,0.002678,0.000431,0.001410
95265000,0.0324,0.013523,0.002678,0.000431,0.015984
95266000,0.0324,0.013523,0.002678,0.000431,0.711516
95267000,0.0324,0.013523,0.002678,0.000431,0.597748
95268000,0.0324,0.013523,0.002678,0.000431,0.161954
95269000,0.0324,0.013523,0.002678,0.000431,0.132572
95270000,0.0324,0.013523,0.002678,0.000431,0.554380
95271000,0.0324,0.013523,0.002678,0.000431,0.234116
95272000,0.0324,0.013523,0.002678,0.000431,0.278777
95273000,0.0324,0.013523,0.002678,0.000431,0.332017
95274000,0.0324,0.013523,0.002678,0.000431,0.146910
95275000,0.0324,0.013523,0.002678,0.000431,0.165362
95276000,0.0324,0.013523,0.002678,0.000431,0.138918
95277000,0.0324,0.013523,0.002678,0.000431,0.488917
95278000,0.0324,0.013523,0.002678,0.000431,0.190631
95279000,0.0324,0.013523,0.002678,0.000431,0.155255
95280000,0.0324,0.013523,0.002678,0.000431,0.124697
95281000,0.0324,0.013523,0.002678,0.000431,0.118703
95282000,0.0324,0.013523,0.002678,0.000431,0.111299
95283000,0.0324,0.013523,0.002678,0.000431,0.080389
95284000,0.0324,0.013523,0.002678,0.000431,0.069107
95285000,0.0324,0.013523,0.002678,0.000431,0.066874
95286000,0.0324,0.013523,0.002678,0.000431,0.067696
95287000,0.0324,0.013523,0.002678,0.000431,0.060174
95288000,0.0324,0.013523,0.002678,0.000431,0.048187
95289000,0.0324,0.013523,0.002678,0.000431,0.040547
95290000,0.0324,0.013523,0.002678,0.000431,0.042780
95291000,0.0324,0.013523,0.002678,0.000431,0.038432
95292000,0.0324,0.013523,0.002678,0.000431,0.039137
95293000,0.0324,0.013523,0.002678,0.000431,0.036316
95294000,0.0324,0.013523,0.002678,0.000431,0.037962
95295000,0.0324,0.013523,0.002678,0.000431,0.026914
95296000,0.0324,0.013523,0.002678,0.000431,0.024328
95297000,0.0324,0.013523,0.002678,0.000431,0.018334
95298000,0.0324,0.013523,0.002678,0.000431,0.018922
95299000,0.0324,0.013523,0.002678,0.000431,0.017629
95300000,0.0324,0.013523,0.002678,0.000431,0.016454
95301000,0.0324,0.013523,0.002678,0.000431,0.013516
95302000,0.0324,0.013523,0.002678,0.000431,0.010460
95303000,0.0324,0.013523,0.002678,0.000431,0.008932
95304000,0.0324,0.013523,0.002678,0.000431,0.008109
95305000,0.0324,0.013523,0.002678,0.000431,0.008462
95306000,0.0324,0.013523,0.002678,0.000431,0.014221
95307000,0.0324,0.013523,0.002678,0.000431,0.008462
95308000,0.0324,0.013523,0.002678,0.000431,0.005759
95309000,0.0324,0.013523,0.002678,0.000431,0.009637
95310000,0.0324,0.013523,0.002678,0.000431,0.003878
95311000,0.0324,0.013523,0.002678,0.000431,0.005171
95312000,0.0324,0.013523,0.002678,0.000431,0.001880
95313000,0.0324,0.013523,0.002678,0.000431,0.003761
95314000,0.0324,0.013523,0.002678,0.000431,0.000940
95315000,0.0324,0.013523,0.002678,0.000431,0.000823
95316000,0.0324,0.013523,0.002678,0.000431,0.000823
95317000,0.0324,0.013523,0.002678,0.000431,0.000940
95318000,0.0324,0.013523,0.002678,0.000431,0.000940
95319000,0.0324,0.013523,0.002678,0.000431,0.045836
95320000,0.0324,0.013523,0.002678,0.000431,0.640764
95321000,0.0324,0.013523,0.002678,0.000431,0.594693
95322000,0.0324,0.013523,0.002678,0.000431,0.145030
95323000,0.0324,0.013523,0.002678,0.000431,0.136098
95324000,0.0324,0.013523,0.002678,0.000431,0.631009
95325000,0.0324,0.013523,0.002678,0.000431,0.248337
95326000,0.0324,0.013523,0.002678,0.000431,0.303223
95327000,0.0324,0.013523,0.002678,0.000431,0.282538
95328000,0.0324,0.013523,0.002678,0.000431,0.151376
95329000,0.0324,0.013523,0.002678,0.000431,0.111769
95330000,0.0324,0.013523,0.002678,0.000431,0.328491
95331000,0.0324,0.013523,0.002678,0.000431,0.409586
95332000,0.0324,0.013523,0.002678,0.000431,0.206850
95333000,0.0324,0.013523,0.002678,0.000431,0.175587
95334000,0.0324,0.013523,0.002678,0.000431,0.143267
95335000,0.0324,0.013523,0.002678,0.000431,0.128576
95336000,0.0324,0.013523,0.002678,0.000431,0.111652
95337000,0.0324,0.013523,0.002678,0.000431,0.092025
95338000,0.0324,0.013523,0.002678,0.000431,0.083092
95339000,0.0324,0.013523,0.002678,0.000431,0.067226
95340000,0.0324,0.013523,0.002678,0.000431,0.059822
95341000,0.0324,0.013523,0.002678,0.000431,0.066638
95342000,0.0324,0.013523,0.002678,0.000431,0.055708
95343000,0.0324,0.013523,0.002678,0.000431,0.047011
95344000,0.0324,0.013523,0.002678,0.000431,0.048657
95345000,0.0324,0.013523,0.002678,0.000431,0.031968
95346000,0.0324,0.013523,0.002678,0.000431,0.033613
95347000,0.0324,0.013523,0.002678,0.000431,0.025151
95348000,0.0324,0.013523,0.002678,0.000431,0.020802
95349000,0.0324,0.013523,0.002678,0.000431,0.018569
95350000,0.0324,0.013523,0.002678,0.000431,0.016454
95351000,0.0324,0.013523,0.002678,0.000431,0.016571
95352000,0.0324,0.013523,0.002678,0.000431,0.013398
95353000,0.0324,0.013523,0.002678,0.000431,0.017277
95354000,0.0324,0.013523,0.002678,0.000431,0.015866
95355000,0.0324,0.013523,0.002678,0.000431,0.011870
95356000,0.0324,0.013523,0.002678,0.000431,0.006817
95357000,0.0324,0.013523,0.002678,0.000431,0.006347
95358000,0.0324,0.013523,0.002678,0.000431,0.007874
95359000,0.0324,0.013523,0.002678,0.000431,0.008227
95360000,0.0324,0.013523,0.002678,0.000431,0.007874
95361000,0.0324,0.013523,0.002678,0.000431,0.004231
95362000,0.0324,0.013523,0.002678,0.000431,0.002351
95363000,0.0324,0.013523,0.002678,0.000431,0.002468
95364000,0.0324,0.013523,0.002678,0.000431,0.002233
95365000,0.0324,0.013523,0.002678,0.000431,0.006111
95366000,0.0324,0.013523,0.002678,0.000431,0.001998
95367000,0.0324,0.013523,0.002678,0.000431,0.000940
95368000,0.0324,0.013523,0.002678,0.000431,0.000823
95369000,0.0324,0.013523,0.002678,0.000431,0.015044
95370000,0.0324,0.013523,0.002678,0.000431,0.681663
95371000,0.0324,0.013523,0.002678,0.000431,0.605623
95372000,0.0324,0.013523,0.002678,0.000431,0.157488
95373000,0.0324,0.013523,0.002678,0.000431,0.131632
95374000,0.0324,0.013523,0.002678,0.000431,0.501610
95375000,0.0324,0.013523,0.002678,0.000431,0.289472
95376000,0.0324,0.013523,0.002678,0.000431,0.315916
95377000,0.0324,0.013523,0.002678,0.000431,0.270667
95378000,0.0324,0.013523,0.002678,0.000431,0.145500
95379000,0.0324,0.013523,0.002678,0.000431,0.155137
95380000,0.0324,0.013523,0.002678,0.000431,0.107068
95381000,0.0324,0.013523,0.002678,0.000431,0.459770
95382000,0.0324,0.013523,0.002678,0.000431,0.314740
95383000,0.0324,0.013523,0.002678,0.000431,0.198388
95384000,0.0324,0.013523,0.002678,0.000431,0.176527
95385000,0.0324,0.013523,0.002678,0.000431,0.154902
95386000,0.0324,0.013523,0.002678,0.000431,0.118116
95387000,0.0324,0.013523,0.002678,0.000431,0.113415
95388000,0.0324,0.013523,0.002678,0.000431,0.096608
95389000,0.0324,0.013523,0.002678,0.000431,0.094963
95390000,0.0324,0.013523,0.002678,0.000431,0.070752
95391000,0.0324,0.013523,0.002678,0.000431,0.070282
95392000,0.0324,0.013523,0.002678,0.000431,0.064876
95393000,0.0324,0.013523,0.002678,0.000431,0.051595
95394000,0.0324,0.013523,0.002678,0.000431,0.046189
95395000,0.0324,0.013523,0.002678,0.000431,0.045718
95396000,0.0324,0.013523,0.002678,0.000431,0.036551
95397000,0.0324,0.013523,0.002678,0.000431,0.031968
95398000,0.0324,0.013523,0.002678,0.000431,0.029029
95399000,0.0324,0.013523,0.002678,0.000431,0.020450
95400000,0.0324,0.013523,0.002678,0.000431,0.018805
95401000,0.0324,0.013523,0.002678,0.000431,0.021390
95402000,0.0324,0.013523,0.002678,0.000431,0.014691
95403000,0.0324,0.013523,0.002678,0.000431,0.015279
95404000,0.0324,0.013523,0.002678,0.000431,0.014103
95405000,0.0324,0.013523,0.002678,0.000431,0.014573
95406000,0.0324,0.013523,0.002678,0.000431,0.014573
95407000,0.0324,0.013523,0.002678,0.000431,0.017042
95408000,0.0324,0.013523,0.002678,0.000431,0.015161
95409000,0.0324,0.013523,0.002678,0.000431,0.010107
95410000,0.0324,0.013523,0.002678,0.000431,0.008815
95411000,0.0324,0.013523,0.002678,0.000431,0.009167
95412000,0.0324,0.013523,0.002678,0.000431,0.007992
95413000,0.0324,0.013523,0.002678,0.000431,0.006817
95414000,0.0324,0.013523,0.002678,0.000431,0.011048
95415000,0.0324,0.013523,0.002678,0.000431,0.006934
95416000,0.0324,0.013523,0.002678,0.000431,0.003878
95417000,0.0324,0.013523,0.002678,0.000431,0.004584
95418000,0.0324,0.013523,0.002678,0.000431,0.005524
95419000,0.0324,0.013523,0.002678,0.000431,0.003291
95420000,0.0324,0.013523,0.002678,0.000431,0.003526
95421000,0.0324,0.013523,0.002678,0.000431,0.003173
95422000,0.0324,0.013523,0.002678,0.000431,0.003408
95423000,0.0324,0.013523,0.002678,0.000431,0.003291
95424000,0.0324,0.013523,0.002678,0.000431,0.003526
95425000,0.0324,0.013523,0.002678,0.000431,0.003173
95426000,0.0324,0.013523,0.002678,0.000431,0.003291
95427000,0.0324,0.013523,0.002678,0.000431,0.003526
95428000,0.0324,0.013523,0.002678,0.000431,0.003291
95429000,0.0324,0.013523,0.002678,0.000431,0.005759
95430000,0.0324,0.013523,0.002678,0.000431,0.002703
95431000,0.0324,0.013523,0.002678,0.000431,0.002351
95432000,0.0324,0.013523,0.002678,0.000431,0.002586
95433000,0.0324,0.013523,0.002678,0.000431,0.002586
95434000,0.0324,0.013523,0.002678,0.000431,0.002351
95435000,0.0324,0.013523,0.002678,0.000431,0.002468
95436000,0.0324,0.013523,0.002678,0.000431,0.002586
95437000,0.0324,0.013523,0.002678,0.000431,0.002233
95438000,0.0324,0.013523,0.002678,0.000431,0.005406
95439000,0.0324,0.013523,0.002678,0.000431,0.001528
95440000,0.0324,0.013523,0.002678,0.000431,0.001763
95441000,0.0324,0.013523,0.002678,0.000431,0.001645
95442000,0.0324,0.013523,0.002678,0.000431,0.001645
95443000,0.0324,0.013523,0.002678,0.000431,0.001763
95444000,0.0324,0.013523,0.002678,0.000431,0.001528
95445000,0.0324,0.013523,0.002678,0.000431,0.001763
95446000,0.0324,0.013523,0.002678,0.000431,0.001645
95447000,0.0324,0.013523,0.002678,0.000431,0.001763
95448000,0.0324,0.013523,0.002678,0.000431,0.001410
95449000,0.0324,0.013523,0.002678,0.000431,0.001880
95450000,0.0324,0.013523,0.002678,0.000431,0.001645
95451000,0.0324,0.013523,0.002678,0.000431,0.004466
95452000,0.0324,0.013523,0.002678,0.000431,0.001058
95453000,0.0324,0.013523,0.002678,0.000431,0.000705
95454000,0.0324,0.013523,0.002678,0.000431,0.000940
95455000,0.0324,0.013523,0.002678,0.000431,0.000705
95456000,0.0324,0.013523,0.002678,0.000431,0.000940
95457000,0.0324,0.013523,0.002678,0.000431,0.000823
95458000,0.0324,0.013523,0.002678,0.000431,0.000823
95459000,0.0324,0.013523,0.002678,0.000431,0.000823
95460000,0.0324,0.013523,0.002678,0.000431,0.000823
95461000,0.0324,0.013523,0.002678,0.000431,0.000940
95462000,0.0324,0.013523,0.002678,0.000431,0.000705
95463000,0.0324,0.013523,0.002678,0.000431,0.000940
95464000,0.0324,0.013523,0.002678,0.000431,0.000823
95465000,0.0324,0.013523,0.002678,0.000431,0.000823
95466000,0.0324,0.013523,0.002678,0.000431,0.000823
95467000,0.0324,0.013523,0.002678,0.000431,0.000823
95468000,0.0324,0.013523,0.002678,0.000431,0.000940
95469000,0.0324,0.013523,0.002678,0.000431,0.000705
95470000,0.0324,0.013523,0.002678,0.000431,0.014103
95471000,0.0324,0.013523,0.002678,0.000431,0.658040
95472000,0.0324,0.013523,0.002678,0.000431,0.600922
95473000,0.0324,0.013523,0.002678,0.000431,0.168065
95474000,0.0324,0.013523,0.002678,0.000431,0.136098
95475000,0.0324,0.013523,0.002678,0.000431,0.550384
95476000,0.0324,0.013523,0.002678,0.000431,0.262323
95477000,0.0324,0.013523,0.002678,0.000431,0.275721
95478000,0.0324,0.013523,0.002678,0.000431,0.311802
95479000,0.0324,0.013523,0.002678,0.000431,0.144325
95480000,0.0324,0.013523,0.002678,0.000431,0.165950
95481000,0.0324,0.013523,0.002678,0.000431,0.167360
95482000,0.0324,0.013523,0.002678,0.000431,0.481748
95483000,0.0324,0.013523,0.002678,0.000431,0.187105
95484000,0.0324,0.013523,0.002678,0.000431,0.156312
95485000,0.0324,0.013523,0.002678,0.000431,0.136215
95486000,0.0324,0.013523,0.002678,0.000431,0.125285
95487000,0.0324,0.013523,0.002678,0.000431,0.125755
95488000,0.0324,0.013523,0.002678,0.000431,0.108243
95489000,0.0324,0.013523,0.002678,0.000431,0.107656
95490000,0.0324,0.013523,0.002678,0.000431,0.085325
95491000,0.0324,0.013523,0.002678,0.000431,0.082270
95492000,0.0324,0.013523,0.002678,0.000431,0.071457
95493000,0.0324,0.013523,0.002678,0.000431,0.066286
95494000,0.0324,0.013523,0.002678,0.000431,0.053123
95495000,0.0324,0.013523,0.002678,0.000431,0.054886
95496000,0.0324,0.013523,0.002678,0.000431,0.049479
95497000,0.0324,0.013523,0.002678,0.000431,0.046071
95498000,0.0324,0.013523,0.002678,0.000431,0.051242
95499000,0.0324,0.013523,0.002678,0.000431,0.036551
95500000,0.0324,0.013523,0.002678,0.000431,0.041370
95501000,0.0324,0.013523,0.002678,0.000431,0.035141
95502000,0.0324,0.013523,0.002678,0.000431,0.034083
95503000,0.0324,0.013523,0.002678,0.000431,0.029382
95504000,0.0324,0.013523,0.002678,0.000431,0.030792
95505000,0.0324,0.013523,0.002678,0.000431,0.033143
95506000,0.0324,0.013523,0.002678,0.000431,0.027267
95507000,0.0324,0.013523,0.002678,0.000431,0.025856
95508000,0.0324,0.013523,0.002678,0.000431,0.027972
95509000,0.0324,0.013523,0.002678,0.000431,0.021390
95510000,0.0324,0.013523,0.002678,0.000431,0.015279
95511000,0.0324,0.013523,0.002678,0.000431,0.015396
95512000,0.0324,0.013523,0.002678,0.000431,0.013868
95513000,0.0324,0.013523,0.002678,0.000431,0.016454
95514000,0.0324,0.013523,0.002678,0.000431,0.013046
95515000,0.0324,0.013523,0.002678,0.000431,0.016219
95516000,0.0324,0.013523,0.002678,0.000431,0.011518
95517000,0.0324,0.013523,0.002678,0.000431,0.010695
95518000,0.0324,0.013523,0.002678,0.000431,0.007404
95519000,0.0324,0.013523,0.002678,0.000431,0.007522
95520000,0.0324,0.013523,0.002678,0.000431,0.007992
95521000,0.0324,0.013523,0.002678,0.000431,0.007992
95522000,0.0324,0.013523,0.002678,0.000431,0.007992
95523000,0.0324,0.013523,0.002678,0.000431,0.007874
95524000,0.0324,0.013523,0.002678,0.000431,0.006934
95525000,0.0324,0.013523,0.002678,0.000431,0.008109
95526000,0.0324,0.013523,0.002678,0.000431,0.005289
95527000,0.0324,0.013523,0.002678,0.000431,0.006229
95528000,0.0324,0.013523,0.002678,0.000431,0.005994
95529000,0.0324,0.013523,0.002678,0.000431,0.005524
95530000,0.0324,0.013523,0.002678,0.000431,0.008697
95531000,0.0324,0.013523,0.002678,0.000431,0.005054
95532000,0.0324,0.013523,0.002678,0.000431,0.005406
95533000,0.0324,0.013523,0.002678,0.000431,0.004701
95534000,0.0324,0.013523,0.002678,0.000431,0.006934
95535000,0.0324,0.013523,0.002678,0.000431,0.003878
95536000,0.0324,0.013523,0.002678,0.000431,0.003291
95537000,0.0324,0.013523,0.002678,0.000431,0.003291
95538000,0.0324,0.013523,0.002678,0.000431,0.005759
95539000,0.0324,0.013523,0.002678,0.000431,0.002703
95540000,0.0324,0.013523,0.002678,0.000431,0.002233
95541000,0.0324,0.013523,0.002678,0.000431,0.002233
95542000,0.0324,0.013523,0.002678,0.000431,0.001645
95543000,0.0324,0.013523,0.002678,0.000431,0.003761
95544000,0.0324,0.013523,0.002678,0.000431,0.000823
95545000,0.0324,0.013523,0.002678,0.000431,0.000823
95546000,0.0324,0.013523,0.002678,0.000431,0.000940
95547000,0.0324,0.013523,0.002678,0.000431,0.000823
95548000,0.0324,0.013523,0.002678,0.000431,0.000823
95549000,0.0324,0.013523,0.002678,0.000431,0.000823
95550000,0.0324,0.013523,0.002678,0.000431,0.002351
95551000,0.0324,0.013523,0.002678,0.000431,0.542158
95552000,0.0324,0.013523,0.002678,0.000431,0.686482
95553000,0.0324,0.013523,0.002678,0.000431,0.153139
95554000,0.0324,0.013523,0.002678,0.000431,0.137038
95555000,0.0324,0.013523,0.002678,0.000431,0.403827
95556000,0.0324,0.013523,0.002678,0.000431,0.479397
95557000,0.0324,0.013523,0.002678,0.000431,0.252215
95558000,0.0324,0.013523,0.002678,0.000431,0.323673
95559000,0.0324,0.013523,0.002678,0.000431,0.140799
95560000,0.0324,0.013523,0.002678,0.000431,0.168418
95561000,0.0324,0.013523,0.002678,0.000431,0.115883
95562000,0.0324,0.013523,0.002678,0.000431,0.489270
95563000,0.0324,0.013523,0.002678,0.000431,0.233293
95564000,0.0324,0.013523,0.002678,0.000431,0.192511
95565000,0.0324,0.013523,0.002678,0.000431,0.172296
95566000,0.0324,0.013523,0.002678,0.000431,0.151376
95567000,0.0324,0.013523,0.002678,0.000431,0.125285
95568000,0.0324,0.013523,0.002678,0.000431,0.118233
95569000,0.0324,0.013523,0.002678,0.000431,0.092495
95570000,0.0324,0.013523,0.002678,0.000431,0.084385
95571000,0.0324,0.013523,0.002678,0.000431,0.078861
95572000,0.0324,0.013523,0.002678,0.000431,0.081447
95573000,0.0324,0.013523,0.002678,0.000431,0.058999
95574000,0.0324,0.013523,0.002678,0.000431,0.062407
95575000,0.0324,0.013523,0.002678,0.000431,0.059117
95576000,0.0324,0.013523,0.002678,0.000431,0.051477
95577000,0.0324,0.013523,0.002678,0.000431,0.033378
95578000,0.0324,0.013523,0.002678,0.000431,0.030675
95579000,0.0324,0.013523,0.002678,0.000431,0.026679
95580000,0.0324,0.013523,0.002678,0.000431,0.026679
95581000,0.0324,0.013523,0.002678,0.000431,0.019392
95582000,0.0324,0.013523,0.002678,0.000431,0.016689
95583000,0.0324,0.013523,0.002678,0.000431,0.022683
95584000,0.0324,0.013523,0.002678,0.000431,0.015514
95585000,0.0324,0.013523,0.002678,0.000431,0.016219
95586000,0.0324,0.013523,0.002678,0.000431,0.015161
95587000,0.0324,0.013523,0.002678,0.000431,0.011165
95588000,0.0324,0.013523,0.002678,0.000431,0.012928
95589000,0.0324,0.013523,0.002678,0.000431,0.011400
95590000,0.0324,0.013523,0.002678,0.000431,0.016689
95591000,0.0324,0.013523,0.002678,0.000431,0.007992
95592000,0.0324,0.013523,0.002678,0.000431,0.010578
95593000,0.0324,0.013523,0.002678,0.000431,0.006582
95594000,0.0324,0.013523,0.002678,0.000431,0.006582
95595000,0.0324,0.013523,0.002678,0.000431,0.005759
95596000,0.0324,0.013523,0.002678,0.000431,0.003173
95597000,0.0324,0.013523,0.002678,0.000431,0.006229
95598000,0.0324,0.013523,0.002678,0.000431,0.002116
95599000,0.0324,0.013523,0.002678,0.000431,0.005054
95600000,0.0324,0.013523,0.002678,0.000431,0.001410
95601000,0.0324,0.013523,0.002678,0.000431,0.001528
95602000,0.0324,0.013523,0.002678,0.000431,0.001293
95603000,0.0324,0.013523,0.002678,0.000431,0.000823
95604000,0.0324,0.013523,0.002678,0.000431,0.240933
95605000,0.0324,0.013523,0.002678,0.000431,0.672849
95606000,0.0324,0.013523,0.002678,0.000431,0.452954
95607000,0.0324,0.013523,0.002678,0.000431,0.133512
95608000,0.0324,0.013523,0.002678,0.000431,0.157840
95609000,0.0324,0.013523,0.002678,0.000431,0.610206
95610000,0.0324,0.013523,0.002678,0.000431,0.266554
95611000,0.0324,0.013523,0.002678,0.000431,0.283596
95612000,0.0324,0.013523,0.002678,0.000431,0.220718
95613000,0.0324,0.013523,0.002678,0.000431,0.148673
95614000,0.0324,0.013523,0.002678,0.000431,0.125050
95615000,0.0324,0.013523,0.002678,0.000431,0.271608
95616000,0.0324,0.013523,0.002678,0.000431,0.422631
95617000,0.0324,0.013523,0.002678,0.000431,0.175940
95618000,0.0324,0.013523,0.002678,0.000431,0.160779
95619000,0.0324,0.013523,0.002678,0.000431,0.125990
95620000,0.0324,0.013523,0.002678,0.000431,0.117058
95621000,0.0324,0.013523,0.002678,0.000431,0.094375
95622000,0.0324,0.013523,0.002678,0.000431,0.094845
95623000,0.0324,0.013523,0.002678,0.000431,0.074395
95624000,0.0324,0.013523,0.002678,0.000431,0.082270
95625000,0.0324,0.013523,0.002678,0.000431,0.066286
95626000,0.0324,0.013523,0.002678,0.000431,0.063583
95627000,0.0324,0.013523,0.002678,0.000431,0.046071
95628000,0.0324,0.013523,0.002678,0.000431,0.051242
95629000,0.0324,0.013523,0.002678,0.000431,0.046189
95630000,0.0324,0.013523,0.002678,0.000431,0.038197
95631000,0.0324,0.013523,0.002678,0.000431,0.039019
95632000,0.0324,0.013523,0.002678,0.000431,0.033496
95633000,0.0324,0.013523,0.002678,0.000431,0.034201
95634000,0.0324,0.013523,0.002678,0.000431,0.024798
95635000,0.0324,0.013523,0.002678,0.000431,0.024211
95636000,0.0324,0.013523,0.002678,0.000431,0.019157
95637000,0.0324,0.013523,0.002678,0.000431,0.018569
95638000,0.0324,0.013523,0.002678,0.000431,0.018922
95639000,0.0324,0.013523,0.002678,0.000431,0.020920
95640000,0.0324,0.013523,0.002678,0.000431,0.016689
95641000,0.0324,0.013523,0.002678,0.000431,0.016101
95642000,0.0324,0.013523,0.002678,0.000431,0.016571
95643000,0.0324,0.013523,0.002678,0.000431,0.011165
95644000,0.0324,0.013523,0.002678,0.000431,0.010107
95645000,0.0324,0.013523,0.002678,0.000431,0.006464
95646000,0.0324,0.013523,0.002678,0.000431,0.007287
95647000,0.0324,0.013523,0.002678,0.000431,0.009050
95648000,0.0324,0.013523,0.002678,0.000431,0.006347
95649000,0.0324,0.013523,0.002678,0.000431,0.005524
95650000,0.0324,0.013523,0.002678,0.000431,0.005054
95651000,0.0324,0.013523,0.002678,0.000431,0.007052
95652000,0.0324,0.013523,0.002678,0.000431,0.006934
95653000,0.0324,0.013523,0.002678,0.000431,0.004701
95654000,0.0324,0.013523,0.002678,0.000431,0.000940
95655000,0.0324,0.013523,0.002678,0.000431,0.000940
95656000,0.0324,0.013523,0.002678,0.000431,0.000823
95657000,0.0324,0.013523,0.002678,0.000431,0.000823
95658000,0.0324,0.013523,0.002678,0.000431,0.000940
95659000,0.0324,0.013523,0.002678,0.000431,0.000940
95660000,0.0324,0.013523,0.002678,0.000431,0.015984
95661000,0.0324,0.013523,0.002678,0.000431,0.670968
95662000,0.0324,0.013523,0.002678,0.000431,0.578121
95663000,0.0324,0.013523,0.002678,0.000431,0.149966
95664000,0.0324,0.013523,0.002678,0.000431,0.145970
95665000,0.0324,0.013523,0.002678,0.000431,0.602214
95666000,0.0324,0.013523,0.002678,0.000431,0.262440
95667000,0.0324,0.013523,0.002678,0.000431,0.295113
95668000,0.0324,0.013523,0.002678,0.000431,0.305103
95669000,0.0324,0.013523,0.002678,0.000431,0.148438
95670000,0.0324,0.013523,0.002678,0.000431,0.133512
95671000,0.0324,0.013523,0.002678,0.000431,0.242343
95672000,0.0324,0.013523,0.002678,0.000431,0.442846
95673000,0.0324,0.013523,0.002678,0.000431,0.175705
95674000,0.0324,0.013523,0.002678,0.000431,0.156665
95675000,0.0324,0.013523,0.002678,0.000431,0.149378
95676000,0.0324,0.013523,0.002678,0.000431,0.133394
95677000,0.0324,0.013523,0.002678,0.000431,0.131161
95678000,0.0324,0.013523,0.002678,0.000431,0.112827
95679000,0.0324,0.013523,0.002678,0.000431,0.101779
95680000,0.0324,0.013523,0.002678,0.000431,0.084620
95681000,0.0324,0.013523,0.002678,0.000431,0.078509
95682000,0.0324,0.013523,0.002678,0.000431,0.079919
95683000,0.0324,0.013523,0.002678,0.000431,0.069342
95684000,0.0324,0.013523,0.002678,0.000431,0.068636
95685000,0.0324,0.013523,0.002678,0.000431,0.064405
95686000,0.0324,0.013523,0.002678,0.000431,0.054063
95687000,0.0324,0.013523,0.002678,0.000431,0.061467
95688000,0.0324,0.013523,0.002678,0.000431,0.048892
95689000,0.0324,0.013523,0.002678,0.000431,0.044661
95690000,0.0324,0.013523,0.002678,0.000431,0.046894
95691000,0.0324,0.013523,0.002678,0.000431,0.036904
95692000,0.0324,0.013523,0.002678,0.000431,0.042780
95693000,0.0324,0.013523,0.002678,0.000431,0.032555
95694000,0.0324,0.013523,0.002678,0.000431,0.031027
95695000,0.0324,0.013523,0.002678,0.000431,0.029500
95696000,0.0324,0.013523,0.002678,0.000431,0.026914
95697000,0.0324,0.013523,0.002678,0.000431,0.023623
95698000,0.0324,0.013523,0.002678,0.000431,0.020685
95699000,0.0324,0.013523,0.002678,0.000431,0.023858
95700000,0.0324,0.013523,0.002678,0.000431,0.014926
95701000,0.0324,0.013523,0.002678,0.000431,0.016219
95702000,0.0324,0.013523,0.002678,0.000431,0.015161
95703000,0.0324,0.013523,0.002678,0.000431,0.009872
95704000,0.0324,0.013523,0.002678,0.000431,0.011635
95705000,0.0324,0.013523,0.002678,0.000431,0.010695
95706000,0.0324,0.013523,0.002678,0.000431,0.011400
95707000,0.0324,0.013523,0.002678,0.000431,0.009167
95708000,0.0324,0.013523,0.002678,0.000431,0.005994
95709000,0.0324,0.013523,0.002678,0.000431,0.009167
95710000,0.0324,0.013523,0.002678,0.000431,0.005054
95711000,0.0324,0.013523,0.002678,0.000431,0.005054
95712000,0.0324,0.013523,0.002678,0.000431,0.004113
95713000,0.0324,0.013523,0.002678,0.000431,0.004349
95714000,0.0324,0.013523,0.002678,0.000431,0.005406
95715000,0.0324,0.013523,0.002678,0.000431,0.003408
95716000,0.0324,0.013523,0.002678,0.000431,0.004584
95717000,0.0324,0.013523,0.002678,0.000431,0.002586
95718000,0.0324,0.013523,0.002678,0.000431,0.002351
95719000,0.0324,0.013523,0.002678,0.000431,0.004701
95720000,0.0324,0.013523,0.002678,0.000431,0.001763
95721000,0.0324,0.013523,0.002678,0.000431,0.001645
95722000,0.0324,0.013523,0.002678,0.000431,0.001763
95723000,0.0324,0.013523,0.002678,0.000431,0.001410
95724000,0.0324,0.013523,0.002678,0.000431,0.001763
95725000,0.0324,0.013523,0.002678,0.000431,0.004349
95726000,0.0324,0.013523,0.002678,0.000431,0.000705
95727000,0.0324,0.013523,0.002678,0.000431,0.000940
95728000,0.0324,0.013523,0.002678,0.000431,0.000940
95729000,0.0324,0.013523,0.002678,0.000431,0.000705
95730000,0.0324,0.013523,0.002678,0.000431,0.000940
95731000,0.0324,0.013523,0.002678,0.000431,0.000940
95732000,0.0324,0.013523,0.002678,0.000431,0.000823
95733000,0.0324,0.013523,0.002678,0.000431,0.000823
95734000,0.0324,0.013523,0.002678,0.000431,0.000940
95735000,0.0324,0.013523,0.002678,0.000431,0.000823
95736000,0.0324,0.013523,0.002678,0.000431,0.000940
95737000,0.0324,0.013523,0.002678,0.000431,0.000823
95738000,0.0324,0.013523,0.002678,0.000431,0.000940
95739000,0.0324,0.013523,0.002678,0.000431,0.000823
95740000,0.0324,0.013523,0.002678,0.000431,0.000823
95741000,0.0324,0.013523,0.002678,0.000431,0.000823
95742000,0.0324,0.013523,0.002678,0.000431,0.000823
95743000,0.0324,0.013523,0.002678,0.000431,0.000705
95744000,0.0324,0.013523,0.002678,0.000431,0.000940
95745000,0.0324,0.013523,0.002678,0.000431,0.000940
95746000,0.0324,0.013523,0.002678,0.000431,0.000705
95747000,0.0324,0.013523,0.002678,0.000431,0.000940
95748000,0.0324,0.013523,0.002678,0.000431,0.000705
95749000,0.0324,0.013523,0.002678,0.000431,0.000940
95750000,0.0324,0.013523,0.002678,0.000431,0.000940
95751000,0.0324,0.013523,0.002678,0.000431,0.000705
95752000,0.0324,0.013523,0.002678,0.000431,0.014691
95753000,0.0324,0.013523,0.002678,0.000431,0.601862
95754000,0.0324,0.013523,0.002678,0.000431,0.620431
95755000,0.0324,0.013523,0.002678,0.000431,0.148321
95756000,0.0324,0.013523,0.002678,0.000431,0.133042
95757000,0.0324,0.013523,0.002678,0.000431,0.473521
95758000,0.0324,0.013523,0.002678,0.000431,0.310274
95759000,0.0324,0.013523,0.002678,0.000431,0.267259
95760000,0.0324,0.013523,0.002678,0.000431,0.300755
95761000,0.0324,0.013523,0.002678,0.000431,0.150436
95762000,0.0324,0.013523,0.002678,0.000431,0.156195
95763000,0.0324,0.013523,0.002678,0.000431,0.115765
95764000,0.0324,0.013523,0.002678,0.000431,0.441671
95765000,0.0324,0.013523,0.002678,0.000431,0.317679
95766000,0.0324,0.013523,0.002678,0.000431,0.207790
95767000,0.0324,0.013523,0.002678,0.000431,0.171004
95768000,0.0324,0.013523,0.002678,0.000431,0.142444
95769000,0.0324,0.013523,0.002678,0.000431,0.131867
95770000,0.0324,0.013523,0.002678,0.000431,0.116470
95771000,0.0324,0.013523,0.002678,0.000431,0.103425
95772000,0.0324,0.013523,0.002678,0.000431,0.074983
95773000,0.0324,0.013523,0.002678,0.000431,0.063348
95774000,0.0324,0.013523,0.002678,0.000431,0.055238
95775000,0.0324,0.013523,0.002678,0.000431,0.047364
95776000,0.0324,0.013523,0.002678,0.000431,0.054651
95777000,0.0324,0.013523,0.002678,0.000431,0.044543
95778000,0.0324,0.013523,0.002678,0.000431,0.032908
95779000,0.0324,0.013523,0.002678,0.000431,0.031380
95780000,0.0324,0.013523,0.002678,0.000431,0.030322
95781000,0.0324,0.013523,0.002678,0.000431,0.021743
95782000,0.0324,0.013523,0.002678,0.000431,0.017277
95783000,0.0324,0.013523,0.002678,0.000431,0.021743
95784000,0.0324,0.013523,0.002678,0.000431,0.020332
95785000,0.0324,0.013523,0.002678,0.000431,0.008932
95786000,0.0324,0.013523,0.002678,0.000431,0.012105
95787000,0.0324,0.013523,0.002678,0.000431,0.010695
95788000,0.0324,0.013523,0.002678,0.000431,0.006229
95789000,0.0324,0.013523,0.002678,0.000431,0.006229
95790000,0.0324,0.013523,0.002678,0.000431,0.006111
95791000,0.0324,0.013523,0.002678,0.000431,0.007287
95792000,0.0324,0.013523,0.002678,0.000431,0.006934
95793000,0.0324,0.013523,0.002678,0.000431,0.006464
95794000,0.0324,0.013523,0.002678,0.000431,0.004349
95795000,0.0324,0.013523,0.002678,0.000431,0.003761
95796000,0.0324,0.013523,0.002678,0.000431,0.002586
95797000,0.0324,0.013523,0.002678,0.000431,0.002586
95798000,0.0324,0.013523,0.002678,0.000431,0.002468
95799000,0.0324,0.013523,0.002678,0.000431,0.002586
95800000,0.0324,0.013523,0.002678,0.000431,0.002468
95801000,0.0324,0.013523,0.002678,0.000431,0.002703
95802000,0.0324,0.013523,0.002678,0.000431,0.002468
95803000,0.0324,0.013523,0.002678,0.000431,0.002586
95804000,0.0324,0.013523,0.002678,0.000431,0.002468
95805000,0.0324,0.013523,0.002678,0.000431,0.002586
95806000,0.0324,0.013523,0.002678,0.000431,0.002468
95807000,0.0324,0.013523,0.002678,0.000431,0.004349
95808000,0.0324,0.013523,0.002678,0.000431,0.001880
95809000,0.0324,0.013523,0.002678,0.000431,0.001763
95810000,0.0324,0.013523,0.002678,0.000431,0.003526
95811000,0.0324,0.013523,0.002678,0.000431,0.000705
95812000,0.0324,0.013523,0.002678,0.000431,0.000940
95813000,0.0324,0.013523,0.002678,0.000431,0.000940
95814000,0.0324,0.013523,0.002678,0.000431,0.000705
95815000,0.0324,0.013523,0.002678,0.000431,0.000940
95816000,0.0324,0.013523,0.002678,0.000431,0.000705
95817000,0.0324,0.013523,0.002678,0.000431,0.000940
95818000,0.0324,0.013523,0.002678,0.000431,0.030910
95819000,0.0324,0.013523,0.002678,0.000431,0.714336
95820000,0.0324,0.013523,0.002678,0.000431,0.573890
95821000,0.0324,0.013523,0.002678,0.000431,0.169358
95822000,0.0324,0.013523,0.002678,0.000431,0.205322
95823000,0.0324,0.013523,0.002678,0.000431,0.684954
95824000,0.0324,0.013523,0.002678,0.000431,0.253038
95825000,0.0324,0.013523,0.002678,0.000431,0.333780
95826000,0.0324,0.013523,0.002678,0.000431,0.181699
95827000,0.0324,0.013523,0.002678,0.000431,0.156312
95828000,0.0324,0.013523,0.002678,0.000431,0.135745
95829000,0.0324,0.013523,0.002678,0.000431,0.502433
95830000,0.0324,0.013523,0.002678,0.000431,0.261148
95831000,0.0324,0.013523,0.002678,0.000431,0.183109
95832000,0.0324,0.013523,0.002678,0.000431,0.183579
95833000,0.0324,0.013523,0.002678,0.000431,0.156783
95834000,0.0324,0.013523,0.002678,0.000431,0.124345
95835000,0.0324,0.013523,0.002678,0.000431,0.114708
95836000,0.0324,0.013523,0.002678,0.000431,0.104835
95837000,0.0324,0.013523,0.002678,0.000431,0.092025
95838000,0.0324,0.013523,0.002678,0.000431,0.077921
95839000,0.0324,0.013523,0.002678,0.000431,0.066168
95840000,0.0324,0.013523,0.002678,0.000431,0.062995
95841000,0.0324,0.013523,0.002678,0.000431,0.056649
95842000,0.0324,0.013523,0.002678,0.000431,0.052535
95843000,0.0324,0.013523,0.002678,0.000431,0.057706
95844000,0.0324,0.013523,0.002678,0.000431,0.048304
95845000,0.0324,0.013523,0.002678,0.000431,0.034671
95846000,0.0324,0.013523,0.002678,0.000431,0.034083
95847000,0.0324,0.013523,0.002678,0.000431,0.029147
95848000,0.0324,0.013523,0.002678,0.000431,0.026091
95849000,0.0324,0.013523,0.002678,0.000431,0.022918
95850000,0.0324,0.013523,0.002678,0.000431,0.025034
95851000,0.0324,0.013523,0.002678,0.000431,0.021155
95852000,0.0324,0.013523,0.002678,0.000431,0.018099
95853000,0.0324,0.013523,0.002678,0.000431,0.015044
95854000,0.0324,0.013523,0.002678,0.000431,0.013868
95855000,0.0324,0.013523,0.002678,0.000431,0.010813
95856000,0.0324,0.013523,0.002678,0.000431,0.011753
95857000,0.0324,0.013523,0.002678,0.000431,0.010460
95858000,0.0324,0.013523,0.002678,0.000431,0.004584
95859000,0.0324,0.013523,0.002678,0.000431,0.004113
95860000,0.0324,0.013523,0.002678,0.000431,0.004349
95861000,0.0324,0.013523,0.002678,0.000431,0.005759
95862000,0.0324,0.013523,0.002678,0.000431,0.004936
95863000,0.0324,0.013523,0.002678,0.000431,0.003996
95864000,0.0324,0.013523,0.002678,0.000431,0.002468
95865000,0.0324,0.013523,0.002678,0.000431,0.002586
95866000,0.0324,0.013523,0.002678,0.000431,0.002351
95867000,0.0324,0.013523,0.002678,0.000431,0.002703
95868000,0.0324,0.013523,0.002678,0.000431,0.002468
95869000,0.0324,0.013523,0.002678,0.000431,0.002468
95870000,0.0324,0.013523,0.002678,0.000431,0.002351
95871000,0.0324,0.013523,0.002678,0.000431,0.002586
95872000,0.0324,0.013523,0.002678,0.000431,0.002703
95873000,0.0324,0.013523,0.002678,0.000431,0.002586
95874000,0.0324,0.013523,0.002678,0.000431,0.005289
95875000,0.0324,0.013523,0.002678,0.000431,0.001645
95876000,0.0324,0.013523,0.002678,0.000431,0.001763
95877000,0.0324,0.013523,0.002678,0.000431,0.001645
95878000,0.0324,0.013523,0.002678,0.000431,0.001645
95879000,0.0324,0.013523,0.002678,0.000431,0.001763
95880000,0.0324,0.013523,0.002678,0.000431,0.001528
95881000,0.0324,0.013523,0.002678,0.000431,0.001763
95882000,0.0324,0.013523,0.002678,0.000431,0.001763
95883000,0.0324,0.013523,0.002678,0.000431,0.001645
95884000,0.0324,0.013523,0.002678,0.000431,0.001645
95885000,0.0324,0.013523,0.002678,0.000431,0.001645
95886000,0.0324,0.013523,0.002678,0.000431,0.001645
95887000,0.0324,0.013523,0.002678,0.000431,0.001645
95888000,0.0324,0.013523,0.002678,0.000431,0.001763
95889000,0.0324,0.013523,0.002678,0.000431,0.003761
95890000,0.0324,0.013523,0.002678,0.000431,0.001058
95891000,0.0324,0.013523,0.002678,0.000431,0.000823
95892000,0.0324,0.013523,0.002678,0.000431,0.000823
95893000,0.0324,0.013523,0.002678,0.000431,0.000705
95894000,0.0324,0.013523,0.002678,0.000431,0.000940
95895000,0.0324,0.013523,0.002678,0.000431,0.000940
95896000,0.0324,0.013523,0.002678,0.000431,0.000705
95897000,0.0324,0.013523,0.002678,0.000431,0.000940
95898000,0.0324,0.013523,0.002678,0.000431,0.000705
95899000,0.0324,0.013523,0.002678,0.000431,0.000940
95900000,0.0324,0.013523,0.002678,0.000431,0.000823
95901000,0.0324,0.013523,0.002678,0.000431,0.000823
95902000,0.0324,0.013523,0.002678,0.000431,0.000940
95903000,0.0324,0.013523,0.002678,0.000431,0.000705
95904000,0.0324,0.013523,0.002678,0.000431,0.000940
95905000,0.0324,0.013523,0.002678,0.000431,0.000823
95906000,0.0324,0.013523,0.002678,0.000431,0.000823
95907000,0.0324,0.013523,0.002678,0.000431,0.000823
95908000,0.0324,0.013523,0.002678,0.000431,0.000823
95909000,0.0324,0.013523,0.002678,0.000431,0.000940
95910000,0.0324,0.013523,0.002678,0.000431,0.000705
95911000,0.0324,0.013523,0.002678,0.000431,0.000940
95912000,0.0324,0.013523,0.002678,0.000431,0.114590
95913000,0.0324,0.013523,0.002678,0.000431,0.714101
95914000,0.0324,0.013523,0.002678,0.000431,0.552970
95915000,0.0324,0.013523,0.002678,0.000431,0.145970
95916000,0.0324,0.013523,0.002678,0.000431,0.192041
95917000,0.0324,0.013523,0.002678,0.000431,0.611852
95918000,0.0324,0.013523,0.002678,0.000431,0.279835
95919000,0.0324,0.013523,0.002678,0.000431,0.363750
95920000,0.0324,0.013523,0.002678,0.000431,0.174529
95921000,0.0324,0.013523,0.002678,0.000431,0.162424
95922000,0.0324,0.013523,0.002678,0.000431,0.119291
95923000,0.0324,0.013523,0.002678,0.000431,0.478927
95924000,0.0324,0.013523,0.002678,0.000431,0.188045
95925000,0.0324,0.013523,0.002678,0.000431,0.143502
95926000,0.0324,0.013523,0.002678,0.000431,0.138096
95927000,0.0324,0.013523,0.002678,0.000431,0.111887
95928000,0.0324,0.013523,0.002678,0.000431,0.105775
95929000,0.0324,0.013523,0.002678,0.000431,0.073220
95930000,0.0324,0.013523,0.002678,0.000431,0.073103
95931000,0.0324,0.013523,0.002678,0.000431,0.059822
95932000,0.0324,0.013523,0.002678,0.000431,0.050537
95933000,0.0324,0.013523,0.002678,0.000431,0.052770
95934000,0.0324,0.013523,0.002678,0.000431,0.045248
95935000,0.0324,0.013523,0.002678,0.000431,0.038784
95936000,0.0324,0.013523,0.002678,0.000431,0.039842
95937000,0.0324,0.013523,0.002678,0.000431,0.035141
95938000,0.0324,0.013523,0.002678,0.000431,0.033143
95939000,0.0324,0.013523,0.002678,0.000431,0.023036
95940000,0.0324,0.013523,0.002678,0.000431,0.018687
95941000,0.0324,0.013523,0.002678,0.000431,0.017394
95942000,0.0324,0.013523,0.002678,0.000431,0.018687
95943000,0.0324,0.013523,0.002678,0.000431,0.022683
95944000,0.0324,0.013523,0.002678,0.000431,0.017747
95945000,0.0324,0.013523,0.002678,0.000431,0.015631
95946000,0.0324,0.013523,0.002678,0.000431,0.016219
95947000,0.0324,0.013523,0.002678,0.000431,0.014691
95948000,0.0324,0.013523,0.002678,0.000431,0.018452
95949000,0.0324,0.013523,0.002678,0.000431,0.017747
95950000,0.0324,0.013523,0.002678,0.000431,0.010460
95951000,0.0324,0.013523,0.002678,0.000431,0.007169
95952000,0.0324,0.013523,0.002678,0.000431,0.011870
95953000,0.0324,0.013523,0.002678,0.000431,0.007404
95954000,0.0324,0.013523,0.002678,0.000431,0.004701
95955000,0.0324,0.013523,0.002678,0.000431,0.004113
95956000,0.0324,0.013523,0.002678,0.000431,0.003291
95957000,0.0324,0.013523,0.002678,0.000431,0.005759
95958000,0.0324,0.013523,0.002678,0.000431,0.002468
95959000,0.0324,0.013523,0.002678,0.000431,0.004819
95960000,0.0324,0.013523,0.002678,0.000431,0.003643
95961000,0.0324,0.013523,0.002678,0.000431,0.331194
95962000,0.0324,0.013523,0.002678,0.000431,0.673436
95963000,0.0324,0.013523,0.002678,0.000431,0.321792
95964000,0.0324,0.013523,0.002678,0.000431,0.133982
95965000,0.0324,0.013523,0.002678,0.000431,0.203324
95966000,0.0324,0.013523,0.002678,0.000431,0.618551
95967000,0.0324,0.013523,0.002678,0.000431,0.244459
95968000,0.0324,0.013523,0.002678,0.000431,0.338129
95969000,0.0324,0.013523,0.002678,0.000431,0.158663
95970000,0.0324,0.013523,0.002678,0.000431,0.158663
95971000,0.0324,0.013523,0.002678,0.000431,0.102602
95972000,0.0324,0.013523,0.002678,0.000431,0.459888
95973000,0.0324,0.013523,0.002678,0.000431,0.306278
95974000,0.0324,0.013523,0.002678,0.000431,0.196037
95975000,0.0324,0.013523,0.002678,0.000431,0.178408
95976000,0.0324,0.013523,0.002678,0.000431,0.139271
95977000,0.0324,0.013523,0.002678,0.000431,0.125638
95978000,0.0324,0.013523,0.002678,0.000431,0.103895
95979000,0.0324,0.013523,0.002678,0.000431,0.097783
95980000,0.0324,0.013523,0.002678,0.000431,0.072162
95981000,0.0324,0.013523,0.002678,0.000431,0.055473
95982000,0.0324,0.013523,0.002678,0.000431,0.052535
95983000,0.0324,0.013523,0.002678,0.000431,0.045954
95984000,0.0324,0.013523,0.002678,0.000431,0.030205
95985000,0.0324,0.013523,0.002678,0.000431,0.036786
95986000,0.0324,0.013523,0.002678,0.000431,0.025504
95987000,0.0324,0.013523,0.002678,0.000431,0.029735
95988000,0.0324,0.013523,0.002678,0.000431,0.022918
95989000,0.0324,0.013523,0.002678,0.000431,0.022330
95990000,0.0324,0.013523,0.002678,0.000431,0.019862
95991000,0.0324,0.013523,0.002678,0.000431,0.021038
95992000,0.0324,0.013523,0.002678,0.000431,0.027502
95993000,0.0324,0.013523,0.002678,0.000431,0.017864
95994000,0.0324,0.013523,0.002678,0.000431,0.014221
95995000,0.0324,0.013523,0.002678,0.000431,0.016219
95996000,0.0324,0.013523,0.002678,0.000431,0.012693
95997000,0.0324,0.013523,0.002678,0.000431,0.009050
95998000,0.0324,0.013523,0.002678,0.000431,0.012340
95999000,0.0324,0.013523,0.002678,0.000431,0.009167
