Cycle,Area(mm^2),PeakDynamic(W),SubthresholdLeakage(W),GateLeakage(W),RunTimeDynamic(W)
133000000,0.0324,0.013523,0.002678,0.000431,0.190043
133001000,0.0324,0.013523,0.002678,0.000431,0.159016
133002000,0.0324,0.013523,0.002678,0.000431,0.137978
133003000,0.0324,0.013523,0.002678,0.000431,0.120584
133004000,0.0324,0.013523,0.002678,0.000431,0.106716
133005000,0.0324,0.013523,0.002678,0.000431,0.080859
133006000,0.0324,0.013523,0.002678,0.000431,0.066756
133007000,0.0324,0.013523,0.002678,0.000431,0.056414
133008000,0.0324,0.013523,0.002678,0.000431,0.051125
133009000,0.0324,0.013523,0.002678,0.000431,0.044426
133010000,0.0324,0.013523,0.002678,0.000431,0.040195
133011000,0.0324,0.013523,0.002678,0.000431,0.044191
133012000,0.0324,0.013523,0.002678,0.000431,0.038549
133013000,0.0324,0.013523,0.002678,0.000431,0.029852
133014000,0.0324,0.013523,0.002678,0.000431,0.028912
133015000,0.0324,0.013523,0.002678,0.000431,0.021508
133016000,0.0324,0.013523,0.002678,0.000431,0.015396
133017000,0.0324,0.013523,0.002678,0.000431,0.026209
133018000,0.0324,0.013523,0.002678,0.000431,0.018452
133019000,0.0324,0.013523,0.002678,0.000431,0.012223
133020000,0.0324,0.013523,0.002678,0.000431,0.012340
133021000,0.0324,0.013523,0.002678,0.000431,0.005289
133022000,0.0324,0.013523,0.002678,0.000431,0.006699
133023000,0.0324,0.013523,0.002678,0.000431,0.003408
133024000,0.0324,0.013523,0.002678,0.000431,0.001880
133025000,0.0324,0.013523,0.002678,0.000431,0.001410
133026000,0.0324,0.013523,0.002678,0.000431,0.001880
133027000,0.0324,0.013523,0.002678,0.000431,0.001645
133028000,0.0324,0.013523,0.002678,0.000431,0.004231
133029000,0.0324,0.013523,0.002678,0.000431,0.000823
133030000,0.0324,0.013523,0.002678,0.000431,0.000705
133031000,0.0324,0.013523,0.002678,0.000431,0.000940
133032000,0.0324,0.013523,0.002678,0.000431,0.000940
133033000,0.0324,0.013523,0.002678,0.000431,0.000823
133034000,0.0324,0.013523,0.002678,0.000431,0.000823
133035000,0.0324,0.013523,0.002678,0.000431,0.000823
133036000,0.0324,0.013523,0.002678,0.000431,0.000823
133037000,0.0324,0.013523,0.002678,0.000431,0.000823
133038000,0.0324,0.013523,0.002678,0.000431,0.000823
133039000,0.0324,0.013523,0.002678,0.000431,0.248220
133040000,0.0324,0.013523,0.002678,0.000431,0.805421
133041000,0.0324,0.013523,0.002678,0.000431,0.501728
133042000,0.0324,0.013523,0.002678,0.000431,0.146440
133043000,0.0324,0.013523,0.002678,0.000431,0.444021
133044000,0.0324,0.013523,0.002678,0.000431,0.451778
133045000,0.0324,0.013523,0.002678,0.000431,0.326141
133046000,0.0324,0.013523,0.002678,0.000431,0.220483
133047000,0.0324,0.013523,0.002678,0.000431,0.158428
133048000,0.0324,0.013523,0.002678,0.000431,0.160308
133049000,0.0324,0.013523,0.002678,0.000431,0.588699
133050000,0.0324,0.013523,0.002678,0.000431,0.346356
133051000,0.0324,0.013523,0.002678,0.000431,0.273606
133052000,0.0324,0.013523,0.002678,0.000431,0.231178
133053000,0.0324,0.013523,0.002678,0.000431,0.218250
133054000,0.0324,0.013523,0.002678,0.000431,0.177820
133055000,0.0324,0.013523,0.002678,0.000431,0.158663
133056000,0.0324,0.013523,0.002678,0.000431,0.143384
133057000,0.0324,0.013523,0.002678,0.000431,0.119761
133058000,0.0324,0.013523,0.002678,0.000431,0.109771
133059000,0.0324,0.013523,0.002678,0.000431,0.088499
133060000,0.0324,0.013523,0.002678,0.000431,0.079802
133061000,0.0324,0.013523,0.002678,0.000431,0.077334
133062000,0.0324,0.013523,0.002678,0.000431,0.066286
133063000,0.0324,0.013523,0.002678,0.000431,0.062055
133064000,0.0324,0.013523,0.002678,0.000431,0.056414
133065000,0.0324,0.013523,0.002678,0.000431,0.034671
133066000,0.0324,0.013523,0.002678,0.000431,0.036081
133067000,0.0324,0.013523,0.002678,0.000431,0.028559
133068000,0.0324,0.013523,0.002678,0.000431,0.026091
133069000,0.0324,0.013523,0.002678,0.000431,0.019627
133070000,0.0324,0.013523,0.002678,0.000431,0.017747
133071000,0.0324,0.013523,0.002678,0.000431,0.017042
133072000,0.0324,0.013523,0.002678,0.000431,0.017982
133073000,0.0324,0.013523,0.002678,0.000431,0.016571
133074000,0.0324,0.013523,0.002678,0.000431,0.013751
133075000,0.0324,0.013523,0.002678,0.000431,0.010695
133076000,0.0324,0.013523,0.002678,0.000431,0.014573
133077000,0.0324,0.013523,0.002678,0.000431,0.009520
133078000,0.0324,0.013523,0.002678,0.000431,0.008109
133079000,0.0324,0.013523,0.002678,0.000431,0.007639
133080000,0.0324,0.013523,0.002678,0.000431,0.011283
133081000,0.0324,0.013523,0.002678,0.000431,0.007639
133082000,0.0324,0.013523,0.002678,0.000431,0.005641
133083000,0.0324,0.013523,0.002678,0.000431,0.004701
133084000,0.0324,0.013523,0.002678,0.000431,0.007757
133085000,0.0324,0.013523,0.002678,0.000431,0.006464
133086000,0.0324,0.013523,0.002678,0.000431,0.005876
133087000,0.0324,0.013523,0.002678,0.000431,0.006464
133088000,0.0324,0.013523,0.002678,0.000431,0.002586
133089000,0.0324,0.013523,0.002678,0.000431,0.002586
133090000,0.0324,0.013523,0.002678,0.000431,0.002351
133091000,0.0324,0.013523,0.002678,0.000431,0.002468
133092000,0.0324,0.013523,0.002678,0.000431,0.002586
133093000,0.0324,0.013523,0.002678,0.000431,0.005994
133094000,0.0324,0.013523,0.002678,0.000431,0.001528
133095000,0.0324,0.013523,0.002678,0.000431,0.001763
133096000,0.0324,0.013523,0.002678,0.000431,0.005876
133097000,0.0324,0.013523,0.002678,0.000431,0.023506
133098000,0.0324,0.013523,0.002678,0.000431,0.909433
133099000,0.0324,0.013523,0.002678,0.000431,0.543333
133100000,0.0324,0.013523,0.002678,0.000431,0.196390
133101000,0.0324,0.013523,0.002678,0.000431,0.237407
133102000,0.0324,0.013523,0.002678,0.000431,0.593517
133103000,0.0324,0.013523,0.002678,0.000431,0.259620
133104000,0.0324,0.013523,0.002678,0.000431,0.298757
133105000,0.0324,0.013523,0.002678,0.000431,0.159133
133106000,0.0324,0.013523,0.002678,0.000431,0.122934
133107000,0.0324,0.013523,0.002678,0.000431,0.359871
133108000,0.0324,0.013523,0.002678,0.000431,0.535576
133109000,0.0324,0.013523,0.002678,0.000431,0.282185
133110000,0.0324,0.013523,0.002678,0.000431,0.244459
133111000,0.0324,0.013523,0.002678,0.000431,0.219778
133112000,0.0324,0.013523,0.002678,0.000431,0.183226
133113000,0.0324,0.013523,0.002678,0.000431,0.158663
133114000,0.0324,0.013523,0.002678,0.000431,0.137978
133115000,0.0324,0.013523,0.002678,0.000431,0.115765
133116000,0.0324,0.013523,0.002678,0.000431,0.111534
133117000,0.0324,0.013523,0.002678,0.000431,0.106363
133118000,0.0324,0.013523,0.002678,0.000431,0.094140
133119000,0.0324,0.013523,0.002678,0.000431,0.072045
133120000,0.0324,0.013523,0.002678,0.000431,0.067931
133121000,0.0324,0.013523,0.002678,0.000431,0.052653
133122000,0.0324,0.013523,0.002678,0.000431,0.047599
133123000,0.0324,0.013523,0.002678,0.000431,0.032203
133124000,0.0324,0.013523,0.002678,0.000431,0.041840
133125000,0.0324,0.013523,0.002678,0.000431,0.020802
133126000,0.0324,0.013523,0.002678,0.000431,0.025386
133127000,0.0324,0.013523,0.002678,0.000431,0.018099
133128000,0.0324,0.013523,0.002678,0.000431,0.019275
133129000,0.0324,0.013523,0.002678,0.000431,0.021978
133130000,0.0324,0.013523,0.002678,0.000431,0.015396
133131000,0.0324,0.013523,0.002678,0.000431,0.016454
133132000,0.0324,0.013523,0.002678,0.000431,0.013163
133133000,0.0324,0.013523,0.002678,0.000431,0.007874
133134000,0.0324,0.013523,0.002678,0.000431,0.003526
133135000,0.0324,0.013523,0.002678,0.000431,0.001645
133136000,0.0324,0.013523,0.002678,0.000431,0.001645
133137000,0.0324,0.013523,0.002678,0.000431,0.001763
133138000,0.0324,0.013523,0.002678,0.000431,0.004584
133139000,0.0324,0.013523,0.002678,0.000431,0.001058
133140000,0.0324,0.013523,0.002678,0.000431,0.000823
133141000,0.0324,0.013523,0.002678,0.000431,0.000823
133142000,0.0324,0.013523,0.002678,0.000431,0.000705
133143000,0.0324,0.013523,0.002678,0.000431,0.002116
133144000,0.0324,0.013523,0.002678,0.000431,0.608443
133145000,0.0324,0.013523,0.002678,0.000431,0.736549
133146000,0.0324,0.013523,0.002678,0.000431,0.287239
133147000,0.0324,0.013523,0.002678,0.000431,0.153374
133148000,0.0324,0.013523,0.002678,0.000431,0.556026
133149000,0.0324,0.013523,0.002678,0.000431,0.266084
133150000,0.0324,0.013523,0.002678,0.000431,0.332252
133151000,0.0324,0.013523,0.002678,0.000431,0.210493
133152000,0.0324,0.013523,0.002678,0.000431,0.178525
133153000,0.0324,0.013523,0.002678,0.000431,0.105305
133154000,0.0324,0.013523,0.002678,0.000431,0.570012
133155000,0.0324,0.013523,0.002678,0.000431,0.328256
133156000,0.0324,0.013523,0.002678,0.000431,0.234116
133157000,0.0324,0.013523,0.002678,0.000431,0.222246
133158000,0.0324,0.013523,0.002678,0.000431,0.192159
133159000,0.0324,0.013523,0.002678,0.000431,0.162424
133160000,0.0324,0.013523,0.002678,0.000431,0.135510
133161000,0.0324,0.013523,0.002678,0.000431,0.127988
133162000,0.0324,0.013523,0.002678,0.000431,0.108831
133163000,0.0324,0.013523,0.002678,0.000431,0.090967
133164000,0.0324,0.013523,0.002678,0.000431,0.090027
133165000,0.0324,0.013523,0.002678,0.000431,0.072750
133166000,0.0324,0.013523,0.002678,0.000431,0.069929
133167000,0.0324,0.013523,0.002678,0.000431,0.051360
133168000,0.0324,0.013523,0.002678,0.000431,0.037962
133169000,0.0324,0.013523,0.002678,0.000431,0.035141
133170000,0.0324,0.013523,0.002678,0.000431,0.040900
133171000,0.0324,0.013523,0.002678,0.000431,0.032908
133172000,0.0324,0.013523,0.002678,0.000431,0.024328
133173000,0.0324,0.013523,0.002678,0.000431,0.031027
133174000,0.0324,0.013523,0.002678,0.000431,0.023036
133175000,0.0324,0.013523,0.002678,0.000431,0.019392
133176000,0.0324,0.013523,0.002678,0.000431,0.019862
133177000,0.0324,0.013523,0.002678,0.000431,0.031733
133178000,0.0324,0.013523,0.002678,0.000431,0.018805
133179000,0.0324,0.013523,0.002678,0.000431,0.016454
133180000,0.0324,0.013523,0.002678,0.000431,0.016571
133181000,0.0324,0.013523,0.002678,0.000431,0.012105
133182000,0.0324,0.013523,0.002678,0.000431,0.006111
133183000,0.0324,0.013523,0.002678,0.000431,0.006817
133184000,0.0324,0.013523,0.002678,0.000431,0.007052
133185000,0.0324,0.013523,0.002678,0.000431,0.007639
133186000,0.0324,0.013523,0.002678,0.000431,0.009990
133187000,0.0324,0.013523,0.002678,0.000431,0.006111
133188000,0.0324,0.013523,0.002678,0.000431,0.003761
133189000,0.0324,0.013523,0.002678,0.000431,0.003173
133190000,0.0324,0.013523,0.002678,0.000431,0.001528
133191000,0.0324,0.013523,0.002678,0.000431,0.001645
133192000,0.0324,0.013523,0.002678,0.000431,0.003878
133193000,0.0324,0.013523,0.002678,0.000431,0.000823
133194000,0.0324,0.013523,0.002678,0.000431,0.000940
133195000,0.0324,0.013523,0.002678,0.000431,0.000823
133196000,0.0324,0.013523,0.002678,0.000431,0.000823
133197000,0.0324,0.013523,0.002678,0.000431,0.000705
133198000,0.0324,0.013523,0.002678,0.000431,0.000940
133199000,0.0324,0.013523,0.002678,0.000431,0.000940
133200000,0.0324,0.013523,0.002678,0.000431,0.000705
133201000,0.0324,0.013523,0.002678,0.000431,0.000940
133202000,0.0324,0.013523,0.002678,0.000431,0.000705
133203000,0.0324,0.013523,0.002678,0.000431,0.000940
133204000,0.0324,0.013523,0.002678,0.000431,0.000823
133205000,0.0324,0.013523,0.002678,0.000431,0.000823
133206000,0.0324,0.013523,0.002678,0.000431,0.000940
133207000,0.0324,0.013523,0.002678,0.000431,0.000705
133208000,0.0324,0.013523,0.002678,0.000431,0.000940
133209000,0.0324,0.013523,0.002678,0.000431,0.000823
133210000,0.0324,0.013523,0.002678,0.000431,0.000823
133211000,0.0324,0.013523,0.002678,0.000431,0.000823
133212000,0.0324,0.013523,0.002678,0.000431,0.000823
133213000,0.0324,0.013523,0.002678,0.000431,0.000823
133214000,0.0324,0.013523,0.002678,0.000431,0.000823
133215000,0.0324,0.013523,0.002678,0.000431,0.000940
133216000,0.0324,0.013523,0.002678,0.000431,0.000705
133217000,0.0324,0.013523,0.002678,0.000431,0.000823
133218000,0.0324,0.013523,0.002678,0.000431,0.000940
133219000,0.0324,0.013523,0.002678,0.000431,0.000823
133220000,0.0324,0.013523,0.002678,0.000431,0.000705
133221000,0.0324,0.013523,0.002678,0.000431,0.000940
133222000,0.0324,0.013523,0.002678,0.000431,0.000705
133223000,0.0324,0.013523,0.002678,0.000431,0.000940
133224000,0.0324,0.013523,0.002678,0.000431,0.000940
133225000,0.0324,0.013523,0.002678,0.000431,0.000705
133226000,0.0324,0.013523,0.002678,0.000431,0.000940
133227000,0.0324,0.013523,0.002678,0.000431,0.000705
133228000,0.0324,0.013523,0.002678,0.000431,0.000940
133229000,0.0324,0.013523,0.002678,0.000431,0.000823
133230000,0.0324,0.013523,0.002678,0.000431,0.000823
133231000,0.0324,0.013523,0.002678,0.000431,0.000823
133232000,0.0324,0.013523,0.002678,0.000431,0.000823
133233000,0.0324,0.013523,0.002678,0.000431,0.000940
133234000,0.0324,0.013523,0.002678,0.000431,0.000705
133235000,0.0324,0.013523,0.002678,0.000431,0.000940
133236000,0.0324,0.013523,0.002678,0.000431,0.000823
133237000,0.0324,0.013523,0.002678,0.000431,0.000823
133238000,0.0324,0.013523,0.002678,0.000431,0.000823
133239000,0.0324,0.013523,0.002678,0.000431,0.000823
133240000,0.0324,0.013523,0.002678,0.000431,0.000823
133241000,0.0324,0.013523,0.002678,0.000431,0.000823
133242000,0.0324,0.013523,0.002678,0.000431,0.000940
133243000,0.0324,0.013523,0.002678,0.000431,0.000823
133244000,0.0324,0.013523,0.002678,0.000431,0.004584
133245000,0.0324,0.013523,0.002678,0.000431,0.659216
133246000,0.0324,0.013523,0.002678,0.000431,0.728205
133247000,0.0324,0.013523,0.002678,0.000431,0.193216
133248000,0.0324,0.013523,0.002678,0.000431,0.147263
133249000,0.0324,0.013523,0.002678,0.000431,0.582587
133250000,0.0324,0.013523,0.002678,0.000431,0.267024
133251000,0.0324,0.013523,0.002678,0.000431,0.327081
133252000,0.0324,0.013523,0.002678,0.000431,0.219425
133253000,0.0324,0.013523,0.002678,0.000431,0.172061
133254000,0.0324,0.013523,0.002678,0.000431,0.113062
133255000,0.0324,0.013523,0.002678,0.000431,0.583645
133256000,0.0324,0.013523,0.002678,0.000431,0.377383
133257000,0.0324,0.013523,0.002678,0.000431,0.279952
133258000,0.0324,0.013523,0.002678,0.000431,0.245164
133259000,0.0324,0.013523,0.002678,0.000431,0.204617
133260000,0.0324,0.013523,0.002678,0.000431,0.181346
133261000,0.0324,0.013523,0.002678,0.000431,0.163599
133262000,0.0324,0.013523,0.002678,0.000431,0.123757
133263000,0.0324,0.013523,0.002678,0.000431,0.117763
133264000,0.0324,0.013523,0.002678,0.000431,0.103425
133265000,0.0324,0.013523,0.002678,0.000431,0.073925
133266000,0.0324,0.013523,0.002678,0.000431,0.078156
133267000,0.0324,0.013523,0.002678,0.000431,0.063348
133268000,0.0324,0.013523,0.002678,0.000431,0.046306
133269000,0.0324,0.013523,0.002678,0.000431,0.051595
133270000,0.0324,0.013523,0.002678,0.000431,0.042780
133271000,0.0324,0.013523,0.002678,0.000431,0.044191
133272000,0.0324,0.013523,0.002678,0.000431,0.029735
133273000,0.0324,0.013523,0.002678,0.000431,0.027031
133274000,0.0324,0.013523,0.002678,0.000431,0.030205
133275000,0.0324,0.013523,0.002678,0.000431,0.034788
133276000,0.0324,0.013523,0.002678,0.000431,0.012811
133277000,0.0324,0.013523,0.002678,0.000431,0.014103
133278000,0.0324,0.013523,0.002678,0.000431,0.012576
133279000,0.0324,0.013523,0.002678,0.000431,0.004819
133280000,0.0324,0.013523,0.002678,0.000431,0.013516
133281000,0.0324,0.013523,0.002678,0.000431,0.005171
133282000,0.0324,0.013523,0.002678,0.000431,0.002586
133283000,0.0324,0.013523,0.002678,0.000431,0.005876
133284000,0.0324,0.013523,0.002678,0.000431,0.001763
133285000,0.0324,0.013523,0.002678,0.000431,0.004584
133286000,0.0324,0.013523,0.002678,0.000431,0.001175
133287000,0.0324,0.013523,0.002678,0.000431,0.000823
133288000,0.0324,0.013523,0.002678,0.000431,0.000940
133289000,0.0324,0.013523,0.002678,0.000431,0.001175
133290000,0.0324,0.013523,0.002678,0.000431,0.001058
133291000,0.0324,0.013523,0.002678,0.000431,0.001058
133292000,0.0324,0.013523,0.002678,0.000431,0.001058
133293000,0.0324,0.013523,0.002678,0.000431,0.001175
133294000,0.0324,0.013523,0.002678,0.000431,0.002233
133295000,0.0324,0.013523,0.002678,0.000431,0.630539
133296000,0.0324,0.013523,0.002678,0.000431,0.721858
133297000,0.0324,0.013523,0.002678,0.000431,0.268082
133298000,0.0324,0.013523,0.002678,0.000431,0.197330
133299000,0.0324,0.013523,0.002678,0.000431,0.616788
133300000,0.0324,0.013523,0.002678,0.000431,0.254919
133301000,0.0324,0.013523,0.002678,0.000431,0.373505
133302000,0.0324,0.013523,0.002678,0.000431,0.160308
133303000,0.0324,0.013523,0.002678,0.000431,0.093200
133304000,0.0324,0.013523,0.002678,0.000431,0.402887
133305000,0.0324,0.013523,0.002678,0.000431,0.467292
133306000,0.0324,0.013523,0.002678,0.000431,0.259855
133307000,0.0324,0.013523,0.002678,0.000431,0.236819
133308000,0.0324,0.013523,0.002678,0.000431,0.212491
133309000,0.0324,0.013523,0.002678,0.000431,0.167125
133310000,0.0324,0.013523,0.002678,0.000431,0.159486
133311000,0.0324,0.013523,0.002678,0.000431,0.141386
133312000,0.0324,0.013523,0.002678,0.000431,0.100604
133313000,0.0324,0.013523,0.002678,0.000431,0.113532
133314000,0.0324,0.013523,0.002678,0.000431,0.086148
133315000,0.0324,0.013523,0.002678,0.000431,0.092495
133316000,0.0324,0.013523,0.002678,0.000431,0.069812
133317000,0.0324,0.013523,0.002678,0.000431,0.060057
133318000,0.0324,0.013523,0.002678,0.000431,0.043015
133319000,0.0324,0.013523,0.002678,0.000431,0.046541
133320000,0.0324,0.013523,0.002678,0.000431,0.034201
133321000,0.0324,0.013523,0.002678,0.000431,0.028677
133322000,0.0324,0.013523,0.002678,0.000431,0.032908
133323000,0.0324,0.013523,0.002678,0.000431,0.028794
133324000,0.0324,0.013523,0.002678,0.000431,0.014691
133325000,0.0324,0.013523,0.002678,0.000431,0.019510
133326000,0.0324,0.013523,0.002678,0.000431,0.009637
133327000,0.0324,0.013523,0.002678,0.000431,0.009167
133328000,0.0324,0.013523,0.002678,0.000431,0.013986
133329000,0.0324,0.013523,0.002678,0.000431,0.012576
133330000,0.0324,0.013523,0.002678,0.000431,0.007992
133331000,0.0324,0.013523,0.002678,0.000431,0.006464
133332000,0.0324,0.013523,0.002678,0.000431,0.006934
133333000,0.0324,0.013523,0.002678,0.000431,0.007522
133334000,0.0324,0.013523,0.002678,0.000431,0.012105
133335000,0.0324,0.013523,0.002678,0.000431,0.005171
133336000,0.0324,0.013523,0.002678,0.000431,0.003996
133337000,0.0324,0.013523,0.002678,0.000431,0.007522
133338000,0.0324,0.013523,0.002678,0.000431,0.006699
133339000,0.0324,0.013523,0.002678,0.000431,0.002703
133340000,0.0324,0.013523,0.002678,0.000431,0.003996
133341000,0.0324,0.013523,0.002678,0.000431,0.003056
133342000,0.0324,0.013523,0.002678,0.000431,0.004584
133343000,0.0324,0.013523,0.002678,0.000431,0.000823
133344000,0.0324,0.013523,0.002678,0.000431,0.000940
133345000,0.0324,0.013523,0.002678,0.000431,0.000823
133346000,0.0324,0.013523,0.002678,0.000431,0.000823
133347000,0.0324,0.013523,0.002678,0.000431,0.000940
133348000,0.0324,0.013523,0.002678,0.000431,0.000705
133349000,0.0324,0.013523,0.002678,0.000431,0.000940
133350000,0.0324,0.013523,0.002678,0.000431,0.000823
133351000,0.0324,0.013523,0.002678,0.000431,0.000823
133352000,0.0324,0.013523,0.002678,0.000431,0.272900
133353000,0.0324,0.013523,0.002678,0.000431,0.770632
133354000,0.0324,0.013523,0.002678,0.000431,0.489975
133355000,0.0324,0.013523,0.002678,0.000431,0.154785
133356000,0.0324,0.013523,0.002678,0.000431,0.360929
133357000,0.0324,0.013523,0.002678,0.000431,0.499612
133358000,0.0324,0.013523,0.002678,0.000431,0.302047
133359000,0.0324,0.013523,0.002678,0.000431,0.265496
133360000,0.0324,0.013523,0.002678,0.000431,0.161131
133361000,0.0324,0.013523,0.002678,0.000431,0.107538
133362000,0.0324,0.013523,0.002678,0.000431,0.517124
133363000,0.0324,0.013523,0.002678,0.000431,0.317209
133364000,0.0324,0.013523,0.002678,0.000431,0.206850
133365000,0.0324,0.013523,0.002678,0.000431,0.170181
133366000,0.0324,0.013523,0.002678,0.000431,0.151846
133367000,0.0324,0.013523,0.002678,0.000431,0.119526
133368000,0.0324,0.013523,0.002678,0.000431,0.099429
133369000,0.0324,0.013523,0.002678,0.000431,0.088851
133370000,0.0324,0.013523,0.002678,0.000431,0.080272
133371000,0.0324,0.013523,0.002678,0.000431,0.067931
133372000,0.0324,0.013523,0.002678,0.000431,0.057941
133373000,0.0324,0.013523,0.002678,0.000431,0.040782
133374000,0.0324,0.013523,0.002678,0.000431,0.034436
133375000,0.0324,0.013523,0.002678,0.000431,0.030322
133376000,0.0324,0.013523,0.002678,0.000431,0.032203
133377000,0.0324,0.013523,0.002678,0.000431,0.031733
133378000,0.0324,0.013523,0.002678,0.000431,0.021860
133379000,0.0324,0.013523,0.002678,0.000431,0.023388
133380000,0.0324,0.013523,0.002678,0.000431,0.025151
133381000,0.0324,0.013523,0.002678,0.000431,0.020920
133382000,0.0324,0.013523,0.002678,0.000431,0.016101
133383000,0.0324,0.013523,0.002678,0.000431,0.011753
133384000,0.0324,0.013523,0.002678,0.000431,0.010342
133385000,0.0324,0.013523,0.002678,0.000431,0.010342
133386000,0.0324,0.013523,0.002678,0.000431,0.013281
133387000,0.0324,0.013523,0.002678,0.000431,0.004819
133388000,0.0324,0.013523,0.002678,0.000431,0.004584
133389000,0.0324,0.013523,0.002678,0.000431,0.008815
133390000,0.0324,0.013523,0.002678,0.000431,0.003173
133391000,0.0324,0.013523,0.002678,0.000431,0.006229
133392000,0.0324,0.013523,0.002678,0.000431,0.002116
133393000,0.0324,0.013523,0.002678,0.000431,0.004819
133394000,0.0324,0.013523,0.002678,0.000431,0.001410
133395000,0.0324,0.013523,0.002678,0.000431,0.001410
133396000,0.0324,0.013523,0.002678,0.000431,0.001058
133397000,0.0324,0.013523,0.002678,0.000431,0.001528
133398000,0.0324,0.013523,0.002678,0.000431,0.001410
133399000,0.0324,0.013523,0.002678,0.000431,0.001645
133400000,0.0324,0.013523,0.002678,0.000431,0.001645
133401000,0.0324,0.013523,0.002678,0.000431,0.001058
133402000,0.0324,0.013523,0.002678,0.000431,0.001293
133403000,0.0324,0.013523,0.002678,0.000431,0.080859
133404000,0.0324,0.013523,0.002678,0.000431,0.816821
133405000,0.0324,0.013523,0.002678,0.000431,0.553910
133406000,0.0324,0.013523,0.002678,0.000431,0.143502
133407000,0.0324,0.013523,0.002678,0.000431,0.331665
133408000,0.0324,0.013523,0.002678,0.000431,0.483628
133409000,0.0324,0.013523,0.002678,0.000431,0.325671
133410000,0.0324,0.013523,0.002678,0.000431,0.259267
133411000,0.0324,0.013523,0.002678,0.000431,0.172884
133412000,0.0324,0.013523,0.002678,0.000431,0.094375
133413000,0.0324,0.013523,0.002678,0.000431,0.548386
133414000,0.0324,0.013523,0.002678,0.000431,0.342125
133415000,0.0324,0.013523,0.002678,0.000431,0.239640
133416000,0.0324,0.013523,0.002678,0.000431,0.230943
133417000,0.0324,0.013523,0.002678,0.000431,0.182874
133418000,0.0324,0.013523,0.002678,0.000431,0.170298
133419000,0.0324,0.013523,0.002678,0.000431,0.159721
133420000,0.0324,0.013523,0.002678,0.000431,0.128811
133421000,0.0324,0.013523,0.002678,0.000431,0.111182
133422000,0.0324,0.013523,0.002678,0.000431,0.096491
133423000,0.0324,0.013523,0.002678,0.000431,0.077686
133424000,0.0324,0.013523,0.002678,0.000431,0.059234
133425000,0.0324,0.013523,0.002678,0.000431,0.052653
133426000,0.0324,0.013523,0.002678,0.000431,0.041135
133427000,0.0324,0.013523,0.002678,0.000431,0.045366
133428000,0.0324,0.013523,0.002678,0.000431,0.035258
133429000,0.0324,0.013523,0.002678,0.000431,0.026326
133430000,0.0324,0.013523,0.002678,0.000431,0.026679
133431000,0.0324,0.013523,0.002678,0.000431,0.023741
133432000,0.0324,0.013523,0.002678,0.000431,0.019510
133433000,0.0324,0.013523,0.002678,0.000431,0.016689
133434000,0.0324,0.013523,0.002678,0.000431,0.010578
133435000,0.0324,0.013523,0.002678,0.000431,0.009050
133436000,0.0324,0.013523,0.002678,0.000431,0.007639
133437000,0.0324,0.013523,0.002678,0.000431,0.009637
133438000,0.0324,0.013523,0.002678,0.000431,0.011400
133439000,0.0324,0.013523,0.002678,0.000431,0.005994
133440000,0.0324,0.013523,0.002678,0.000431,0.008462
133441000,0.0324,0.013523,0.002678,0.000431,0.006582
133442000,0.0324,0.013523,0.002678,0.000431,0.005876
133443000,0.0324,0.013523,0.002678,0.000431,0.005994
133444000,0.0324,0.013523,0.002678,0.000431,0.003173
133445000,0.0324,0.013523,0.002678,0.000431,0.003408
133446000,0.0324,0.013523,0.002678,0.000431,0.006111
133447000,0.0324,0.013523,0.002678,0.000431,0.002821
133448000,0.0324,0.013523,0.002678,0.000431,0.004819
133449000,0.0324,0.013523,0.002678,0.000431,0.001880
133450000,0.0324,0.013523,0.002678,0.000431,0.001410
133451000,0.0324,0.013523,0.002678,0.000431,0.001998
133452000,0.0324,0.013523,0.002678,0.000431,0.001763
133453000,0.0324,0.013523,0.002678,0.000431,0.001645
133454000,0.0324,0.013523,0.002678,0.000431,0.006229
133455000,0.0324,0.013523,0.002678,0.000431,0.000940
133456000,0.0324,0.013523,0.002678,0.000431,0.000823
133457000,0.0324,0.013523,0.002678,0.000431,0.000940
133458000,0.0324,0.013523,0.002678,0.000431,0.000823
133459000,0.0324,0.013523,0.002678,0.000431,0.000823
133460000,0.0324,0.013523,0.002678,0.000431,0.000823
133461000,0.0324,0.013523,0.002678,0.000431,0.304280
133462000,0.0324,0.013523,0.002678,0.000431,0.823638
133463000,0.0324,0.013523,0.002678,0.000431,0.382202
133464000,0.0324,0.013523,0.002678,0.000431,0.155255
133465000,0.0324,0.013523,0.002678,0.000431,0.536516
133466000,0.0324,0.013523,0.002678,0.000431,0.340479
133467000,0.0324,0.013523,0.002678,0.000431,0.308041
133468000,0.0324,0.013523,0.002678,0.000431,0.203441
133469000,0.0324,0.013523,0.002678,0.000431,0.182169
133470000,0.0324,0.013523,0.002678,0.000431,0.116118
133471000,0.0324,0.013523,0.002678,0.000431,0.559552
133472000,0.0324,0.013523,0.002678,0.000431,0.328726
133473000,0.0324,0.013523,0.002678,0.000431,0.250805
133474000,0.0324,0.013523,0.002678,0.000431,0.227182
133475000,0.0324,0.013523,0.002678,0.000431,0.187222
133476000,0.0324,0.013523,0.002678,0.000431,0.168888
133477000,0.0324,0.013523,0.002678,0.000431,0.146558
133478000,0.0324,0.013523,0.002678,0.000431,0.141857
133479000,0.0324,0.013523,0.002678,0.000431,0.106010
133480000,0.0324,0.013523,0.002678,0.000431,0.095903
133481000,0.0324,0.013523,0.002678,0.000431,0.083210
133482000,0.0324,0.013523,0.002678,0.000431,0.068754
133483000,0.0324,0.013523,0.002678,0.000431,0.054180
133484000,0.0324,0.013523,0.002678,0.000431,0.058999
133485000,0.0324,0.013523,0.002678,0.000431,0.047481
133486000,0.0324,0.013523,0.002678,0.000431,0.049597
133487000,0.0324,0.013523,0.002678,0.000431,0.042545
133488000,0.0324,0.013523,0.002678,0.000431,0.036551
133489000,0.0324,0.013523,0.002678,0.000431,0.041487
133490000,0.0324,0.013523,0.002678,0.000431,0.034083
133491000,0.0324,0.013523,0.002678,0.000431,0.032555
133492000,0.0324,0.013523,0.002678,0.000431,0.027972
133493000,0.0324,0.013523,0.002678,0.000431,0.025386
133494000,0.0324,0.013523,0.002678,0.000431,0.031262
133495000,0.0324,0.013523,0.002678,0.000431,0.020685
133496000,0.0324,0.013523,0.002678,0.000431,0.025504
133497000,0.0324,0.013523,0.002678,0.000431,0.019392
133498000,0.0324,0.013523,0.002678,0.000431,0.013398
133499000,0.0324,0.013523,0.002678,0.000431,0.014691
133500000,0.0324,0.013523,0.002678,0.000431,0.015161
133501000,0.0324,0.013523,0.002678,0.000431,0.018334
133502000,0.0324,0.013523,0.002678,0.000431,0.012693
133503000,0.0324,0.013523,0.002678,0.000431,0.010342
133504000,0.0324,0.013523,0.002678,0.000431,0.010813
133505000,0.0324,0.013523,0.002678,0.000431,0.014103
133506000,0.0324,0.013523,0.002678,0.000431,0.012928
133507000,0.0324,0.013523,0.002678,0.000431,0.011753
133508000,0.0324,0.013523,0.002678,0.000431,0.005641
133509000,0.0324,0.013523,0.002678,0.000431,0.005759
133510000,0.0324,0.013523,0.002678,0.000431,0.005876
133511000,0.0324,0.013523,0.002678,0.000431,0.005524
133512000,0.0324,0.013523,0.002678,0.000431,0.006229
133513000,0.0324,0.013523,0.002678,0.000431,0.005171
133514000,0.0324,0.013523,0.002678,0.000431,0.005876
133515000,0.0324,0.013523,0.002678,0.000431,0.005876
133516000,0.0324,0.013523,0.002678,0.000431,0.005406
133517000,0.0324,0.013523,0.002678,0.000431,0.005876
133518000,0.0324,0.013523,0.002678,0.000431,0.005524
133519000,0.0324,0.013523,0.002678,0.000431,0.005876
133520000,0.0324,0.013523,0.002678,0.000431,0.005171
133521000,0.0324,0.013523,0.002678,0.000431,0.005759
133522000,0.0324,0.013523,0.002678,0.000431,0.005406
133523000,0.0324,0.013523,0.002678,0.000431,0.005994
133524000,0.0324,0.013523,0.002678,0.000431,0.005759
133525000,0.0324,0.013523,0.002678,0.000431,0.005641
133526000,0.0324,0.013523,0.002678,0.000431,0.005759
133527000,0.0324,0.013523,0.002678,0.000431,0.005406
133528000,0.0324,0.013523,0.002678,0.000431,0.006347
133529000,0.0324,0.013523,0.002678,0.000431,0.003408
133530000,0.0324,0.013523,0.002678,0.000431,0.003643
133531000,0.0324,0.013523,0.002678,0.000431,0.005524
133532000,0.0324,0.013523,0.002678,0.000431,0.002233
133533000,0.0324,0.013523,0.002678,0.000431,0.001645
133534000,0.0324,0.013523,0.002678,0.000431,0.001880
133535000,0.0324,0.013523,0.002678,0.000431,0.071810
133536000,0.0324,0.013523,0.002678,0.000431,0.856428
133537000,0.0324,0.013523,0.002678,0.000431,0.550149
133538000,0.0324,0.013523,0.002678,0.000431,0.171474
133539000,0.0324,0.013523,0.002678,0.000431,0.256329
133540000,0.0324,0.013523,0.002678,0.000431,0.534753
133541000,0.0324,0.013523,0.002678,0.000431,0.305103
133542000,0.0324,0.013523,0.002678,0.000431,0.284418
133543000,0.0324,0.013523,0.002678,0.000431,0.148556
133544000,0.0324,0.013523,0.002678,0.000431,0.112122
133545000,0.0324,0.013523,0.002678,0.000431,0.409586
133546000,0.0324,0.013523,0.002678,0.000431,0.504078
133547000,0.0324,0.013523,0.002678,0.000431,0.297816
133548000,0.0324,0.013523,0.002678,0.000431,0.266671
133549000,0.0324,0.013523,0.002678,0.000431,0.257152
133550000,0.0324,0.013523,0.002678,0.000431,0.232823
133551000,0.0324,0.013523,0.002678,0.000431,0.181346
133552000,0.0324,0.013523,0.002678,0.000431,0.162071
133553000,0.0324,0.013523,0.002678,0.000431,0.145030
133554000,0.0324,0.013523,0.002678,0.000431,0.125755
133555000,0.0324,0.013523,0.002678,0.000431,0.109419
133556000,0.0324,0.013523,0.002678,0.000431,0.078039
133557000,0.0324,0.013523,0.002678,0.000431,0.081682
133558000,0.0324,0.013523,0.002678,0.000431,0.060645
133559000,0.0324,0.013523,0.002678,0.000431,0.059587
133560000,0.0324,0.013523,0.002678,0.000431,0.045366
133561000,0.0324,0.013523,0.002678,0.000431,0.043720
133562000,0.0324,0.013523,0.002678,0.000431,0.039489
133563000,0.0324,0.013523,0.002678,0.000431,0.033731
133564000,0.0324,0.013523,0.002678,0.000431,0.037374
133565000,0.0324,0.013523,0.002678,0.000431,0.019040
133566000,0.0324,0.013523,0.002678,0.000431,0.015044
133567000,0.0324,0.013523,0.002678,0.000431,0.011753
133568000,0.0324,0.013523,0.002678,0.000431,0.015396
133569000,0.0324,0.013523,0.002678,0.000431,0.011400
133570000,0.0324,0.013523,0.002678,0.000431,0.013868
133571000,0.0324,0.013523,0.002678,0.000431,0.009520
133572000,0.0324,0.013523,0.002678,0.000431,0.010225
133573000,0.0324,0.013523,0.002678,0.000431,0.010930
133574000,0.0324,0.013523,0.002678,0.000431,0.011988
133575000,0.0324,0.013523,0.002678,0.000431,0.004819
133576000,0.0324,0.013523,0.002678,0.000431,0.005171
133577000,0.0324,0.013523,0.002678,0.000431,0.004701
133578000,0.0324,0.013523,0.002678,0.000431,0.005054
133579000,0.0324,0.013523,0.002678,0.000431,0.005171
133580000,0.0324,0.013523,0.002678,0.000431,0.007287
133581000,0.0324,0.013523,0.002678,0.000431,0.003643
133582000,0.0324,0.013523,0.002678,0.000431,0.003056
133583000,0.0324,0.013523,0.002678,0.000431,0.003643
133584000,0.0324,0.013523,0.002678,0.000431,0.006582
133585000,0.0324,0.013523,0.002678,0.000431,0.002468
133586000,0.0324,0.013523,0.002678,0.000431,0.002468
133587000,0.0324,0.013523,0.002678,0.000431,0.002703
133588000,0.0324,0.013523,0.002678,0.000431,0.002233
133589000,0.0324,0.013523,0.002678,0.000431,0.008462
133590000,0.0324,0.013523,0.002678,0.000431,0.000940
133591000,0.0324,0.013523,0.002678,0.000431,0.000823
133592000,0.0324,0.013523,0.002678,0.000431,0.000940
133593000,0.0324,0.013523,0.002678,0.000431,0.000940
133594000,0.0324,0.013523,0.002678,0.000431,0.000940
133595000,0.0324,0.013523,0.002678,0.000431,0.000823
133596000,0.0324,0.013523,0.002678,0.000431,0.000940
133597000,0.0324,0.013523,0.002678,0.000431,0.000940
133598000,0.0324,0.013523,0.002678,0.000431,0.003408
133599000,0.0324,0.013523,0.002678,0.000431,0.399243
133600000,0.0324,0.013523,0.002678,0.000431,0.795313
133601000,0.0324,0.013523,0.002678,0.000431,0.418283
133602000,0.0324,0.013523,0.002678,0.000431,0.149966
133603000,0.0324,0.013523,0.002678,0.000431,0.466352
133604000,0.0324,0.013523,0.002678,0.000431,0.332840
133605000,0.0324,0.013523,0.002678,0.000431,0.268787
133606000,0.0324,0.013523,0.002678,0.000431,0.242931
133607000,0.0324,0.013523,0.002678,0.000431,0.164422
133608000,0.0324,0.013523,0.002678,0.000431,0.117058
133609000,0.0324,0.013523,0.002678,0.000431,0.394307
133610000,0.0324,0.013523,0.002678,0.000431,0.475284
133611000,0.0324,0.013523,0.002678,0.000431,0.234469
133612000,0.0324,0.013523,0.002678,0.000431,0.226124
133613000,0.0324,0.013523,0.002678,0.000431,0.198505
133614000,0.0324,0.013523,0.002678,0.000431,0.163599
133615000,0.0324,0.013523,0.002678,0.000431,0.139859
133616000,0.0324,0.013523,0.002678,0.000431,0.131161
133617000,0.0324,0.013523,0.002678,0.000431,0.104365
133618000,0.0324,0.013523,0.002678,0.000431,0.105775
133619000,0.0324,0.013523,0.002678,0.000431,0.088264
133620000,0.0324,0.013523,0.002678,0.000431,0.078861
133621000,0.0324,0.013523,0.002678,0.000431,0.058529
133622000,0.0324,0.013523,0.002678,0.000431,0.046071
133623000,0.0324,0.013523,0.002678,0.000431,0.044191
133624000,0.0324,0.013523,0.002678,0.000431,0.048657
133625000,0.0324,0.013523,0.002678,0.000431,0.033260
133626000,0.0324,0.013523,0.002678,0.000431,0.033378
133627000,0.0324,0.013523,0.002678,0.000431,0.042075
133628000,0.0324,0.013523,0.002678,0.000431,0.027972
133629000,0.0324,0.013523,0.002678,0.000431,0.025269
133630000,0.0324,0.013523,0.002678,0.000431,0.012693
133631000,0.0324,0.013523,0.002678,0.000431,0.015514
133632000,0.0324,0.013523,0.002678,0.000431,0.010930
133633000,0.0324,0.013523,0.002678,0.000431,0.007874
133634000,0.0324,0.013523,0.002678,0.000431,0.008109
133635000,0.0324,0.013523,0.002678,0.000431,0.005876
133636000,0.0324,0.013523,0.002678,0.000431,0.003173
133637000,0.0324,0.013523,0.002678,0.000431,0.003643
133638000,0.0324,0.013523,0.002678,0.000431,0.003408
133639000,0.0324,0.013523,0.002678,0.000431,0.005759
133640000,0.0324,0.013523,0.002678,0.000431,0.005406
133641000,0.0324,0.013523,0.002678,0.000431,0.001645
133642000,0.0324,0.013523,0.002678,0.000431,0.004231
133643000,0.0324,0.013523,0.002678,0.000431,0.000823
133644000,0.0324,0.013523,0.002678,0.000431,0.000705
133645000,0.0324,0.013523,0.002678,0.000431,0.281127
133646000,0.0324,0.013523,0.002678,0.000431,0.817291
133647000,0.0324,0.013523,0.002678,0.000431,0.447430
133648000,0.0324,0.013523,0.002678,0.000431,0.157370
133649000,0.0324,0.013523,0.002678,0.000431,0.450721
133650000,0.0324,0.013523,0.002678,0.000431,0.339421
133651000,0.0324,0.013523,0.002678,0.000431,0.321557
133652000,0.0324,0.013523,0.002678,0.000431,0.258444
133653000,0.0324,0.013523,0.002678,0.000431,0.163247
133654000,0.0324,0.013523,0.002678,0.000431,0.103542
133655000,0.0324,0.013523,0.002678,0.000431,0.540042
133656000,0.0324,0.013523,0.002678,0.000431,0.402299
133657000,0.0324,0.013523,0.002678,0.000431,0.282303
133658000,0.0324,0.013523,0.002678,0.000431,0.228240
133659000,0.0324,0.013523,0.002678,0.000431,0.194509
133660000,0.0324,0.013523,0.002678,0.000431,0.165010
133661000,0.0324,0.013523,0.002678,0.000431,0.165362
133662000,0.0324,0.013523,0.002678,0.000431,0.131161
133663000,0.0324,0.013523,0.002678,0.000431,0.112945
133664000,0.0324,0.013523,0.002678,0.000431,0.093435
133665000,0.0324,0.013523,0.002678,0.000431,0.090144
133666000,0.0324,0.013523,0.002678,0.000431,0.092847
133667000,0.0324,0.013523,0.002678,0.000431,0.070517
133668000,0.0324,0.013523,0.002678,0.000431,0.063230
133669000,0.0324,0.013523,0.002678,0.000431,0.055238
133670000,0.0324,0.013523,0.002678,0.000431,0.044426
133671000,0.0324,0.013523,0.002678,0.000431,0.036199
133672000,0.0324,0.013523,0.002678,0.000431,0.034671
133673000,0.0324,0.013523,0.002678,0.000431,0.032673
133674000,0.0324,0.013523,0.002678,0.000431,0.028794
133675000,0.0324,0.013523,0.002678,0.000431,0.023741
133676000,0.0324,0.013523,0.002678,0.000431,0.023036
133677000,0.0324,0.013523,0.002678,0.000431,0.015396
133678000,0.0324,0.013523,0.002678,0.000431,0.014809
133679000,0.0324,0.013523,0.002678,0.000431,0.018805
133680000,0.0324,0.013523,0.002678,0.000431,0.012928
133681000,0.0324,0.013523,0.002678,0.000431,0.021625
133682000,0.0324,0.013523,0.002678,0.000431,0.011988
133683000,0.0324,0.013523,0.002678,0.000431,0.009872
133684000,0.0324,0.013523,0.002678,0.000431,0.013633
133685000,0.0324,0.013523,0.002678,0.000431,0.006817
133686000,0.0324,0.013523,0.002678,0.000431,0.006229
133687000,0.0324,0.013523,0.002678,0.000431,0.005994
133688000,0.0324,0.013523,0.002678,0.000431,0.007404
133689000,0.0324,0.013523,0.002678,0.000431,0.006347
133690000,0.0324,0.013523,0.002678,0.000431,0.004349
133691000,0.0324,0.013523,0.002678,0.000431,0.003996
133692000,0.0324,0.013523,0.002678,0.000431,0.004113
133693000,0.0324,0.013523,0.002678,0.000431,0.007052
133694000,0.0324,0.013523,0.002678,0.000431,0.002703
133695000,0.0324,0.013523,0.002678,0.000431,0.003643
133696000,0.0324,0.013523,0.002678,0.000431,0.002938
133697000,0.0324,0.013523,0.002678,0.000431,0.002938
133698000,0.0324,0.013523,0.002678,0.000431,0.003173
133699000,0.0324,0.013523,0.002678,0.000431,0.002821
133700000,0.0324,0.013523,0.002678,0.000431,0.002703
133701000,0.0324,0.013523,0.002678,0.000431,0.002468
133702000,0.0324,0.013523,0.002678,0.000431,0.002586
133703000,0.0324,0.013523,0.002678,0.000431,0.002586
133704000,0.0324,0.013523,0.002678,0.000431,0.002821
133705000,0.0324,0.013523,0.002678,0.000431,0.002703
133706000,0.0324,0.013523,0.002678,0.000431,0.005641
133707000,0.0324,0.013523,0.002678,0.000431,0.001645
133708000,0.0324,0.013523,0.002678,0.000431,0.002938
133709000,0.0324,0.013523,0.002678,0.000431,0.002351
133710000,0.0324,0.013523,0.002678,0.000431,0.000940
133711000,0.0324,0.013523,0.002678,0.000431,0.000940
133712000,0.0324,0.013523,0.002678,0.000431,0.000705
133713000,0.0324,0.013523,0.002678,0.000431,0.000940
133714000,0.0324,0.013523,0.002678,0.000431,0.000940
133715000,0.0324,0.013523,0.002678,0.000431,0.000940
133716000,0.0324,0.013523,0.002678,0.000431,0.000823
133717000,0.0324,0.013523,0.002678,0.000431,0.000940
133718000,0.0324,0.013523,0.002678,0.000431,0.000823
133719000,0.0324,0.013523,0.002678,0.000431,0.000940
133720000,0.0324,0.013523,0.002678,0.000431,0.000940
133721000,0.0324,0.013523,0.002678,0.000431,0.000705
133722000,0.0324,0.013523,0.002678,0.000431,0.000940
133723000,0.0324,0.013523,0.002678,0.000431,0.000940
133724000,0.0324,0.013523,0.002678,0.000431,0.000940
133725000,0.0324,0.013523,0.002678,0.000431,0.000705
133726000,0.0324,0.013523,0.002678,0.000431,0.000940
133727000,0.0324,0.013523,0.002678,0.000431,0.000940
133728000,0.0324,0.013523,0.002678,0.000431,0.000940
133729000,0.0324,0.013523,0.002678,0.000431,0.000705
133730000,0.0324,0.013523,0.002678,0.000431,0.000940
133731000,0.0324,0.013523,0.002678,0.000431,0.000823
133732000,0.0324,0.013523,0.002678,0.000431,0.000823
133733000,0.0324,0.013523,0.002678,0.000431,0.072515
133734000,0.0324,0.013523,0.002678,0.000431,0.869709
133735000,0.0324,0.013523,0.002678,0.000431,0.553910
133736000,0.0324,0.013523,0.002678,0.000431,0.170533
133737000,0.0324,0.013523,0.002678,0.000431,0.275369
133738000,0.0324,0.013523,0.002678,0.000431,0.540042
133739000,0.0324,0.013523,0.002678,0.000431,0.296289
133740000,0.0324,0.013523,0.002678,0.000431,0.260207
133741000,0.0324,0.013523,0.002678,0.000431,0.178055
133742000,0.0324,0.013523,0.002678,0.000431,0.098019
133743000,0.0324,0.013523,0.002678,0.000431,0.555673
133744000,0.0324,0.013523,0.002678,0.000431,0.347766
133745000,0.0324,0.013523,0.002678,0.000431,0.254801
133746000,0.0324,0.013523,0.002678,0.000431,0.234351
133747000,0.0324,0.013523,0.002678,0.000431,0.190748
133748000,0.0324,0.013523,0.002678,0.000431,0.170768
133749000,0.0324,0.013523,0.002678,0.000431,0.145852
133750000,0.0324,0.013523,0.002678,0.000431,0.133982
133751000,0.0324,0.013523,0.002678,0.000431,0.096491
133752000,0.0324,0.013523,0.002678,0.000431,0.087441
133753000,0.0324,0.013523,0.002678,0.000431,0.082505
133754000,0.0324,0.013523,0.002678,0.000431,0.068519
133755000,0.0324,0.013523,0.002678,0.000431,0.046776
133756000,0.0324,0.013523,0.002678,0.000431,0.046306
133757000,0.0324,0.013523,0.002678,0.000431,0.041370
133758000,0.0324,0.013523,0.002678,0.000431,0.034318
133759000,0.0324,0.013523,0.002678,0.000431,0.027854
133760000,0.0324,0.013523,0.002678,0.000431,0.019980
133761000,0.0324,0.013523,0.002678,0.000431,0.022918
133762000,0.0324,0.013523,0.002678,0.000431,0.013751
133763000,0.0324,0.013523,0.002678,0.000431,0.015514
133764000,0.0324,0.013523,0.002678,0.000431,0.013163
133765000,0.0324,0.013523,0.002678,0.000431,0.009755
133766000,0.0324,0.013523,0.002678,0.000431,0.012458
133767000,0.0324,0.013523,0.002678,0.000431,0.003526
133768000,0.0324,0.013523,0.002678,0.000431,0.003408
133769000,0.0324,0.013523,0.002678,0.000431,0.003056
133770000,0.0324,0.013523,0.002678,0.000431,0.000940
133771000,0.0324,0.013523,0.002678,0.000431,0.000940
133772000,0.0324,0.013523,0.002678,0.000431,0.000705
133773000,0.0324,0.013523,0.002678,0.000431,0.001528
133774000,0.0324,0.013523,0.002678,0.000431,0.322027
133775000,0.0324,0.013523,0.002678,0.000431,0.846791
133776000,0.0324,0.013523,0.002678,0.000431,0.389959
133777000,0.0324,0.013523,0.002678,0.000431,0.143619
133778000,0.0324,0.013523,0.002678,0.000431,0.586701
133779000,0.0324,0.013523,0.002678,0.000431,0.306161
133780000,0.0324,0.013523,0.002678,0.000431,0.315093
133781000,0.0324,0.013523,0.002678,0.000431,0.198623
133782000,0.0324,0.013523,0.002678,0.000431,0.143384
133783000,0.0324,0.013523,0.002678,0.000431,0.199798
133784000,0.0324,0.013523,0.002678,0.000431,0.567896
133785000,0.0324,0.013523,0.002678,0.000431,0.334015
133786000,0.0324,0.013523,0.002678,0.000431,0.269375
133787000,0.0324,0.013523,0.002678,0.000431,0.241755
133788000,0.0324,0.013523,0.002678,0.000431,0.213549
133789000,0.0324,0.013523,0.002678,0.000431,0.174999
133790000,0.0324,0.013523,0.002678,0.000431,0.151376
133791000,0.0324,0.013523,0.002678,0.000431,0.126460
133792000,0.0324,0.013523,0.002678,0.000431,0.124110
133793000,0.0324,0.013523,0.002678,0.000431,0.110241
133794000,0.0324,0.013523,0.002678,0.000431,0.104953
133795000,0.0324,0.013523,0.002678,0.000431,0.097783
133796000,0.0324,0.013523,0.002678,0.000431,0.074865
133797000,0.0324,0.013523,0.002678,0.000431,0.065816
133798000,0.0324,0.013523,0.002678,0.000431,0.066756
133799000,0.0324,0.013523,0.002678,0.000431,0.041487
133800000,0.0324,0.013523,0.002678,0.000431,0.045483
133801000,0.0324,0.013523,0.002678,0.000431,0.048422
133802000,0.0324,0.013523,0.002678,0.000431,0.037256
133803000,0.0324,0.013523,0.002678,0.000431,0.031850
133804000,0.0324,0.013523,0.002678,0.000431,0.036199
133805000,0.0324,0.013523,0.002678,0.000431,0.026914
133806000,0.0324,0.013523,0.002678,0.000431,0.025504
133807000,0.0324,0.013523,0.002678,0.000431,0.017864
133808000,0.0324,0.013523,0.002678,0.000431,0.016689
133809000,0.0324,0.013523,0.002678,0.000431,0.010107
133810000,0.0324,0.013523,0.002678,0.000431,0.009872
133811000,0.0324,0.013523,0.002678,0.000431,0.009285
133812000,0.0324,0.013523,0.002678,0.000431,0.015866
133813000,0.0324,0.013523,0.002678,0.000431,0.006111
133814000,0.0324,0.013523,0.002678,0.000431,0.005054
133815000,0.0324,0.013523,0.002678,0.000431,0.005994
133816000,0.0324,0.013523,0.002678,0.000431,0.002586
133817000,0.0324,0.013523,0.002678,0.000431,0.002586
133818000,0.0324,0.013523,0.002678,0.000431,0.002586
133819000,0.0324,0.013523,0.002678,0.000431,0.006817
133820000,0.0324,0.013523,0.002678,0.000431,0.000940
133821000,0.0324,0.013523,0.002678,0.000431,0.000823
133822000,0.0324,0.013523,0.002678,0.000431,0.000940
133823000,0.0324,0.013523,0.002678,0.000431,0.000705
133824000,0.0324,0.013523,0.002678,0.000431,0.000940
133825000,0.0324,0.013523,0.002678,0.000431,0.000705
133826000,0.0324,0.013523,0.002678,0.000431,0.000940
133827000,0.0324,0.013523,0.002678,0.000431,0.000705
133828000,0.0324,0.013523,0.002678,0.000431,0.000940
133829000,0.0324,0.013523,0.002678,0.000431,0.000705
133830000,0.0324,0.013523,0.002678,0.000431,0.000940
133831000,0.0324,0.013523,0.002678,0.000431,0.000705
133832000,0.0324,0.013523,0.002678,0.000431,0.002821
133833000,0.0324,0.013523,0.002678,0.000431,0.422631
133834000,0.0324,0.013523,0.002678,0.000431,0.827046
133835000,0.0324,0.013523,0.002678,0.000431,0.347061
133836000,0.0324,0.013523,0.002678,0.000431,0.161954
133837000,0.0324,0.013523,0.002678,0.000431,0.559317
133838000,0.0324,0.013523,0.002678,0.000431,0.267142
133839000,0.0324,0.013523,0.002678,0.000431,0.342830
133840000,0.0324,0.013523,0.002678,0.000431,0.181111
133841000,0.0324,0.013523,0.002678,0.000431,0.155725
133842000,0.0324,0.013523,0.002678,0.000431,0.178525
133843000,0.0324,0.013523,0.002678,0.000431,0.573890
133844000,0.0324,0.013523,0.002678,0.000431,0.323203
133845000,0.0324,0.013523,0.002678,0.000431,0.265849
133846000,0.0324,0.013523,0.002678,0.000431,0.213196
133847000,0.0324,0.013523,0.002678,0.000431,0.206850
133848000,0.0324,0.013523,0.002678,0.000431,0.171591
133849000,0.0324,0.013523,0.002678,0.000431,0.145147
133850000,0.0324,0.013523,0.002678,0.000431,0.132572
133851000,0.0324,0.013523,0.002678,0.000431,0.128928
133852000,0.0324,0.013523,0.002678,0.000431,0.113885
133853000,0.0324,0.013523,0.002678,0.000431,0.096256
133854000,0.0324,0.013523,0.002678,0.000431,0.083445
133855000,0.0324,0.013523,0.002678,0.000431,0.078509
133856000,0.0324,0.013523,0.002678,0.000431,0.071222
133857000,0.0324,0.013523,0.002678,0.000431,0.065463
133858000,0.0324,0.013523,0.002678,0.000431,0.055238
133859000,0.0324,0.013523,0.002678,0.000431,0.049009
133860000,0.0324,0.013523,0.002678,0.000431,0.042780
133861000,0.0324,0.013523,0.002678,0.000431,0.034671
133862000,0.0324,0.013523,0.002678,0.000431,0.032438
133863000,0.0324,0.013523,0.002678,0.000431,0.030087
133864000,0.0324,0.013523,0.002678,0.000431,0.021155
133865000,0.0324,0.013523,0.002678,0.000431,0.026091
133866000,0.0324,0.013523,0.002678,0.000431,0.020685
133867000,0.0324,0.013523,0.002678,0.000431,0.018334
133868000,0.0324,0.013523,0.002678,0.000431,0.018452
133869000,0.0324,0.013523,0.002678,0.000431,0.024093
133870000,0.0324,0.013523,0.002678,0.000431,0.012693
133871000,0.0324,0.013523,0.002678,0.000431,0.011635
133872000,0.0324,0.013523,0.002678,0.000431,0.009755
133873000,0.0324,0.013523,0.002678,0.000431,0.012105
133874000,0.0324,0.013523,0.002678,0.000431,0.014691
133875000,0.0324,0.013523,0.002678,0.000431,0.007169
133876000,0.0324,0.013523,0.002678,0.000431,0.007522
133877000,0.0324,0.013523,0.002678,0.000431,0.007169
133878000,0.0324,0.013523,0.002678,0.000431,0.006699
133879000,0.0324,0.013523,0.002678,0.000431,0.007287
133880000,0.0324,0.013523,0.002678,0.000431,0.006347
133881000,0.0324,0.013523,0.002678,0.000431,0.007522
133882000,0.0324,0.013523,0.002678,0.000431,0.006464
133883000,0.0324,0.013523,0.002678,0.000431,0.006111
133884000,0.0324,0.013523,0.002678,0.000431,0.006934
133885000,0.0324,0.013523,0.002678,0.000431,0.005054
133886000,0.0324,0.013523,0.002678,0.000431,0.004231
133887000,0.0324,0.013523,0.002678,0.000431,0.007522
133888000,0.0324,0.013523,0.002678,0.000431,0.003173
133889000,0.0324,0.013523,0.002678,0.000431,0.003408
133890000,0.0324,0.013523,0.002678,0.000431,0.003408
133891000,0.0324,0.013523,0.002678,0.000431,0.003408
133892000,0.0324,0.013523,0.002678,0.000431,0.003291
133893000,0.0324,0.013523,0.002678,0.000431,0.002821
133894000,0.0324,0.013523,0.002678,0.000431,0.003643
133895000,0.0324,0.013523,0.002678,0.000431,0.002938
133896000,0.0324,0.013523,0.002678,0.000431,0.003173
133897000,0.0324,0.013523,0.002678,0.000431,0.003526
133898000,0.0324,0.013523,0.002678,0.000431,0.003056
133899000,0.0324,0.013523,0.002678,0.000431,0.003291
133900000,0.0324,0.013523,0.002678,0.000431,0.003408
133901000,0.0324,0.013523,0.002678,0.000431,0.002703
133902000,0.0324,0.013523,0.002678,0.000431,0.003526
133903000,0.0324,0.013523,0.002678,0.000431,0.002821
133904000,0.0324,0.013523,0.002678,0.000431,0.003526
133905000,0.0324,0.013523,0.002678,0.000431,0.003173
133906000,0.0324,0.013523,0.002678,0.000431,0.002938
133907000,0.0324,0.013523,0.002678,0.000431,0.003526
133908000,0.0324,0.013523,0.002678,0.000431,0.003408
133909000,0.0324,0.013523,0.002678,0.000431,0.002938
133910000,0.0324,0.013523,0.002678,0.000431,0.003291
133911000,0.0324,0.013523,0.002678,0.000431,0.003173
133912000,0.0324,0.013523,0.002678,0.000431,0.007757
133913000,0.0324,0.013523,0.002678,0.000431,0.004231
133914000,0.0324,0.013523,0.002678,0.000431,0.000823
133915000,0.0324,0.013523,0.002678,0.000431,0.084620
133916000,0.0324,0.013523,0.002678,0.000431,0.865830
133917000,0.0324,0.013523,0.002678,0.000431,0.550737
133918000,0.0324,0.013523,0.002678,0.000431,0.161954
133919000,0.0324,0.013523,0.002678,0.000431,0.329431
133920000,0.0324,0.013523,0.002678,0.000431,0.522883
133921000,0.0324,0.013523,0.002678,0.000431,0.270902
133922000,0.0324,0.013523,0.002678,0.000431,0.289942
133923000,0.0324,0.013523,0.002678,0.000431,0.171944
133924000,0.0324,0.013523,0.002678,0.000431,0.111064
133925000,0.0324,0.013523,0.002678,0.000431,0.495851
133926000,0.0324,0.013523,0.002678,0.000431,0.413112
133927000,0.0324,0.013523,0.002678,0.000431,0.283243
133928000,0.0324,0.013523,0.002678,0.000431,0.246809
133929000,0.0324,0.013523,0.002678,0.000431,0.213431
133930000,0.0324,0.013523,0.002678,0.000431,0.168418
133931000,0.0324,0.013523,0.002678,0.000431,0.162424
133932000,0.0324,0.013523,0.002678,0.000431,0.134335
133933000,0.0324,0.013523,0.002678,0.000431,0.130574
133934000,0.0324,0.013523,0.002678,0.000431,0.105540
133935000,0.0324,0.013523,0.002678,0.000431,0.082387
133936000,0.0324,0.013523,0.002678,0.000431,0.062525
133937000,0.0324,0.013523,0.002678,0.000431,0.066991
133938000,0.0324,0.013523,0.002678,0.000431,0.048069
133939000,0.0324,0.013523,0.002678,0.000431,0.034906
133940000,0.0324,0.013523,0.002678,0.000431,0.042780
133941000,0.0324,0.013523,0.002678,0.000431,0.036551
133942000,0.0324,0.013523,0.002678,0.000431,0.031027
133943000,0.0324,0.013523,0.002678,0.000431,0.035494
133944000,0.0324,0.013523,0.002678,0.000431,0.017629
133945000,0.0324,0.013523,0.002678,0.000431,0.017512
133946000,0.0324,0.013523,0.002678,0.000431,0.013516
133947000,0.0324,0.013523,0.002678,0.000431,0.015749
133948000,0.0324,0.013523,0.002678,0.000431,0.012693
133949000,0.0324,0.013523,0.002678,0.000431,0.012458
133950000,0.0324,0.013523,0.002678,0.000431,0.008932
133951000,0.0324,0.013523,0.002678,0.000431,0.011283
133952000,0.0324,0.013523,0.002678,0.000431,0.006934
133953000,0.0324,0.013523,0.002678,0.000431,0.009990
133954000,0.0324,0.013523,0.002678,0.000431,0.004936
133955000,0.0324,0.013523,0.002678,0.000431,0.005406
133956000,0.0324,0.013523,0.002678,0.000431,0.004349
133957000,0.0324,0.013523,0.002678,0.000431,0.006111
133958000,0.0324,0.013523,0.002678,0.000431,0.005994
133959000,0.0324,0.013523,0.002678,0.000431,0.003173
133960000,0.0324,0.013523,0.002678,0.000431,0.003878
133961000,0.0324,0.013523,0.002678,0.000431,0.005171
133962000,0.0324,0.013523,0.002678,0.000431,0.004701
133963000,0.0324,0.013523,0.002678,0.000431,0.003643
133964000,0.0324,0.013523,0.002678,0.000431,0.003291
133965000,0.0324,0.013523,0.002678,0.000431,0.006347
133966000,0.0324,0.013523,0.002678,0.000431,0.007287
133967000,0.0324,0.013523,0.002678,0.000431,0.758292
133968000,0.0324,0.013523,0.002678,0.000431,0.666502
133969000,0.0324,0.013523,0.002678,0.000431,0.233528
133970000,0.0324,0.013523,0.002678,0.000431,0.191806
133971000,0.0324,0.013523,0.002678,0.000431,0.607151
133972000,0.0324,0.013523,0.002678,0.000431,0.309452
133973000,0.0324,0.013523,0.002678,0.000431,0.316268
133974000,0.0324,0.013523,0.002678,0.000431,0.165362
133975000,0.0324,0.013523,0.002678,0.000431,0.103190
133976000,0.0324,0.013523,0.002678,0.000431,0.401006
133977000,0.0324,0.013523,0.002678,0.000431,0.489035
133978000,0.0324,0.013523,0.002678,0.000431,0.262911
133979000,0.0324,0.013523,0.002678,0.000431,0.222011
133980000,0.0324,0.013523,0.002678,0.000431,0.218485
133981000,0.0324,0.013523,0.002678,0.000431,0.171121
133982000,0.0324,0.013523,0.002678,0.000431,0.153609
133983000,0.0324,0.013523,0.002678,0.000431,0.117646
133984000,0.0324,0.013523,0.002678,0.000431,0.104835
133985000,0.0324,0.013523,0.002678,0.000431,0.080389
133986000,0.0324,0.013523,0.002678,0.000431,0.061350
133987000,0.0324,0.013523,0.002678,0.000431,0.063700
133988000,0.0324,0.013523,0.002678,0.000431,0.065933
133989000,0.0324,0.013523,0.002678,0.000431,0.058882
133990000,0.0324,0.013523,0.002678,0.000431,0.044073
133991000,0.0324,0.013523,0.002678,0.000431,0.040547
133992000,0.0324,0.013523,0.002678,0.000431,0.043838
133993000,0.0324,0.013523,0.002678,0.000431,0.033966
133994000,0.0324,0.013523,0.002678,0.000431,0.018805
133995000,0.0324,0.013523,0.002678,0.000431,0.025504
133996000,0.0324,0.013523,0.002678,0.000431,0.033613
133997000,0.0324,0.013523,0.002678,0.000431,0.013046
133998000,0.0324,0.013523,0.002678,0.000431,0.012928
133999000,0.0324,0.013523,0.002678,0.000431,0.008227
