Cycle,Area(mm^2),PeakDynamic(W),SubthresholdLeakage(W),GateLeakage(W),RunTimeDynamic(W)
45000000,0.0324,0.013523,0.002678,0.000431,0.102367
45001000,0.0324,0.013523,0.002678,0.000431,0.524293
45002000,0.0324,0.013523,0.002678,0.000431,0.670851
45003000,0.0324,0.013523,0.002678,0.000431,0.333663
45004000,0.0324,0.013523,0.002678,0.000431,0.263028
45005000,0.0324,0.013523,0.002678,0.000431,0.245399
45006000,0.0324,0.013523,0.002678,0.000431,0.169593
45007000,0.0324,0.013523,0.002678,0.000431,0.128106
45008000,0.0324,0.013523,0.002678,0.000431,0.088969
45009000,0.0324,0.013523,0.002678,0.000431,0.092847
45010000,0.0324,0.013523,0.002678,0.000431,0.066051
45011000,0.0324,0.013523,0.002678,0.000431,0.037609
45012000,0.0324,0.013523,0.002678,0.000431,0.034671
45013000,0.0324,0.013523,0.002678,0.000431,0.017629
45014000,0.0324,0.013523,0.002678,0.000431,0.024681
45015000,0.0324,0.013523,0.002678,0.000431,0.007874
45016000,0.0324,0.013523,0.002678,0.000431,0.021625
45017000,0.0324,0.013523,0.002678,0.000431,0.002703
45018000,0.0324,0.013523,0.002678,0.000431,0.008227
45019000,0.0324,0.013523,0.002678,0.000431,0.000940
45020000,0.0324,0.013523,0.002678,0.000431,0.000940
45021000,0.0324,0.013523,0.002678,0.000431,0.000705
45022000,0.0324,0.013523,0.002678,0.000431,0.003173
45023000,0.0324,0.013523,0.002678,0.000431,0.656395
45024000,0.0324,0.013523,0.002678,0.000431,0.874762
45025000,0.0324,0.013523,0.002678,0.000431,0.413112
45026000,0.0324,0.013523,0.002678,0.000431,0.221776
45027000,0.0324,0.013523,0.002678,0.000431,0.571422
45028000,0.0324,0.013523,0.002678,0.000431,0.333075
45029000,0.0324,0.013523,0.002678,0.000431,0.343182
45030000,0.0324,0.013523,0.002678,0.000431,0.168535
45031000,0.0324,0.013523,0.002678,0.000431,0.088969
45032000,0.0324,0.013523,0.002678,0.000431,0.487389
45033000,0.0324,0.013523,0.002678,0.000431,0.496086
45034000,0.0324,0.013523,0.002678,0.000431,0.270315
45035000,0.0324,0.013523,0.002678,0.000431,0.227887
45036000,0.0324,0.013523,0.002678,0.000431,0.180641
45037000,0.0324,0.013523,0.002678,0.000431,0.155020
45038000,0.0324,0.013523,0.002678,0.000431,0.124580
45039000,0.0324,0.013523,0.002678,0.000431,0.097431
45040000,0.0324,0.013523,0.002678,0.000431,0.074160
45041000,0.0324,0.013523,0.002678,0.000431,0.052653
45042000,0.0324,0.013523,0.002678,0.000431,0.043956
45043000,0.0324,0.013523,0.002678,0.000431,0.038902
45044000,0.0324,0.013523,0.002678,0.000431,0.041605
45045000,0.0324,0.013523,0.002678,0.000431,0.040782
45046000,0.0324,0.013523,0.002678,0.000431,0.029500
45047000,0.0324,0.013523,0.002678,0.000431,0.020920
45048000,0.0324,0.013523,0.002678,0.000431,0.020215
45049000,0.0324,0.013523,0.002678,0.000431,0.019745
45050000,0.0324,0.013523,0.002678,0.000431,0.008109
45051000,0.0324,0.013523,0.002678,0.000431,0.010342
45052000,0.0324,0.013523,0.002678,0.000431,0.003878
45053000,0.0324,0.013523,0.002678,0.000431,0.004466
45054000,0.0324,0.013523,0.002678,0.000431,0.006817
45055000,0.0324,0.013523,0.002678,0.000431,0.003056
45056000,0.0324,0.013523,0.002678,0.000431,0.006817
45057000,0.0324,0.013523,0.002678,0.000431,0.002468
45058000,0.0324,0.013523,0.002678,0.000431,0.004936
45059000,0.0324,0.013523,0.002678,0.000431,0.001763
45060000,0.0324,0.013523,0.002678,0.000431,0.001645
45061000,0.0324,0.013523,0.002678,0.000431,0.001528
45062000,0.0324,0.013523,0.002678,0.000431,0.001763
45063000,0.0324,0.013523,0.002678,0.000431,0.001528
45064000,0.0324,0.013523,0.002678,0.000431,0.001763
45065000,0.0324,0.013523,0.002678,0.000431,0.004936
45066000,0.0324,0.013523,0.002678,0.000431,0.422044
45067000,0.0324,0.013523,0.002678,0.000431,0.922949
45068000,0.0324,0.013523,0.002678,0.000431,0.332840
45069000,0.0324,0.013523,0.002678,0.000431,0.135628
45070000,0.0324,0.013523,0.002678,0.000431,0.483041
45071000,0.0324,0.013523,0.002678,0.000431,0.320969
45072000,0.0324,0.013523,0.002678,0.000431,0.280422
45073000,0.0324,0.013523,0.002678,0.000431,0.267494
45074000,0.0324,0.013523,0.002678,0.000431,0.145500
45075000,0.0324,0.013523,0.002678,0.000431,0.135157
45076000,0.0324,0.013523,0.002678,0.000431,0.310157
45077000,0.0324,0.013523,0.002678,0.000431,0.493736
45078000,0.0324,0.013523,0.002678,0.000431,0.231413
45079000,0.0324,0.013523,0.002678,0.000431,0.204029
45080000,0.0324,0.013523,0.002678,0.000431,0.168418
45081000,0.0324,0.013523,0.002678,0.000431,0.139623
45082000,0.0324,0.013523,0.002678,0.000431,0.108831
45083000,0.0324,0.013523,0.002678,0.000431,0.091084
45084000,0.0324,0.013523,0.002678,0.000431,0.082740
45085000,0.0324,0.013523,0.002678,0.000431,0.067579
45086000,0.0324,0.013523,0.002678,0.000431,0.068519
45087000,0.0324,0.013523,0.002678,0.000431,0.045836
45088000,0.0324,0.013523,0.002678,0.000431,0.037727
45089000,0.0324,0.013523,0.002678,0.000431,0.029265
45090000,0.0324,0.013523,0.002678,0.000431,0.019862
45091000,0.0324,0.013523,0.002678,0.000431,0.020567
45092000,0.0324,0.013523,0.002678,0.000431,0.009520
45093000,0.0324,0.013523,0.002678,0.000431,0.006111
45094000,0.0324,0.013523,0.002678,0.000431,0.009050
45095000,0.0324,0.013523,0.002678,0.000431,0.003408
45096000,0.0324,0.013523,0.002678,0.000431,0.008697
45097000,0.0324,0.013523,0.002678,0.000431,0.006111
45098000,0.0324,0.013523,0.002678,0.000431,0.000823
45099000,0.0324,0.013523,0.002678,0.000431,0.000705
45100000,0.0324,0.013523,0.002678,0.000431,0.000940
45101000,0.0324,0.013523,0.002678,0.000431,0.000940
45102000,0.0324,0.013523,0.002678,0.000431,0.072397
45103000,0.0324,0.013523,0.002678,0.000431,0.785441
45104000,0.0324,0.013523,0.002678,0.000431,0.558141
45105000,0.0324,0.013523,0.002678,0.000431,0.149613
45106000,0.0324,0.013523,0.002678,0.000431,0.224714
45107000,0.0324,0.013523,0.002678,0.000431,0.561550
45108000,0.0324,0.013523,0.002678,0.000431,0.322262
45109000,0.0324,0.013523,0.002678,0.000431,0.297934
45110000,0.0324,0.013523,0.002678,0.000431,0.159721
45111000,0.0324,0.013523,0.002678,0.000431,0.095903
45112000,0.0324,0.013523,0.002678,0.000431,0.422044
45113000,0.0324,0.013523,0.002678,0.000431,0.486449
45114000,0.0324,0.013523,0.002678,0.000431,0.293820
45115000,0.0324,0.013523,0.002678,0.000431,0.241403
45116000,0.0324,0.013523,0.002678,0.000431,0.209670
45117000,0.0324,0.013523,0.002678,0.000431,0.149848
45118000,0.0324,0.013523,0.002678,0.000431,0.109184
45119000,0.0324,0.013523,0.002678,0.000431,0.102602
45120000,0.0324,0.013523,0.002678,0.000431,0.086736
45121000,0.0324,0.013523,0.002678,0.000431,0.060645
45122000,0.0324,0.013523,0.002678,0.000431,0.042663
45123000,0.0324,0.013523,0.002678,0.000431,0.038549
45124000,0.0324,0.013523,0.002678,0.000431,0.029265
45125000,0.0324,0.013523,0.002678,0.000431,0.029265
45126000,0.0324,0.013523,0.002678,0.000431,0.013868
45127000,0.0324,0.013523,0.002678,0.000431,0.024798
45128000,0.0324,0.013523,0.002678,0.000431,0.016807
45129000,0.0324,0.013523,0.002678,0.000431,0.012576
45130000,0.0324,0.013523,0.002678,0.000431,0.010695
45131000,0.0324,0.013523,0.002678,0.000431,0.013751
45132000,0.0324,0.013523,0.002678,0.000431,0.006229
45133000,0.0324,0.013523,0.002678,0.000431,0.001763
45134000,0.0324,0.013523,0.002678,0.000431,0.001293
45135000,0.0324,0.013523,0.002678,0.000431,0.003643
45136000,0.0324,0.013523,0.002678,0.000431,0.679665
45137000,0.0324,0.013523,0.002678,0.000431,0.757117
45138000,0.0324,0.013523,0.002678,0.000431,0.155137
45139000,0.0324,0.013523,0.002678,0.000431,0.140799
45140000,0.0324,0.013523,0.002678,0.000431,0.576593
45141000,0.0324,0.013523,0.002678,0.000431,0.256564
45142000,0.0324,0.013523,0.002678,0.000431,0.282068
45143000,0.0324,0.013523,0.002678,0.000431,0.158428
45144000,0.0324,0.013523,0.002678,0.000431,0.149613
45145000,0.0324,0.013523,0.002678,0.000431,0.236584
45146000,0.0324,0.013523,0.002678,0.000431,0.576241
45147000,0.0324,0.013523,0.002678,0.000431,0.254566
45148000,0.0324,0.013523,0.002678,0.000431,0.209788
45149000,0.0324,0.013523,0.002678,0.000431,0.167713
45150000,0.0324,0.013523,0.002678,0.000431,0.122347
45151000,0.0324,0.013523,0.002678,0.000431,0.114237
45152000,0.0324,0.013523,0.002678,0.000431,0.074630
45153000,0.0324,0.013523,0.002678,0.000431,0.052535
45154000,0.0324,0.013523,0.002678,0.000431,0.049832
45155000,0.0324,0.013523,0.002678,0.000431,0.036551
45156000,0.0324,0.013523,0.002678,0.000431,0.029500
45157000,0.0324,0.013523,0.002678,0.000431,0.021038
45158000,0.0324,0.013523,0.002678,0.000431,0.029970
45159000,0.0324,0.013523,0.002678,0.000431,0.012340
45160000,0.0324,0.013523,0.002678,0.000431,0.007169
45161000,0.0324,0.013523,0.002678,0.000431,0.011048
45162000,0.0324,0.013523,0.002678,0.000431,0.005759
45163000,0.0324,0.013523,0.002678,0.000431,0.009285
45164000,0.0324,0.013523,0.002678,0.000431,0.004819
45165000,0.0324,0.013523,0.002678,0.000431,0.004701
45166000,0.0324,0.013523,0.002678,0.000431,0.004701
45167000,0.0324,0.013523,0.002678,0.000431,0.005876
45168000,0.0324,0.013523,0.002678,0.000431,0.005054
45169000,0.0324,0.013523,0.002678,0.000431,0.004113
45170000,0.0324,0.013523,0.002678,0.000431,0.005994
45171000,0.0324,0.013523,0.002678,0.000431,0.002586
45172000,0.0324,0.013523,0.002678,0.000431,0.006229
45173000,0.0324,0.013523,0.002678,0.000431,0.002821
45174000,0.0324,0.013523,0.002678,0.000431,0.002821
45175000,0.0324,0.013523,0.002678,0.000431,0.000823
45176000,0.0324,0.013523,0.002678,0.000431,0.001175
45177000,0.0324,0.013523,0.002678,0.000431,0.003056
45178000,0.0324,0.013523,0.002678,0.000431,0.660391
45179000,0.0324,0.013523,0.002678,0.000431,0.727147
45180000,0.0324,0.013523,0.002678,0.000431,0.169946
45181000,0.0324,0.013523,0.002678,0.000431,0.142797
45182000,0.0324,0.013523,0.002678,0.000431,0.595280
45183000,0.0324,0.013523,0.002678,0.000431,0.252098
45184000,0.0324,0.013523,0.002678,0.000431,0.348001
45185000,0.0324,0.013523,0.002678,0.000431,0.163599
45186000,0.0324,0.013523,0.002678,0.000431,0.165127
45187000,0.0324,0.013523,0.002678,0.000431,0.166302
45188000,0.0324,0.013523,0.002678,0.000431,0.547916
45189000,0.0324,0.013523,0.002678,0.000431,0.232001
45190000,0.0324,0.013523,0.002678,0.000431,0.185695
45191000,0.0324,0.013523,0.002678,0.000431,0.174059
45192000,0.0324,0.013523,0.002678,0.000431,0.136450
45193000,0.0324,0.013523,0.002678,0.000431,0.102367
45194000,0.0324,0.013523,0.002678,0.000431,0.091790
45195000,0.0324,0.013523,0.002678,0.000431,0.052418
45196000,0.0324,0.013523,0.002678,0.000431,0.051830
45197000,0.0324,0.013523,0.002678,0.000431,0.034201
45198000,0.0324,0.013523,0.002678,0.000431,0.023388
45199000,0.0324,0.013523,0.002678,0.000431,0.025974
45200000,0.0324,0.013523,0.002678,0.000431,0.024446
45201000,0.0324,0.013523,0.002678,0.000431,0.020802
45202000,0.0324,0.013523,0.002678,0.000431,0.017982
45203000,0.0324,0.013523,0.002678,0.000431,0.016101
45204000,0.0324,0.013523,0.002678,0.000431,0.005289
45205000,0.0324,0.013523,0.002678,0.000431,0.002116
45206000,0.0324,0.013523,0.002678,0.000431,0.000940
45207000,0.0324,0.013523,0.002678,0.000431,0.101074
45208000,0.0324,0.013523,0.002678,0.000431,0.793903
45209000,0.0324,0.013523,0.002678,0.000431,0.494441
45210000,0.0324,0.013523,0.002678,0.000431,0.136803
45211000,0.0324,0.013523,0.002678,0.000431,0.279600
45212000,0.0324,0.013523,0.002678,0.000431,0.402181
45213000,0.0324,0.013523,0.002678,0.000431,0.264438
45214000,0.0324,0.013523,0.002678,0.000431,0.253626
45215000,0.0324,0.013523,0.002678,0.000431,0.150671
45216000,0.0324,0.013523,0.002678,0.000431,0.180641
45217000,0.0324,0.013523,0.002678,0.000431,0.133982
45218000,0.0324,0.013523,0.002678,0.000431,0.563195
45219000,0.0324,0.013523,0.002678,0.000431,0.222716
45220000,0.0324,0.013523,0.002678,0.000431,0.192864
45221000,0.0324,0.013523,0.002678,0.000431,0.147850
45222000,0.0324,0.013523,0.002678,0.000431,0.116470
45223000,0.0324,0.013523,0.002678,0.000431,0.091202
45224000,0.0324,0.013523,0.002678,0.000431,0.073925
45225000,0.0324,0.013523,0.002678,0.000431,0.061467
45226000,0.0324,0.013523,0.002678,0.000431,0.059234
45227000,0.0324,0.013523,0.002678,0.000431,0.042193
45228000,0.0324,0.013523,0.002678,0.000431,0.020802
45229000,0.0324,0.013523,0.002678,0.000431,0.021155
45230000,0.0324,0.013523,0.002678,0.000431,0.013281
45231000,0.0324,0.013523,0.002678,0.000431,0.016807
45232000,0.0324,0.013523,0.002678,0.000431,0.007052
45233000,0.0324,0.013523,0.002678,0.000431,0.005406
45234000,0.0324,0.013523,0.002678,0.000431,0.003996
45235000,0.0324,0.013523,0.002678,0.000431,0.005054
45236000,0.0324,0.013523,0.002678,0.000431,0.001880
45237000,0.0324,0.013523,0.002678,0.000431,0.003878
45238000,0.0324,0.013523,0.002678,0.000431,0.000823
45239000,0.0324,0.013523,0.002678,0.000431,0.000823
45240000,0.0324,0.013523,0.002678,0.000431,0.000823
45241000,0.0324,0.013523,0.002678,0.000431,0.000705
45242000,0.0324,0.013523,0.002678,0.000431,0.000823
45243000,0.0324,0.013523,0.002678,0.000431,0.003408
45244000,0.0324,0.013523,0.002678,0.000431,0.603507
45245000,0.0324,0.013523,0.002678,0.000431,0.710458
45246000,0.0324,0.013523,0.002678,0.000431,0.150319
45247000,0.0324,0.013523,0.002678,0.000431,0.139976
45248000,0.0324,0.013523,0.002678,0.000431,0.535458
45249000,0.0324,0.013523,0.002678,0.000431,0.261148
45250000,0.0324,0.013523,0.002678,0.000431,0.381496
45251000,0.0324,0.013523,0.002678,0.000431,0.156077
45252000,0.0324,0.013523,0.002678,0.000431,0.124462
45253000,0.0324,0.013523,0.002678,0.000431,0.264909
45254000,0.0324,0.013523,0.002678,0.000431,0.480925
45255000,0.0324,0.013523,0.002678,0.000431,0.201678
45256000,0.0324,0.013523,0.002678,0.000431,0.173472
45257000,0.0324,0.013523,0.002678,0.000431,0.153257
45258000,0.0324,0.013523,0.002678,0.000431,0.120231
45259000,0.0324,0.013523,0.002678,0.000431,0.096256
45260000,0.0324,0.013523,0.002678,0.000431,0.072280
45261000,0.0324,0.013523,0.002678,0.000431,0.064758
45262000,0.0324,0.013523,0.002678,0.000431,0.043838
45263000,0.0324,0.013523,0.002678,0.000431,0.039607
45264000,0.0324,0.013523,0.002678,0.000431,0.039019
45265000,0.0324,0.013523,0.002678,0.000431,0.020685
45266000,0.0324,0.013523,0.002678,0.000431,0.021038
45267000,0.0324,0.013523,0.002678,0.000431,0.022448
45268000,0.0324,0.013523,0.002678,0.000431,0.023858
45269000,0.0324,0.013523,0.002678,0.000431,0.011988
45270000,0.0324,0.013523,0.002678,0.000431,0.017394
45271000,0.0324,0.013523,0.002678,0.000431,0.009285
45272000,0.0324,0.013523,0.002678,0.000431,0.004231
45273000,0.0324,0.013523,0.002678,0.000431,0.004349
45274000,0.0324,0.013523,0.002678,0.000431,0.007757
45275000,0.0324,0.013523,0.002678,0.000431,0.005759
45276000,0.0324,0.013523,0.002678,0.000431,0.000823
45277000,0.0324,0.013523,0.002678,0.000431,0.000940
45278000,0.0324,0.013523,0.002678,0.000431,0.000823
45279000,0.0324,0.013523,0.002678,0.000431,0.000823
45280000,0.0324,0.013523,0.002678,0.000431,0.000940
45281000,0.0324,0.013523,0.002678,0.000431,0.000705
45282000,0.0324,0.013523,0.002678,0.000431,0.000940
45283000,0.0324,0.013523,0.002678,0.000431,0.000823
45284000,0.0324,0.013523,0.002678,0.000431,0.000823
45285000,0.0324,0.013523,0.002678,0.000431,0.000823
45286000,0.0324,0.013523,0.002678,0.000431,0.000823
45287000,0.0324,0.013523,0.002678,0.000431,0.000940
45288000,0.0324,0.013523,0.002678,0.000431,0.000705
45289000,0.0324,0.013523,0.002678,0.000431,0.000705
45290000,0.0324,0.013523,0.002678,0.000431,0.000940
45291000,0.0324,0.013523,0.002678,0.000431,0.000705
45292000,0.0324,0.013523,0.002678,0.000431,0.000940
45293000,0.0324,0.013523,0.002678,0.000431,0.000705
45294000,0.0324,0.013523,0.002678,0.000431,0.000940
45295000,0.0324,0.013523,0.002678,0.000431,0.000823
45296000,0.0324,0.013523,0.002678,0.000431,0.014338
45297000,0.0324,0.013523,0.002678,0.000431,0.750065
45298000,0.0324,0.013523,0.002678,0.000431,0.550620
45299000,0.0324,0.013523,0.002678,0.000431,0.136803
45300000,0.0324,0.013523,0.002678,0.000431,0.150201
45301000,0.0324,0.013523,0.002678,0.000431,0.539689
45302000,0.0324,0.013523,0.002678,0.000431,0.283713
45303000,0.0324,0.013523,0.002678,0.000431,0.340832
45304000,0.0324,0.013523,0.002678,0.000431,0.150554
45305000,0.0324,0.013523,0.002678,0.000431,0.113297
45306000,0.0324,0.013523,0.002678,0.000431,0.388313
45307000,0.0324,0.013523,0.002678,0.000431,0.386080
45308000,0.0324,0.013523,0.002678,0.000431,0.188515
45309000,0.0324,0.013523,0.002678,0.000431,0.156548
45310000,0.0324,0.013523,0.002678,0.000431,0.146205
45311000,0.0324,0.013523,0.002678,0.000431,0.118468
45312000,0.0324,0.013523,0.002678,0.000431,0.087441
45313000,0.0324,0.013523,0.002678,0.000431,0.069694
45314000,0.0324,0.013523,0.002678,0.000431,0.059469
45315000,0.0324,0.013523,0.002678,0.000431,0.049832
45316000,0.0324,0.013523,0.002678,0.000431,0.042428
45317000,0.0324,0.013523,0.002678,0.000431,0.022800
45318000,0.0324,0.013523,0.002678,0.000431,0.017864
45319000,0.0324,0.013523,0.002678,0.000431,0.016219
45320000,0.0324,0.013523,0.002678,0.000431,0.015161
45321000,0.0324,0.013523,0.002678,0.000431,0.007287
45322000,0.0324,0.013523,0.002678,0.000431,0.008345
45323000,0.0324,0.013523,0.002678,0.000431,0.012928
45324000,0.0324,0.013523,0.002678,0.000431,0.005406
45325000,0.0324,0.013523,0.002678,0.000431,0.004819
45326000,0.0324,0.013523,0.002678,0.000431,0.002468
45327000,0.0324,0.013523,0.002678,0.000431,0.000823
45328000,0.0324,0.013523,0.002678,0.000431,0.000823
45329000,0.0324,0.013523,0.002678,0.000431,0.001058
45330000,0.0324,0.013523,0.002678,0.000431,0.268317
45331000,0.0324,0.013523,0.002678,0.000431,0.771455
45332000,0.0324,0.013523,0.002678,0.000431,0.351409
45333000,0.0324,0.013523,0.002678,0.000431,0.139741
45334000,0.0324,0.013523,0.002678,0.000431,0.504666
45335000,0.0324,0.013523,0.002678,0.000431,0.279835
45336000,0.0324,0.013523,0.002678,0.000431,0.291940
45337000,0.0324,0.013523,0.002678,0.000431,0.205204
45338000,0.0324,0.013523,0.002678,0.000431,0.185107
45339000,0.0324,0.013523,0.002678,0.000431,0.098371
45340000,0.0324,0.013523,0.002678,0.000431,0.529347
45341000,0.0324,0.013523,0.002678,0.000431,0.211903
45342000,0.0324,0.013523,0.002678,0.000431,0.174882
45343000,0.0324,0.013523,0.002678,0.000431,0.139859
45344000,0.0324,0.013523,0.002678,0.000431,0.114355
45345000,0.0324,0.013523,0.002678,0.000431,0.098019
45346000,0.0324,0.013523,0.002678,0.000431,0.081917
45347000,0.0324,0.013523,0.002678,0.000431,0.058059
45348000,0.0324,0.013523,0.002678,0.000431,0.025504
45349000,0.0324,0.013523,0.002678,0.000431,0.018922
45350000,0.0324,0.013523,0.002678,0.000431,0.018334
45351000,0.0324,0.013523,0.002678,0.000431,0.012693
45352000,0.0324,0.013523,0.002678,0.000431,0.005641
45353000,0.0324,0.013523,0.002678,0.000431,0.001763
45354000,0.0324,0.013523,0.002678,0.000431,0.004466
45355000,0.0324,0.013523,0.002678,0.000431,0.000823
45356000,0.0324,0.013523,0.002678,0.000431,0.000823
45357000,0.0324,0.013523,0.002678,0.000431,0.000940
45358000,0.0324,0.013523,0.002678,0.000431,0.000705
45359000,0.0324,0.013523,0.002678,0.000431,0.000940
45360000,0.0324,0.013523,0.002678,0.000431,0.000705
45361000,0.0324,0.013523,0.002678,0.000431,0.000705
45362000,0.0324,0.013523,0.002678,0.000431,0.000940
45363000,0.0324,0.013523,0.002678,0.000431,0.000823
45364000,0.0324,0.013523,0.002678,0.000431,0.000823
45365000,0.0324,0.013523,0.002678,0.000431,0.000940
45366000,0.0324,0.013523,0.002678,0.000431,0.000940
45367000,0.0324,0.013523,0.002678,0.000431,0.000705
45368000,0.0324,0.013523,0.002678,0.000431,0.000940
45369000,0.0324,0.013523,0.002678,0.000431,0.000940
45370000,0.0324,0.013523,0.002678,0.000431,0.000940
45371000,0.0324,0.013523,0.002678,0.000431,0.000705
45372000,0.0324,0.013523,0.002678,0.000431,0.000940
45373000,0.0324,0.013523,0.002678,0.000431,0.000940
45374000,0.0324,0.013523,0.002678,0.000431,0.000823
45375000,0.0324,0.013523,0.002678,0.000431,0.000823
45376000,0.0324,0.013523,0.002678,0.000431,0.000823
45377000,0.0324,0.013523,0.002678,0.000431,0.000823
45378000,0.0324,0.013523,0.002678,0.000431,0.000823
45379000,0.0324,0.013523,0.002678,0.000431,0.000823
45380000,0.0324,0.013523,0.002678,0.000431,0.000940
45381000,0.0324,0.013523,0.002678,0.000431,0.000823
45382000,0.0324,0.013523,0.002678,0.000431,0.000823
45383000,0.0324,0.013523,0.002678,0.000431,0.000823
45384000,0.0324,0.013523,0.002678,0.000431,0.000823
45385000,0.0324,0.013523,0.002678,0.000431,0.000823
45386000,0.0324,0.013523,0.002678,0.000431,0.000823
45387000,0.0324,0.013523,0.002678,0.000431,0.000823
45388000,0.0324,0.013523,0.002678,0.000431,0.000823
45389000,0.0324,0.013523,0.002678,0.000431,0.001058
45390000,0.0324,0.013523,0.002678,0.000431,0.000823
45391000,0.0324,0.013523,0.002678,0.000431,0.000940
45392000,0.0324,0.013523,0.002678,0.000431,0.000823
45393000,0.0324,0.013523,0.002678,0.000431,0.000823
45394000,0.0324,0.013523,0.002678,0.000431,0.000940
45395000,0.0324,0.013523,0.002678,0.000431,0.000940
45396000,0.0324,0.013523,0.002678,0.000431,0.000823
45397000,0.0324,0.013523,0.002678,0.000431,0.000823
45398000,0.0324,0.013523,0.002678,0.000431,0.000940
45399000,0.0324,0.013523,0.002678,0.000431,0.000940
45400000,0.0324,0.013523,0.002678,0.000431,0.000705
45401000,0.0324,0.013523,0.002678,0.000431,0.000940
45402000,0.0324,0.013523,0.002678,0.000431,0.013633
45403000,0.0324,0.013523,0.002678,0.000431,0.694121
45404000,0.0324,0.013523,0.002678,0.000431,0.554615
45405000,0.0324,0.013523,0.002678,0.000431,0.136333
45406000,0.0324,0.013523,0.002678,0.000431,0.136803
45407000,0.0324,0.013523,0.002678,0.000431,0.534166
45408000,0.0324,0.013523,0.002678,0.000431,0.244929
45409000,0.0324,0.013523,0.002678,0.000431,0.331900
45410000,0.0324,0.013523,0.002678,0.000431,0.153022
45411000,0.0324,0.013523,0.002678,0.000431,0.177820
45412000,0.0324,0.013523,0.002678,0.000431,0.119761
45413000,0.0324,0.013523,0.002678,0.000431,0.556613
45414000,0.0324,0.013523,0.002678,0.000431,0.228475
45415000,0.0324,0.013523,0.002678,0.000431,0.203794
45416000,0.0324,0.013523,0.002678,0.000431,0.161014
45417000,0.0324,0.013523,0.002678,0.000431,0.131397
45418000,0.0324,0.013523,0.002678,0.000431,0.103542
45419000,0.0324,0.013523,0.002678,0.000431,0.082152
45420000,0.0324,0.013523,0.002678,0.000431,0.066051
45421000,0.0324,0.013523,0.002678,0.000431,0.046189
45422000,0.0324,0.013523,0.002678,0.000431,0.042663
45423000,0.0324,0.013523,0.002678,0.000431,0.025504
45424000,0.0324,0.013523,0.002678,0.000431,0.013281
45425000,0.0324,0.013523,0.002678,0.000431,0.009050
45426000,0.0324,0.013523,0.002678,0.000431,0.019627
45427000,0.0324,0.013523,0.002678,0.000431,0.009990
45428000,0.0324,0.013523,0.002678,0.000431,0.002233
45429000,0.0324,0.013523,0.002678,0.000431,0.192511
45430000,0.0324,0.013523,0.002678,0.000431,0.738665
45431000,0.0324,0.013523,0.002678,0.000431,0.461533
45432000,0.0324,0.013523,0.002678,0.000431,0.136333
45433000,0.0324,0.013523,0.002678,0.000431,0.408058
45434000,0.0324,0.013523,0.002678,0.000431,0.289824
45435000,0.0324,0.013523,0.002678,0.000431,0.286299
45436000,0.0324,0.013523,0.002678,0.000431,0.263616
45437000,0.0324,0.013523,0.002678,0.000431,0.163599
45438000,0.0324,0.013523,0.002678,0.000431,0.115648
45439000,0.0324,0.013523,0.002678,0.000431,0.376678
45440000,0.0324,0.013523,0.002678,0.000431,0.382084
45441000,0.0324,0.013523,0.002678,0.000431,0.173589
45442000,0.0324,0.013523,0.002678,0.000431,0.114237
45443000,0.0324,0.013523,0.002678,0.000431,0.096256
45444000,0.0324,0.013523,0.002678,0.000431,0.086853
45445000,0.0324,0.013523,0.002678,0.000431,0.068989
45446000,0.0324,0.013523,0.002678,0.000431,0.045483
45447000,0.0324,0.013523,0.002678,0.000431,0.039960
45448000,0.0324,0.013523,0.002678,0.000431,0.031262
45449000,0.0324,0.013523,0.002678,0.000431,0.017629
45450000,0.0324,0.013523,0.002678,0.000431,0.016336
45451000,0.0324,0.013523,0.002678,0.000431,0.010342
45452000,0.0324,0.013523,0.002678,0.000431,0.019392
45453000,0.0324,0.013523,0.002678,0.000431,0.007522
45454000,0.0324,0.013523,0.002678,0.000431,0.004819
45455000,0.0324,0.013523,0.002678,0.000431,0.006464
45456000,0.0324,0.013523,0.002678,0.000431,0.004231
45457000,0.0324,0.013523,0.002678,0.000431,0.000823
45458000,0.0324,0.013523,0.002678,0.000431,0.000823
45459000,0.0324,0.013523,0.002678,0.000431,0.000823
45460000,0.0324,0.013523,0.002678,0.000431,0.000823
45461000,0.0324,0.013523,0.002678,0.000431,0.000940
45462000,0.0324,0.013523,0.002678,0.000431,0.071575
45463000,0.0324,0.013523,0.002678,0.000431,0.732671
45464000,0.0324,0.013523,0.002678,0.000431,0.538632
45465000,0.0324,0.013523,0.002678,0.000431,0.139623
45466000,0.0324,0.013523,0.002678,0.000431,0.228122
45467000,0.0324,0.013523,0.002678,0.000431,0.529464
45468000,0.0324,0.013523,0.002678,0.000431,0.266319
45469000,0.0324,0.013523,0.002678,0.000431,0.252686
45470000,0.0324,0.013523,0.002678,0.000431,0.150789
45471000,0.0324,0.013523,0.002678,0.000431,0.142444
45472000,0.0324,0.013523,0.002678,0.000431,0.290882
45473000,0.0324,0.013523,0.002678,0.000431,0.445432
45474000,0.0324,0.013523,0.002678,0.000431,0.164187
45475000,0.0324,0.013523,0.002678,0.000431,0.151964
45476000,0.0324,0.013523,0.002678,0.000431,0.123757
45477000,0.0324,0.013523,0.002678,0.000431,0.108831
45478000,0.0324,0.013523,0.002678,0.000431,0.086736
45479000,0.0324,0.013523,0.002678,0.000431,0.072280
45480000,0.0324,0.013523,0.002678,0.000431,0.057706
45481000,0.0324,0.013523,0.002678,0.000431,0.036786
45482000,0.0324,0.013523,0.002678,0.000431,0.029617
45483000,0.0324,0.013523,0.002678,0.000431,0.026561
45484000,0.0324,0.013523,0.002678,0.000431,0.019040
45485000,0.0324,0.013523,0.002678,0.000431,0.015396
45486000,0.0324,0.013523,0.002678,0.000431,0.007404
45487000,0.0324,0.013523,0.002678,0.000431,0.004466
45488000,0.0324,0.013523,0.002678,0.000431,0.003291
45489000,0.0324,0.013523,0.002678,0.000431,0.001645
45490000,0.0324,0.013523,0.002678,0.000431,0.001645
45491000,0.0324,0.013523,0.002678,0.000431,0.001645
45492000,0.0324,0.013523,0.002678,0.000431,0.001763
45493000,0.0324,0.013523,0.002678,0.000431,0.001645
45494000,0.0324,0.013523,0.002678,0.000431,0.004701
45495000,0.0324,0.013523,0.002678,0.000431,0.001058
45496000,0.0324,0.013523,0.002678,0.000431,0.000705
45497000,0.0324,0.013523,0.002678,0.000431,0.000705
45498000,0.0324,0.013523,0.002678,0.000431,0.015866
45499000,0.0324,0.013523,0.002678,0.000431,0.763110
45500000,0.0324,0.013523,0.002678,0.000431,0.540395
45501000,0.0324,0.013523,0.002678,0.000431,0.137273
45502000,0.0324,0.013523,0.002678,0.000431,0.178173
45503000,0.0324,0.013523,0.002678,0.000431,0.568601
45504000,0.0324,0.013523,0.002678,0.000431,0.276544
45505000,0.0324,0.013523,0.002678,0.000431,0.290295
45506000,0.0324,0.013523,0.002678,0.000431,0.161366
45507000,0.0324,0.013523,0.002678,0.000431,0.115648
45508000,0.0324,0.013523,0.002678,0.000431,0.474344
45509000,0.0324,0.013523,0.002678,0.000431,0.282420
45510000,0.0324,0.013523,0.002678,0.000431,0.175822
45511000,0.0324,0.013523,0.002678,0.000431,0.157840
45512000,0.0324,0.013523,0.002678,0.000431,0.126578
45513000,0.0324,0.013523,0.002678,0.000431,0.106716
45514000,0.0324,0.013523,0.002678,0.000431,0.096726
45515000,0.0324,0.013523,0.002678,0.000431,0.064993
45516000,0.0324,0.013523,0.002678,0.000431,0.056649
45517000,0.0324,0.013523,0.002678,0.000431,0.044308
45518000,0.0324,0.013523,0.002678,0.000431,0.035846
45519000,0.0324,0.013523,0.002678,0.000431,0.034671
45520000,0.0324,0.013523,0.002678,0.000431,0.022565
45521000,0.0324,0.013523,0.002678,0.000431,0.016336
45522000,0.0324,0.013523,0.002678,0.000431,0.015749
45523000,0.0324,0.013523,0.002678,0.000431,0.017159
45524000,0.0324,0.013523,0.002678,0.000431,0.011283
45525000,0.0324,0.013523,0.002678,0.000431,0.006347
45526000,0.0324,0.013523,0.002678,0.000431,0.011400
45527000,0.0324,0.013523,0.002678,0.000431,0.004936
45528000,0.0324,0.013523,0.002678,0.000431,0.006347
45529000,0.0324,0.013523,0.002678,0.000431,0.007639
45530000,0.0324,0.013523,0.002678,0.000431,0.001998
45531000,0.0324,0.013523,0.002678,0.000431,0.001763
45532000,0.0324,0.013523,0.002678,0.000431,0.004819
45533000,0.0324,0.013523,0.002678,0.000431,0.000940
45534000,0.0324,0.013523,0.002678,0.000431,0.000940
45535000,0.0324,0.013523,0.002678,0.000431,0.000940
45536000,0.0324,0.013523,0.002678,0.000431,0.000823
45537000,0.0324,0.013523,0.002678,0.000431,0.014103
45538000,0.0324,0.013523,0.002678,0.000431,0.758762
45539000,0.0324,0.013523,0.002678,0.000431,0.553675
45540000,0.0324,0.013523,0.002678,0.000431,0.136333
45541000,0.0324,0.013523,0.002678,0.000431,0.179818
45542000,0.0324,0.013523,0.002678,0.000431,0.568131
45543000,0.0324,0.013523,0.002678,0.000431,0.256564
45544000,0.0324,0.013523,0.002678,0.000431,0.330607
45545000,0.0324,0.013523,0.002678,0.000431,0.152904
45546000,0.0324,0.013523,0.002678,0.000431,0.123875
45547000,0.0324,0.013523,0.002678,0.000431,0.330842
45548000,0.0324,0.013523,0.002678,0.000431,0.423101
45549000,0.0324,0.013523,0.002678,0.000431,0.190983
45550000,0.0324,0.013523,0.002678,0.000431,0.170533
45551000,0.0324,0.013523,0.002678,0.000431,0.146675
45552000,0.0324,0.013523,0.002678,0.000431,0.112357
45553000,0.0324,0.013523,0.002678,0.000431,0.104835
45554000,0.0324,0.013523,0.002678,0.000431,0.085325
45555000,0.0324,0.013523,0.002678,0.000431,0.068166
45556000,0.0324,0.013523,0.002678,0.000431,0.052300
45557000,0.0324,0.013523,0.002678,0.000431,0.027149
45558000,0.0324,0.013523,0.002678,0.000431,0.030205
45559000,0.0324,0.013523,0.002678,0.000431,0.021625
45560000,0.0324,0.013523,0.002678,0.000431,0.014926
45561000,0.0324,0.013523,0.002678,0.000431,0.009520
45562000,0.0324,0.013523,0.002678,0.000431,0.015396
45563000,0.0324,0.013523,0.002678,0.000431,0.005876
45564000,0.0324,0.013523,0.002678,0.000431,0.006347
45565000,0.0324,0.013523,0.002678,0.000431,0.005289
45566000,0.0324,0.013523,0.002678,0.000431,0.009285
45567000,0.0324,0.013523,0.002678,0.000431,0.002116
45568000,0.0324,0.013523,0.002678,0.000431,0.000705
45569000,0.0324,0.013523,0.002678,0.000431,0.000940
45570000,0.0324,0.013523,0.002678,0.000431,0.010813
45571000,0.0324,0.013523,0.002678,0.000431,0.671674
45572000,0.0324,0.013523,0.002678,0.000431,0.617846
45573000,0.0324,0.013523,0.002678,0.000431,0.138566
45574000,0.0324,0.013523,0.002678,0.000431,0.136803
45575000,0.0324,0.013523,0.002678,0.000431,0.570129
45576000,0.0324,0.013523,0.002678,0.000431,0.254213
45577000,0.0324,0.013523,0.002678,0.000431,0.342947
45578000,0.0324,0.013523,0.002678,0.000431,0.150436
45579000,0.0324,0.013523,0.002678,0.000431,0.165832
45580000,0.0324,0.013523,0.002678,0.000431,0.148791
45581000,0.0324,0.013523,0.002678,0.000431,0.535811
45582000,0.0324,0.013523,0.002678,0.000431,0.222011
45583000,0.0324,0.013523,0.002678,0.000431,0.185224
45584000,0.0324,0.013523,0.002678,0.000431,0.151964
45585000,0.0324,0.013523,0.002678,0.000431,0.124345
45586000,0.0324,0.013523,0.002678,0.000431,0.114943
45587000,0.0324,0.013523,0.002678,0.000431,0.095903
45588000,0.0324,0.013523,0.002678,0.000431,0.072397
45589000,0.0324,0.013523,0.002678,0.000431,0.051242
45590000,0.0324,0.013523,0.002678,0.000431,0.050537
45591000,0.0324,0.013523,0.002678,0.000431,0.038314
45592000,0.0324,0.013523,0.002678,0.000431,0.024211
45593000,0.0324,0.013523,0.002678,0.000431,0.021860
45594000,0.0324,0.013523,0.002678,0.000431,0.020567
45595000,0.0324,0.013523,0.002678,0.000431,0.017277
45596000,0.0324,0.013523,0.002678,0.000431,0.017512
45597000,0.0324,0.013523,0.002678,0.000431,0.018099
45598000,0.0324,0.013523,0.002678,0.000431,0.012458
45599000,0.0324,0.013523,0.002678,0.000431,0.010578
45600000,0.0324,0.013523,0.002678,0.000431,0.005289
45601000,0.0324,0.013523,0.002678,0.000431,0.001645
45602000,0.0324,0.013523,0.002678,0.000431,0.259267
45603000,0.0324,0.013523,0.002678,0.000431,0.706814
45604000,0.0324,0.013523,0.002678,0.000431,0.433914
45605000,0.0324,0.013523,0.002678,0.000431,0.136333
45606000,0.0324,0.013523,0.002678,0.000431,0.475284
45607000,0.0324,0.013523,0.002678,0.000431,0.334955
45608000,0.0324,0.013523,0.002678,0.000431,0.251040
45609000,0.0324,0.013523,0.002678,0.000431,0.240228
45610000,0.0324,0.013523,0.002678,0.000431,0.168065
45611000,0.0324,0.013523,0.002678,0.000431,0.109301
45612000,0.0324,0.013523,0.002678,0.000431,0.435912
45613000,0.0324,0.013523,0.002678,0.000431,0.315681
45614000,0.0324,0.013523,0.002678,0.000431,0.182521
45615000,0.0324,0.013523,0.002678,0.000431,0.155960
45616000,0.0324,0.013523,0.002678,0.000431,0.128576
45617000,0.0324,0.013523,0.002678,0.000431,0.103777
45618000,0.0324,0.013523,0.002678,0.000431,0.092495
45619000,0.0324,0.013523,0.002678,0.000431,0.072632
45620000,0.0324,0.013523,0.002678,0.000431,0.047716
45621000,0.0324,0.013523,0.002678,0.000431,0.047481
45622000,0.0324,0.013523,0.002678,0.000431,0.041605
45623000,0.0324,0.013523,0.002678,0.000431,0.024211
45624000,0.0324,0.013523,0.002678,0.000431,0.019510
45625000,0.0324,0.013523,0.002678,0.000431,0.016454
45626000,0.0324,0.013523,0.002678,0.000431,0.019980
45627000,0.0324,0.013523,0.002678,0.000431,0.007052
45628000,0.0324,0.013523,0.002678,0.000431,0.003996
45629000,0.0324,0.013523,0.002678,0.000431,0.004466
45630000,0.0324,0.013523,0.002678,0.000431,0.003878
45631000,0.0324,0.013523,0.002678,0.000431,0.004231
45632000,0.0324,0.013523,0.002678,0.000431,0.004231
45633000,0.0324,0.013523,0.002678,0.000431,0.003643
45634000,0.0324,0.013523,0.002678,0.000431,0.003878
45635000,0.0324,0.013523,0.002678,0.000431,0.004584
45636000,0.0324,0.013523,0.002678,0.000431,0.004113
45637000,0.0324,0.013523,0.002678,0.000431,0.003996
45638000,0.0324,0.013523,0.002678,0.000431,0.007639
45639000,0.0324,0.013523,0.002678,0.000431,0.002586
45640000,0.0324,0.013523,0.002678,0.000431,0.002821
45641000,0.0324,0.013523,0.002678,0.000431,0.002351
45642000,0.0324,0.013523,0.002678,0.000431,0.005054
45643000,0.0324,0.013523,0.002678,0.000431,0.001528
45644000,0.0324,0.013523,0.002678,0.000431,0.001763
45645000,0.0324,0.013523,0.002678,0.000431,0.001645
45646000,0.0324,0.013523,0.002678,0.000431,0.001645
45647000,0.0324,0.013523,0.002678,0.000431,0.001880
45648000,0.0324,0.013523,0.002678,0.000431,0.001410
45649000,0.0324,0.013523,0.002678,0.000431,0.001880
45650000,0.0324,0.013523,0.002678,0.000431,0.001528
45651000,0.0324,0.013523,0.002678,0.000431,0.003291
45652000,0.0324,0.013523,0.002678,0.000431,0.014573
45653000,0.0324,0.013523,0.002678,0.000431,0.709988
45654000,0.0324,0.013523,0.002678,0.000431,0.566251
45655000,0.0324,0.013523,0.002678,0.000431,0.136215
45656000,0.0324,0.013523,0.002678,0.000431,0.135863
45657000,0.0324,0.013523,0.002678,0.000431,0.584820
45658000,0.0324,0.013523,0.002678,0.000431,0.273841
45659000,0.0324,0.013523,0.002678,0.000431,0.298874
45660000,0.0324,0.013523,0.002678,0.000431,0.142562
45661000,0.0324,0.013523,0.002678,0.000431,0.186870
45662000,0.0324,0.013523,0.002678,0.000431,0.088499
45663000,0.0324,0.013523,0.002678,0.000431,0.548269
45664000,0.0324,0.013523,0.002678,0.000431,0.223891
45665000,0.0324,0.013523,0.002678,0.000431,0.178878
45666000,0.0324,0.013523,0.002678,0.000431,0.150436
45667000,0.0324,0.013523,0.002678,0.000431,0.115648
45668000,0.0324,0.013523,0.002678,0.000431,0.092730
45669000,0.0324,0.013523,0.002678,0.000431,0.082035
45670000,0.0324,0.013523,0.002678,0.000431,0.063113
45671000,0.0324,0.013523,0.002678,0.000431,0.058529
45672000,0.0324,0.013523,0.002678,0.000431,0.046659
45673000,0.0324,0.013523,0.002678,0.000431,0.039254
45674000,0.0324,0.013523,0.002678,0.000431,0.033848
45675000,0.0324,0.013523,0.002678,0.000431,0.017042
45676000,0.0324,0.013523,0.002678,0.000431,0.015749
45677000,0.0324,0.013523,0.002678,0.000431,0.015514
45678000,0.0324,0.013523,0.002678,0.000431,0.006582
45679000,0.0324,0.013523,0.002678,0.000431,0.008462
45680000,0.0324,0.013523,0.002678,0.000431,0.010813
45681000,0.0324,0.013523,0.002678,0.000431,0.005994
45682000,0.0324,0.013523,0.002678,0.000431,0.006817
45683000,0.0324,0.013523,0.002678,0.000431,0.001058
45684000,0.0324,0.013523,0.002678,0.000431,0.000823
45685000,0.0324,0.013523,0.002678,0.000431,0.000823
45686000,0.0324,0.013523,0.002678,0.000431,0.000823
45687000,0.0324,0.013523,0.002678,0.000431,0.000823
45688000,0.0324,0.013523,0.002678,0.000431,0.000823
45689000,0.0324,0.013523,0.002678,0.000431,0.000940
45690000,0.0324,0.013523,0.002678,0.000431,0.000705
45691000,0.0324,0.013523,0.002678,0.000431,0.257269
45692000,0.0324,0.013523,0.002678,0.000431,0.748537
45693000,0.0324,0.013523,0.002678,0.000431,0.369274
45694000,0.0324,0.013523,0.002678,0.000431,0.137390
45695000,0.0324,0.013523,0.002678,0.000431,0.528642
45696000,0.0324,0.013523,0.002678,0.000431,0.283243
45697000,0.0324,0.013523,0.002678,0.000431,0.293938
45698000,0.0324,0.013523,0.002678,0.000431,0.206497
45699000,0.0324,0.013523,0.002678,0.000431,0.177703
45700000,0.0324,0.013523,0.002678,0.000431,0.106245
45701000,0.0324,0.013523,0.002678,0.000431,0.553323
45702000,0.0324,0.013523,0.002678,0.000431,0.203559
45703000,0.0324,0.013523,0.002678,0.000431,0.174059
45704000,0.0324,0.013523,0.002678,0.000431,0.151846
45705000,0.0324,0.013523,0.002678,0.000431,0.107538
45706000,0.0324,0.013523,0.002678,0.000431,0.077804
45707000,0.0324,0.013523,0.002678,0.000431,0.071105
45708000,0.0324,0.013523,0.002678,0.000431,0.056649
45709000,0.0324,0.013523,0.002678,0.000431,0.030910
45710000,0.0324,0.013523,0.002678,0.000431,0.024916
45711000,0.0324,0.013523,0.002678,0.000431,0.020920
45712000,0.0324,0.013523,0.002678,0.000431,0.016219
45713000,0.0324,0.013523,0.002678,0.000431,0.012576
45714000,0.0324,0.013523,0.002678,0.000431,0.011753
45715000,0.0324,0.013523,0.002678,0.000431,0.014103
45716000,0.0324,0.013523,0.002678,0.000431,0.009402
45717000,0.0324,0.013523,0.002678,0.000431,0.006111
45718000,0.0324,0.013523,0.002678,0.000431,0.007757
45719000,0.0324,0.013523,0.002678,0.000431,0.004819
45720000,0.0324,0.013523,0.002678,0.000431,0.004349
45721000,0.0324,0.013523,0.002678,0.000431,0.003996
45722000,0.0324,0.013523,0.002678,0.000431,0.007522
45723000,0.0324,0.013523,0.002678,0.000431,0.002703
45724000,0.0324,0.013523,0.002678,0.000431,0.002233
45725000,0.0324,0.013523,0.002678,0.000431,0.004231
45726000,0.0324,0.013523,0.002678,0.000431,0.033966
45727000,0.0324,0.013523,0.002678,0.000431,0.747832
45728000,0.0324,0.013523,0.002678,0.000431,0.548504
45729000,0.0324,0.013523,0.002678,0.000431,0.135863
45730000,0.0324,0.013523,0.002678,0.000431,0.162659
45731000,0.0324,0.013523,0.002678,0.000431,0.578121
45732000,0.0324,0.013523,0.002678,0.000431,0.259855
45733000,0.0324,0.013523,0.002678,0.000431,0.309804
45734000,0.0324,0.013523,0.002678,0.000431,0.161719
45735000,0.0324,0.013523,0.002678,0.000431,0.107891
45736000,0.0324,0.013523,0.002678,0.000431,0.389959
45737000,0.0324,0.013523,0.002678,0.000431,0.390781
45738000,0.0324,0.013523,0.002678,0.000431,0.181464
45739000,0.0324,0.013523,0.002678,0.000431,0.162777
45740000,0.0324,0.013523,0.002678,0.000431,0.137743
45741000,0.0324,0.013523,0.002678,0.000431,0.126225
45742000,0.0324,0.013523,0.002678,0.000431,0.094375
45743000,0.0324,0.013523,0.002678,0.000431,0.081330
45744000,0.0324,0.013523,0.002678,0.000431,0.066991
45745000,0.0324,0.013523,0.002678,0.000431,0.042428
45746000,0.0324,0.013523,0.002678,0.000431,0.048892
45747000,0.0324,0.013523,0.002678,0.000431,0.031380
45748000,0.0324,0.013523,0.002678,0.000431,0.023976
45749000,0.0324,0.013523,0.002678,0.000431,0.015749
45750000,0.0324,0.013523,0.002678,0.000431,0.009755
45751000,0.0324,0.013523,0.002678,0.000431,0.009872
45752000,0.0324,0.013523,0.002678,0.000431,0.012223
45753000,0.0324,0.013523,0.002678,0.000431,0.010225
45754000,0.0324,0.013523,0.002678,0.000431,0.003173
45755000,0.0324,0.013523,0.002678,0.000431,0.003408
45756000,0.0324,0.013523,0.002678,0.000431,0.095903
45757000,0.0324,0.013523,0.002678,0.000431,0.799897
45758000,0.0324,0.013523,0.002678,0.000431,0.487507
45759000,0.0324,0.013523,0.002678,0.000431,0.136568
45760000,0.0324,0.013523,0.002678,0.000431,0.416167
45761000,0.0324,0.013523,0.002678,0.000431,0.403474
45762000,0.0324,0.013523,0.002678,0.000431,0.304516
45763000,0.0324,0.013523,0.002678,0.000431,0.243518
45764000,0.0324,0.013523,0.002678,0.000431,0.159838
45765000,0.0324,0.013523,0.002678,0.000431,0.150083
45766000,0.0324,0.013523,0.002678,0.000431,0.507839
45767000,0.0324,0.013523,0.002678,0.000431,0.163012
45768000,0.0324,0.013523,0.002678,0.000431,0.143619
45769000,0.0324,0.013523,0.002678,0.000431,0.122112
45770000,0.0324,0.013523,0.002678,0.000431,0.098606
45771000,0.0324,0.013523,0.002678,0.000431,0.085561
45772000,0.0324,0.013523,0.002678,0.000431,0.055473
45773000,0.0324,0.013523,0.002678,0.000431,0.047599
45774000,0.0324,0.013523,0.002678,0.000431,0.035846
45775000,0.0324,0.013523,0.002678,0.000431,0.022330
45776000,0.0324,0.013523,0.002678,0.000431,0.022213
45777000,0.0324,0.013523,0.002678,0.000431,0.011988
45778000,0.0324,0.013523,0.002678,0.000431,0.011870
45779000,0.0324,0.013523,0.002678,0.000431,0.010813
45780000,0.0324,0.013523,0.002678,0.000431,0.010578
45781000,0.0324,0.013523,0.002678,0.000431,0.008932
45782000,0.0324,0.013523,0.002678,0.000431,0.009990
45783000,0.0324,0.013523,0.002678,0.000431,0.006229
45784000,0.0324,0.013523,0.002678,0.000431,0.007639
45785000,0.0324,0.013523,0.002678,0.000431,0.007052
45786000,0.0324,0.013523,0.002678,0.000431,0.008345
45787000,0.0324,0.013523,0.002678,0.000431,0.005994
45788000,0.0324,0.013523,0.002678,0.000431,0.004819
45789000,0.0324,0.013523,0.002678,0.000431,0.004231
45790000,0.0324,0.013523,0.002678,0.000431,0.003056
45791000,0.0324,0.013523,0.002678,0.000431,0.005524
45792000,0.0324,0.013523,0.002678,0.000431,0.002351
45793000,0.0324,0.013523,0.002678,0.000431,0.043133
45794000,0.0324,0.013523,0.002678,0.000431,0.704699
45795000,0.0324,0.013523,0.002678,0.000431,0.541922
45796000,0.0324,0.013523,0.002678,0.000431,0.136803
45797000,0.0324,0.013523,0.002678,0.000431,0.167713
45798000,0.0324,0.013523,0.002678,0.000431,0.600922
45799000,0.0324,0.013523,0.002678,0.000431,0.239405
45800000,0.0324,0.013523,0.002678,0.000431,0.279835
45801000,0.0324,0.013523,0.002678,0.000431,0.144207
45802000,0.0324,0.013523,0.002678,0.000431,0.149261
45803000,0.0324,0.013523,0.002678,0.000431,0.237877
45804000,0.0324,0.013523,0.002678,0.000431,0.507839
45805000,0.0324,0.013523,0.002678,0.000431,0.197330
45806000,0.0324,0.013523,0.002678,0.000431,0.177703
45807000,0.0324,0.013523,0.002678,0.000431,0.162189
45808000,0.0324,0.013523,0.002678,0.000431,0.115648
45809000,0.0324,0.013523,0.002678,0.000431,0.091319
45810000,0.0324,0.013523,0.002678,0.000431,0.066521
45811000,0.0324,0.013523,0.002678,0.000431,0.052065
45812000,0.0324,0.013523,0.002678,0.000431,0.040430
45813000,0.0324,0.013523,0.002678,0.000431,0.032085
45814000,0.0324,0.013523,0.002678,0.000431,0.030322
45815000,0.0324,0.013523,0.002678,0.000431,0.014221
45816000,0.0324,0.013523,0.002678,0.000431,0.012693
45817000,0.0324,0.013523,0.002678,0.000431,0.009755
45818000,0.0324,0.013523,0.002678,0.000431,0.012811
45819000,0.0324,0.013523,0.002678,0.000431,0.010813
45820000,0.0324,0.013523,0.002678,0.000431,0.007522
45821000,0.0324,0.013523,0.002678,0.000431,0.007757
45822000,0.0324,0.013523,0.002678,0.000431,0.005406
45823000,0.0324,0.013523,0.002678,0.000431,0.005406
45824000,0.0324,0.013523,0.002678,0.000431,0.005876
45825000,0.0324,0.013523,0.002678,0.000431,0.005876
45826000,0.0324,0.013523,0.002678,0.000431,0.005876
45827000,0.0324,0.013523,0.002678,0.000431,0.005524
45828000,0.0324,0.013523,0.002678,0.000431,0.002586
45829000,0.0324,0.013523,0.002678,0.000431,0.003996
45830000,0.0324,0.013523,0.002678,0.000431,0.001880
45831000,0.0324,0.013523,0.002678,0.000431,0.003878
45832000,0.0324,0.013523,0.002678,0.000431,0.000940
45833000,0.0324,0.013523,0.002678,0.000431,0.000940
45834000,0.0324,0.013523,0.002678,0.000431,0.000823
45835000,0.0324,0.013523,0.002678,0.000431,0.000823
45836000,0.0324,0.013523,0.002678,0.000431,0.000940
45837000,0.0324,0.013523,0.002678,0.000431,0.000940
45838000,0.0324,0.013523,0.002678,0.000431,0.000823
45839000,0.0324,0.013523,0.002678,0.000431,0.000823
45840000,0.0324,0.013523,0.002678,0.000431,0.000940
45841000,0.0324,0.013523,0.002678,0.000431,0.000823
45842000,0.0324,0.013523,0.002678,0.000431,0.000940
45843000,0.0324,0.013523,0.002678,0.000431,0.000823
45844000,0.0324,0.013523,0.002678,0.000431,0.000940
45845000,0.0324,0.013523,0.002678,0.000431,0.000823
45846000,0.0324,0.013523,0.002678,0.000431,0.000823
45847000,0.0324,0.013523,0.002678,0.000431,0.000940
45848000,0.0324,0.013523,0.002678,0.000431,0.000940
45849000,0.0324,0.013523,0.002678,0.000431,0.000823
45850000,0.0324,0.013523,0.002678,0.000431,0.000940
45851000,0.0324,0.013523,0.002678,0.000431,0.000940
45852000,0.0324,0.013523,0.002678,0.000431,0.000823
45853000,0.0324,0.013523,0.002678,0.000431,0.000940
45854000,0.0324,0.013523,0.002678,0.000431,0.000823
45855000,0.0324,0.013523,0.002678,0.000431,0.000823
45856000,0.0324,0.013523,0.002678,0.000431,0.000940
45857000,0.0324,0.013523,0.002678,0.000431,0.000940
45858000,0.0324,0.013523,0.002678,0.000431,0.000823
45859000,0.0324,0.013523,0.002678,0.000431,0.000823
45860000,0.0324,0.013523,0.002678,0.000431,0.000940
45861000,0.0324,0.013523,0.002678,0.000431,0.000940
45862000,0.0324,0.013523,0.002678,0.000431,0.000705
45863000,0.0324,0.013523,0.002678,0.000431,0.000940
45864000,0.0324,0.013523,0.002678,0.000431,0.071810
45865000,0.0324,0.013523,0.002678,0.000431,0.758057
45866000,0.0324,0.013523,0.002678,0.000431,0.540865
45867000,0.0324,0.013523,0.002678,0.000431,0.137038
45868000,0.0324,0.013523,0.002678,0.000431,0.255506
45869000,0.0324,0.013523,0.002678,0.000431,0.486449
45870000,0.0324,0.013523,0.002678,0.000431,0.298404
45871000,0.0324,0.013523,0.002678,0.000431,0.239052
45872000,0.0324,0.013523,0.002678,0.000431,0.162189
45873000,0.0324,0.013523,0.002678,0.000431,0.101192
45874000,0.0324,0.013523,0.002678,0.000431,0.445667
45875000,0.0324,0.013523,0.002678,0.000431,0.316151
45876000,0.0324,0.013523,0.002678,0.000431,0.165362
45877000,0.0324,0.013523,0.002678,0.000431,0.145617
45878000,0.0324,0.013523,0.002678,0.000431,0.143149
45879000,0.0324,0.013523,0.002678,0.000431,0.103190
45880000,0.0324,0.013523,0.002678,0.000431,0.084150
45881000,0.0324,0.013523,0.002678,0.000431,0.068754
45882000,0.0324,0.013523,0.002678,0.000431,0.055356
45883000,0.0324,0.013523,0.002678,0.000431,0.039489
45884000,0.0324,0.013523,0.002678,0.000431,0.028794
45885000,0.0324,0.013523,0.002678,0.000431,0.018687
45886000,0.0324,0.013523,0.002678,0.000431,0.024093
45887000,0.0324,0.013523,0.002678,0.000431,0.020215
45888000,0.0324,0.013523,0.002678,0.000431,0.018569
45889000,0.0324,0.013523,0.002678,0.000431,0.015044
45890000,0.0324,0.013523,0.002678,0.000431,0.009990
45891000,0.0324,0.013523,0.002678,0.000431,0.011400
45892000,0.0324,0.013523,0.002678,0.000431,0.005759
45893000,0.0324,0.013523,0.002678,0.000431,0.003761
45894000,0.0324,0.013523,0.002678,0.000431,0.003056
45895000,0.0324,0.013523,0.002678,0.000431,0.001763
45896000,0.0324,0.013523,0.002678,0.000431,0.001880
45897000,0.0324,0.013523,0.002678,0.000431,0.001410
45898000,0.0324,0.013523,0.002678,0.000431,0.082152
45899000,0.0324,0.013523,0.002678,0.000431,0.770397
45900000,0.0324,0.013523,0.002678,0.000431,0.491620
45901000,0.0324,0.013523,0.002678,0.000431,0.135392
45902000,0.0324,0.013523,0.002678,0.000431,0.311802
45903000,0.0324,0.013523,0.002678,0.000431,0.414522
45904000,0.0324,0.013523,0.002678,0.000431,0.306043
45905000,0.0324,0.013523,0.002678,0.000431,0.275251
45906000,0.0324,0.013523,0.002678,0.000431,0.149496
45907000,0.0324,0.013523,0.002678,0.000431,0.119291
45908000,0.0324,0.013523,0.002678,0.000431,0.471053
45909000,0.0324,0.013523,0.002678,0.000431,0.304986
45910000,0.0324,0.013523,0.002678,0.000431,0.207672
45911000,0.0324,0.013523,0.002678,0.000431,0.181699
45912000,0.0324,0.013523,0.002678,0.000431,0.144090
45913000,0.0324,0.013523,0.002678,0.000431,0.114120
45914000,0.0324,0.013523,0.002678,0.000431,0.100252
45915000,0.0324,0.013523,0.002678,0.000431,0.078274
45916000,0.0324,0.013523,0.002678,0.000431,0.060174
45917000,0.0324,0.013523,0.002678,0.000431,0.044778
45918000,0.0324,0.013523,0.002678,0.000431,0.038784
45919000,0.0324,0.013523,0.002678,0.000431,0.015514
45920000,0.0324,0.013523,0.002678,0.000431,0.012811
45921000,0.0324,0.013523,0.002678,0.000431,0.013868
45922000,0.0324,0.013523,0.002678,0.000431,0.010107
45923000,0.0324,0.013523,0.002678,0.000431,0.010695
45924000,0.0324,0.013523,0.002678,0.000431,0.001880
45925000,0.0324,0.013523,0.002678,0.000431,0.005171
45926000,0.0324,0.013523,0.002678,0.000431,0.000705
45927000,0.0324,0.013523,0.002678,0.000431,0.000940
45928000,0.0324,0.013523,0.002678,0.000431,0.000940
45929000,0.0324,0.013523,0.002678,0.000431,0.000940
45930000,0.0324,0.013523,0.002678,0.000431,0.003761
45931000,0.0324,0.013523,0.002678,0.000431,0.588699
45932000,0.0324,0.013523,0.002678,0.000431,0.723268
45933000,0.0324,0.013523,0.002678,0.000431,0.138683
45934000,0.0324,0.013523,0.002678,0.000431,0.159486
45935000,0.0324,0.013523,0.002678,0.000431,0.623252
45936000,0.0324,0.013523,0.002678,0.000431,0.256446
45937000,0.0324,0.013523,0.002678,0.000431,0.290530
45938000,0.0324,0.013523,0.002678,0.000431,0.171474
45939000,0.0324,0.013523,0.002678,0.000431,0.095550
45940000,0.0324,0.013523,0.002678,0.000431,0.554380
45941000,0.0324,0.013523,0.002678,0.000431,0.261735
45942000,0.0324,0.013523,0.002678,0.000431,0.206615
45943000,0.0324,0.013523,0.002678,0.000431,0.177820
45944000,0.0324,0.013523,0.002678,0.000431,0.144207
45945000,0.0324,0.013523,0.002678,0.000431,0.112710
45946000,0.0324,0.013523,0.002678,0.000431,0.075571
45947000,0.0324,0.013523,0.002678,0.000431,0.063818
45948000,0.0324,0.013523,0.002678,0.000431,0.052183
45949000,0.0324,0.013523,0.002678,0.000431,0.047364
45950000,0.0324,0.013523,0.002678,0.000431,0.035611
45951000,0.0324,0.013523,0.002678,0.000431,0.029382
45952000,0.0324,0.013523,0.002678,0.000431,0.034553
45953000,0.0324,0.013523,0.002678,0.000431,0.018687
45954000,0.0324,0.013523,0.002678,0.000431,0.025974
45955000,0.0324,0.013523,0.002678,0.000431,0.015044
45956000,0.0324,0.013523,0.002678,0.000431,0.014691
45957000,0.0324,0.013523,0.002678,0.000431,0.007874
45958000,0.0324,0.013523,0.002678,0.000431,0.007522
45959000,0.0324,0.013523,0.002678,0.000431,0.004113
45960000,0.0324,0.013523,0.002678,0.000431,0.004466
45961000,0.0324,0.013523,0.002678,0.000431,0.007404
45962000,0.0324,0.013523,0.002678,0.000431,0.004113
45963000,0.0324,0.013523,0.002678,0.000431,0.000823
45964000,0.0324,0.013523,0.002678,0.000431,0.000940
45965000,0.0324,0.013523,0.002678,0.000431,0.000705
45966000,0.0324,0.013523,0.002678,0.000431,0.000940
45967000,0.0324,0.013523,0.002678,0.000431,0.000823
45968000,0.0324,0.013523,0.002678,0.000431,0.000823
45969000,0.0324,0.013523,0.002678,0.000431,0.000823
45970000,0.0324,0.013523,0.002678,0.000431,0.000823
45971000,0.0324,0.013523,0.002678,0.000431,0.000940
45972000,0.0324,0.013523,0.002678,0.000431,0.013751
45973000,0.0324,0.013523,0.002678,0.000431,0.820817
45974000,0.0324,0.013523,0.002678,0.000431,0.534871
45975000,0.0324,0.013523,0.002678,0.000431,0.141621
45976000,0.0324,0.013523,0.002678,0.000431,0.213314
45977000,0.0324,0.013523,0.002678,0.000431,0.491855
45978000,0.0324,0.013523,0.002678,0.000431,0.320147
45979000,0.0324,0.013523,0.002678,0.000431,0.273371
45980000,0.0324,0.013523,0.002678,0.000431,0.170768
45981000,0.0324,0.013523,0.002678,0.000431,0.099546
45982000,0.0324,0.013523,0.002678,0.000431,0.531345
45983000,0.0324,0.013523,0.002678,0.000431,0.255036
45984000,0.0324,0.013523,0.002678,0.000431,0.187222
45985000,0.0324,0.013523,0.002678,0.000431,0.158781
45986000,0.0324,0.013523,0.002678,0.000431,0.127636
45987000,0.0324,0.013523,0.002678,0.000431,0.110594
45988000,0.0324,0.013523,0.002678,0.000431,0.080742
45989000,0.0324,0.013523,0.002678,0.000431,0.066638
45990000,0.0324,0.013523,0.002678,0.000431,0.060762
45991000,0.0324,0.013523,0.002678,0.000431,0.049244
45992000,0.0324,0.013523,0.002678,0.000431,0.043368
45993000,0.0324,0.013523,0.002678,0.000431,0.030675
45994000,0.0324,0.013523,0.002678,0.000431,0.026444
45995000,0.0324,0.013523,0.002678,0.000431,0.017982
45996000,0.0324,0.013523,0.002678,0.000431,0.018334
45997000,0.0324,0.013523,0.002678,0.000431,0.006817
45998000,0.0324,0.013523,0.002678,0.000431,0.007639
45999000,0.0324,0.013523,0.002678,0.000431,0.007287
