Cycle,Area(mm^2),PeakDynamic(W),SubthresholdLeakage(W),GateLeakage(W),RunTimeDynamic(W)
83000000,0.0324,0.013523,0.002678,0.000431,0.040430
83001000,0.0324,0.013523,0.002678,0.000431,0.035611
83002000,0.0324,0.013523,0.002678,0.000431,0.026444
83003000,0.0324,0.013523,0.002678,0.000431,0.035141
83004000,0.0324,0.013523,0.002678,0.000431,0.021390
83005000,0.0324,0.013523,0.002678,0.000431,0.011048
83006000,0.0324,0.013523,0.002678,0.000431,0.015279
83007000,0.0324,0.013523,0.002678,0.000431,0.010107
83008000,0.0324,0.013523,0.002678,0.000431,0.005289
83009000,0.0324,0.013523,0.002678,0.000431,0.005994
83010000,0.0324,0.013523,0.002678,0.000431,0.005994
83011000,0.0324,0.013523,0.002678,0.000431,0.003408
83012000,0.0324,0.013523,0.002678,0.000431,0.003996
83013000,0.0324,0.013523,0.002678,0.000431,0.004349
83014000,0.0324,0.013523,0.002678,0.000431,0.004231
83015000,0.0324,0.013523,0.002678,0.000431,0.003761
83016000,0.0324,0.013523,0.002678,0.000431,0.010107
83017000,0.0324,0.013523,0.002678,0.000431,0.001880
83018000,0.0324,0.013523,0.002678,0.000431,0.001645
83019000,0.0324,0.013523,0.002678,0.000431,0.001763
83020000,0.0324,0.013523,0.002678,0.000431,0.001880
83021000,0.0324,0.013523,0.002678,0.000431,0.004584
83022000,0.0324,0.013523,0.002678,0.000431,0.071927
83023000,0.0324,0.013523,0.002678,0.000431,0.784618
83024000,0.0324,0.013523,0.002678,0.000431,0.574008
83025000,0.0324,0.013523,0.002678,0.000431,0.146323
83026000,0.0324,0.013523,0.002678,0.000431,0.170063
83027000,0.0324,0.013523,0.002678,0.000431,0.597161
83028000,0.0324,0.013523,0.002678,0.000431,0.243166
83029000,0.0324,0.013523,0.002678,0.000431,0.313330
83030000,0.0324,0.013523,0.002678,0.000431,0.183109
83031000,0.0324,0.013523,0.002678,0.000431,0.162894
83032000,0.0324,0.013523,0.002678,0.000431,0.103190
83033000,0.0324,0.013523,0.002678,0.000431,0.431093
83034000,0.0324,0.013523,0.002678,0.000431,0.360459
83035000,0.0324,0.013523,0.002678,0.000431,0.227535
83036000,0.0324,0.013523,0.002678,0.000431,0.158310
83037000,0.0324,0.013523,0.002678,0.000431,0.148556
83038000,0.0324,0.013523,0.002678,0.000431,0.130221
83039000,0.0324,0.013523,0.002678,0.000431,0.112004
83040000,0.0324,0.013523,0.002678,0.000431,0.088616
83041000,0.0324,0.013523,0.002678,0.000431,0.075571
83042000,0.0324,0.013523,0.002678,0.000431,0.065933
83043000,0.0324,0.013523,0.002678,0.000431,0.045836
83044000,0.0324,0.013523,0.002678,0.000431,0.045601
83045000,0.0324,0.013523,0.002678,0.000431,0.039372
83046000,0.0324,0.013523,0.002678,0.000431,0.025739
83047000,0.0324,0.013523,0.002678,0.000431,0.025504
83048000,0.0324,0.013523,0.002678,0.000431,0.020920
83049000,0.0324,0.013523,0.002678,0.000431,0.011988
83050000,0.0324,0.013523,0.002678,0.000431,0.014809
83051000,0.0324,0.013523,0.002678,0.000431,0.015396
83052000,0.0324,0.013523,0.002678,0.000431,0.015749
83053000,0.0324,0.013523,0.002678,0.000431,0.011518
83054000,0.0324,0.013523,0.002678,0.000431,0.007052
83055000,0.0324,0.013523,0.002678,0.000431,0.007757
83056000,0.0324,0.013523,0.002678,0.000431,0.009285
83057000,0.0324,0.013523,0.002678,0.000431,0.008345
83058000,0.0324,0.013523,0.002678,0.000431,0.005994
83059000,0.0324,0.013523,0.002678,0.000431,0.005524
83060000,0.0324,0.013523,0.002678,0.000431,0.008109
83061000,0.0324,0.013523,0.002678,0.000431,0.005054
83062000,0.0324,0.013523,0.002678,0.000431,0.005524
83063000,0.0324,0.013523,0.002678,0.000431,0.006464
83064000,0.0324,0.013523,0.002678,0.000431,0.006347
83065000,0.0324,0.013523,0.002678,0.000431,0.005406
83066000,0.0324,0.013523,0.002678,0.000431,0.000705
83067000,0.0324,0.013523,0.002678,0.000431,0.000940
83068000,0.0324,0.013523,0.002678,0.000431,0.000823
83069000,0.0324,0.013523,0.002678,0.000431,0.000823
83070000,0.0324,0.013523,0.002678,0.000431,0.000823
83071000,0.0324,0.013523,0.002678,0.000431,0.000823
83072000,0.0324,0.013523,0.002678,0.000431,0.000940
83073000,0.0324,0.013523,0.002678,0.000431,0.000705
83074000,0.0324,0.013523,0.002678,0.000431,0.000940
83075000,0.0324,0.013523,0.002678,0.000431,0.000705
83076000,0.0324,0.013523,0.002678,0.000431,0.000940
83077000,0.0324,0.013523,0.002678,0.000431,0.000705
83078000,0.0324,0.013523,0.002678,0.000431,0.000823
83079000,0.0324,0.013523,0.002678,0.000431,0.005641
83080000,0.0324,0.013523,0.002678,0.000431,0.530992
83081000,0.0324,0.013523,0.002678,0.000431,0.710223
83082000,0.0324,0.013523,0.002678,0.000431,0.228357
83083000,0.0324,0.013523,0.002678,0.000431,0.158663
83084000,0.0324,0.013523,0.002678,0.000431,0.479868
83085000,0.0324,0.013523,0.002678,0.000431,0.399596
83086000,0.0324,0.013523,0.002678,0.000431,0.268082
83087000,0.0324,0.013523,0.002678,0.000431,0.301460
83088000,0.0324,0.013523,0.002678,0.000431,0.146558
83089000,0.0324,0.013523,0.002678,0.000431,0.116118
83090000,0.0324,0.013523,0.002678,0.000431,0.367981
83091000,0.0324,0.013523,0.002678,0.000431,0.388431
83092000,0.0324,0.013523,0.002678,0.000431,0.195449
83093000,0.0324,0.013523,0.002678,0.000431,0.183814
83094000,0.0324,0.013523,0.002678,0.000431,0.143502
83095000,0.0324,0.013523,0.002678,0.000431,0.129634
83096000,0.0324,0.013523,0.002678,0.000431,0.088851
83097000,0.0324,0.013523,0.002678,0.000431,0.080389
83098000,0.0324,0.013523,0.002678,0.000431,0.063113
83099000,0.0324,0.013523,0.002678,0.000431,0.051360
83100000,0.0324,0.013523,0.002678,0.000431,0.052535
83101000,0.0324,0.013523,0.002678,0.000431,0.034906
83102000,0.0324,0.013523,0.002678,0.000431,0.043603
83103000,0.0324,0.013523,0.002678,0.000431,0.041958
83104000,0.0324,0.013523,0.002678,0.000431,0.023858
83105000,0.0324,0.013523,0.002678,0.000431,0.023858
83106000,0.0324,0.013523,0.002678,0.000431,0.020450
83107000,0.0324,0.013523,0.002678,0.000431,0.011400
83108000,0.0324,0.013523,0.002678,0.000431,0.011165
83109000,0.0324,0.013523,0.002678,0.000431,0.018805
83110000,0.0324,0.013523,0.002678,0.000431,0.009167
83111000,0.0324,0.013523,0.002678,0.000431,0.007052
83112000,0.0324,0.013523,0.002678,0.000431,0.004349
83113000,0.0324,0.013523,0.002678,0.000431,0.004349
83114000,0.0324,0.013523,0.002678,0.000431,0.005759
83115000,0.0324,0.013523,0.002678,0.000431,0.003408
83116000,0.0324,0.013523,0.002678,0.000431,0.003526
83117000,0.0324,0.013523,0.002678,0.000431,0.003643
83118000,0.0324,0.013523,0.002678,0.000431,0.003291
83119000,0.0324,0.013523,0.002678,0.000431,0.003291
83120000,0.0324,0.013523,0.002678,0.000431,0.004701
83121000,0.0324,0.013523,0.002678,0.000431,0.005994
83122000,0.0324,0.013523,0.002678,0.000431,0.001175
83123000,0.0324,0.013523,0.002678,0.000431,0.000823
83124000,0.0324,0.013523,0.002678,0.000431,0.000823
83125000,0.0324,0.013523,0.002678,0.000431,0.000705
83126000,0.0324,0.013523,0.002678,0.000431,0.000940
83127000,0.0324,0.013523,0.002678,0.000431,0.000940
83128000,0.0324,0.013523,0.002678,0.000431,0.000705
83129000,0.0324,0.013523,0.002678,0.000431,0.000940
83130000,0.0324,0.013523,0.002678,0.000431,0.000705
83131000,0.0324,0.013523,0.002678,0.000431,0.000940
83132000,0.0324,0.013523,0.002678,0.000431,0.000705
83133000,0.0324,0.013523,0.002678,0.000431,0.000823
83134000,0.0324,0.013523,0.002678,0.000431,0.000823
83135000,0.0324,0.013523,0.002678,0.000431,0.000940
83136000,0.0324,0.013523,0.002678,0.000431,0.000823
83137000,0.0324,0.013523,0.002678,0.000431,0.000823
83138000,0.0324,0.013523,0.002678,0.000431,0.000705
83139000,0.0324,0.013523,0.002678,0.000431,0.000940
83140000,0.0324,0.013523,0.002678,0.000431,0.000940
83141000,0.0324,0.013523,0.002678,0.000431,0.000705
83142000,0.0324,0.013523,0.002678,0.000431,0.000823
83143000,0.0324,0.013523,0.002678,0.000431,0.000705
83144000,0.0324,0.013523,0.002678,0.000431,0.000823
83145000,0.0324,0.013523,0.002678,0.000431,0.000940
83146000,0.0324,0.013523,0.002678,0.000431,0.000705
83147000,0.0324,0.013523,0.002678,0.000431,0.099429
83148000,0.0324,0.013523,0.002678,0.000431,0.710693
83149000,0.0324,0.013523,0.002678,0.000431,0.561550
83150000,0.0324,0.013523,0.002678,0.000431,0.142444
83151000,0.0324,0.013523,0.002678,0.000431,0.147615
83152000,0.0324,0.013523,0.002678,0.000431,0.606798
83153000,0.0324,0.013523,0.002678,0.000431,0.267494
83154000,0.0324,0.013523,0.002678,0.000431,0.326376
83155000,0.0324,0.013523,0.002678,0.000431,0.215194
83156000,0.0324,0.013523,0.002678,0.000431,0.150436
83157000,0.0324,0.013523,0.002678,0.000431,0.112474
83158000,0.0324,0.013523,0.002678,0.000431,0.467410
83159000,0.0324,0.013523,0.002678,0.000431,0.347766
83160000,0.0324,0.013523,0.002678,0.000431,0.236467
83161000,0.0324,0.013523,0.002678,0.000431,0.197212
83162000,0.0324,0.013523,0.002678,0.000431,0.155255
83163000,0.0324,0.013523,0.002678,0.000431,0.143384
83164000,0.0324,0.013523,0.002678,0.000431,0.108596
83165000,0.0324,0.013523,0.002678,0.000431,0.098606
83166000,0.0324,0.013523,0.002678,0.000431,0.093787
83167000,0.0324,0.013523,0.002678,0.000431,0.069107
83168000,0.0324,0.013523,0.002678,0.000431,0.061702
83169000,0.0324,0.013523,0.002678,0.000431,0.050420
83170000,0.0324,0.013523,0.002678,0.000431,0.054180
83171000,0.0324,0.013523,0.002678,0.000431,0.036199
83172000,0.0324,0.013523,0.002678,0.000431,0.038197
83173000,0.0324,0.013523,0.002678,0.000431,0.031615
83174000,0.0324,0.013523,0.002678,0.000431,0.023271
83175000,0.0324,0.013523,0.002678,0.000431,0.029500
83176000,0.0324,0.013523,0.002678,0.000431,0.024798
83177000,0.0324,0.013523,0.002678,0.000431,0.017864
83178000,0.0324,0.013523,0.002678,0.000431,0.018099
83179000,0.0324,0.013523,0.002678,0.000431,0.011165
83180000,0.0324,0.013523,0.002678,0.000431,0.013163
83181000,0.0324,0.013523,0.002678,0.000431,0.011165
83182000,0.0324,0.013523,0.002678,0.000431,0.005054
83183000,0.0324,0.013523,0.002678,0.000431,0.004113
83184000,0.0324,0.013523,0.002678,0.000431,0.003408
83185000,0.0324,0.013523,0.002678,0.000431,0.002821
83186000,0.0324,0.013523,0.002678,0.000431,0.001175
83187000,0.0324,0.013523,0.002678,0.000431,0.000823
83188000,0.0324,0.013523,0.002678,0.000431,0.000940
83189000,0.0324,0.013523,0.002678,0.000431,0.034318
83190000,0.0324,0.013523,0.002678,0.000431,0.769692
83191000,0.0324,0.013523,0.002678,0.000431,0.563195
83192000,0.0324,0.013523,0.002678,0.000431,0.176292
83193000,0.0324,0.013523,0.002678,0.000431,0.153139
83194000,0.0324,0.013523,0.002678,0.000431,0.588464
83195000,0.0324,0.013523,0.002678,0.000431,0.300755
83196000,0.0324,0.013523,0.002678,0.000431,0.271725
83197000,0.0324,0.013523,0.002678,0.000431,0.213314
83198000,0.0324,0.013523,0.002678,0.000431,0.158546
83199000,0.0324,0.013523,0.002678,0.000431,0.106951
83200000,0.0324,0.013523,0.002678,0.000431,0.420751
83201000,0.0324,0.013523,0.002678,0.000431,0.241285
83202000,0.0324,0.013523,0.002678,0.000431,0.115765
83203000,0.0324,0.013523,0.002678,0.000431,0.105070
83204000,0.0324,0.013523,0.002678,0.000431,0.075571
83205000,0.0324,0.013523,0.002678,0.000431,0.065463
83206000,0.0324,0.013523,0.002678,0.000431,0.056178
83207000,0.0324,0.013523,0.002678,0.000431,0.056649
83208000,0.0324,0.013523,0.002678,0.000431,0.043720
83209000,0.0324,0.013523,0.002678,0.000431,0.034906
83210000,0.0324,0.013523,0.002678,0.000431,0.029029
83211000,0.0324,0.013523,0.002678,0.000431,0.025739
83212000,0.0324,0.013523,0.002678,0.000431,0.019510
83213000,0.0324,0.013523,0.002678,0.000431,0.015161
83214000,0.0324,0.013523,0.002678,0.000431,0.012811
83215000,0.0324,0.013523,0.002678,0.000431,0.010695
83216000,0.0324,0.013523,0.002678,0.000431,0.014691
83217000,0.0324,0.013523,0.002678,0.000431,0.011870
83218000,0.0324,0.013523,0.002678,0.000431,0.010930
83219000,0.0324,0.013523,0.002678,0.000431,0.009872
83220000,0.0324,0.013523,0.002678,0.000431,0.008462
83221000,0.0324,0.013523,0.002678,0.000431,0.008932
83222000,0.0324,0.013523,0.002678,0.000431,0.007169
83223000,0.0324,0.013523,0.002678,0.000431,0.007992
83224000,0.0324,0.013523,0.002678,0.000431,0.004936
83225000,0.0324,0.013523,0.002678,0.000431,0.005289
83226000,0.0324,0.013523,0.002678,0.000431,0.008697
83227000,0.0324,0.013523,0.002678,0.000431,0.002821
83228000,0.0324,0.013523,0.002678,0.000431,0.003173
83229000,0.0324,0.013523,0.002678,0.000431,0.006111
83230000,0.0324,0.013523,0.002678,0.000431,0.001880
83231000,0.0324,0.013523,0.002678,0.000431,0.002586
83232000,0.0324,0.013523,0.002678,0.000431,0.001645
83233000,0.0324,0.013523,0.002678,0.000431,0.002586
83234000,0.0324,0.013523,0.002678,0.000431,0.001880
83235000,0.0324,0.013523,0.002678,0.000431,0.002116
83236000,0.0324,0.013523,0.002678,0.000431,0.002351
83237000,0.0324,0.013523,0.002678,0.000431,0.001880
83238000,0.0324,0.013523,0.002678,0.000431,0.002468
83239000,0.0324,0.013523,0.002678,0.000431,0.001763
83240000,0.0324,0.013523,0.002678,0.000431,0.003996
83241000,0.0324,0.013523,0.002678,0.000431,0.000940
83242000,0.0324,0.013523,0.002678,0.000431,0.000705
83243000,0.0324,0.013523,0.002678,0.000431,0.000940
83244000,0.0324,0.013523,0.002678,0.000431,0.000940
83245000,0.0324,0.013523,0.002678,0.000431,0.000940
83246000,0.0324,0.013523,0.002678,0.000431,0.003291
83247000,0.0324,0.013523,0.002678,0.000431,0.442964
83248000,0.0324,0.013523,0.002678,0.000431,0.704346
83249000,0.0324,0.013523,0.002678,0.000431,0.148556
83250000,0.0324,0.013523,0.002678,0.000431,0.134452
83251000,0.0324,0.013523,0.002678,0.000431,0.297229
83252000,0.0324,0.013523,0.002678,0.000431,0.487507
83253000,0.0324,0.013523,0.002678,0.000431,0.300167
83254000,0.0324,0.013523,0.002678,0.000431,0.319794
83255000,0.0324,0.013523,0.002678,0.000431,0.139388
83256000,0.0324,0.013523,0.002678,0.000431,0.154902
83257000,0.0324,0.013523,0.002678,0.000431,0.104953
83258000,0.0324,0.013523,0.002678,0.000431,0.447782
83259000,0.0324,0.013523,0.002678,0.000431,0.266319
83260000,0.0324,0.013523,0.002678,0.000431,0.153257
83261000,0.0324,0.013523,0.002678,0.000431,0.125755
83262000,0.0324,0.013523,0.002678,0.000431,0.116118
83263000,0.0324,0.013523,0.002678,0.000431,0.090614
83264000,0.0324,0.013523,0.002678,0.000431,0.070869
83265000,0.0324,0.013523,0.002678,0.000431,0.066286
83266000,0.0324,0.013523,0.002678,0.000431,0.059469
83267000,0.0324,0.013523,0.002678,0.000431,0.044426
83268000,0.0324,0.013523,0.002678,0.000431,0.042193
83269000,0.0324,0.013523,0.002678,0.000431,0.029265
83270000,0.0324,0.013523,0.002678,0.000431,0.027972
83271000,0.0324,0.013523,0.002678,0.000431,0.026091
83272000,0.0324,0.013523,0.002678,0.000431,0.017629
83273000,0.0324,0.013523,0.002678,0.000431,0.016924
83274000,0.0324,0.013523,0.002678,0.000431,0.014691
83275000,0.0324,0.013523,0.002678,0.000431,0.016689
83276000,0.0324,0.013523,0.002678,0.000431,0.013986
83277000,0.0324,0.013523,0.002678,0.000431,0.014573
83278000,0.0324,0.013523,0.002678,0.000431,0.011988
83279000,0.0324,0.013523,0.002678,0.000431,0.011518
83280000,0.0324,0.013523,0.002678,0.000431,0.010107
83281000,0.0324,0.013523,0.002678,0.000431,0.009637
83282000,0.0324,0.013523,0.002678,0.000431,0.011400
83283000,0.0324,0.013523,0.002678,0.000431,0.011870
83284000,0.0324,0.013523,0.002678,0.000431,0.008932
83285000,0.0324,0.013523,0.002678,0.000431,0.012223
83286000,0.0324,0.013523,0.002678,0.000431,0.009637
83287000,0.0324,0.013523,0.002678,0.000431,0.006817
83288000,0.0324,0.013523,0.002678,0.000431,0.006582
83289000,0.0324,0.013523,0.002678,0.000431,0.008227
83290000,0.0324,0.013523,0.002678,0.000431,0.007874
83291000,0.0324,0.013523,0.002678,0.000431,0.004466
83292000,0.0324,0.013523,0.002678,0.000431,0.005289
83293000,0.0324,0.013523,0.002678,0.000431,0.004584
83294000,0.0324,0.013523,0.002678,0.000431,0.002821
83295000,0.0324,0.013523,0.002678,0.000431,0.003996
83296000,0.0324,0.013523,0.002678,0.000431,0.003291
83297000,0.0324,0.013523,0.002678,0.000431,0.001763
83298000,0.0324,0.013523,0.002678,0.000431,0.001880
83299000,0.0324,0.013523,0.002678,0.000431,0.001763
83300000,0.0324,0.013523,0.002678,0.000431,0.001645
83301000,0.0324,0.013523,0.002678,0.000431,0.001763
83302000,0.0324,0.013523,0.002678,0.000431,0.001880
83303000,0.0324,0.013523,0.002678,0.000431,0.001645
83304000,0.0324,0.013523,0.002678,0.000431,0.001645
83305000,0.0324,0.013523,0.002678,0.000431,0.001880
83306000,0.0324,0.013523,0.002678,0.000431,0.001880
83307000,0.0324,0.013523,0.002678,0.000431,0.003526
83308000,0.0324,0.013523,0.002678,0.000431,0.000823
83309000,0.0324,0.013523,0.002678,0.000431,0.000940
83310000,0.0324,0.013523,0.002678,0.000431,0.000940
83311000,0.0324,0.013523,0.002678,0.000431,0.000823
83312000,0.0324,0.013523,0.002678,0.000431,0.000823
83313000,0.0324,0.013523,0.002678,0.000431,0.000940
83314000,0.0324,0.013523,0.002678,0.000431,0.000940
83315000,0.0324,0.013523,0.002678,0.000431,0.003056
83316000,0.0324,0.013523,0.002678,0.000431,0.497262
83317000,0.0324,0.013523,0.002678,0.000431,0.689538
83318000,0.0324,0.013523,0.002678,0.000431,0.184519
83319000,0.0324,0.013523,0.002678,0.000431,0.134452
83320000,0.0324,0.013523,0.002678,0.000431,0.391486
83321000,0.0324,0.013523,0.002678,0.000431,0.385610
83322000,0.0324,0.013523,0.002678,0.000431,0.299462
83323000,0.0324,0.013523,0.002678,0.000431,0.288767
83324000,0.0324,0.013523,0.002678,0.000431,0.141151
83325000,0.0324,0.013523,0.002678,0.000431,0.156783
83326000,0.0324,0.013523,0.002678,0.000431,0.117411
83327000,0.0324,0.013523,0.002678,0.000431,0.418283
83328000,0.0324,0.013523,0.002678,0.000431,0.251275
83329000,0.0324,0.013523,0.002678,0.000431,0.122817
83330000,0.0324,0.013523,0.002678,0.000431,0.100369
83331000,0.0324,0.013523,0.002678,0.000431,0.086266
83332000,0.0324,0.013523,0.002678,0.000431,0.070517
83333000,0.0324,0.013523,0.002678,0.000431,0.055943
83334000,0.0324,0.013523,0.002678,0.000431,0.052183
83335000,0.0324,0.013523,0.002678,0.000431,0.041017
83336000,0.0324,0.013523,0.002678,0.000431,0.036434
83337000,0.0324,0.013523,0.002678,0.000431,0.036199
83338000,0.0324,0.013523,0.002678,0.000431,0.024446
83339000,0.0324,0.013523,0.002678,0.000431,0.017277
83340000,0.0324,0.013523,0.002678,0.000431,0.019157
83341000,0.0324,0.013523,0.002678,0.000431,0.014338
83342000,0.0324,0.013523,0.002678,0.000431,0.013868
83343000,0.0324,0.013523,0.002678,0.000431,0.014573
83344000,0.0324,0.013523,0.002678,0.000431,0.006934
83345000,0.0324,0.013523,0.002678,0.000431,0.008932
83346000,0.0324,0.013523,0.002678,0.000431,0.005171
83347000,0.0324,0.013523,0.002678,0.000431,0.005289
83348000,0.0324,0.013523,0.002678,0.000431,0.005171
83349000,0.0324,0.013523,0.002678,0.000431,0.006582
83350000,0.0324,0.013523,0.002678,0.000431,0.004701
83351000,0.0324,0.013523,0.002678,0.000431,0.005054
83352000,0.0324,0.013523,0.002678,0.000431,0.005524
83353000,0.0324,0.013523,0.002678,0.000431,0.003173
83354000,0.0324,0.013523,0.002678,0.000431,0.001528
83355000,0.0324,0.013523,0.002678,0.000431,0.001763
83356000,0.0324,0.013523,0.002678,0.000431,0.001880
83357000,0.0324,0.013523,0.002678,0.000431,0.001645
83358000,0.0324,0.013523,0.002678,0.000431,0.001763
83359000,0.0324,0.013523,0.002678,0.000431,0.001528
83360000,0.0324,0.013523,0.002678,0.000431,0.001880
83361000,0.0324,0.013523,0.002678,0.000431,0.001880
83362000,0.0324,0.013523,0.002678,0.000431,0.001528
83363000,0.0324,0.013523,0.002678,0.000431,0.001763
83364000,0.0324,0.013523,0.002678,0.000431,0.001645
83365000,0.0324,0.013523,0.002678,0.000431,0.001880
83366000,0.0324,0.013523,0.002678,0.000431,0.001645
83367000,0.0324,0.013523,0.002678,0.000431,0.001645
83368000,0.0324,0.013523,0.002678,0.000431,0.004701
83369000,0.0324,0.013523,0.002678,0.000431,0.420516
83370000,0.0324,0.013523,0.002678,0.000431,0.707050
83371000,0.0324,0.013523,0.002678,0.000431,0.163129
83372000,0.0324,0.013523,0.002678,0.000431,0.132102
83373000,0.0324,0.013523,0.002678,0.000431,0.213666
83374000,0.0324,0.013523,0.002678,0.000431,0.598806
83375000,0.0324,0.013523,0.002678,0.000431,0.247749
83376000,0.0324,0.013523,0.002678,0.000431,0.318384
83377000,0.0324,0.013523,0.002678,0.000431,0.166067
83378000,0.0324,0.013523,0.002678,0.000431,0.150436
83379000,0.0324,0.013523,0.002678,0.000431,0.107303
83380000,0.0324,0.013523,0.002678,0.000431,0.359401
83381000,0.0324,0.013523,0.002678,0.000431,0.337188
83382000,0.0324,0.013523,0.002678,0.000431,0.144090
83383000,0.0324,0.013523,0.002678,0.000431,0.118939
83384000,0.0324,0.013523,0.002678,0.000431,0.093082
83385000,0.0324,0.013523,0.002678,0.000431,0.076628
83386000,0.0324,0.013523,0.002678,0.000431,0.069694
83387000,0.0324,0.013523,0.002678,0.000431,0.062525
83388000,0.0324,0.013523,0.002678,0.000431,0.046424
83389000,0.0324,0.013523,0.002678,0.000431,0.040547
83390000,0.0324,0.013523,0.002678,0.000431,0.029265
83391000,0.0324,0.013523,0.002678,0.000431,0.024446
83392000,0.0324,0.013523,0.002678,0.000431,0.021625
83393000,0.0324,0.013523,0.002678,0.000431,0.018805
83394000,0.0324,0.013523,0.002678,0.000431,0.018452
83395000,0.0324,0.013523,0.002678,0.000431,0.010578
83396000,0.0324,0.013523,0.002678,0.000431,0.009637
83397000,0.0324,0.013523,0.002678,0.000431,0.007757
83398000,0.0324,0.013523,0.002678,0.000431,0.008932
83399000,0.0324,0.013523,0.002678,0.000431,0.005641
83400000,0.0324,0.013523,0.002678,0.000431,0.003878
83401000,0.0324,0.013523,0.002678,0.000431,0.016807
83402000,0.0324,0.013523,0.002678,0.000431,0.634417
83403000,0.0324,0.013523,0.002678,0.000431,0.597278
83404000,0.0324,0.013523,0.002678,0.000431,0.133865
83405000,0.0324,0.013523,0.002678,0.000431,0.133512
83406000,0.0324,0.013523,0.002678,0.000431,0.522060
83407000,0.0324,0.013523,0.002678,0.000431,0.245634
83408000,0.0324,0.013523,0.002678,0.000431,0.271960
83409000,0.0324,0.013523,0.002678,0.000431,0.310980
83410000,0.0324,0.013523,0.002678,0.000431,0.140446
83411000,0.0324,0.013523,0.002678,0.000431,0.150671
83412000,0.0324,0.013523,0.002678,0.000431,0.119761
83413000,0.0324,0.013523,0.002678,0.000431,0.443786
83414000,0.0324,0.013523,0.002678,0.000431,0.265026
83415000,0.0324,0.013523,0.002678,0.000431,0.152904
83416000,0.0324,0.013523,0.002678,0.000431,0.123640
83417000,0.0324,0.013523,0.002678,0.000431,0.103542
83418000,0.0324,0.013523,0.002678,0.000431,0.076981
83419000,0.0324,0.013523,0.002678,0.000431,0.070634
83420000,0.0324,0.013523,0.002678,0.000431,0.060527
83421000,0.0324,0.013523,0.002678,0.000431,0.043720
83422000,0.0324,0.013523,0.002678,0.000431,0.037609
83423000,0.0324,0.013523,0.002678,0.000431,0.029382
83424000,0.0324,0.013523,0.002678,0.000431,0.024798
83425000,0.0324,0.013523,0.002678,0.000431,0.022565
83426000,0.0324,0.013523,0.002678,0.000431,0.019627
83427000,0.0324,0.013523,0.002678,0.000431,0.014573
83428000,0.0324,0.013523,0.002678,0.000431,0.011635
83429000,0.0324,0.013523,0.002678,0.000431,0.010460
83430000,0.0324,0.013523,0.002678,0.000431,0.011283
83431000,0.0324,0.013523,0.002678,0.000431,0.017159
83432000,0.0324,0.013523,0.002678,0.000431,0.005641
83433000,0.0324,0.013523,0.002678,0.000431,0.004936
83434000,0.0324,0.013523,0.002678,0.000431,0.003408
83435000,0.0324,0.013523,0.002678,0.000431,0.003526
83436000,0.0324,0.013523,0.002678,0.000431,0.003526
83437000,0.0324,0.013523,0.002678,0.000431,0.003291
83438000,0.0324,0.013523,0.002678,0.000431,0.005641
83439000,0.0324,0.013523,0.002678,0.000431,0.002821
83440000,0.0324,0.013523,0.002678,0.000431,0.002351
83441000,0.0324,0.013523,0.002678,0.000431,0.002586
83442000,0.0324,0.013523,0.002678,0.000431,0.002703
83443000,0.0324,0.013523,0.002678,0.000431,0.002703
83444000,0.0324,0.013523,0.002678,0.000431,0.002351
83445000,0.0324,0.013523,0.002678,0.000431,0.002703
83446000,0.0324,0.013523,0.002678,0.000431,0.003761
83447000,0.0324,0.013523,0.002678,0.000431,0.001645
83448000,0.0324,0.013523,0.002678,0.000431,0.001645
83449000,0.0324,0.013523,0.002678,0.000431,0.001763
83450000,0.0324,0.013523,0.002678,0.000431,0.001763
83451000,0.0324,0.013523,0.002678,0.000431,0.001645
83452000,0.0324,0.013523,0.002678,0.000431,0.001645
83453000,0.0324,0.013523,0.002678,0.000431,0.001763
83454000,0.0324,0.013523,0.002678,0.000431,0.001880
83455000,0.0324,0.013523,0.002678,0.000431,0.001645
83456000,0.0324,0.013523,0.002678,0.000431,0.001528
83457000,0.0324,0.013523,0.002678,0.000431,0.001763
83458000,0.0324,0.013523,0.002678,0.000431,0.001763
83459000,0.0324,0.013523,0.002678,0.000431,0.001645
83460000,0.0324,0.013523,0.002678,0.000431,0.001763
83461000,0.0324,0.013523,0.002678,0.000431,0.001645
83462000,0.0324,0.013523,0.002678,0.000431,0.001763
83463000,0.0324,0.013523,0.002678,0.000431,0.001528
83464000,0.0324,0.013523,0.002678,0.000431,0.001880
83465000,0.0324,0.013523,0.002678,0.000431,0.001645
83466000,0.0324,0.013523,0.002678,0.000431,0.001763
83467000,0.0324,0.013523,0.002678,0.000431,0.001528
83468000,0.0324,0.013523,0.002678,0.000431,0.001763
83469000,0.0324,0.013523,0.002678,0.000431,0.001763
83470000,0.0324,0.013523,0.002678,0.000431,0.001410
83471000,0.0324,0.013523,0.002678,0.000431,0.003878
83472000,0.0324,0.013523,0.002678,0.000431,0.000940
83473000,0.0324,0.013523,0.002678,0.000431,0.000940
83474000,0.0324,0.013523,0.002678,0.000431,0.002821
83475000,0.0324,0.013523,0.002678,0.000431,0.481983
83476000,0.0324,0.013523,0.002678,0.000431,0.738547
83477000,0.0324,0.013523,0.002678,0.000431,0.135628
83478000,0.0324,0.013523,0.002678,0.000431,0.134452
83479000,0.0324,0.013523,0.002678,0.000431,0.375150
83480000,0.0324,0.013523,0.002678,0.000431,0.384787
83481000,0.0324,0.013523,0.002678,0.000431,0.266436
83482000,0.0324,0.013523,0.002678,0.000431,0.309452
83483000,0.0324,0.013523,0.002678,0.000431,0.142914
83484000,0.0324,0.013523,0.002678,0.000431,0.151024
83485000,0.0324,0.013523,0.002678,0.000431,0.112710
83486000,0.0324,0.013523,0.002678,0.000431,0.420281
83487000,0.0324,0.013523,0.002678,0.000431,0.345298
83488000,0.0324,0.013523,0.002678,0.000431,0.192981
83489000,0.0324,0.013523,0.002678,0.000431,0.162306
83490000,0.0324,0.013523,0.002678,0.000431,0.137155
83491000,0.0324,0.013523,0.002678,0.000431,0.108949
83492000,0.0324,0.013523,0.002678,0.000431,0.104012
83493000,0.0324,0.013523,0.002678,0.000431,0.067109
83494000,0.0324,0.013523,0.002678,0.000431,0.057941
83495000,0.0324,0.013523,0.002678,0.000431,0.058647
83496000,0.0324,0.013523,0.002678,0.000431,0.060880
83497000,0.0324,0.013523,0.002678,0.000431,0.042428
83498000,0.0324,0.013523,0.002678,0.000431,0.037962
83499000,0.0324,0.013523,0.002678,0.000431,0.029265
83500000,0.0324,0.013523,0.002678,0.000431,0.032908
83501000,0.0324,0.013523,0.002678,0.000431,0.023036
83502000,0.0324,0.013523,0.002678,0.000431,0.012223
83503000,0.0324,0.013523,0.002678,0.000431,0.010460
83504000,0.0324,0.013523,0.002678,0.000431,0.015161
83505000,0.0324,0.013523,0.002678,0.000431,0.006229
83506000,0.0324,0.013523,0.002678,0.000431,0.007757
83507000,0.0324,0.013523,0.002678,0.000431,0.005054
83508000,0.0324,0.013523,0.002678,0.000431,0.005524
83509000,0.0324,0.013523,0.002678,0.000431,0.007169
83510000,0.0324,0.013523,0.002678,0.000431,0.002703
83511000,0.0324,0.013523,0.002678,0.000431,0.004936
83512000,0.0324,0.013523,0.002678,0.000431,0.001528
83513000,0.0324,0.013523,0.002678,0.000431,0.001880
83514000,0.0324,0.013523,0.002678,0.000431,0.001645
83515000,0.0324,0.013523,0.002678,0.000431,0.001645
83516000,0.0324,0.013523,0.002678,0.000431,0.001645
83517000,0.0324,0.013523,0.002678,0.000431,0.001880
83518000,0.0324,0.013523,0.002678,0.000431,0.005289
83519000,0.0324,0.013523,0.002678,0.000431,0.337306
83520000,0.0324,0.013523,0.002678,0.000431,0.751358
83521000,0.0324,0.013523,0.002678,0.000431,0.308511
83522000,0.0324,0.013523,0.002678,0.000431,0.132102
83523000,0.0324,0.013523,0.002678,0.000431,0.238582
83524000,0.0324,0.013523,0.002678,0.000431,0.494911
83525000,0.0324,0.013523,0.002678,0.000431,0.233528
83526000,0.0324,0.013523,0.002678,0.000431,0.379146
83527000,0.0324,0.013523,0.002678,0.000431,0.145970
83528000,0.0324,0.013523,0.002678,0.000431,0.162189
83529000,0.0324,0.013523,0.002678,0.000431,0.102602
83530000,0.0324,0.013523,0.002678,0.000431,0.484804
83531000,0.0324,0.013523,0.002678,0.000431,0.271138
83532000,0.0324,0.013523,0.002678,0.000431,0.165362
83533000,0.0324,0.013523,0.002678,0.000431,0.136098
83534000,0.0324,0.013523,0.002678,0.000431,0.113767
83535000,0.0324,0.013523,0.002678,0.000431,0.102250
83536000,0.0324,0.013523,0.002678,0.000431,0.095433
83537000,0.0324,0.013523,0.002678,0.000431,0.069929
83538000,0.0324,0.013523,0.002678,0.000431,0.056649
83539000,0.0324,0.013523,0.002678,0.000431,0.057471
83540000,0.0324,0.013523,0.002678,0.000431,0.035141
83541000,0.0324,0.013523,0.002678,0.000431,0.031968
83542000,0.0324,0.013523,0.002678,0.000431,0.027854
83543000,0.0324,0.013523,0.002678,0.000431,0.025504
83544000,0.0324,0.013523,0.002678,0.000431,0.034083
83545000,0.0324,0.013523,0.002678,0.000431,0.028559
83546000,0.0324,0.013523,0.002678,0.000431,0.020097
83547000,0.0324,0.013523,0.002678,0.000431,0.028677
83548000,0.0324,0.013523,0.002678,0.000431,0.012693
83549000,0.0324,0.013523,0.002678,0.000431,0.009167
83550000,0.0324,0.013523,0.002678,0.000431,0.011518
83551000,0.0324,0.013523,0.002678,0.000431,0.012458
83552000,0.0324,0.013523,0.002678,0.000431,0.008227
83553000,0.0324,0.013523,0.002678,0.000431,0.004466
83554000,0.0324,0.013523,0.002678,0.000431,0.006934
83555000,0.0324,0.013523,0.002678,0.000431,0.004466
83556000,0.0324,0.013523,0.002678,0.000431,0.003408
83557000,0.0324,0.013523,0.002678,0.000431,0.006699
83558000,0.0324,0.013523,0.002678,0.000431,0.002703
83559000,0.0324,0.013523,0.002678,0.000431,0.001528
83560000,0.0324,0.013523,0.002678,0.000431,0.001763
83561000,0.0324,0.013523,0.002678,0.000431,0.001880
83562000,0.0324,0.013523,0.002678,0.000431,0.001645
83563000,0.0324,0.013523,0.002678,0.000431,0.003526
83564000,0.0324,0.013523,0.002678,0.000431,0.000940
83565000,0.0324,0.013523,0.002678,0.000431,0.000823
83566000,0.0324,0.013523,0.002678,0.000431,0.000823
83567000,0.0324,0.013523,0.002678,0.000431,0.000823
83568000,0.0324,0.013523,0.002678,0.000431,0.000823
83569000,0.0324,0.013523,0.002678,0.000431,0.000823
83570000,0.0324,0.013523,0.002678,0.000431,0.000940
83571000,0.0324,0.013523,0.002678,0.000431,0.000823
83572000,0.0324,0.013523,0.002678,0.000431,0.000823
83573000,0.0324,0.013523,0.002678,0.000431,0.000940
83574000,0.0324,0.013523,0.002678,0.000431,0.000940
83575000,0.0324,0.013523,0.002678,0.000431,0.000940
83576000,0.0324,0.013523,0.002678,0.000431,0.000823
83577000,0.0324,0.013523,0.002678,0.000431,0.000940
83578000,0.0324,0.013523,0.002678,0.000431,0.000823
83579000,0.0324,0.013523,0.002678,0.000431,0.235879
83580000,0.0324,0.013523,0.002678,0.000431,0.623369
83581000,0.0324,0.013523,0.002678,0.000431,0.486684
83582000,0.0324,0.013523,0.002678,0.000431,0.141739
83583000,0.0324,0.013523,0.002678,0.000431,0.275369
83584000,0.0324,0.013523,0.002678,0.000431,0.571304
83585000,0.0324,0.013523,0.002678,0.000431,0.304868
83586000,0.0324,0.013523,0.002678,0.000431,0.347178
83587000,0.0324,0.013523,0.002678,0.000431,0.147733
83588000,0.0324,0.013523,0.002678,0.000431,0.121759
83589000,0.0324,0.013523,0.002678,0.000431,0.293350
83590000,0.0324,0.013523,0.002678,0.000431,0.409586
83591000,0.0324,0.013523,0.002678,0.000431,0.162424
83592000,0.0324,0.013523,0.002678,0.000431,0.125168
83593000,0.0324,0.013523,0.002678,0.000431,0.111769
83594000,0.0324,0.013523,0.002678,0.000431,0.094728
83595000,0.0324,0.013523,0.002678,0.000431,0.079332
83596000,0.0324,0.013523,0.002678,0.000431,0.066874
83597000,0.0324,0.013523,0.002678,0.000431,0.055826
83598000,0.0324,0.013523,0.002678,0.000431,0.045601
83599000,0.0324,0.013523,0.002678,0.000431,0.039725
83600000,0.0324,0.013523,0.002678,0.000431,0.039607
83601000,0.0324,0.013523,0.002678,0.000431,0.036551
83602000,0.0324,0.013523,0.002678,0.000431,0.025974
83603000,0.0324,0.013523,0.002678,0.000431,0.021155
83604000,0.0324,0.013523,0.002678,0.000431,0.012811
83605000,0.0324,0.013523,0.002678,0.000431,0.010813
83606000,0.0324,0.013523,0.002678,0.000431,0.011048
83607000,0.0324,0.013523,0.002678,0.000431,0.012576
83608000,0.0324,0.013523,0.002678,0.000431,0.014103
83609000,0.0324,0.013523,0.002678,0.000431,0.007169
83610000,0.0324,0.013523,0.002678,0.000431,0.006699
83611000,0.0324,0.013523,0.002678,0.000431,0.009050
83612000,0.0324,0.013523,0.002678,0.000431,0.008227
83613000,0.0324,0.013523,0.002678,0.000431,0.008345
83614000,0.0324,0.013523,0.002678,0.000431,0.003526
83615000,0.0324,0.013523,0.002678,0.000431,0.008345
83616000,0.0324,0.013523,0.002678,0.000431,0.003173
83617000,0.0324,0.013523,0.002678,0.000431,0.000940
83618000,0.0324,0.013523,0.002678,0.000431,0.000940
83619000,0.0324,0.013523,0.002678,0.000431,0.000940
83620000,0.0324,0.013523,0.002678,0.000431,0.000940
83621000,0.0324,0.013523,0.002678,0.000431,0.000940
83622000,0.0324,0.013523,0.002678,0.000431,0.000940
83623000,0.0324,0.013523,0.002678,0.000431,0.000940
83624000,0.0324,0.013523,0.002678,0.000431,0.000940
83625000,0.0324,0.013523,0.002678,0.000431,0.000940
83626000,0.0324,0.013523,0.002678,0.000431,0.000823
83627000,0.0324,0.013523,0.002678,0.000431,0.000940
83628000,0.0324,0.013523,0.002678,0.000431,0.000823
83629000,0.0324,0.013523,0.002678,0.000431,0.000940
83630000,0.0324,0.013523,0.002678,0.000431,0.000940
83631000,0.0324,0.013523,0.002678,0.000431,0.000823
83632000,0.0324,0.013523,0.002678,0.000431,0.000823
83633000,0.0324,0.013523,0.002678,0.000431,0.000940
83634000,0.0324,0.013523,0.002678,0.000431,0.000823
83635000,0.0324,0.013523,0.002678,0.000431,0.000940
83636000,0.0324,0.013523,0.002678,0.000431,0.000823
83637000,0.0324,0.013523,0.002678,0.000431,0.000940
83638000,0.0324,0.013523,0.002678,0.000431,0.000823
83639000,0.0324,0.013523,0.002678,0.000431,0.000823
83640000,0.0324,0.013523,0.002678,0.000431,0.000940
83641000,0.0324,0.013523,0.002678,0.000431,0.000940
83642000,0.0324,0.013523,0.002678,0.000431,0.000823
83643000,0.0324,0.013523,0.002678,0.000431,0.000823
83644000,0.0324,0.013523,0.002678,0.000431,0.000940
83645000,0.0324,0.013523,0.002678,0.000431,0.230120
83646000,0.0324,0.013523,0.002678,0.000431,0.621372
83647000,0.0324,0.013523,0.002678,0.000431,0.488800
83648000,0.0324,0.013523,0.002678,0.000431,0.133982
83649000,0.0324,0.013523,0.002678,0.000431,0.139741
83650000,0.0324,0.013523,0.002678,0.000431,0.593165
83651000,0.0324,0.013523,0.002678,0.000431,0.233293
83652000,0.0324,0.013523,0.002678,0.000431,0.326023
83653000,0.0324,0.013523,0.002678,0.000431,0.218485
83654000,0.0324,0.013523,0.002678,0.000431,0.146558
83655000,0.0324,0.013523,0.002678,0.000431,0.124110
83656000,0.0324,0.013523,0.002678,0.000431,0.302165
83657000,0.0324,0.013523,0.002678,0.000431,0.413934
83658000,0.0324,0.013523,0.002678,0.000431,0.176645
83659000,0.0324,0.013523,0.002678,0.000431,0.161601
83660000,0.0324,0.013523,0.002678,0.000431,0.132572
83661000,0.0324,0.013523,0.002678,0.000431,0.112239
83662000,0.0324,0.013523,0.002678,0.000431,0.096608
83663000,0.0324,0.013523,0.002678,0.000431,0.079684
83664000,0.0324,0.013523,0.002678,0.000431,0.069577
83665000,0.0324,0.013523,0.002678,0.000431,0.056649
83666000,0.0324,0.013523,0.002678,0.000431,0.065816
83667000,0.0324,0.013523,0.002678,0.000431,0.042780
83668000,0.0324,0.013523,0.002678,0.000431,0.031145
83669000,0.0324,0.013523,0.002678,0.000431,0.031380
83670000,0.0324,0.013523,0.002678,0.000431,0.029382
83671000,0.0324,0.013523,0.002678,0.000431,0.019275
83672000,0.0324,0.013523,0.002678,0.000431,0.021743
83673000,0.0324,0.013523,0.002678,0.000431,0.018334
83674000,0.0324,0.013523,0.002678,0.000431,0.022800
83675000,0.0324,0.013523,0.002678,0.000431,0.017982
83676000,0.0324,0.013523,0.002678,0.000431,0.010930
83677000,0.0324,0.013523,0.002678,0.000431,0.011048
83678000,0.0324,0.013523,0.002678,0.000431,0.005759
83679000,0.0324,0.013523,0.002678,0.000431,0.005171
83680000,0.0324,0.013523,0.002678,0.000431,0.008932
83681000,0.0324,0.013523,0.002678,0.000431,0.007757
83682000,0.0324,0.013523,0.002678,0.000431,0.003291
83683000,0.0324,0.013523,0.002678,0.000431,0.003526
83684000,0.0324,0.013523,0.002678,0.000431,0.003056
83685000,0.0324,0.013523,0.002678,0.000431,0.003526
83686000,0.0324,0.013523,0.002678,0.000431,0.003408
83687000,0.0324,0.013523,0.002678,0.000431,0.002938
83688000,0.0324,0.013523,0.002678,0.000431,0.003408
83689000,0.0324,0.013523,0.002678,0.000431,0.003408
83690000,0.0324,0.013523,0.002678,0.000431,0.003526
83691000,0.0324,0.013523,0.002678,0.000431,0.007169
83692000,0.0324,0.013523,0.002678,0.000431,0.002586
83693000,0.0324,0.013523,0.002678,0.000431,0.008345
83694000,0.0324,0.013523,0.002678,0.000431,0.520885
83695000,0.0324,0.013523,0.002678,0.000431,0.735491
83696000,0.0324,0.013523,0.002678,0.000431,0.149848
83697000,0.0324,0.013523,0.002678,0.000431,0.133512
83698000,0.0324,0.013523,0.002678,0.000431,0.415697
83699000,0.0324,0.013523,0.002678,0.000431,0.332017
83700000,0.0324,0.013523,0.002678,0.000431,0.238465
83701000,0.0324,0.013523,0.002678,0.000431,0.340244
83702000,0.0324,0.013523,0.002678,0.000431,0.147850
83703000,0.0324,0.013523,0.002678,0.000431,0.153139
83704000,0.0324,0.013523,0.002678,0.000431,0.108949
83705000,0.0324,0.013523,0.002678,0.000431,0.413347
83706000,0.0324,0.013523,0.002678,0.000431,0.322262
83707000,0.0324,0.013523,0.002678,0.000431,0.178878
83708000,0.0324,0.013523,0.002678,0.000431,0.150554
83709000,0.0324,0.013523,0.002678,0.000431,0.130809
83710000,0.0324,0.013523,0.002678,0.000431,0.117646
83711000,0.0324,0.013523,0.002678,0.000431,0.092612
83712000,0.0324,0.013523,0.002678,0.000431,0.089204
83713000,0.0324,0.013523,0.002678,0.000431,0.077098
83714000,0.0324,0.013523,0.002678,0.000431,0.073338
83715000,0.0324,0.013523,0.002678,0.000431,0.060409
83716000,0.0324,0.013523,0.002678,0.000431,0.047011
83717000,0.0324,0.013523,0.002678,0.000431,0.046071
83718000,0.0324,0.013523,0.002678,0.000431,0.036434
83719000,0.0324,0.013523,0.002678,0.000431,0.034201
83720000,0.0324,0.013523,0.002678,0.000431,0.030792
83721000,0.0324,0.013523,0.002678,0.000431,0.032203
83722000,0.0324,0.013523,0.002678,0.000431,0.025269
83723000,0.0324,0.013523,0.002678,0.000431,0.020567
83724000,0.0324,0.013523,0.002678,0.000431,0.019510
83725000,0.0324,0.013523,0.002678,0.000431,0.019745
83726000,0.0324,0.013523,0.002678,0.000431,0.015984
83727000,0.0324,0.013523,0.002678,0.000431,0.012105
83728000,0.0324,0.013523,0.002678,0.000431,0.010930
83729000,0.0324,0.013523,0.002678,0.000431,0.015044
83730000,0.0324,0.013523,0.002678,0.000431,0.009520
83731000,0.0324,0.013523,0.002678,0.000431,0.009872
83732000,0.0324,0.013523,0.002678,0.000431,0.008227
83733000,0.0324,0.013523,0.002678,0.000431,0.008580
83734000,0.0324,0.013523,0.002678,0.000431,0.008580
83735000,0.0324,0.013523,0.002678,0.000431,0.008462
83736000,0.0324,0.013523,0.002678,0.000431,0.011048
83737000,0.0324,0.013523,0.002678,0.000431,0.006582
83738000,0.0324,0.013523,0.002678,0.000431,0.006464
83739000,0.0324,0.013523,0.002678,0.000431,0.005759
83740000,0.0324,0.013523,0.002678,0.000431,0.003643
83741000,0.0324,0.013523,0.002678,0.000431,0.005994
83742000,0.0324,0.013523,0.002678,0.000431,0.002233
83743000,0.0324,0.013523,0.002678,0.000431,0.004701
83744000,0.0324,0.013523,0.002678,0.000431,0.001763
83745000,0.0324,0.013523,0.002678,0.000431,0.001528
83746000,0.0324,0.013523,0.002678,0.000431,0.001763
83747000,0.0324,0.013523,0.002678,0.000431,0.001528
83748000,0.0324,0.013523,0.002678,0.000431,0.004113
83749000,0.0324,0.013523,0.002678,0.000431,0.250923
83750000,0.0324,0.013523,0.002678,0.000431,0.698823
83751000,0.0324,0.013523,0.002678,0.000431,0.414052
83752000,0.0324,0.013523,0.002678,0.000431,0.132572
83753000,0.0324,0.013523,0.002678,0.000431,0.216839
83754000,0.0324,0.013523,0.002678,0.000431,0.612557
83755000,0.0324,0.013523,0.002678,0.000431,0.277954
83756000,0.0324,0.013523,0.002678,0.000431,0.314740
83757000,0.0324,0.013523,0.002678,0.000431,0.167830
83758000,0.0324,0.013523,0.002678,0.000431,0.154902
83759000,0.0324,0.013523,0.002678,0.000431,0.107421
83760000,0.0324,0.013523,0.002678,0.000431,0.480925
83761000,0.0324,0.013523,0.002678,0.000431,0.250570
83762000,0.0324,0.013523,0.002678,0.000431,0.161484
83763000,0.0324,0.013523,0.002678,0.000431,0.133982
83764000,0.0324,0.013523,0.002678,0.000431,0.109419
83765000,0.0324,0.013523,0.002678,0.000431,0.104600
83766000,0.0324,0.013523,0.002678,0.000431,0.090497
83767000,0.0324,0.013523,0.002678,0.000431,0.063935
83768000,0.0324,0.013523,0.002678,0.000431,0.049127
83769000,0.0324,0.013523,0.002678,0.000431,0.047481
83770000,0.0324,0.013523,0.002678,0.000431,0.046424
83771000,0.0324,0.013523,0.002678,0.000431,0.029500
83772000,0.0324,0.013523,0.002678,0.000431,0.036786
83773000,0.0324,0.013523,0.002678,0.000431,0.021860
83774000,0.0324,0.013523,0.002678,0.000431,0.015279
83775000,0.0324,0.013523,0.002678,0.000431,0.019040
83776000,0.0324,0.013523,0.002678,0.000431,0.010695
83777000,0.0324,0.013523,0.002678,0.000431,0.013868
83778000,0.0324,0.013523,0.002678,0.000431,0.012340
83779000,0.0324,0.013523,0.002678,0.000431,0.007522
83780000,0.0324,0.013523,0.002678,0.000431,0.010695
83781000,0.0324,0.013523,0.002678,0.000431,0.013516
83782000,0.0324,0.013523,0.002678,0.000431,0.006582
83783000,0.0324,0.013523,0.002678,0.000431,0.002703
83784000,0.0324,0.013523,0.002678,0.000431,0.002586
83785000,0.0324,0.013523,0.002678,0.000431,0.004584
83786000,0.0324,0.013523,0.002678,0.000431,0.001645
83787000,0.0324,0.013523,0.002678,0.000431,0.001880
83788000,0.0324,0.013523,0.002678,0.000431,0.019980
83789000,0.0324,0.013523,0.002678,0.000431,0.660038
83790000,0.0324,0.013523,0.002678,0.000431,0.595398
83791000,0.0324,0.013523,0.002678,0.000431,0.138448
83792000,0.0324,0.013523,0.002678,0.000431,0.137273
83793000,0.0324,0.013523,0.002678,0.000431,0.566133
83794000,0.0324,0.013523,0.002678,0.000431,0.243636
83795000,0.0324,0.013523,0.002678,0.000431,0.326023
83796000,0.0324,0.013523,0.002678,0.000431,0.296641
83797000,0.0324,0.013523,0.002678,0.000431,0.143149
83798000,0.0324,0.013523,0.002678,0.000431,0.138566
83799000,0.0324,0.013523,0.002678,0.000431,0.215312
83800000,0.0324,0.013523,0.002678,0.000431,0.461298
83801000,0.0324,0.013523,0.002678,0.000431,0.191336
83802000,0.0324,0.013523,0.002678,0.000431,0.153257
83803000,0.0324,0.013523,0.002678,0.000431,0.121407
83804000,0.0324,0.013523,0.002678,0.000431,0.120114
83805000,0.0324,0.013523,0.002678,0.000431,0.099546
83806000,0.0324,0.013523,0.002678,0.000431,0.087676
83807000,0.0324,0.013523,0.002678,0.000431,0.062172
83808000,0.0324,0.013523,0.002678,0.000431,0.051360
83809000,0.0324,0.013523,0.002678,0.000431,0.055356
83810000,0.0324,0.013523,0.002678,0.000431,0.053828
83811000,0.0324,0.013523,0.002678,0.000431,0.030557
83812000,0.0324,0.013523,0.002678,0.000431,0.029970
83813000,0.0324,0.013523,0.002678,0.000431,0.030557
83814000,0.0324,0.013523,0.002678,0.000431,0.022683
83815000,0.0324,0.013523,0.002678,0.000431,0.019627
83816000,0.0324,0.013523,0.002678,0.000431,0.024681
83817000,0.0324,0.013523,0.002678,0.000431,0.014221
83818000,0.0324,0.013523,0.002678,0.000431,0.010107
83819000,0.0324,0.013523,0.002678,0.000431,0.015866
83820000,0.0324,0.013523,0.002678,0.000431,0.004819
83821000,0.0324,0.013523,0.002678,0.000431,0.007169
83822000,0.0324,0.013523,0.002678,0.000431,0.003996
83823000,0.0324,0.013523,0.002678,0.000431,0.004349
83824000,0.0324,0.013523,0.002678,0.000431,0.004113
83825000,0.0324,0.013523,0.002678,0.000431,0.003878
83826000,0.0324,0.013523,0.002678,0.000431,0.007757
83827000,0.0324,0.013523,0.002678,0.000431,0.001175
83828000,0.0324,0.013523,0.002678,0.000431,0.001410
83829000,0.0324,0.013523,0.002678,0.000431,0.000823
83830000,0.0324,0.013523,0.002678,0.000431,0.001058
83831000,0.0324,0.013523,0.002678,0.000431,0.001175
83832000,0.0324,0.013523,0.002678,0.000431,0.232001
83833000,0.0324,0.013523,0.002678,0.000431,0.614790
83834000,0.0324,0.013523,0.002678,0.000431,0.502903
83835000,0.0324,0.013523,0.002678,0.000431,0.137390
83836000,0.0324,0.013523,0.002678,0.000431,0.158193
83837000,0.0324,0.013523,0.002678,0.000431,0.643584
83838000,0.0324,0.013523,0.002678,0.000431,0.275016
83839000,0.0324,0.013523,0.002678,0.000431,0.297464
83840000,0.0324,0.013523,0.002678,0.000431,0.190043
83841000,0.0324,0.013523,0.002678,0.000431,0.155842
83842000,0.0324,0.013523,0.002678,0.000431,0.116470
83843000,0.0324,0.013523,0.002678,0.000431,0.426040
83844000,0.0324,0.013523,0.002678,0.000431,0.213079
83845000,0.0324,0.013523,0.002678,0.000431,0.103072
83846000,0.0324,0.013523,0.002678,0.000431,0.073808
83847000,0.0324,0.013523,0.002678,0.000431,0.076393
83848000,0.0324,0.013523,0.002678,0.000431,0.060292
83849000,0.0324,0.013523,0.002678,0.000431,0.056531
83850000,0.0324,0.013523,0.002678,0.000431,0.049009
83851000,0.0324,0.013523,0.002678,0.000431,0.050890
83852000,0.0324,0.013523,0.002678,0.000431,0.030910
83853000,0.0324,0.013523,0.002678,0.000431,0.028559
83854000,0.0324,0.013523,0.002678,0.000431,0.025034
83855000,0.0324,0.013523,0.002678,0.000431,0.023153
83856000,0.0324,0.013523,0.002678,0.000431,0.024211
83857000,0.0324,0.013523,0.002678,0.000431,0.019510
83858000,0.0324,0.013523,0.002678,0.000431,0.018569
83859000,0.0324,0.013523,0.002678,0.000431,0.021625
83860000,0.0324,0.013523,0.002678,0.000431,0.016336
83861000,0.0324,0.013523,0.002678,0.000431,0.012340
83862000,0.0324,0.013523,0.002678,0.000431,0.010813
83863000,0.0324,0.013523,0.002678,0.000431,0.013046
83864000,0.0324,0.013523,0.002678,0.000431,0.007992
83865000,0.0324,0.013523,0.002678,0.000431,0.007992
83866000,0.0324,0.013523,0.002678,0.000431,0.007757
83867000,0.0324,0.013523,0.002678,0.000431,0.005171
83868000,0.0324,0.013523,0.002678,0.000431,0.005406
83869000,0.0324,0.013523,0.002678,0.000431,0.005171
83870000,0.0324,0.013523,0.002678,0.000431,0.005171
83871000,0.0324,0.013523,0.002678,0.000431,0.005171
83872000,0.0324,0.013523,0.002678,0.000431,0.007169
83873000,0.0324,0.013523,0.002678,0.000431,0.004349
83874000,0.0324,0.013523,0.002678,0.000431,0.004349
83875000,0.0324,0.013523,0.002678,0.000431,0.004466
83876000,0.0324,0.013523,0.002678,0.000431,0.004349
83877000,0.0324,0.013523,0.002678,0.000431,0.006699
83878000,0.0324,0.013523,0.002678,0.000431,0.004466
83879000,0.0324,0.013523,0.002678,0.000431,0.001880
83880000,0.0324,0.013523,0.002678,0.000431,0.001880
83881000,0.0324,0.013523,0.002678,0.000431,0.001645
83882000,0.0324,0.013523,0.002678,0.000431,0.001645
83883000,0.0324,0.013523,0.002678,0.000431,0.001880
83884000,0.0324,0.013523,0.002678,0.000431,0.001880
83885000,0.0324,0.013523,0.002678,0.000431,0.001645
83886000,0.0324,0.013523,0.002678,0.000431,0.002821
83887000,0.0324,0.013523,0.002678,0.000431,0.002233
83888000,0.0324,0.013523,0.002678,0.000431,0.000940
83889000,0.0324,0.013523,0.002678,0.000431,0.000823
83890000,0.0324,0.013523,0.002678,0.000431,0.072280
83891000,0.0324,0.013523,0.002678,0.000431,0.563900
83892000,0.0324,0.013523,0.002678,0.000431,0.583998
83893000,0.0324,0.013523,0.002678,0.000431,0.132572
83894000,0.0324,0.013523,0.002678,0.000431,0.133042
83895000,0.0324,0.013523,0.002678,0.000431,0.548504
83896000,0.0324,0.013523,0.002678,0.000431,0.236232
83897000,0.0324,0.013523,0.002678,0.000431,0.277249
83898000,0.0324,0.013523,0.002678,0.000431,0.244341
83899000,0.0324,0.013523,0.002678,0.000431,0.140799
83900000,0.0324,0.013523,0.002678,0.000431,0.142444
83901000,0.0324,0.013523,0.002678,0.000431,0.141151
83902000,0.0324,0.013523,0.002678,0.000431,0.315563
83903000,0.0324,0.013523,0.002678,0.000431,0.418283
83904000,0.0324,0.013523,0.002678,0.000431,0.180993
83905000,0.0324,0.013523,0.002678,0.000431,0.153139
83906000,0.0324,0.013523,0.002678,0.000431,0.116118
83907000,0.0324,0.013523,0.002678,0.000431,0.099429
83908000,0.0324,0.013523,0.002678,0.000431,0.081800
83909000,0.0324,0.013523,0.002678,0.000431,0.075453
83910000,0.0324,0.013523,0.002678,0.000431,0.066874
83911000,0.0324,0.013523,0.002678,0.000431,0.049714
83912000,0.0324,0.013523,0.002678,0.000431,0.042545
83913000,0.0324,0.013523,0.002678,0.000431,0.035141
83914000,0.0324,0.013523,0.002678,0.000431,0.026679
83915000,0.0324,0.013523,0.002678,0.000431,0.021155
83916000,0.0324,0.013523,0.002678,0.000431,0.019392
83917000,0.0324,0.013523,0.002678,0.000431,0.018922
83918000,0.0324,0.013523,0.002678,0.000431,0.027619
83919000,0.0324,0.013523,0.002678,0.000431,0.013516
83920000,0.0324,0.013523,0.002678,0.000431,0.010578
83921000,0.0324,0.013523,0.002678,0.000431,0.011165
83922000,0.0324,0.013523,0.002678,0.000431,0.010460
83923000,0.0324,0.013523,0.002678,0.000431,0.010695
83924000,0.0324,0.013523,0.002678,0.000431,0.007052
83925000,0.0324,0.013523,0.002678,0.000431,0.008815
83926000,0.0324,0.013523,0.002678,0.000431,0.009167
83927000,0.0324,0.013523,0.002678,0.000431,0.007287
83928000,0.0324,0.013523,0.002678,0.000431,0.005406
83929000,0.0324,0.013523,0.002678,0.000431,0.006582
83930000,0.0324,0.013523,0.002678,0.000431,0.000940
83931000,0.0324,0.013523,0.002678,0.000431,0.000705
83932000,0.0324,0.013523,0.002678,0.000431,0.000940
83933000,0.0324,0.013523,0.002678,0.000431,0.000940
83934000,0.0324,0.013523,0.002678,0.000431,0.000705
83935000,0.0324,0.013523,0.002678,0.000431,0.000705
83936000,0.0324,0.013523,0.002678,0.000431,0.000940
83937000,0.0324,0.013523,0.002678,0.000431,0.000823
83938000,0.0324,0.013523,0.002678,0.000431,0.000823
83939000,0.0324,0.013523,0.002678,0.000431,0.000823
83940000,0.0324,0.013523,0.002678,0.000431,0.000823
83941000,0.0324,0.013523,0.002678,0.000431,0.000705
83942000,0.0324,0.013523,0.002678,0.000431,0.065933
83943000,0.0324,0.013523,0.002678,0.000431,0.641234
83944000,0.0324,0.013523,0.002678,0.000431,0.596808
83945000,0.0324,0.013523,0.002678,0.000431,0.145735
83946000,0.0324,0.013523,0.002678,0.000431,0.140329
83947000,0.0324,0.013523,0.002678,0.000431,0.595280
83948000,0.0324,0.013523,0.002678,0.000431,0.252803
83949000,0.0324,0.013523,0.002678,0.000431,0.276661
83950000,0.0324,0.013523,0.002678,0.000431,0.270667
83951000,0.0324,0.013523,0.002678,0.000431,0.151024
83952000,0.0324,0.013523,0.002678,0.000431,0.159251
83953000,0.0324,0.013523,0.002678,0.000431,0.154079
83954000,0.0324,0.013523,0.002678,0.000431,0.518182
83955000,0.0324,0.013523,0.002678,0.000431,0.219660
83956000,0.0324,0.013523,0.002678,0.000431,0.171121
83957000,0.0324,0.013523,0.002678,0.000431,0.155725
83958000,0.0324,0.013523,0.002678,0.000431,0.131749
83959000,0.0324,0.013523,0.002678,0.000431,0.112945
83960000,0.0324,0.013523,0.002678,0.000431,0.095903
83961000,0.0324,0.013523,0.002678,0.000431,0.085796
83962000,0.0324,0.013523,0.002678,0.000431,0.074043
83963000,0.0324,0.013523,0.002678,0.000431,0.063700
83964000,0.0324,0.013523,0.002678,0.000431,0.065463
83965000,0.0324,0.013523,0.002678,0.000431,0.049832
83966000,0.0324,0.013523,0.002678,0.000431,0.045013
83967000,0.0324,0.013523,0.002678,0.000431,0.044073
83968000,0.0324,0.013523,0.002678,0.000431,0.037491
83969000,0.0324,0.013523,0.002678,0.000431,0.034083
83970000,0.0324,0.013523,0.002678,0.000431,0.027384
83971000,0.0324,0.013523,0.002678,0.000431,0.018452
83972000,0.0324,0.013523,0.002678,0.000431,0.021508
83973000,0.0324,0.013523,0.002678,0.000431,0.026209
83974000,0.0324,0.013523,0.002678,0.000431,0.019510
83975000,0.0324,0.013523,0.002678,0.000431,0.019275
83976000,0.0324,0.013523,0.002678,0.000431,0.007404
83977000,0.0324,0.013523,0.002678,0.000431,0.008462
83978000,0.0324,0.013523,0.002678,0.000431,0.007639
83979000,0.0324,0.013523,0.002678,0.000431,0.006817
83980000,0.0324,0.013523,0.002678,0.000431,0.006934
83981000,0.0324,0.013523,0.002678,0.000431,0.008697
83982000,0.0324,0.013523,0.002678,0.000431,0.005524
83983000,0.0324,0.013523,0.002678,0.000431,0.005876
83984000,0.0324,0.013523,0.002678,0.000431,0.005289
83985000,0.0324,0.013523,0.002678,0.000431,0.006111
83986000,0.0324,0.013523,0.002678,0.000431,0.005524
83987000,0.0324,0.013523,0.002678,0.000431,0.006699
83988000,0.0324,0.013523,0.002678,0.000431,0.008815
83989000,0.0324,0.013523,0.002678,0.000431,0.005524
83990000,0.0324,0.013523,0.002678,0.000431,0.004819
83991000,0.0324,0.013523,0.002678,0.000431,0.003526
83992000,0.0324,0.013523,0.002678,0.000431,0.004231
83993000,0.0324,0.013523,0.002678,0.000431,0.003878
83994000,0.0324,0.013523,0.002678,0.000431,0.003996
83995000,0.0324,0.013523,0.002678,0.000431,0.004584
83996000,0.0324,0.013523,0.002678,0.000431,0.003173
83997000,0.0324,0.013523,0.002678,0.000431,0.004701
83998000,0.0324,0.013523,0.002678,0.000431,0.003761
83999000,0.0324,0.013523,0.002678,0.000431,0.003996
