Cycle,Area(mm^2),PeakDynamic(W),SubthresholdLeakage(W),GateLeakage(W),RunTimeDynamic(W)
23000000,0.0324,0.013523,0.002678,0.000431,0.000823
23001000,0.0324,0.013523,0.002678,0.000431,0.000823
23002000,0.0324,0.013523,0.002678,0.000431,0.000705
23003000,0.0324,0.013523,0.002678,0.000431,0.000940
23004000,0.0324,0.013523,0.002678,0.000431,0.000940
23005000,0.0324,0.013523,0.002678,0.000431,0.000705
23006000,0.0324,0.013523,0.002678,0.000431,0.000940
23007000,0.0324,0.013523,0.002678,0.000431,0.000705
23008000,0.0324,0.013523,0.002678,0.000431,0.000940
23009000,0.0324,0.013523,0.002678,0.000431,0.000823
23010000,0.0324,0.013523,0.002678,0.000431,0.000823
23011000,0.0324,0.013523,0.002678,0.000431,0.000940
23012000,0.0324,0.013523,0.002678,0.000431,0.000705
23013000,0.0324,0.013523,0.002678,0.000431,0.000940
23014000,0.0324,0.013523,0.002678,0.000431,0.000823
23015000,0.0324,0.013523,0.002678,0.000431,0.000823
23016000,0.0324,0.013523,0.002678,0.000431,0.000823
23017000,0.0324,0.013523,0.002678,0.000431,0.000823
23018000,0.0324,0.013523,0.002678,0.000431,0.000823
23019000,0.0324,0.013523,0.002678,0.000431,0.000823
23020000,0.0324,0.013523,0.002678,0.000431,0.000940
23021000,0.0324,0.013523,0.002678,0.000431,0.000823
23022000,0.0324,0.013523,0.002678,0.000431,0.000823
23023000,0.0324,0.013523,0.002678,0.000431,0.000705
23024000,0.0324,0.013523,0.002678,0.000431,0.000940
23025000,0.0324,0.013523,0.002678,0.000431,0.000823
23026000,0.0324,0.013523,0.002678,0.000431,0.000940
23027000,0.0324,0.013523,0.002678,0.000431,0.003408
23028000,0.0324,0.013523,0.002678,0.000431,0.436617
23029000,0.0324,0.013523,0.002678,0.000431,0.741720
23030000,0.0324,0.013523,0.002678,0.000431,0.138918
23031000,0.0324,0.013523,0.002678,0.000431,0.134335
23032000,0.0324,0.013523,0.002678,0.000431,0.162306
23033000,0.0324,0.013523,0.002678,0.000431,0.570012
23034000,0.0324,0.013523,0.002678,0.000431,0.275956
23035000,0.0324,0.013523,0.002678,0.000431,0.278189
23036000,0.0324,0.013523,0.002678,0.000431,0.216017
23037000,0.0324,0.013523,0.002678,0.000431,0.145970
23038000,0.0324,0.013523,0.002678,0.000431,0.154785
23039000,0.0324,0.013523,0.002678,0.000431,0.176762
23040000,0.0324,0.013523,0.002678,0.000431,0.454129
23041000,0.0324,0.013523,0.002678,0.000431,0.159603
23042000,0.0324,0.013523,0.002678,0.000431,0.128811
23043000,0.0324,0.013523,0.002678,0.000431,0.107538
23044000,0.0324,0.013523,0.002678,0.000431,0.079567
23045000,0.0324,0.013523,0.002678,0.000431,0.065111
23046000,0.0324,0.013523,0.002678,0.000431,0.061467
23047000,0.0324,0.013523,0.002678,0.000431,0.052300
23048000,0.0324,0.013523,0.002678,0.000431,0.053123
23049000,0.0324,0.013523,0.002678,0.000431,0.037256
23050000,0.0324,0.013523,0.002678,0.000431,0.030910
23051000,0.0324,0.013523,0.002678,0.000431,0.027972
23052000,0.0324,0.013523,0.002678,0.000431,0.021155
23053000,0.0324,0.013523,0.002678,0.000431,0.025269
23054000,0.0324,0.013523,0.002678,0.000431,0.026914
23055000,0.0324,0.013523,0.002678,0.000431,0.017159
23056000,0.0324,0.013523,0.002678,0.000431,0.016689
23057000,0.0324,0.013523,0.002678,0.000431,0.015161
23058000,0.0324,0.013523,0.002678,0.000431,0.007639
23059000,0.0324,0.013523,0.002678,0.000431,0.008227
23060000,0.0324,0.013523,0.002678,0.000431,0.007404
23061000,0.0324,0.013523,0.002678,0.000431,0.007639
23062000,0.0324,0.013523,0.002678,0.000431,0.011283
23063000,0.0324,0.013523,0.002678,0.000431,0.005759
23064000,0.0324,0.013523,0.002678,0.000431,0.006229
23065000,0.0324,0.013523,0.002678,0.000431,0.005876
23066000,0.0324,0.013523,0.002678,0.000431,0.008109
23067000,0.0324,0.013523,0.002678,0.000431,0.010342
23068000,0.0324,0.013523,0.002678,0.000431,0.003526
23069000,0.0324,0.013523,0.002678,0.000431,0.003526
23070000,0.0324,0.013523,0.002678,0.000431,0.003526
23071000,0.0324,0.013523,0.002678,0.000431,0.003291
23072000,0.0324,0.013523,0.002678,0.000431,0.003408
23073000,0.0324,0.013523,0.002678,0.000431,0.003643
23074000,0.0324,0.013523,0.002678,0.000431,0.005289
23075000,0.0324,0.013523,0.002678,0.000431,0.002586
23076000,0.0324,0.013523,0.002678,0.000431,0.002586
23077000,0.0324,0.013523,0.002678,0.000431,0.004584
23078000,0.0324,0.013523,0.002678,0.000431,0.001645
23079000,0.0324,0.013523,0.002678,0.000431,0.001880
23080000,0.0324,0.013523,0.002678,0.000431,0.003056
23081000,0.0324,0.013523,0.002678,0.000431,0.001175
23082000,0.0324,0.013523,0.002678,0.000431,0.000823
23083000,0.0324,0.013523,0.002678,0.000431,0.000940
23084000,0.0324,0.013523,0.002678,0.000431,0.000823
23085000,0.0324,0.013523,0.002678,0.000431,0.003173
23086000,0.0324,0.013523,0.002678,0.000431,0.492913
23087000,0.0324,0.013523,0.002678,0.000431,0.752650
23088000,0.0324,0.013523,0.002678,0.000431,0.142092
23089000,0.0324,0.013523,0.002678,0.000431,0.133982
23090000,0.0324,0.013523,0.002678,0.000431,0.264791
23091000,0.0324,0.013523,0.002678,0.000431,0.563665
23092000,0.0324,0.013523,0.002678,0.000431,0.243636
23093000,0.0324,0.013523,0.002678,0.000431,0.354465
23094000,0.0324,0.013523,0.002678,0.000431,0.167360
23095000,0.0324,0.013523,0.002678,0.000431,0.144560
23096000,0.0324,0.013523,0.002678,0.000431,0.106245
23097000,0.0324,0.013523,0.002678,0.000431,0.458830
23098000,0.0324,0.013523,0.002678,0.000431,0.238230
23099000,0.0324,0.013523,0.002678,0.000431,0.137743
23100000,0.0324,0.013523,0.002678,0.000431,0.114472
23101000,0.0324,0.013523,0.002678,0.000431,0.100604
23102000,0.0324,0.013523,0.002678,0.000431,0.087323
23103000,0.0324,0.013523,0.002678,0.000431,0.071222
23104000,0.0324,0.013523,0.002678,0.000431,0.048774
23105000,0.0324,0.013523,0.002678,0.000431,0.048657
23106000,0.0324,0.013523,0.002678,0.000431,0.036786
23107000,0.0324,0.013523,0.002678,0.000431,0.029382
23108000,0.0324,0.013523,0.002678,0.000431,0.029970
23109000,0.0324,0.013523,0.002678,0.000431,0.018334
23110000,0.0324,0.013523,0.002678,0.000431,0.015396
23111000,0.0324,0.013523,0.002678,0.000431,0.013516
23112000,0.0324,0.013523,0.002678,0.000431,0.013868
23113000,0.0324,0.013523,0.002678,0.000431,0.012105
23114000,0.0324,0.013523,0.002678,0.000431,0.010930
23115000,0.0324,0.013523,0.002678,0.000431,0.010695
23116000,0.0324,0.013523,0.002678,0.000431,0.010342
23117000,0.0324,0.013523,0.002678,0.000431,0.008462
23118000,0.0324,0.013523,0.002678,0.000431,0.004936
23119000,0.0324,0.013523,0.002678,0.000431,0.005289
23120000,0.0324,0.013523,0.002678,0.000431,0.007992
23121000,0.0324,0.013523,0.002678,0.000431,0.006699
23122000,0.0324,0.013523,0.002678,0.000431,0.006699
23123000,0.0324,0.013523,0.002678,0.000431,0.003643
23124000,0.0324,0.013523,0.002678,0.000431,0.001528
23125000,0.0324,0.013523,0.002678,0.000431,0.001763
23126000,0.0324,0.013523,0.002678,0.000431,0.001880
23127000,0.0324,0.013523,0.002678,0.000431,0.001410
23128000,0.0324,0.013523,0.002678,0.000431,0.001880
23129000,0.0324,0.013523,0.002678,0.000431,0.001528
23130000,0.0324,0.013523,0.002678,0.000431,0.001763
23131000,0.0324,0.013523,0.002678,0.000431,0.001645
23132000,0.0324,0.013523,0.002678,0.000431,0.001645
23133000,0.0324,0.013523,0.002678,0.000431,0.001645
23134000,0.0324,0.013523,0.002678,0.000431,0.001645
23135000,0.0324,0.013523,0.002678,0.000431,0.001763
23136000,0.0324,0.013523,0.002678,0.000431,0.001528
23137000,0.0324,0.013523,0.002678,0.000431,0.001645
23138000,0.0324,0.013523,0.002678,0.000431,0.001763
23139000,0.0324,0.013523,0.002678,0.000431,0.003291
23140000,0.0324,0.013523,0.002678,0.000431,0.000705
23141000,0.0324,0.013523,0.002678,0.000431,0.000940
23142000,0.0324,0.013523,0.002678,0.000431,0.000940
23143000,0.0324,0.013523,0.002678,0.000431,0.000705
23144000,0.0324,0.013523,0.002678,0.000431,0.000940
23145000,0.0324,0.013523,0.002678,0.000431,0.000705
23146000,0.0324,0.013523,0.002678,0.000431,0.000940
23147000,0.0324,0.013523,0.002678,0.000431,0.000823
23148000,0.0324,0.013523,0.002678,0.000431,0.000823
23149000,0.0324,0.013523,0.002678,0.000431,0.000940
23150000,0.0324,0.013523,0.002678,0.000431,0.000823
23151000,0.0324,0.013523,0.002678,0.000431,0.000823
23152000,0.0324,0.013523,0.002678,0.000431,0.000823
23153000,0.0324,0.013523,0.002678,0.000431,0.000823
23154000,0.0324,0.013523,0.002678,0.000431,0.002351
23155000,0.0324,0.013523,0.002678,0.000431,0.447077
23156000,0.0324,0.013523,0.002678,0.000431,0.768164
23157000,0.0324,0.013523,0.002678,0.000431,0.151024
23158000,0.0324,0.013523,0.002678,0.000431,0.134452
23159000,0.0324,0.013523,0.002678,0.000431,0.131514
23160000,0.0324,0.013523,0.002678,0.000431,0.574713
23161000,0.0324,0.013523,0.002678,0.000431,0.249512
23162000,0.0324,0.013523,0.002678,0.000431,0.255624
23163000,0.0324,0.013523,0.002678,0.000431,0.256446
23164000,0.0324,0.013523,0.002678,0.000431,0.140211
23165000,0.0324,0.013523,0.002678,0.000431,0.189926
23166000,0.0324,0.013523,0.002678,0.000431,0.084973
23167000,0.0324,0.013523,0.002678,0.000431,0.485274
23168000,0.0324,0.013523,0.002678,0.000431,0.153022
23169000,0.0324,0.013523,0.002678,0.000431,0.094023
23170000,0.0324,0.013523,0.002678,0.000431,0.084973
23171000,0.0324,0.013523,0.002678,0.000431,0.064641
23172000,0.0324,0.013523,0.002678,0.000431,0.058529
23173000,0.0324,0.013523,0.002678,0.000431,0.051830
23174000,0.0324,0.013523,0.002678,0.000431,0.046894
23175000,0.0324,0.013523,0.002678,0.000431,0.038784
23176000,0.0324,0.013523,0.002678,0.000431,0.030557
23177000,0.0324,0.013523,0.002678,0.000431,0.034906
23178000,0.0324,0.013523,0.002678,0.000431,0.024916
23179000,0.0324,0.013523,0.002678,0.000431,0.026326
23180000,0.0324,0.013523,0.002678,0.000431,0.025151
23181000,0.0324,0.013523,0.002678,0.000431,0.028324
23182000,0.0324,0.013523,0.002678,0.000431,0.026561
23183000,0.0324,0.013523,0.002678,0.000431,0.023741
23184000,0.0324,0.013523,0.002678,0.000431,0.019980
23185000,0.0324,0.013523,0.002678,0.000431,0.022095
23186000,0.0324,0.013523,0.002678,0.000431,0.017512
23187000,0.0324,0.013523,0.002678,0.000431,0.014221
23188000,0.0324,0.013523,0.002678,0.000431,0.020332
23189000,0.0324,0.013523,0.002678,0.000431,0.011048
23190000,0.0324,0.013523,0.002678,0.000431,0.012105
23191000,0.0324,0.013523,0.002678,0.000431,0.010342
23192000,0.0324,0.013523,0.002678,0.000431,0.012576
23193000,0.0324,0.013523,0.002678,0.000431,0.009402
23194000,0.0324,0.013523,0.002678,0.000431,0.009990
23195000,0.0324,0.013523,0.002678,0.000431,0.008109
23196000,0.0324,0.013523,0.002678,0.000431,0.007522
23197000,0.0324,0.013523,0.002678,0.000431,0.009520
23198000,0.0324,0.013523,0.002678,0.000431,0.006582
23199000,0.0324,0.013523,0.002678,0.000431,0.007052
23200000,0.0324,0.013523,0.002678,0.000431,0.006464
23201000,0.0324,0.013523,0.002678,0.000431,0.008932
23202000,0.0324,0.013523,0.002678,0.000431,0.005876
23203000,0.0324,0.013523,0.002678,0.000431,0.005994
23204000,0.0324,0.013523,0.002678,0.000431,0.008462
23205000,0.0324,0.013523,0.002678,0.000431,0.005759
23206000,0.0324,0.013523,0.002678,0.000431,0.004584
23207000,0.0324,0.013523,0.002678,0.000431,0.003408
23208000,0.0324,0.013523,0.002678,0.000431,0.003291
23209000,0.0324,0.013523,0.002678,0.000431,0.003291
23210000,0.0324,0.013523,0.002678,0.000431,0.003526
23211000,0.0324,0.013523,0.002678,0.000431,0.004466
23212000,0.0324,0.013523,0.002678,0.000431,0.003408
23213000,0.0324,0.013523,0.002678,0.000431,0.002586
23214000,0.0324,0.013523,0.002678,0.000431,0.002586
23215000,0.0324,0.013523,0.002678,0.000431,0.002586
23216000,0.0324,0.013523,0.002678,0.000431,0.002586
23217000,0.0324,0.013523,0.002678,0.000431,0.002351
23218000,0.0324,0.013523,0.002678,0.000431,0.002821
23219000,0.0324,0.013523,0.002678,0.000431,0.002351
23220000,0.0324,0.013523,0.002678,0.000431,0.002586
23221000,0.0324,0.013523,0.002678,0.000431,0.002468
23222000,0.0324,0.013523,0.002678,0.000431,0.002586
23223000,0.0324,0.013523,0.002678,0.000431,0.002468
23224000,0.0324,0.013523,0.002678,0.000431,0.005406
23225000,0.0324,0.013523,0.002678,0.000431,0.054416
23226000,0.0324,0.013523,0.002678,0.000431,0.573773
23227000,0.0324,0.013523,0.002678,0.000431,0.611264
23228000,0.0324,0.013523,0.002678,0.000431,0.132572
23229000,0.0324,0.013523,0.002678,0.000431,0.133042
23230000,0.0324,0.013523,0.002678,0.000431,0.537456
23231000,0.0324,0.013523,0.002678,0.000431,0.237172
23232000,0.0324,0.013523,0.002678,0.000431,0.283125
23233000,0.0324,0.013523,0.002678,0.000431,0.302753
23234000,0.0324,0.013523,0.002678,0.000431,0.141739
23235000,0.0324,0.013523,0.002678,0.000431,0.145617
23236000,0.0324,0.013523,0.002678,0.000431,0.133512
23237000,0.0324,0.013523,0.002678,0.000431,0.255741
23238000,0.0324,0.013523,0.002678,0.000431,0.434149
23239000,0.0324,0.013523,0.002678,0.000431,0.159133
23240000,0.0324,0.013523,0.002678,0.000431,0.115295
23241000,0.0324,0.013523,0.002678,0.000431,0.098841
23242000,0.0324,0.013523,0.002678,0.000431,0.086736
23243000,0.0324,0.013523,0.002678,0.000431,0.077098
23244000,0.0324,0.013523,0.002678,0.000431,0.060880
23245000,0.0324,0.013523,0.002678,0.000431,0.046071
23246000,0.0324,0.013523,0.002678,0.000431,0.050772
23247000,0.0324,0.013523,0.002678,0.000431,0.040430
23248000,0.0324,0.013523,0.002678,0.000431,0.030675
23249000,0.0324,0.013523,0.002678,0.000431,0.032085
23250000,0.0324,0.013523,0.002678,0.000431,0.022683
23251000,0.0324,0.013523,0.002678,0.000431,0.021743
23252000,0.0324,0.013523,0.002678,0.000431,0.021625
23253000,0.0324,0.013523,0.002678,0.000431,0.013986
23254000,0.0324,0.013523,0.002678,0.000431,0.014338
23255000,0.0324,0.013523,0.002678,0.000431,0.016689
23256000,0.0324,0.013523,0.002678,0.000431,0.012811
23257000,0.0324,0.013523,0.002678,0.000431,0.011988
23258000,0.0324,0.013523,0.002678,0.000431,0.018099
23259000,0.0324,0.013523,0.002678,0.000431,0.010342
23260000,0.0324,0.013523,0.002678,0.000431,0.010930
23261000,0.0324,0.013523,0.002678,0.000431,0.012105
23262000,0.0324,0.013523,0.002678,0.000431,0.010107
23263000,0.0324,0.013523,0.002678,0.000431,0.009167
23264000,0.0324,0.013523,0.002678,0.000431,0.009285
23265000,0.0324,0.013523,0.002678,0.000431,0.009167
23266000,0.0324,0.013523,0.002678,0.000431,0.011283
23267000,0.0324,0.013523,0.002678,0.000431,0.008932
23268000,0.0324,0.013523,0.002678,0.000431,0.007874
23269000,0.0324,0.013523,0.002678,0.000431,0.010460
23270000,0.0324,0.013523,0.002678,0.000431,0.005524
23271000,0.0324,0.013523,0.002678,0.000431,0.008462
23272000,0.0324,0.013523,0.002678,0.000431,0.005171
23273000,0.0324,0.013523,0.002678,0.000431,0.006817
23274000,0.0324,0.013523,0.002678,0.000431,0.004936
23275000,0.0324,0.013523,0.002678,0.000431,0.003761
23276000,0.0324,0.013523,0.002678,0.000431,0.004819
23277000,0.0324,0.013523,0.002678,0.000431,0.006464
23278000,0.0324,0.013523,0.002678,0.000431,0.003408
23279000,0.0324,0.013523,0.002678,0.000431,0.003643
23280000,0.0324,0.013523,0.002678,0.000431,0.005406
23281000,0.0324,0.013523,0.002678,0.000431,0.002821
23282000,0.0324,0.013523,0.002678,0.000431,0.003996
23283000,0.0324,0.013523,0.002678,0.000431,0.002233
23284000,0.0324,0.013523,0.002678,0.000431,0.001645
23285000,0.0324,0.013523,0.002678,0.000431,0.004231
23286000,0.0324,0.013523,0.002678,0.000431,0.001058
23287000,0.0324,0.013523,0.002678,0.000431,0.000823
23288000,0.0324,0.013523,0.002678,0.000431,0.000705
23289000,0.0324,0.013523,0.002678,0.000431,0.000940
23290000,0.0324,0.013523,0.002678,0.000431,0.000705
23291000,0.0324,0.013523,0.002678,0.000431,0.000940
23292000,0.0324,0.013523,0.002678,0.000431,0.002116
23293000,0.0324,0.013523,0.002678,0.000431,0.319677
23294000,0.0324,0.013523,0.002678,0.000431,0.741955
23295000,0.0324,0.013523,0.002678,0.000431,0.297346
23296000,0.0324,0.013523,0.002678,0.000431,0.132689
23297000,0.0324,0.013523,0.002678,0.000431,0.138096
23298000,0.0324,0.013523,0.002678,0.000431,0.603155
23299000,0.0324,0.013523,0.002678,0.000431,0.236467
23300000,0.0324,0.013523,0.002678,0.000431,0.285358
23301000,0.0324,0.013523,0.002678,0.000431,0.251158
23302000,0.0324,0.013523,0.002678,0.000431,0.151141
23303000,0.0324,0.013523,0.002678,0.000431,0.151611
23304000,0.0324,0.013523,0.002678,0.000431,0.154785
23305000,0.0324,0.013523,0.002678,0.000431,0.464354
23306000,0.0324,0.013523,0.002678,0.000431,0.142327
23307000,0.0324,0.013523,0.002678,0.000431,0.108831
23308000,0.0324,0.013523,0.002678,0.000431,0.090379
23309000,0.0324,0.013523,0.002678,0.000431,0.085796
23310000,0.0324,0.013523,0.002678,0.000431,0.073103
23311000,0.0324,0.013523,0.002678,0.000431,0.069342
23312000,0.0324,0.013523,0.002678,0.000431,0.061702
23313000,0.0324,0.013523,0.002678,0.000431,0.051007
23314000,0.0324,0.013523,0.002678,0.000431,0.048187
23315000,0.0324,0.013523,0.002678,0.000431,0.046071
23316000,0.0324,0.013523,0.002678,0.000431,0.038549
23317000,0.0324,0.013523,0.002678,0.000431,0.034671
23318000,0.0324,0.013523,0.002678,0.000431,0.029617
23319000,0.0324,0.013523,0.002678,0.000431,0.026561
23320000,0.0324,0.013523,0.002678,0.000431,0.019980
23321000,0.0324,0.013523,0.002678,0.000431,0.026091
23322000,0.0324,0.013523,0.002678,0.000431,0.017747
23323000,0.0324,0.013523,0.002678,0.000431,0.021743
23324000,0.0324,0.013523,0.002678,0.000431,0.020215
23325000,0.0324,0.013523,0.002678,0.000431,0.012811
23326000,0.0324,0.013523,0.002678,0.000431,0.014338
23327000,0.0324,0.013523,0.002678,0.000431,0.011048
23328000,0.0324,0.013523,0.002678,0.000431,0.013751
23329000,0.0324,0.013523,0.002678,0.000431,0.010342
23330000,0.0324,0.013523,0.002678,0.000431,0.014926
23331000,0.0324,0.013523,0.002678,0.000431,0.008580
23332000,0.0324,0.013523,0.002678,0.000431,0.007639
23333000,0.0324,0.013523,0.002678,0.000431,0.007757
23334000,0.0324,0.013523,0.002678,0.000431,0.007522
23335000,0.0324,0.013523,0.002678,0.000431,0.007757
23336000,0.0324,0.013523,0.002678,0.000431,0.007874
23337000,0.0324,0.013523,0.002678,0.000431,0.009520
23338000,0.0324,0.013523,0.002678,0.000431,0.009990
23339000,0.0324,0.013523,0.002678,0.000431,0.007169
23340000,0.0324,0.013523,0.002678,0.000431,0.006464
23341000,0.0324,0.013523,0.002678,0.000431,0.007639
23342000,0.0324,0.013523,0.002678,0.000431,0.006111
23343000,0.0324,0.013523,0.002678,0.000431,0.003526
23344000,0.0324,0.013523,0.002678,0.000431,0.003173
23345000,0.0324,0.013523,0.002678,0.000431,0.003408
23346000,0.0324,0.013523,0.002678,0.000431,0.003761
23347000,0.0324,0.013523,0.002678,0.000431,0.005876
23348000,0.0324,0.013523,0.002678,0.000431,0.002351
23349000,0.0324,0.013523,0.002678,0.000431,0.002703
23350000,0.0324,0.013523,0.002678,0.000431,0.002586
23351000,0.0324,0.013523,0.002678,0.000431,0.002468
23352000,0.0324,0.013523,0.002678,0.000431,0.002703
23353000,0.0324,0.013523,0.002678,0.000431,0.002468
23354000,0.0324,0.013523,0.002678,0.000431,0.006229
23355000,0.0324,0.013523,0.002678,0.000431,0.001645
23356000,0.0324,0.013523,0.002678,0.000431,0.001763
23357000,0.0324,0.013523,0.002678,0.000431,0.001645
23358000,0.0324,0.013523,0.002678,0.000431,0.001645
23359000,0.0324,0.013523,0.002678,0.000431,0.001763
23360000,0.0324,0.013523,0.002678,0.000431,0.001763
23361000,0.0324,0.013523,0.002678,0.000431,0.001645
23362000,0.0324,0.013523,0.002678,0.000431,0.001645
23363000,0.0324,0.013523,0.002678,0.000431,0.001880
23364000,0.0324,0.013523,0.002678,0.000431,0.001645
23365000,0.0324,0.013523,0.002678,0.000431,0.001763
23366000,0.0324,0.013523,0.002678,0.000431,0.001645
23367000,0.0324,0.013523,0.002678,0.000431,0.002703
23368000,0.0324,0.013523,0.002678,0.000431,0.001998
23369000,0.0324,0.013523,0.002678,0.000431,0.000940
23370000,0.0324,0.013523,0.002678,0.000431,0.000940
23371000,0.0324,0.013523,0.002678,0.000431,0.000705
23372000,0.0324,0.013523,0.002678,0.000431,0.000940
23373000,0.0324,0.013523,0.002678,0.000431,0.162541
23374000,0.0324,0.013523,0.002678,0.000431,0.575888
23375000,0.0324,0.013523,0.002678,0.000431,0.548857
23376000,0.0324,0.013523,0.002678,0.000431,0.137155
23377000,0.0324,0.013523,0.002678,0.000431,0.132572
23378000,0.0324,0.013523,0.002678,0.000431,0.594928
23379000,0.0324,0.013523,0.002678,0.000431,0.245634
23380000,0.0324,0.013523,0.002678,0.000431,0.288532
23381000,0.0324,0.013523,0.002678,0.000431,0.271725
23382000,0.0324,0.013523,0.002678,0.000431,0.144325
23383000,0.0324,0.013523,0.002678,0.000431,0.149966
23384000,0.0324,0.013523,0.002678,0.000431,0.103307
23385000,0.0324,0.013523,0.002678,0.000431,0.473404
23386000,0.0324,0.013523,0.002678,0.000431,0.265261
23387000,0.0324,0.013523,0.002678,0.000431,0.170181
23388000,0.0324,0.013523,0.002678,0.000431,0.128811
23389000,0.0324,0.013523,0.002678,0.000431,0.103425
23390000,0.0324,0.013523,0.002678,0.000431,0.093317
23391000,0.0324,0.013523,0.002678,0.000431,0.069224
23392000,0.0324,0.013523,0.002678,0.000431,0.057354
23393000,0.0324,0.013523,0.002678,0.000431,0.056296
23394000,0.0324,0.013523,0.002678,0.000431,0.045836
23395000,0.0324,0.013523,0.002678,0.000431,0.047834
23396000,0.0324,0.013523,0.002678,0.000431,0.041958
23397000,0.0324,0.013523,0.002678,0.000431,0.025386
23398000,0.0324,0.013523,0.002678,0.000431,0.023153
23399000,0.0324,0.013523,0.002678,0.000431,0.024211
23400000,0.0324,0.013523,0.002678,0.000431,0.025034
23401000,0.0324,0.013523,0.002678,0.000431,0.020567
23402000,0.0324,0.013523,0.002678,0.000431,0.021625
23403000,0.0324,0.013523,0.002678,0.000431,0.022213
23404000,0.0324,0.013523,0.002678,0.000431,0.017042
23405000,0.0324,0.013523,0.002678,0.000431,0.021978
23406000,0.0324,0.013523,0.002678,0.000431,0.015866
23407000,0.0324,0.013523,0.002678,0.000431,0.011048
23408000,0.0324,0.013523,0.002678,0.000431,0.014573
23409000,0.0324,0.013523,0.002678,0.000431,0.012576
23410000,0.0324,0.013523,0.002678,0.000431,0.006817
23411000,0.0324,0.013523,0.002678,0.000431,0.006934
23412000,0.0324,0.013523,0.002678,0.000431,0.006347
23413000,0.0324,0.013523,0.002678,0.000431,0.007052
23414000,0.0324,0.013523,0.002678,0.000431,0.008697
23415000,0.0324,0.013523,0.002678,0.000431,0.007992
23416000,0.0324,0.013523,0.002678,0.000431,0.005171
23417000,0.0324,0.013523,0.002678,0.000431,0.011283
23418000,0.0324,0.013523,0.002678,0.000431,0.001998
23419000,0.0324,0.013523,0.002678,0.000431,0.001645
23420000,0.0324,0.013523,0.002678,0.000431,0.003643
23421000,0.0324,0.013523,0.002678,0.000431,0.000823
23422000,0.0324,0.013523,0.002678,0.000431,0.000823
23423000,0.0324,0.013523,0.002678,0.000431,0.000823
23424000,0.0324,0.013523,0.002678,0.000431,0.002351
23425000,0.0324,0.013523,0.002678,0.000431,0.475049
23426000,0.0324,0.013523,0.002678,0.000431,0.772043
23427000,0.0324,0.013523,0.002678,0.000431,0.169593
23428000,0.0324,0.013523,0.002678,0.000431,0.134217
23429000,0.0324,0.013523,0.002678,0.000431,0.172414
23430000,0.0324,0.013523,0.002678,0.000431,0.576241
23431000,0.0324,0.013523,0.002678,0.000431,0.250100
23432000,0.0324,0.013523,0.002678,0.000431,0.298757
23433000,0.0324,0.013523,0.002678,0.000431,0.207672
23434000,0.0324,0.013523,0.002678,0.000431,0.150789
23435000,0.0324,0.013523,0.002678,0.000431,0.140916
23436000,0.0324,0.013523,0.002678,0.000431,0.235409
23437000,0.0324,0.013523,0.002678,0.000431,0.441201
23438000,0.0324,0.013523,0.002678,0.000431,0.146558
23439000,0.0324,0.013523,0.002678,0.000431,0.120349
23440000,0.0324,0.013523,0.002678,0.000431,0.115530
23441000,0.0324,0.013523,0.002678,0.000431,0.096491
23442000,0.0324,0.013523,0.002678,0.000431,0.064993
23443000,0.0324,0.013523,0.002678,0.000431,0.063818
23444000,0.0324,0.013523,0.002678,0.000431,0.055473
23445000,0.0324,0.013523,0.002678,0.000431,0.045131
23446000,0.0324,0.013523,0.002678,0.000431,0.036904
23447000,0.0324,0.013523,0.002678,0.000431,0.038667
23448000,0.0324,0.013523,0.002678,0.000431,0.027737
23449000,0.0324,0.013523,0.002678,0.000431,0.025739
23450000,0.0324,0.013523,0.002678,0.000431,0.015279
23451000,0.0324,0.013523,0.002678,0.000431,0.023976
23452000,0.0324,0.013523,0.002678,0.000431,0.012811
23453000,0.0324,0.013523,0.002678,0.000431,0.014338
23454000,0.0324,0.013523,0.002678,0.000431,0.010460
23455000,0.0324,0.013523,0.002678,0.000431,0.009520
23456000,0.0324,0.013523,0.002678,0.000431,0.008932
23457000,0.0324,0.013523,0.002678,0.000431,0.008697
23458000,0.0324,0.013523,0.002678,0.000431,0.007287
23459000,0.0324,0.013523,0.002678,0.000431,0.007639
23460000,0.0324,0.013523,0.002678,0.000431,0.005876
23461000,0.0324,0.013523,0.002678,0.000431,0.005641
23462000,0.0324,0.013523,0.002678,0.000431,0.005641
23463000,0.0324,0.013523,0.002678,0.000431,0.005876
23464000,0.0324,0.013523,0.002678,0.000431,0.011635
23465000,0.0324,0.013523,0.002678,0.000431,0.004349
23466000,0.0324,0.013523,0.002678,0.000431,0.004113
23467000,0.0324,0.013523,0.002678,0.000431,0.003878
23468000,0.0324,0.013523,0.002678,0.000431,0.004466
23469000,0.0324,0.013523,0.002678,0.000431,0.004466
23470000,0.0324,0.013523,0.002678,0.000431,0.003643
23471000,0.0324,0.013523,0.002678,0.000431,0.004349
23472000,0.0324,0.013523,0.002678,0.000431,0.007052
23473000,0.0324,0.013523,0.002678,0.000431,0.003173
23474000,0.0324,0.013523,0.002678,0.000431,0.003526
23475000,0.0324,0.013523,0.002678,0.000431,0.002938
23476000,0.0324,0.013523,0.002678,0.000431,0.003408
23477000,0.0324,0.013523,0.002678,0.000431,0.003643
23478000,0.0324,0.013523,0.002678,0.000431,0.003056
23479000,0.0324,0.013523,0.002678,0.000431,0.003408
23480000,0.0324,0.013523,0.002678,0.000431,0.002821
23481000,0.0324,0.013523,0.002678,0.000431,0.002586
23482000,0.0324,0.013523,0.002678,0.000431,0.002586
23483000,0.0324,0.013523,0.002678,0.000431,0.002586
23484000,0.0324,0.013523,0.002678,0.000431,0.005641
23485000,0.0324,0.013523,0.002678,0.000431,0.001763
23486000,0.0324,0.013523,0.002678,0.000431,0.001645
23487000,0.0324,0.013523,0.002678,0.000431,0.001763
23488000,0.0324,0.013523,0.002678,0.000431,0.001880
23489000,0.0324,0.013523,0.002678,0.000431,0.001645
23490000,0.0324,0.013523,0.002678,0.000431,0.003056
23491000,0.0324,0.013523,0.002678,0.000431,0.002468
23492000,0.0324,0.013523,0.002678,0.000431,0.000940
23493000,0.0324,0.013523,0.002678,0.000431,0.000705
23494000,0.0324,0.013523,0.002678,0.000431,0.000940
23495000,0.0324,0.013523,0.002678,0.000431,0.000940
23496000,0.0324,0.013523,0.002678,0.000431,0.000823
23497000,0.0324,0.013523,0.002678,0.000431,0.000823
23498000,0.0324,0.013523,0.002678,0.000431,0.000940
23499000,0.0324,0.013523,0.002678,0.000431,0.000940
23500000,0.0324,0.013523,0.002678,0.000431,0.000823
23501000,0.0324,0.013523,0.002678,0.000431,0.000823
23502000,0.0324,0.013523,0.002678,0.000431,0.000940
23503000,0.0324,0.013523,0.002678,0.000431,0.000823
23504000,0.0324,0.013523,0.002678,0.000431,0.000940
23505000,0.0324,0.013523,0.002678,0.000431,0.000823
23506000,0.0324,0.013523,0.002678,0.000431,0.000940
23507000,0.0324,0.013523,0.002678,0.000431,0.000940
23508000,0.0324,0.013523,0.002678,0.000431,0.000705
23509000,0.0324,0.013523,0.002678,0.000431,0.000940
23510000,0.0324,0.013523,0.002678,0.000431,0.001880
23511000,0.0324,0.013523,0.002678,0.000431,0.393719
23512000,0.0324,0.013523,0.002678,0.000431,0.718450
23513000,0.0324,0.013523,0.002678,0.000431,0.265496
23514000,0.0324,0.013523,0.002678,0.000431,0.133982
23515000,0.0324,0.013523,0.002678,0.000431,0.149378
23516000,0.0324,0.013523,0.002678,0.000431,0.604212
23517000,0.0324,0.013523,0.002678,0.000431,0.274781
23518000,0.0324,0.013523,0.002678,0.000431,0.275133
23519000,0.0324,0.013523,0.002678,0.000431,0.222833
23520000,0.0324,0.013523,0.002678,0.000431,0.138213
23521000,0.0324,0.013523,0.002678,0.000431,0.147850
23522000,0.0324,0.013523,0.002678,0.000431,0.218250
23523000,0.0324,0.013523,0.002678,0.000431,0.461416
23524000,0.0324,0.013523,0.002678,0.000431,0.189338
23525000,0.0324,0.013523,0.002678,0.000431,0.135392
23526000,0.0324,0.013523,0.002678,0.000431,0.116705
23527000,0.0324,0.013523,0.002678,0.000431,0.101779
23528000,0.0324,0.013523,0.002678,0.000431,0.077216
23529000,0.0324,0.013523,0.002678,0.000431,0.065111
23530000,0.0324,0.013523,0.002678,0.000431,0.070047
23531000,0.0324,0.013523,0.002678,0.000431,0.051595
23532000,0.0324,0.013523,0.002678,0.000431,0.045131
23533000,0.0324,0.013523,0.002678,0.000431,0.037727
23534000,0.0324,0.013523,0.002678,0.000431,0.031850
23535000,0.0324,0.013523,0.002678,0.000431,0.031498
23536000,0.0324,0.013523,0.002678,0.000431,0.025856
23537000,0.0324,0.013523,0.002678,0.000431,0.030322
23538000,0.0324,0.013523,0.002678,0.000431,0.021038
23539000,0.0324,0.013523,0.002678,0.000431,0.024446
23540000,0.0324,0.013523,0.002678,0.000431,0.016101
23541000,0.0324,0.013523,0.002678,0.000431,0.015161
23542000,0.0324,0.013523,0.002678,0.000431,0.013398
23543000,0.0324,0.013523,0.002678,0.000431,0.014103
23544000,0.0324,0.013523,0.002678,0.000431,0.012928
23545000,0.0324,0.013523,0.002678,0.000431,0.010813
23546000,0.0324,0.013523,0.002678,0.000431,0.009755
23547000,0.0324,0.013523,0.002678,0.000431,0.008580
23548000,0.0324,0.013523,0.002678,0.000431,0.006699
23549000,0.0324,0.013523,0.002678,0.000431,0.012811
23550000,0.0324,0.013523,0.002678,0.000431,0.003526
23551000,0.0324,0.013523,0.002678,0.000431,0.003408
23552000,0.0324,0.013523,0.002678,0.000431,0.003408
23553000,0.0324,0.013523,0.002678,0.000431,0.005994
23554000,0.0324,0.013523,0.002678,0.000431,0.002703
23555000,0.0324,0.013523,0.002678,0.000431,0.003761
23556000,0.0324,0.013523,0.002678,0.000431,0.001880
23557000,0.0324,0.013523,0.002678,0.000431,0.001763
23558000,0.0324,0.013523,0.002678,0.000431,0.001645
23559000,0.0324,0.013523,0.002678,0.000431,0.001763
23560000,0.0324,0.013523,0.002678,0.000431,0.001645
23561000,0.0324,0.013523,0.002678,0.000431,0.001763
23562000,0.0324,0.013523,0.002678,0.000431,0.004701
23563000,0.0324,0.013523,0.002678,0.000431,0.000940
23564000,0.0324,0.013523,0.002678,0.000431,0.000705
23565000,0.0324,0.013523,0.002678,0.000431,0.000940
23566000,0.0324,0.013523,0.002678,0.000431,0.000705
23567000,0.0324,0.013523,0.002678,0.000431,0.000940
23568000,0.0324,0.013523,0.002678,0.000431,0.000940
23569000,0.0324,0.013523,0.002678,0.000431,0.000705
23570000,0.0324,0.013523,0.002678,0.000431,0.000940
23571000,0.0324,0.013523,0.002678,0.000431,0.000705
23572000,0.0324,0.013523,0.002678,0.000431,0.000940
23573000,0.0324,0.013523,0.002678,0.000431,0.000823
23574000,0.0324,0.013523,0.002678,0.000431,0.000823
23575000,0.0324,0.013523,0.002678,0.000431,0.000823
23576000,0.0324,0.013523,0.002678,0.000431,0.000823
23577000,0.0324,0.013523,0.002678,0.000431,0.000940
23578000,0.0324,0.013523,0.002678,0.000431,0.000705
23579000,0.0324,0.013523,0.002678,0.000431,0.000940
23580000,0.0324,0.013523,0.002678,0.000431,0.000823
23581000,0.0324,0.013523,0.002678,0.000431,0.000823
23582000,0.0324,0.013523,0.002678,0.000431,0.000823
23583000,0.0324,0.013523,0.002678,0.000431,0.000823
23584000,0.0324,0.013523,0.002678,0.000431,0.000940
23585000,0.0324,0.013523,0.002678,0.000431,0.000705
23586000,0.0324,0.013523,0.002678,0.000431,0.000823
23587000,0.0324,0.013523,0.002678,0.000431,0.000823
23588000,0.0324,0.013523,0.002678,0.000431,0.000940
23589000,0.0324,0.013523,0.002678,0.000431,0.000823
23590000,0.0324,0.013523,0.002678,0.000431,0.000823
23591000,0.0324,0.013523,0.002678,0.000431,0.000705
23592000,0.0324,0.013523,0.002678,0.000431,0.000940
23593000,0.0324,0.013523,0.002678,0.000431,0.000940
23594000,0.0324,0.013523,0.002678,0.000431,0.000705
23595000,0.0324,0.013523,0.002678,0.000431,0.000940
23596000,0.0324,0.013523,0.002678,0.000431,0.000705
23597000,0.0324,0.013523,0.002678,0.000431,0.000940
23598000,0.0324,0.013523,0.002678,0.000431,0.000823
23599000,0.0324,0.013523,0.002678,0.000431,0.000823
23600000,0.0324,0.013523,0.002678,0.000431,0.000940
23601000,0.0324,0.013523,0.002678,0.000431,0.000705
23602000,0.0324,0.013523,0.002678,0.000431,0.000940
23603000,0.0324,0.013523,0.002678,0.000431,0.000823
23604000,0.0324,0.013523,0.002678,0.000431,0.000823
23605000,0.0324,0.013523,0.002678,0.000431,0.000823
23606000,0.0324,0.013523,0.002678,0.000431,0.000823
23607000,0.0324,0.013523,0.002678,0.000431,0.000940
23608000,0.0324,0.013523,0.002678,0.000431,0.000940
23609000,0.0324,0.013523,0.002678,0.000431,0.000823
23610000,0.0324,0.013523,0.002678,0.000431,0.000823
23611000,0.0324,0.013523,0.002678,0.000431,0.000940
23612000,0.0324,0.013523,0.002678,0.000431,0.000940
23613000,0.0324,0.013523,0.002678,0.000431,0.019392
23614000,0.0324,0.013523,0.002678,0.000431,0.686365
23615000,0.0324,0.013523,0.002678,0.000431,0.611029
23616000,0.0324,0.013523,0.002678,0.000431,0.137508
23617000,0.0324,0.013523,0.002678,0.000431,0.133982
23618000,0.0324,0.013523,0.002678,0.000431,0.572832
23619000,0.0324,0.013523,0.002678,0.000431,0.268904
23620000,0.0324,0.013523,0.002678,0.000431,0.241991
23621000,0.0324,0.013523,0.002678,0.000431,0.293115
23622000,0.0324,0.013523,0.002678,0.000431,0.141621
23623000,0.0324,0.013523,0.002678,0.000431,0.164304
23624000,0.0324,0.013523,0.002678,0.000431,0.102132
23625000,0.0324,0.013523,0.002678,0.000431,0.469173
23626000,0.0324,0.013523,0.002678,0.000431,0.250453
23627000,0.0324,0.013523,0.002678,0.000431,0.165950
23628000,0.0324,0.013523,0.002678,0.000431,0.121759
23629000,0.0324,0.013523,0.002678,0.000431,0.105893
23630000,0.0324,0.013523,0.002678,0.000431,0.090262
23631000,0.0324,0.013523,0.002678,0.000431,0.074513
23632000,0.0324,0.013523,0.002678,0.000431,0.063230
23633000,0.0324,0.013523,0.002678,0.000431,0.051242
23634000,0.0324,0.013523,0.002678,0.000431,0.052418
23635000,0.0324,0.013523,0.002678,0.000431,0.036669
23636000,0.0324,0.013523,0.002678,0.000431,0.037374
23637000,0.0324,0.013523,0.002678,0.000431,0.030910
23638000,0.0324,0.013523,0.002678,0.000431,0.027854
23639000,0.0324,0.013523,0.002678,0.000431,0.021038
23640000,0.0324,0.013523,0.002678,0.000431,0.023153
23641000,0.0324,0.013523,0.002678,0.000431,0.022565
23642000,0.0324,0.013523,0.002678,0.000431,0.019040
23643000,0.0324,0.013523,0.002678,0.000431,0.023388
23644000,0.0324,0.013523,0.002678,0.000431,0.018805
23645000,0.0324,0.013523,0.002678,0.000431,0.021155
23646000,0.0324,0.013523,0.002678,0.000431,0.013398
23647000,0.0324,0.013523,0.002678,0.000431,0.012105
23648000,0.0324,0.013523,0.002678,0.000431,0.009872
23649000,0.0324,0.013523,0.002678,0.000431,0.010930
23650000,0.0324,0.013523,0.002678,0.000431,0.012928
23651000,0.0324,0.013523,0.002678,0.000431,0.007757
23652000,0.0324,0.013523,0.002678,0.000431,0.008227
23653000,0.0324,0.013523,0.002678,0.000431,0.007639
23654000,0.0324,0.013523,0.002678,0.000431,0.007639
23655000,0.0324,0.013523,0.002678,0.000431,0.010342
23656000,0.0324,0.013523,0.002678,0.000431,0.012811
23657000,0.0324,0.013523,0.002678,0.000431,0.005054
23658000,0.0324,0.013523,0.002678,0.000431,0.004819
23659000,0.0324,0.013523,0.002678,0.000431,0.005171
23660000,0.0324,0.013523,0.002678,0.000431,0.005171
23661000,0.0324,0.013523,0.002678,0.000431,0.004936
23662000,0.0324,0.013523,0.002678,0.000431,0.004936
23663000,0.0324,0.013523,0.002678,0.000431,0.005759
23664000,0.0324,0.013523,0.002678,0.000431,0.006582
23665000,0.0324,0.013523,0.002678,0.000431,0.002233
23666000,0.0324,0.013523,0.002678,0.000431,0.002586
23667000,0.0324,0.013523,0.002678,0.000431,0.002586
23668000,0.0324,0.013523,0.002678,0.000431,0.002586
23669000,0.0324,0.013523,0.002678,0.000431,0.002586
23670000,0.0324,0.013523,0.002678,0.000431,0.002468
23671000,0.0324,0.013523,0.002678,0.000431,0.002351
23672000,0.0324,0.013523,0.002678,0.000431,0.002821
23673000,0.0324,0.013523,0.002678,0.000431,0.002821
23674000,0.0324,0.013523,0.002678,0.000431,0.002116
23675000,0.0324,0.013523,0.002678,0.000431,0.004349
23676000,0.0324,0.013523,0.002678,0.000431,0.001645
23677000,0.0324,0.013523,0.002678,0.000431,0.001880
23678000,0.0324,0.013523,0.002678,0.000431,0.001645
23679000,0.0324,0.013523,0.002678,0.000431,0.001645
23680000,0.0324,0.013523,0.002678,0.000431,0.004936
23681000,0.0324,0.013523,0.002678,0.000431,0.000823
23682000,0.0324,0.013523,0.002678,0.000431,0.000940
23683000,0.0324,0.013523,0.002678,0.000431,0.000823
23684000,0.0324,0.013523,0.002678,0.000431,0.000823
23685000,0.0324,0.013523,0.002678,0.000431,0.000823
23686000,0.0324,0.013523,0.002678,0.000431,0.000823
23687000,0.0324,0.013523,0.002678,0.000431,0.000823
23688000,0.0324,0.013523,0.002678,0.000431,0.000823
23689000,0.0324,0.013523,0.002678,0.000431,0.000940
23690000,0.0324,0.013523,0.002678,0.000431,0.000705
23691000,0.0324,0.013523,0.002678,0.000431,0.000823
23692000,0.0324,0.013523,0.002678,0.000431,0.000940
23693000,0.0324,0.013523,0.002678,0.000431,0.000823
23694000,0.0324,0.013523,0.002678,0.000431,0.229768
23695000,0.0324,0.013523,0.002678,0.000431,0.642997
23696000,0.0324,0.013523,0.002678,0.000431,0.493971
23697000,0.0324,0.013523,0.002678,0.000431,0.132572
23698000,0.0324,0.013523,0.002678,0.000431,0.132572
23699000,0.0324,0.013523,0.002678,0.000431,0.563195
23700000,0.0324,0.013523,0.002678,0.000431,0.247044
23701000,0.0324,0.013523,0.002678,0.000431,0.269727
23702000,0.0324,0.013523,0.002678,0.000431,0.307101
23703000,0.0324,0.013523,0.002678,0.000431,0.139741
23704000,0.0324,0.013523,0.002678,0.000431,0.165127
23705000,0.0324,0.013523,0.002678,0.000431,0.104718
23706000,0.0324,0.013523,0.002678,0.000431,0.476694
23707000,0.0324,0.013523,0.002678,0.000431,0.194392
23708000,0.0324,0.013523,0.002678,0.000431,0.123757
23709000,0.0324,0.013523,0.002678,0.000431,0.093787
23710000,0.0324,0.013523,0.002678,0.000431,0.088734
23711000,0.0324,0.013523,0.002678,0.000431,0.087441
23712000,0.0324,0.013523,0.002678,0.000431,0.065111
23713000,0.0324,0.013523,0.002678,0.000431,0.056649
23714000,0.0324,0.013523,0.002678,0.000431,0.048187
23715000,0.0324,0.013523,0.002678,0.000431,0.044308
23716000,0.0324,0.013523,0.002678,0.000431,0.040547
23717000,0.0324,0.013523,0.002678,0.000431,0.036669
23718000,0.0324,0.013523,0.002678,0.000431,0.037844
23719000,0.0324,0.013523,0.002678,0.000431,0.035023
23720000,0.0324,0.013523,0.002678,0.000431,0.027384
23721000,0.0324,0.013523,0.002678,0.000431,0.024093
23722000,0.0324,0.013523,0.002678,0.000431,0.031145
23723000,0.0324,0.013523,0.002678,0.000431,0.025386
23724000,0.0324,0.013523,0.002678,0.000431,0.019275
23725000,0.0324,0.013523,0.002678,0.000431,0.024211
23726000,0.0324,0.013523,0.002678,0.000431,0.016336
23727000,0.0324,0.013523,0.002678,0.000431,0.021273
23728000,0.0324,0.013523,0.002678,0.000431,0.013163
23729000,0.0324,0.013523,0.002678,0.000431,0.010695
23730000,0.0324,0.013523,0.002678,0.000431,0.011635
23731000,0.0324,0.013523,0.002678,0.000431,0.007874
23732000,0.0324,0.013523,0.002678,0.000431,0.009755
23733000,0.0324,0.013523,0.002678,0.000431,0.011165
23734000,0.0324,0.013523,0.002678,0.000431,0.005171
23735000,0.0324,0.013523,0.002678,0.000431,0.005406
23736000,0.0324,0.013523,0.002678,0.000431,0.004936
23737000,0.0324,0.013523,0.002678,0.000431,0.005054
23738000,0.0324,0.013523,0.002678,0.000431,0.005289
23739000,0.0324,0.013523,0.002678,0.000431,0.005171
23740000,0.0324,0.013523,0.002678,0.000431,0.005171
23741000,0.0324,0.013523,0.002678,0.000431,0.004936
23742000,0.0324,0.013523,0.002678,0.000431,0.004936
23743000,0.0324,0.013523,0.002678,0.000431,0.005641
23744000,0.0324,0.013523,0.002678,0.000431,0.005054
23745000,0.0324,0.013523,0.002678,0.000431,0.004936
23746000,0.0324,0.013523,0.002678,0.000431,0.005406
23747000,0.0324,0.013523,0.002678,0.000431,0.004936
23748000,0.0324,0.013523,0.002678,0.000431,0.005524
23749000,0.0324,0.013523,0.002678,0.000431,0.007169
23750000,0.0324,0.013523,0.002678,0.000431,0.009167
23751000,0.0324,0.013523,0.002678,0.000431,0.002703
23752000,0.0324,0.013523,0.002678,0.000431,0.002468
23753000,0.0324,0.013523,0.002678,0.000431,0.002938
23754000,0.0324,0.013523,0.002678,0.000431,0.004936
23755000,0.0324,0.013523,0.002678,0.000431,0.001763
23756000,0.0324,0.013523,0.002678,0.000431,0.003291
23757000,0.0324,0.013523,0.002678,0.000431,0.000823
23758000,0.0324,0.013523,0.002678,0.000431,0.000940
23759000,0.0324,0.013523,0.002678,0.000431,0.000940
23760000,0.0324,0.013523,0.002678,0.000431,0.000823
23761000,0.0324,0.013523,0.002678,0.000431,0.000823
23762000,0.0324,0.013523,0.002678,0.000431,0.000940
23763000,0.0324,0.013523,0.002678,0.000431,0.000940
23764000,0.0324,0.013523,0.002678,0.000431,0.117293
23765000,0.0324,0.013523,0.002678,0.000431,0.637238
23766000,0.0324,0.013523,0.002678,0.000431,0.552735
23767000,0.0324,0.013523,0.002678,0.000431,0.133512
23768000,0.0324,0.013523,0.002678,0.000431,0.133042
23769000,0.0324,0.013523,0.002678,0.000431,0.567426
23770000,0.0324,0.013523,0.002678,0.000431,0.236467
23771000,0.0324,0.013523,0.002678,0.000431,0.239875
23772000,0.0324,0.013523,0.002678,0.000431,0.335425
23773000,0.0324,0.013523,0.002678,0.000431,0.139859
23774000,0.0324,0.013523,0.002678,0.000431,0.159251
23775000,0.0324,0.013523,0.002678,0.000431,0.110006
23776000,0.0324,0.013523,0.002678,0.000431,0.458830
23777000,0.0324,0.013523,0.002678,0.000431,0.285241
23778000,0.0324,0.013523,0.002678,0.000431,0.167243
23779000,0.0324,0.013523,0.002678,0.000431,0.124110
23780000,0.0324,0.013523,0.002678,0.000431,0.111887
23781000,0.0324,0.013523,0.002678,0.000431,0.106598
23782000,0.0324,0.013523,0.002678,0.000431,0.082152
23783000,0.0324,0.013523,0.002678,0.000431,0.078979
23784000,0.0324,0.013523,0.002678,0.000431,0.071222
23785000,0.0324,0.013523,0.002678,0.000431,0.068166
23786000,0.0324,0.013523,0.002678,0.000431,0.052653
23787000,0.0324,0.013523,0.002678,0.000431,0.053710
23788000,0.0324,0.013523,0.002678,0.000431,0.045013
23789000,0.0324,0.013523,0.002678,0.000431,0.041252
23790000,0.0324,0.013523,0.002678,0.000431,0.032908
23791000,0.0324,0.013523,0.002678,0.000431,0.035023
23792000,0.0324,0.013523,0.002678,0.000431,0.031850
23793000,0.0324,0.013523,0.002678,0.000431,0.025739
23794000,0.0324,0.013523,0.002678,0.000431,0.021390
23795000,0.0324,0.013523,0.002678,0.000431,0.022565
23796000,0.0324,0.013523,0.002678,0.000431,0.014573
23797000,0.0324,0.013523,0.002678,0.000431,0.014456
23798000,0.0324,0.013523,0.002678,0.000431,0.015514
23799000,0.0324,0.013523,0.002678,0.000431,0.012223
23800000,0.0324,0.013523,0.002678,0.000431,0.007757
23801000,0.0324,0.013523,0.002678,0.000431,0.007874
23802000,0.0324,0.013523,0.002678,0.000431,0.012576
23803000,0.0324,0.013523,0.002678,0.000431,0.005994
23804000,0.0324,0.013523,0.002678,0.000431,0.005641
23805000,0.0324,0.013523,0.002678,0.000431,0.009637
23806000,0.0324,0.013523,0.002678,0.000431,0.007992
23807000,0.0324,0.013523,0.002678,0.000431,0.004584
23808000,0.0324,0.013523,0.002678,0.000431,0.004113
23809000,0.0324,0.013523,0.002678,0.000431,0.003996
23810000,0.0324,0.013523,0.002678,0.000431,0.004584
23811000,0.0324,0.013523,0.002678,0.000431,0.004349
23812000,0.0324,0.013523,0.002678,0.000431,0.004231
23813000,0.0324,0.013523,0.002678,0.000431,0.004231
23814000,0.0324,0.013523,0.002678,0.000431,0.004231
23815000,0.0324,0.013523,0.002678,0.000431,0.004231
23816000,0.0324,0.013523,0.002678,0.000431,0.004349
23817000,0.0324,0.013523,0.002678,0.000431,0.007639
23818000,0.0324,0.013523,0.002678,0.000431,0.003173
23819000,0.0324,0.013523,0.002678,0.000431,0.007522
23820000,0.0324,0.013523,0.002678,0.000431,0.002468
23821000,0.0324,0.013523,0.002678,0.000431,0.002703
23822000,0.0324,0.013523,0.002678,0.000431,0.003526
23823000,0.0324,0.013523,0.002678,0.000431,0.002938
23824000,0.0324,0.013523,0.002678,0.000431,0.001645
23825000,0.0324,0.013523,0.002678,0.000431,0.001763
23826000,0.0324,0.013523,0.002678,0.000431,0.001528
23827000,0.0324,0.013523,0.002678,0.000431,0.001763
23828000,0.0324,0.013523,0.002678,0.000431,0.001763
23829000,0.0324,0.013523,0.002678,0.000431,0.001528
23830000,0.0324,0.013523,0.002678,0.000431,0.001645
23831000,0.0324,0.013523,0.002678,0.000431,0.003526
23832000,0.0324,0.013523,0.002678,0.000431,0.000705
23833000,0.0324,0.013523,0.002678,0.000431,0.000940
23834000,0.0324,0.013523,0.002678,0.000431,0.000823
23835000,0.0324,0.013523,0.002678,0.000431,0.000940
23836000,0.0324,0.013523,0.002678,0.000431,0.001763
23837000,0.0324,0.013523,0.002678,0.000431,0.309922
23838000,0.0324,0.013523,0.002678,0.000431,0.752180
23839000,0.0324,0.013523,0.002678,0.000431,0.352349
23840000,0.0324,0.013523,0.002678,0.000431,0.133042
23841000,0.0324,0.013523,0.002678,0.000431,0.161719
23842000,0.0324,0.013523,0.002678,0.000431,0.633007
23843000,0.0324,0.013523,0.002678,0.000431,0.253861
23844000,0.0324,0.013523,0.002678,0.000431,0.297816
23845000,0.0324,0.013523,0.002678,0.000431,0.233058
23846000,0.0324,0.013523,0.002678,0.000431,0.147850
23847000,0.0324,0.013523,0.002678,0.000431,0.121877
23848000,0.0324,0.013523,0.002678,0.000431,0.286416
23849000,0.0324,0.013523,0.002678,0.000431,0.358814
23850000,0.0324,0.013523,0.002678,0.000431,0.116118
23851000,0.0324,0.013523,0.002678,0.000431,0.091907
23852000,0.0324,0.013523,0.002678,0.000431,0.075453
23853000,0.0324,0.013523,0.002678,0.000431,0.073690
23854000,0.0324,0.013523,0.002678,0.000431,0.064170
23855000,0.0324,0.013523,0.002678,0.000431,0.055943
23856000,0.0324,0.013523,0.002678,0.000431,0.057236
23857000,0.0324,0.013523,0.002678,0.000431,0.044896
23858000,0.0324,0.013523,0.002678,0.000431,0.045483
23859000,0.0324,0.013523,0.002678,0.000431,0.034201
23860000,0.0324,0.013523,0.002678,0.000431,0.032438
23861000,0.0324,0.013523,0.002678,0.000431,0.033143
23862000,0.0324,0.013523,0.002678,0.000431,0.028207
23863000,0.0324,0.013523,0.002678,0.000431,0.027384
23864000,0.0324,0.013523,0.002678,0.000431,0.025504
23865000,0.0324,0.013523,0.002678,0.000431,0.026796
23866000,0.0324,0.013523,0.002678,0.000431,0.024328
23867000,0.0324,0.013523,0.002678,0.000431,0.022683
23868000,0.0324,0.013523,0.002678,0.000431,0.016454
23869000,0.0324,0.013523,0.002678,0.000431,0.013986
23870000,0.0324,0.013523,0.002678,0.000431,0.017042
23871000,0.0324,0.013523,0.002678,0.000431,0.014809
23872000,0.0324,0.013523,0.002678,0.000431,0.015984
23873000,0.0324,0.013523,0.002678,0.000431,0.012105
23874000,0.0324,0.013523,0.002678,0.000431,0.013046
23875000,0.0324,0.013523,0.002678,0.000431,0.011635
23876000,0.0324,0.013523,0.002678,0.000431,0.013163
23877000,0.0324,0.013523,0.002678,0.000431,0.009872
23878000,0.0324,0.013523,0.002678,0.000431,0.010460
23879000,0.0324,0.013523,0.002678,0.000431,0.010342
23880000,0.0324,0.013523,0.002678,0.000431,0.009755
23881000,0.0324,0.013523,0.002678,0.000431,0.009872
23882000,0.0324,0.013523,0.002678,0.000431,0.012340
23883000,0.0324,0.013523,0.002678,0.000431,0.010225
23884000,0.0324,0.013523,0.002678,0.000431,0.007404
23885000,0.0324,0.013523,0.002678,0.000431,0.007874
23886000,0.0324,0.013523,0.002678,0.000431,0.007639
23887000,0.0324,0.013523,0.002678,0.000431,0.007404
23888000,0.0324,0.013523,0.002678,0.000431,0.007757
23889000,0.0324,0.013523,0.002678,0.000431,0.006111
23890000,0.0324,0.013523,0.002678,0.000431,0.005876
23891000,0.0324,0.013523,0.002678,0.000431,0.006699
23892000,0.0324,0.013523,0.002678,0.000431,0.009285
23893000,0.0324,0.013523,0.002678,0.000431,0.005406
23894000,0.0324,0.013523,0.002678,0.000431,0.004466
23895000,0.0324,0.013523,0.002678,0.000431,0.004584
23896000,0.0324,0.013523,0.002678,0.000431,0.002586
23897000,0.0324,0.013523,0.002678,0.000431,0.002703
23898000,0.0324,0.013523,0.002678,0.000431,0.002468
23899000,0.0324,0.013523,0.002678,0.000431,0.002351
23900000,0.0324,0.013523,0.002678,0.000431,0.002586
23901000,0.0324,0.013523,0.002678,0.000431,0.002586
23902000,0.0324,0.013523,0.002678,0.000431,0.002233
23903000,0.0324,0.013523,0.002678,0.000431,0.002586
23904000,0.0324,0.013523,0.002678,0.000431,0.002703
23905000,0.0324,0.013523,0.002678,0.000431,0.001763
23906000,0.0324,0.013523,0.002678,0.000431,0.001645
23907000,0.0324,0.013523,0.002678,0.000431,0.001880
23908000,0.0324,0.013523,0.002678,0.000431,0.001410
23909000,0.0324,0.013523,0.002678,0.000431,0.003173
23910000,0.0324,0.013523,0.002678,0.000431,0.000940
23911000,0.0324,0.013523,0.002678,0.000431,0.000940
23912000,0.0324,0.013523,0.002678,0.000431,0.000823
23913000,0.0324,0.013523,0.002678,0.000431,0.014809
23914000,0.0324,0.013523,0.002678,0.000431,0.577416
23915000,0.0324,0.013523,0.002678,0.000431,0.602567
23916000,0.0324,0.013523,0.002678,0.000431,0.138213
23917000,0.0324,0.013523,0.002678,0.000431,0.135275
23918000,0.0324,0.013523,0.002678,0.000431,0.459535
23919000,0.0324,0.013523,0.002678,0.000431,0.371977
23920000,0.0324,0.013523,0.002678,0.000431,0.303340
23921000,0.0324,0.013523,0.002678,0.000431,0.304986
23922000,0.0324,0.013523,0.002678,0.000431,0.137038
23923000,0.0324,0.013523,0.002678,0.000431,0.148203
23924000,0.0324,0.013523,0.002678,0.000431,0.108949
23925000,0.0324,0.013523,0.002678,0.000431,0.428625
23926000,0.0324,0.013523,0.002678,0.000431,0.204264
23927000,0.0324,0.013523,0.002678,0.000431,0.083445
23928000,0.0324,0.013523,0.002678,0.000431,0.068284
23929000,0.0324,0.013523,0.002678,0.000431,0.061467
23930000,0.0324,0.013523,0.002678,0.000431,0.050890
23931000,0.0324,0.013523,0.002678,0.000431,0.047246
23932000,0.0324,0.013523,0.002678,0.000431,0.039019
23933000,0.0324,0.013523,0.002678,0.000431,0.039725
23934000,0.0324,0.013523,0.002678,0.000431,0.031262
23935000,0.0324,0.013523,0.002678,0.000431,0.033260
23936000,0.0324,0.013523,0.002678,0.000431,0.024916
23937000,0.0324,0.013523,0.002678,0.000431,0.021978
23938000,0.0324,0.013523,0.002678,0.000431,0.027149
23939000,0.0324,0.013523,0.002678,0.000431,0.022918
23940000,0.0324,0.013523,0.002678,0.000431,0.023388
23941000,0.0324,0.013523,0.002678,0.000431,0.018569
23942000,0.0324,0.013523,0.002678,0.000431,0.015866
23943000,0.0324,0.013523,0.002678,0.000431,0.014456
23944000,0.0324,0.013523,0.002678,0.000431,0.020097
23945000,0.0324,0.013523,0.002678,0.000431,0.015396
23946000,0.0324,0.013523,0.002678,0.000431,0.010225
23947000,0.0324,0.013523,0.002678,0.000431,0.010225
23948000,0.0324,0.013523,0.002678,0.000431,0.011635
23949000,0.0324,0.013523,0.002678,0.000431,0.011400
23950000,0.0324,0.013523,0.002678,0.000431,0.008345
23951000,0.0324,0.013523,0.002678,0.000431,0.008227
23952000,0.0324,0.013523,0.002678,0.000431,0.010342
23953000,0.0324,0.013523,0.002678,0.000431,0.007639
23954000,0.0324,0.013523,0.002678,0.000431,0.006934
23955000,0.0324,0.013523,0.002678,0.000431,0.007757
23956000,0.0324,0.013523,0.002678,0.000431,0.007052
23957000,0.0324,0.013523,0.002678,0.000431,0.005876
23958000,0.0324,0.013523,0.002678,0.000431,0.006229
23959000,0.0324,0.013523,0.002678,0.000431,0.005994
23960000,0.0324,0.013523,0.002678,0.000431,0.007874
23961000,0.0324,0.013523,0.002678,0.000431,0.008227
23962000,0.0324,0.013523,0.002678,0.000431,0.005641
23963000,0.0324,0.013523,0.002678,0.000431,0.004113
23964000,0.0324,0.013523,0.002678,0.000431,0.003761
23965000,0.0324,0.013523,0.002678,0.000431,0.003643
23966000,0.0324,0.013523,0.002678,0.000431,0.004466
23967000,0.0324,0.013523,0.002678,0.000431,0.004349
23968000,0.0324,0.013523,0.002678,0.000431,0.002586
23969000,0.0324,0.013523,0.002678,0.000431,0.002938
23970000,0.0324,0.013523,0.002678,0.000431,0.002351
23971000,0.0324,0.013523,0.002678,0.000431,0.002586
23972000,0.0324,0.013523,0.002678,0.000431,0.003056
23973000,0.0324,0.013523,0.002678,0.000431,0.002703
23974000,0.0324,0.013523,0.002678,0.000431,0.002703
23975000,0.0324,0.013523,0.002678,0.000431,0.005054
23976000,0.0324,0.013523,0.002678,0.000431,0.001998
23977000,0.0324,0.013523,0.002678,0.000431,0.001998
23978000,0.0324,0.013523,0.002678,0.000431,0.001528
23979000,0.0324,0.013523,0.002678,0.000431,0.001998
23980000,0.0324,0.013523,0.002678,0.000431,0.001645
23981000,0.0324,0.013523,0.002678,0.000431,0.003291
23982000,0.0324,0.013523,0.002678,0.000431,0.000940
23983000,0.0324,0.013523,0.002678,0.000431,0.000823
23984000,0.0324,0.013523,0.002678,0.000431,0.000940
23985000,0.0324,0.013523,0.002678,0.000431,0.000705
23986000,0.0324,0.013523,0.002678,0.000431,0.000940
23987000,0.0324,0.013523,0.002678,0.000431,0.000823
23988000,0.0324,0.013523,0.002678,0.000431,0.000823
23989000,0.0324,0.013523,0.002678,0.000431,0.000823
23990000,0.0324,0.013523,0.002678,0.000431,0.000823
23991000,0.0324,0.013523,0.002678,0.000431,0.000940
23992000,0.0324,0.013523,0.002678,0.000431,0.000705
23993000,0.0324,0.013523,0.002678,0.000431,0.000940
23994000,0.0324,0.013523,0.002678,0.000431,0.000823
23995000,0.0324,0.013523,0.002678,0.000431,0.000823
23996000,0.0324,0.013523,0.002678,0.000431,0.000823
23997000,0.0324,0.013523,0.002678,0.000431,0.000823
23998000,0.0324,0.013523,0.002678,0.000431,0.000705
23999000,0.0324,0.013523,0.002678,0.000431,0.000940
