Cycle,Area(mm^2),PeakDynamic(W),SubthresholdLeakage(W),GateLeakage(W),RunTimeDynamic(W)
110000000,0.0324,0.013523,0.002678,0.000431,0.016807
110001000,0.0324,0.013523,0.002678,0.000431,0.011635
110002000,0.0324,0.013523,0.002678,0.000431,0.017747
110003000,0.0324,0.013523,0.002678,0.000431,0.011518
110004000,0.0324,0.013523,0.002678,0.000431,0.007522
110005000,0.0324,0.013523,0.002678,0.000431,0.006934
110006000,0.0324,0.013523,0.002678,0.000431,0.007404
110007000,0.0324,0.013523,0.002678,0.000431,0.004584
110008000,0.0324,0.013523,0.002678,0.000431,0.004466
110009000,0.0324,0.013523,0.002678,0.000431,0.004113
110010000,0.0324,0.013523,0.002678,0.000431,0.005759
110011000,0.0324,0.013523,0.002678,0.000431,0.004231
110012000,0.0324,0.013523,0.002678,0.000431,0.003643
110013000,0.0324,0.013523,0.002678,0.000431,0.003643
110014000,0.0324,0.013523,0.002678,0.000431,0.003526
110015000,0.0324,0.013523,0.002678,0.000431,0.003643
110016000,0.0324,0.013523,0.002678,0.000431,0.007404
110017000,0.0324,0.013523,0.002678,0.000431,0.004349
110018000,0.0324,0.013523,0.002678,0.000431,0.001880
110019000,0.0324,0.013523,0.002678,0.000431,0.000940
110020000,0.0324,0.013523,0.002678,0.000431,0.000705
110021000,0.0324,0.013523,0.002678,0.000431,0.000940
110022000,0.0324,0.013523,0.002678,0.000431,0.000705
110023000,0.0324,0.013523,0.002678,0.000431,0.000940
110024000,0.0324,0.013523,0.002678,0.000431,0.000940
110025000,0.0324,0.013523,0.002678,0.000431,0.000705
110026000,0.0324,0.013523,0.002678,0.000431,0.000940
110027000,0.0324,0.013523,0.002678,0.000431,0.000705
110028000,0.0324,0.013523,0.002678,0.000431,0.000940
110029000,0.0324,0.013523,0.002678,0.000431,0.000823
110030000,0.0324,0.013523,0.002678,0.000431,0.000823
110031000,0.0324,0.013523,0.002678,0.000431,0.000823
110032000,0.0324,0.013523,0.002678,0.000431,0.000823
110033000,0.0324,0.013523,0.002678,0.000431,0.000705
110034000,0.0324,0.013523,0.002678,0.000431,0.244459
110035000,0.0324,0.013523,0.002678,0.000431,0.672026
110036000,0.0324,0.013523,0.002678,0.000431,0.478810
110037000,0.0324,0.013523,0.002678,0.000431,0.147028
110038000,0.0324,0.013523,0.002678,0.000431,0.156548
110039000,0.0324,0.013523,0.002678,0.000431,0.603625
110040000,0.0324,0.013523,0.002678,0.000431,0.254919
110041000,0.0324,0.013523,0.002678,0.000431,0.345533
110042000,0.0324,0.013523,0.002678,0.000431,0.173707
110043000,0.0324,0.013523,0.002678,0.000431,0.168535
110044000,0.0324,0.013523,0.002678,0.000431,0.113415
110045000,0.0324,0.013523,0.002678,0.000431,0.449310
110046000,0.0324,0.013523,0.002678,0.000431,0.329902
110047000,0.0324,0.013523,0.002678,0.000431,0.197800
110048000,0.0324,0.013523,0.002678,0.000431,0.164775
110049000,0.0324,0.013523,0.002678,0.000431,0.157488
110050000,0.0324,0.013523,0.002678,0.000431,0.137038
110051000,0.0324,0.013523,0.002678,0.000431,0.116941
110052000,0.0324,0.013523,0.002678,0.000431,0.092377
110053000,0.0324,0.013523,0.002678,0.000431,0.084268
110054000,0.0324,0.013523,0.002678,0.000431,0.085561
110055000,0.0324,0.013523,0.002678,0.000431,0.072985
110056000,0.0324,0.013523,0.002678,0.000431,0.064405
110057000,0.0324,0.013523,0.002678,0.000431,0.049597
110058000,0.0324,0.013523,0.002678,0.000431,0.046189
110059000,0.0324,0.013523,0.002678,0.000431,0.044073
110060000,0.0324,0.013523,0.002678,0.000431,0.035611
110061000,0.0324,0.013523,0.002678,0.000431,0.032673
110062000,0.0324,0.013523,0.002678,0.000431,0.025504
110063000,0.0324,0.013523,0.002678,0.000431,0.024211
110064000,0.0324,0.013523,0.002678,0.000431,0.025386
110065000,0.0324,0.013523,0.002678,0.000431,0.032790
110066000,0.0324,0.013523,0.002678,0.000431,0.024093
110067000,0.0324,0.013523,0.002678,0.000431,0.021390
110068000,0.0324,0.013523,0.002678,0.000431,0.023271
110069000,0.0324,0.013523,0.002678,0.000431,0.021860
110070000,0.0324,0.013523,0.002678,0.000431,0.015161
110071000,0.0324,0.013523,0.002678,0.000431,0.016924
110072000,0.0324,0.013523,0.002678,0.000431,0.017159
110073000,0.0324,0.013523,0.002678,0.000431,0.021978
110074000,0.0324,0.013523,0.002678,0.000431,0.013633
110075000,0.0324,0.013523,0.002678,0.000431,0.009637
110076000,0.0324,0.013523,0.002678,0.000431,0.009637
110077000,0.0324,0.013523,0.002678,0.000431,0.008815
110078000,0.0324,0.013523,0.002678,0.000431,0.009167
110079000,0.0324,0.013523,0.002678,0.000431,0.009755
110080000,0.0324,0.013523,0.002678,0.000431,0.010930
110081000,0.0324,0.013523,0.002678,0.000431,0.010460
110082000,0.0324,0.013523,0.002678,0.000431,0.007169
110083000,0.0324,0.013523,0.002678,0.000431,0.004936
110084000,0.0324,0.013523,0.002678,0.000431,0.007404
110085000,0.0324,0.013523,0.002678,0.000431,0.004349
110086000,0.0324,0.013523,0.002678,0.000431,0.004231
110087000,0.0324,0.013523,0.002678,0.000431,0.003996
110088000,0.0324,0.013523,0.002678,0.000431,0.004819
110089000,0.0324,0.013523,0.002678,0.000431,0.005759
110090000,0.0324,0.013523,0.002678,0.000431,0.004584
110091000,0.0324,0.013523,0.002678,0.000431,0.005171
110092000,0.0324,0.013523,0.002678,0.000431,0.001645
110093000,0.0324,0.013523,0.002678,0.000431,0.001880
110094000,0.0324,0.013523,0.002678,0.000431,0.003996
110095000,0.0324,0.013523,0.002678,0.000431,0.001058
110096000,0.0324,0.013523,0.002678,0.000431,0.000705
110097000,0.0324,0.013523,0.002678,0.000431,0.000940
110098000,0.0324,0.013523,0.002678,0.000431,0.000705
110099000,0.0324,0.013523,0.002678,0.000431,0.000823
110100000,0.0324,0.013523,0.002678,0.000431,0.000823
110101000,0.0324,0.013523,0.002678,0.000431,0.000940
110102000,0.0324,0.013523,0.002678,0.000431,0.000705
110103000,0.0324,0.013523,0.002678,0.000431,0.000940
110104000,0.0324,0.013523,0.002678,0.000431,0.000823
110105000,0.0324,0.013523,0.002678,0.000431,0.000823
110106000,0.0324,0.013523,0.002678,0.000431,0.000823
110107000,0.0324,0.013523,0.002678,0.000431,0.000823
110108000,0.0324,0.013523,0.002678,0.000431,0.000823
110109000,0.0324,0.013523,0.002678,0.000431,0.000823
110110000,0.0324,0.013523,0.002678,0.000431,0.000940
110111000,0.0324,0.013523,0.002678,0.000431,0.000705
110112000,0.0324,0.013523,0.002678,0.000431,0.000940
110113000,0.0324,0.013523,0.002678,0.000431,0.000823
110114000,0.0324,0.013523,0.002678,0.000431,0.000823
110115000,0.0324,0.013523,0.002678,0.000431,0.000705
110116000,0.0324,0.013523,0.002678,0.000431,0.000940
110117000,0.0324,0.013523,0.002678,0.000431,0.000940
110118000,0.0324,0.013523,0.002678,0.000431,0.000940
110119000,0.0324,0.013523,0.002678,0.000431,0.000940
110120000,0.0324,0.013523,0.002678,0.000431,0.000940
110121000,0.0324,0.013523,0.002678,0.000431,0.000940
110122000,0.0324,0.013523,0.002678,0.000431,0.000940
110123000,0.0324,0.013523,0.002678,0.000431,0.000940
110124000,0.0324,0.013523,0.002678,0.000431,0.000823
110125000,0.0324,0.013523,0.002678,0.000431,0.000940
110126000,0.0324,0.013523,0.002678,0.000431,0.000823
110127000,0.0324,0.013523,0.002678,0.000431,0.000940
110128000,0.0324,0.013523,0.002678,0.000431,0.000823
110129000,0.0324,0.013523,0.002678,0.000431,0.000823
110130000,0.0324,0.013523,0.002678,0.000431,0.000940
110131000,0.0324,0.013523,0.002678,0.000431,0.000940
110132000,0.0324,0.013523,0.002678,0.000431,0.000705
110133000,0.0324,0.013523,0.002678,0.000431,0.080507
110134000,0.0324,0.013523,0.002678,0.000431,0.733023
110135000,0.0324,0.013523,0.002678,0.000431,0.595163
110136000,0.0324,0.013523,0.002678,0.000431,0.144207
110137000,0.0324,0.013523,0.002678,0.000431,0.153257
110138000,0.0324,0.013523,0.002678,0.000431,0.668030
110139000,0.0324,0.013523,0.002678,0.000431,0.277837
110140000,0.0324,0.013523,0.002678,0.000431,0.284183
110141000,0.0324,0.013523,0.002678,0.000431,0.221071
110142000,0.0324,0.013523,0.002678,0.000431,0.151024
110143000,0.0324,0.013523,0.002678,0.000431,0.112474
110144000,0.0324,0.013523,0.002678,0.000431,0.448488
110145000,0.0324,0.013523,0.002678,0.000431,0.349764
110146000,0.0324,0.013523,0.002678,0.000431,0.222128
110147000,0.0324,0.013523,0.002678,0.000431,0.182286
110148000,0.0324,0.013523,0.002678,0.000431,0.154315
110149000,0.0324,0.013523,0.002678,0.000431,0.128576
110150000,0.0324,0.013523,0.002678,0.000431,0.114237
110151000,0.0324,0.013523,0.002678,0.000431,0.105423
110152000,0.0324,0.013523,0.002678,0.000431,0.097783
110153000,0.0324,0.013523,0.002678,0.000431,0.080037
110154000,0.0324,0.013523,0.002678,0.000431,0.075453
110155000,0.0324,0.013523,0.002678,0.000431,0.067461
110156000,0.0324,0.013523,0.002678,0.000431,0.060997
110157000,0.0324,0.013523,0.002678,0.000431,0.062878
110158000,0.0324,0.013523,0.002678,0.000431,0.055826
110159000,0.0324,0.013523,0.002678,0.000431,0.043015
110160000,0.0324,0.013523,0.002678,0.000431,0.038784
110161000,0.0324,0.013523,0.002678,0.000431,0.044778
110162000,0.0324,0.013523,0.002678,0.000431,0.035141
110163000,0.0324,0.013523,0.002678,0.000431,0.030910
110164000,0.0324,0.013523,0.002678,0.000431,0.031733
110165000,0.0324,0.013523,0.002678,0.000431,0.024798
110166000,0.0324,0.013523,0.002678,0.000431,0.016454
110167000,0.0324,0.013523,0.002678,0.000431,0.017042
110168000,0.0324,0.013523,0.002678,0.000431,0.016454
110169000,0.0324,0.013523,0.002678,0.000431,0.013046
110170000,0.0324,0.013523,0.002678,0.000431,0.012811
110171000,0.0324,0.013523,0.002678,0.000431,0.012576
110172000,0.0324,0.013523,0.002678,0.000431,0.014691
110173000,0.0324,0.013523,0.002678,0.000431,0.013986
110174000,0.0324,0.013523,0.002678,0.000431,0.009402
110175000,0.0324,0.013523,0.002678,0.000431,0.012458
110176000,0.0324,0.013523,0.002678,0.000431,0.007169
110177000,0.0324,0.013523,0.002678,0.000431,0.006817
110178000,0.0324,0.013523,0.002678,0.000431,0.013046
110179000,0.0324,0.013523,0.002678,0.000431,0.004584
110180000,0.0324,0.013523,0.002678,0.000431,0.005641
110181000,0.0324,0.013523,0.002678,0.000431,0.004584
110182000,0.0324,0.013523,0.002678,0.000431,0.004701
110183000,0.0324,0.013523,0.002678,0.000431,0.004936
110184000,0.0324,0.013523,0.002678,0.000431,0.003878
110185000,0.0324,0.013523,0.002678,0.000431,0.000940
110186000,0.0324,0.013523,0.002678,0.000431,0.000823
110187000,0.0324,0.013523,0.002678,0.000431,0.000823
110188000,0.0324,0.013523,0.002678,0.000431,0.015279
110189000,0.0324,0.013523,0.002678,0.000431,0.706932
110190000,0.0324,0.013523,0.002678,0.000431,0.613262
110191000,0.0324,0.013523,0.002678,0.000431,0.159956
110192000,0.0324,0.013523,0.002678,0.000431,0.141974
110193000,0.0324,0.013523,0.002678,0.000431,0.605270
110194000,0.0324,0.013523,0.002678,0.000431,0.285123
110195000,0.0324,0.013523,0.002678,0.000431,0.288767
110196000,0.0324,0.013523,0.002678,0.000431,0.226007
110197000,0.0324,0.013523,0.002678,0.000431,0.146323
110198000,0.0324,0.013523,0.002678,0.000431,0.144795
110199000,0.0324,0.013523,0.002678,0.000431,0.228475
110200000,0.0324,0.013523,0.002678,0.000431,0.460828
110201000,0.0324,0.013523,0.002678,0.000431,0.202619
110202000,0.0324,0.013523,0.002678,0.000431,0.163952
110203000,0.0324,0.013523,0.002678,0.000431,0.151376
110204000,0.0324,0.013523,0.002678,0.000431,0.133630
110205000,0.0324,0.013523,0.002678,0.000431,0.114002
110206000,0.0324,0.013523,0.002678,0.000431,0.107538
110207000,0.0324,0.013523,0.002678,0.000431,0.104247
110208000,0.0324,0.013523,0.002678,0.000431,0.091672
110209000,0.0324,0.013523,0.002678,0.000431,0.090497
110210000,0.0324,0.013523,0.002678,0.000431,0.081682
110211000,0.0324,0.013523,0.002678,0.000431,0.072750
110212000,0.0324,0.013523,0.002678,0.000431,0.066521
110213000,0.0324,0.013523,0.002678,0.000431,0.055826
110214000,0.0324,0.013523,0.002678,0.000431,0.049597
110215000,0.0324,0.013523,0.002678,0.000431,0.041840
110216000,0.0324,0.013523,0.002678,0.000431,0.040547
110217000,0.0324,0.013523,0.002678,0.000431,0.041840
110218000,0.0324,0.013523,0.002678,0.000431,0.030910
110219000,0.0324,0.013523,0.002678,0.000431,0.031145
110220000,0.0324,0.013523,0.002678,0.000431,0.025974
110221000,0.0324,0.013523,0.002678,0.000431,0.030675
110222000,0.0324,0.013523,0.002678,0.000431,0.028559
110223000,0.0324,0.013523,0.002678,0.000431,0.021978
110224000,0.0324,0.013523,0.002678,0.000431,0.020215
110225000,0.0324,0.013523,0.002678,0.000431,0.017042
110226000,0.0324,0.013523,0.002678,0.000431,0.014809
110227000,0.0324,0.013523,0.002678,0.000431,0.012693
110228000,0.0324,0.013523,0.002678,0.000431,0.011048
110229000,0.0324,0.013523,0.002678,0.000431,0.013751
110230000,0.0324,0.013523,0.002678,0.000431,0.011988
110231000,0.0324,0.013523,0.002678,0.000431,0.008815
110232000,0.0324,0.013523,0.002678,0.000431,0.009167
110233000,0.0324,0.013523,0.002678,0.000431,0.009755
110234000,0.0324,0.013523,0.002678,0.000431,0.009520
110235000,0.0324,0.013523,0.002678,0.000431,0.007992
110236000,0.0324,0.013523,0.002678,0.000431,0.007404
110237000,0.0324,0.013523,0.002678,0.000431,0.007522
110238000,0.0324,0.013523,0.002678,0.000431,0.007522
110239000,0.0324,0.013523,0.002678,0.000431,0.009285
110240000,0.0324,0.013523,0.002678,0.000431,0.006464
110241000,0.0324,0.013523,0.002678,0.000431,0.006934
110242000,0.0324,0.013523,0.002678,0.000431,0.006347
110243000,0.0324,0.013523,0.002678,0.000431,0.006347
110244000,0.0324,0.013523,0.002678,0.000431,0.006464
110245000,0.0324,0.013523,0.002678,0.000431,0.008345
110246000,0.0324,0.013523,0.002678,0.000431,0.007404
110247000,0.0324,0.013523,0.002678,0.000431,0.006347
110248000,0.0324,0.013523,0.002678,0.000431,0.005641
110249000,0.0324,0.013523,0.002678,0.000431,0.005524
110250000,0.0324,0.013523,0.002678,0.000431,0.005289
110251000,0.0324,0.013523,0.002678,0.000431,0.005759
110252000,0.0324,0.013523,0.002678,0.000431,0.005994
110253000,0.0324,0.013523,0.002678,0.000431,0.005994
110254000,0.0324,0.013523,0.002678,0.000431,0.005289
110255000,0.0324,0.013523,0.002678,0.000431,0.004819
110256000,0.0324,0.013523,0.002678,0.000431,0.004819
110257000,0.0324,0.013523,0.002678,0.000431,0.007522
110258000,0.0324,0.013523,0.002678,0.000431,0.004231
110259000,0.0324,0.013523,0.002678,0.000431,0.003878
110260000,0.0324,0.013523,0.002678,0.000431,0.003878
110261000,0.0324,0.013523,0.002678,0.000431,0.004701
110262000,0.0324,0.013523,0.002678,0.000431,0.006817
110263000,0.0324,0.013523,0.002678,0.000431,0.004936
110264000,0.0324,0.013523,0.002678,0.000431,0.000940
110265000,0.0324,0.013523,0.002678,0.000431,0.000823
110266000,0.0324,0.013523,0.002678,0.000431,0.000823
110267000,0.0324,0.013523,0.002678,0.000431,0.014338
110268000,0.0324,0.013523,0.002678,0.000431,0.661096
110269000,0.0324,0.013523,0.002678,0.000431,0.565781
110270000,0.0324,0.013523,0.002678,0.000431,0.191101
110271000,0.0324,0.013523,0.002678,0.000431,0.136098
110272000,0.0324,0.013523,0.002678,0.000431,0.583998
110273000,0.0324,0.013523,0.002678,0.000431,0.278072
110274000,0.0324,0.013523,0.002678,0.000431,0.268434
110275000,0.0324,0.013523,0.002678,0.000431,0.305456
110276000,0.0324,0.013523,0.002678,0.000431,0.150436
110277000,0.0324,0.013523,0.002678,0.000431,0.134217
110278000,0.0324,0.013523,0.002678,0.000431,0.239287
110279000,0.0324,0.013523,0.002678,0.000431,0.448958
110280000,0.0324,0.013523,0.002678,0.000431,0.222951
110281000,0.0324,0.013523,0.002678,0.000431,0.191688
110282000,0.0324,0.013523,0.002678,0.000431,0.165127
110283000,0.0324,0.013523,0.002678,0.000431,0.146205
110284000,0.0324,0.013523,0.002678,0.000431,0.136333
110285000,0.0324,0.013523,0.002678,0.000431,0.126108
110286000,0.0324,0.013523,0.002678,0.000431,0.110712
110287000,0.0324,0.013523,0.002678,0.000431,0.105893
110288000,0.0324,0.013523,0.002678,0.000431,0.093317
110289000,0.0324,0.013523,0.002678,0.000431,0.082035
110290000,0.0324,0.013523,0.002678,0.000431,0.067579
110291000,0.0324,0.013523,0.002678,0.000431,0.076041
110292000,0.0324,0.013523,0.002678,0.000431,0.068401
110293000,0.0324,0.013523,0.002678,0.000431,0.063818
110294000,0.0324,0.013523,0.002678,0.000431,0.048539
110295000,0.0324,0.013523,0.002678,0.000431,0.042898
110296000,0.0324,0.013523,0.002678,0.000431,0.033025
110297000,0.0324,0.013523,0.002678,0.000431,0.032438
110298000,0.0324,0.013523,0.002678,0.000431,0.029029
110299000,0.0324,0.013523,0.002678,0.000431,0.029617
110300000,0.0324,0.013523,0.002678,0.000431,0.025504
110301000,0.0324,0.013523,0.002678,0.000431,0.020685
110302000,0.0324,0.013523,0.002678,0.000431,0.023506
110303000,0.0324,0.013523,0.002678,0.000431,0.020567
110304000,0.0324,0.013523,0.002678,0.000431,0.022565
110305000,0.0324,0.013523,0.002678,0.000431,0.018099
110306000,0.0324,0.013523,0.002678,0.000431,0.017277
110307000,0.0324,0.013523,0.002678,0.000431,0.016101
110308000,0.0324,0.013523,0.002678,0.000431,0.018452
110309000,0.0324,0.013523,0.002678,0.000431,0.013751
110310000,0.0324,0.013523,0.002678,0.000431,0.018334
110311000,0.0324,0.013523,0.002678,0.000431,0.017042
110312000,0.0324,0.013523,0.002678,0.000431,0.011283
110313000,0.0324,0.013523,0.002678,0.000431,0.009637
110314000,0.0324,0.013523,0.002678,0.000431,0.010695
110315000,0.0324,0.013523,0.002678,0.000431,0.009990
110316000,0.0324,0.013523,0.002678,0.000431,0.006934
110317000,0.0324,0.013523,0.002678,0.000431,0.009402
110318000,0.0324,0.013523,0.002678,0.000431,0.007639
110319000,0.0324,0.013523,0.002678,0.000431,0.006699
110320000,0.0324,0.013523,0.002678,0.000431,0.005054
110321000,0.0324,0.013523,0.002678,0.000431,0.006347
110322000,0.0324,0.013523,0.002678,0.000431,0.005994
110323000,0.0324,0.013523,0.002678,0.000431,0.004113
110324000,0.0324,0.013523,0.002678,0.000431,0.004349
110325000,0.0324,0.013523,0.002678,0.000431,0.004231
110326000,0.0324,0.013523,0.002678,0.000431,0.004466
110327000,0.0324,0.013523,0.002678,0.000431,0.004113
110328000,0.0324,0.013523,0.002678,0.000431,0.007639
110329000,0.0324,0.013523,0.002678,0.000431,0.003761
110330000,0.0324,0.013523,0.002678,0.000431,0.001645
110331000,0.0324,0.013523,0.002678,0.000431,0.001645
110332000,0.0324,0.013523,0.002678,0.000431,0.001645
110333000,0.0324,0.013523,0.002678,0.000431,0.001880
110334000,0.0324,0.013523,0.002678,0.000431,0.001410
110335000,0.0324,0.013523,0.002678,0.000431,0.001645
110336000,0.0324,0.013523,0.002678,0.000431,0.001763
110337000,0.0324,0.013523,0.002678,0.000431,0.001763
110338000,0.0324,0.013523,0.002678,0.000431,0.001410
110339000,0.0324,0.013523,0.002678,0.000431,0.001645
110340000,0.0324,0.013523,0.002678,0.000431,0.001880
110341000,0.0324,0.013523,0.002678,0.000431,0.001645
110342000,0.0324,0.013523,0.002678,0.000431,0.001410
110343000,0.0324,0.013523,0.002678,0.000431,0.001880
110344000,0.0324,0.013523,0.002678,0.000431,0.001645
110345000,0.0324,0.013523,0.002678,0.000431,0.001645
110346000,0.0324,0.013523,0.002678,0.000431,0.001410
110347000,0.0324,0.013523,0.002678,0.000431,0.071927
110348000,0.0324,0.013523,0.002678,0.000431,0.672614
110349000,0.0324,0.013523,0.002678,0.000431,0.594928
110350000,0.0324,0.013523,0.002678,0.000431,0.139506
110351000,0.0324,0.013523,0.002678,0.000431,0.142797
110352000,0.0324,0.013523,0.002678,0.000431,0.575183
110353000,0.0324,0.013523,0.002678,0.000431,0.241873
110354000,0.0324,0.013523,0.002678,0.000431,0.268904
110355000,0.0324,0.013523,0.002678,0.000431,0.295583
110356000,0.0324,0.013523,0.002678,0.000431,0.149966
110357000,0.0324,0.013523,0.002678,0.000431,0.161366
110358000,0.0324,0.013523,0.002678,0.000431,0.163129
110359000,0.0324,0.013523,0.002678,0.000431,0.479750
110360000,0.0324,0.013523,0.002678,0.000431,0.188398
110361000,0.0324,0.013523,0.002678,0.000431,0.170768
110362000,0.0324,0.013523,0.002678,0.000431,0.153022
110363000,0.0324,0.013523,0.002678,0.000431,0.130691
110364000,0.0324,0.013523,0.002678,0.000431,0.124345
110365000,0.0324,0.013523,0.002678,0.000431,0.109654
110366000,0.0324,0.013523,0.002678,0.000431,0.092025
110367000,0.0324,0.013523,0.002678,0.000431,0.089674
110368000,0.0324,0.013523,0.002678,0.000431,0.078156
110369000,0.0324,0.013523,0.002678,0.000431,0.065816
110370000,0.0324,0.013523,0.002678,0.000431,0.066756
110371000,0.0324,0.013523,0.002678,0.000431,0.063818
110372000,0.0324,0.013523,0.002678,0.000431,0.063700
110373000,0.0324,0.013523,0.002678,0.000431,0.049949
110374000,0.0324,0.013523,0.002678,0.000431,0.045836
110375000,0.0324,0.013523,0.002678,0.000431,0.038079
110376000,0.0324,0.013523,0.002678,0.000431,0.033143
110377000,0.0324,0.013523,0.002678,0.000431,0.032555
110378000,0.0324,0.013523,0.002678,0.000431,0.028677
110379000,0.0324,0.013523,0.002678,0.000431,0.025386
110380000,0.0324,0.013523,0.002678,0.000431,0.025974
110381000,0.0324,0.013523,0.002678,0.000431,0.025974
110382000,0.0324,0.013523,0.002678,0.000431,0.021038
110383000,0.0324,0.013523,0.002678,0.000431,0.022095
110384000,0.0324,0.013523,0.002678,0.000431,0.020920
110385000,0.0324,0.013523,0.002678,0.000431,0.023153
110386000,0.0324,0.013523,0.002678,0.000431,0.013751
110387000,0.0324,0.013523,0.002678,0.000431,0.018805
110388000,0.0324,0.013523,0.002678,0.000431,0.012458
110389000,0.0324,0.013523,0.002678,0.000431,0.010930
110390000,0.0324,0.013523,0.002678,0.000431,0.012458
110391000,0.0324,0.013523,0.002678,0.000431,0.007639
110392000,0.0324,0.013523,0.002678,0.000431,0.009637
110393000,0.0324,0.013523,0.002678,0.000431,0.007522
110394000,0.0324,0.013523,0.002678,0.000431,0.005994
110395000,0.0324,0.013523,0.002678,0.000431,0.006817
110396000,0.0324,0.013523,0.002678,0.000431,0.006817
110397000,0.0324,0.013523,0.002678,0.000431,0.004113
110398000,0.0324,0.013523,0.002678,0.000431,0.006229
110399000,0.0324,0.013523,0.002678,0.000431,0.002703
110400000,0.0324,0.013523,0.002678,0.000431,0.002351
110401000,0.0324,0.013523,0.002678,0.000431,0.002821
110402000,0.0324,0.013523,0.002678,0.000431,0.002586
110403000,0.0324,0.013523,0.002678,0.000431,0.005406
110404000,0.0324,0.013523,0.002678,0.000431,0.001763
110405000,0.0324,0.013523,0.002678,0.000431,0.004349
110406000,0.0324,0.013523,0.002678,0.000431,0.000940
110407000,0.0324,0.013523,0.002678,0.000431,0.000705
110408000,0.0324,0.013523,0.002678,0.000431,0.233176
110409000,0.0324,0.013523,0.002678,0.000431,0.669676
110410000,0.0324,0.013523,0.002678,0.000431,0.428038
110411000,0.0324,0.013523,0.002678,0.000431,0.132102
110412000,0.0324,0.013523,0.002678,0.000431,0.145500
110413000,0.0324,0.013523,0.002678,0.000431,0.584115
110414000,0.0324,0.013523,0.002678,0.000431,0.259267
110415000,0.0324,0.013523,0.002678,0.000431,0.266554
110416000,0.0324,0.013523,0.002678,0.000431,0.234821
110417000,0.0324,0.013523,0.002678,0.000431,0.146910
110418000,0.0324,0.013523,0.002678,0.000431,0.152199
110419000,0.0324,0.013523,0.002678,0.000431,0.225184
110420000,0.0324,0.013523,0.002678,0.000431,0.424512
110421000,0.0324,0.013523,0.002678,0.000431,0.161954
110422000,0.0324,0.013523,0.002678,0.000431,0.153139
110423000,0.0324,0.013523,0.002678,0.000431,0.138331
110424000,0.0324,0.013523,0.002678,0.000431,0.120466
110425000,0.0324,0.013523,0.002678,0.000431,0.112827
110426000,0.0324,0.013523,0.002678,0.000431,0.103190
110427000,0.0324,0.013523,0.002678,0.000431,0.097666
110428000,0.0324,0.013523,0.002678,0.000431,0.084033
110429000,0.0324,0.013523,0.002678,0.000431,0.076158
110430000,0.0324,0.013523,0.002678,0.000431,0.063583
110431000,0.0324,0.013523,0.002678,0.000431,0.059704
110432000,0.0324,0.013523,0.002678,0.000431,0.053945
110433000,0.0324,0.013523,0.002678,0.000431,0.049009
110434000,0.0324,0.013523,0.002678,0.000431,0.039137
110435000,0.0324,0.013523,0.002678,0.000431,0.038667
110436000,0.0324,0.013523,0.002678,0.000431,0.037021
110437000,0.0324,0.013523,0.002678,0.000431,0.031615
110438000,0.0324,0.013523,0.002678,0.000431,0.029147
110439000,0.0324,0.013523,0.002678,0.000431,0.022800
110440000,0.0324,0.013523,0.002678,0.000431,0.022683
110441000,0.0324,0.013523,0.002678,0.000431,0.023741
110442000,0.0324,0.013523,0.002678,0.000431,0.025504
110443000,0.0324,0.013523,0.002678,0.000431,0.017159
110444000,0.0324,0.013523,0.002678,0.000431,0.015396
110445000,0.0324,0.013523,0.002678,0.000431,0.015161
110446000,0.0324,0.013523,0.002678,0.000431,0.013868
110447000,0.0324,0.013523,0.002678,0.000431,0.015514
110448000,0.0324,0.013523,0.002678,0.000431,0.014926
110449000,0.0324,0.013523,0.002678,0.000431,0.014338
110450000,0.0324,0.013523,0.002678,0.000431,0.013751
110451000,0.0324,0.013523,0.002678,0.000431,0.013751
110452000,0.0324,0.013523,0.002678,0.000431,0.008580
110453000,0.0324,0.013523,0.002678,0.000431,0.009637
110454000,0.0324,0.013523,0.002678,0.000431,0.005994
110455000,0.0324,0.013523,0.002678,0.000431,0.011400
110456000,0.0324,0.013523,0.002678,0.000431,0.006817
110457000,0.0324,0.013523,0.002678,0.000431,0.002703
110458000,0.0324,0.013523,0.002678,0.000431,0.002586
110459000,0.0324,0.013523,0.002678,0.000431,0.002351
110460000,0.0324,0.013523,0.002678,0.000431,0.002586
110461000,0.0324,0.013523,0.002678,0.000431,0.002703
110462000,0.0324,0.013523,0.002678,0.000431,0.004819
110463000,0.0324,0.013523,0.002678,0.000431,0.001528
110464000,0.0324,0.013523,0.002678,0.000431,0.001645
110465000,0.0324,0.013523,0.002678,0.000431,0.001880
110466000,0.0324,0.013523,0.002678,0.000431,0.001763
110467000,0.0324,0.013523,0.002678,0.000431,0.001645
110468000,0.0324,0.013523,0.002678,0.000431,0.001763
110469000,0.0324,0.013523,0.002678,0.000431,0.001645
110470000,0.0324,0.013523,0.002678,0.000431,0.005524
110471000,0.0324,0.013523,0.002678,0.000431,0.000823
110472000,0.0324,0.013523,0.002678,0.000431,0.000823
110473000,0.0324,0.013523,0.002678,0.000431,0.000940
110474000,0.0324,0.013523,0.002678,0.000431,0.000940
110475000,0.0324,0.013523,0.002678,0.000431,0.000940
110476000,0.0324,0.013523,0.002678,0.000431,0.000823
110477000,0.0324,0.013523,0.002678,0.000431,0.000823
110478000,0.0324,0.013523,0.002678,0.000431,0.000940
110479000,0.0324,0.013523,0.002678,0.000431,0.226242
110480000,0.0324,0.013523,0.002678,0.000431,0.581177
110481000,0.0324,0.013523,0.002678,0.000431,0.493501
110482000,0.0324,0.013523,0.002678,0.000431,0.134452
110483000,0.0324,0.013523,0.002678,0.000431,0.134217
110484000,0.0324,0.013523,0.002678,0.000431,0.595868
110485000,0.0324,0.013523,0.002678,0.000431,0.258915
110486000,0.0324,0.013523,0.002678,0.000431,0.277131
110487000,0.0324,0.013523,0.002678,0.000431,0.224479
110488000,0.0324,0.013523,0.002678,0.000431,0.151494
110489000,0.0324,0.013523,0.002678,0.000431,0.137390
110490000,0.0324,0.013523,0.002678,0.000431,0.240933
110491000,0.0324,0.013523,0.002678,0.000431,0.458007
110492000,0.0324,0.013523,0.002678,0.000431,0.192864
110493000,0.0324,0.013523,0.002678,0.000431,0.188163
110494000,0.0324,0.013523,0.002678,0.000431,0.168653
110495000,0.0324,0.013523,0.002678,0.000431,0.139859
110496000,0.0324,0.013523,0.002678,0.000431,0.121054
110497000,0.0324,0.013523,0.002678,0.000431,0.114120
110498000,0.0324,0.013523,0.002678,0.000431,0.092965
110499000,0.0324,0.013523,0.002678,0.000431,0.084268
110500000,0.0324,0.013523,0.002678,0.000431,0.079449
110501000,0.0324,0.013523,0.002678,0.000431,0.069107
110502000,0.0324,0.013523,0.002678,0.000431,0.058176
110503000,0.0324,0.013523,0.002678,0.000431,0.047599
110504000,0.0324,0.013523,0.002678,0.000431,0.046424
110505000,0.0324,0.013523,0.002678,0.000431,0.039254
110506000,0.0324,0.013523,0.002678,0.000431,0.034553
110507000,0.0324,0.013523,0.002678,0.000431,0.029147
110508000,0.0324,0.013523,0.002678,0.000431,0.030792
110509000,0.0324,0.013523,0.002678,0.000431,0.024916
110510000,0.0324,0.013523,0.002678,0.000431,0.016689
110511000,0.0324,0.013523,0.002678,0.000431,0.012928
110512000,0.0324,0.013523,0.002678,0.000431,0.013398
110513000,0.0324,0.013523,0.002678,0.000431,0.012105
110514000,0.0324,0.013523,0.002678,0.000431,0.011753
110515000,0.0324,0.013523,0.002678,0.000431,0.013516
110516000,0.0324,0.013523,0.002678,0.000431,0.010930
110517000,0.0324,0.013523,0.002678,0.000431,0.011048
110518000,0.0324,0.013523,0.002678,0.000431,0.011048
110519000,0.0324,0.013523,0.002678,0.000431,0.011048
110520000,0.0324,0.013523,0.002678,0.000431,0.009872
110521000,0.0324,0.013523,0.002678,0.000431,0.010930
110522000,0.0324,0.013523,0.002678,0.000431,0.012458
110523000,0.0324,0.013523,0.002678,0.000431,0.008462
110524000,0.0324,0.013523,0.002678,0.000431,0.009167
110525000,0.0324,0.013523,0.002678,0.000431,0.012928
110526000,0.0324,0.013523,0.002678,0.000431,0.007052
110527000,0.0324,0.013523,0.002678,0.000431,0.005876
110528000,0.0324,0.013523,0.002678,0.000431,0.005524
110529000,0.0324,0.013523,0.002678,0.000431,0.008109
110530000,0.0324,0.013523,0.002678,0.000431,0.005171
110531000,0.0324,0.013523,0.002678,0.000431,0.004113
110532000,0.0324,0.013523,0.002678,0.000431,0.004936
110533000,0.0324,0.013523,0.002678,0.000431,0.002468
110534000,0.0324,0.013523,0.002678,0.000431,0.002586
110535000,0.0324,0.013523,0.002678,0.000431,0.002468
110536000,0.0324,0.013523,0.002678,0.000431,0.002586
110537000,0.0324,0.013523,0.002678,0.000431,0.002586
110538000,0.0324,0.013523,0.002678,0.000431,0.002468
110539000,0.0324,0.013523,0.002678,0.000431,0.002586
110540000,0.0324,0.013523,0.002678,0.000431,0.003761
110541000,0.0324,0.013523,0.002678,0.000431,0.001763
110542000,0.0324,0.013523,0.002678,0.000431,0.001528
110543000,0.0324,0.013523,0.002678,0.000431,0.001763
110544000,0.0324,0.013523,0.002678,0.000431,0.001763
110545000,0.0324,0.013523,0.002678,0.000431,0.001528
110546000,0.0324,0.013523,0.002678,0.000431,0.001645
110547000,0.0324,0.013523,0.002678,0.000431,0.001763
110548000,0.0324,0.013523,0.002678,0.000431,0.001763
110549000,0.0324,0.013523,0.002678,0.000431,0.001410
110550000,0.0324,0.013523,0.002678,0.000431,0.001880
110551000,0.0324,0.013523,0.002678,0.000431,0.001645
110552000,0.0324,0.013523,0.002678,0.000431,0.001645
110553000,0.0324,0.013523,0.002678,0.000431,0.001763
110554000,0.0324,0.013523,0.002678,0.000431,0.001528
110555000,0.0324,0.013523,0.002678,0.000431,0.001880
110556000,0.0324,0.013523,0.002678,0.000431,0.001528
110557000,0.0324,0.013523,0.002678,0.000431,0.001763
110558000,0.0324,0.013523,0.002678,0.000431,0.001763
110559000,0.0324,0.013523,0.002678,0.000431,0.001528
110560000,0.0324,0.013523,0.002678,0.000431,0.001763
110561000,0.0324,0.013523,0.002678,0.000431,0.001645
110562000,0.0324,0.013523,0.002678,0.000431,0.001645
110563000,0.0324,0.013523,0.002678,0.000431,0.001645
110564000,0.0324,0.013523,0.002678,0.000431,0.001763
110565000,0.0324,0.013523,0.002678,0.000431,0.001528
110566000,0.0324,0.013523,0.002678,0.000431,0.001645
110567000,0.0324,0.013523,0.002678,0.000431,0.001880
110568000,0.0324,0.013523,0.002678,0.000431,0.001528
110569000,0.0324,0.013523,0.002678,0.000431,0.001528
110570000,0.0324,0.013523,0.002678,0.000431,0.001880
110571000,0.0324,0.013523,0.002678,0.000431,0.001528
110572000,0.0324,0.013523,0.002678,0.000431,0.001763
110573000,0.0324,0.013523,0.002678,0.000431,0.001763
110574000,0.0324,0.013523,0.002678,0.000431,0.001645
110575000,0.0324,0.013523,0.002678,0.000431,0.001880
110576000,0.0324,0.013523,0.002678,0.000431,0.004936
110577000,0.0324,0.013523,0.002678,0.000431,0.001058
110578000,0.0324,0.013523,0.002678,0.000431,0.000940
110579000,0.0324,0.013523,0.002678,0.000431,0.000940
110580000,0.0324,0.013523,0.002678,0.000431,0.000823
110581000,0.0324,0.013523,0.002678,0.000431,0.000823
110582000,0.0324,0.013523,0.002678,0.000431,0.000940
110583000,0.0324,0.013523,0.002678,0.000431,0.184167
110584000,0.0324,0.013523,0.002678,0.000431,0.629128
110585000,0.0324,0.013523,0.002678,0.000431,0.522060
110586000,0.0324,0.013523,0.002678,0.000431,0.140564
110587000,0.0324,0.013523,0.002678,0.000431,0.147380
110588000,0.0324,0.013523,0.002678,0.000431,0.602920
110589000,0.0324,0.013523,0.002678,0.000431,0.258209
110590000,0.0324,0.013523,0.002678,0.000431,0.301107
110591000,0.0324,0.013523,0.002678,0.000431,0.215547
110592000,0.0324,0.013523,0.002678,0.000431,0.152787
110593000,0.0324,0.013523,0.002678,0.000431,0.115413
110594000,0.0324,0.013523,0.002678,0.000431,0.342595
110595000,0.0324,0.013523,0.002678,0.000431,0.394307
110596000,0.0324,0.013523,0.002678,0.000431,0.194744
110597000,0.0324,0.013523,0.002678,0.000431,0.162306
110598000,0.0324,0.013523,0.002678,0.000431,0.145265
110599000,0.0324,0.013523,0.002678,0.000431,0.124815
110600000,0.0324,0.013523,0.002678,0.000431,0.121407
110601000,0.0324,0.013523,0.002678,0.000431,0.088499
110602000,0.0324,0.013523,0.002678,0.000431,0.090497
110603000,0.0324,0.013523,0.002678,0.000431,0.086736
110604000,0.0324,0.013523,0.002678,0.000431,0.061232
110605000,0.0324,0.013523,0.002678,0.000431,0.067814
110606000,0.0324,0.013523,0.002678,0.000431,0.053593
110607000,0.0324,0.013523,0.002678,0.000431,0.050302
110608000,0.0324,0.013523,0.002678,0.000431,0.044191
110609000,0.0324,0.013523,0.002678,0.000431,0.045013
110610000,0.0324,0.013523,0.002678,0.000431,0.033260
110611000,0.0324,0.013523,0.002678,0.000431,0.027502
110612000,0.0324,0.013523,0.002678,0.000431,0.027267
110613000,0.0324,0.013523,0.002678,0.000431,0.028207
110614000,0.0324,0.013523,0.002678,0.000431,0.025856
110615000,0.0324,0.013523,0.002678,0.000431,0.020567
110616000,0.0324,0.013523,0.002678,0.000431,0.019275
110617000,0.0324,0.013523,0.002678,0.000431,0.018687
110618000,0.0324,0.013523,0.002678,0.000431,0.018569
110619000,0.0324,0.013523,0.002678,0.000431,0.014809
110620000,0.0324,0.013523,0.002678,0.000431,0.019157
110621000,0.0324,0.013523,0.002678,0.000431,0.015749
110622000,0.0324,0.013523,0.002678,0.000431,0.014103
110623000,0.0324,0.013523,0.002678,0.000431,0.014809
110624000,0.0324,0.013523,0.002678,0.000431,0.013281
110625000,0.0324,0.013523,0.002678,0.000431,0.007052
110626000,0.0324,0.013523,0.002678,0.000431,0.006229
110627000,0.0324,0.013523,0.002678,0.000431,0.006464
110628000,0.0324,0.013523,0.002678,0.000431,0.006347
110629000,0.0324,0.013523,0.002678,0.000431,0.005406
110630000,0.0324,0.013523,0.002678,0.000431,0.008580
110631000,0.0324,0.013523,0.002678,0.000431,0.005171
110632000,0.0324,0.013523,0.002678,0.000431,0.004936
110633000,0.0324,0.013523,0.002678,0.000431,0.005289
110634000,0.0324,0.013523,0.002678,0.000431,0.006347
110635000,0.0324,0.013523,0.002678,0.000431,0.004231
110636000,0.0324,0.013523,0.002678,0.000431,0.004349
110637000,0.0324,0.013523,0.002678,0.000431,0.004113
110638000,0.0324,0.013523,0.002678,0.000431,0.007052
110639000,0.0324,0.013523,0.002678,0.000431,0.002586
110640000,0.0324,0.013523,0.002678,0.000431,0.002586
110641000,0.0324,0.013523,0.002678,0.000431,0.002586
110642000,0.0324,0.013523,0.002678,0.000431,0.002586
110643000,0.0324,0.013523,0.002678,0.000431,0.002468
110644000,0.0324,0.013523,0.002678,0.000431,0.002821
110645000,0.0324,0.013523,0.002678,0.000431,0.007522
110646000,0.0324,0.013523,0.002678,0.000431,0.128576
110647000,0.0324,0.013523,0.002678,0.000431,0.683309
110648000,0.0324,0.013523,0.002678,0.000431,0.549327
110649000,0.0324,0.013523,0.002678,0.000431,0.150201
110650000,0.0324,0.013523,0.002678,0.000431,0.136568
110651000,0.0324,0.013523,0.002678,0.000431,0.589874
110652000,0.0324,0.013523,0.002678,0.000431,0.234116
110653000,0.0324,0.013523,0.002678,0.000431,0.305338
110654000,0.0324,0.013523,0.002678,0.000431,0.223891
110655000,0.0324,0.013523,0.002678,0.000431,0.140564
110656000,0.0324,0.013523,0.002678,0.000431,0.189338
110657000,0.0324,0.013523,0.002678,0.000431,0.085443
110658000,0.0324,0.013523,0.002678,0.000431,0.490445
110659000,0.0324,0.013523,0.002678,0.000431,0.184872
110660000,0.0324,0.013523,0.002678,0.000431,0.126225
110661000,0.0324,0.013523,0.002678,0.000431,0.117411
110662000,0.0324,0.013523,0.002678,0.000431,0.099429
110663000,0.0324,0.013523,0.002678,0.000431,0.087088
110664000,0.0324,0.013523,0.002678,0.000431,0.078979
110665000,0.0324,0.013523,0.002678,0.000431,0.069224
110666000,0.0324,0.013523,0.002678,0.000431,0.062878
110667000,0.0324,0.013523,0.002678,0.000431,0.056296
110668000,0.0324,0.013523,0.002678,0.000431,0.047599
110669000,0.0324,0.013523,0.002678,0.000431,0.036551
110670000,0.0324,0.013523,0.002678,0.000431,0.049127
110671000,0.0324,0.013523,0.002678,0.000431,0.031968
110672000,0.0324,0.013523,0.002678,0.000431,0.027267
110673000,0.0324,0.013523,0.002678,0.000431,0.026561
110674000,0.0324,0.013523,0.002678,0.000431,0.025974
110675000,0.0324,0.013523,0.002678,0.000431,0.021273
110676000,0.0324,0.013523,0.002678,0.000431,0.016924
110677000,0.0324,0.013523,0.002678,0.000431,0.019862
110678000,0.0324,0.013523,0.002678,0.000431,0.019040
110679000,0.0324,0.013523,0.002678,0.000431,0.010225
110680000,0.0324,0.013523,0.002678,0.000431,0.008462
110681000,0.0324,0.013523,0.002678,0.000431,0.009872
110682000,0.0324,0.013523,0.002678,0.000431,0.009520
110683000,0.0324,0.013523,0.002678,0.000431,0.010107
110684000,0.0324,0.013523,0.002678,0.000431,0.011400
110685000,0.0324,0.013523,0.002678,0.000431,0.010107
110686000,0.0324,0.013523,0.002678,0.000431,0.008227
110687000,0.0324,0.013523,0.002678,0.000431,0.007639
110688000,0.0324,0.013523,0.002678,0.000431,0.009872
110689000,0.0324,0.013523,0.002678,0.000431,0.009050
110690000,0.0324,0.013523,0.002678,0.000431,0.007169
110691000,0.0324,0.013523,0.002678,0.000431,0.006464
110692000,0.0324,0.013523,0.002678,0.000431,0.004584
110693000,0.0324,0.013523,0.002678,0.000431,0.004349
110694000,0.0324,0.013523,0.002678,0.000431,0.008815
110695000,0.0324,0.013523,0.002678,0.000431,0.004936
110696000,0.0324,0.013523,0.002678,0.000431,0.001763
110697000,0.0324,0.013523,0.002678,0.000431,0.001410
110698000,0.0324,0.013523,0.002678,0.000431,0.001645
110699000,0.0324,0.013523,0.002678,0.000431,0.001293
110700000,0.0324,0.013523,0.002678,0.000431,0.001763
110701000,0.0324,0.013523,0.002678,0.000431,0.001880
110702000,0.0324,0.013523,0.002678,0.000431,0.001175
110703000,0.0324,0.013523,0.002678,0.000431,0.001880
110704000,0.0324,0.013523,0.002678,0.000431,0.001293
110705000,0.0324,0.013523,0.002678,0.000431,0.001763
110706000,0.0324,0.013523,0.002678,0.000431,0.001645
110707000,0.0324,0.013523,0.002678,0.000431,0.001410
110708000,0.0324,0.013523,0.002678,0.000431,0.001410
110709000,0.0324,0.013523,0.002678,0.000431,0.001410
110710000,0.0324,0.013523,0.002678,0.000431,0.001880
110711000,0.0324,0.013523,0.002678,0.000431,0.001645
110712000,0.0324,0.013523,0.002678,0.000431,0.001645
110713000,0.0324,0.013523,0.002678,0.000431,0.225889
110714000,0.0324,0.013523,0.002678,0.000431,0.686012
110715000,0.0324,0.013523,0.002678,0.000431,0.376913
110716000,0.0324,0.013523,0.002678,0.000431,0.132102
110717000,0.0324,0.013523,0.002678,0.000431,0.153374
110718000,0.0324,0.013523,0.002678,0.000431,0.644407
110719000,0.0324,0.013523,0.002678,0.000431,0.234939
110720000,0.0324,0.013523,0.002678,0.000431,0.304868
110721000,0.0324,0.013523,0.002678,0.000431,0.214959
110722000,0.0324,0.013523,0.002678,0.000431,0.145265
110723000,0.0324,0.013523,0.002678,0.000431,0.123405
110724000,0.0324,0.013523,0.002678,0.000431,0.329549
110725000,0.0324,0.013523,0.002678,0.000431,0.330254
110726000,0.0324,0.013523,0.002678,0.000431,0.130691
110727000,0.0324,0.013523,0.002678,0.000431,0.118116
110728000,0.0324,0.013523,0.002678,0.000431,0.105070
110729000,0.0324,0.013523,0.002678,0.000431,0.096256
110730000,0.0324,0.013523,0.002678,0.000431,0.084738
110731000,0.0324,0.013523,0.002678,0.000431,0.070634
110732000,0.0324,0.013523,0.002678,0.000431,0.067461
110733000,0.0324,0.013523,0.002678,0.000431,0.049009
110734000,0.0324,0.013523,0.002678,0.000431,0.048657
110735000,0.0324,0.013523,0.002678,0.000431,0.036904
110736000,0.0324,0.013523,0.002678,0.000431,0.028089
110737000,0.0324,0.013523,0.002678,0.000431,0.030792
110738000,0.0324,0.013523,0.002678,0.000431,0.021390
110739000,0.0324,0.013523,0.002678,0.000431,0.019627
110740000,0.0324,0.013523,0.002678,0.000431,0.020332
110741000,0.0324,0.013523,0.002678,0.000431,0.013398
110742000,0.0324,0.013523,0.002678,0.000431,0.015279
110743000,0.0324,0.013523,0.002678,0.000431,0.003526
110744000,0.0324,0.013523,0.002678,0.000431,0.318031
110745000,0.0324,0.013523,0.002678,0.000431,0.682251
110746000,0.0324,0.013523,0.002678,0.000431,0.270902
110747000,0.0324,0.013523,0.002678,0.000431,0.133042
110748000,0.0324,0.013523,0.002678,0.000431,0.141974
110749000,0.0324,0.013523,0.002678,0.000431,0.578826
110750000,0.0324,0.013523,0.002678,0.000431,0.237995
110751000,0.0324,0.013523,0.002678,0.000431,0.310509
110752000,0.0324,0.013523,0.002678,0.000431,0.228122
110753000,0.0324,0.013523,0.002678,0.000431,0.156312
110754000,0.0324,0.013523,0.002678,0.000431,0.132454
110755000,0.0324,0.013523,0.002678,0.000431,0.239522
110756000,0.0324,0.013523,0.002678,0.000431,0.420751
110757000,0.0324,0.013523,0.002678,0.000431,0.155372
110758000,0.0324,0.013523,0.002678,0.000431,0.138801
110759000,0.0324,0.013523,0.002678,0.000431,0.132807
110760000,0.0324,0.013523,0.002678,0.000431,0.116118
110761000,0.0324,0.013523,0.002678,0.000431,0.102837
110762000,0.0324,0.013523,0.002678,0.000431,0.101192
110763000,0.0324,0.013523,0.002678,0.000431,0.089086
110764000,0.0324,0.013523,0.002678,0.000431,0.070752
110765000,0.0324,0.013523,0.002678,0.000431,0.069694
110766000,0.0324,0.013523,0.002678,0.000431,0.068519
110767000,0.0324,0.013523,0.002678,0.000431,0.052418
110768000,0.0324,0.013523,0.002678,0.000431,0.053593
110769000,0.0324,0.013523,0.002678,0.000431,0.044661
110770000,0.0324,0.013523,0.002678,0.000431,0.037727
110771000,0.0324,0.013523,0.002678,0.000431,0.038784
110772000,0.0324,0.013523,0.002678,0.000431,0.030557
110773000,0.0324,0.013523,0.002678,0.000431,0.034671
110774000,0.0324,0.013523,0.002678,0.000431,0.028207
110775000,0.0324,0.013523,0.002678,0.000431,0.027972
110776000,0.0324,0.013523,0.002678,0.000431,0.019040
110777000,0.0324,0.013523,0.002678,0.000431,0.019275
110778000,0.0324,0.013523,0.002678,0.000431,0.017982
110779000,0.0324,0.013523,0.002678,0.000431,0.011165
110780000,0.0324,0.013523,0.002678,0.000431,0.011635
110781000,0.0324,0.013523,0.002678,0.000431,0.009990
110782000,0.0324,0.013523,0.002678,0.000431,0.007522
110783000,0.0324,0.013523,0.002678,0.000431,0.009167
110784000,0.0324,0.013523,0.002678,0.000431,0.009167
110785000,0.0324,0.013523,0.002678,0.000431,0.003996
110786000,0.0324,0.013523,0.002678,0.000431,0.004701
110787000,0.0324,0.013523,0.002678,0.000431,0.004349
110788000,0.0324,0.013523,0.002678,0.000431,0.004113
110789000,0.0324,0.013523,0.002678,0.000431,0.005994
110790000,0.0324,0.013523,0.002678,0.000431,0.003526
110791000,0.0324,0.013523,0.002678,0.000431,0.003408
110792000,0.0324,0.013523,0.002678,0.000431,0.003408
110793000,0.0324,0.013523,0.002678,0.000431,0.003408
110794000,0.0324,0.013523,0.002678,0.000431,0.003526
110795000,0.0324,0.013523,0.002678,0.000431,0.005641
110796000,0.0324,0.013523,0.002678,0.000431,0.002468
110797000,0.0324,0.013523,0.002678,0.000431,0.002586
110798000,0.0324,0.013523,0.002678,0.000431,0.005876
110799000,0.0324,0.013523,0.002678,0.000431,0.001645
110800000,0.0324,0.013523,0.002678,0.000431,0.001645
110801000,0.0324,0.013523,0.002678,0.000431,0.005524
110802000,0.0324,0.013523,0.002678,0.000431,0.464236
110803000,0.0324,0.013523,0.002678,0.000431,0.729732
110804000,0.0324,0.013523,0.002678,0.000431,0.143854
110805000,0.0324,0.013523,0.002678,0.000431,0.133982
110806000,0.0324,0.013523,0.002678,0.000431,0.329196
110807000,0.0324,0.013523,0.002678,0.000431,0.485039
110808000,0.0324,0.013523,0.002678,0.000431,0.227887
110809000,0.0324,0.013523,0.002678,0.000431,0.323790
110810000,0.0324,0.013523,0.002678,0.000431,0.142914
110811000,0.0324,0.013523,0.002678,0.000431,0.164422
110812000,0.0324,0.013523,0.002678,0.000431,0.109654
110813000,0.0324,0.013523,0.002678,0.000431,0.454246
110814000,0.0324,0.013523,0.002678,0.000431,0.270432
110815000,0.0324,0.013523,0.002678,0.000431,0.173707
110816000,0.0324,0.013523,0.002678,0.000431,0.164304
110817000,0.0324,0.013523,0.002678,0.000431,0.128106
110818000,0.0324,0.013523,0.002678,0.000431,0.120114
110819000,0.0324,0.013523,0.002678,0.000431,0.108479
110820000,0.0324,0.013523,0.002678,0.000431,0.084855
110821000,0.0324,0.013523,0.002678,0.000431,0.078509
110822000,0.0324,0.013523,0.002678,0.000431,0.055591
110823000,0.0324,0.013523,0.002678,0.000431,0.055943
110824000,0.0324,0.013523,0.002678,0.000431,0.052770
110825000,0.0324,0.013523,0.002678,0.000431,0.047011
110826000,0.0324,0.013523,0.002678,0.000431,0.048069
110827000,0.0324,0.013523,0.002678,0.000431,0.048774
110828000,0.0324,0.013523,0.002678,0.000431,0.026091
110829000,0.0324,0.013523,0.002678,0.000431,0.029265
110830000,0.0324,0.013523,0.002678,0.000431,0.028089
110831000,0.0324,0.013523,0.002678,0.000431,0.023623
110832000,0.0324,0.013523,0.002678,0.000431,0.024798
110833000,0.0324,0.013523,0.002678,0.000431,0.018687
110834000,0.0324,0.013523,0.002678,0.000431,0.014809
110835000,0.0324,0.013523,0.002678,0.000431,0.015161
110836000,0.0324,0.013523,0.002678,0.000431,0.015984
110837000,0.0324,0.013523,0.002678,0.000431,0.007639
110838000,0.0324,0.013523,0.002678,0.000431,0.014103
110839000,0.0324,0.013523,0.002678,0.000431,0.005994
110840000,0.0324,0.013523,0.002678,0.000431,0.006582
110841000,0.0324,0.013523,0.002678,0.000431,0.006347
110842000,0.0324,0.013523,0.002678,0.000431,0.005994
110843000,0.0324,0.013523,0.002678,0.000431,0.006934
110844000,0.0324,0.013523,0.002678,0.000431,0.006464
110845000,0.0324,0.013523,0.002678,0.000431,0.008462
110846000,0.0324,0.013523,0.002678,0.000431,0.005994
110847000,0.0324,0.013523,0.002678,0.000431,0.008697
110848000,0.0324,0.013523,0.002678,0.000431,0.007169
110849000,0.0324,0.013523,0.002678,0.000431,0.003056
110850000,0.0324,0.013523,0.002678,0.000431,0.006464
110851000,0.0324,0.013523,0.002678,0.000431,0.001763
110852000,0.0324,0.013523,0.002678,0.000431,0.004349
110853000,0.0324,0.013523,0.002678,0.000431,0.000823
110854000,0.0324,0.013523,0.002678,0.000431,0.000823
110855000,0.0324,0.013523,0.002678,0.000431,0.000823
110856000,0.0324,0.013523,0.002678,0.000431,0.000823
110857000,0.0324,0.013523,0.002678,0.000431,0.000705
110858000,0.0324,0.013523,0.002678,0.000431,0.000940
110859000,0.0324,0.013523,0.002678,0.000431,0.000705
110860000,0.0324,0.013523,0.002678,0.000431,0.000940
110861000,0.0324,0.013523,0.002678,0.000431,0.000705
110862000,0.0324,0.013523,0.002678,0.000431,0.000940
110863000,0.0324,0.013523,0.002678,0.000431,0.000823
110864000,0.0324,0.013523,0.002678,0.000431,0.000823
110865000,0.0324,0.013523,0.002678,0.000431,0.000823
110866000,0.0324,0.013523,0.002678,0.000431,0.000823
110867000,0.0324,0.013523,0.002678,0.000431,0.000940
110868000,0.0324,0.013523,0.002678,0.000431,0.000823
110869000,0.0324,0.013523,0.002678,0.000431,0.000823
110870000,0.0324,0.013523,0.002678,0.000431,0.000705
110871000,0.0324,0.013523,0.002678,0.000431,0.000940
110872000,0.0324,0.013523,0.002678,0.000431,0.000705
110873000,0.0324,0.013523,0.002678,0.000431,0.000940
110874000,0.0324,0.013523,0.002678,0.000431,0.000823
110875000,0.0324,0.013523,0.002678,0.000431,0.000823
110876000,0.0324,0.013523,0.002678,0.000431,0.000823
110877000,0.0324,0.013523,0.002678,0.000431,0.000823
110878000,0.0324,0.013523,0.002678,0.000431,0.000940
110879000,0.0324,0.013523,0.002678,0.000431,0.000823
110880000,0.0324,0.013523,0.002678,0.000431,0.000823
110881000,0.0324,0.013523,0.002678,0.000431,0.000940
110882000,0.0324,0.013523,0.002678,0.000431,0.264203
110883000,0.0324,0.013523,0.002678,0.000431,0.706579
110884000,0.0324,0.013523,0.002678,0.000431,0.372212
110885000,0.0324,0.013523,0.002678,0.000431,0.152081
110886000,0.0324,0.013523,0.002678,0.000431,0.225889
110887000,0.0324,0.013523,0.002678,0.000431,0.601274
110888000,0.0324,0.013523,0.002678,0.000431,0.243636
110889000,0.0324,0.013523,0.002678,0.000431,0.384317
110890000,0.0324,0.013523,0.002678,0.000431,0.171944
110891000,0.0324,0.013523,0.002678,0.000431,0.170298
110892000,0.0324,0.013523,0.002678,0.000431,0.087323
110893000,0.0324,0.013523,0.002678,0.000431,0.497027
110894000,0.0324,0.013523,0.002678,0.000431,0.200150
110895000,0.0324,0.013523,0.002678,0.000431,0.158428
110896000,0.0324,0.013523,0.002678,0.000431,0.146793
110897000,0.0324,0.013523,0.002678,0.000431,0.120114
110898000,0.0324,0.013523,0.002678,0.000431,0.106481
110899000,0.0324,0.013523,0.002678,0.000431,0.089909
110900000,0.0324,0.013523,0.002678,0.000431,0.089086
110901000,0.0324,0.013523,0.002678,0.000431,0.066991
110902000,0.0324,0.013523,0.002678,0.000431,0.074160
110903000,0.0324,0.013523,0.002678,0.000431,0.064758
110904000,0.0324,0.013523,0.002678,0.000431,0.052300
110905000,0.0324,0.013523,0.002678,0.000431,0.048187
110906000,0.0324,0.013523,0.002678,0.000431,0.036316
110907000,0.0324,0.013523,0.002678,0.000431,0.035258
110908000,0.0324,0.013523,0.002678,0.000431,0.041252
110909000,0.0324,0.013523,0.002678,0.000431,0.033378
110910000,0.0324,0.013523,0.002678,0.000431,0.027384
110911000,0.0324,0.013523,0.002678,0.000431,0.018452
110912000,0.0324,0.013523,0.002678,0.000431,0.018687
110913000,0.0324,0.013523,0.002678,0.000431,0.023976
110914000,0.0324,0.013523,0.002678,0.000431,0.019745
110915000,0.0324,0.013523,0.002678,0.000431,0.013516
110916000,0.0324,0.013523,0.002678,0.000431,0.012693
110917000,0.0324,0.013523,0.002678,0.000431,0.014691
110918000,0.0324,0.013523,0.002678,0.000431,0.010930
110919000,0.0324,0.013523,0.002678,0.000431,0.015631
110920000,0.0324,0.013523,0.002678,0.000431,0.008227
110921000,0.0324,0.013523,0.002678,0.000431,0.007522
110922000,0.0324,0.013523,0.002678,0.000431,0.009285
110923000,0.0324,0.013523,0.002678,0.000431,0.007287
110924000,0.0324,0.013523,0.002678,0.000431,0.003761
110925000,0.0324,0.013523,0.002678,0.000431,0.002116
110926000,0.0324,0.013523,0.002678,0.000431,0.457185
110927000,0.0324,0.013523,0.002678,0.000431,0.729732
110928000,0.0324,0.013523,0.002678,0.000431,0.154079
110929000,0.0324,0.013523,0.002678,0.000431,0.148438
110930000,0.0324,0.013523,0.002678,0.000431,0.251510
110931000,0.0324,0.013523,0.002678,0.000431,0.560844
110932000,0.0324,0.013523,0.002678,0.000431,0.249630
110933000,0.0324,0.013523,0.002678,0.000431,0.352349
110934000,0.0324,0.013523,0.002678,0.000431,0.143737
110935000,0.0324,0.013523,0.002678,0.000431,0.147498
110936000,0.0324,0.013523,0.002678,0.000431,0.102367
110937000,0.0324,0.013523,0.002678,0.000431,0.465177
110938000,0.0324,0.013523,0.002678,0.000431,0.254096
110939000,0.0324,0.013523,0.002678,0.000431,0.161014
110940000,0.0324,0.013523,0.002678,0.000431,0.140799
110941000,0.0324,0.013523,0.002678,0.000431,0.130104
110942000,0.0324,0.013523,0.002678,0.000431,0.108831
110943000,0.0324,0.013523,0.002678,0.000431,0.095198
110944000,0.0324,0.013523,0.002678,0.000431,0.086618
110945000,0.0324,0.013523,0.002678,0.000431,0.070987
110946000,0.0324,0.013523,0.002678,0.000431,0.064053
110947000,0.0324,0.013523,0.002678,0.000431,0.058647
110948000,0.0324,0.013523,0.002678,0.000431,0.049714
110949000,0.0324,0.013523,0.002678,0.000431,0.054298
110950000,0.0324,0.013523,0.002678,0.000431,0.046071
110951000,0.0324,0.013523,0.002678,0.000431,0.035141
110952000,0.0324,0.013523,0.002678,0.000431,0.025856
110953000,0.0324,0.013523,0.002678,0.000431,0.024328
110954000,0.0324,0.013523,0.002678,0.000431,0.027149
110955000,0.0324,0.013523,0.002678,0.000431,0.019627
110956000,0.0324,0.013523,0.002678,0.000431,0.024681
110957000,0.0324,0.013523,0.002678,0.000431,0.019862
110958000,0.0324,0.013523,0.002678,0.000431,0.022095
110959000,0.0324,0.013523,0.002678,0.000431,0.009637
110960000,0.0324,0.013523,0.002678,0.000431,0.008697
110961000,0.0324,0.013523,0.002678,0.000431,0.010578
110962000,0.0324,0.013523,0.002678,0.000431,0.007992
110963000,0.0324,0.013523,0.002678,0.000431,0.005289
110964000,0.0324,0.013523,0.002678,0.000431,0.005289
110965000,0.0324,0.013523,0.002678,0.000431,0.005876
110966000,0.0324,0.013523,0.002678,0.000431,0.007874
110967000,0.0324,0.013523,0.002678,0.000431,0.003408
110968000,0.0324,0.013523,0.002678,0.000431,0.003643
110969000,0.0324,0.013523,0.002678,0.000431,0.003408
110970000,0.0324,0.013523,0.002678,0.000431,0.003643
110971000,0.0324,0.013523,0.002678,0.000431,0.007404
110972000,0.0324,0.013523,0.002678,0.000431,0.001880
110973000,0.0324,0.013523,0.002678,0.000431,0.003996
110974000,0.0324,0.013523,0.002678,0.000431,0.000823
110975000,0.0324,0.013523,0.002678,0.000431,0.000823
110976000,0.0324,0.013523,0.002678,0.000431,0.235644
110977000,0.0324,0.013523,0.002678,0.000431,0.656865
110978000,0.0324,0.013523,0.002678,0.000431,0.431681
110979000,0.0324,0.013523,0.002678,0.000431,0.132572
110980000,0.0324,0.013523,0.002678,0.000431,0.134922
110981000,0.0324,0.013523,0.002678,0.000431,0.586818
110982000,0.0324,0.013523,0.002678,0.000431,0.232001
110983000,0.0324,0.013523,0.002678,0.000431,0.307689
110984000,0.0324,0.013523,0.002678,0.000431,0.213666
110985000,0.0324,0.013523,0.002678,0.000431,0.139623
110986000,0.0324,0.013523,0.002678,0.000431,0.177585
110987000,0.0324,0.013523,0.002678,0.000431,0.129516
110988000,0.0324,0.013523,0.002678,0.000431,0.483041
110989000,0.0324,0.013523,0.002678,0.000431,0.212373
110990000,0.0324,0.013523,0.002678,0.000431,0.169476
110991000,0.0324,0.013523,0.002678,0.000431,0.156548
110992000,0.0324,0.013523,0.002678,0.000431,0.143619
110993000,0.0324,0.013523,0.002678,0.000431,0.120819
110994000,0.0324,0.013523,0.002678,0.000431,0.117998
110995000,0.0324,0.013523,0.002678,0.000431,0.098841
110996000,0.0324,0.013523,0.002678,0.000431,0.091672
110997000,0.0324,0.013523,0.002678,0.000431,0.091319
110998000,0.0324,0.013523,0.002678,0.000431,0.077569
110999000,0.0324,0.013523,0.002678,0.000431,0.059469
